Data from Ofra_PP_Phys_2CX12S_Reflection_1.txt Node
Date: Sat Jul 24 20:04:03 EDT 2021
User: USUARIO
Spectrometer: FLMT01687
Trigger mode: 0
Integration Time (sec): 1.100000E0
Scans to average: 2
Electric dark correction enabled: true
Nonlinearity correction enabled: false
Boxcar width: 2
XAxis mode: Wavelengths
Number of Pixels in Spectrum: 3648
>>>>>Begin Spectral Data<<<<<
179.494	468.59
179.716	600.35
179.937	1031.65
180.158	865.1
180.38	389.2
180.601	-458.72
180.823	124.08
181.044	-182.95
181.265	55.63
181.486	-2.18
181.708	37.85
181.929	-2021.33
182.15	406.43
182.372	37.09
182.593	12266.67
182.814	-174.36
183.035	96.45
183.257	101.91
183.478	36.37
183.699	106.67
183.92	104.4
184.141	106.97
184.363	47.09
184.584	88.14
184.805	51.86
185.026	54.99
185.247	63.17
185.468	45.74
185.689	40.45
185.91	46.11
186.132	59.06
186.353	31.19
186.574	58.18
186.795	72.65
187.016	20.4
187.237	40.6
187.458	54.67
187.679	47.41
187.9	62.14
188.121	107.35
188.342	90.17
188.563	85.61
188.784	97.44
189.005	82.35
189.226	65.59
189.447	54.25
189.667	61.95
189.888	55.49
190.109	49.7
190.33	62.65
190.551	43.4
190.772	38.71
190.993	6.95
191.214	17.06
191.434	-2.67
191.655	36.56
191.876	21.66
192.097	42
192.318	46.6
192.538	29.54
192.759	23.89
192.98	32.52
193.201	38.89
193.421	6.46
193.642	53.62
193.863	57.88
194.083	49.34
194.304	55.59
194.525	67.64
194.745	52.87
194.966	10.14
195.187	1.58
195.407	-51.99
195.628	-54.41
195.848	-31.92
196.069	-31.16
196.29	-54.02
196.51	-74.54
196.731	-103.93
196.951	-96.12
197.172	-82.85
197.392	-51.32
197.613	-6.63
197.833	10.73
198.054	14.27
198.274	43.61
198.495	36.28
198.715	54.54
198.936	20.89
199.156	23.01
199.377	9.91
199.597	8.53
199.817	-11.4
200.038	26.31
200.258	13.34
200.479	34.79
200.699	39.13
200.919	32.67
201.14	2.74
201.36	4.03
201.58	-0.77
201.801	23.8
202.021	21.31
202.241	45.65
202.461	28.54
202.682	12.44
202.902	12.92
203.122	15.92
203.342	27.42
203.563	53.3
203.783	59.82
204.003	9.06
204.223	-11.21
204.443	68.11
204.663	83.32
204.884	59.91
205.104	75.68
205.324	67.65
205.544	50.01
205.764	37.11
205.984	60.24
206.204	81.07
206.424	101.07
206.644	63.12
206.864	28.68
207.084	11.58
207.304	-10.98
207.525	-39.44
207.745	-8.49
207.964	-4.51
208.184	4.08
208.404	8.51
208.624	21.46
208.844	3.91
209.064	-7.56
209.284	-3.64
209.504	-0.95
209.724	3.26
209.944	0.2
210.164	18.47
210.384	26.3
210.604	26.6
210.823	-2.75
211.043	-11.62
211.263	-11.49
211.483	-26.09
211.703	-22.97
211.922	-0.42
212.142	43.71
212.362	52.13
212.582	39.17
212.801	31.78
213.021	25.08
213.241	15.55
213.461	-1.99
213.68	-9.77
213.9	3.92
214.12	23.19
214.339	4.7
214.559	11.72
214.779	50.15
214.998	60.06
215.218	31.56
215.438	40.08
215.657	44.44
215.877	14.06
216.096	11.97
216.316	53.96
216.535	38.52
216.755	52.24
216.974	60.99
217.194	66.44
217.413	44.26
217.633	45.85
217.852	7.14
218.072	0.14
218.291	-26.2
218.511	-14.2
218.73	-52.61
218.95	-60.59
219.169	-57.02
219.389	-56.13
219.608	-67.2
219.827	-12.63
220.047	15.98
220.266	17.65
220.485	7.06
220.705	31.49
220.924	-1.91
221.143	7.46
221.363	-24.46
221.582	18.7
221.801	14.91
222.021	42.45
222.24	41.53
222.459	79.86
222.678	53.72
222.897	43.72
223.117	38.41
223.336	50.48
223.555	57.53
223.774	74.51
223.993	101.05
224.213	107.11
224.432	72.23
224.651	74.22
224.87	51.88
225.089	55.51
225.308	53.06
225.527	71.61
225.746	63.97
225.965	64.58
226.184	48.37
226.404	44.54
226.623	19.36
226.842	20.76
227.061	35.11
227.28	55.94
227.499	69.98
227.718	94.11
227.936	94.99
228.155	94.24
228.374	54.09
228.593	23.06
228.812	7.44
229.031	-7.59
229.25	-18.29
229.469	13.16
229.688	23.37
229.907	24.14
230.125	47.8
230.344	62.53
230.563	56.13
230.782	76.42
231.001	45.37
231.22	35.7
231.438	23.95
231.657	21.15
231.876	11.38
232.095	44.04
232.313	43.43
232.532	30.01
232.751	19.33
232.969	18.36
233.188	7.44
233.407	14.92
233.625	20.83
233.844	35.87
234.063	62.1
234.281	84.59
234.5	72.6
234.719	86.41
234.937	71.53
235.156	55.06
235.374	47.85
235.593	54.06
235.811	53.73
236.03	63.21
236.249	65.79
236.467	77.01
236.686	57.34
236.904	54.61
237.123	14.06
237.341	4.69
237.559	-6.39
237.778	-9.05
237.996	-27.56
238.215	-2.89
238.433	-8.73
238.652	3.41
238.87	-30.71
239.088	3.23
239.307	-0.93
239.525	6.48
239.743	-16.84
239.962	17.6
240.18	-6.9
240.398	-21.48
240.617	-25.13
240.835	13.46
241.053	-8.6
241.271	13.21
241.49	15.43
241.708	15.26
241.926	5.66
242.144	19.27
242.363	9.46
242.581	27.12
242.799	43.21
243.017	37.44
243.235	23.13
243.453	46.69
243.672	23.32
243.89	17.32
244.108	26.57
244.326	44.22
244.544	43.15
244.762	44.71
244.98	39.7
245.198	52.57
245.416	36.63
245.634	44.93
245.852	52.44
246.07	59.09
246.288	48.59
246.506	49.11
246.724	38
246.942	27.07
247.16	38.14
247.378	34.27
247.596	36.27
247.814	52
248.032	35.9
248.25	20.15
248.468	23.11
248.685	36.44
248.903	33.26
249.121	38.61
249.339	38.15
249.557	25.37
249.775	-0.32
249.992	-57.21
250.21	-63.97
250.428	-45.58
250.646	-40.13
250.863	-23.32
251.081	-2.36
251.299	22.93
251.517	35.17
251.734	34.52
251.952	17.05
252.17	34.09
252.387	40.96
252.605	12.38
252.823	10.87
253.04	29.35
253.258	20.2
253.475	17.39
253.693	39.94
253.911	61.18
254.128	58.06
254.346	59.5
254.563	47.86
254.781	36.06
254.998	16.6
255.216	15.94
255.433	16.6
255.651	27.93
255.868	34.12
256.086	39.94
256.303	29.98
256.521	20.04
256.738	21.87
256.956	11.71
257.173	5.52
257.39	9.86
257.608	12.13
257.825	18.11
258.043	31.9
258.26	41.25
258.477	42.93
258.695	54.24
258.912	21.02
259.129	17.37
259.346	-10.8
259.564	-2.54
259.781	-11.27
259.998	4.54
260.216	24.46
260.433	50.81
260.65	29.24
260.867	29.11
261.084	18.69
261.302	11.2
261.519	13.44
261.736	21.23
261.953	39.59
262.17	51.6
262.387	45.27
262.604	23.5
262.822	22.58
263.039	11.56
263.256	-2.16
263.473	11.23
263.69	16.16
263.907	18.9
264.124	31.74
264.341	84.06
264.558	70.03
264.775	73.08
264.992	98.22
265.209	71.15
265.426	45.63
265.643	51.45
265.86	51.21
266.077	56.88
266.294	46.01
266.51	41.32
266.727	28.26
266.944	35.5
267.161	3.93
267.378	24.37
267.595	27.28
267.812	11.93
268.028	20.5
268.245	36.06
268.462	39.41
268.679	26.87
268.896	43.74
269.112	22.91
269.329	21.51
269.546	23.53
269.763	29.81
269.979	20.43
270.196	23.78
270.413	24.46
270.629	2.1
270.846	-4.68
271.063	16.03
271.279	9.95
271.496	-8.01
271.712	19.46
271.929	20.17
272.146	15.52
272.362	14.69
272.579	52.65
272.795	39.12
273.012	61.64
273.228	61.19
273.445	56.18
273.661	16.66
273.878	-27.58
274.094	-45.13
274.311	-77.25
274.527	-44.74
274.744	-27.17
274.96	28.02
275.177	24.94
275.393	33.95
275.609	37.92
275.826	52.51
276.042	48.7
276.259	58.72
276.475	39.79
276.691	41.51
276.908	28.35
277.124	50.61
277.34	38.72
277.557	58.39
277.773	52.22
277.989	47.4
278.205	33.41
278.422	46.74
278.638	60.73
278.854	62.48
279.07	61.73
279.286	33.83
279.503	24.22
279.719	12.85
279.935	-0.75
280.151	-5.21
280.367	16.07
280.583	21.42
280.799	22.41
281.016	31.83
281.232	33.77
281.448	36.95
281.664	46.68
281.88	35.94
282.096	24.59
282.312	29.35
282.528	38.69
282.744	28.03
282.96	30.82
283.176	37.37
283.392	38.76
283.608	39.83
283.824	51.28
284.04	59.67
284.256	61.73
284.471	62.61
284.687	44.63
284.903	48.75
285.119	60.17
285.335	41
285.551	40.6
285.767	36.05
285.982	6.05
286.198	6.36
286.414	11.3
286.63	-3.69
286.846	27.24
287.061	18.04
287.277	1.51
287.493	12.35
287.709	20.95
287.924	15.15
288.14	42.41
288.356	59.52
288.571	64.29
288.787	70.86
289.003	64.41
289.218	47.86
289.434	19.23
289.65	44.67
289.865	43.8
290.081	33.24
290.296	39.06
290.512	43.62
290.727	28.81
290.943	18.71
291.159	19.42
291.374	14.69
291.59	-2.99
291.805	-4.85
292.021	6.31
292.236	0.38
292.451	1.65
292.667	11.8
292.882	15.91
293.098	22.42
293.313	20.96
293.529	19.23
293.744	9.06
293.959	-15.42
294.175	-25.11
294.39	-6.26
294.605	0.39
294.821	12.48
295.036	13.81
295.251	27.29
295.467	17.89
295.682	23.52
295.897	-0.97
296.112	-2.7
296.328	-10.92
296.543	-6.34
296.758	-25.76
296.973	21.6
297.188	56.19
297.404	34.1
297.619	32.81
297.834	40.82
298.049	30.48
298.264	16.62
298.479	31.85
298.694	32.71
298.909	33.74
299.125	34.62
299.34	35.89
299.555	33.1
299.77	48.47
299.985	15.7
300.2	-1.43
300.415	-30.37
300.63	-20.31
300.845	-28.73
301.06	-21.26
301.275	-17.62
301.49	-4.34
301.704	-8.84
301.919	-32.24
302.134	-29.46
302.349	-0.24
302.564	-6.57
302.779	8.92
302.994	49.48
303.209	46.71
303.423	43.11
303.638	63.5
303.853	42.78
304.068	1.7
304.283	7.5
304.497	9.68
304.712	7.29
304.927	13.18
305.142	13.02
305.356	15.55
305.571	16.7
305.786	12.92
306	9.32
306.215	27.79
306.43	14.9
306.644	25.35
306.859	41.57
307.074	38.07
307.288	18.82
307.503	23.37
307.717	4.19
307.932	-7.26
308.147	-10.97
308.361	14.58
308.576	11.11
308.79	1.63
309.005	24.09
309.219	38.1
309.434	29.22
309.648	15.23
309.863	35.54
310.077	14.49
310.292	0.13
310.506	-3.59
310.72	32.97
310.935	35.35
311.149	38.97
311.364	55.64
311.578	71.29
311.792	65.84
312.007	73.88
312.221	45.09
312.435	37.78
312.649	8.08
312.864	19.05
313.078	-0.05
313.292	32.21
313.507	32.8
313.721	32.7
313.935	20.9
314.149	46.34
314.363	38.92
314.578	18.21
314.792	25.28
315.006	39.56
315.22	14.26
315.434	14.6
315.648	32.34
315.862	22.49
316.077	24.74
316.291	33.38
316.505	33.46
316.719	38.45
316.933	18.93
317.147	14.85
317.361	4
317.575	3.99
317.789	-18.18
318.003	-8.82
318.217	-1.29
318.431	22.87
318.645	36.94
318.859	40.31
319.073	56.48
319.287	38.35
319.5	16.8
319.714	-9.78
319.928	-13.39
320.142	-28.28
320.356	9.52
320.57	19.18
320.784	10.74
320.997	32.72
321.211	43.63
321.425	9.62
321.639	-14.83
321.853	12.93
322.066	-9.85
322.28	-28.96
322.494	-21.05
322.707	29.36
322.921	29.32
323.135	32.06
323.349	47.91
323.562	54.22
323.776	26.05
323.989	20.73
324.203	8.45
324.417	3.64
324.63	-15.48
324.844	-30.3
325.057	-42.58
325.271	-53.24
325.485	-54.46
325.698	-11.56
325.912	15.5
326.125	28.16
326.339	51.77
326.552	52.93
326.766	51.49
326.979	53.22
327.193	64.62
327.406	53
327.619	58.32
327.833	50.54
328.046	34.97
328.26	14.7
328.473	0.81
328.686	-9.02
328.9	-5.84
329.113	5.27
329.326	3.91
329.54	30
329.753	26.73
329.966	23.63
330.179	30.79
330.393	46.5
330.606	41.22
330.819	58.83
331.032	64.06
331.246	68.02
331.459	72.62
331.672	45.32
331.885	24.34
332.098	4.94
332.311	15.64
332.525	3.23
332.738	16.79
332.951	26.79
333.164	38.95
333.377	30.75
333.59	36.99
333.803	35.07
334.016	29.4
334.229	30.12
334.442	44.77
334.655	55.62
334.868	60.44
335.081	65.39
335.294	50.62
335.507	44.06
335.72	27.88
335.933	12.03
336.146	12.52
336.359	21.62
336.572	9.32
336.785	8.13
336.997	15.79
337.21	19.91
337.423	14.4
337.636	26.58
337.849	36.19
338.062	33.95
338.274	35.14
338.487	24.9
338.7	21.16
338.913	8.02
339.125	5.83
339.338	8.22
339.551	20.25
339.763	29.15
339.976	45.11
340.189	46.24
340.402	42.04
340.614	39.6
340.827	22.79
341.039	1.28
341.252	-6.46
341.465	-11.61
341.677	-24.63
341.89	-47.49
342.102	-32.45
342.315	-25.37
342.527	-32.4
342.74	-4.3
342.952	35.31
343.165	35.27
343.377	50.39
343.59	41.32
343.802	43.86
344.015	38.49
344.227	51.65
344.44	37.49
344.652	41.2
344.864	30.71
345.077	36.21
345.289	23.38
345.502	31.76
345.714	31.72
345.926	36.49
346.139	31.85
346.351	32.01
346.563	30.58
346.775	37.25
346.988	27.49
347.2	18.49
347.412	13.93
347.624	13.35
347.837	24.88
348.049	39.28
348.261	46.63
348.473	43.8
348.685	27.38
348.897	8.88
349.11	-5.47
349.322	-5.1
349.534	18.94
349.746	41.15
349.958	49.54
350.17	48.29
350.382	54.54
350.594	45.67
350.806	37.85
351.018	26.76
351.23	34.02
351.442	25.19
351.654	34.52
351.866	41.34
352.078	51.1
352.29	41.73
352.502	47.39
352.714	48.05
352.926	40.52
353.138	36.12
353.35	24.87
353.561	18.89
353.773	4.51
353.985	9.63
354.197	0.66
354.409	15.44
354.621	8.45
354.832	7.11
355.044	-1.7
355.256	0.48
355.468	-6.33
355.679	2.37
355.891	22.26
356.103	25.22
356.314	24.83
356.526	42.48
356.738	55.66
356.949	50.75
357.161	47.86
357.373	48.06
357.584	42.01
357.796	29.94
358.008	12.61
358.219	22.57
358.431	25.82
358.642	28.83
358.854	37.45
359.065	45.16
359.277	29.39
359.488	19.23
359.7	7.49
359.911	-2.96
360.123	-9.07
360.334	-12.52
360.546	-6.52
360.757	-16.21
360.969	-26.99
361.18	-16.72
361.391	-12.3
361.603	-25.84
361.814	-1.34
362.025	-1.63
362.237	-2.62
362.448	3.32
362.659	21.4
362.871	10.14
363.082	12.24
363.293	18.49
363.504	11.8
363.716	4.03
363.927	14.99
364.138	10.84
364.349	-8.14
364.56	-10.7
364.772	-21.4
364.983	-8.54
365.194	-12.34
365.405	-8.38
365.616	-5.35
365.827	-3.99
366.038	-12.98
366.25	10.17
366.461	-1.31
366.672	17.42
366.883	22.8
367.094	19.19
367.305	5.63
367.516	33.6
367.727	25.53
367.938	18.03
368.149	9.58
368.36	13.64
368.571	3.57
368.781	-1.13
368.992	-2.65
369.203	17.93
369.414	10.96
369.625	9.55
369.836	8.02
370.047	6.86
370.258	-2.62
370.468	-2.95
370.679	-23.34
370.89	-17.39
371.101	5.36
371.312	-10.3
371.522	4.28
371.733	21.34
371.944	17.45
372.155	16.6
372.365	10.19
372.576	16.34
372.787	9.83
372.997	6.83
373.208	4.32
373.419	15.13
373.629	-4.07
373.84	5.52
374.05	-7.4
374.261	-1.77
374.472	-2.99
374.682	18.16
374.893	5.14
375.103	32.78
375.314	28.11
375.524	25.49
375.735	18.76
375.945	23.59
376.156	3.64
376.366	8.95
376.577	17.26
376.787	19.72
376.997	28.77
377.208	36.12
377.418	18.76
377.629	23.84
377.839	20.33
378.049	16
378.26	22.82
378.47	40.08
378.68	37.69
378.89	34.31
379.101	31.54
379.311	12.96
379.521	-1.24
379.732	-0.93
379.942	-11.36
380.152	-6.22
380.362	12.16
380.572	18.78
380.783	22.63
380.993	33.7
381.203	37.24
381.413	27.89
381.623	27.34
381.833	21.98
382.043	11.1
382.253	8.03
382.463	21.68
382.674	18.54
382.884	2.92
383.094	2.53
383.304	1.53
383.514	-2.59
383.724	0.63
383.934	3.98
384.144	4.26
384.353	8.46
384.563	13.27
384.773	12.47
384.983	18.3
385.193	26.68
385.403	14.77
385.613	12.61
385.823	11.31
386.033	14.87
386.242	2.44
386.452	10.51
386.662	5.86
386.872	8.8
387.082	8.27
387.291	5.76
387.501	10.39
387.711	9.29
387.921	-4.18
388.13	-0.4
388.34	9.75
388.55	4.4
388.759	5.41
388.969	14.49
389.179	10.37
389.388	8.84
389.598	8.94
389.807	10.27
390.017	10.82
390.227	9.94
390.436	8.28
390.646	10.56
390.855	10.92
391.065	10.7
391.274	7.93
391.484	6.97
391.693	7.98
391.903	8.14
392.112	8.98
392.322	12.44
392.531	15.82
392.74	13.89
392.95	10.04
393.159	8.19
393.369	8.68
393.578	4.57
393.787	4.49
393.997	8.32
394.206	7.74
394.415	8.24
394.625	9.3
394.834	8.66
395.043	6.83
395.252	7.58
395.462	7.74
395.671	8.92
395.88	9.92
396.089	10.93
396.298	11.04
396.508	9.88
396.717	9.69
396.926	9.23
397.135	9.14
397.344	9.03
397.553	9.33
397.762	9.52
397.971	9.09
398.181	8.43
398.39	7.1
398.599	6.75
398.808	6.27
399.017	6.77
399.226	6.96
399.435	8
399.644	7.99
399.853	7.67
400.062	7.47
400.27	7.46
400.479	7.35
400.688	7.03
400.897	7.34
401.106	7.21
401.315	6.83
401.524	6.71
401.733	6.77
401.941	6.86
402.15	6.87
402.359	7.28
402.568	7.4
402.777	7.42
402.985	7.25
403.194	7.32
403.403	7.24
403.612	7.01
403.82	7.06
404.029	6.98
404.238	6.66
404.446	6.59
404.655	6.46
404.864	6.57
405.072	6.37
405.281	6.69
405.489	6.5
405.698	6.5
405.906	6.38
406.115	6.31
406.324	5.95
406.532	6.01
406.741	6.28
406.949	6.1
407.158	6.29
407.366	6.42
407.574	6.57
407.783	6.38
407.991	6.46
408.2	6.46
408.408	6.38
408.617	6.22
408.825	6.16
409.033	6.21
409.242	6.23
409.45	6.22
409.658	6.18
409.867	6.27
410.075	6.18
410.283	5.96
410.491	6.01
410.7	5.82
410.908	5.79
411.116	5.86
411.324	5.9
411.533	5.95
411.741	6.07
411.949	6.11
412.157	5.93
412.365	6.12
412.573	6.02
412.781	6.01
412.99	5.91
413.198	5.98
413.406	5.86
413.614	5.93
413.822	5.92
414.03	5.95
414.238	5.84
414.446	5.91
414.654	5.69
414.862	5.72
415.07	5.66
415.278	5.81
415.486	5.4
415.694	5.63
415.902	5.62
416.109	5.55
416.317	5.61
416.525	5.63
416.733	5.55
416.941	5.55
417.149	5.59
417.357	5.63
417.564	5.75
417.772	5.66
417.98	5.77
418.188	5.71
418.395	5.45
418.603	5.66
418.811	5.53
419.019	5.31
419.226	5.45
419.434	5.57
419.642	5.35
419.849	5.41
420.057	5.54
420.265	5.43
420.472	5.34
420.68	5.52
420.887	5.48
421.095	5.47
421.302	5.46
421.51	5.46
421.717	5.29
421.925	5.39
422.132	5.37
422.34	5.23
422.547	5.23
422.755	5.24
422.962	5.27
423.17	5.22
423.377	5.41
423.585	5.45
423.792	5.44
423.999	5.39
424.207	5.38
424.414	5.26
424.621	5.17
424.829	5.11
425.036	5.01
425.243	4.93
425.451	4.98
425.658	4.92
425.865	4.88
426.072	4.95
426.28	4.92
426.487	4.78
426.694	4.87
426.901	5.04
427.108	4.98
427.315	5.09
427.523	5.42
427.73	5.43
427.937	5.17
428.144	5.15
428.351	5.2
428.558	4.95
428.765	4.85
428.972	4.91
429.179	5.01
429.386	4.98
429.593	5.03
429.8	5.01
430.007	5.17
430.214	5.09
430.421	5.1
430.628	4.96
430.835	4.89
431.042	4.94
431.249	5.01
431.456	5.11
431.662	5.32
431.869	5.38
432.076	5.31
432.283	5.27
432.49	4.99
432.697	4.92
432.903	4.91
433.11	4.88
433.317	5.02
433.524	5.28
433.73	5.2
433.937	5.33
434.144	5.4
434.35	5.39
434.557	5.25
434.764	5.32
434.97	5.28
435.177	5.27
435.384	4.98
435.59	5.2
435.797	5.35
436.003	5.33
436.21	5.26
436.416	5.34
436.623	5.11
436.829	4.96
437.036	5
437.242	4.95
437.449	5.03
437.655	5.02
437.862	5
438.068	4.98
438.275	5.14
438.481	5.23
438.687	5.24
438.894	5.27
439.1	5.19
439.307	5.17
439.513	5.09
439.719	5.21
439.926	5.21
440.132	5.25
440.338	5.11
440.544	5.15
440.751	4.92
440.957	5
441.163	4.82
441.369	4.97
441.575	4.87
441.782	4.99
441.988	4.83
442.194	4.91
442.4	4.84
442.606	5.01
442.812	5.09
443.018	5.16
443.224	5.32
443.431	5.35
443.637	5.26
443.843	5.12
444.049	5.1
444.255	5
444.461	4.97
444.667	4.84
444.873	4.85
445.079	4.97
445.284	5
445.49	4.93
445.696	4.9
445.902	4.99
446.108	4.9
446.314	4.86
446.52	4.99
446.726	5.22
446.931	5.18
447.137	5.23
447.343	5.26
447.549	5.13
447.755	5.01
447.96	5
448.166	4.91
448.372	4.97
448.578	4.98
448.783	4.98
448.989	5.02
449.195	5.15
449.4	5.09
449.606	5.12
449.812	5.12
450.017	5.2
450.223	5.21
450.428	5.01
450.634	5.08
450.84	5.14
451.045	4.96
451.251	4.82
451.456	5.1
451.662	5.1
451.867	5.04
452.073	5.12
452.278	5.17
452.483	5.16
452.689	5.17
452.894	5.33
453.1	5.33
453.305	5.23
453.51	5.24
453.716	5.2
453.921	5.13
454.127	5.13
454.332	5.19
454.537	5.04
454.742	5.03
454.948	4.98
455.153	4.93
455.358	4.96
455.563	5.07
455.769	5.11
455.974	5.04
456.179	5.08
456.384	5.01
456.589	5.05
456.795	4.96
457	5.01
457.205	5.06
457.41	5.09
457.615	5.01
457.82	5.08
458.025	5.17
458.23	5.07
458.435	5.2
458.64	5.06
458.845	5.12
459.05	5.03
459.255	5.07
459.46	4.92
459.665	5.03
459.87	5.02
460.075	4.99
460.28	5.01
460.485	5.14
460.69	5.18
460.895	5.05
461.099	4.99
461.304	5.1
461.509	5.14
461.714	5.11
461.919	5.21
462.123	5.32
462.328	5.28
462.533	5.04
462.738	5.05
462.942	5.02
463.147	5
463.352	4.94
463.556	4.99
463.761	4.94
463.966	5.01
464.17	5.06
464.375	5.08
464.58	5.17
464.784	5.28
464.989	5.18
465.193	5.14
465.398	5.14
465.602	5.24
465.807	5.11
466.011	5.27
466.216	5.34
466.42	5.42
466.625	5.4
466.829	5.57
467.034	5.52
467.238	5.53
467.443	5.48
467.647	5.34
467.851	5.3
468.056	5.34
