Data from Ofra_PP_Phys_2CX12O_Reflection_2.txt Node
Date: Sat Jul 24 20:06:52 EDT 2021
User: USUARIO
Spectrometer: FLMT01687
Trigger mode: 0
Integration Time (sec): 1.100000E0
Scans to average: 2
Electric dark correction enabled: true
Nonlinearity correction enabled: false
Boxcar width: 2
XAxis mode: Wavelengths
Number of Pixels in Spectrum: 3648
>>>>>Begin Spectral Data<<<<<
179.494	651.85
179.716	826.32
179.937	1397.59
180.158	1124.8
180.38	521.55
180.601	-511.92
180.823	89.46
181.044	1237.21
181.265	-110.97
181.486	-42.41
181.708	-110.04
181.929	-1648
182.15	-106.02
182.372	-47.82
182.593	46000
182.814	689.23
183.035	221.28
183.257	153.08
183.478	82.16
183.699	118.12
183.92	72.81
184.141	69.63
184.363	40.2
184.584	106.07
184.805	71.75
185.026	76.2
185.247	54.33
185.468	20.89
185.689	5.11
185.91	5.85
186.132	-7.29
186.353	29.56
186.574	62.47
186.795	57.33
187.016	-4
187.237	9.76
187.458	-18.35
187.679	-38.17
187.9	41.4
188.121	90.74
188.342	77.82
188.563	83.06
188.784	78.37
189.005	66.8
189.226	75.26
189.447	67.9
189.667	67.38
189.888	52.31
190.109	26.61
190.33	-5.46
190.551	-18.29
190.772	-33.18
190.993	-57
191.214	-55.6
191.434	-68.15
191.655	-7.01
191.876	-10.36
192.097	-23.06
192.318	-13.09
192.538	-8.77
192.759	-15.69
192.98	-10.79
193.201	25.67
193.421	-5.79
193.642	8.26
193.863	5.25
194.083	2.01
194.304	2.83
194.525	41.41
194.745	54.1
194.966	-7.67
195.187	-21.77
195.407	-49.19
195.628	-96.82
195.848	-91.9
196.069	-82.43
196.29	-62.83
196.51	-108.41
196.731	-105.58
196.951	-66.07
197.172	-29.41
197.392	-18.78
197.613	0.91
197.833	1.18
198.054	-35.52
198.274	-31.56
198.495	-95.79
198.715	-26.88
198.936	-64.6
199.156	-23.88
199.377	-33.32
199.597	-20.65
199.817	-40.22
200.038	21.01
200.258	18.7
200.479	31.11
200.699	43.51
200.919	36.4
201.14	2.99
201.36	-6.04
201.58	-4.16
201.801	-10.4
202.021	-20.22
202.241	0.48
202.461	-17.6
202.682	-23.54
202.902	-4.84
203.122	-8.42
203.342	-1.67
203.563	17.87
203.783	32.07
204.003	-29.81
204.223	-97.37
204.443	-9.04
204.663	-8.63
204.884	7.38
205.104	54.39
205.324	91.18
205.544	69.16
205.764	72.73
205.984	64.62
206.204	73.81
206.424	60.33
206.644	41.93
206.864	13.91
207.084	3.7
207.304	-1.43
207.525	-30.53
207.745	-20.72
207.964	-1.76
208.184	-23.84
208.404	-26.88
208.624	-8.54
208.844	-2.07
209.064	-34.29
209.284	-11.26
209.504	15.49
209.724	26.48
209.944	27.66
210.164	45.86
210.384	55.66
210.604	33.94
210.823	-28.91
211.043	-52.77
211.263	-30.8
211.483	-42.14
211.703	-58.68
211.922	-2.5
212.142	41.95
212.362	28.52
212.582	16.75
212.801	33.73
213.021	10.26
213.241	6
213.461	-17.16
213.68	-41.96
213.9	-47.88
214.12	-47.27
214.339	-68.08
214.559	-44.74
214.779	3.22
214.998	19.91
215.218	11.32
215.438	26.7
215.657	17.58
215.877	15.79
216.096	2.6
216.316	29.43
216.535	23.66
216.755	29.83
216.974	26.65
217.194	32.26
217.413	14.16
217.633	23.62
217.852	-15.92
218.072	-24.78
218.291	-32.23
218.511	-0.2
218.73	-66.91
218.95	-69.04
219.169	-68.11
219.389	-102.05
219.608	-121.38
219.827	-51.24
220.047	-23.23
220.266	-26.22
220.485	1.69
220.705	28.09
220.924	-15.36
221.143	17.95
221.363	-14.28
221.582	5.95
221.801	-3.93
222.021	24.38
222.24	10.14
222.459	43.87
222.678	12.83
222.897	3.24
223.117	-0
223.336	-4.96
223.555	10.09
223.774	33.02
223.993	57.21
224.213	122.4
224.432	104.37
224.651	114.64
224.87	104.73
225.089	109.44
225.308	83.48
225.527	102.38
225.746	95.36
225.965	67.65
226.184	31.84
226.404	50.13
226.623	16.88
226.842	20.27
227.061	57.54
227.28	77.39
227.499	80.06
227.718	113.16
227.936	106.02
228.155	92.85
228.374	53.21
228.593	42.65
228.812	19.22
229.031	28.24
229.25	18.06
229.469	30.5
229.688	35.06
229.907	39.49
230.125	50.64
230.344	61.15
230.563	61.36
230.782	59.34
231.001	15.27
231.22	9.98
231.438	-7.14
231.657	7.38
231.876	2.46
232.095	39.16
232.313	32.57
232.532	39.32
232.751	44.3
232.969	45.75
233.188	41.35
233.407	42.88
233.625	22.38
233.844	5.69
234.063	9.83
234.281	36.43
234.5	34.67
234.719	54.28
234.937	44.9
235.156	46.85
235.374	38.96
235.593	53.95
235.811	52.96
236.03	71.67
236.249	55.44
236.467	62.47
236.686	36.23
236.904	37.76
237.123	-8.15
237.341	-3.82
237.559	-24.27
237.778	-15.39
237.996	-35.89
238.215	11.02
238.433	12.07
238.652	41.06
238.87	6.21
239.088	27.17
239.307	10.14
239.525	3.92
239.743	-48.09
239.962	-21.04
240.18	-47.77
240.398	-76.7
240.617	-86.9
240.835	-34.92
241.053	-59.7
241.271	-3.94
241.49	16.72
241.708	20.25
241.926	18.53
242.144	37.79
242.363	6.49
242.581	3.58
242.799	8.88
243.017	-2.47
243.235	-35.76
243.453	-6.65
243.672	-33.15
243.89	-9.22
244.108	-0
244.326	22.47
244.544	21.38
244.762	18.92
244.98	19.87
245.198	34.55
245.416	19.52
245.634	18.26
245.852	34.56
246.07	30.11
246.288	20.37
246.506	12.96
246.724	26.32
246.942	27.23
247.16	37.37
247.378	39.26
247.596	58.77
247.814	45.93
248.032	15.47
248.25	-0.59
248.468	-2.95
248.685	6.24
248.903	22.39
249.121	35.68
249.339	23.71
249.557	34.12
249.775	17.53
249.992	-65.02
250.21	-85
250.428	-51.96
250.646	-64.91
250.863	-52.68
251.081	-22.44
251.299	16.28
251.517	18.43
251.734	11.97
251.952	7.09
252.17	16.05
252.387	15.92
252.605	-10.08
252.823	6.66
253.04	27.02
253.258	38.85
253.475	26
253.693	62.04
253.911	76.25
254.128	59.62
254.346	54.39
254.563	41.03
254.781	14.17
254.998	3.48
255.216	0.25
255.433	4.38
255.651	29.75
255.868	48.16
256.086	59.69
256.303	57.71
256.521	66.04
256.738	48.42
256.956	23.03
257.173	19.73
257.39	10.48
257.608	-2.05
257.825	8.68
258.043	26.95
258.26	23
258.477	27.88
258.695	27.47
258.912	-13.23
259.129	-19.96
259.346	-48.46
259.564	-55.12
259.781	-26.96
259.998	-9.61
260.216	16.12
260.433	31.67
260.65	26.15
260.867	23.1
261.084	13.28
261.302	8.36
261.519	32.53
261.736	12
261.953	-0.63
262.17	18.57
262.387	8.05
262.604	-12.78
262.822	-12.73
263.039	-15.23
263.256	-26.25
263.473	-23.56
263.69	-50.67
263.907	-3.35
264.124	11.33
264.341	33.26
264.558	28.66
264.775	49.54
264.992	48.58
265.209	41.45
265.426	24.85
265.643	16.05
265.86	5.77
266.077	11.46
266.294	0.16
266.51	14.68
266.727	8.44
266.944	30.04
267.161	13.51
267.378	10.52
267.595	1.09
267.812	-32.79
268.028	-42.42
268.245	-25.89
268.462	-18.28
268.679	-10.17
268.896	42.12
269.112	28.09
269.329	18.57
269.546	31.08
269.763	32.83
269.979	20.02
270.196	19.19
270.413	6.54
270.629	-9.7
270.846	-12.75
271.063	10.14
271.279	-8.97
271.496	-23.87
271.712	-19.88
271.929	-22.21
272.146	-29.24
272.362	-11.25
272.579	37.48
272.795	45.39
273.012	49.26
273.228	38.07
273.445	24.08
273.661	-22.06
273.878	-94.01
274.094	-73.24
274.311	-82.17
274.527	-59.97
274.744	-29.7
274.96	25.54
275.177	27.13
275.393	32.84
275.609	56.53
275.826	60.98
276.042	68.43
276.259	68.61
276.475	52.52
276.691	30.09
276.908	6.36
277.124	31.06
277.34	22.73
277.557	25.84
277.773	35.81
277.989	32.76
278.205	8.87
278.422	-2.32
278.638	15.58
278.854	20.21
279.07	27.46
279.286	3.9
279.503	-0.14
279.719	-1.2
279.935	-13.3
280.151	-18.43
280.367	18.83
280.583	32.66
280.799	24.93
281.016	30.19
281.232	45.62
281.448	42.3
281.664	44.14
281.88	39.32
282.096	35.28
282.312	34.11
282.528	29.76
282.744	38.53
282.96	42.21
283.176	40.56
283.392	29.62
283.608	44.14
283.824	36.06
284.04	30.44
284.256	50.92
284.471	54.66
284.687	37.63
284.903	38.16
285.119	63.89
285.335	28.64
285.551	35.59
285.767	31.93
285.982	22.03
286.198	-9.72
286.414	8.7
286.63	8.89
286.846	30.09
287.061	5.8
287.277	24.92
287.493	25.73
287.709	29.23
287.924	22.35
288.14	61.62
288.356	61.91
288.571	71.54
288.787	59.51
289.003	58.52
289.218	40.8
289.434	10.94
289.65	35.1
289.865	35.3
290.081	31.47
290.296	28.93
290.512	27.11
290.727	19.79
290.943	9.74
291.159	-0.56
291.374	5.37
291.59	-14.41
291.805	-31.03
292.021	-12.17
292.236	-9.36
292.451	-15.27
292.667	8.07
292.882	18.28
293.098	26.91
293.313	22.23
293.529	16.46
293.744	-15.19
293.959	-41.35
294.175	-50.86
294.39	-23.89
294.605	-0.43
294.821	29.1
295.036	18.48
295.251	36.46
295.467	22.01
295.682	22.63
295.897	3.14
296.112	7.54
296.328	3.16
296.543	1.98
296.758	-4.47
296.973	36.48
297.188	65.82
297.404	31.81
297.619	39.65
297.834	32.69
298.049	22.34
298.264	7
298.479	38.77
298.694	34.83
298.909	34.67
299.125	40.94
299.34	55.63
299.555	39.16
299.77	53.23
299.985	16.81
300.2	-16.52
300.415	-53.98
300.63	-26.35
300.845	-45.36
301.06	-40.9
301.275	-33.77
301.49	-17.31
301.704	-23.66
301.919	-26.38
302.134	-10.02
302.349	27.64
302.564	1.71
302.779	14.11
302.994	47.8
303.209	43.02
303.423	33.65
303.638	67.29
303.853	46.03
304.068	15.26
304.283	25.81
304.497	11.94
304.712	19.08
304.927	16.17
305.142	11.45
305.356	16.21
305.571	23.67
305.786	15.46
306	14.05
306.215	40.18
306.43	18.51
306.644	35.86
306.859	37.19
307.074	26.99
307.288	-3.47
307.503	12.52
307.717	-20.6
307.932	-26.06
308.147	-28.97
308.361	-5.1
308.576	-19.63
308.79	-39.26
309.005	-6.5
309.219	2.65
309.434	8.66
309.648	-6.53
309.863	18.53
310.077	-6.6
310.292	-6.69
310.506	-12.87
310.72	17.86
310.935	23.38
311.149	28.73
311.364	37.99
311.578	49.98
311.792	34.67
312.007	42.16
312.221	14.19
312.435	17.46
312.649	-21.2
312.864	26.41
313.078	16.5
313.292	58.21
313.507	55.98
313.721	61.63
313.935	46.57
314.149	61.05
314.363	54.5
314.578	29.96
314.792	24.29
315.006	29.29
315.22	11.89
315.434	2.86
315.648	25.53
315.862	13.64
316.077	18.51
316.291	30.67
316.505	40.25
316.719	28.06
316.933	-3.94
317.147	-6.16
317.361	-27.73
317.575	-19.73
317.789	-28.11
318.003	0.76
318.217	12.46
318.431	32.72
318.645	41.96
318.859	37.81
319.073	62.72
319.287	42.07
319.5	15.21
319.714	-28.81
319.928	-27.51
320.142	-62.32
320.356	-5.15
320.57	24.22
320.784	33.02
320.997	48.81
321.211	49.78
321.425	3.17
321.639	-40.56
321.853	-6.74
322.066	-15.6
322.28	-17.69
322.494	-1.25
322.707	54.21
322.921	21.01
323.135	13.57
323.349	15.5
323.562	5.8
323.776	-15.88
323.989	-4.32
324.203	-9.38
324.417	2.27
324.63	-21.66
324.844	-42.78
325.057	-44.84
325.271	-45.59
325.485	-47.52
325.698	9.18
325.912	37.8
326.125	35.2
326.339	50.55
326.552	47.39
326.766	40.3
326.979	40.76
327.193	61.28
327.406	49.85
327.619	61.73
327.833	65.47
328.046	53.52
328.26	36.65
328.473	35.31
328.686	6.53
328.9	9.63
329.113	11.37
329.326	-2.85
329.54	3.86
329.753	23.65
329.966	9.56
330.179	30.35
330.393	42.97
330.606	31.41
330.819	45.02
331.032	45.01
331.246	43.25
331.459	57.41
331.672	48.2
331.885	26.66
332.098	22.98
332.311	24.72
332.525	3.16
332.738	21.95
332.951	32.28
333.164	31.23
333.377	34.32
333.59	54.89
333.803	35.86
334.016	27.94
334.229	19.69
334.442	30.22
334.655	39.29
334.868	46.39
335.081	50.05
335.294	57.88
335.507	60.28
335.72	44.25
335.933	34.61
336.146	24.28
336.359	31.74
336.572	-1.5
336.785	-7.15
336.997	-4.06
337.21	15.13
337.423	9.84
337.636	20.32
337.849	23.92
338.062	27.5
338.274	48.95
338.487	33.76
338.7	33.07
338.913	24.2
339.125	9.37
339.338	-6.11
339.551	-0
339.763	28.74
339.976	39.05
340.189	44.4
340.402	48.68
340.614	42.04
340.827	20.11
341.039	1.08
341.252	-5.89
341.465	-25.26
341.677	-30.61
341.89	-65.92
342.102	-38.98
342.315	-26.64
342.527	-22.59
342.74	-11.87
342.952	31.26
343.165	21.98
343.377	40.27
343.59	32.51
343.802	57.55
344.015	63.81
344.227	83.17
344.44	60.06
344.652	57.67
344.864	36.94
345.077	36.1
345.289	21.87
345.502	35.55
345.714	28.46
345.926	27.77
346.139	9.98
346.351	16.07
346.563	9.14
346.775	32.46
346.988	24.87
347.2	29.23
347.412	7.14
347.624	4.57
347.837	-8.4
348.049	2.89
348.261	35.94
348.473	42.13
348.685	14.36
348.897	4.46
349.11	10.01
349.322	-20.19
349.534	1.86
349.746	27.01
349.958	39.34
350.17	31.68
350.382	42.94
350.594	29.61
350.806	29.29
351.018	22.14
351.23	23.26
351.442	16.54
351.654	24.16
351.866	25.09
352.078	17.23
352.29	15.35
352.502	34.1
352.714	51.37
352.926	31.08
353.138	32.53
353.35	14.66
353.561	-0.12
353.773	-23.69
353.985	-3.89
354.197	-3.16
354.409	15.48
354.621	17.64
354.832	33.39
355.044	20.66
355.256	15.44
355.468	14.47
355.679	6.14
355.891	1.36
356.103	5.03
356.314	13.67
356.526	22.76
356.738	40.98
356.949	35.72
357.161	32.57
357.373	35.07
357.584	16.8
357.796	10.27
358.008	-5.57
358.219	18.25
358.431	18.56
358.642	36.03
358.854	43.67
359.065	58.15
359.277	40.93
359.488	34.12
359.7	22.09
359.911	8.97
360.123	8.59
360.334	3.27
360.546	-5.48
360.757	-7.16
360.969	-10.8
361.18	-3.16
361.391	-9.61
361.603	-12.89
361.814	0.14
362.025	-5.82
362.237	-8.52
362.448	17.2
362.659	30.92
362.871	33.71
363.082	51.63
363.293	54.54
363.504	46.92
363.716	36.04
363.927	30.06
364.138	11.19
364.349	-6.16
364.56	-8.97
364.772	-27.9
364.983	-13.76
365.194	-14.1
365.405	-0.12
365.616	5.31
365.827	15.11
366.038	9.59
366.25	27.48
366.461	7.48
366.672	11.67
366.883	29.77
367.094	17.48
367.305	-3.51
367.516	16.36
367.727	8.83
367.938	-4.82
368.149	-10.94
368.36	3.4
368.571	2.63
368.781	-1.2
368.992	-10.02
369.203	15.91
369.414	6.36
369.625	-4.64
369.836	-3.68
370.047	-1.34
370.258	-20.2
370.468	-19.67
370.679	-49.99
370.89	-38.88
371.101	-18.98
371.312	-32.33
371.522	-31.58
371.733	-4.62
371.944	-1.69
372.155	10.11
372.365	0.56
372.576	10.85
372.787	6.03
372.997	-0
373.208	-3.89
373.419	19.86
373.629	0.1
373.84	6.75
374.05	-17.95
374.261	-0.22
374.472	-18.38
374.682	4.15
374.893	-11.4
375.103	26.92
375.314	0.34
375.524	5.96
375.735	18.9
375.945	34.21
376.156	7.83
376.366	17.1
376.577	20.05
376.787	6.61
376.997	17.43
377.208	31.91
377.418	13.67
377.629	23.46
377.839	19.24
378.049	9.33
378.26	13.37
378.47	34.87
378.68	28.75
378.89	30.95
379.101	28.79
379.311	18.17
379.521	-2.81
379.732	5.19
379.942	-11
380.152	-9.65
380.362	-1.03
380.572	3.61
380.783	11.29
380.993	25.48
381.203	37.26
381.413	39.76
381.623	41.86
381.833	40.86
382.043	30.56
382.253	21.91
382.463	19.21
382.674	21.2
382.884	4.86
383.094	10.81
383.304	10.78
383.514	13.12
383.724	19.37
383.934	14.74
384.144	7.7
384.353	7.19
384.563	3.52
384.773	0.82
384.983	9.84
385.193	14.66
385.403	7.9
385.613	9.64
385.823	7.47
386.033	15.4
386.242	11.52
386.452	14.16
386.662	8.83
386.872	12.08
387.082	10.45
387.291	0.15
387.501	7.24
387.711	11.4
387.921	-2.25
388.13	0.73
388.34	16.21
388.55	11.04
388.759	13.43
388.969	25.02
389.179	18.36
389.388	14.13
389.598	14.4
389.807	10.1
390.017	8.42
390.227	10.05
390.436	5.73
390.646	9.17
390.855	12.74
391.065	13.64
391.274	9.71
391.484	9.14
391.693	7.38
391.903	7.06
392.112	6.97
392.322	10.47
392.531	15.16
392.74	15.43
392.95	10.5
393.159	9.36
393.369	10.97
393.578	7.74
393.787	6.85
393.997	11.11
394.206	10.18
394.415	10.63
394.625	11.34
394.834	9.63
395.043	7.58
395.252	9.28
395.462	8.8
395.671	10.22
395.88	12.91
396.089	14.8
396.298	13.77
396.508	13.11
396.717	12.81
396.926	11.76
397.135	11.12
397.344	11.4
397.553	11.59
397.762	11.71
397.971	11.18
398.181	10.76
398.39	9.21
398.599	9.03
398.808	8.46
399.017	9.1
399.226	9.41
399.435	10.49
399.644	10.23
399.853	10.02
400.062	9.74
400.27	9.63
400.479	9.64
400.688	9.38
400.897	9.77
401.106	9.76
401.315	9.25
401.524	8.98
401.733	9.43
401.941	9.57
402.15	9.31
402.359	9.41
402.568	9.5
402.777	9.27
402.985	8.96
403.194	9.07
403.403	9.12
403.612	9
403.82	8.92
404.029	9.12
404.238	8.79
404.446	8.99
404.655	8.83
404.864	8.8
405.072	8.51
405.281	8.81
405.489	8.48
405.698	8.36
405.906	8.35
406.115	8.22
406.324	8
406.532	8.01
406.741	8.28
406.949	8.15
407.158	8.23
407.366	8.37
407.574	8.46
407.783	8.26
407.991	8.28
408.2	8.3
408.408	8.15
408.617	8.06
408.825	8.03
409.033	8.04
409.242	8.18
409.45	8.13
409.658	8
409.867	8.06
410.075	7.99
410.283	7.7
410.491	7.73
410.7	7.66
410.908	7.71
411.116	7.84
411.324	7.84
411.533	7.83
411.741	8
411.949	7.94
412.157	7.71
412.365	7.87
412.573	7.79
412.781	7.79
412.99	7.71
413.198	7.91
413.406	7.82
413.614	7.97
413.822	7.89
414.03	7.89
414.238	7.65
414.446	7.66
414.654	7.34
414.862	7.4
415.07	7.47
415.278	7.64
415.486	7.25
415.694	7.53
415.902	7.48
416.109	7.31
416.317	7.32
416.525	7.24
416.733	7.25
416.941	7.35
417.149	7.31
417.357	7.28
417.564	7.73
417.772	7.57
417.98	7.41
418.188	7.42
418.395	7.22
418.603	7.24
418.811	7.16
419.019	7.06
419.226	7.27
419.434	7.45
419.642	7.22
419.849	7.27
420.057	7.47
420.265	7.36
420.472	7.17
420.68	7.32
420.887	7.17
421.095	7.1
421.302	6.97
421.51	7.17
421.717	7.07
421.925	7.09
422.132	7.02
422.34	7.02
422.547	6.89
422.755	6.87
422.962	6.94
423.17	6.88
423.377	6.99
423.585	7.18
423.792	7.15
423.999	7.25
424.207	7.17
424.414	7.13
424.621	6.98
424.829	6.96
425.036	6.83
425.243	6.92
425.451	6.85
425.658	6.67
425.865	6.63
426.072	6.68
426.28	6.6
426.487	6.49
426.694	6.66
426.901	6.77
427.108	6.75
427.315	6.82
427.523	7.08
427.73	7.03
427.937	6.78
428.144	6.65
428.351	6.63
428.558	6.62
428.765	6.54
428.972	6.64
429.179	6.77
429.386	6.82
429.593	6.59
429.8	6.54
430.007	6.84
430.214	6.88
430.421	6.82
430.628	6.81
430.835	6.81
431.042	6.71
431.249	6.65
431.456	6.91
431.662	7.19
431.869	7.28
432.076	7.17
432.283	7.11
432.49	6.84
432.697	6.77
432.903	6.52
433.11	6.59
433.317	6.81
433.524	6.99
433.73	6.82
433.937	7.15
434.144	7.04
434.35	6.93
434.557	6.82
434.764	6.81
434.97	6.81
435.177	6.94
435.384	6.7
435.59	6.82
435.797	6.93
436.003	6.87
436.21	6.74
436.416	6.89
436.623	6.72
436.829	6.72
437.036	6.71
437.242	6.76
437.449	6.78
437.655	6.81
437.862	6.79
438.068	6.88
438.275	6.92
438.481	7.02
438.687	6.98
438.894	6.93
439.1	6.82
439.307	6.94
439.513	6.83
439.719	6.88
439.926	6.87
440.132	6.92
440.338	6.71
440.544	6.78
440.751	6.73
440.957	6.89
441.163	6.69
441.369	6.75
441.575	6.63
441.782	6.54
441.988	6.34
442.194	6.42
442.4	6.45
442.606	6.63
442.812	6.8
443.018	6.91
443.224	7.06
443.431	7.11
443.637	7.08
443.843	6.89
444.049	6.85
444.255	6.85
444.461	6.78
444.667	6.63
444.873	6.74
445.079	6.85
445.284	6.78
445.49	6.7
445.696	6.53
445.902	6.5
446.108	6.36
446.314	6.22
446.52	6.38
446.726	6.78
446.931	6.74
447.137	6.87
447.343	7.09
447.549	6.88
447.755	6.72
447.96	6.82
448.166	6.73
448.372	6.77
448.578	6.81
448.783	6.76
448.989	6.86
449.195	6.97
449.4	6.8
449.606	6.84
449.812	6.81
450.017	6.75
450.223	6.68
450.428	6.6
450.634	6.69
450.84	6.86
451.045	6.76
451.251	6.71
451.456	6.89
451.662	6.97
451.867	6.94
452.073	6.93
452.278	6.95
452.483	7
452.689	6.97
452.894	6.97
453.1	7.09
453.305	6.96
453.51	6.88
453.716	6.75
453.921	6.78
454.127	6.78
454.332	6.74
454.537	6.65
454.742	6.75
454.948	6.76
455.153	6.67
455.358	6.86
455.563	6.97
455.769	6.9
455.974	6.77
456.179	6.67
456.384	6.58
456.589	6.58
456.795	6.4
457	6.47
457.205	6.55
457.41	6.44
457.615	6.4
457.82	6.62
458.025	6.72
458.23	6.65
458.435	6.89
458.64	6.7
458.845	6.75
459.05	6.58
459.255	6.57
459.46	6.39
459.665	6.53
459.87	6.47
460.075	6.38
460.28	6.47
460.485	6.64
460.69	6.67
460.895	6.45
461.099	6.46
461.304	6.64
461.509	6.71
461.714	6.58
461.919	6.81
462.123	6.87
462.328	6.78
462.533	6.53
462.738	6.63
462.942	6.49
463.147	6.54
463.352	6.51
463.556	6.49
463.761	6.5
463.966	6.6
464.17	6.63
464.375	6.53
464.58	6.6
464.784	6.57
464.989	6.44
465.193	6.39
465.398	6.44
465.602	6.64
465.807	6.53
466.011	6.65
466.216	6.72
466.42	6.78
