Data from Ofra_PP_Phys_0GT15_Reflection_3.txt Node
Date: Sat Jul 24 20:01:02 EDT 2021
User: USUARIO
Spectrometer: FLMT01687
Trigger mode: 0
Integration Time (sec): 1.100000E0
Scans to average: 2
Electric dark correction enabled: true
Nonlinearity correction enabled: false
Boxcar width: 2
XAxis mode: Wavelengths
Number of Pixels in Spectrum: 3648
>>>>>Begin Spectral Data<<<<<
179.494	290.95
179.716	403.16
179.937	683.13
180.158	646.21
180.38	337.94
180.601	-409.84
180.823	11.57
181.044	593.02
181.265	-16.13
181.486	-19.41
181.708	-53.71
181.929	-1068
182.15	413.25
182.372	-63.68
182.593	53300
182.814	432.31
183.035	175.05
183.257	143.24
183.478	51.15
183.699	74.77
183.92	43.52
184.141	30.75
184.363	0.1
184.584	48.35
184.805	25.33
185.026	43.73
185.247	30.09
185.468	19.6
185.689	11.78
185.91	27.91
186.132	11.68
186.353	22.81
186.574	35.22
186.795	37.53
187.016	12.05
187.237	22.84
187.458	31.12
187.679	64.97
187.9	77.22
188.121	110.86
188.342	124.28
188.563	89.98
188.784	78.63
189.005	64.21
189.226	60.22
189.447	50.98
189.667	67.24
189.888	59.91
190.109	45.35
190.33	25.34
190.551	12.9
190.772	15.6
190.993	1.07
191.214	-4.1
191.434	-10.81
191.655	19.73
191.876	-7.44
192.097	2.4
192.318	7.05
192.538	6.26
192.759	0.67
192.98	13.44
193.201	15.87
193.421	15.17
193.642	26.07
193.863	8.8
194.083	3.73
194.304	22.04
194.525	36.8
194.745	25.27
194.966	9.01
195.187	2.86
195.407	-54.05
195.628	-69.43
195.848	-26.39
196.069	22.21
196.29	47.12
196.51	48.68
196.731	37.64
196.951	32.95
197.172	-1.76
197.392	1.68
197.613	9.17
197.833	20.47
198.054	0.72
198.274	9.43
198.495	4.89
198.715	31.04
198.936	17.18
199.156	41.8
199.377	37.56
199.597	24.9
199.817	21.01
200.038	49.36
200.258	57.34
200.479	51.9
200.699	67.91
200.919	51.75
201.14	22.65
201.36	4.94
201.58	17.18
201.801	13.92
202.021	23.3
202.241	56.93
202.461	42.13
202.682	20.35
202.902	39.32
203.122	21.73
203.342	16.29
203.563	26.63
203.783	44.33
204.003	-17.61
204.223	-70.14
204.443	-35.25
204.663	1.34
204.884	-22.38
205.104	10.47
205.324	58.8
205.544	57.72
205.764	32.15
205.984	54.33
206.204	49.8
206.424	28.36
206.644	12.2
206.864	28.34
207.084	29.4
207.304	49.61
207.525	16.04
207.745	27.04
207.964	31.23
208.184	25.64
208.404	8.61
208.624	27.43
208.844	29.05
209.064	19.32
209.284	19.32
209.504	32.57
209.724	35.6
209.944	20.3
210.164	33.73
210.384	42.89
210.604	34.7
210.823	10.79
211.043	-8.62
211.263	-23.2
211.483	-48.83
211.703	-44.44
211.922	-15.87
212.142	31.42
212.362	46
212.582	38.85
212.801	45.05
213.021	27.66
213.241	15.76
213.461	0.63
213.68	-20.17
213.9	-27.88
214.12	-27.62
214.339	-35.72
214.559	-18.64
214.779	28.81
214.998	36.17
215.218	31.28
215.438	32.27
215.657	20.29
215.877	28.34
216.096	35.03
216.316	50.36
216.535	61.63
216.755	63.65
216.974	53.17
217.194	49.13
217.413	35.56
217.633	13.84
217.852	-31.99
218.072	-36.52
218.291	-56.34
218.511	-45.21
218.73	-56.59
218.95	-30.12
219.169	-31.45
219.389	-30.61
219.608	-31.24
219.827	13.4
220.047	19.67
220.266	20.31
220.485	18.51
220.705	35.07
220.924	-5.51
221.143	0.05
221.363	-6.97
221.582	27.36
221.801	21.01
222.021	43.98
222.24	58.06
222.459	79.4
222.678	57.91
222.897	33.91
223.117	37.08
223.336	13.29
223.555	18.39
223.774	36.62
223.993	51.1
224.213	66.29
224.432	63.96
224.651	73.1
224.87	49.77
225.089	51.62
225.308	33.27
225.527	43.24
225.746	39.99
225.965	30.69
226.184	39.11
226.404	46.81
226.623	35.93
226.842	31.86
227.061	52.63
227.28	42.54
227.499	65.06
227.718	66.52
227.936	64.93
228.155	83.31
228.374	62.57
228.593	28.06
228.812	24.76
229.031	27.77
229.25	-4.26
229.469	23.76
229.688	23.61
229.907	31.88
230.125	43.47
230.344	61.83
230.563	55.35
230.782	77.95
231.001	44.03
231.22	30.16
231.438	-9.22
231.657	1.15
231.876	-4.53
232.095	26.46
232.313	18.81
232.532	26.33
232.751	27.72
232.969	24.81
233.188	25.88
233.407	20.31
233.625	17.94
233.844	12.67
234.063	11.5
234.281	16.55
234.5	35.92
234.719	57.13
234.937	42.47
235.156	40.84
235.374	38.17
235.593	52.53
235.811	53.66
236.03	63.14
236.249	54.97
236.467	67.39
236.686	34.66
236.904	25.41
237.123	-8.81
237.341	-3.28
237.559	-28.91
237.778	-20.54
237.996	-33.5
238.215	-5.31
238.433	-11.18
238.652	-0.48
238.87	-22.58
239.088	-12.57
239.307	-8.17
239.525	-2.25
239.743	-6.62
239.962	11.33
240.18	-2.55
240.398	-34.19
240.617	-42.55
240.835	-29.05
241.053	-66.87
241.271	-53.11
241.49	1.1
241.708	14.46
241.926	12.19
242.144	39.4
242.363	40.05
242.581	40.1
242.799	49.55
243.017	35.5
243.235	15.93
243.453	28.43
243.672	12.49
243.89	12
244.108	27.03
244.326	39.2
244.544	30.26
244.762	21.36
244.98	22.56
245.198	19.07
245.416	5.43
245.634	12.66
245.852	34.24
246.07	14.15
246.288	23.81
246.506	28.49
246.724	28.26
246.942	28.11
247.16	27.1
247.378	22.55
247.596	20.63
247.814	16.89
248.032	-5.27
248.25	-1
248.468	2.37
248.685	10.02
248.903	1.95
249.121	2.29
249.339	-13.03
249.557	-21.55
249.775	-29.31
249.992	-41.14
250.21	-33.74
250.428	-7.55
250.646	2.48
250.863	7.38
251.081	22.86
251.299	25.78
251.517	25.96
251.734	12.31
251.952	7.68
252.17	14.33
252.387	23.21
252.605	8.27
252.823	23.67
253.04	36.11
253.258	39.56
253.475	43.17
253.693	62.66
253.911	63.67
254.128	59.24
254.346	58.63
254.563	43.21
254.781	30.21
254.998	31.76
255.216	22.36
255.433	21.55
255.651	37.99
255.868	37.22
256.086	32.02
256.303	32.87
256.521	21.14
256.738	20.69
256.956	25.12
257.173	34.3
257.39	36.73
257.608	32.33
257.825	32.52
258.043	41.82
258.26	40.15
258.477	30.09
258.695	40.44
258.912	18.17
259.129	14.3
259.346	-12.64
259.564	-13.78
259.781	-4.63
259.998	-1.97
260.216	18.64
260.433	34.52
260.65	31.94
260.867	20.39
261.084	17.93
261.302	9.36
261.519	23.25
261.736	21.31
261.953	30.59
262.17	37.03
262.387	26.39
262.604	14.43
262.822	14.03
263.039	3.66
263.256	7.17
263.473	20
263.69	7.17
263.907	26.71
264.124	24.74
264.341	36.12
264.558	32.84
264.775	36.45
264.992	42.48
265.209	47.55
265.426	35.16
265.643	40.02
265.86	45.69
266.077	46.51
266.294	48.77
266.51	48.61
266.727	37.03
266.944	52.44
267.161	41.7
267.378	42.39
267.595	48.46
267.812	36.71
268.028	32.43
268.245	27.15
268.462	23.58
268.679	13.02
268.896	29.46
269.112	6.82
269.329	12.09
269.546	21.24
269.763	24.93
269.979	10.89
270.196	15.82
270.413	15.19
270.629	4.97
270.846	3.87
271.063	16.99
271.279	7.24
271.496	1.7
271.712	11.17
271.929	10.82
272.146	20.54
272.362	34.35
272.579	61.71
272.795	54.75
273.012	73.84
273.228	53.02
273.445	35.52
273.661	4.7
273.878	-36.76
274.094	-52.29
274.311	-50.89
274.527	-28.1
274.744	-23.79
274.96	12.73
275.177	22.46
275.393	28.25
275.609	43.76
275.826	49.42
276.042	59.2
276.259	66.38
276.475	58.22
276.691	49.2
276.908	52.35
277.124	58.18
277.34	62.02
277.557	70.47
277.773	69.37
277.989	62.19
278.205	54.72
278.422	50.31
278.638	29.19
278.854	21.52
279.07	29.21
279.286	12.03
279.503	4.72
279.719	16.25
279.935	18.66
280.151	4.02
280.367	15.34
280.583	25.85
280.799	23.1
281.016	26.77
281.232	29.72
281.448	39.85
281.664	32.22
281.88	31.77
282.096	24.12
282.312	30.17
282.528	17.41
282.744	25.72
282.96	27.45
283.176	37.31
283.392	39.94
283.608	51.05
283.824	48.11
284.04	39.99
284.256	45.59
284.471	41.22
284.687	34.46
284.903	35.69
285.119	55
285.335	23.9
285.551	16.33
285.767	6.94
285.982	-6.06
286.198	-20.95
286.414	2.35
286.63	-0.68
286.846	12.7
287.061	5.83
287.277	14.34
287.493	26.17
287.709	37.84
287.924	42.35
288.14	69.37
288.356	73.57
288.571	75.18
288.787	67.51
289.003	67.92
289.218	49.46
289.434	19.79
289.65	23.96
289.865	22.79
290.081	18.42
290.296	22.37
290.512	28.5
290.727	23.55
290.943	16.55
291.159	7.86
291.374	6.65
291.59	-13.49
291.805	-18.67
292.021	10.96
292.236	11.13
292.451	15.43
292.667	31.21
292.882	31.55
293.098	36.9
293.313	33.86
293.529	33.89
293.744	26.02
293.959	25.23
294.175	12.35
294.39	34.55
294.605	36.06
294.821	30.94
295.036	22.58
295.251	19
295.467	11.5
295.682	10.06
295.897	4.22
296.112	8.12
296.328	7.88
296.543	-4.54
296.758	-13.05
296.973	14.72
297.188	29.24
297.404	20.59
297.619	31.34
297.834	37.87
298.049	27.13
298.264	18.86
298.479	38.54
298.694	35.35
298.909	33.19
299.125	45.62
299.34	48.57
299.555	39.59
299.77	38.5
299.985	14.4
300.2	1.42
300.415	-10.34
300.63	-11.98
300.845	0.17
301.06	6.14
301.275	0.55
301.49	13.86
301.704	3.93
301.919	-16.25
302.134	-10.85
302.349	14.22
302.564	-3.84
302.779	13.71
302.994	45.58
303.209	47.65
303.423	44.52
303.638	59.52
303.853	51.45
304.068	4.26
304.283	3.35
304.497	4.75
304.712	11.49
304.927	16.97
305.142	20.41
305.356	21.19
305.571	13.76
305.786	8.38
306	-3.18
306.215	16.49
306.43	-0.1
306.644	23.26
306.859	18.29
307.074	17.94
307.288	-6.46
307.503	3.89
307.717	-14.96
307.932	-10.08
308.147	-9.25
308.361	-0.45
308.576	-7.34
308.79	-27.96
309.005	-4.78
309.219	-17.34
309.434	-5.67
309.648	-7.34
309.863	18.57
310.077	11.5
310.292	31.58
310.506	28.38
310.72	53.62
310.935	43.48
311.149	40.87
311.364	36.26
311.578	41.05
311.792	36.21
312.007	34.53
312.221	13.91
312.435	17.93
312.649	-1.66
312.864	23.61
313.078	15.61
313.292	37.13
313.507	29.74
313.721	37.05
313.935	17.58
314.149	41.79
314.363	35.47
314.578	28.87
314.792	27.3
315.006	32.89
315.22	12.81
315.434	9.31
315.648	25.56
315.862	33.7
316.077	30.4
316.291	28.31
316.505	31.13
316.719	31.77
316.933	-6.4
317.147	-4.82
317.361	-7.55
317.575	3.28
317.789	-4.12
318.003	1.55
318.217	10.56
318.431	26.09
318.645	21.51
318.859	13.69
319.073	33.07
319.287	18.13
319.5	-0.37
319.714	-4.16
319.928	3.71
320.142	-2.74
320.356	25.65
320.57	34.89
320.784	29.76
320.997	33.63
321.211	35.35
321.425	18.07
321.639	-10.06
321.853	15.33
322.066	-3.82
322.28	-15.96
322.494	-6.07
322.707	53.36
322.921	31.35
323.135	49.19
323.349	47.84
323.562	39.39
323.776	-4.25
323.989	0.87
324.203	-11.4
324.417	-0.11
324.63	-14.41
324.844	-3.85
325.057	-8.23
325.271	-16.34
325.485	-33.72
325.698	-12.06
325.912	4.77
326.125	7.89
326.339	32.97
326.552	46.9
326.766	60.8
326.979	55.35
327.193	56.51
327.406	47.49
327.619	53.97
327.833	44.71
328.046	32.45
328.26	24.26
328.473	15.74
328.686	3.18
328.9	8.26
329.113	14.94
329.326	12.55
329.54	28.49
329.753	27.76
329.966	26.93
330.179	35.84
330.393	45.34
330.606	40.63
330.819	36.78
331.032	35.78
331.246	34.31
331.459	27.87
331.672	17.16
331.885	12.09
332.098	1.7
332.311	5.7
332.525	-3.45
332.738	1.39
332.951	17.32
333.164	23.71
333.377	26.14
333.59	34
333.803	37.17
334.016	28.09
334.229	34.43
334.442	35.72
334.655	54.65
334.868	62.25
335.081	66.76
335.294	63.41
335.507	67.78
335.72	63.06
335.933	33.15
336.146	18.09
336.359	5.91
336.572	-9.95
336.785	-27.55
336.997	-15.15
337.21	4.51
337.423	9.65
337.636	22.28
337.849	25.54
338.062	22.02
338.274	18.34
338.487	15.38
338.7	15.94
338.913	9.02
339.125	9.4
339.338	11.04
339.551	17.84
339.763	30.32
339.976	49.45
340.189	50.96
340.402	51.78
340.614	49.03
340.827	38.95
341.039	23.01
341.252	19.66
341.465	20.27
341.677	10.29
341.89	-21.83
342.102	-10.97
342.315	-8.74
342.527	-11.17
342.74	-2.02
342.952	24.64
343.165	27.16
343.377	39.66
343.59	33.24
343.802	41.55
344.015	38.32
344.227	38.87
344.44	25.19
344.652	30.77
344.864	31.4
345.077	35.81
345.289	35.53
345.502	42.15
345.714	32.49
345.926	31
346.139	33.14
346.351	23.57
346.563	22.65
346.775	28.89
346.988	13.99
347.2	8.06
347.412	-2.09
347.624	-8
347.837	-6.33
348.049	0.86
348.261	19.57
348.473	32.52
348.685	11.24
348.897	4.35
349.11	1.85
349.322	-18.84
349.534	0.83
349.746	25.71
349.958	34.01
350.17	34.93
350.382	35.59
350.594	35.15
350.806	34.56
351.018	29.97
351.23	22.95
351.442	29.79
351.654	29.33
351.866	13.3
352.078	17.95
352.29	24.43
352.502	28.55
352.714	35.59
352.926	48.02
353.138	41.19
353.35	39.13
353.561	33.27
353.773	9.01
353.985	2.25
354.197	2.95
354.409	4.94
354.621	0.99
354.832	15.37
355.044	9.68
355.256	7.64
355.468	9.53
355.679	12.56
355.891	7.22
356.103	22.78
356.314	28.59
356.526	32.43
356.738	46.61
356.949	47.28
357.161	46.13
357.373	44.03
357.584	38.49
357.796	23.08
358.008	19.52
358.219	25.47
358.431	18.31
358.642	28.91
358.854	40.12
359.065	40.97
359.277	27.85
359.488	26.1
359.7	17.48
359.911	15.26
360.123	22.28
360.334	21.24
360.546	21.47
360.757	19.78
360.969	9.93
361.18	7.99
361.391	5.34
361.603	-2.28
361.814	4.93
362.025	2.02
362.237	2.47
362.448	12.75
362.659	23.24
362.871	15.29
363.082	18.11
363.293	24.58
363.504	24.58
363.716	21.27
363.927	23.98
364.138	20.75
364.349	-0.84
364.56	-2.77
364.772	-12.73
364.983	-0.65
365.194	-1.33
365.405	12.19
365.616	1.33
365.827	4.29
366.038	-1.48
366.25	2.52
366.461	-12.02
366.672	14.22
366.883	15.62
367.094	11.8
367.305	1.78
367.516	19.87
367.727	5.57
367.938	5.41
368.149	8.97
368.36	18
368.571	5.82
368.781	6.09
368.992	8.82
369.203	17.55
369.414	13.23
369.625	16.87
369.836	13.02
370.047	3.32
370.258	-10.07
370.468	-5.27
370.679	-21.53
370.89	-7.3
371.101	17.5
371.312	13.27
371.522	14.44
371.733	28.09
371.944	29.82
372.155	17.04
372.365	11.26
372.576	19.98
372.787	20.66
372.997	14.48
373.208	16.41
373.419	22.48
373.629	-0.84
373.84	0.9
374.05	-8.57
374.261	0.78
374.472	3.96
374.682	24.56
374.893	7.75
375.103	27.97
375.314	20.47
375.524	20.98
375.735	28.63
375.945	40.01
376.156	21.39
376.366	28.09
376.577	27.62
376.787	26.96
376.997	31.98
377.208	36.86
377.418	21.33
377.629	27.44
377.839	14.05
378.049	11.55
378.26	17.61
378.47	36.08
378.68	35.09
378.89	43.66
379.101	43.9
379.311	35.98
379.521	20.32
379.732	23.07
379.942	11.25
380.152	13.68
380.362	18.03
380.572	13.37
380.783	15.47
380.993	19.93
381.203	17.3
381.413	22.99
381.623	30.78
381.833	26.67
382.043	13.42
382.253	13.4
382.463	13.6
382.674	7.74
382.884	4.17
383.094	14.51
383.304	14.6
383.514	9.39
383.724	12.72
383.934	9.64
384.144	2.56
384.353	3.61
384.563	11.48
384.773	15.83
384.983	18.52
385.193	28.27
385.403	16.45
385.613	12.35
385.823	11.46
386.033	14.05
386.242	8.6
386.452	14.33
386.662	9.56
386.872	11.32
387.082	11.17
387.291	4.48
387.501	4.47
387.711	3.16
387.921	-7.09
388.13	-3.23
388.34	2.96
388.55	4.1
388.759	5.17
388.969	8.53
389.179	6.29
389.388	6.3
389.598	7.07
389.807	6.97
390.017	10.39
390.227	8.19
390.436	9.07
390.646	12.47
390.855	12.2
391.065	10.6
391.274	8.64
391.484	3.98
391.693	1.82
391.903	2.69
392.112	3.94
392.322	8.25
392.531	12.37
392.74	11.04
392.95	8.12
393.159	7.04
393.369	6.45
393.578	4.19
393.787	4.55
393.997	7.7
394.206	7.18
394.415	7.45
394.625	7.51
394.834	7.21
395.043	5.65
395.252	7
395.462	6.88
395.671	7.19
395.88	8.79
396.089	9.72
396.298	8.81
396.508	7.84
396.717	8.14
396.926	6.82
397.135	6.38
397.344	6.33
397.553	6.49
397.762	6.99
397.971	7.05
398.181	7.26
398.39	6.4
398.599	6.48
398.808	5.55
399.017	5.66
399.226	5.46
399.435	6.01
399.644	5.94
399.853	6.19
400.062	5.56
400.27	5.63
400.479	5.5
400.688	5.26
400.897	5.36
401.106	5.55
401.315	5.37
401.524	5.57
401.733	5.87
401.941	6.05
402.15	6.26
402.359	6.28
402.568	6.31
402.777	6.07
402.985	5.77
403.194	5.65
403.403	5.74
403.612	5.42
403.82	5.48
404.029	5.52
404.238	5.4
404.446	5.35
404.655	5.27
404.864	5.26
405.072	5.17
405.281	5.23
405.489	5.01
405.698	5.05
405.906	4.88
406.115	4.76
406.324	4.64
406.532	4.79
406.741	4.93
406.949	4.88
407.158	4.98
407.366	5.07
407.574	5.14
407.783	5.01
407.991	5.09
408.2	5.04
408.408	4.81
408.617	4.61
408.825	4.55
409.033	4.62
409.242	4.56
409.45	4.62
409.658	4.57
409.867	4.64
410.075	4.53
410.283	4.53
410.491	4.66
410.7	4.65
410.908	4.59
411.116	4.5
411.324	4.43
411.533	4.37
411.741	4.34
411.949	4.32
412.157	4.21
412.365	4.32
412.573	4.27
412.781	4.39
412.99	4.38
413.198	4.64
413.406	4.7
413.614	4.7
413.822	4.68
414.03	4.68
414.238	4.48
414.446	4.35
414.654	4.23
414.862	4.15
415.07	4.12
415.278	4.28
415.486	4.12
415.694	4.25
415.902	4.22
416.109	4.21
416.317	4.21
416.525	4.19
416.733	4.17
416.941	4.22
417.149	4.23
417.357	4.13
417.564	4.33
417.772	4.27
417.98	4.2
418.188	4.09
418.395	4.07
418.603	4.15
418.811	4.1
419.019	4
419.226	4.22
419.434	4.32
419.642	4.21
419.849	4.15
420.057	4.35
420.265	4.27
420.472	4.12
420.68	4.12
420.887	4.13
421.095	4.16
421.302	4.06
421.51	4.13
421.717	4.12
421.925	4.24
422.132	4.1
422.34	4.02
422.547	3.85
422.755	3.9
422.962	3.88
423.17	3.88
423.377	3.97
423.585	4.18
423.792	4.02
423.999	4.06
424.207	4.1
424.414	4.05
424.621	4.01
424.829	4.07
425.036	4.01
425.243	3.87
425.451	3.86
425.658	3.79
425.865	3.69
426.072	3.69
426.28	3.74
426.487	3.64
426.694	3.71
426.901	3.84
427.108	3.8
427.315	3.77
427.523	4.01
427.73	3.88
427.937	3.75
428.144	3.72
428.351	3.64
428.558	3.53
428.765	3.53
428.972	3.41
429.179	3.39
429.386	3.55
429.593	3.61
429.8	3.57
430.007	3.81
430.214	3.86
430.421	3.92
430.628	3.88
430.835	3.78
431.042	3.9
431.249	3.95
431.456	3.91
431.662	3.93
431.869	3.94
432.076	3.74
432.283	3.63
432.49	3.48
432.697	3.46
432.903	3.46
433.11	3.58
433.317	3.66
433.524	3.85
433.73	3.79
433.937	3.87
434.144	3.77
434.35	3.72
434.557	3.6
434.764	3.55
434.97	3.61
435.177	3.65
435.384	3.53
435.59	3.58
435.797	3.73
436.003	3.7
436.21	3.66
436.416	3.76
436.623	3.72
436.829	3.58
437.036	3.57
437.242	3.57
437.449	3.51
437.655	3.45
437.862	3.52
438.068	3.54
438.275	3.65
438.481	3.83
438.687	3.87
438.894	3.9
439.1	3.8
439.307	3.77
439.513	3.58
439.719	3.58
439.926	3.5
440.132	3.63
440.338	3.59
440.544	3.75
440.751	3.72
440.957	3.83
441.163	3.58
441.369	3.6
441.575	3.44
441.782	3.48
441.988	3.39
442.194	3.58
442.4	3.49
442.606	3.63
442.812	3.64
443.018	3.64
443.224	3.67
443.431	3.66
443.637	3.55
443.843	3.45
444.049	3.45
444.255	3.36
444.461	3.4
444.667	3.4
444.873	3.4
445.079	3.52
445.284	3.57
445.49	3.42
445.696	3.35
445.902	3.42
446.108	3.36
446.314	3.29
446.52	3.46
446.726	3.7
446.931	3.68
447.137	3.64
447.343	3.73
447.549	3.6
447.755	3.53
447.96	3.54
448.166	3.53
448.372	3.58
448.578	3.63
448.783	3.6
448.989	3.67
449.195	3.84
449.4	3.8
449.606	3.76
449.812	3.75
450.017	3.76
450.223	3.71
450.428	3.52
450.634	3.69
450.84	3.71
451.045	3.56
451.251	3.45
451.456	3.56
451.662	3.54
451.867	3.62
452.073	3.64
452.278	3.65
452.483	3.78
452.689	3.69
452.894	3.7
453.1	3.78
453.305	3.72
453.51	3.63
453.716	3.63
453.921	3.61
454.127	3.6
454.332	3.64
454.537	3.64
454.742	3.68
454.948	3.7
455.153	3.57
455.358	3.64
455.563	3.63
455.769	3.59
455.974	3.55
456.179	3.62
456.384	3.6
456.589	3.61
456.795	3.54
457	3.51
457.205	3.5
457.41	3.41
457.615	3.44
457.82	3.47
458.025	3.51
458.23	3.48
458.435	3.63
458.64	3.49
458.845	3.53
459.05	3.41
459.255	3.35
459.46	3.2
459.665	3.31
459.87	3.3
460.075	3.27
460.28	3.32
460.485	3.41
460.69	3.41
460.895	3.26
461.099	3.29
461.304	3.39
461.509	3.39
461.714	3.31
461.919	3.38
462.123	3.44
462.328	3.34
462.533	3.25
462.738	3.34
462.942	3.36
463.147	3.37
463.352	3.46
463.556	3.5
463.761	3.48
463.966	3.54
464.17	3.6
464.375	3.58
464.58	3.53
464.784	3.56
464.989	3.48
465.193	3.39
465.398	3.42
465.602	3.57
465.807	3.45
466.011	3.49
466.216	3.54
466.42	3.58
466.625	3.5
466.829	3.69
467.034	3.77
467.238	3.75
467.443	3.68
467.647	3.57
467.851	3.5
468.056	3.44
468.26	3.4
468.464	3.33
468.669	3.43
