Data from Ofra_PP_Phys_2CX12S_Reflection_3.txt Node
Date: Sat Jul 24 20:04:29 EDT 2021
User: USUARIO
Spectrometer: FLMT01687
Trigger mode: 0
Integration Time (sec): 1.100000E0
Scans to average: 2
Electric dark correction enabled: true
Nonlinearity correction enabled: false
Boxcar width: 2
XAxis mode: Wavelengths
Number of Pixels in Spectrum: 3648
>>>>>Begin Spectral Data<<<<<
179.494	563.92
179.716	713.33
179.937	1255.82
180.158	1091.3
180.38	497.18
180.601	-640.24
180.823	24.76
181.044	706.2
181.265	13.84
181.486	-3.21
181.708	-6.84
181.929	-1006.67
182.15	173.09
182.372	-21.23
182.593	24833.33
182.814	277.44
183.035	119.99
183.257	134.09
183.478	76.47
183.699	142.33
183.92	118.59
184.141	142.32
184.363	84.33
184.584	119.32
184.805	74.3
185.026	83.26
185.247	79.94
185.468	51.66
185.689	39.96
185.91	37.04
186.132	14.61
186.353	14.05
186.574	59.03
186.795	66.5
187.016	28.5
187.237	71.14
187.458	70.6
187.679	89.98
187.9	83.55
188.121	133.36
188.342	118.63
188.563	114.19
188.784	111.77
189.005	111.88
189.226	103.1
189.447	87.23
189.667	76.09
189.888	56.1
190.109	32.11
190.33	12.56
190.551	0.2
190.772	7.48
190.993	-12.53
191.214	-9.29
191.434	-24.03
191.655	34.61
191.876	23.06
192.097	29.06
192.318	35.98
192.538	30.17
192.759	5.8
192.98	-0.85
193.201	9.19
193.421	3.29
193.642	29.96
193.863	28.8
194.083	30.15
194.304	32.23
194.525	34.94
194.745	43.34
194.966	23.02
195.187	26.82
195.407	9.18
195.628	-20.14
195.848	9.24
196.069	-0.68
196.29	0.37
196.51	-14.92
196.731	-18.39
196.951	-47.82
197.172	-17.94
197.392	-21.55
197.613	-1.99
197.833	-9.02
198.054	-15.43
198.274	-4.55
198.495	-43.92
198.715	-23.64
198.936	-22.06
199.156	-3.8
199.377	-14.55
199.597	6.59
199.817	13.02
200.038	24.53
200.258	22.81
200.479	50.76
200.699	54.3
200.919	49.34
201.14	29.35
201.36	21.57
201.58	23.85
201.801	22.66
202.021	29.3
202.241	82.29
202.461	76.09
202.682	51.12
202.902	72.93
203.122	54.73
203.342	47.7
203.563	79.03
203.783	99.43
204.003	60.96
204.223	24.63
204.443	67.87
204.663	60.05
204.884	30.54
205.104	57.78
205.324	100.58
205.544	73.3
205.764	65.02
205.984	87.04
206.204	89.19
206.424	57.53
206.644	58.67
206.864	36.08
207.084	2.87
207.304	20.93
207.525	-2.6
207.745	9.73
207.964	30.59
208.184	18.83
208.404	4.55
208.624	17.8
208.844	13.13
209.064	-12.61
209.284	1.55
209.504	15.95
209.724	35.08
209.944	40.17
210.164	59.4
210.384	69.23
210.604	59.94
210.823	20.25
211.043	10.03
211.263	8.99
211.483	-23.58
211.703	-37.66
211.922	-3.2
212.142	25.73
212.362	43.55
212.582	41.22
212.801	43.26
213.021	12.38
213.241	15.07
213.461	-13.86
213.68	-31.3
213.9	-22.73
214.12	7.37
214.339	-24.26
214.559	-9.78
214.779	37.36
214.998	27.52
215.218	7.82
215.438	26.49
215.657	22
215.877	32.31
216.096	41.37
216.316	72.29
216.535	71.7
216.755	80.77
216.974	69.89
217.194	72.65
217.413	57.69
217.633	48.01
217.852	-2.53
218.072	-10.14
218.291	-31.34
218.511	-13.91
218.73	-60.73
218.95	-47.74
219.169	-41.03
219.389	-55.54
219.608	-79.88
219.827	-16.49
220.047	-3.09
220.266	-0.33
220.485	9.16
220.705	51.45
220.924	10.01
221.143	38.8
221.363	-9.65
221.582	32.16
221.801	11.62
222.021	47.17
222.24	42.83
222.459	91.77
222.678	63.95
222.897	55.16
223.117	41.54
223.336	42.78
223.555	41.65
223.774	70.14
223.993	92.84
224.213	159.78
224.432	102.4
224.651	112.59
224.87	79.54
225.089	79.5
225.308	41.82
225.527	69.52
225.746	58.09
225.965	52.86
226.184	44.49
226.404	67.33
226.623	32.71
226.842	33.33
227.061	55.9
227.28	65.38
227.499	65.92
227.718	101.42
227.936	100.46
228.155	91.41
228.374	43.72
228.593	28.66
228.812	9.72
229.031	27.06
229.25	12.23
229.469	42.03
229.688	52.23
229.907	58.03
230.125	46.98
230.344	56.1
230.563	53.74
230.782	61.42
231.001	11.65
231.22	14.7
231.438	4.54
231.657	-0.91
231.876	-10.54
232.095	28.51
232.313	33.23
232.532	39.19
232.751	53.93
232.969	56.19
233.188	65.98
233.407	58.18
233.625	53.39
233.844	52.48
234.063	39.62
234.281	63.53
234.5	63.38
234.719	74.85
234.937	63.75
235.156	68.18
235.374	39.96
235.593	54.93
235.811	55.12
236.03	57.62
236.249	49.65
236.467	60.58
236.686	51.93
236.904	50.93
237.123	-6.45
237.341	14.57
237.559	6.14
237.778	2.78
237.996	-23.8
238.215	27.09
238.433	2.56
238.652	27.91
238.87	1.82
239.088	41.74
239.307	31.99
239.525	48.52
239.743	0.16
239.962	24.44
240.18	-20.83
240.398	-37.7
240.617	-41.72
240.835	-5.81
241.053	-27.32
241.271	19.71
241.49	22.54
241.708	28.65
241.926	16.79
242.144	25.26
242.363	16.62
242.581	21.47
242.799	25.33
243.017	27.84
243.235	16.12
243.453	37.34
243.672	14.16
243.89	21.6
244.108	32.5
244.326	34.54
244.544	30.24
244.762	28.39
244.98	20.48
245.198	19.85
245.416	20.04
245.634	33.9
245.852	51.95
246.07	47.86
246.288	51.12
246.506	50.22
246.724	53.06
246.942	41.89
247.16	50
247.378	47.05
247.596	53.36
247.814	49.13
248.032	25.34
248.25	24.63
248.468	25.2
248.685	47.11
248.903	52.42
249.121	83.71
249.339	69.31
249.557	66.85
249.775	38.62
249.992	-32.29
250.21	-53.85
250.428	-15.82
250.646	-19.64
250.863	-10.53
251.081	22.97
251.299	51
251.517	41.38
251.734	49.99
251.952	28.1
252.17	30.1
252.387	31.47
252.605	10.46
252.823	7.01
253.04	22.26
253.258	21.1
253.475	17.76
253.693	39.12
253.911	51.7
254.128	46.83
254.346	61.59
254.563	45.63
254.781	48.47
254.998	40.38
255.216	35.28
255.433	25.03
255.651	50.95
255.868	59.64
256.086	63.7
256.303	68.76
256.521	85.77
256.738	69.64
256.956	45.05
257.173	56.6
257.39	55.79
257.608	40.38
257.825	46.57
258.043	65.75
258.26	55.16
258.477	40.41
258.695	36.58
258.912	-4.72
259.129	-5.53
259.346	-23.73
259.564	9.05
259.781	28.86
259.998	45.48
260.216	57.53
260.433	85.62
260.65	66.32
260.867	66.15
261.084	55.66
261.302	60.92
261.519	57.02
261.736	50.47
261.953	39.18
262.17	49.63
262.387	29.61
262.604	10.37
262.822	13.59
263.039	6.11
263.256	5.2
263.473	16.54
263.69	-4.73
263.907	8.23
264.124	19.97
264.341	50.87
264.558	33.85
264.775	37.17
264.992	37.43
265.209	45.55
265.426	20.84
265.643	36.82
265.86	54
266.077	56.3
266.294	53.6
266.51	66.8
266.727	49.86
266.944	64.06
267.161	45.66
267.378	50.74
267.595	44.53
267.812	30.16
268.028	16.13
268.245	33.73
268.462	10.71
268.679	-7.96
268.896	32.78
269.112	19.18
269.329	9.65
269.546	26.48
269.763	47.7
269.979	41.59
270.196	47.52
270.413	53.34
270.629	40.21
270.846	28.55
271.063	38.55
271.279	31.32
271.496	13.77
271.712	31.02
271.929	26.37
272.146	23.69
272.362	20.85
272.579	55.28
272.795	46.81
273.012	58.11
273.228	47.48
273.445	40.09
273.661	9.84
273.878	-28.48
274.094	-36.88
274.311	-38.57
274.527	-11
274.744	15.41
274.96	35.02
275.177	38.71
275.393	33.29
275.609	38.42
275.826	33.2
276.042	33.72
276.259	46.21
276.475	35.67
276.691	32.34
276.908	19.1
277.124	55.55
277.34	43.72
277.557	58.91
277.773	69.8
277.989	81.6
278.205	65.98
278.422	74.69
278.638	80.23
278.854	68.39
279.07	69.51
279.286	35.56
279.503	23.04
279.719	17.29
279.935	15.69
280.151	7.68
280.367	22.09
280.583	25.3
280.799	22.34
281.016	26.65
281.232	36.79
281.448	47.63
281.664	57.46
281.88	53.72
282.096	41.03
282.312	44.85
282.528	51.42
282.744	54.78
282.96	53.44
283.176	64.99
283.392	48.55
283.608	32.05
283.824	18.82
284.04	20.8
284.256	32.84
284.471	38.08
284.687	39.18
284.903	46.8
285.119	64.29
285.335	45.97
285.551	62.17
285.767	55.69
285.982	44.99
286.198	29.17
286.414	28.24
286.63	14.71
286.846	34.7
287.061	13.96
287.277	16.72
287.493	26.55
287.709	23.09
287.924	16.46
288.14	51.8
288.356	59.57
288.571	71.95
288.787	72.33
289.003	73.83
289.218	63.84
289.434	18.25
289.65	23.07
289.865	19.59
290.081	27.46
290.296	28.16
290.512	36.02
290.727	33.71
290.943	32.2
291.159	17.79
291.374	20.35
291.59	20.59
291.805	12.01
292.021	17.99
292.236	24.93
292.451	25.72
292.667	29.87
292.882	34.11
293.098	53.43
293.313	41.06
293.529	27.58
293.744	10.19
293.959	-5.85
294.175	-16.84
294.39	3.6
294.605	17.08
294.821	28.69
295.036	25.35
295.251	40.73
295.467	30.47
295.682	36.06
295.897	33.06
296.112	36.25
296.328	30.25
296.543	28.06
296.758	3.53
296.973	33.23
297.188	51.77
297.404	27.3
297.619	31.32
297.834	36.17
298.049	19.54
298.264	7.77
298.479	33.85
298.694	39.73
298.909	54.22
299.125	62.05
299.34	57.93
299.555	52.4
299.77	60.38
299.985	23.47
300.2	-14.61
300.415	-20.93
300.63	-10.2
300.845	-18.19
301.06	-9.3
301.275	11.16
301.49	18.68
301.704	11.85
301.919	-1.48
302.134	-2.65
302.349	33.93
302.564	17.24
302.779	37.65
302.994	65.42
303.209	75.24
303.423	59.76
303.638	87.36
303.853	59.15
304.068	22.13
304.283	7.97
304.497	11.37
304.712	13.66
304.927	13.87
305.142	29.33
305.356	33.79
305.571	43.57
305.786	39.27
306	39.22
306.215	50.06
306.43	27.33
306.644	33.15
306.859	30.01
307.074	23.61
307.288	-1.65
307.503	21.35
307.717	3.34
307.932	19.18
308.147	24.51
308.361	52.46
308.576	49
308.79	22.72
309.005	24.17
309.219	34.4
309.434	21.84
309.648	2.08
309.863	29.92
310.077	21.56
310.292	1.35
310.506	-14.02
310.72	24.44
310.935	37.35
311.149	24.51
311.364	40.9
311.578	60.53
311.792	38.29
312.007	39.61
312.221	24.36
312.435	35.08
312.649	8.53
312.864	38.95
313.078	22.75
313.292	53.24
313.507	55.85
313.721	51.2
313.935	47.35
314.149	64.96
314.363	54.65
314.578	23.88
314.792	11.9
315.006	21.41
315.22	4.69
315.434	2.75
315.648	4.04
315.862	17.36
316.077	10.75
316.291	30.69
316.505	25.95
316.719	50.45
316.933	20.97
317.147	31.28
317.361	3.9
317.575	11.5
317.789	2.34
318.003	11.81
318.217	10.67
318.431	33.97
318.645	43.85
318.859	40.25
319.073	56.84
319.287	43.71
319.5	22.42
319.714	-3.51
319.928	-4.76
320.142	-15.41
320.356	17.24
320.57	39.36
320.784	38.68
320.997	41.91
321.211	41.43
321.425	14.44
321.639	-29.24
321.853	3.3
322.066	6.25
322.28	-13.06
322.494	15.99
322.707	74.13
322.921	53.13
323.135	61.23
323.349	82.74
323.562	51.1
323.776	23.48
323.989	34.28
324.203	3.53
324.417	3.84
324.63	-1.55
324.844	-20.15
325.057	-20.85
325.271	-18.39
325.485	-18.5
325.698	5.99
325.912	41.1
326.125	19.85
326.339	41.59
326.552	44.49
326.766	53.27
326.979	43.65
327.193	75.55
327.406	72.33
327.619	61.04
327.833	62.48
328.046	51.51
328.26	29.23
328.473	9.87
328.686	-1.86
328.9	-4.51
329.113	3.8
329.326	4.45
329.54	29.74
329.753	40.29
329.966	39.64
330.179	43.23
330.393	59.35
330.606	44.74
330.819	57.31
331.032	64.57
331.246	68.82
331.459	56.35
331.672	48.7
331.885	28.8
332.098	3.89
332.311	4.59
332.525	-2.62
332.738	1.37
332.951	10.91
333.164	25.47
333.377	35.45
333.59	49.89
333.803	43.68
334.016	45.23
334.229	44.76
334.442	42.33
334.655	53.41
334.868	63.55
335.081	61.92
335.294	58.25
335.507	69.14
335.72	59.87
335.933	46.2
336.146	45.09
336.359	51.74
336.572	28.72
336.785	20.18
336.997	29.84
337.21	40.47
337.423	33.69
337.636	35.91
337.849	39.74
338.062	35.75
338.274	34.67
338.487	20.92
338.7	27.78
338.913	17.47
339.125	13.26
339.338	13.42
339.551	14.69
339.763	17.16
339.976	38.21
340.189	41.53
340.402	36.29
340.614	39.87
340.827	34.08
341.039	22.15
341.252	24.87
341.465	23.14
341.677	13.43
341.89	-26.17
342.102	-25.36
342.315	-27.5
342.527	-36.23
342.74	-28.86
342.952	14.59
343.165	14.51
343.377	24.46
343.59	27.27
343.802	50
344.015	51.43
344.227	64.16
344.44	60.86
344.652	64.9
344.864	58.81
345.077	62.24
345.289	53.69
345.502	51.87
345.714	48.23
345.926	38.78
346.139	32.41
346.351	29.88
346.563	29.6
346.775	32.84
346.988	30.97
347.2	25.16
347.412	19.76
347.624	14.52
347.837	18.16
348.049	31.64
348.261	44.87
348.473	44.65
348.685	25.58
348.897	11.62
349.11	12.16
349.322	10.43
349.534	20.19
349.746	40.75
349.958	64.14
350.17	51.02
350.382	47.65
350.594	52.92
350.806	49.12
351.018	26.92
351.23	38.92
351.442	34.81
351.654	31.7
351.866	22.87
352.078	33.38
352.29	19.29
352.502	33.75
352.714	46.81
352.926	56.53
353.138	48.68
353.35	41.09
353.561	39.88
353.773	23.49
353.985	30.33
354.197	21.41
354.409	27.3
354.621	15.82
354.832	22.4
355.044	21.29
355.256	22.87
355.468	23.87
355.679	30.36
355.891	28.5
356.103	17.97
356.314	18.35
356.526	26.99
356.738	45.93
356.949	47.6
357.161	39.46
357.373	39.49
357.584	34.88
357.796	28.32
358.008	16.08
358.219	42.29
358.431	60.05
358.642	54.33
358.854	53.58
359.065	58.05
359.277	38.04
359.488	19.18
359.7	9.75
359.911	-9.7
360.123	-8.69
360.334	-14.77
360.546	-9.84
360.757	-2.33
360.969	9.12
361.18	9.74
361.391	17.07
361.603	14.93
361.814	33.53
362.025	28.18
362.237	41
362.448	53.86
362.659	62.64
362.871	60.97
363.082	57.12
363.293	60.48
363.504	45.06
363.716	35.37
363.927	33.74
364.138	30.26
364.349	0.77
364.56	-1.99
364.772	-19.9
364.983	-21.59
365.194	-22.9
365.405	-0.8
365.616	4.17
365.827	11.82
366.038	26.33
366.25	29.84
366.461	10.29
366.672	25.55
366.883	33.02
367.094	21.16
367.305	5.09
367.516	17.74
367.727	6.02
367.938	-5.29
368.149	-1.8
368.36	9.86
368.571	7.21
368.781	4.79
368.992	2.72
369.203	22.73
369.414	14.37
369.625	4.45
369.836	0.78
370.047	1.24
370.258	-14.35
370.468	-9.61
370.679	-27.6
370.89	-12.16
371.101	5.51
371.312	-11.08
371.522	-3.4
371.733	16.29
371.944	24.13
372.155	29.47
372.365	20.14
372.576	22.42
372.787	18.18
372.997	6.31
373.208	6.95
373.419	24.57
373.629	9.13
373.84	19.18
374.05	5.74
374.261	18.81
374.472	5.7
374.682	24.89
374.893	15.79
375.103	33.33
375.314	10.51
375.524	18.83
375.735	24.9
375.945	24.41
376.156	17.32
376.366	32.51
376.577	39.74
376.787	36.86
376.997	45.81
377.208	50.52
377.418	29.61
377.629	31.39
377.839	23.87
378.049	15.95
378.26	17.04
378.47	31.42
378.68	27.93
378.89	28.87
379.101	32.13
379.311	19.68
379.521	8.85
379.732	5.1
379.942	-7.36
380.152	-1.54
380.362	9.76
380.572	9.07
380.783	19.39
380.993	30.76
381.203	27.28
381.413	26.14
381.623	28.73
381.833	22.21
382.043	8.31
382.253	13.95
382.463	19.66
382.674	19.39
382.884	7.26
383.094	15.38
383.304	13.82
383.514	13.41
383.724	14.23
383.934	10.47
384.144	2.08
384.353	3.06
384.563	6.58
384.773	6.66
384.983	15.62
385.193	18.14
385.403	5.38
385.613	2.46
385.823	3.86
386.033	5.57
386.242	8.54
386.452	18
386.662	13.23
386.872	15.45
387.082	17.99
387.291	6.55
387.501	6.28
387.711	7.42
387.921	-2.69
388.13	-1.51
388.34	11.08
388.55	9.49
388.759	12.31
388.969	15.86
389.179	13.41
389.388	10.17
389.598	8.1
389.807	5.22
390.017	8.18
390.227	7.72
390.436	6.74
390.646	13.79
390.855	14.36
391.065	14.36
391.274	9.74
391.484	7.69
391.693	6.37
391.903	7.15
392.112	8.71
392.322	11.75
392.531	16.23
392.74	15.24
392.95	12.12
393.159	9.76
393.369	11.08
393.578	6.24
393.787	5.18
393.997	7.64
394.206	7.5
394.415	7.98
394.625	9.46
394.834	7.62
395.043	6.13
395.252	6.96
395.462	6.55
395.671	7.03
395.88	8.76
396.089	9.77
396.298	9.03
396.508	8.91
396.717	8.87
396.926	8.18
397.135	7.79
397.344	7.59
397.553	7.39
397.762	7.87
397.971	7.99
398.181	7.73
398.39	6.99
398.599	6.63
398.808	5.95
399.017	6.43
399.226	7.12
399.435	8.16
399.644	8.42
399.853	8.16
400.062	7.81
400.27	7.52
400.479	7.07
400.688	6.74
400.897	7.12
401.106	6.86
401.315	6.4
401.524	6.21
401.733	6.39
401.941	6.61
402.15	6.58
402.359	6.8
402.568	7.12
402.777	7.15
402.985	6.6
403.194	6.73
403.403	6.56
403.612	6.3
403.82	6.3
404.029	6.6
404.238	6.46
404.446	6.56
404.655	6.29
404.864	6.27
405.072	6.14
405.281	6.31
405.489	6.11
405.698	6.22
405.906	6.04
406.115	5.82
406.324	5.56
406.532	5.61
406.741	5.79
406.949	5.68
407.158	5.75
407.366	5.86
407.574	6.06
407.783	5.97
407.991	6.06
408.2	6.18
408.408	6.11
408.617	5.94
408.825	5.77
409.033	5.84
409.242	5.77
409.45	5.77
409.658	5.66
409.867	5.87
410.075	5.71
410.283	5.67
410.491	5.63
410.7	5.62
410.908	5.5
411.116	5.56
411.324	5.55
411.533	5.49
411.741	5.53
411.949	5.57
412.157	5.42
412.365	5.47
412.573	5.41
412.781	5.47
412.99	5.41
413.198	5.59
413.406	5.49
413.614	5.6
413.822	5.62
414.03	5.67
414.238	5.48
414.446	5.64
414.654	5.45
414.862	5.31
415.07	5.25
415.278	5.46
415.486	5.04
415.694	5.29
415.902	5.31
416.109	5.2
416.317	5.21
416.525	5.19
416.733	5.17
416.941	5.21
417.149	5.23
417.357	5.22
417.564	5.38
417.772	5.16
417.98	5.04
418.188	5.08
418.395	4.92
418.603	5.08
418.811	5.13
419.019	5.01
419.226	5.11
419.434	5.37
419.642	5.21
419.849	5.18
420.057	5.46
420.265	5.44
420.472	5.19
420.68	5.26
420.887	5.05
421.095	4.98
421.302	4.74
421.51	4.77
421.717	4.7
421.925	4.97
422.132	4.95
422.34	4.95
422.547	4.86
422.755	4.96
422.962	4.97
423.17	4.93
423.377	5.11
423.585	5.23
423.792	5.12
423.999	5.17
424.207	5.15
424.414	5.07
424.621	5.02
424.829	5.15
425.036	5.09
425.243	5.04
425.451	5.01
425.658	4.95
425.865	4.77
426.072	4.76
426.28	4.76
426.487	4.67
426.694	4.81
426.901	4.83
427.108	4.72
427.315	4.86
427.523	5.05
427.73	4.97
427.937	4.8
428.144	4.71
428.351	4.58
428.558	4.53
428.765	4.48
428.972	4.61
429.179	4.81
429.386	4.92
429.593	4.88
429.8	4.77
430.007	4.95
430.214	5.01
430.421	5.01
430.628	5
430.835	4.97
431.042	4.92
431.249	4.8
431.456	4.88
431.662	4.97
431.869	5.13
432.076	5.08
432.283	5.15
432.49	4.94
432.697	4.79
432.903	4.57
433.11	4.57
433.317	4.64
433.524	4.8
433.73	4.7
433.937	4.97
434.144	4.93
434.35	4.89
434.557	4.7
434.764	4.84
434.97	4.82
435.177	4.92
435.384	4.7
435.59	4.9
435.797	4.88
436.003	4.83
436.21	4.82
436.416	4.89
436.623	4.76
436.829	4.86
437.036	4.88
437.242	4.87
437.449	4.94
437.655	4.88
437.862	4.8
438.068	4.79
438.275	4.91
438.481	4.94
438.687	4.93
438.894	4.94
439.1	4.87
439.307	4.83
439.513	4.74
439.719	4.86
439.926	4.92
440.132	4.92
440.338	4.76
440.544	4.85
440.751	4.78
440.957	4.77
441.163	4.62
441.369	4.72
441.575	4.61
441.782	4.55
441.988	4.45
442.194	4.58
442.4	4.52
442.606	4.72
442.812	4.81
443.018	4.82
443.224	4.92
443.431	4.97
443.637	4.76
443.843	4.69
444.049	4.75
444.255	4.66
444.461	4.62
444.667	4.65
444.873	4.67
445.079	4.76
445.284	4.77
445.49	4.65
445.696	4.53
445.902	4.52
446.108	4.4
446.314	4.31
446.52	4.55
446.726	4.72
446.931	4.71
447.137	4.73
447.343	4.77
447.549	4.49
447.755	4.48
447.96	4.54
448.166	4.49
448.372	4.64
448.578	4.7
448.783	4.69
448.989	4.78
449.195	4.91
449.4	4.78
449.606	4.84
449.812	4.78
450.017	4.8
450.223	4.69
450.428	4.6
450.634	4.65
450.84	4.72
451.045	4.58
451.251	4.55
451.456	4.69
451.662	4.78
451.867	4.83
452.073	4.78
452.278	4.83
452.483	4.88
452.689	4.79
452.894	4.88
453.1	5
453.305	4.92
453.51	4.85
453.716	4.84
453.921	4.79
454.127	4.74
454.332	4.71
454.537	4.69
454.742	4.71
454.948	4.74
455.153	4.72
455.358	4.87
455.563	5
455.769	5.02
455.974	4.89
456.179	4.92
456.384	4.83
456.589	4.73
456.795	4.58
457	4.53
457.205	4.53
457.41	4.56
457.615	4.59
457.82	4.69
458.025	4.82
458.23	4.73
458.435	4.8
458.64	4.62
458.845	4.7
459.05	4.6
459.255	4.57
459.46	4.49
459.665	4.61
459.87	4.48
460.075	4.47
460.28	4.59
460.485	4.69
460.69	4.7
460.895	4.59
461.099	4.54
461.304	4.62
461.509	4.61
461.714	4.51
461.919	4.56
462.123	4.6
462.328	4.63
462.533	4.4
462.738	4.5
462.942	4.46
463.147	4.57
463.352	4.53
463.556	4.67
463.761	4.66
463.966	4.83
464.17	4.81
464.375	4.74
464.58	4.68
464.784	4.72
464.989	4.6
465.193	4.58
465.398	4.58
465.602	4.79
465.807	4.71
466.011	4.76
466.216	4.81
466.42	4.82
466.625	4.78
466.829	4.94
467.034	5.05
467.238	5.09
467.443	5.05
467.647	4.92
467.851	4.9
468.056	4.87
