Data from Ofra_PP_Phys_9CX6B_Reflection_1.txt Node
Date: Sat Jul 24 20:05:00 EDT 2021
User: USUARIO
Spectrometer: FLMT01687
Trigger mode: 0
Integration Time (sec): 1.100000E0
Scans to average: 2
Electric dark correction enabled: true
Nonlinearity correction enabled: false
Boxcar width: 2
XAxis mode: Wavelengths
Number of Pixels in Spectrum: 3648
>>>>>Begin Spectral Data<<<<<
179.494	629.22
179.716	758.95
179.937	1287.95
180.158	1111.49
180.38	536.46
180.601	-603.63
180.823	30.59
181.044	486.05
181.265	30.75
181.486	31.16
181.708	144.54
181.929	-532
182.15	-13.25
182.372	-27.36
182.593	43500
182.814	392.31
183.035	173.89
183.257	111.89
183.478	46.23
183.699	12.21
183.92	-22.99
184.141	18.45
184.363	-12.59
184.584	60.18
184.805	65.09
185.026	81.53
185.247	64.12
185.468	39.41
185.689	23.43
185.91	7.55
186.132	-31.4
186.353	0.16
186.574	26.86
186.795	33.41
187.016	11.93
187.237	43.17
187.458	18.84
187.679	57.39
187.9	61.18
188.121	84.27
188.342	81.79
188.563	82.47
188.784	76.28
189.005	64.61
189.226	83.44
189.447	62.33
189.667	66.4
189.888	34.65
190.109	39.97
190.33	16.94
190.551	2.31
190.772	1.61
190.993	2.2
191.214	-13.29
191.434	-24.12
191.655	23.23
191.876	13.4
192.097	5.29
192.318	10.28
192.538	7.08
192.759	-16.78
192.98	-14.09
193.201	5.44
193.421	-27.75
193.642	-11.41
193.863	-5.49
194.083	-16.12
194.304	-14.81
194.525	13.6
194.745	-5.1
194.966	-45.05
195.187	-46.41
195.407	-70.64
195.628	-111.17
195.848	-76.21
196.069	-63.6
196.29	-38.2
196.51	-81.31
196.731	-91.14
196.951	-63.87
197.172	-34.42
197.392	-49.68
197.613	-8.98
197.833	7.81
198.054	-11.09
198.274	-25.67
198.495	-51.93
198.715	-18.48
198.936	-46.17
199.156	-6.87
199.377	-8.63
199.597	-8.63
199.817	-33.53
200.038	-4.65
200.258	-5.92
200.479	35.02
200.699	41.95
200.919	31.83
201.14	3.69
201.36	-11.47
201.58	-31.06
201.801	-5.35
202.021	-13.54
202.241	28.98
202.461	14.24
202.682	11.21
202.902	25.69
203.122	29.41
203.342	22.44
203.563	51.68
203.783	66.2
204.003	-1.39
204.223	-63.86
204.443	30.73
204.663	-3.39
204.884	-50.71
205.104	12.15
205.324	54
205.544	21.41
205.764	22.09
205.984	45.61
206.204	28.83
206.424	16.58
206.644	3.52
206.864	22.8
207.084	6.48
207.304	5.94
207.525	-8.17
207.745	4.26
207.964	2.57
208.184	6.07
208.404	2.31
208.624	4.76
208.844	9.8
209.064	-9.25
209.284	17.7
209.504	30.28
209.724	58.86
209.944	51.67
210.164	64.61
210.384	48.09
210.604	49.56
210.823	-7.49
211.043	-24.7
211.263	-25.55
211.483	-51.6
211.703	-53.43
211.922	-8.09
212.142	48.65
212.362	55.48
212.582	58.46
212.801	75.45
213.021	44.29
213.241	36.62
213.461	-1.68
213.68	-41.07
213.9	-60.1
214.12	-43.17
214.339	-58.81
214.559	-19.64
214.779	30.83
214.998	43.87
215.218	26.7
215.438	30.17
215.657	13.11
215.877	50.38
216.096	41.05
216.316	73.97
216.535	64.5
216.755	73.85
216.974	41.74
217.194	45.27
217.413	25.81
217.633	27.73
217.852	-25.09
218.072	-21.58
218.291	-36.85
218.511	-27.5
218.73	-65.93
218.95	-55.21
219.169	-66.92
219.389	-88.16
219.608	-95.24
219.827	-33.67
220.047	-9.2
220.266	-2.6
220.485	6.06
220.705	22.94
220.924	-21.52
221.143	-12.59
221.363	-35.64
221.582	-1.53
221.801	-18.02
222.021	8.61
222.24	28.96
222.459	60.23
222.678	32.81
222.897	32.18
223.117	36.45
223.336	34.2
223.555	39.94
223.774	67.78
223.993	90.86
224.213	111.69
224.432	58.98
224.651	75.89
224.87	57.34
225.089	61.92
225.308	45.02
225.527	63.97
225.746	61.16
225.965	53.11
226.184	42.47
226.404	55.48
226.623	42.77
226.842	36.14
227.061	64.37
227.28	74.57
227.499	87.84
227.718	102.33
227.936	83.53
228.155	53.36
228.374	15.53
228.593	-22.55
228.812	-22.56
229.031	4.24
229.25	-17.25
229.469	23.17
229.688	17.57
229.907	20.17
230.125	28.97
230.344	53.85
230.563	51.39
230.782	78.34
231.001	44.48
231.22	28.56
231.438	39.2
231.657	20.24
231.876	13.51
232.095	44.85
232.313	51.14
232.532	38.07
232.751	42.22
232.969	33.46
233.188	30.84
233.407	23.51
233.625	29.13
233.844	32.68
234.063	54.42
234.281	65.66
234.5	70.23
234.719	69.69
234.937	61.41
235.156	64.63
235.374	60.63
235.593	73.51
235.811	58.71
236.03	60.99
236.249	42.26
236.467	41.03
236.686	19.9
236.904	36.78
237.123	-1.98
237.341	4.71
237.559	-12.9
237.778	-5.06
237.996	-20.17
238.215	13.5
238.433	21.38
238.652	35.99
238.87	-13.87
239.088	8.49
239.307	19.35
239.525	0.78
239.743	-36.48
239.962	15.92
240.18	-21.95
240.398	-53.5
240.617	-47.45
240.835	-0.56
241.053	-43.58
241.271	13.72
241.49	19.14
241.708	12.18
241.926	7.23
242.144	29.04
242.363	2.38
242.581	9.25
242.799	32.64
243.017	17.67
243.235	-15.69
243.453	23.19
243.672	9.2
243.89	8.12
244.108	31.2
244.326	54.65
244.544	53.93
244.762	36.53
244.98	48.55
245.198	41.54
245.416	15.78
245.634	16.14
245.852	39.93
246.07	28.78
246.288	42.39
246.506	50.17
246.724	44.97
246.942	39.3
247.16	36.53
247.378	42.88
247.596	44.47
247.814	40.46
248.032	2.84
248.25	-2.54
248.468	-12.32
248.685	5.89
248.903	11.41
249.121	34.7
249.339	26.52
249.557	27.81
249.775	-5.74
249.992	-61.23
250.21	-60.27
250.428	-37.81
250.646	-44.69
250.863	-28.7
251.081	-8.29
251.299	8.55
251.517	11.35
251.734	15.68
251.952	4.41
252.17	24.92
252.387	40.85
252.605	21.12
252.823	26.37
253.04	51.93
253.258	55.92
253.475	41.38
253.693	51.41
253.911	53.52
254.128	54.08
254.346	54.36
254.563	27.06
254.781	27.09
254.998	17.9
255.216	12.15
255.433	2.35
255.651	38.17
255.868	49.39
256.086	49.38
256.303	46.34
256.521	48.05
256.738	33.39
256.956	18.04
257.173	23.96
257.39	18.11
257.608	17.14
257.825	19.83
258.043	35.04
258.26	25.19
258.477	20.37
258.695	18.8
258.912	-7.23
259.129	-26.02
259.346	-35.66
259.564	-26.63
259.781	-4.85
259.998	0.54
260.216	28.27
260.433	47.87
260.65	29.37
260.867	20.59
261.084	19.68
261.302	10.73
261.519	23.6
261.736	28.61
261.953	31.3
262.17	40.44
262.387	34.63
262.604	10.86
262.822	15.52
263.039	8.38
263.256	4.5
263.473	14.52
263.69	14.2
263.907	31.99
264.124	44.1
264.341	57.5
264.558	29.65
264.775	31.66
264.992	34.02
265.209	29.15
265.426	17.46
265.643	33.13
265.86	38.89
266.077	41.36
266.294	30.2
266.51	33
266.727	21.78
266.944	42.67
267.161	15.61
267.378	22.36
267.595	28.07
267.812	5.6
268.028	-11.88
268.245	1.96
268.462	18.04
268.679	11.12
268.896	50.27
269.112	37.3
269.329	37.11
269.546	39.87
269.763	42.21
269.979	32.37
270.196	30.6
270.413	22.69
270.629	3.81
270.846	6.34
271.063	12.28
271.279	4.67
271.496	-15.62
271.712	0.68
271.929	4.77
272.146	27.77
272.362	44.4
272.579	76.37
272.795	79.85
273.012	83.85
273.228	47.59
273.445	35.29
273.661	-5.21
273.878	-69.32
274.094	-62.38
274.311	-55.77
274.527	-10.25
274.744	24.01
274.96	56.11
275.177	45.81
275.393	46.84
275.609	47.57
275.826	48.57
276.042	41.05
276.259	55.55
276.475	42.33
276.691	28.27
276.908	21.07
277.124	47.16
277.34	36.35
277.557	36.41
277.773	36.38
277.989	37.31
278.205	32.89
278.422	45.01
278.638	63.98
278.854	74.65
279.07	71.18
279.286	43.6
279.503	13.89
279.719	2.09
279.935	-14.04
280.151	-26.87
280.367	8.36
280.583	25.39
280.799	25.15
281.016	32.25
281.232	44.77
281.448	30.81
281.664	35.28
281.88	37.87
282.096	30.77
282.312	31.13
282.528	39.55
282.744	45.55
282.96	39.62
283.176	43.38
283.392	26.84
283.608	30.9
283.824	17.36
284.04	21.48
284.256	40.57
284.471	51.76
284.687	48.35
284.903	58.52
285.119	69.63
285.335	36.24
285.551	38.24
285.767	25.31
285.982	-0.42
286.198	-13.75
286.414	17.71
286.63	5.03
286.846	22.65
287.061	10.04
287.277	22.34
287.493	10.07
287.709	19.92
287.924	20.44
288.14	50.39
288.356	53.19
288.571	59.23
288.787	49.94
289.003	48.53
289.218	34.21
289.434	10.24
289.65	16.47
289.865	14.72
290.081	8.13
290.296	15.05
290.512	14.42
290.727	13.51
290.943	9.29
291.159	8.58
291.374	9.58
291.59	2.02
291.805	4.12
292.021	16.14
292.236	17.82
292.451	14.58
292.667	24.3
292.882	35.17
293.098	54.32
293.313	38.15
293.529	22.45
293.744	6.49
293.959	-16.51
294.175	-39.47
294.39	-15.5
294.605	2.71
294.821	20.85
295.036	19.01
295.251	39.07
295.467	35.39
295.682	38.7
295.897	18.13
296.112	10.94
296.328	8.95
296.543	6.64
296.758	-11.7
296.973	28.59
297.188	52.34
297.404	29.19
297.619	30.25
297.834	39.71
298.049	22.8
298.264	17.52
298.479	32.38
298.694	24.78
298.909	18.37
299.125	23.33
299.34	35.78
299.555	34.45
299.77	57.24
299.985	32.52
300.2	3.4
300.415	-35.63
300.63	-29.19
300.845	-34.64
301.06	-27.2
301.275	-4.26
301.49	7.15
301.704	-3.93
301.919	-25.36
302.134	-24.54
302.349	3.54
302.564	-11.06
302.779	2.9
302.994	40.35
303.209	40.01
303.423	32.62
303.638	55.17
303.853	53.88
304.068	25.59
304.283	31.2
304.497	17.07
304.712	22.72
304.927	20.63
305.142	23.22
305.356	32.14
305.571	42.27
305.786	33.37
306	32.22
306.215	39.05
306.43	9.67
306.644	26.59
306.859	35.08
307.074	24.11
307.288	10.83
307.503	36.06
307.717	10.26
307.932	18.36
308.147	19.98
308.361	26.43
308.576	2.84
308.79	-41.64
309.005	-29.96
309.219	-20.83
309.434	2.73
309.648	-0.9
309.863	32.14
310.077	11.6
310.292	-3.87
310.506	-17.38
310.72	15.96
310.935	36.59
311.149	44.27
311.364	62.41
311.578	66.32
311.792	58.65
312.007	43.23
312.221	12.21
312.435	20.19
312.649	-7.43
312.864	-4.81
313.078	-9.07
313.292	27.4
313.507	28.67
313.721	25.79
313.935	28.99
314.149	59.97
314.363	58.28
314.578	43.05
314.792	49.41
315.006	45.81
315.22	19.58
315.434	17.7
315.648	36.11
315.862	39.71
316.077	42.71
316.291	51.5
316.505	53.83
316.719	26
316.933	-7.75
317.147	0.12
317.361	-28.12
317.575	-27.7
317.789	-26.65
318.003	-9.26
318.217	-8.34
318.431	16.22
318.645	28.65
318.859	24.65
319.073	43.65
319.287	30.22
319.5	7.44
319.714	-23.03
319.928	-22.78
320.142	-29.5
320.356	16.16
320.57	38.42
320.784	40.61
320.997	54.3
321.211	52.8
321.425	15.25
321.639	-14.36
321.853	9
322.066	-6.28
322.28	-31.56
322.494	-18.53
322.707	28.04
322.921	12.23
323.135	20.02
323.349	39.8
323.562	36.97
323.776	10.46
323.989	23.41
324.203	6.27
324.417	10.74
324.63	-14.34
324.844	-31.29
325.057	-35.12
325.271	-40.9
325.485	-41.83
325.698	6.08
325.912	37.5
326.125	33.92
326.339	53.25
326.552	45.37
326.766	49.16
326.979	45.45
327.193	56.44
327.406	44.9
327.619	50.42
327.833	44.12
328.046	34.19
328.26	22.65
328.473	21.64
328.686	4.99
328.9	7.86
329.113	15.26
329.326	6.77
329.54	11.37
329.753	19.91
329.966	9.91
330.179	19.26
330.393	39.86
330.606	31.11
330.819	43.31
331.032	57.13
331.246	58.3
331.459	60.19
331.672	53.1
331.885	34.99
332.098	6.89
332.311	6.48
332.525	-4.98
332.738	-2.99
332.951	15.69
333.164	30.47
333.377	41.11
333.59	60.3
333.803	62.27
334.016	61.73
334.229	63.54
334.442	66.02
334.655	74.59
334.868	69.23
335.081	56.66
335.294	41.94
335.507	38.4
335.72	36.67
335.933	26.74
336.146	32.62
336.359	46.38
336.572	28.92
336.785	3.93
336.997	4.68
337.21	9.05
337.423	3.29
337.636	3.94
337.849	7.08
338.062	9.87
338.274	25.54
338.487	19.36
338.7	29.88
338.913	29.45
339.125	21.59
339.338	12.66
339.551	19.64
339.763	38.59
339.976	57.9
340.189	54.66
340.402	58.54
340.614	51.7
340.827	36.65
341.039	15.13
341.252	14.62
341.465	-0.8
341.677	0.72
341.89	-38.54
342.102	-15.78
342.315	-18.19
342.527	-5.08
342.74	-6.49
342.952	35.32
343.165	26.63
343.377	53.49
343.59	26.89
343.802	49.84
344.015	43.51
344.227	55.33
344.44	32.63
344.652	48.44
344.864	38.71
345.077	56.8
345.289	43.41
345.502	49.6
345.714	36.67
345.926	32.02
346.139	24.25
346.351	23.41
346.563	24.76
346.775	40.48
346.988	32.7
347.2	24.17
347.412	6.34
347.624	0.91
347.837	2.95
348.049	19.63
348.261	39.64
348.473	44.47
348.685	17.06
348.897	-0.33
349.11	-2.5
349.322	-23.16
349.534	6.07
349.746	31.75
349.958	50.01
350.17	39.38
350.382	54.98
350.594	48.94
350.806	49.08
351.018	39
351.23	42.96
351.442	36.49
351.654	44.81
351.866	54.35
352.078	54.67
352.29	64.61
352.502	73.39
352.714	80.84
352.926	67.62
353.138	61.53
353.35	47.34
353.561	32.86
353.773	11.77
353.985	14.86
354.197	14.59
354.409	17.44
354.621	15.69
354.832	19.86
355.044	15.23
355.256	12.12
355.468	16.54
355.679	20.81
355.891	24.25
356.103	11.1
356.314	14.13
356.526	20.81
356.738	40.29
356.949	37.29
357.161	39.64
357.373	29.69
357.584	21.75
357.796	-1.46
358.008	-14.46
358.219	3.69
358.431	12.9
358.642	21.69
358.854	36.59
359.065	40.81
359.277	25.19
359.488	18.57
359.7	4.15
359.911	-6.5
360.123	-0.82
360.334	-5.73
360.546	-1.65
360.757	3.42
360.969	3.74
361.18	6.03
361.391	3.89
361.603	-5.69
361.814	7.73
362.025	-2.55
362.237	-8.42
362.448	14.05
362.659	30.6
362.871	22.87
363.082	28.36
363.293	39.17
363.504	21.68
363.716	16.92
363.927	19.4
364.138	13.75
364.349	-9.43
364.56	0.07
364.772	-15.79
364.983	-5.47
365.194	-8.15
365.405	13.87
365.616	13.02
365.827	20.43
366.038	5.44
366.25	27.44
366.461	2.12
366.672	21.1
366.883	33.27
367.094	37.87
367.305	15.01
367.516	47.3
367.727	35.4
367.938	20.22
368.149	13.58
368.36	26.98
368.571	4.98
368.781	0.9
368.992	-0.21
369.203	15.04
369.414	4.8
369.625	3.71
369.836	1.72
370.047	-9.4
370.258	-25.72
370.468	-18.94
370.679	-36.96
370.89	-23.13
371.101	12.27
371.312	4.98
371.522	12.55
371.733	19.89
371.944	22.88
372.155	18.21
372.365	3.75
372.576	15.84
372.787	14.13
372.997	7.02
373.208	5.9
373.419	27.42
373.629	0.84
373.84	12.93
374.05	-3.9
374.261	4.3
374.472	-6.81
374.682	8.49
374.893	-7.28
375.103	22.33
375.314	10.81
375.524	14.76
375.735	23.32
375.945	30.95
376.156	6.74
376.366	13.3
376.577	16.99
376.787	17.58
376.997	27.58
377.208	41.66
377.418	24.14
377.629	37.59
377.839	26.66
378.049	21.69
378.26	17.01
378.47	38.65
378.68	29.82
378.89	33.36
379.101	29.04
379.311	21.63
379.521	-0.83
379.732	-7.91
379.942	-33.9
380.152	-24.15
380.362	-13.43
380.572	-0.69
380.783	22.56
380.993	42.17
381.203	45.65
381.413	42.99
381.623	41.24
381.833	21.89
382.043	13.75
382.253	18.28
382.463	30.8
382.674	28.16
382.884	18.32
383.094	20.23
383.304	11.47
383.514	1.3
383.724	5.57
383.934	3.14
384.144	-2.23
384.353	5
384.563	15.55
384.773	13.04
384.983	24.4
385.193	30.1
385.403	20.33
385.613	14.71
385.823	18.19
386.033	21.86
386.242	15.89
386.452	20.38
386.662	15.36
386.872	16.8
387.082	11.14
387.291	6.2
387.501	9.67
387.711	9.83
387.921	-2.81
388.13	-0.1
388.34	10.22
388.55	7.31
388.759	10.34
388.969	16.69
389.179	15.02
389.388	11.86
389.598	10.89
389.807	9.68
390.017	10.9
390.227	10.81
390.436	10.54
390.646	15.44
390.855	16.67
391.065	17.16
391.274	14.16
391.484	11.95
391.693	10.01
391.903	10.45
392.112	11.62
392.322	15.35
392.531	19.43
392.74	18.14
392.95	13.71
393.159	11.63
393.369	11.83
393.578	8.26
393.787	8.48
393.997	11.92
394.206	11.43
394.415	11.29
394.625	12.55
394.834	11.32
395.043	10.44
395.252	11.71
395.462	11.8
395.671	12.52
395.88	14.27
396.089	15.3
396.298	14.76
396.508	14.28
396.717	14.14
396.926	13.12
397.135	12.58
397.344	12.42
397.553	12.64
397.762	13.15
397.971	13.43
398.181	13.07
398.39	11.8
398.599	11.36
398.808	10.46
399.017	10.88
399.226	11.37
399.435	12.76
399.644	12.84
399.853	12.79
400.062	12.35
400.27	12.31
400.479	12.13
400.688	11.93
400.897	12.39
401.106	12.21
401.315	11.43
401.524	11.22
401.733	11.17
401.941	11.08
402.15	11.12
402.359	11.48
402.568	11.59
402.777	11.64
402.985	11.33
403.194	11.39
403.403	11.42
403.612	11
403.82	11.05
404.029	11.03
404.238	10.62
404.446	10.52
404.655	10.38
404.864	10.23
405.072	10.2
405.281	10.46
405.489	10.17
405.698	10.26
405.906	10.27
406.115	10.09
406.324	9.88
406.532	10.04
406.741	10.23
406.949	10.03
407.158	10.14
407.366	10.28
407.574	10.31
407.783	10.11
407.991	10.21
408.2	10.14
408.408	9.94
408.617	9.86
408.825	9.7
409.033	9.69
409.242	9.7
409.45	9.69
409.658	9.54
409.867	9.68
410.075	9.53
410.283	9.39
410.491	9.37
410.7	9.27
410.908	9.27
411.116	9.35
411.324	9.47
411.533	9.5
411.741	9.63
411.949	9.65
412.157	9.5
412.365	9.53
412.573	9.4
412.781	9.4
412.99	9.21
413.198	9.35
413.406	9.3
413.614	9.42
413.822	9.37
414.03	9.34
414.238	9.11
414.446	9.15
414.654	8.83
414.862	8.76
415.07	8.77
415.278	9.06
415.486	8.63
415.694	8.88
415.902	8.98
416.109	8.95
416.317	8.83
416.525	8.79
416.733	8.8
416.941	8.85
417.149	8.72
417.357	8.75
417.564	9.07
417.772	8.95
417.98	8.9
418.188	8.91
418.395	8.72
418.603	8.76
418.811	8.59
419.019	8.34
419.226	8.55
419.434	8.68
419.642	8.41
419.849	8.58
420.057	8.72
420.265	8.68
420.472	8.48
420.68	8.67
420.887	8.45
421.095	8.49
421.302	8.35
421.51	8.45
421.717	8.45
421.925	8.54
422.132	8.46
422.34	8.31
422.547	8.26
422.755	8.3
422.962	8.45
423.17	8.42
423.377	8.48
423.585	8.46
423.792	8.34
423.999	8.22
424.207	8.17
424.414	8.27
424.621	8.35
424.829	8.33
425.036	8.37
425.243	8.36
425.451	8.26
425.658	8.15
425.865	8.14
426.072	8.07
426.28	8.09
426.487	7.91
426.694	7.9
426.901	7.99
427.108	7.92
427.315	7.86
427.523	8.16
427.73	8.24
427.937	7.85
428.144	7.8
428.351	7.88
428.558	7.87
428.765	7.83
428.972	7.85
429.179	7.87
429.386	8.02
429.593	7.84
429.8	7.72
430.007	8.02
430.214	8.25
430.421	8.16
430.628	8.12
430.835	7.88
431.042	8
431.249	7.85
431.456	7.93
431.662	8.24
431.869	8.53
432.076	8.42
432.283	8.36
432.49	8.15
432.697	8
432.903	7.84
433.11	7.82
433.317	7.9
433.524	8.18
433.73	8.07
433.937	8.21
434.144	8.21
434.35	8.29
434.557	8.17
434.764	8.2
434.97	8.28
435.177	8.37
435.384	8.16
435.59	8.28
435.797	8.27
436.003	8.18
436.21	8.03
436.416	8.05
436.623	7.84
436.829	7.93
437.036	7.94
437.242	7.96
437.449	8.02
437.655	8.06
437.862	8.12
438.068	8.09
438.275	8.18
438.481	8.31
438.687	8.26
438.894	8.17
439.1	8.2
439.307	8.28
439.513	8.14
439.719	8.2
439.926	8.21
440.132	8.33
440.338	8.23
440.544	8.38
440.751	8.33
440.957	8.4
441.163	8.09
441.369	8.11
441.575	7.9
441.782	7.85
441.988	7.72
442.194	7.86
442.4	7.82
442.606	8.06
442.812	8.15
443.018	8.21
443.224	8.34
443.431	8.34
443.637	8.19
443.843	8.02
444.049	8.18
444.255	8.09
444.461	8.08
444.667	8.03
444.873	8.14
445.079	8.18
445.284	8.23
445.49	8.24
445.696	8.17
445.902	8.27
446.108	8.17
446.314	8.09
446.52	8.11
446.726	8.32
446.931	8.29
447.137	8.35
447.343	8.49
447.549	8.33
447.755	8.26
447.96	8.26
448.166	8.16
448.372	8.22
448.578	8.25
448.783	8.21
448.989	8.26
449.195	8.37
449.4	8.23
449.606	8.37
449.812	8.37
450.017	8.39
450.223	8.4
450.428	8.23
450.634	8.23
450.84	8.38
451.045	8.25
451.251	8.14
451.456	8.43
451.662	8.45
451.867	8.37
452.073	8.36
452.278	8.41
452.483	8.3
452.689	8.3
452.894	8.39
453.1	8.5
453.305	8.46
453.51	8.54
453.716	8.41
453.921	8.37
454.127	8.34
454.332	8.26
454.537	8.17
454.742	8.29
454.948	8.31
455.153	8.22
455.358	8.31
455.563	8.43
455.769	8.3
455.974	8.25
456.179	8.32
456.384	8.24
456.589	8.17
456.795	8.11
457	8.1
457.205	8.1
457.41	8.03
457.615	7.98
457.82	8.08
458.025	8.18
458.23	8.17
458.435	8.3
458.64	8.15
458.845	8.18
459.05	7.98
459.255	7.92
459.46	7.93
459.665	8.09
459.87	8.12
460.075	8.12
460.28	8.21
460.485	8.3
460.69	8.33
460.895	8.15
461.099	8.16
461.304	8.32
461.509	8.26
461.714	8.12
461.919	8.23
462.123	8.26
462.328	8.13
462.533	7.92
462.738	8.06
462.942	7.95
463.147	8
463.352	8.08
463.556	8.06
463.761	8.06
463.966	8.19
464.17	8.21
464.375	8.08
464.58	8.23
464.784	8.26
464.989	8.12
465.193	8.08
465.398	8.08
465.602	8.31
465.807	8.26
466.011	8.47
466.216	8.52
466.42	8.65
466.625	8.46
