Data from Ofra_PP_Phys_6GT17_Reflection_1.txt Node
Date: Sat Jul 24 20:11:10 EDT 2021
User: USUARIO
Spectrometer: FLMT01687
Trigger mode: 0
Integration Time (sec): 1.100000E0
Scans to average: 2
Electric dark correction enabled: true
Nonlinearity correction enabled: false
Boxcar width: 2
XAxis mode: Wavelengths
Number of Pixels in Spectrum: 3648
>>>>>Begin Spectral Data<<<<<
179.494	647.6
179.716	845.09
179.937	1495.98
180.158	1246.04
180.38	574.65
180.601	-657.17
180.823	85.26
181.044	-213.18
181.265	-5.23
181.486	-24.85
181.708	-197.53
181.929	-4177.33
182.15	877.51
182.372	14.79
182.593	21166.67
182.814	645.64
183.035	235.91
183.257	158.23
183.478	59.61
183.699	70.83
183.92	12.56
184.141	44.24
184.363	-18.76
184.584	60.24
184.805	54.43
185.026	89.98
185.247	93.63
185.468	63.17
185.689	41.25
185.91	42.65
186.132	25.64
186.353	12.53
186.574	48.42
186.795	77.39
187.016	31.96
187.237	36.94
187.458	54.74
187.679	130.15
187.9	90.37
188.121	137.21
188.342	164.02
188.563	157.92
188.784	144.31
189.005	163.53
189.226	142.66
189.447	115.63
189.667	107.9
189.888	44.03
190.109	1.81
190.33	-22.68
190.551	-45.1
190.772	-69.28
190.993	-71.08
191.214	-52.19
191.434	-61.58
191.655	14.9
191.876	10.59
192.097	18.56
192.318	21.93
192.538	1.63
192.759	-38.01
192.98	-33.91
193.201	-19.27
193.421	-53.89
193.642	-3.32
193.863	4.65
194.083	-4.2
194.304	7.22
194.525	24.6
194.745	12.13
194.966	-27.11
195.187	-44.41
195.407	-113.66
195.628	-131.91
195.848	-129.99
196.069	-132.05
196.29	-130.16
196.51	-155.34
196.731	-153.79
196.951	-91.16
197.172	-68.99
197.392	-55.67
197.613	-20.26
197.833	-30.65
198.054	-82.31
198.274	-59.94
198.495	-122.6
198.715	-88.85
198.936	-100.23
199.156	-52.2
199.377	-73.03
199.597	-44.97
199.817	-53.96
200.038	10.48
200.258	28.9
200.479	54.92
200.699	62.88
200.919	42.63
201.14	-19.82
201.36	-37.91
201.58	-31.48
201.801	-36.53
202.021	-28.37
202.241	24.66
202.461	22.35
202.682	-20.31
202.902	6.86
203.122	-28.84
203.342	-16.05
203.563	24.67
203.783	63.33
204.003	-20.01
204.223	-35.17
204.443	41.49
204.663	18.88
204.884	-13.77
205.104	36.95
205.324	72.8
205.544	35.32
205.764	30.66
205.984	33.37
206.204	47.66
206.424	64.07
206.644	30.44
206.864	53.72
207.084	60.33
207.304	65.83
207.525	8.81
207.745	28.69
207.964	13.49
208.184	-19.26
208.404	-31.26
208.624	-27.4
208.844	-13.13
209.064	-57.5
209.284	-38.91
209.504	-23.37
209.724	13.58
209.944	-3
210.164	40.53
210.384	46.92
210.604	51.94
210.823	-9.93
211.043	-45.66
211.263	-38.57
211.483	-56.37
211.703	-78.77
211.922	-31.49
212.142	44.31
212.362	46.56
212.582	33.09
212.801	35.89
213.021	3.8
213.241	-8.67
213.461	-44.77
213.68	-66.04
213.9	-62.06
214.12	-27.94
214.339	-53.57
214.559	-38.75
214.779	8.04
214.998	12.71
215.218	-30.67
215.438	-26.49
215.657	-23.76
215.877	2.1
216.096	8.25
216.316	66.32
216.535	65
216.755	53.65
216.974	26.46
217.194	34.22
217.413	-2.27
217.633	-3.98
217.852	-56.89
218.072	-51.62
218.291	-82.33
218.511	-37.5
218.73	-98.94
218.95	-82.94
219.169	-86.53
219.389	-105.02
219.608	-136.01
219.827	-68.07
220.047	-51.87
220.266	-55.87
220.485	-50.33
220.705	-9.5
220.924	-40.55
221.143	3.65
221.363	-34.72
221.582	1.1
221.801	-22.29
222.021	24.97
222.24	14.31
222.459	65.98
222.678	61.88
222.897	49.65
223.117	27.85
223.336	23.84
223.555	30.06
223.774	47.57
223.993	62.65
224.213	87.75
224.432	57.03
224.651	80.27
224.87	58.22
225.089	70.9
225.308	65.94
225.527	85.73
225.746	74.11
225.965	56.76
226.184	38.72
226.404	40.94
226.623	19.93
226.842	22.84
227.061	73.32
227.28	101.27
227.499	113.37
227.718	150.49
227.936	130.92
228.155	116
228.374	39.32
228.593	15.05
228.812	1.27
229.031	7.69
229.25	-16.87
229.469	39.97
229.688	41.91
229.907	47.75
230.125	71.24
230.344	86.07
230.563	83.1
230.782	116.13
231.001	61.23
231.22	71.51
231.438	77.55
231.657	56.42
231.876	25.15
232.095	64.13
232.313	54.38
232.532	39.84
232.751	39.04
232.969	36.17
233.188	35.89
233.407	28.37
233.625	15.07
233.844	17.77
234.063	29.48
234.281	47.49
234.5	61.19
234.719	88.76
234.937	76.55
235.156	65.4
235.374	63.81
235.593	69
235.811	65.85
236.03	67.71
236.249	63.44
236.467	71.34
236.686	38.86
236.904	36.62
237.123	-41
237.341	-33.89
237.559	-60.6
237.778	-40.83
237.996	-56.87
238.215	-3.48
238.433	-7.49
238.652	23.55
238.87	-27.46
239.088	5.03
239.307	21.3
239.525	20.73
239.743	-25.57
239.962	3.66
240.18	-31.81
240.398	-88.99
240.617	-108.56
240.835	-58.89
241.053	-74.81
241.271	-10.61
241.49	31.66
241.708	29.72
241.926	35.72
242.144	44.04
242.363	7.54
242.581	-1.62
242.799	28.14
243.017	13.38
243.235	-27.49
243.453	4.32
243.672	-10.5
243.89	-8.82
244.108	8.86
244.326	36.67
244.544	22.55
244.762	12.41
244.98	17.95
245.198	16.46
245.416	-12.47
245.634	-11.87
245.852	18.67
246.07	21.98
246.288	19.97
246.506	16.82
246.724	38.04
246.942	26.01
247.16	23.25
247.378	29.34
247.596	54.66
247.814	47.12
248.032	8.03
248.25	-4.73
248.468	-18.67
248.685	-10.31
248.903	1.2
249.121	20.35
249.339	0.6
249.557	0.39
249.775	-18.49
249.992	-100.57
250.21	-113.07
250.428	-66.49
250.646	-52.58
250.863	-51.34
251.081	-17.42
251.299	17.28
251.517	18.27
251.734	8.82
251.952	10
252.17	13.75
252.387	23.29
252.605	-7.39
252.823	2.52
253.04	23.19
253.258	42.33
253.475	27.55
253.693	74.23
253.911	92.61
254.128	71.18
254.346	60.62
254.563	49.13
254.781	12.33
254.998	-11.36
255.216	-13.33
255.433	-6.14
255.651	27.96
255.868	52.43
256.086	76.25
256.303	73.45
256.521	72.14
256.738	38.91
256.956	13.97
257.173	13.39
257.39	0.73
257.608	0.5
257.825	20.11
258.043	36.35
258.26	30.44
258.477	55.89
258.695	54.92
258.912	-1.32
259.129	-4.13
259.346	-36.92
259.564	-66.3
259.781	-29.88
259.998	0.85
260.216	28.03
260.433	62.92
260.65	58.17
260.867	54.58
261.084	37.46
261.302	31.16
261.519	37.94
261.736	16.76
261.953	3.12
262.17	26.83
262.387	8.04
262.604	-19.25
262.822	-17.69
263.039	-23.08
263.256	-50.88
263.473	-37.15
263.69	-65.92
263.907	-27.69
264.124	4.05
264.341	36.24
264.558	24.33
264.775	42.45
264.992	66.25
265.209	50.75
265.426	51.5
265.643	64.05
265.86	67.11
266.077	56.15
266.294	56.7
266.51	43.9
266.727	24.4
266.944	46.27
267.161	30.28
267.378	35.47
267.595	36.22
267.812	6.16
268.028	-9.71
268.245	2.79
268.462	-14.8
268.679	-5.8
268.896	50.97
269.112	47.74
269.329	28.06
269.546	41.35
269.763	42.85
269.979	37.43
270.196	21.19
270.413	24.5
270.629	-4.48
270.846	-16.91
271.063	-4.79
271.279	-15.89
271.496	-52.23
271.712	-34.31
271.929	-25.21
272.146	-37.68
272.362	-20.3
272.579	45.16
272.795	48.63
273.012	64.94
273.228	75.32
273.445	53.21
273.661	-0.19
273.878	-75.42
274.094	-102.7
274.311	-128.15
274.527	-69.57
274.744	-36.66
274.96	38.38
275.177	52.4
275.393	57.56
275.609	61.4
275.826	66.9
276.042	53.66
276.259	48.3
276.475	40.72
276.691	29.48
276.908	12.4
277.124	36.78
277.34	34.63
277.557	32.74
277.773	36.86
277.989	39.94
278.205	27.67
278.422	43.43
278.638	62.62
278.854	64.57
279.07	55.76
279.286	24.25
279.503	6.06
279.719	-13.84
279.935	-33.33
280.151	-29.65
280.367	12.45
280.583	23.3
280.799	17.73
281.016	21.3
281.232	23.93
281.448	23.98
281.664	38.43
281.88	41.75
282.096	41.71
282.312	51.59
282.528	58.94
282.744	55.77
282.96	54.69
283.176	69.25
283.392	60.19
283.608	50.45
283.824	38.02
284.04	37.16
284.256	42.47
284.471	38.68
284.687	31.22
284.903	37.4
285.119	58.76
285.335	27.67
285.551	45.85
285.767	37.53
285.982	17.75
286.198	6.93
286.414	42.77
286.63	35.9
286.846	64.6
287.061	40.31
287.277	49.69
287.493	40.27
287.709	41.05
287.924	29.25
288.14	62.49
288.356	82.46
288.571	97.15
288.787	86.36
289.003	76.93
289.218	64.19
289.434	-16.32
289.65	-11.03
289.865	4.4
290.081	24.46
290.296	27.58
290.512	32.65
290.727	31.26
290.943	19.27
291.159	-10.63
291.374	-19.23
291.59	-33.97
291.805	-55.83
292.021	-37.2
292.236	-26.52
292.451	-8.1
292.667	11.71
292.882	30.29
293.098	48.96
293.313	29.04
293.529	7.35
293.744	-23.1
293.959	-42.94
294.175	-49.99
294.39	-12.99
294.605	13.73
294.821	43.29
295.036	35.97
295.251	44.68
295.467	34.67
295.682	24.6
295.897	7.32
296.112	-6.55
296.328	-13.55
296.543	-29.17
296.758	-39.45
296.973	-4.61
297.188	47.42
297.404	27.28
297.619	47.09
297.834	43.65
298.049	29.9
298.264	3.3
298.479	37.07
298.694	36.9
298.909	54.45
299.125	59.77
299.34	71.36
299.555	44.36
299.77	54.67
299.985	-9.29
300.2	-28.06
300.415	-67.79
300.63	-44.97
300.845	-48.68
301.06	-37.25
301.275	-34.29
301.49	-2.35
301.704	1.21
301.919	-41.41
302.134	-31.18
302.349	16.49
302.564	-19.1
302.779	6.75
302.994	65
303.209	68.63
303.423	59.9
303.638	97.99
303.853	57.1
304.068	20.32
304.283	19.39
304.497	18.12
304.712	27.73
304.927	35.79
305.142	32.4
305.356	39.83
305.571	40.28
305.786	28.41
306	25.68
306.215	43.46
306.43	15.31
306.644	40.19
306.859	49.49
307.074	24.95
307.288	-0.62
307.503	14.43
307.717	-18.34
307.932	-5.69
308.147	-0.91
308.361	22.84
308.576	12.95
308.79	-40.55
309.005	-36.06
309.219	-5.87
309.434	-2.61
309.648	-21.48
309.863	23.72
310.077	17.65
310.292	7.06
310.506	-3.06
310.72	37.34
310.935	52.49
311.149	30.54
311.364	37.33
311.578	60.22
311.792	42.91
312.007	25.22
312.221	-3.88
312.435	15.85
312.649	-27.84
312.864	27.89
313.078	28.01
313.292	92.29
313.507	77.1
313.721	73.27
313.935	64.09
314.149	85.28
314.363	67.05
314.578	41.48
314.792	36.68
315.006	28.52
315.22	20.87
315.434	21.77
315.648	31.97
315.862	30.39
316.077	34.41
316.291	43.22
316.505	29.05
316.719	43.27
316.933	4.46
317.147	21.86
317.361	-25.62
317.575	-10.85
317.789	-25.13
318.003	-8.18
318.217	-4.58
318.431	27.18
318.645	37.41
318.859	26.68
319.073	61.24
319.287	31
319.5	-8.7
319.714	-45.33
319.928	-38.42
320.142	-60.33
320.356	12.94
320.57	49.46
320.784	56.42
320.997	71.89
321.211	63.85
321.425	8.35
321.639	-28.51
321.853	13.3
322.066	1.62
322.28	-5.24
322.494	19.73
322.707	69.95
322.921	32.35
323.135	29.84
323.349	39.1
323.562	26.36
323.776	-6.78
323.989	4.31
324.203	-8.51
324.417	-5.83
324.63	-41.36
324.844	-59.5
325.057	-61.37
325.271	-68.57
325.485	-76.05
325.698	-8.46
325.912	34.1
326.125	29.07
326.339	58.5
326.552	67.16
326.766	72.3
326.979	63.07
327.193	77.79
327.406	63.53
327.619	61.83
327.833	58.5
328.046	47.45
328.26	25.49
328.473	16.92
328.686	2.79
328.9	10.54
329.113	11.87
329.326	7.27
329.54	7.86
329.753	1.83
329.966	-11.56
330.179	17.64
330.393	35.57
330.606	42.45
330.819	61.31
331.032	70.69
331.246	77.15
331.459	99.02
331.672	66.55
331.885	48.06
332.098	22.28
332.311	22.06
332.525	1.57
332.738	19.67
332.951	36.56
333.164	53.75
333.377	54.74
333.59	67.29
333.803	57.04
334.016	54.36
334.229	40.63
334.442	43.04
334.655	61.27
334.868	74.17
335.081	54.86
335.294	43.43
335.507	45.34
335.72	40.71
335.933	24.64
336.146	36.46
336.359	58.01
336.572	20.21
336.785	1.14
336.997	6.66
337.21	19.27
337.423	16.03
337.636	35.99
337.849	43.02
338.062	46.18
338.274	57.76
338.487	32.88
338.7	29.65
338.913	10.3
339.125	-3.38
339.338	-11.26
339.551	11.54
339.763	27.02
339.976	45.28
340.189	57.19
340.402	63.11
340.614	47.36
340.827	24.48
341.039	4.92
341.252	-18.59
341.465	-41.4
341.677	-55.2
341.89	-82.26
342.102	-53.66
342.315	-37.04
342.527	-39.67
342.74	-20.83
342.952	24.14
343.165	13.09
343.377	35.89
343.59	30.87
343.802	56.97
344.015	71.93
344.227	98.64
344.44	72.69
344.652	64.49
344.864	52.15
345.077	66.3
345.289	46.28
345.502	56.9
345.714	55.27
345.926	50.3
346.139	20.25
346.351	19.18
346.563	12.1
346.775	20.43
346.988	10.77
347.2	12.25
347.412	-9.58
347.624	-14.2
347.837	1.89
348.049	29
348.261	44.61
348.473	46.87
348.685	20.1
348.897	-8.19
349.11	-22.83
349.322	-32.57
349.534	1.85
349.746	26.56
349.958	42.93
350.17	35.53
350.382	43.14
350.594	37.48
350.806	44.86
351.018	35.06
351.23	34.05
351.442	19.16
351.654	13.62
351.866	6.56
352.078	20.5
352.29	19.6
352.502	48.34
352.714	67.82
352.926	66.54
353.138	60.42
353.35	38.51
353.561	20.69
353.773	-7.37
353.985	1.77
354.197	-4.57
354.409	7.63
354.621	15.71
354.832	27.49
355.044	6.64
355.256	5.96
355.468	10.93
355.679	-4.23
355.891	-6.7
356.103	-10.79
356.314	-17.12
356.526	-3.5
356.738	29.21
356.949	42.33
357.161	51.84
357.373	50.61
357.584	39.26
357.796	20.65
358.008	-4.69
358.219	19.91
358.431	25.44
358.642	31.48
358.854	42.8
359.065	47.15
359.277	18.31
359.488	4.78
359.7	-8.27
359.911	-26.83
360.123	-21.25
360.334	-27.76
360.546	-31.17
360.757	-27.04
360.969	-17.97
361.18	-10.5
361.391	5.8
361.603	11
361.814	28.04
362.025	10.04
362.237	5.13
362.448	13.58
362.659	33.28
362.871	23.74
363.082	40.33
363.293	50.95
363.504	45.7
363.716	32.52
363.927	35.43
364.138	12.01
364.349	-22.49
364.56	-29.91
364.772	-55.39
364.983	-31.36
365.194	-35.33
365.405	-3.83
365.616	-0.16
365.827	22.81
366.038	-0.77
366.25	23.74
366.461	-2.8
366.672	26.9
366.883	38.8
367.094	40.09
367.305	13.95
367.516	33.99
367.727	17
367.938	-5.78
368.149	-22.17
368.36	-3.49
368.571	-7.73
368.781	-17.21
368.992	-26.03
369.203	9.18
369.414	-5.79
369.625	-5.66
369.836	-10.38
370.047	-3.82
370.258	-24.58
370.468	-17.3
370.679	-55.47
370.89	-39.34
371.101	-0.55
371.312	-31.62
371.522	-19.66
371.733	-0.01
371.944	7.83
372.155	8.13
372.365	6.33
372.576	8.18
372.787	5.2
372.997	-6.77
373.208	-11.21
373.419	20.52
373.629	1.72
373.84	5.44
374.05	-10.85
374.261	2.37
374.472	-30.74
374.682	1.72
374.893	-0.12
375.103	39.31
375.314	20.21
375.524	35.73
375.735	28.19
375.945	30.08
376.156	-0.1
376.366	8.59
376.577	21.51
376.787	17.34
376.997	39.39
377.208	47.3
377.418	20.37
377.629	22.8
377.839	12.91
378.049	-3.65
378.26	9.15
378.47	39.43
378.68	26.45
378.89	35.29
379.101	32.67
379.311	-0.2
379.521	-33.27
379.732	-23.75
379.942	-54.12
380.152	-47.26
380.362	-20.64
380.572	-8.74
380.783	10.91
380.993	32.23
381.203	41.14
381.413	34.48
381.623	36.93
381.833	27.33
382.043	8.76
382.253	-0.86
382.463	10.54
382.674	13.14
382.884	-4.55
383.094	3.36
383.304	7.89
383.514	6.45
383.724	12.76
383.934	3.86
384.144	-7.04
384.353	-4.96
384.563	2.34
384.773	1.88
384.983	12.05
385.193	23.59
385.403	8.59
385.613	-0.36
385.823	-6.47
386.033	4.65
386.242	-5.98
386.452	7.87
386.662	-0.11
386.872	5.79
387.082	3.86
387.291	-0.93
387.501	-0.77
387.711	10.08
387.921	-1.38
388.13	-0.87
388.34	14.23
388.55	12.96
388.759	13.32
388.969	19.88
389.179	14.15
389.388	14.39
389.598	12.33
389.807	8.06
390.017	8.67
390.227	9.62
390.436	3.81
390.646	9.89
390.855	14.5
391.065	15.68
391.274	12.16
391.484	9.76
391.693	10.43
391.903	9.35
392.112	10.35
392.322	14.67
392.531	19.82
392.74	17.42
392.95	10.88
393.159	9.42
393.369	9.99
393.578	7.14
393.787	5.41
393.997	11.38
394.206	10.78
394.415	10.72
394.625	10.75
394.834	9.35
395.043	7.36
395.252	8.77
395.462	10.21
395.671	11.16
395.88	13.54
396.089	14.64
396.298	13.25
396.508	12.08
396.717	12.15
396.926	11.96
397.135	12.03
397.344	11.97
397.553	12.29
397.762	13.06
397.971	12.39
398.181	12.24
398.39	10.89
398.599	10.35
398.808	9.62
399.017	10.53
399.226	10.76
399.435	12.37
399.644	12.59
399.853	12.43
400.062	11.97
400.27	11.66
400.479	11.23
400.688	10.24
400.897	10.59
401.106	10.35
401.315	9.72
401.524	9.46
401.733	10.14
401.941	10.21
402.15	10.41
402.359	10.58
402.568	11.14
402.777	11.14
402.985	10.94
403.194	10.91
403.403	11.1
403.612	10.61
403.82	10.7
404.029	10.66
404.238	10.12
404.446	10.1
404.655	9.81
404.864	9.56
405.072	9.37
405.281	9.95
405.489	9.7
405.698	9.77
405.906	9.57
406.115	9.54
406.324	9.21
406.532	9.26
406.741	9.59
406.949	9.57
407.158	9.56
407.366	9.7
407.574	9.88
407.783	9.71
407.991	9.68
408.2	9.84
408.408	9.62
408.617	9.48
408.825	9.32
409.033	9.58
409.242	9.55
409.45	9.73
409.658	9.49
409.867	9.68
410.075	9.4
410.283	9.12
410.491	8.87
410.7	8.67
410.908	8.63
411.116	8.67
411.324	8.71
411.533	8.97
411.741	9.22
411.949	9.26
412.157	9.07
412.365	9.23
412.573	9
412.781	9.12
412.99	8.92
413.198	9.19
413.406	8.98
413.614	8.98
413.822	8.76
414.03	8.76
414.238	8.46
414.446	8.55
414.654	8.33
414.862	8.42
415.07	8.51
415.278	8.92
415.486	8.59
415.694	8.83
415.902	8.71
416.109	8.46
416.317	8.34
416.525	8.2
416.733	8.09
416.941	8.21
417.149	8.35
417.357	8.25
417.564	8.61
417.772	8.69
417.98	8.65
418.188	8.53
418.395	8.36
418.603	8.42
418.811	8.15
419.019	7.89
419.226	8.2
419.434	8.49
419.642	8.33
419.849	8.5
420.057	8.82
420.265	8.65
420.472	8.31
420.68	8.49
420.887	8.43
421.095	8.38
421.302	8.31
421.51	8.5
421.717	8.47
421.925	8.58
422.132	8.43
422.34	8.17
422.547	8.08
422.755	8.03
422.962	7.91
423.17	8.04
423.377	8.2
423.585	8.29
423.792	8.2
423.999	8.23
424.207	8.06
424.414	8.17
424.621	8.1
424.829	8.04
425.036	7.96
425.243	7.96
425.451	7.84
425.658	7.61
425.865	7.76
426.072	7.74
426.28	7.86
426.487	7.59
426.694	7.99
426.901	7.94
427.108	7.88
427.315	7.83
427.523	8.32
427.73	8.2
427.937	7.87
428.144	7.73
428.351	7.83
428.558	7.76
428.765	7.63
428.972	7.77
429.179	7.99
429.386	8.16
429.593	7.94
429.8	7.74
430.007	7.92
430.214	8.01
430.421	7.85
430.628	7.84
430.835	7.74
431.042	7.91
431.249	7.88
431.456	7.96
431.662	8.21
431.869	8.44
432.076	8.35
432.283	8.28
432.49	7.98
432.697	7.93
432.903	7.74
433.11	7.6
433.317	7.8
433.524	8.03
433.73	7.8
433.937	8.24
434.144	8.26
434.35	8.25
434.557	8.25
434.764	8.32
434.97	8.12
435.177	8.31
435.384	7.85
435.59	7.83
435.797	7.95
436.003	8.03
436.21	7.93
436.416	8.18
436.623	8.09
436.829	8.08
437.036	8.04
437.242	7.88
437.449	7.96
437.655	7.95
437.862	7.97
438.068	8.03
438.275	8.16
438.481	8.18
438.687	8.17
438.894	8.1
439.1	7.95
439.307	8.07
439.513	7.96
439.719	8.08
439.926	8.17
440.132	8.22
440.338	8.08
440.544	8.29
440.751	8.19
440.957	8.19
441.163	7.9
441.369	7.94
441.575	7.7
441.782	7.61
441.988	7.35
442.194	7.57
442.4	7.49
442.606	7.67
442.812	7.83
443.018	8.08
443.224	8.17
443.431	8.32
443.637	8.2
443.843	8.06
444.049	8.09
444.255	7.95
444.461	7.87
444.667	7.72
444.873	7.86
445.079	7.84
445.284	7.9
445.49	7.72
445.696	7.64
445.902	7.63
446.108	7.57
446.314	7.41
446.52	7.62
446.726	8.02
446.931	7.91
447.137	7.96
447.343	8.14
447.549	7.9
447.755	7.77
447.96	7.83
448.166	7.72
448.372	7.83
448.578	7.92
448.783	7.84
448.989	7.87
449.195	8.08
449.4	7.91
449.606	7.91
449.812	7.91
450.017	7.98
450.223	7.85
450.428	7.72
450.634	7.87
450.84	7.94
451.045	7.74
451.251	7.68
451.456	7.94
451.662	8.08
451.867	8.06
452.073	8.05
452.278	8.09
452.483	8.14
452.689	8.06
452.894	8.19
453.1	8.3
453.305	8.12
453.51	7.97
453.716	7.7
453.921	7.64
454.127	7.64
454.332	7.64
454.537	7.63
454.742	7.82
454.948	7.8
455.153	7.69
455.358	7.86
455.563	8.02
455.769	7.96
455.974	7.8
456.179	7.78
456.384	7.68
456.589	7.59
456.795	7.43
457	7.46
457.205	7.65
457.41	7.61
457.615	7.58
457.82	7.77
458.025	7.91
458.23	7.69
458.435	7.79
458.64	7.52
458.845	7.62
459.05	7.48
459.255	7.44
459.46	7.4
459.665	7.61
459.87	7.58
460.075	7.38
460.28	7.52
460.485	7.63
460.69	7.74
460.895	7.43
461.099	7.48
461.304	7.61
461.509	7.64
461.714	7.37
461.919	7.58
462.123	7.66
462.328	7.7
462.533	7.36
462.738	7.56
462.942	7.42
463.147	7.53
463.352	7.51
463.556	7.55
463.761	7.6
463.966	7.84
464.17	7.88
464.375	7.68
464.58	7.69
464.784	7.6
