Data from Ofra_PP_Phys_8HS23B_Reflection_3.txt Node
Date: Sat Jul 24 20:08:25 EDT 2021
User: USUARIO
Spectrometer: FLMT01687
Trigger mode: 0
Integration Time (sec): 1.100000E0
Scans to average: 2
Electric dark correction enabled: true
Nonlinearity correction enabled: false
Boxcar width: 2
XAxis mode: Wavelengths
Number of Pixels in Spectrum: 3648
>>>>>Begin Spectral Data<<<<<
179.494	647.74
179.716	813.16
179.937	1409.64
180.158	1159.79
180.38	533.7
180.601	-477.72
180.823	80.72
181.044	-283.72
181.265	2.15
181.486	4.24
181.708	-49.78
181.929	-1176
182.15	537.35
182.372	-35.4
182.593	17000
182.814	193.85
183.035	112.57
183.257	91.89
183.478	9.36
183.699	58.26
183.92	-12.84
184.141	0.95
184.363	-51.32
184.584	52.73
184.805	31.99
185.026	68.76
185.247	85.77
185.468	58.42
185.689	36.63
185.91	30.3
186.132	8.51
186.353	1.81
186.574	53.34
186.795	62.13
187.016	27.11
187.237	51.02
187.458	58.29
187.679	54.12
187.9	65.52
188.121	108.7
188.342	90.43
188.563	90.05
188.784	109.21
189.005	99.54
189.226	90.64
189.447	85.62
189.667	80.06
189.888	32.81
190.109	14.93
190.33	-10.62
190.551	-41.01
190.772	-52.77
190.993	-52.1
191.214	-36.86
191.434	-23.91
191.655	34.71
191.876	16.18
192.097	14.63
192.318	22.59
192.538	-0.46
192.759	-17.24
192.98	-12.84
193.201	0.8
193.421	-49.21
193.642	-12.7
193.863	-9.43
194.083	-8.46
194.304	-1.02
194.525	32.52
194.745	15.7
194.966	-22.36
195.187	-30.84
195.407	-61.2
195.628	-131.42
195.848	-98.88
196.069	-117.57
196.29	-89.44
196.51	-163.98
196.731	-141.19
196.951	-89.02
197.172	-61.55
197.392	-57.62
197.613	-5.38
197.833	-14.04
198.054	-59.9
198.274	-32.36
198.495	-86.35
198.715	-64.13
198.936	-69.7
199.156	-39.44
199.377	-62.94
199.597	-48.7
199.817	-55.03
200.038	-5.79
200.258	23.81
200.479	65.86
200.699	69.04
200.919	74.42
201.14	15.97
201.36	-6.78
201.58	-7.98
201.801	6.02
202.021	-33.35
202.241	18.51
202.461	12.68
202.682	-26.68
202.902	-29.7
203.122	-20.52
203.342	-24.05
203.563	-6
203.783	1.46
204.003	-79.44
204.223	-187.45
204.443	-49.95
204.663	-45.84
204.884	-27.33
205.104	34.99
205.324	85.16
205.544	40
205.764	37.48
205.984	69.25
206.204	88.6
206.424	106.99
206.644	105
206.864	100.06
207.084	68.19
207.304	73.16
207.525	12.28
207.745	16.73
207.964	-6.32
208.184	-8.42
208.404	-32
208.624	-24.28
208.844	2.68
209.064	-22.43
209.284	-33.18
209.504	-27.61
209.724	8.71
209.944	-20.67
210.164	18.95
210.384	56.75
210.604	77.36
210.823	7.54
211.043	-33.41
211.263	-26.42
211.483	-55.51
211.703	-84.71
211.922	-44.08
212.142	36.39
212.362	39.67
212.582	36.76
212.801	40.73
213.021	19.27
213.241	-1
213.461	-40.06
213.68	-59.47
213.9	-55.16
214.12	-58.18
214.339	-85.31
214.559	-69.34
214.779	-41.5
214.998	-19.6
215.218	-24.5
215.438	-11.36
215.657	-6.01
215.877	4.36
216.096	3.43
216.316	39.87
216.535	46.52
216.755	47.24
216.974	39.71
217.194	49.78
217.413	28.22
217.633	25.79
217.852	-43.82
218.072	-51.09
218.291	-66.09
218.511	-40.04
218.73	-108.06
218.95	-83.39
219.169	-84.83
219.389	-109.45
219.608	-129.96
219.827	-52.1
220.047	-26.42
220.266	-39.25
220.485	-38.03
220.705	-4.29
220.924	-45.44
221.143	-23.44
221.363	-56.56
221.582	-13.84
221.801	-21.06
222.021	12.8
222.24	12.67
222.459	58.08
222.678	50.53
222.897	33.96
223.117	22.02
223.336	28.23
223.555	37.32
223.774	66.67
223.993	84.15
224.213	149.58
224.432	98.29
224.651	109.36
224.87	74.5
225.089	93.5
225.308	58.1
225.527	70.92
225.746	58.15
225.965	38.28
226.184	10.92
226.404	36.36
226.623	23.6
226.842	27.41
227.061	63.1
227.28	75.56
227.499	83.97
227.718	109.38
227.936	104.96
228.155	96.71
228.374	40
228.593	7.53
228.812	-7.78
229.031	-6.25
229.25	-33.81
229.469	19.4
229.688	33.94
229.907	43.25
230.125	65.29
230.344	78.35
230.563	67.05
230.782	78.78
231.001	29.17
231.22	20.05
231.438	32.48
231.657	18.35
231.876	5.72
232.095	46.56
232.313	43.08
232.532	29.86
232.751	33.73
232.969	26.8
233.188	9.72
233.407	-1.01
233.625	-10.19
233.844	-19.3
234.063	-30.17
234.281	23.02
234.5	26.42
234.719	36.91
234.937	44.59
235.156	73.59
235.374	67.55
235.593	94.53
235.811	95.9
236.03	98.67
236.249	72.41
236.467	81.63
236.686	43.26
236.904	58.71
237.123	29.12
237.341	15.38
237.559	-9.08
237.778	-15.48
237.996	-50.73
238.215	-25.11
238.433	-21.67
238.652	-4.07
238.87	-46.57
239.088	-21.45
239.307	-2.53
239.525	-14.45
239.743	-47.41
239.962	-5.86
240.18	-34.92
240.398	-59.59
240.617	-54.7
240.835	-29.35
241.053	-40.35
241.271	14.4
241.49	21.03
241.708	14.32
241.926	27.47
242.144	35.96
242.363	15.63
242.581	17.43
242.799	42.61
243.017	27.51
243.235	-10.3
243.453	12.65
243.672	-23.03
243.89	-19.8
244.108	-9.68
244.326	29.82
244.544	17.32
244.762	17.15
244.98	21.72
245.198	45.5
245.416	1.6
245.634	9.88
245.852	38.39
246.07	33.21
246.288	18.01
246.506	21.38
246.724	27.07
246.942	18.09
247.16	22.16
247.378	28.23
247.596	37.17
247.814	38.57
248.032	2.05
248.25	2.14
248.468	-1.17
248.685	26.74
248.903	19.18
249.121	39.14
249.339	3.37
249.557	-13.23
249.775	-44.64
249.992	-86.12
250.21	-96.16
250.428	-46.27
250.646	-27.2
250.863	-32.53
251.081	-9.61
251.299	21.52
251.517	2.62
251.734	-14.29
251.952	-18.84
252.17	3.17
252.387	10.51
252.605	-4.24
252.823	7.63
253.04	39.65
253.258	41.59
253.475	34.02
253.693	65.64
253.911	88.27
254.128	70.43
254.346	76.3
254.563	57.94
254.781	36.5
254.998	2.9
255.216	-6.53
255.433	-25.21
255.651	1.01
255.868	19.48
256.086	31.06
256.303	31.43
256.521	34.2
256.738	30.06
256.956	1.79
257.173	7.17
257.39	0.28
257.608	2.5
257.825	2.56
258.043	28.45
258.26	28.03
258.477	37.2
258.695	39.52
258.912	13.64
259.129	-11.33
259.346	-44.69
259.564	-53.08
259.781	-38.11
259.998	-30.62
260.216	7.53
260.433	35.76
260.65	24.84
260.867	29.36
261.084	14.75
261.302	3.78
261.519	14.39
261.736	-3.07
261.953	-4.78
262.17	25.46
262.387	14.48
262.604	-13.25
262.822	-3.89
263.039	-19.22
263.256	-37.83
263.473	-37.22
263.69	-44.43
263.907	-4.44
264.124	14.97
264.341	50.24
264.558	49.81
264.775	55.66
264.992	65.43
265.209	59.57
265.426	41.17
265.643	45.82
265.86	50.22
266.077	47.82
266.294	38.31
266.51	30
266.727	17.46
266.944	32.02
267.161	6.9
267.378	23.54
267.595	24.91
267.812	8.55
268.028	-1.4
268.245	7.33
268.462	-26.35
268.679	-10.07
268.896	30.51
269.112	25.86
269.329	26.02
269.546	56.04
269.763	46.39
269.979	40.43
270.196	31.49
270.413	18.94
270.629	-13.32
270.846	-22.72
271.063	-11.23
271.279	-25.36
271.496	-49.15
271.712	-47.33
271.929	-33.73
272.146	-40.29
272.362	-14.85
272.579	43.65
272.795	57.62
273.012	82.9
273.228	80.44
273.445	45.7
273.661	3.53
273.878	-68.78
274.094	-76.24
274.311	-95.93
274.527	-41.51
274.744	-23.96
274.96	26.81
275.177	34.2
275.393	30.89
275.609	29.13
275.826	42.61
276.042	30.45
276.259	27.94
276.475	41.25
276.691	49.39
276.908	28.48
277.124	59.61
277.34	52.21
277.557	42.68
277.773	42.44
277.989	41.71
278.205	32.99
278.422	38.87
278.638	54.07
278.854	38.29
279.07	37.68
279.286	0.91
279.503	-25.44
279.719	-28.25
279.935	-43.47
280.151	-59.2
280.367	-9.96
280.583	5.33
280.799	-4.78
281.016	5.48
281.232	20.91
281.448	18.38
281.664	37.96
281.88	40.03
282.096	48.93
282.312	67.7
282.528	58.88
282.744	40.6
282.96	44.95
283.176	46.2
283.392	36.82
283.608	43.11
283.824	52.95
284.04	43.1
284.256	58.63
284.471	44.49
284.687	39.87
284.903	38.22
285.119	73.4
285.335	32.94
285.551	46.42
285.767	33.45
285.982	13.98
286.198	-20.39
286.414	7.01
286.63	6.26
286.846	32.63
287.061	11.81
287.277	21.59
287.493	28.22
287.709	31.6
287.924	23.92
288.14	73.51
288.356	75.83
288.571	73.87
288.787	70.36
289.003	74.64
289.218	36.41
289.434	5.04
289.65	21.42
289.865	15.93
290.081	4.99
290.296	15.92
290.512	11.25
290.727	8.07
290.943	1.01
291.159	-10.12
291.374	-11.79
291.59	-19.04
291.805	-29.03
292.021	-2.7
292.236	2.81
292.451	14.55
292.667	31.46
292.882	43.36
293.098	47.02
293.313	44.39
293.529	16.13
293.744	-19.22
293.959	-30.18
294.175	-40.82
294.39	-12.63
294.605	18.16
294.821	55.06
295.036	42.63
295.251	62.99
295.467	51.94
295.682	37.74
295.897	2.39
296.112	-1.39
296.328	-4.37
296.543	-17.61
296.758	-39.68
296.973	8.23
297.188	49.67
297.404	14.29
297.619	20.34
297.834	25.13
298.049	9.95
298.264	-12.78
298.479	10.18
298.694	11.06
298.909	30.44
299.125	44.14
299.34	44.52
299.555	33.48
299.77	50.71
299.985	-13.39
300.2	-42.06
300.415	-66.84
300.63	-43.39
300.845	-53.29
301.06	-41.74
301.275	-35.2
301.49	-5.74
301.704	-9.69
301.919	-27.77
302.134	-9.46
302.349	34.01
302.564	7.68
302.779	21.1
302.994	67.73
303.209	65.71
303.423	56.71
303.638	85.66
303.853	55.35
304.068	3.65
304.283	-0.87
304.497	-15.7
304.712	-23.27
304.927	-8.28
305.142	3.61
305.356	3.15
305.571	21.97
305.786	12.4
306	3.68
306.215	9.8
306.43	-4.28
306.644	2.92
306.859	23.99
307.074	35.47
307.288	13.21
307.503	25.43
307.717	-4.77
307.932	-4.06
308.147	-31.38
308.361	7.15
308.576	-3.33
308.79	-32.79
309.005	-21.64
309.219	-10.49
309.434	1.99
309.648	-18.46
309.863	17.31
310.077	4.37
310.292	20.54
310.506	-8.78
310.72	33.76
310.935	65.85
311.149	53.16
311.364	59.64
311.578	85.23
311.792	77.07
312.007	59.16
312.221	29.91
312.435	24.08
312.649	-16.19
312.864	39.76
313.078	27.64
313.292	80.25
313.507	72.76
313.721	66.41
313.935	43.69
314.149	69.81
314.363	50.48
314.578	33.08
314.792	25.43
315.006	23.88
315.22	7.91
315.434	13.86
315.648	28.28
315.862	24.25
316.077	22.67
316.291	32.79
316.505	26.94
316.719	41.91
316.933	19.61
317.147	27.3
317.361	-8.74
317.575	0.89
317.789	-21.54
318.003	-3.86
318.217	1.32
318.431	31.31
318.645	40.69
318.859	31.29
319.073	56.99
319.287	38.33
319.5	5.09
319.714	-34.29
319.928	-28.26
320.142	-46.66
320.356	6.4
320.57	33.26
320.784	36.11
320.997	45.56
321.211	41.62
321.425	-2.81
321.639	-39.73
321.853	-12.08
322.066	-20.13
322.28	-37.75
322.494	-17.16
322.707	34.83
322.921	13.38
323.135	15
323.349	31.51
323.562	6.14
323.776	-28.37
323.989	-16.88
324.203	-36.57
324.417	-42.33
324.63	-46.51
324.844	-47.75
325.057	-51
325.271	-47.02
325.485	-48.26
325.698	-4.88
325.912	17.71
326.125	5.05
326.339	24.03
326.552	26.22
326.766	30.69
326.979	29.85
327.193	57.39
327.406	46.06
327.619	53.76
327.833	46.45
328.046	29.34
328.26	13.14
328.473	14.55
328.686	-12.66
328.9	-7.13
329.113	-3.6
329.326	-22.26
329.54	-21.13
329.753	-0.65
329.966	0.1
330.179	33.24
330.393	56.33
330.606	52.65
330.819	54.9
331.032	54.32
331.246	50.55
331.459	58.15
331.672	44.56
331.885	26.87
332.098	8.93
332.311	9.23
332.525	-13.33
332.738	-5.97
332.951	13.89
333.164	21.64
333.377	27.09
333.59	39.48
333.803	38.16
334.016	17.35
334.229	16.27
334.442	11.13
334.655	24.8
334.868	44.07
335.081	51.55
335.294	42.03
335.507	41
335.72	38.59
335.933	13.26
336.146	23.14
336.359	34.74
336.572	14.54
336.785	-3
336.997	3.86
337.21	8.8
337.423	5.72
337.636	12.82
337.849	21.37
338.062	23.04
338.274	27.33
338.487	24.88
338.7	29.35
338.913	11.17
339.125	2.44
339.338	3.29
339.551	5.54
339.763	31.29
339.976	58
340.189	65.16
340.402	57.04
340.614	47.64
340.827	26.44
341.039	5.83
341.252	-11.71
341.465	-16.51
341.677	-24.8
341.89	-63.38
342.102	-53.27
342.315	-50.13
342.527	-50.79
342.74	-40.09
342.952	24.79
343.165	31.98
343.377	62.98
343.59	50.39
343.802	62.91
344.015	58.74
344.227	69.47
344.44	43.4
344.652	39.87
344.864	48.02
345.077	47.61
345.289	28.33
345.502	53.56
345.714	45.57
345.926	43.31
346.139	31.73
346.351	37.49
346.563	24.96
346.775	39.21
346.988	27.21
347.2	14.38
347.412	-5.24
347.624	-0.08
347.837	-2.1
348.049	13.41
348.261	39.86
348.473	38.36
348.685	11.27
348.897	9.45
349.11	-0.57
349.322	-3.83
349.534	26.22
349.746	39.47
349.958	43.58
350.17	40.64
350.382	44.06
350.594	29.55
350.806	31.22
351.018	23.36
351.23	22.65
351.442	7.72
351.654	17.88
351.866	12.81
352.078	18.53
352.29	16.29
352.502	42.85
352.714	35.96
352.926	37.06
353.138	38.85
353.35	26.71
353.561	12.01
353.773	-0.38
353.985	6.72
354.197	-5.09
354.409	0.05
354.621	9.5
354.832	15.78
355.044	-6.59
355.256	-1.39
355.468	-7.01
355.679	-22.34
355.891	-18.89
356.103	-6.88
356.314	-2.03
356.526	16.44
356.738	40.81
356.949	50.04
357.161	51.9
357.373	50.56
357.584	54.5
357.796	40.07
358.008	13.86
358.219	33.73
358.431	42.81
358.642	25.23
358.854	29.88
359.065	39.04
359.277	13.06
359.488	-0.62
359.7	-9.24
359.911	-21.24
360.123	-17
360.334	-26.11
360.546	-37.46
360.757	-29.07
360.969	-22.45
361.18	-11.18
361.391	-0.82
361.603	3.4
361.814	16.18
362.025	1.12
362.237	-8.32
362.448	8.91
362.659	35.02
362.871	31.43
363.082	45.11
363.293	52.44
363.504	43.79
363.716	19.71
363.927	31.23
364.138	11.66
364.349	-23.51
364.56	-25.07
364.772	-34.59
364.983	-20.02
365.194	-25.11
365.405	-5.85
365.616	-6.1
365.827	4.17
366.038	-24.42
366.25	5.32
366.461	-3.36
366.672	12.98
366.883	25.83
367.094	28.1
367.305	3.76
367.516	23.75
367.727	14.33
367.938	1.18
368.149	-9.94
368.36	9.07
368.571	2.24
368.781	-6.85
368.992	-18.49
369.203	8.64
369.414	-11.33
369.625	-15.69
369.836	-8
370.047	-9.73
370.258	-29.68
370.468	-23.83
370.679	-52.37
370.89	-46.04
371.101	-10.41
371.312	-24.75
371.522	-13.43
371.733	3.46
371.944	12
372.155	13.25
372.365	-8.06
372.576	-3.43
372.787	-3.15
372.997	-10.98
373.208	-16.71
373.419	21.54
373.629	3.22
373.84	10.94
374.05	-3.3
374.261	6.97
374.472	-25.1
374.682	2.71
374.893	-4.66
375.103	25.45
375.314	18.26
375.524	29.19
375.735	23.19
375.945	29.26
376.156	-2.66
376.366	0.9
376.577	15.59
376.787	15.58
376.997	21.49
377.208	37.66
377.418	17.82
377.629	19.45
377.839	9.19
378.049	15.05
378.26	25.99
378.47	43.19
378.68	43.9
378.89	44.12
379.101	29.85
379.311	4.94
379.521	-21.55
379.732	-26.69
379.942	-44.16
380.152	-27.18
380.362	-8.02
380.572	3.32
380.783	18.01
380.993	37.85
381.203	33.58
381.413	33.48
381.623	39.86
381.833	27.09
382.043	1.37
382.253	3.37
382.463	0.22
382.674	-1.85
382.884	-12.24
383.094	3.56
383.304	5.39
383.514	5.66
383.724	10.85
383.934	6.42
384.144	-4.12
384.353	-3.22
384.563	1.6
384.773	0.53
384.983	13.68
385.193	22.08
385.403	9.45
385.613	7.27
385.823	6.2
386.033	4.57
386.242	-0.67
386.452	11.83
386.662	5.85
386.872	10.4
387.082	14.7
387.291	4.92
387.501	7.45
387.711	13.8
387.921	-3.46
388.13	-2.7
388.34	14.12
388.55	11.43
388.759	8.26
388.969	19.41
389.179	15.52
389.388	12.41
389.598	10.37
389.807	10.59
390.017	11.25
390.227	10.91
390.436	6.83
390.646	11.73
390.855	14.42
391.065	14.54
391.274	10.3
391.484	9.35
391.693	8.97
391.903	8.2
392.112	9.05
392.322	15.58
392.531	19.17
392.74	17.24
392.95	13.38
393.159	11.33
393.369	11.61
393.578	8.86
393.787	8.15
393.997	11.44
394.206	11.41
394.415	11.35
394.625	12.36
394.834	11.56
395.043	10.26
395.252	11.89
395.462	12.05
395.671	13.31
395.88	15.11
396.089	16.34
396.298	15.6
396.508	15.16
396.717	14.59
396.926	13.98
397.135	13.75
397.344	13.24
397.553	13.77
397.762	14.39
397.971	14.13
398.181	13.78
398.39	12.53
398.599	11.76
398.808	11.27
399.017	11.97
399.226	12.11
399.435	13.42
399.644	13.44
399.853	13.02
400.062	12.44
400.27	12.77
400.479	12.52
400.688	12.14
400.897	12.74
401.106	12.71
401.315	11.95
401.524	11.88
401.733	12.29
401.941	12.5
402.15	12.69
402.359	12.93
402.568	13.14
402.777	13.1
402.985	12.56
403.194	12.48
403.403	12.34
403.612	12.01
403.82	12.05
404.029	12.21
404.238	11.88
404.446	11.97
404.655	11.86
404.864	11.73
405.072	11.61
405.281	11.85
405.489	11.59
405.698	11.52
405.906	11.38
406.115	11.23
406.324	11.01
406.532	11.16
406.741	11.43
406.949	11.17
407.158	11.15
407.366	11.28
407.574	11.29
407.783	11.08
407.991	11.22
408.2	11.36
408.408	11.19
408.617	11.03
408.825	10.93
409.033	10.99
409.242	10.99
409.45	10.99
409.658	10.9
409.867	11.05
410.075	10.86
410.283	10.57
410.491	10.54
410.7	10.34
410.908	10.32
411.116	10.38
411.324	10.52
411.533	10.49
411.741	10.79
411.949	10.76
412.157	10.58
412.365	10.57
412.573	10.48
412.781	10.47
412.99	10.31
413.198	10.58
413.406	10.56
413.614	10.72
413.822	10.67
414.03	10.63
414.238	10.3
414.446	10.29
414.654	9.91
414.862	9.83
415.07	9.96
415.278	10.17
415.486	9.83
415.694	10.06
415.902	9.96
416.109	9.69
416.317	9.69
416.525	9.53
416.733	9.56
416.941	9.58
417.149	9.67
417.357	9.65
417.564	9.9
417.772	9.66
417.98	9.68
418.188	9.69
418.395	9.59
418.603	9.74
418.811	9.74
419.019	9.54
419.226	9.75
419.434	9.84
419.642	9.59
419.849	9.68
420.057	9.94
420.265	9.86
420.472	9.64
420.68	9.89
420.887	9.77
421.095	9.83
421.302	9.73
421.51	9.75
421.717	9.83
421.925	9.99
422.132	9.72
422.34	9.43
422.547	9.37
422.755	9.19
422.962	9.18
423.17	9.23
423.377	9.56
423.585	9.68
423.792	9.61
423.999	9.49
424.207	9.51
424.414	9.23
424.621	9.36
424.829	9.27
425.036	9.3
425.243	9.21
425.451	9.32
425.658	9.13
425.865	9.17
426.072	9.11
426.28	9.24
426.487	9.08
426.694	9.08
426.901	9.13
427.108	9.21
427.315	9.14
427.523	9.44
427.73	9.41
427.937	9.03
428.144	8.88
428.351	8.9
428.558	8.81
428.765	8.66
428.972	8.93
429.179	9.09
429.386	9.24
429.593	9.13
429.8	9.04
430.007	9.14
430.214	9.25
430.421	9.02
430.628	9.01
430.835	9.01
431.042	9.19
431.249	9.04
431.456	9.36
431.662	9.62
431.869	9.9
432.076	9.82
432.283	9.9
432.49	9.61
432.697	9.33
432.903	9.07
433.11	8.99
433.317	9.06
433.524	9.2
433.73	9.19
433.937	9.53
434.144	9.5
434.35	9.42
434.557	9.3
434.764	9.38
434.97	9.25
435.177	9.37
435.384	9.1
435.59	9.23
435.797	9.37
436.003	9.33
436.21	9.28
436.416	9.39
436.623	9.33
436.829	9.28
437.036	9.29
437.242	9.17
437.449	9.18
437.655	9.1
437.862	9.1
438.068	9.23
438.275	9.34
438.481	9.41
438.687	9.43
438.894	9.42
439.1	9.35
439.307	9.4
439.513	9.44
439.719	9.54
439.926	9.53
440.132	9.56
440.338	9.47
440.544	9.53
440.751	9.46
440.957	9.51
441.163	9.24
441.369	9.28
441.575	9.11
441.782	8.98
441.988	8.82
442.194	8.96
442.4	8.92
442.606	9.06
442.812	9.27
443.018	9.36
443.224	9.44
443.431	9.54
443.637	9.48
443.843	9.25
444.049	9.24
444.255	9.26
444.461	9.15
444.667	8.92
444.873	9.04
445.079	9.11
445.284	9.04
445.49	8.86
445.696	8.91
445.902	8.94
446.108	8.87
446.314	8.82
446.52	9.14
446.726	9.45
446.931	9.33
447.137	9.37
447.343	9.49
447.549	9.13
447.755	9.02
447.96	9.14
448.166	9.05
448.372	9.11
448.578	9.25
448.783	9.21
448.989	9.36
449.195	9.55
449.4	9.43
449.606	9.48
449.812	9.43
450.017	9.37
450.223	9.3
450.428	9.2
450.634	9.31
450.84	9.35
451.045	9.15
451.251	8.99
451.456	9.25
451.662	9.27
451.867	9.33
452.073	9.35
452.278	9.47
452.483	9.51
452.689	9.41
452.894	9.52
453.1	9.62
453.305	9.51
453.51	9.37
453.716	9.36
453.921	9.28
454.127	9.29
454.332	9.3
454.537	9.27
454.742	9.29
454.948	9.26
455.153	9.1
455.358	9.17
455.563	9.35
455.769	9.43
455.974	9.44
456.179	9.61
456.384	9.53
456.589	9.49
456.795	9.23
457	9.18
457.205	9.2
457.41	9.23
457.615	9.16
457.82	9.34
458.025	9.41
458.23	9.26
458.435	9.43
458.64	9.28
458.845	9.25
459.05	9.21
459.255	9.16
459.46	9.05
459.665	9.14
459.87	9.26
460.075	9.19
460.28	9.34
460.485	9.46
460.69	9.52
460.895	9.29
461.099	9.23
461.304	9.36
461.509	9.47
461.714	9.34
461.919	9.49
462.123	9.5
462.328	9.46
462.533	9.01
462.738	9.12
462.942	8.93
463.147	9.19
463.352	9.28
463.556	9.4
463.761	9.44
463.966	9.71
464.17	9.66
464.375	9.39
