Data from Ofra_PP_Phys_0CX04_Reflection_1.txt Node
Date: Sat Jul 24 20:02:17 EDT 2021
User: USUARIO
Spectrometer: FLMT01687
Trigger mode: 0
Integration Time (sec): 1.100000E0
Scans to average: 2
Electric dark correction enabled: true
Nonlinearity correction enabled: false
Boxcar width: 2
XAxis mode: Wavelengths
Number of Pixels in Spectrum: 3648
>>>>>Begin Spectral Data<<<<<
179.494	423.18
179.716	490.18
179.937	824.5
180.158	727.33
180.38	338.43
180.601	-419.52
180.823	-61.1
181.044	1780.62
181.265	-58.85
181.486	-49.21
181.708	48.18
181.929	105.33
182.15	-460.64
182.372	-40.08
182.593	77433.33
182.814	994.36
183.035	225.6
183.257	166.31
183.478	117.55
183.699	134.54
183.92	67.02
184.141	41.09
184.363	30.28
184.584	54.6
184.805	27.53
185.026	44.24
185.247	38.87
185.468	-1.57
185.689	3.14
185.91	21.74
186.132	23.66
186.353	34.36
186.574	59.7
186.795	67.5
187.016	48.12
187.237	62.19
187.458	45.9
187.679	74.03
187.9	78.77
188.121	110.39
188.342	104.77
188.563	116.7
188.784	106.79
189.005	96.38
189.226	90.27
189.447	73.33
189.667	81.18
189.888	62.67
190.109	51.52
190.33	31.28
190.551	28.53
190.772	16.09
190.993	12.7
191.214	20.72
191.434	9.33
191.655	22.29
191.876	9.99
192.097	12.08
192.318	9.51
192.538	7.78
192.759	10.24
192.98	19.77
193.201	17.55
193.421	18.27
193.642	38.32
193.863	33.56
194.083	23.71
194.304	28.7
194.525	36.02
194.745	15.03
194.966	-19.53
195.187	-23.01
195.407	-60.79
195.628	-93.85
195.848	-63.77
196.069	-43.32
196.29	-46.49
196.51	-45
196.731	-73.13
196.951	-67.18
197.172	-67.51
197.392	-51.57
197.613	-21.05
197.833	8.95
198.054	-6.71
198.274	22.55
198.495	28.7
198.715	60.07
198.936	20.59
199.156	30.22
199.377	18.27
199.597	16.37
199.817	4.96
200.038	43.25
200.258	75.55
200.479	74.92
200.699	78.75
200.919	69.27
201.14	34.86
201.36	4.83
201.58	9.39
201.801	19.7
202.021	20.59
202.241	52.65
202.461	63.41
202.682	56.25
202.902	68.73
203.122	47.47
203.342	50.3
203.563	69.98
203.783	49.19
204.003	-18.15
204.223	-50.4
204.443	4.35
204.663	-11.68
204.884	-21.93
205.104	5.68
205.324	51.52
205.544	30.05
205.764	38.31
205.984	68.62
206.204	98.93
206.424	115.82
206.644	92.9
206.864	107.15
207.084	96.96
207.304	77.19
207.525	28.05
207.745	43.52
207.964	26.03
208.184	32.06
208.404	20.76
208.624	30.52
208.844	37.39
209.064	18.01
209.284	9.99
209.504	26.75
209.724	25.9
209.944	27.83
210.164	40.45
210.384	69.11
210.604	52.8
210.823	19.74
211.043	7.05
211.263	7.67
211.483	-15.27
211.703	-18.06
211.922	16.73
212.142	48.08
212.362	49.24
212.582	38.36
212.801	42.51
213.021	26.12
213.241	19.67
213.461	-7.97
213.68	-21.97
213.9	-26.02
214.12	-23.37
214.339	-35.65
214.559	-2.54
214.779	35.62
214.998	65.59
215.218	46.97
215.438	67.86
215.657	72.84
215.877	72.26
216.096	43.85
216.316	63.39
216.535	44.94
216.755	60.97
216.974	51.61
217.194	59.29
217.413	46.5
217.633	43.19
217.852	-0.51
218.072	-5.16
218.291	-12.72
218.511	0.53
218.73	-30.46
218.95	-22.29
219.169	-8.21
219.389	-27.76
219.608	-20.13
219.827	14.08
220.047	30.36
220.266	29.05
220.485	37.03
220.705	49.17
220.924	27.32
221.143	35.42
221.363	1.89
221.582	19.24
221.801	-2.7
222.021	30.55
222.24	31.91
222.459	57.91
222.678	33.67
222.897	51.01
223.117	38.94
223.336	41.72
223.555	41.92
223.774	69.52
223.993	52.84
224.213	61.53
224.432	44.13
224.651	67.79
224.87	43.01
225.089	66.12
225.308	54.34
225.527	71.87
225.746	53.56
225.965	43.58
226.184	30.63
226.404	42.49
226.623	26
226.842	34.63
227.061	63.79
227.28	69.71
227.499	69.82
227.718	84.44
227.936	63.68
228.155	43.52
228.374	17.21
228.593	18.37
228.812	7.25
229.031	22.52
229.25	11.63
229.469	30.93
229.688	22.32
229.907	26.73
230.125	34.54
230.344	53.82
230.563	53.23
230.782	75.46
231.001	46.99
231.22	27.59
231.438	22.51
231.657	21.32
231.876	-7.99
232.095	20.31
232.313	53.36
232.532	50.13
232.751	56.33
232.969	59.44
233.188	56.79
233.407	37.05
233.625	24.3
233.844	27.85
234.063	32.58
234.281	63.65
234.5	71.15
234.719	87.91
234.937	73.17
235.156	58.9
235.374	45.52
235.593	67.49
235.811	55.54
236.03	64.57
236.249	65.6
236.467	80.59
236.686	38.18
236.904	51.96
237.123	6.37
237.341	14.93
237.559	-14.16
237.778	1.66
237.996	-22.54
238.215	5.44
238.433	11.83
238.652	21.24
238.87	-9.1
239.088	25.15
239.307	30.86
239.525	23.78
239.743	20.35
239.962	44.42
240.18	19.11
240.398	7.43
240.617	-0.24
240.835	7.8
241.053	-34.21
241.271	-18.56
241.49	7.14
241.708	3.21
241.926	-2.74
242.144	29.01
242.363	30.44
242.581	24.78
242.799	37.14
243.017	47.72
243.235	30.22
243.453	47.69
243.672	32.56
243.89	40.98
244.108	42.18
244.326	48.34
244.544	36.95
244.762	28.46
244.98	26.44
245.198	31.28
245.416	19.11
245.634	22.13
245.852	45.32
246.07	36.22
246.288	26.14
246.506	45.82
246.724	58.18
246.942	47.15
247.16	54.1
247.378	56.66
247.596	53.03
247.814	45.61
248.032	24.36
248.25	27.66
248.468	23.88
248.685	36.11
248.903	28.21
249.121	40.09
249.339	20.56
249.557	12.84
249.775	2.03
249.992	-19.67
250.21	-34.49
250.428	-13.92
250.646	-7.53
250.863	-5.69
251.081	6.52
251.299	26.58
251.517	29.46
251.734	22.83
251.952	13.85
252.17	15.32
252.387	27.45
252.605	9.29
252.823	15.56
253.04	39.98
253.258	48.08
253.475	45.87
253.693	58.59
253.911	78.22
254.128	48.55
254.346	53.25
254.563	43.41
254.781	31.94
254.998	11.56
255.216	9.21
255.433	12.71
255.651	32.32
255.868	33.86
256.086	38.21
256.303	46.02
256.521	33.43
256.738	15.82
256.956	16.82
257.173	21.33
257.39	33.99
257.608	26.35
257.825	31.51
258.043	33.02
258.26	37.71
258.477	18.85
258.695	25
258.912	-7.58
259.129	7.85
259.346	-20.12
259.564	-8.76
259.781	0.09
259.998	10.7
260.216	23.79
260.433	40.2
260.65	27.72
260.867	28.27
261.084	32.52
261.302	13.91
261.519	17.32
261.736	15.22
261.953	8.55
262.17	14.3
262.387	19.55
262.604	15.15
262.822	12.67
263.039	10.24
263.256	12.73
263.473	20.05
263.69	7.24
263.907	26.26
264.124	17.18
264.341	26.85
264.558	13.57
264.775	22.35
264.992	23.56
265.209	47.74
265.426	27.85
265.643	33.86
265.86	30.53
266.077	44.39
266.294	32.68
266.51	43.01
266.727	36.56
266.944	56.19
267.161	36.49
267.378	43.65
267.595	57.88
267.812	35.18
268.028	25.91
268.245	37.85
268.462	23.64
268.679	1.11
268.896	36.54
269.112	27.03
269.329	28.3
269.546	40.77
269.763	47.77
269.979	30.2
270.196	31.35
270.413	24.74
270.629	5.48
270.846	4.08
271.063	29.64
271.279	25.81
271.496	15.02
271.712	10.69
271.929	5.9
272.146	1.21
272.362	14.12
272.579	42.7
272.795	55.93
273.012	65.24
273.228	55.02
273.445	35.42
273.661	12.34
273.878	-29.77
274.094	-34.24
274.311	-32.39
274.527	-4.57
274.744	15.52
274.96	45.43
275.177	50.07
275.393	49.13
275.609	49.27
275.826	51.58
276.042	49.7
276.259	54.61
276.475	51.26
276.691	44.03
276.908	39.21
277.124	51.29
277.34	29.02
277.557	45.15
277.773	56.77
277.989	51.22
278.205	59.33
278.422	83.92
278.638	80.46
278.854	75.42
279.07	69.01
279.286	37.03
279.503	14.56
279.719	8.98
279.935	9.04
280.151	-2.72
280.367	25.68
280.583	44.07
280.799	43.86
281.016	42.58
281.232	50.71
281.448	52.89
281.664	66.5
281.88	63.17
282.096	50.76
282.312	58.89
282.528	61.03
282.744	60.13
282.96	62.43
283.176	80.34
283.392	76.87
283.608	73.37
283.824	55.51
284.04	63.46
284.256	70.16
284.471	65.22
284.687	50.76
284.903	54.75
285.119	51.11
285.335	26.67
285.551	38.53
285.767	49.67
285.982	30.46
286.198	8.26
286.414	12.35
286.63	-0.08
286.846	21.47
287.061	15.54
287.277	27.55
287.493	42.38
287.709	42.05
287.924	26.32
288.14	50.62
288.356	55.63
288.571	51.73
288.787	45.39
289.003	50.74
289.218	46.34
289.434	37.02
289.65	43.63
289.865	43.65
290.081	37.63
290.296	35.47
290.512	36.81
290.727	33.47
290.943	27.07
291.159	19.63
291.374	24.78
291.59	12.73
291.805	14.49
292.021	18.88
292.236	27.88
292.451	22.91
292.667	33.02
292.882	33.31
293.098	48.51
293.313	44.13
293.529	37.68
293.744	19.08
293.959	-1.33
294.175	-8.56
294.39	7.95
294.605	11.37
294.821	22.5
295.036	26.26
295.251	42.72
295.467	36.42
295.682	44.28
295.897	37.43
296.112	35.64
296.328	26.14
296.543	16.63
296.758	4.09
296.973	30.05
297.188	38.41
297.404	16.5
297.619	24.33
297.834	18.43
298.049	6.91
298.264	2.49
298.479	16.67
298.694	13.39
298.909	21.13
299.125	16.02
299.34	26.5
299.555	26.14
299.77	30.76
299.985	9.38
300.2	5.09
300.415	-16.76
300.63	-15.05
300.845	-5.85
301.06	-4.79
301.275	21.71
301.49	24.42
301.704	31.33
301.919	13.21
302.134	9.7
302.349	6.92
302.564	6.76
302.779	12.43
302.994	32.52
303.209	35.76
303.423	32.92
303.638	38.99
303.853	20.59
304.068	-6.06
304.283	10.4
304.497	7.61
304.712	30.03
304.927	28.44
305.142	23.77
305.356	27.79
305.571	40.49
305.786	23.51
306	37.15
306.215	56.99
306.43	37.1
306.644	53.05
306.859	59.95
307.074	56.51
307.288	41.61
307.503	59.78
307.717	28.56
307.932	24.16
308.147	19.59
308.361	34.79
308.576	12.35
308.79	-23.01
309.005	0.67
309.219	9.18
309.434	12.4
309.648	10.92
309.863	53.89
310.077	31.36
310.292	25.91
310.506	31.5
310.72	56.76
310.935	44.24
311.149	44.1
311.364	52.25
311.578	54.62
311.792	43.76
312.007	50.55
312.221	40.72
312.435	39.23
312.649	25.29
312.864	17.99
313.078	-8.01
313.292	14.4
313.507	27.93
313.721	27.2
313.935	38.43
314.149	66.38
314.363	62.07
314.578	24.12
314.792	29.63
315.006	25.42
315.22	15.26
315.434	5.78
315.648	22.79
315.862	18.77
316.077	30.65
316.291	33.18
316.505	57.59
316.719	46.87
316.933	25.54
317.147	30.39
317.361	12.11
317.575	2.2
317.789	8.41
318.003	10.07
318.217	11.99
318.431	31.89
318.645	44.13
318.859	42.74
319.073	61.41
319.287	51.46
319.5	30.64
319.714	8.6
319.928	0.76
320.142	-16.26
320.356	12.31
320.57	25.58
320.784	17.18
320.997	24.55
321.211	31.94
321.425	-1.21
321.639	-28.56
321.853	-0.73
322.066	-8.23
322.28	-21.13
322.494	2.28
322.707	55.19
322.921	39.23
323.135	50.9
323.349	47.46
323.562	42.61
323.776	16.37
323.989	22.22
324.203	9.03
324.417	19.22
324.63	-7.85
324.844	-15.47
325.057	-22.27
325.271	-24.72
325.485	-19.4
325.698	23.25
325.912	48.55
326.125	50.99
326.339	61.41
326.552	61.15
326.766	59.44
326.979	35.79
327.193	39.33
327.406	26.93
327.619	23.2
327.833	27.71
328.046	23.96
328.26	21.73
328.473	10.3
328.686	12.55
328.9	9.81
329.113	21.56
329.326	16.57
329.54	48.31
329.753	57.57
329.966	47.1
330.179	52.88
330.393	56.83
330.606	42.41
330.819	52.79
331.032	63.71
331.246	60.28
331.459	65.79
331.672	58.25
331.885	31.7
332.098	16
332.311	21.9
332.525	3.75
332.738	10.76
332.951	25.74
333.164	32.65
333.377	29.06
333.59	41.01
333.803	35.92
334.016	26.88
334.229	20.39
334.442	25.15
334.655	39.68
334.868	54.98
335.081	59.38
335.294	60.4
335.507	67.14
335.72	52.74
335.933	29.45
336.146	33.31
336.359	41.89
336.572	16.17
336.785	7.1
336.997	13.42
337.21	17.44
337.423	13.11
337.636	28.22
337.849	40.59
338.062	42.52
338.274	39.54
338.487	32.63
338.7	34.15
338.913	14.89
339.125	19.32
339.338	25.69
339.551	37.73
339.763	50.77
339.976	74.63
340.189	67.93
340.402	68.53
340.614	62.36
340.827	45.74
341.039	25.33
341.252	9.5
341.465	21.09
341.677	8.53
341.89	-17.93
342.102	-10
342.315	3.89
342.527	-16.65
342.74	1.7
342.952	43.23
343.165	44.62
343.377	53.98
343.59	40.27
343.802	48.13
344.015	44.74
344.227	54.39
344.44	49.73
344.652	53.15
344.864	51.8
345.077	45.34
345.289	29.9
345.502	38.09
345.714	38.76
345.926	35.42
346.139	22.79
346.351	33.35
346.563	33.2
346.775	39.34
346.988	24.05
347.2	41.74
347.412	28.04
347.624	22.64
347.837	19.45
348.049	42.84
348.261	42.28
348.473	34.41
348.685	16.6
348.897	11.99
349.11	-2.2
349.322	-16.19
349.534	0.87
349.746	17.22
349.958	26.02
350.17	21.32
350.382	22.17
350.594	27.99
350.806	42.95
351.018	32.34
351.23	38.2
351.442	44.35
351.654	44.43
351.866	23.72
352.078	34.27
352.29	37.11
352.502	39.98
352.714	67.6
352.926	65.81
353.138	53.87
353.35	39.52
353.561	33.79
353.773	4.28
353.985	17.17
354.197	18.66
354.409	27.25
354.621	27.82
354.832	41.46
355.044	27.36
355.256	24.98
355.468	28.68
355.679	27.17
355.891	26.21
356.103	29.52
356.314	25.8
356.526	31.27
356.738	47.08
356.949	40.12
357.161	41.99
357.373	39.65
357.584	35.98
357.796	21.57
358.008	15.01
358.219	27.57
358.431	43.67
358.642	41.06
358.854	47.46
359.065	51.47
359.277	27.78
359.488	14.34
359.7	3.21
359.911	-11.52
360.123	-9.54
360.334	1.4
360.546	9.05
360.757	19.08
360.969	28.84
361.18	35.59
361.391	31.04
361.603	34.42
361.814	49.56
362.025	39.75
362.237	36.06
362.448	38.84
362.659	44.51
362.871	35.15
363.082	46.65
363.293	45.6
363.504	41.94
363.716	33.62
363.927	38.69
364.138	26.69
364.349	10.76
364.56	13.32
364.772	-7.72
364.983	-3.19
365.194	-10.77
365.405	5.86
365.616	6.25
365.827	19.93
366.038	25.04
366.25	43.57
366.461	28.75
366.672	30.76
366.883	39.82
367.094	30.41
367.305	13.04
367.516	22.29
367.727	13.68
367.938	6.3
368.149	-3.18
368.36	9.41
368.571	10.58
368.781	8.52
368.992	5.39
369.203	24.38
369.414	22.33
369.625	17.21
369.836	23.52
370.047	23.53
370.258	17.34
370.468	14.01
370.679	-6.81
370.89	-0.05
371.101	16.78
371.312	5.68
371.522	9.51
371.733	25.46
371.944	25.39
372.155	27.81
372.365	15.86
372.576	19.91
372.787	16.4
372.997	12.38
373.208	10.33
373.419	28.94
373.629	13.98
373.84	17.81
374.05	3.06
374.261	6.33
374.472	-2.89
374.682	14.12
374.893	10.09
375.103	19.97
375.314	10.34
375.524	12.61
375.735	20.2
375.945	24.07
376.156	22.49
376.366	33.03
376.577	46.59
376.787	34.42
376.997	41.92
377.208	45.46
377.418	29.32
377.629	22.21
377.839	21.09
378.049	18.28
378.26	23.37
378.47	36.95
378.68	41.8
378.89	37.78
379.101	33.84
379.311	18.22
379.521	-2.35
379.732	-7.33
379.942	-16.54
380.152	-6.32
380.362	3.81
380.572	13.14
380.783	25.82
380.993	36.52
381.203	32.08
381.413	30.64
381.623	32.42
381.833	23.35
382.043	13.64
382.253	13.81
382.463	22.57
382.674	18.53
382.884	11.53
383.094	13.17
383.304	14.98
383.514	12.54
383.724	22.17
383.934	11.27
384.144	6.53
384.353	7.64
384.563	10.13
384.773	6.75
384.983	18.05
385.193	22.52
385.403	17.86
385.613	17.04
385.823	18.12
386.033	22.13
386.242	20.63
386.452	25.44
386.662	21.58
386.872	21.47
387.082	20.88
387.291	14.97
387.501	14.22
387.711	12.78
387.921	3.56
388.13	1.45
388.34	10.3
388.55	7.67
388.759	12.44
388.969	16.72
389.179	16.24
389.388	14.87
389.598	15.79
389.807	13.29
390.017	17.47
390.227	17.19
390.436	13.9
390.646	16.81
390.855	17.59
391.065	14.25
391.274	12.55
391.484	10.84
391.693	9.06
391.903	9.78
392.112	9.78
392.322	13.14
392.531	16.34
392.74	15.04
392.95	10.8
393.159	9.86
393.369	10.4
393.578	7.6
393.787	8.21
393.997	11.18
394.206	10.61
394.415	9.43
394.625	10.51
394.834	8.5
395.043	7.49
395.252	8.63
395.462	8.56
395.671	9.08
395.88	10.53
396.089	11.51
396.298	10.75
396.508	10.65
396.717	10.76
396.926	10.05
397.135	9.05
397.344	9.07
397.553	9.33
397.762	9.58
397.971	10.22
398.181	10.26
398.39	9.58
398.599	8.97
398.808	8.42
399.017	8.31
399.226	8.6
399.435	9.15
399.644	9.37
399.853	9.21
400.062	8.77
400.27	8.71
400.479	8.73
400.688	8.37
400.897	8.63
401.106	8.68
401.315	8.15
401.524	8.15
401.733	8.43
401.941	8.37
402.15	8.41
402.359	8.59
402.568	8.51
402.777	8.39
402.985	8.24
403.194	8.21
403.403	8.34
403.612	8.2
403.82	8.22
404.029	8.2
404.238	8.08
404.446	8.07
404.655	7.84
404.864	7.75
405.072	7.75
405.281	7.83
405.489	7.55
405.698	7.6
405.906	7.44
406.115	7.2
406.324	7.13
406.532	7.23
406.741	7.4
406.949	7.33
407.158	7.41
407.366	7.36
407.574	7.47
407.783	7.39
407.991	7.52
408.2	7.51
408.408	7.41
408.617	7.26
408.825	7.08
409.033	7.12
409.242	7.21
409.45	7.26
409.658	7.16
409.867	7.24
410.075	7
410.283	6.75
410.491	6.73
410.7	6.61
410.908	6.61
411.116	6.67
411.324	6.68
411.533	6.67
411.741	6.68
411.949	6.75
412.157	6.61
412.365	6.78
412.573	6.67
412.781	6.75
412.99	6.52
413.198	6.69
413.406	6.57
413.614	6.63
413.822	6.66
414.03	6.7
414.238	6.52
414.446	6.56
414.654	6.36
414.862	6.29
415.07	6.34
415.278	6.43
415.486	6.19
415.694	6.42
415.902	6.43
416.109	6.35
416.317	6.38
416.525	6.3
416.733	6.2
416.941	6.21
417.149	6.07
417.357	6.04
417.564	6.21
417.772	6.18
417.98	6.02
418.188	6.15
418.395	6.17
418.603	6.24
418.811	6.28
419.019	6.24
419.226	6.32
419.434	6.27
419.642	6.21
419.849	6.19
420.057	6.46
420.265	6.44
420.472	6.29
420.68	6.38
420.887	6.27
421.095	6.19
421.302	6.04
421.51	6.22
421.717	6.14
421.925	6.21
422.132	6.12
422.34	5.99
422.547	5.8
422.755	5.75
422.962	5.82
423.17	5.75
423.377	5.8
423.585	5.94
423.792	5.94
423.999	5.79
424.207	5.87
424.414	5.88
424.621	5.95
424.829	5.93
425.036	5.96
425.243	5.91
425.451	5.87
425.658	5.66
425.865	5.61
426.072	5.58
426.28	5.52
426.487	5.37
426.694	5.41
426.901	5.42
427.108	5.37
427.315	5.3
427.523	5.49
427.73	5.57
427.937	5.36
428.144	5.31
428.351	5.35
428.558	5.32
428.765	5.23
428.972	5.28
429.179	5.34
429.386	5.39
429.593	5.44
429.8	5.41
430.007	5.52
430.214	5.57
430.421	5.59
430.628	5.42
430.835	5.32
431.042	5.35
431.249	5.26
431.456	5.39
431.662	5.59
431.869	5.67
432.076	5.67
432.283	5.62
432.49	5.43
432.697	5.38
432.903	5.17
433.11	5.11
433.317	5.22
433.524	5.32
433.73	5.16
433.937	5.41
434.144	5.49
434.35	5.54
434.557	5.46
434.764	5.55
434.97	5.5
435.177	5.5
435.384	5.26
435.59	5.41
435.797	5.4
436.003	5.44
436.21	5.33
436.416	5.37
436.623	5.14
436.829	5.22
437.036	5.22
437.242	5.23
437.449	5.36
437.655	5.37
437.862	5.29
438.068	5.31
438.275	5.4
438.481	5.29
438.687	5.3
438.894	5.33
439.1	5.25
439.307	5.26
439.513	5.3
439.719	5.4
439.926	5.34
440.132	5.37
440.338	5.3
440.544	5.38
440.751	5.3
440.957	5.41
441.163	5.26
441.369	5.29
441.575	5.14
441.782	5.1
441.988	4.95
442.194	5.09
442.4	5.11
442.606	5.29
442.812	5.38
443.018	5.49
443.224	5.55
443.431	5.63
443.637	5.61
443.843	5.49
444.049	5.48
444.255	5.51
444.461	5.48
444.667	5.33
444.873	5.34
445.079	5.51
445.284	5.38
445.49	5.32
445.696	5.32
445.902	5.37
446.108	5.25
446.314	5.29
446.52	5.33
446.726	5.49
446.931	5.43
447.137	5.49
447.343	5.56
447.549	5.33
447.755	5.27
447.96	5.31
448.166	5.24
448.372	5.27
448.578	5.41
448.783	5.4
448.989	5.51
449.195	5.6
449.4	5.57
449.606	5.6
449.812	5.46
450.017	5.4
450.223	5.39
450.428	5.3
450.634	5.36
450.84	5.55
451.045	5.63
451.251	5.58
451.456	5.66
451.662	5.65
451.867	5.63
452.073	5.48
452.278	5.54
452.483	5.5
452.689	5.48
452.894	5.52
453.1	5.61
453.305	5.48
453.51	5.48
453.716	5.39
453.921	5.39
454.127	5.41
454.332	5.35
454.537	5.36
454.742	5.47
454.948	5.43
455.153	5.43
455.358	5.46
455.563	5.41
455.769	5.38
455.974	5.42
456.179	5.37
456.384	5.34
456.589	5.42
456.795	5.28
457	5.11
457.205	5.1
457.41	5.12
457.615	5.18
457.82	5.35
458.025	5.54
458.23	5.5
458.435	5.64
458.64	5.48
458.845	5.53
459.05	5.36
459.255	5.37
459.46	5.26
459.665	5.33
459.87	5.3
460.075	5.29
460.28	5.32
460.485	5.38
460.69	5.39
460.895	5.18
461.099	5.16
461.304	5.31
461.509	5.31
461.714	5.15
461.919	5.26
462.123	5.29
462.328	5.17
462.533	5.01
462.738	5.16
462.942	5.15
463.147	5.25
463.352	5.26
463.556	5.3
463.761	5.32
463.966	5.39
464.17	5.4
464.375	5.36
464.58	5.39
464.784	5.43
464.989	5.32
465.193	5.24
465.398	5.31
465.602	5.47
465.807	5.44
466.011	5.56
466.216	5.62
466.42	5.62
466.625	5.52
466.829	5.56
467.034	5.58
467.238	5.72
467.443	5.65
