Data from Ofra_PP_Phys_2HS27C_Reflection_3.txt Node
Date: Sat Jul 24 20:03:39 EDT 2021
User: USUARIO
Spectrometer: FLMT01687
Trigger mode: 0
Integration Time (sec): 1.100000E0
Scans to average: 2
Electric dark correction enabled: true
Nonlinearity correction enabled: false
Boxcar width: 2
XAxis mode: Wavelengths
Number of Pixels in Spectrum: 3648
>>>>>Begin Spectral Data<<<<<
179.494	422.5
179.716	535.09
179.937	869.72
180.158	764.84
180.38	398.04
180.601	-456.65
180.823	3.77
181.044	1082.17
181.265	-45.02
181.486	5.66
181.708	149.64
181.929	682.67
182.15	-94.78
182.372	-91.65
182.593	57066.67
182.814	841.03
183.035	179.24
183.257	170.23
183.478	107.43
183.699	182.91
183.92	79.19
184.141	87.67
184.363	54.5
184.584	70.3
184.805	60.41
185.026	69.86
185.247	63.55
185.468	39.56
185.689	32.88
185.91	28.38
186.132	18.82
186.353	20.56
186.574	38.38
186.795	71.54
187.016	17.66
187.237	33.39
187.458	46.77
187.679	72.51
187.9	46.95
188.121	93.16
188.342	110.71
188.563	110.92
188.784	109.04
189.005	108.33
189.226	107.92
189.447	96.06
189.667	96
189.888	86.95
190.109	92.16
190.33	51.32
190.551	33.26
190.772	26.68
190.993	-1.34
191.214	-3.27
191.434	8.49
191.655	38.14
191.876	23.73
192.097	37.94
192.318	25.2
192.538	35.02
192.759	28.43
192.98	46.77
193.201	44.16
193.421	37.93
193.642	36.07
193.863	18.02
194.083	8.99
194.304	20.22
194.525	40.86
194.745	62.04
194.966	45.67
195.187	21.4
195.407	-2.41
195.628	-61.86
195.848	-77.72
196.069	-66.85
196.29	-20.37
196.51	-61.97
196.731	-48.66
196.951	-11.83
197.172	2
197.392	-8.89
197.613	22.92
197.833	42.74
198.054	13.38
198.274	25.31
198.495	15.68
198.715	46.65
198.936	2.94
199.156	21.21
199.377	-1.46
199.597	4.14
199.817	-14.53
200.038	21.73
200.258	31.75
200.479	59.5
200.699	67.99
200.919	52.7
201.14	12.27
201.36	-5.77
201.58	-18.12
201.801	-6.8
202.021	3.18
202.241	47.11
202.461	57.17
202.682	45
202.902	56.77
203.122	44.75
203.342	40.74
203.563	72.58
203.783	100.64
204.003	37.24
204.223	-15.73
204.443	51.66
204.663	3.97
204.884	-33.64
205.104	7.23
205.324	64.39
205.544	41.34
205.764	60.06
205.984	79.63
206.204	84.51
206.424	73.74
206.644	57.22
206.864	50.6
207.084	52
207.304	72.35
207.525	35.22
207.745	43.53
207.964	40.17
208.184	22.67
208.404	11.37
208.624	9.72
208.844	7.88
209.064	-18.48
209.284	-3.13
209.504	4.29
209.724	19.24
209.944	25.48
210.164	44.44
210.384	38.88
210.604	29.88
210.823	19.76
211.043	13.42
211.263	14.82
211.483	6.9
211.703	-2.71
211.922	14.6
212.142	38.24
212.362	52.89
212.582	48.21
212.801	52.18
213.021	33.1
213.241	33.81
213.461	17.56
213.68	7.35
213.9	9.11
214.12	7.02
214.339	-16.98
214.559	-19.44
214.779	-23.73
214.998	4.86
215.218	12.04
215.438	29.05
215.657	42.69
215.877	71.81
216.096	65.84
216.316	84.94
216.535	69.77
216.755	52.92
216.974	32.54
217.194	35.76
217.413	12.04
217.633	4.47
217.852	-24.9
218.072	-13.27
218.291	-25.33
218.511	0.75
218.73	-32.5
218.95	-31.34
219.169	-38.63
219.389	-44.12
219.608	-50.89
219.827	1.2
220.047	16.8
220.266	19.7
220.485	16.89
220.705	39.15
220.924	8.27
221.143	40.26
221.363	15.96
221.582	27.81
221.801	18.28
222.021	49.71
222.24	32.1
222.459	62.31
222.678	53.95
222.897	54.27
223.117	48.12
223.336	69.62
223.555	73.85
223.774	84.27
223.993	94.88
224.213	134.45
224.432	97.22
224.651	91.81
224.87	71.8
225.089	81.49
225.308	66.17
225.527	77.24
225.746	69.61
225.965	62.61
226.184	39.34
226.404	52.85
226.623	37.84
226.842	47.56
227.061	73.83
227.28	83.35
227.499	80.6
227.718	102.32
227.936	88.6
228.155	90.7
228.374	70.44
228.593	65.5
228.812	52.85
229.031	44.44
229.25	12.5
229.469	33.15
229.688	22.18
229.907	14.49
230.125	31.16
230.344	55.52
230.563	45.47
230.782	82.3
231.001	47.19
231.22	51.14
231.438	46.56
231.657	36.08
231.876	5.04
232.095	27.01
232.313	27.7
232.532	30.01
232.751	42.21
232.969	39.7
233.188	58.03
233.407	52.97
233.625	38.4
233.844	31.07
234.063	38.72
234.281	60.23
234.5	50.85
234.719	84.63
234.937	74.84
235.156	78.4
235.374	65.42
235.593	88.89
235.811	76.73
236.03	85.67
236.249	67.32
236.467	75.31
236.686	69.35
236.904	75.47
237.123	39.94
237.341	62.17
237.559	42.77
237.778	32.28
237.996	19.9
238.215	44.34
238.433	38.02
238.652	27.31
238.87	-15.29
239.088	-10.35
239.307	6.93
239.525	17.59
239.743	10.08
239.962	28.47
240.18	9.84
240.398	-10.13
240.617	-29.08
240.835	-8.79
241.053	-42.06
241.271	6.81
241.49	25.46
241.708	28.94
241.926	42.51
242.144	66.81
242.363	45.25
242.581	41.42
242.799	64.93
243.017	44.03
243.235	16.74
243.453	41.58
243.672	8.69
243.89	0.56
244.108	8.46
244.326	24.73
244.544	9.39
244.762	3.06
244.98	17.76
245.198	32.89
245.416	20.64
245.634	25.91
245.852	63.27
246.07	43.71
246.288	36.9
246.506	38.24
246.724	39.37
246.942	28.64
247.16	42.66
247.378	40.87
247.596	50.14
247.814	58.63
248.032	46.82
248.25	32.53
248.468	40.68
248.685	51.1
248.903	48.01
249.121	53
249.339	36.52
249.557	34.26
249.775	20.52
249.992	-16.22
250.21	-24.03
250.428	-12.1
250.646	-14.83
250.863	-12.54
251.081	-1.85
251.299	15.61
251.517	22.43
251.734	21.65
251.952	15.8
252.17	37.19
252.387	44.66
252.605	15.33
252.823	22.46
253.04	44.92
253.258	38.13
253.475	26.26
253.693	50.81
253.911	67.83
254.128	65.91
254.346	73.61
254.563	68.38
254.781	60.14
254.998	29.5
255.216	16.96
255.433	11.84
255.651	37.21
255.868	47.48
256.086	58.07
256.303	60.9
256.521	46.66
256.738	20.77
256.956	3.7
257.173	10.73
257.39	4.99
257.608	14.57
257.825	27.05
258.043	41.16
258.26	33.54
258.477	28.65
258.695	20.07
258.912	0.93
259.129	0.74
259.346	-16.26
259.564	-7.15
259.781	13.36
259.998	22.18
260.216	47.39
260.433	68.93
260.65	61.64
260.867	61.83
261.084	46.79
261.302	41.09
261.519	39.86
261.736	38.14
261.953	30.81
262.17	39.56
262.387	28
262.604	21.21
262.822	20.03
263.039	23.6
263.256	25.38
263.473	23.99
263.69	-4.62
263.907	13.03
264.124	34.28
264.341	41.47
264.558	46.04
264.775	55.98
264.992	61.73
265.209	38.87
265.426	39.38
265.643	39.63
265.86	39.51
266.077	40.58
266.294	40.84
266.51	38.22
266.727	31.5
266.944	49.56
267.161	34.08
267.378	38.94
267.595	34.78
267.812	15.28
268.028	11.95
268.245	24.22
268.462	21.33
268.679	29.26
268.896	54.44
269.112	46.37
269.329	46.6
269.546	60.67
269.763	62.15
269.979	58.49
270.196	51.94
270.413	46.59
270.629	18.89
270.846	15.09
271.063	22.7
271.279	11.42
271.496	-7.02
271.712	5.59
271.929	-4.2
272.146	-14.36
272.362	-16.84
272.579	14.52
272.795	26.82
273.012	42.88
273.228	55.52
273.445	64.26
273.661	31.48
273.878	-39.06
274.094	-48.04
274.311	-54.49
274.527	-39.03
274.744	-11.78
274.96	47.47
275.177	47.94
275.393	48.56
275.609	65.11
275.826	68.58
276.042	76.19
276.259	87.64
276.475	75.74
276.691	61.78
276.908	55.52
277.124	68.66
277.34	58.75
277.557	59
277.773	66.84
277.989	67
278.205	58.27
278.422	61.12
278.638	62.89
278.854	70.69
279.07	70.03
279.286	33.41
279.503	24.77
279.719	25.74
279.935	1.21
280.151	-31.6
280.367	0.23
280.583	-2.81
280.799	9.76
281.016	13.55
281.232	39.73
281.448	38.96
281.664	58.22
281.88	36.96
282.096	45.74
282.312	40.52
282.528	50.22
282.744	49.31
282.96	57.59
283.176	59.65
283.392	53.98
283.608	53.03
283.824	45.06
284.04	49.71
284.256	50.07
284.471	60.36
284.687	53.08
284.903	58.01
285.119	70.01
285.335	59.69
285.551	56.73
285.767	45.84
285.982	32.15
286.198	16.43
286.414	32.08
286.63	17.17
286.846	34.31
287.061	21.08
287.277	28.13
287.493	37
287.709	45.89
287.924	40.27
288.14	76.15
288.356	80.08
288.571	67.09
288.787	71.79
289.003	69.17
289.218	45.05
289.434	22.45
289.65	39.86
289.865	38.84
290.081	40.49
290.296	44.53
290.512	45.4
290.727	41.23
290.943	34.91
291.159	29.6
291.374	33.78
291.59	29.35
291.805	30.65
292.021	28.71
292.236	24.44
292.451	20.71
292.667	30.26
292.882	35.16
293.098	41.39
293.313	40.32
293.529	27.26
293.744	9.98
293.959	-1
294.175	-6.94
294.39	16.25
294.605	28.74
294.821	37.54
295.036	19.97
295.251	37
295.467	32.06
295.682	29.71
295.897	14.74
296.112	18.03
296.328	14.38
296.543	11.95
296.758	22.14
296.973	57.5
297.188	85.39
297.404	54.53
297.619	47.57
297.834	36.12
298.049	28.77
298.264	3.9
298.479	19.15
298.694	19.76
298.909	25.04
299.125	22.31
299.34	41.17
299.555	39.11
299.77	56.58
299.985	30.23
300.2	12.85
300.415	-7.89
300.63	8.34
300.845	9.05
301.06	19.64
301.275	26.96
301.49	34.94
301.704	33.38
301.919	1.22
302.134	4.6
302.349	21.65
302.564	7.4
302.779	17
302.994	48.15
303.209	49.07
303.423	52.47
303.638	80.19
303.853	58.74
304.068	38.18
304.283	32.54
304.497	26.05
304.712	38.12
304.927	44.62
305.142	43.59
305.356	45.98
305.571	49.94
305.786	36.98
306	34.35
306.215	45.75
306.43	25.88
306.644	26.3
306.859	24.15
307.074	18.81
307.288	6.29
307.503	21.29
307.717	14.94
307.932	19.42
308.147	20.68
308.361	33.16
308.576	17.05
308.79	-8.35
309.005	-0.81
309.219	8.82
309.434	3.93
309.648	-3.15
309.863	33.1
310.077	27.11
310.292	32.23
310.506	21.46
310.72	49.8
310.935	50.01
311.149	46.23
311.364	35.52
311.578	55.35
311.792	55.78
312.007	43.38
312.221	30.26
312.435	43.6
312.649	27.76
312.864	56.5
313.078	51.49
313.292	73.46
313.507	59.5
313.721	52.26
313.935	33.48
314.149	57.11
314.363	53.04
314.578	33.11
314.792	22.48
315.006	23.52
315.22	6.54
315.434	7.7
315.648	28.44
315.862	34.66
316.077	45.84
316.291	49.08
316.505	67.45
316.719	51.11
316.933	29.14
317.147	37.86
317.361	22.72
317.575	14.02
317.789	19.4
318.003	23.69
318.217	20.45
318.431	40.47
318.645	44.91
318.859	43.07
319.073	64.37
319.287	48.22
319.5	28.34
319.714	0.36
319.928	-8.08
320.142	-22.57
320.356	-0.2
320.57	14.31
320.784	20.61
320.997	32.58
321.211	36.86
321.425	28.08
321.639	10.05
321.853	38.09
322.066	26.39
322.28	12.87
322.494	29.56
322.707	74.51
322.921	63.77
323.135	64.78
323.349	71.38
323.562	46.76
323.776	18.04
323.989	26.06
324.203	14.9
324.417	14.27
324.63	12.98
324.844	2.11
325.057	-18.47
325.271	-23.86
325.485	-29.39
325.698	-7.19
325.912	13.13
326.125	2.95
326.339	28.7
326.552	28.63
326.766	31.34
326.979	38.34
327.193	61.37
327.406	49.94
327.619	53.32
327.833	51.08
328.046	33.51
328.26	24.31
328.473	16.64
328.686	2.99
328.9	5.18
329.113	13.1
329.326	6.44
329.54	15.54
329.753	22.66
329.966	14.47
330.179	29.97
330.393	45.88
330.606	46.68
330.819	56.59
331.032	64.99
331.246	57.55
331.459	50.14
331.672	38.42
331.885	26.47
332.098	4.8
332.311	15.88
332.525	13.45
332.738	13.72
332.951	28.36
333.164	42.3
333.377	47.81
333.59	50.39
333.803	42.03
334.016	29.65
334.229	32.12
334.442	22.8
334.655	44.55
334.868	61.77
335.081	73.21
335.294	57.71
335.507	72.82
335.72	61.04
335.933	48.88
336.146	43.49
336.359	52.52
336.572	22.05
336.785	8.89
336.997	14.35
337.21	18.46
337.423	16
337.636	26.97
337.849	38.2
338.062	39.56
338.274	43.32
338.487	32.96
338.7	34.54
338.913	31.03
339.125	29.45
339.338	28.33
339.551	33.22
339.763	54.8
339.976	50.5
340.189	44.11
340.402	44.66
340.614	50.39
340.827	32.5
341.039	22.46
341.252	10.16
341.465	-5.83
341.677	-11.21
341.89	-50.57
342.102	-45.29
342.315	-27.13
342.527	-25.25
342.74	-17.64
342.952	21.54
343.165	28.84
343.377	41.39
343.59	37.13
343.802	51.75
344.015	57.14
344.227	65.55
344.44	46.71
344.652	44.75
344.864	41.71
345.077	57.11
345.289	50.08
345.502	60.62
345.714	54.06
345.926	50.06
346.139	36.48
346.351	27.45
346.563	21.67
346.775	32.17
346.988	16.32
347.2	3.88
347.412	-1.27
347.624	2.15
347.837	8.08
348.049	36.53
348.261	53.26
348.473	54.89
348.685	30.83
348.897	14.97
349.11	-0.05
349.322	-13.08
349.534	10.18
349.746	35.06
349.958	54.19
350.17	42.27
350.382	48.88
350.594	44.77
350.806	41.34
351.018	32.47
351.23	34.02
351.442	33.96
351.654	38.47
351.866	37.13
352.078	29.77
352.29	36.28
352.502	25.38
352.714	49.19
352.926	51.66
353.138	52.01
353.35	36.39
353.561	38.17
353.773	17.92
353.985	30.95
354.197	37.84
354.409	50.89
354.621	45.47
354.832	51.21
355.044	37.24
355.256	30.24
355.468	26.7
355.679	22
355.891	21.64
356.103	16.12
356.314	19.04
356.526	21.64
356.738	43.36
356.949	46.41
357.161	56.77
357.373	60.24
357.584	65.64
357.796	58.13
358.008	41.34
358.219	49.68
358.431	40.45
358.642	40.11
358.854	53.04
359.065	56.7
359.277	35.69
359.488	25.94
359.7	9.25
359.911	-11.93
360.123	-15.29
360.334	-19.19
360.546	-15.62
360.757	-8.06
360.969	-7.85
361.18	14.74
361.391	15.88
361.603	10.38
361.814	21.53
362.025	24.68
362.237	7.26
362.448	15.79
362.659	32.67
362.871	29.65
363.082	29.23
363.293	30.36
363.504	29.56
363.716	22.89
363.927	29.17
364.138	23.38
364.349	15.64
364.56	8.44
364.772	0.17
364.983	-1.37
365.194	-4.21
365.405	0.19
365.616	5.12
365.827	-4.78
366.038	-6.29
366.25	6.31
366.461	-2.71
366.672	15.63
366.883	35.74
367.094	34.46
367.305	20.27
367.516	35.26
367.727	23.65
367.938	7.54
368.149	2.63
368.36	11.73
368.571	10.86
368.781	8.62
368.992	0.16
369.203	23.97
369.414	19.25
369.625	13.59
369.836	12.38
370.047	19.94
370.258	9.84
370.468	17.36
370.679	1.01
370.89	7.63
371.101	32.64
371.312	16.66
371.522	14.37
371.733	31.06
371.944	37.22
372.155	26.09
372.365	13.2
372.576	19.82
372.787	8.92
372.997	2.75
373.208	-0.22
373.419	20.69
373.629	6.88
373.84	14.56
374.05	-1.79
374.261	9.37
374.472	-8.13
374.682	6.87
374.893	2.38
375.103	23.44
375.314	15.27
375.524	26.55
375.735	36.53
375.945	39.27
376.156	21.05
376.366	25.39
376.577	33.54
376.787	27.4
376.997	39.88
377.208	52.47
377.418	40.4
377.629	32.57
377.839	17.59
378.049	12.18
378.26	19.87
378.47	35.44
378.68	41.9
378.89	49.79
379.101	56.62
379.311	33.29
379.521	15.64
379.732	21.02
379.942	7.99
380.152	-2.67
380.362	10.57
380.572	17.94
380.783	21.81
380.993	28.28
381.203	29.94
381.413	27.56
381.623	21.32
381.833	2.53
382.043	6.57
382.253	10.4
382.463	16.68
382.674	19.85
382.884	14.88
383.094	14.06
383.304	12.94
383.514	14.49
383.724	13.33
383.934	7.84
384.144	0.45
384.353	1.54
384.563	3.43
384.773	9.46
384.983	19.04
385.193	26.5
385.403	14.33
385.613	13.39
385.823	13.5
386.033	17.02
386.242	11.67
386.452	20.63
386.662	14.38
386.872	15.67
387.082	13.8
387.291	9.69
387.501	12.02
387.711	13.8
387.921	0.18
388.13	2.41
388.34	9.75
388.55	3.99
388.759	6.08
388.969	13.51
389.179	11.08
389.388	10.15
389.598	11.53
389.807	9.23
390.017	8.83
390.227	8.9
390.436	6.86
390.646	10.81
390.855	13.8
391.065	14.35
391.274	11.42
391.484	8.11
391.693	5.15
391.903	4.49
392.112	6.9
392.322	8.88
392.531	13.39
392.74	13.28
392.95	9.12
393.159	6.25
393.369	8.31
393.578	5.36
393.787	5.34
393.997	8.91
394.206	9.25
394.415	7.96
394.625	8.15
394.834	6.68
395.043	5.12
395.252	5.77
395.462	6.45
395.671	6.99
395.88	7.93
396.089	8.93
396.298	7.77
396.508	7.14
396.717	7.42
396.926	6.75
397.135	5.91
397.344	6.08
397.553	6.17
397.762	6.73
397.971	7.2
398.181	7.23
398.39	6.38
398.599	6.06
398.808	5.17
399.017	5.76
399.226	5.94
399.435	6.9
399.644	6.71
399.853	6.42
400.062	5.63
400.27	5.58
400.479	5.21
400.688	5.06
400.897	5.55
401.106	5.61
401.315	5.13
401.524	5.24
401.733	5.56
401.941	5.49
402.15	5.53
402.359	5.75
402.568	5.62
402.777	5.48
402.985	5.41
403.194	5.27
403.403	5.25
403.612	5.2
403.82	5.01
404.029	5.05
404.238	4.93
404.446	4.86
404.655	4.66
404.864	4.8
405.072	4.66
405.281	4.78
405.489	4.54
405.698	4.6
405.906	4.49
406.115	4.44
406.324	4.21
406.532	4.35
406.741	4.56
406.949	4.5
407.158	4.53
407.366	4.73
407.574	4.86
407.783	4.67
407.991	4.78
408.2	4.86
408.408	4.7
408.617	4.6
408.825	4.6
409.033	4.6
409.242	4.52
409.45	4.57
409.658	4.38
409.867	4.56
410.075	4.42
410.283	4.36
410.491	4.31
410.7	4.31
410.908	4.21
411.116	4.29
411.324	4.23
411.533	4.35
411.741	4.42
411.949	4.33
412.157	4.14
412.365	4.26
412.573	4.04
412.781	4.12
412.99	4.07
413.198	4.29
413.406	4.28
413.614	4.4
413.822	4.31
414.03	4.48
414.238	4.31
414.446	4.33
414.654	4.18
414.862	4.19
415.07	4.08
415.278	4.19
415.486	3.91
415.694	4.09
415.902	4.04
416.109	3.91
416.317	3.94
416.525	3.89
416.733	3.91
416.941	4.01
417.149	4
417.357	3.9
417.564	4.19
417.772	4.06
417.98	3.95
418.188	4.02
418.395	4
418.603	3.95
418.811	3.9
419.019	3.78
419.226	3.95
419.434	4.03
419.642	3.84
419.849	3.83
420.057	4.14
420.265	4.02
420.472	3.87
420.68	4.13
420.887	4.09
421.095	4.05
421.302	3.93
421.51	4.12
421.717	4.01
421.925	4.1
422.132	3.95
422.34	3.98
422.547	3.77
422.755	3.79
422.962	3.82
423.17	3.7
423.377	3.76
423.585	3.85
423.792	3.77
423.999	3.74
424.207	3.91
424.414	3.89
424.621	3.84
424.829	3.79
425.036	3.79
425.243	3.66
425.451	3.54
425.658	3.45
425.865	3.49
426.072	3.4
426.28	3.28
426.487	3.27
426.694	3.33
426.901	3.44
427.108	3.4
427.315	3.53
427.523	3.72
427.73	3.83
427.937	3.59
428.144	3.52
428.351	3.49
428.558	3.42
428.765	3.23
428.972	3.36
429.179	3.49
429.386	3.54
429.593	3.5
429.8	3.42
430.007	3.42
430.214	3.49
430.421	3.54
430.628	3.42
430.835	3.37
431.042	3.52
431.249	3.45
431.456	3.6
431.662	3.74
431.869	3.92
432.076	3.82
432.283	3.77
432.49	3.61
432.697	3.62
432.903	3.45
433.11	3.35
433.317	3.47
433.524	3.59
433.73	3.56
433.937	3.84
434.144	3.92
434.35	3.98
434.557	3.83
434.764	3.86
434.97	3.7
435.177	3.79
435.384	3.55
435.59	3.7
435.797	3.75
436.003	3.82
436.21	3.76
436.416	3.87
436.623	3.65
436.829	3.63
437.036	3.67
437.242	3.55
437.449	3.44
437.655	3.45
437.862	3.38
438.068	3.34
438.275	3.48
438.481	3.63
438.687	3.7
438.894	3.7
439.1	3.64
439.307	3.63
439.513	3.5
439.719	3.41
439.926	3.38
440.132	3.39
440.338	3.3
440.544	3.46
440.751	3.44
440.957	3.56
441.163	3.39
441.369	3.49
441.575	3.42
441.782	3.46
441.988	3.25
442.194	3.4
442.4	3.32
442.606	3.41
442.812	3.47
443.018	3.57
443.224	3.61
443.431	3.62
443.637	3.56
443.843	3.44
444.049	3.49
444.255	3.49
444.461	3.5
444.667	3.42
444.873	3.48
445.079	3.49
445.284	3.48
445.49	3.35
445.696	3.24
445.902	3.24
446.108	3.19
446.314	3.12
446.52	3.33
446.726	3.56
446.931	3.55
447.137	3.53
447.343	3.59
447.549	3.38
447.755	3.29
447.96	3.27
448.166	3.25
448.372	3.32
448.578	3.32
448.783	3.31
448.989	3.45
449.195	3.57
449.4	3.47
449.606	3.54
449.812	3.56
450.017	3.57
450.223	3.57
450.428	3.49
450.634	3.53
450.84	3.59
451.045	3.45
451.251	3.3
451.456	3.49
451.662	3.54
451.867	3.52
452.073	3.45
452.278	3.59
452.483	3.51
452.689	3.45
452.894	3.47
453.1	3.6
453.305	3.43
453.51	3.45
453.716	3.38
453.921	3.36
454.127	3.34
454.332	3.37
454.537	3.3
454.742	3.42
454.948	3.48
455.153	3.41
455.358	3.5
455.563	3.61
455.769	3.49
455.974	3.43
456.179	3.47
456.384	3.36
456.589	3.33
456.795	3.27
457	3.33
457.205	3.38
457.41	3.39
457.615	3.34
457.82	3.46
458.025	3.43
458.23	3.36
458.435	3.45
458.64	3.34
458.845	3.33
459.05	3.24
459.255	3.1
459.46	3.05
459.665	3.15
459.87	3.22
460.075	3.13
460.28	3.27
460.485	3.36
460.69	3.39
460.895	3.21
461.099	3.22
461.304	3.27
461.509	3.29
461.714	3.23
461.919	3.35
462.123	3.38
462.328	3.38
462.533	3.19
462.738	3.2
462.942	3.14
463.147	3.27
463.352	3.29
463.556	3.35
463.761	3.37
463.966	3.4
464.17	3.37
464.375	3.28
464.58	3.17
464.784	3.24
464.989	3.23
465.193	3.17
465.398	3.17
465.602	3.45
465.807	3.39
466.011	3.43
466.216	3.51
466.42	3.55
466.625	3.47
466.829	3.55
467.034	3.59
467.238	3.66
467.443	3.69
467.647	3.57
467.851	3.53
468.056	3.56
468.26	3.45
468.464	3.35
