Data from Ofra_PP_Phys_0GT1H_Reflection_1.txt Node
Date: Sat Jul 24 20:05:46 EDT 2021
User: USUARIO
Spectrometer: FLMT01687
Trigger mode: 0
Integration Time (sec): 1.100000E0
Scans to average: 2
Electric dark correction enabled: true
Nonlinearity correction enabled: false
Boxcar width: 2
XAxis mode: Wavelengths
Number of Pixels in Spectrum: 3648
>>>>>Begin Spectral Data<<<<<
179.494	565.02
179.716	744.74
179.937	1360.24
180.158	1223.24
180.38	667.59
180.601	-1034.72
180.823	-108.23
181.044	1174.42
181.265	-59.57
181.486	16.8
181.708	107.86
181.929	-1780
182.15	208.43
182.372	-88.05
182.593	62300
182.814	884.62
183.035	272.15
183.257	192.76
183.478	101.74
183.699	174.9
183.92	69.43
184.141	80.89
184.363	23.71
184.584	71.87
184.805	42.54
185.026	67.88
185.247	58.18
185.468	31.22
185.689	22.1
185.91	41.26
186.132	51.79
186.353	64.38
186.574	87.22
186.795	90.52
187.016	36.66
187.237	45.5
187.458	50.46
187.679	121.7
187.9	101.35
188.121	141.89
188.342	149.65
188.563	144.43
188.784	138.17
189.005	153.94
189.226	140.47
189.447	125.78
189.667	86.02
189.888	56.76
190.109	24.33
190.33	-4.91
190.551	-21.05
190.772	-0.05
190.993	-34.46
191.214	-20.64
191.434	-12.1
191.655	23.01
191.876	-9.9
192.097	1.66
192.318	13.79
192.538	0.32
192.759	-14.09
192.98	-7.61
193.201	-0.52
193.421	-38.83
193.642	-11.82
193.863	1.51
194.083	-0.21
194.304	13.79
194.525	42.54
194.745	32.26
194.966	-15.14
195.187	-26.03
195.407	-74.07
195.628	-94.41
195.848	-67.58
196.069	-55.75
196.29	-40.6
196.51	-60.24
196.731	-77.33
196.951	-63.22
197.172	-29.47
197.392	-13.51
197.613	14.18
197.833	18.8
198.054	-2.7
198.274	-7.38
198.495	-72.88
198.715	-42.73
198.936	-47.83
199.156	-15.1
199.377	-42.34
199.597	-19.78
199.817	-53.28
200.038	-38.59
200.258	-27.25
200.479	33.7
200.699	37
200.919	62.84
201.14	35.08
201.36	24.13
201.58	26.78
201.801	22.39
202.021	-7.03
202.241	16.39
202.461	-27.52
202.682	-38.38
202.902	-10.77
203.122	2.05
203.342	7.44
203.563	42.27
203.783	75.48
204.003	20.56
204.223	-38.27
204.443	36.49
204.663	15.52
204.884	-42.67
205.104	-5.88
205.324	37.48
205.544	33.98
205.764	38.75
205.984	83.74
206.204	82.46
206.424	104.24
206.644	33.99
206.864	45.2
207.084	14.73
207.304	36.01
207.525	-1.73
207.745	30.6
207.964	30.49
208.184	27.72
208.404	15.08
208.624	23.61
208.844	20.5
209.064	-8.57
209.284	-19.49
209.504	-19.48
209.724	14.49
209.944	8.25
210.164	27.5
210.384	46.4
210.604	47.22
210.823	-7.28
211.043	-28.74
211.263	-31.67
211.483	-39.31
211.703	-51.54
211.922	-22.93
212.142	34.25
212.362	43.19
212.582	28.68
212.801	35.87
213.021	8.12
213.241	1.57
213.461	-18.69
213.68	-35.21
213.9	-15.61
214.12	30.07
214.339	7.75
214.559	29.55
214.779	113.83
214.998	75.27
215.218	36.46
215.438	26.86
215.657	14.87
215.877	-7.37
216.096	-4.08
216.316	47.39
216.535	49.34
216.755	56.37
216.974	44.8
217.194	59.13
217.413	26.63
217.633	18.47
217.852	-29.55
218.072	-34.18
218.291	-78.66
218.511	-45.93
218.73	-82.97
218.95	-75.2
219.169	-56.66
219.389	-59.08
219.608	-77.05
219.827	-14.66
220.047	9.78
220.266	-5.49
220.485	-3.77
220.705	33.15
220.924	-17.26
221.143	16.35
221.363	-16.75
221.582	20.39
221.801	-1.73
222.021	41.86
222.24	28.44
222.459	72.63
222.678	40.01
222.897	37.25
223.117	27.46
223.336	26.64
223.555	33.33
223.774	67.95
223.993	81.13
224.213	130.83
224.432	74.02
224.651	89.55
224.87	64.5
225.089	81.5
225.308	65.79
225.527	100.34
225.746	88.64
225.965	67.76
226.184	35.74
226.404	30.71
226.623	7.94
226.842	10.3
227.061	54.75
227.28	77.35
227.499	102.29
227.718	119.88
227.936	107.78
228.155	105.74
228.374	66.84
228.593	45.78
228.812	29.06
229.031	46.68
229.25	22.32
229.469	45.19
229.688	46.21
229.907	51.09
230.125	49.43
230.344	49.43
230.563	54.7
230.782	67.24
231.001	33.39
231.22	44.38
231.438	58.72
231.657	40.16
231.876	33.04
232.095	48.35
232.313	42.64
232.532	37
232.751	34.06
232.969	26.34
233.188	29.21
233.407	30.21
233.625	26.81
233.844	20.05
234.063	11.63
234.281	43.75
234.5	43.22
234.719	49.14
234.937	53.13
235.156	75.84
235.374	57.98
235.593	78.05
235.811	89.49
236.03	97
236.249	69.04
236.467	95.24
236.686	66.72
236.904	61.01
237.123	12.88
237.341	40.01
237.559	11.37
237.778	3.24
237.996	-20.67
238.215	16.02
238.433	11.35
238.652	37.72
238.87	11.57
239.088	41.1
239.307	25.82
239.525	22.5
239.743	-26.81
239.962	-2.86
240.18	-36.25
240.398	-51.49
240.617	-75.61
240.835	-25.37
241.053	-43.58
241.271	-2.28
241.49	26.35
241.708	41.54
241.926	41.86
242.144	35.48
242.363	20.35
242.581	11.94
242.799	25.08
243.017	8.19
243.235	-8.11
243.453	-2.88
243.672	-2.01
243.89	1
244.108	3.51
244.326	21.11
244.544	17.51
244.762	10.13
244.98	6.74
245.198	14.35
245.416	0.97
245.634	17.27
245.852	16.77
246.07	33.48
246.288	45.21
246.506	43.91
246.724	51.11
246.942	56.37
247.16	50.07
247.378	56.2
247.596	66.13
247.814	53.2
248.032	16.5
248.25	16.18
248.468	17.68
248.685	30.68
248.903	38.66
249.121	61.23
249.339	39.6
249.557	28.22
249.775	11.78
249.992	-37
250.21	-54.53
250.428	-15.88
250.646	-21.68
250.863	-18.77
251.081	8.22
251.299	33.92
251.517	24.24
251.734	25.7
251.952	17.48
252.17	27.22
252.387	36.77
252.605	18.41
252.823	14.89
253.04	31.9
253.258	30.34
253.475	26.12
253.693	49.21
253.911	69.21
254.128	60.96
254.346	57.88
254.563	47.11
254.781	32.11
254.998	18.8
255.216	15.95
255.433	19.86
255.651	41.98
255.868	56.19
256.086	66.65
256.303	69.3
256.521	60.67
256.738	39.97
256.956	22.13
257.173	33.64
257.39	19.42
257.608	22.27
257.825	30.22
258.043	49.16
258.26	38.12
258.477	45.39
258.695	59.2
258.912	37.04
259.129	31.96
259.346	8.62
259.564	3.15
259.781	2.73
259.998	3.69
260.216	22.76
260.433	43.31
260.65	41.76
260.867	42.87
261.084	34.08
261.302	33.39
261.519	36.95
261.736	25.47
261.953	20.8
262.17	40.73
262.387	24.12
262.604	10.86
262.822	13.68
263.039	6.64
263.256	-6.84
263.473	1.6
263.69	-20.83
263.907	17.4
264.124	38.01
264.341	59.96
264.558	59.17
264.775	69.26
264.992	69.94
265.209	55.23
265.426	52.45
265.643	41.76
265.86	34.72
266.077	37.92
266.294	25.97
266.51	19.87
266.727	21.91
266.944	38.96
267.161	22.29
267.378	33.15
267.595	34.01
267.812	10.89
268.028	9
268.245	15
268.462	8.7
268.679	7.13
268.896	34.89
269.112	25.73
269.329	15.42
269.546	23.54
269.763	34.28
269.979	40.77
270.196	43.91
270.413	50.17
270.629	33.08
270.846	18.13
271.063	23.72
271.279	-1.21
271.496	-26.4
271.712	-18.47
271.929	-16.29
272.146	-17.68
272.362	-11.3
272.579	23.19
272.795	28.95
273.012	52.46
273.228	40.3
273.445	39.72
273.661	16.5
273.878	-46.96
274.094	-70.74
274.311	-82.01
274.527	-44.72
274.744	-38.21
274.96	23.47
275.177	42.95
275.393	41.05
275.609	47.72
275.826	59.24
276.042	63.47
276.259	67.97
276.475	64.86
276.691	61.34
276.908	53.05
277.124	70.41
277.34	56.06
277.557	54.09
277.773	37.75
277.989	36.39
278.205	34.63
278.422	35.27
278.638	57.04
278.854	70.08
279.07	64.6
279.286	30.36
279.503	20.23
279.719	14.19
279.935	5.85
280.151	-10.65
280.367	19.34
280.583	30.66
280.799	19.44
281.016	28.49
281.232	52.89
281.448	51.61
281.664	57.69
281.88	56.38
282.096	56.11
282.312	48.18
282.528	58.92
282.744	59.52
282.96	62.7
283.176	60.94
283.392	48.51
283.608	38.74
283.824	16.79
284.04	12.26
284.256	22.88
284.471	28.8
284.687	21.98
284.903	32.12
285.119	57.95
285.335	34.47
285.551	48.2
285.767	43.6
285.982	46.6
286.198	13.84
286.414	29.07
286.63	17.01
286.846	25.94
287.061	4.52
287.277	11.15
287.493	17.21
287.709	21.08
287.924	25.71
288.14	58.85
288.356	64.35
288.571	66.17
288.787	64.31
289.003	66.65
289.218	49.37
289.434	19.25
289.65	32.99
289.865	32.37
290.081	27.03
290.296	35.72
290.512	35.15
290.727	30.5
290.943	21.26
291.159	19.21
291.374	16.69
291.59	19.07
291.805	4.92
292.021	18.91
292.236	15.81
292.451	25.15
292.667	38.01
292.882	56.27
293.098	64.55
293.313	49.2
293.529	29.54
293.744	-3.53
293.959	-27.29
294.175	-26.71
294.39	4.8
294.605	11.39
294.821	36.3
295.036	39.73
295.251	49.8
295.467	32.83
295.682	35.32
295.897	12.31
296.112	5.62
296.328	-5.73
296.543	-6.58
296.758	-24.79
296.973	13.9
297.188	35.81
297.404	27.51
297.619	43.21
297.834	37.92
298.049	21.57
298.264	8.11
298.479	39.51
298.694	37.24
298.909	64.13
299.125	71.55
299.34	82.76
299.555	61.04
299.77	70.22
299.985	12.91
300.2	-2.97
300.415	-26.78
300.63	-9.1
300.845	-19.2
301.06	-1.26
301.275	10.93
301.49	8.9
301.704	10.76
301.919	-10.13
302.134	-12.08
302.349	25.62
302.564	21.85
302.779	20.54
302.994	53.06
303.209	64.38
303.423	46.25
303.638	62.63
303.853	46.83
304.068	29.57
304.283	6.94
304.497	5.42
304.712	17.14
304.927	27.94
305.142	18.75
305.356	22.61
305.571	41.52
305.786	31.01
306	21.11
306.215	38.22
306.43	24.86
306.644	30.66
306.859	43.38
307.074	34.42
307.288	17.48
307.503	27.88
307.717	1.78
307.932	-2.64
308.147	8.9
308.361	29.55
308.576	23.55
308.79	-11.09
309.005	0.51
309.219	9.4
309.434	11.91
309.648	2.71
309.863	49.21
310.077	44.59
310.292	46.58
310.506	48.39
310.72	76.5
310.935	65.02
311.149	55.92
311.364	60.16
311.578	71.02
311.792	64.05
312.007	66.39
312.221	48.97
312.435	38.96
312.649	26.27
312.864	57.55
313.078	36.71
313.292	79.13
313.507	67.37
313.721	60.94
313.935	33.95
314.149	75.83
314.363	44.44
314.578	33.12
314.792	16.56
315.006	23.65
315.22	-1.55
315.434	2.23
315.648	18.37
315.862	28.29
316.077	30.87
316.291	45.77
316.505	61.88
316.719	47.27
316.933	10.17
317.147	34.47
317.361	10.02
317.575	6.11
317.789	11.27
318.003	20.08
318.217	7.44
318.431	22.43
318.645	35.95
318.859	29.31
319.073	45.22
319.287	27.51
319.5	14.63
319.714	-3.69
319.928	-2.35
320.142	6.75
320.356	47.22
320.57	52.13
320.784	43.11
320.997	61.22
321.211	47.23
321.425	20.01
321.639	-14.66
321.853	9.17
322.066	-1.08
322.28	-0.81
322.494	13.91
322.707	61.75
322.921	45.12
323.135	41.42
323.349	41.11
323.562	26.06
323.776	8.11
323.989	4.45
324.203	-10.74
324.417	-4.15
324.63	-11.5
324.844	-25.1
325.057	-23.87
325.271	-24.02
325.485	-34.45
325.698	-3.83
325.912	26.44
326.125	20.56
326.339	43.14
326.552	63.43
326.766	78.06
326.979	73.02
327.193	88.21
327.406	66.04
327.619	55.88
327.833	44.55
328.046	31.16
328.26	22.4
328.473	30.65
328.686	16.42
328.9	32.91
329.113	44.45
329.326	45.9
329.54	63.76
329.753	74.41
329.966	71.03
330.179	91.01
330.393	81.22
330.606	52.28
330.819	63.53
331.032	59.21
331.246	38.24
331.459	43.19
331.672	47.8
331.885	22.51
332.098	2.87
332.311	9.98
332.525	-0.76
332.738	15.78
332.951	23.66
333.164	41.05
333.377	54.91
333.59	71.52
333.803	60.34
334.016	61.98
334.229	46.21
334.442	35.2
334.655	40.77
334.868	42.64
335.081	48.32
335.294	51.85
335.507	50.99
335.72	43.86
335.933	31.84
336.146	33.21
336.359	36.32
336.572	20.19
336.785	3.03
336.997	3.24
337.21	14.09
337.423	13.23
337.636	20.01
337.849	27.7
338.062	33.63
338.274	38.27
338.487	28.72
338.7	40.86
338.913	28.79
339.125	21.09
339.338	19.37
339.551	46.19
339.763	53.42
339.976	79.91
340.189	75.98
340.402	71.05
340.614	52.03
340.827	54.75
341.039	36.78
341.252	22.21
341.465	11.53
341.677	14.59
341.89	-44.09
342.102	-33.36
342.315	-15.26
342.527	-11.58
342.74	-13.23
342.952	34.27
343.165	32.36
343.377	50.14
343.59	40.87
343.802	55.6
344.015	69.28
344.227	81.83
344.44	64.37
344.652	64.73
344.864	71.73
345.077	60.23
345.289	44.41
345.502	49.37
345.714	42.43
345.926	30.52
346.139	11.8
346.351	11.07
346.563	7.51
346.775	26.73
346.988	22.42
347.2	29.35
347.412	22.45
347.624	17.62
347.837	9.99
348.049	34.62
348.261	50.98
348.473	46.19
348.685	30.7
348.897	14.09
349.11	3.24
349.322	2.08
349.534	33.95
349.746	48.91
349.958	58.39
350.17	50.55
350.382	51.03
350.594	35.66
350.806	32.13
351.018	27
351.23	28.85
351.442	17.43
351.654	25.56
351.866	33.73
352.078	45.91
352.29	47.21
352.502	58.95
352.714	53.77
352.926	47.13
353.138	44.26
353.35	33.02
353.561	29.78
353.773	25.72
353.985	36.96
354.197	29.09
354.409	30.72
354.621	29.96
354.832	35.39
355.044	22.81
355.256	18.61
355.468	16.21
355.679	10.81
355.891	5.3
356.103	0.81
356.314	-0.77
356.526	20.08
356.738	37.22
356.949	37.06
357.161	40.32
357.373	53.32
357.584	46.77
357.796	39.03
358.008	31.35
358.219	48.41
358.431	54.24
358.642	50.98
358.854	60.22
359.065	64.01
359.277	45.21
359.488	29.12
359.7	20.96
359.911	9.16
360.123	7.2
360.334	4.82
360.546	-2.27
360.757	-2.99
360.969	4.91
361.18	26
361.391	26
361.603	24.74
361.814	36.64
362.025	20.46
362.237	9.03
362.448	23.03
362.659	45.42
362.871	41.64
363.082	47.88
363.293	53.49
363.504	40.31
363.716	23.69
363.927	28.69
364.138	22.04
364.349	-4.78
364.56	-1.82
364.772	-16
364.983	-4.23
365.194	-12.67
365.405	2.75
365.616	8.28
365.827	20.74
366.038	14.26
366.25	30.48
366.461	17.35
366.672	28.88
366.883	40.88
367.094	36.58
367.305	27.22
367.516	43.17
367.727	30.42
367.938	17.85
368.149	2.16
368.36	11.49
368.571	3.49
368.781	-2.51
368.992	-5.83
369.203	23.21
369.414	18
369.625	15.11
369.836	17.43
370.047	8.21
370.258	-1.37
370.468	-4.13
370.679	-29.16
370.89	-17.05
371.101	4.61
371.312	-13.03
371.522	-1.21
371.733	21.47
371.944	25.54
372.155	44.59
372.365	26.66
372.576	25.35
372.787	21.25
372.997	15.82
373.208	4.51
373.419	26.27
373.629	6.79
373.84	9.23
374.05	-10
374.261	-1.11
374.472	-12.17
374.682	11.14
374.893	8.26
375.103	41.02
375.314	39.51
375.524	46.66
375.735	52.96
375.945	52.81
376.156	20.47
376.366	26.62
376.577	33.73
376.787	28.16
376.997	40.91
377.208	52.22
377.418	31.26
377.629	29.18
377.839	19.39
378.049	13.63
378.26	23.54
378.47	39.33
378.68	38.98
378.89	40.23
379.101	40.34
379.311	18.15
379.521	4.4
379.732	8.86
379.942	0.52
380.152	3.53
380.362	22.39
380.572	23.23
380.783	25.61
380.993	35.41
381.203	36.93
381.413	33.82
381.623	33.79
381.833	33.23
382.043	14.5
382.253	2.25
382.463	10.79
382.674	18.22
382.884	8.99
383.094	20.55
383.304	24.29
383.514	21.16
383.724	25.38
383.934	18.73
384.144	8.22
384.353	12.94
384.563	14.83
384.773	14.36
384.983	20.89
385.193	29.79
385.403	19.83
385.613	18.07
385.823	11.31
386.033	14.98
386.242	8.63
386.452	14.76
386.662	8.92
386.872	15.43
387.082	14.86
387.291	8.33
387.501	7.13
387.711	8.43
387.921	-4.96
388.13	-0.88
388.34	13.25
388.55	13.57
388.759	16.02
388.969	25.81
389.179	21.74
389.388	21.5
389.598	21.4
389.807	18.84
390.017	18.8
390.227	19.34
390.436	15.72
390.646	19.78
390.855	21.99
391.065	22.9
391.274	20.63
391.484	17.58
391.693	15.78
391.903	15.48
392.112	15.62
392.322	17.77
392.531	22.02
392.74	20.69
392.95	16.16
393.159	14.16
393.369	15.26
393.578	12.26
393.787	11.82
393.997	16.05
394.206	15.61
394.415	15.11
394.625	15.82
394.834	14.78
395.043	13.38
395.252	14.23
395.462	14.15
395.671	14.48
395.88	15.79
396.089	16.02
396.298	15.44
396.508	14.71
396.717	15.22
396.926	14.49
397.135	14.98
397.344	14.6
397.553	14.67
397.762	14.56
397.971	14.03
398.181	13.25
398.39	12.4
398.599	12.08
398.808	11.5
399.017	12.56
399.226	12.78
399.435	13.44
399.644	13.75
399.853	13.55
400.062	12.95
400.27	12.94
400.479	12.74
400.688	12.13
400.897	12.43
401.106	12.57
401.315	11.97
401.524	12.12
401.733	12.5
401.941	12.28
402.15	12.1
402.359	12.12
402.568	12.25
402.777	12.25
402.985	12.26
403.194	12.2
403.403	12.33
403.612	11.96
403.82	11.82
404.029	11.81
404.238	11.53
404.446	11.51
404.655	11.32
404.864	11.35
405.072	11.11
405.281	11.52
405.489	11.26
405.698	11.29
405.906	11.18
406.115	11.03
406.324	10.62
406.532	10.66
406.741	10.84
406.949	10.6
407.158	10.75
407.366	10.86
407.574	10.98
407.783	10.8
407.991	10.81
408.2	10.9
408.408	10.73
408.617	10.62
408.825	10.47
409.033	10.58
409.242	10.48
409.45	10.52
409.658	10.37
409.867	10.54
410.075	10.3
410.283	10.24
410.491	10.2
410.7	10.1
410.908	10.01
411.116	10.19
411.324	10.15
411.533	10.15
411.741	10.25
411.949	10.31
412.157	10.09
412.365	10.14
412.573	9.99
412.781	9.95
412.99	9.79
413.198	9.97
413.406	9.91
413.614	9.98
413.822	10.04
414.03	9.99
414.238	9.76
414.446	9.67
414.654	9.39
414.862	9.43
415.07	9.41
415.278	9.62
415.486	9.28
415.694	9.53
415.902	9.32
416.109	9.28
416.317	9.3
416.525	9.23
416.733	9.29
416.941	9.44
417.149	9.44
417.357	9.43
417.564	9.75
417.772	9.67
417.98	9.57
418.188	9.51
418.395	9.22
418.603	9.36
418.811	9.06
419.019	8.93
419.226	9.26
419.434	9.41
419.642	9.12
419.849	9.3
420.057	9.49
420.265	9.24
420.472	9.15
420.68	9.29
420.887	9.13
421.095	9.06
421.302	8.89
421.51	9
421.717	8.98
421.925	9.08
422.132	8.91
422.34	8.91
422.547	8.63
422.755	8.75
422.962	8.88
423.17	8.96
423.377	9.08
423.585	9.28
423.792	9.2
423.999	9.22
424.207	9.25
424.414	9.15
424.621	9.19
424.829	9.13
425.036	9.11
425.243	9
425.451	8.98
425.658	8.82
425.865	8.68
426.072	8.65
426.28	8.7
426.487	8.66
426.694	8.79
426.901	8.86
427.108	8.68
427.315	8.67
427.523	8.85
427.73	8.73
427.937	8.57
428.144	8.39
428.351	8.38
428.558	8.41
428.765	8.38
428.972	8.4
429.179	8.71
429.386	8.86
429.593	8.72
429.8	8.52
430.007	8.78
430.214	8.66
430.421	8.5
430.628	8.4
430.835	8.36
431.042	8.48
431.249	8.55
431.456	8.85
431.662	9.12
431.869	9.33
432.076	9.14
432.283	9.05
432.49	8.69
432.697	8.6
432.903	8.33
433.11	8.2
433.317	8.38
433.524	8.57
433.73	8.41
433.937	8.78
434.144	8.84
434.35	8.85
434.557	8.7
434.764	8.68
434.97	8.51
435.177	8.64
435.384	8.41
435.59	8.63
435.797	8.76
436.003	9
436.21	8.93
436.416	8.92
436.623	8.77
436.829	8.78
437.036	8.71
437.242	8.72
437.449	8.8
437.655	8.8
437.862	8.84
438.068	8.79
438.275	8.8
438.481	8.92
438.687	8.85
438.894	8.79
439.1	8.74
439.307	8.75
439.513	8.62
439.719	8.75
439.926	8.76
440.132	8.76
440.338	8.68
440.544	8.86
440.751	8.7
440.957	8.76
441.163	8.48
441.369	8.5
441.575	8.35
441.782	8.35
441.988	8.21
442.194	8.53
442.4	8.5
442.606	8.6
442.812	8.69
443.018	8.69
443.224	8.66
443.431	8.75
443.637	8.71
443.843	8.61
444.049	8.7
444.255	8.66
444.461	8.61
444.667	8.47
444.873	8.6
445.079	8.7
445.284	8.77
445.49	8.71
445.696	8.64
445.902	8.67
446.108	8.64
446.314	8.51
446.52	8.69
446.726	8.99
446.931	8.9
447.137	8.89
447.343	9.05
447.549	8.87
447.755	8.72
447.96	8.77
448.166	8.71
448.372	8.77
448.578	8.85
448.783	8.83
448.989	8.96
449.195	9.08
449.4	9
449.606	8.99
449.812	8.99
450.017	8.98
450.223	8.91
450.428	8.76
450.634	8.9
450.84	9.03
451.045	8.95
451.251	8.87
451.456	9.09
451.662	9.05
451.867	9
452.073	8.97
452.278	9.12
452.483	9.19
452.689	9.24
452.894	9.35
453.1	9.45
453.305	9.24
453.51	9.12
453.716	8.95
453.921	8.97
454.127	8.93
454.332	9.01
454.537	9
454.742	9.16
454.948	9.29
455.153	9.19
455.358	9.32
455.563	9.4
455.769	9.34
455.974	9.12
456.179	9.2
456.384	9.14
456.589	9.13
456.795	9.02
457	9.02
457.205	9.21
457.41	9.19
457.615	9.25
457.82	9.39
458.025	9.5
458.23	9.31
458.435	9.53
458.64	9.38
458.845	9.46
459.05	9.41
459.255	9.35
459.46	9.2
459.665	9.25
459.87	9.28
460.075	9.1
460.28	9.25
460.485	9.37
460.69	9.41
460.895	9.19
461.099	9.28
461.304	9.43
461.509	9.42
461.714	9.38
461.919	9.66
462.123	9.72
462.328	9.7
462.533	9.56
462.738	9.69
462.942	9.51
463.147	9.68
463.352	9.66
463.556	9.6
463.761	9.61
463.966	9.77
464.17	9.8
464.375	9.78
464.58	9.81
464.784	9.84
464.989	9.74
465.193	9.66
465.398	9.61
465.602	9.94
465.807	9.86
466.011	10.06
