Data from Ofra_PP_Phys_0CX04_Reflection_3.txt Node
Date: Sat Jul 24 20:02:39 EDT 2021
User: USUARIO
Spectrometer: FLMT01687
Trigger mode: 0
Integration Time (sec): 1.100000E0
Scans to average: 2
Electric dark correction enabled: true
Nonlinearity correction enabled: false
Boxcar width: 2
XAxis mode: Wavelengths
Number of Pixels in Spectrum: 3648
>>>>>Begin Spectral Data<<<<<
179.494	472.15
179.716	578.6
179.937	994.86
180.158	804.35
180.38	351.5
180.601	-321.59
180.823	70.78
181.044	271.32
181.265	-42.29
181.486	-63.4
181.708	-84.13
181.929	-1826.67
182.15	463.45
182.372	-50.42
182.593	46333.33
182.814	540.51
183.035	164.67
183.257	151.28
183.478	49.11
183.699	48.23
183.92	-14.08
184.141	24.16
184.363	-26.21
184.584	38.69
184.805	33.22
185.026	49.65
185.247	35.94
185.468	22.04
185.689	5.84
185.91	12.44
186.132	4.28
186.353	9.32
186.574	28.99
186.795	48.82
187.016	25.69
187.237	44.82
187.458	49.07
187.679	79.39
187.9	52.87
188.121	87.91
188.342	84.93
188.563	58.76
188.784	69.99
189.005	68.08
189.226	70.33
189.447	68.72
189.667	93.81
189.888	82.13
190.109	76.35
190.33	38.61
190.551	9.93
190.772	6.19
190.993	-19.63
191.214	-32.13
191.434	-31.83
191.655	20.54
191.876	5.39
192.097	-6.02
192.318	16.38
192.538	-4.6
192.759	-38.24
192.98	-55.3
193.201	-43.36
193.421	-88.4
193.642	-38.03
193.863	-16.76
194.083	-11.08
194.304	8.46
194.525	36.9
194.745	44.89
194.966	12.23
195.187	16.14
195.407	-40.48
195.628	-45.98
195.848	-49.12
196.069	-62.15
196.29	-80.74
196.51	-105.07
196.731	-123.35
196.951	-103.23
197.172	-60.42
197.392	-40.39
197.613	-2.77
197.833	3.31
198.054	-13.72
198.274	-9.64
198.495	-64.61
198.715	-22.55
198.936	-61.05
199.156	-26.12
199.377	-33.55
199.597	-6.61
199.817	-30.86
200.038	25.81
200.258	24.49
200.479	4.82
200.699	7.93
200.919	5.13
201.14	-33.1
201.36	-33.67
201.58	-8.37
201.801	2.01
202.021	-1.67
202.241	20.29
202.461	30.97
202.682	1.71
202.902	4.04
203.122	-11.19
203.342	-4.82
203.563	14.78
203.783	24.08
204.003	-14.47
204.223	-52.78
204.443	16.79
204.663	-28.85
204.884	-27.55
205.104	-47.11
205.324	5.68
205.544	-24.97
205.764	-15.07
205.984	-7.14
206.204	16.24
206.424	28.86
206.644	27.79
206.864	22.35
207.084	7.35
207.304	17.7
207.525	-5.76
207.745	-11.69
207.964	13.18
208.184	20.96
208.404	16.27
208.624	10.64
208.844	21.9
209.064	-10.95
209.284	-17.43
209.504	-27.97
209.724	-38.92
209.944	-66.96
210.164	-37.15
210.384	-20.13
210.604	-16.42
210.823	-11.81
211.043	-28.92
211.263	-31.85
211.483	-46.76
211.703	-46.6
211.922	-16.12
212.142	22.4
212.362	30.16
212.582	29.49
212.801	37.92
213.021	3.66
213.241	3.58
213.461	-21.36
213.68	-39.67
213.9	-38.94
214.12	-24.05
214.339	-35.81
214.559	-22.96
214.779	5.06
214.998	13.1
215.218	6.6
215.438	17.83
215.657	40.1
215.877	40.27
216.096	31.15
216.316	48.07
216.535	34.42
216.755	37.69
216.974	34.37
217.194	37.37
217.413	35.68
217.633	46.45
217.852	-2.37
218.072	-11.21
218.291	-27.47
218.511	-30.96
218.73	-78.84
218.95	-63.15
219.169	-51.33
219.389	-71.43
219.608	-67.52
219.827	-22.19
220.047	-16.88
220.266	-17.06
220.485	-1.55
220.705	11.83
220.924	-10.95
221.143	13.09
221.363	-17.83
221.582	7.4
221.801	-2.65
222.021	30.8
222.24	23.74
222.459	31.44
222.678	18.42
222.897	21.66
223.117	2.85
223.336	-0.98
223.555	26.93
223.774	37.08
223.993	48.63
224.213	55.83
224.432	42.86
224.651	47.77
224.87	37.6
225.089	56.43
225.308	53.99
225.527	76.19
225.746	78.85
225.965	76.23
226.184	46.59
226.404	49.08
226.623	25.24
226.842	9.77
227.061	29.64
227.28	43.21
227.499	47.3
227.718	53.57
227.936	55.2
228.155	45.45
228.374	14.79
228.593	0.6
228.812	14.43
229.031	26.84
229.25	5.99
229.469	42.67
229.688	43.09
229.907	39.01
230.125	50.18
230.344	58.53
230.563	49.53
230.782	47.42
231.001	19.6
231.22	2.98
231.438	-5.99
231.657	-7.78
231.876	0.5
232.095	11.59
232.313	18.75
232.532	16.75
232.751	18.63
232.969	24.63
233.188	19.43
233.407	15.26
233.625	1.8
233.844	-12.3
234.063	-38.32
234.281	27.28
234.5	13.83
234.719	36.99
234.937	53.56
235.156	48.84
235.374	24.01
235.593	48.58
235.811	38.86
236.03	47.29
236.249	50.8
236.467	54.17
236.686	27.04
236.904	45.44
237.123	0.68
237.341	-4.81
237.559	-19.41
237.778	-16.98
237.996	-26.86
238.215	-15.14
238.433	-19.07
238.652	-8.69
238.87	-39.29
239.088	-37.3
239.307	-8.24
239.525	6.51
239.743	-17.27
239.962	10.42
240.18	-5.65
240.398	-31.33
240.617	-61
240.835	-18
241.053	-37.22
241.271	-2.26
241.49	21.62
241.708	34.26
241.926	17.83
242.144	24.87
242.363	15.23
242.581	8.37
242.799	20
243.017	23.25
243.235	-6.67
243.453	5.07
243.672	-12.23
243.89	2.06
244.108	18.61
244.326	30.7
244.544	23.27
244.762	9.44
244.98	-9.01
245.198	-0.51
245.416	-6.25
245.634	-1.16
245.852	27.81
246.07	40.54
246.288	31.65
246.506	32.15
246.724	33.8
246.942	23.94
247.16	32.26
247.378	19.31
247.596	22.3
247.814	23.87
248.032	-1.09
248.25	-2.68
248.468	6.97
248.685	21.49
248.903	20.62
249.121	43.31
249.339	23.27
249.557	22.99
249.775	-7.85
249.992	-35.37
250.21	-51.24
250.428	-26.25
250.646	-26.23
250.863	-11.9
251.081	-10.08
251.299	16.26
251.517	11.96
251.734	0.27
251.952	-8.23
252.17	8.61
252.387	16.66
252.605	0.59
252.823	4
253.04	-0.82
253.258	-9.82
253.475	-20.11
253.693	2.47
253.911	10.72
254.128	18.7
254.346	27.51
254.563	20.03
254.781	12.62
254.998	12.1
255.216	16.47
255.433	9.36
255.651	21.28
255.868	30.61
256.086	32.96
256.303	30.74
256.521	22.05
256.738	17.15
256.956	-0.03
257.173	0.53
257.39	10.45
257.608	19.08
257.825	22.08
258.043	44.75
258.26	42.58
258.477	38.88
258.695	43.41
258.912	20.06
259.129	2.51
259.346	-21.53
259.564	-16.87
259.781	-5.71
259.998	15.04
260.216	30.64
260.433	55.93
260.65	42.14
260.867	44.25
261.084	29.06
261.302	20.06
261.519	30.7
261.736	20.57
261.953	7.96
262.17	25.22
262.387	21.14
262.604	3.61
262.822	3.94
263.039	-1.04
263.256	-15.26
263.473	-22.93
263.69	-54.86
263.907	-34.91
264.124	-15.59
264.341	-6.36
264.558	-3.65
264.775	11.92
264.992	14.67
265.209	3.92
265.426	-2.8
265.643	4.22
265.86	0.13
266.077	7.11
266.294	4.2
266.51	6.89
266.727	2.06
266.944	16.73
267.161	8.51
267.378	9.96
267.595	2.16
267.812	-25.42
268.028	-19.92
268.245	-28.13
268.462	-14.81
268.679	-14.4
268.896	27.39
269.112	16.33
269.329	22.52
269.546	30.14
269.763	39
269.979	28.56
270.196	27.98
270.413	24.19
270.629	3.21
270.846	1.57
271.063	18.09
271.279	4.09
271.496	-15.94
271.712	-14.62
271.929	-26.72
272.146	-18.14
272.362	-22.35
272.579	19.52
272.795	21.89
273.012	34.97
273.228	28.16
273.445	25.8
273.661	-8.99
273.878	-31.11
274.094	-34.01
274.311	-54.45
274.527	-24.1
274.744	-10.44
274.96	11.81
275.177	21.68
275.393	17.34
275.609	23.13
275.826	33.17
276.042	29.05
276.259	21.18
276.475	16.83
276.691	-3.15
276.908	-14
277.124	9.52
277.34	16.98
277.557	20.74
277.773	33.96
277.989	28.14
278.205	25.78
278.422	23.22
278.638	41.16
278.854	27.14
279.07	41.88
279.286	11.83
279.503	4.25
279.719	-9.99
279.935	-2.26
280.151	-18.6
280.367	9.32
280.583	11.57
280.799	15.24
281.016	17.01
281.232	28.44
281.448	22.43
281.664	27.96
281.88	22.08
282.096	22.94
282.312	32.46
282.528	31.3
282.744	36.87
282.96	35.3
283.176	34.68
283.392	18.49
283.608	21.7
283.824	18.5
284.04	23.69
284.256	29.32
284.471	36.17
284.687	24.43
284.903	29.63
285.119	42.75
285.335	20.16
285.551	9.31
285.767	8.96
285.982	-6.88
286.198	-35.95
286.414	-22.22
286.63	-11.46
286.846	11.48
287.061	-0.99
287.277	6.77
287.493	14.12
287.709	16.68
287.924	3.37
288.14	30.6
288.356	44.03
288.571	38.42
288.787	28.87
289.003	40.23
289.218	26.36
289.434	14.76
289.65	28.53
289.865	30.86
290.081	34.29
290.296	27.01
290.512	18.2
290.727	22.67
290.943	17.14
291.159	2.55
291.374	9.71
291.59	3.65
291.805	-1.95
292.021	1.5
292.236	14.52
292.451	11.07
292.667	20.88
292.882	20.95
293.098	25.68
293.313	5.02
293.529	4.39
293.744	-4.58
293.959	-18.56
294.175	-3.84
294.39	21.38
294.605	23.85
294.821	25.32
295.036	23.22
295.251	16.44
295.467	8.12
295.682	19.11
295.897	10.34
296.112	2.97
296.328	-3.44
296.543	-1.87
296.758	-15.83
296.973	18.07
297.188	40.61
297.404	27.4
297.619	29.49
297.834	29.09
298.049	8.77
298.264	3.29
298.479	19.56
298.694	12.45
298.909	24.06
299.125	43.31
299.34	42.52
299.555	24.84
299.77	30.32
299.985	-5.46
300.2	-26.87
300.415	-31.7
300.63	-12.71
300.845	-8.43
301.06	-5.37
301.275	-11.17
301.49	-13.26
301.704	-9.21
301.919	-27.06
302.134	-21.63
302.349	16.48
302.564	8.2
302.779	19.38
302.994	56.12
303.209	57.8
303.423	53.48
303.638	64.42
303.853	49.03
304.068	10.13
304.283	-1
304.497	-7.1
304.712	3.35
304.927	2.8
305.142	1.93
305.356	9.38
305.571	15.97
305.786	3.84
306	-1.23
306.215	7.52
306.43	-1.81
306.644	8.13
306.859	15.05
307.074	6.62
307.288	-12.86
307.503	1.1
307.717	-13.35
307.932	-5.54
308.147	-0.03
308.361	28.09
308.576	14.2
308.79	0.39
309.005	3.31
309.219	17.35
309.434	17.47
309.648	2.55
309.863	31.67
310.077	13.36
310.292	5.89
310.506	-15.95
310.72	12.07
310.935	7.3
311.149	13.43
311.364	11.4
311.578	34.15
311.792	28.64
312.007	33.99
312.221	26.41
312.435	30.1
312.649	9.62
312.864	50.55
313.078	31.89
313.292	57.35
313.507	53.39
313.721	52.38
313.935	20.62
314.149	43.52
314.363	31.46
314.578	24.48
314.792	10.81
315.006	25.7
315.22	7.7
315.434	2.6
315.648	-0.16
315.862	1.01
316.077	-9.66
316.291	16.23
316.505	34.84
316.719	43.62
316.933	18.24
317.147	24.27
317.361	-9.57
317.575	-1.81
317.789	-4.02
318.003	12.38
318.217	19.22
318.431	35.19
318.645	37.4
318.859	36.73
319.073	46.71
319.287	22.54
319.5	0.93
319.714	-25.86
319.928	-28.35
320.142	-36.12
320.356	3.66
320.57	26.64
320.784	29.71
320.997	26.94
321.211	15.78
321.425	-13.87
321.639	-41.94
321.853	-19.1
322.066	-19.33
322.28	-15.25
322.494	2.17
322.707	33.84
322.921	17.73
323.135	24.7
323.349	34.75
323.562	22.07
323.776	8.54
323.989	19.93
324.203	5.55
324.417	5.22
324.63	-10.5
324.844	-28.69
325.057	-29.28
325.271	-33.8
325.485	-30.83
325.698	15.42
325.912	39.89
326.125	26.69
326.339	40.31
326.552	29.58
326.766	22.47
326.979	15.02
327.193	37.53
327.406	29.76
327.619	40.78
327.833	31.7
328.046	24.67
328.26	11.51
328.473	19.71
328.686	2.55
328.9	14.36
329.113	18.56
329.326	18.35
329.54	12.67
329.753	29.72
329.966	15.9
330.179	22.24
330.393	36.18
330.606	29.93
330.819	32.6
331.032	38.05
331.246	44.85
331.459	35.57
331.672	22.91
331.885	-1.87
332.098	-13.31
332.311	-13.53
332.525	-16.66
332.738	8.17
332.951	25.87
333.164	24.92
333.377	34.12
333.59	45.94
333.803	29.63
334.016	21.28
334.229	24.54
334.442	12.36
334.655	17.87
334.868	23.37
335.081	29.83
335.294	37.54
335.507	51.27
335.72	49.6
335.933	36.21
336.146	36.81
336.359	31.15
336.572	7.59
336.785	-4.36
336.997	1.29
337.21	11.97
337.423	16.66
337.636	24.86
337.849	26.8
338.062	29.24
338.274	24.78
338.487	22.31
338.7	15.88
338.913	10.16
339.125	-0.65
339.338	7.16
339.551	4.82
339.763	36.59
339.976	50.38
340.189	57.3
340.402	50.71
340.614	45.29
340.827	28.02
341.039	16.82
341.252	19.87
341.465	-7.63
341.677	-14.65
341.89	-40.69
342.102	-39.77
342.315	-43.79
342.527	-34.97
342.74	-20.84
342.952	16.78
343.165	19.51
343.377	38.32
343.59	34.24
343.802	46.92
344.015	42.02
344.227	55.08
344.44	27.64
344.652	30.06
344.864	23.19
345.077	37.7
345.289	30.51
345.502	44.1
345.714	42.32
345.926	28.82
346.139	15.72
346.351	10.66
346.563	5.92
346.775	13.85
346.988	23.32
347.2	24.34
347.412	15.17
347.624	0.76
347.837	5.94
348.049	2.45
348.261	10.35
348.473	8.56
348.685	12.04
348.897	-6.57
349.11	-4.29
349.322	-8.66
349.534	5.55
349.746	18.69
349.958	23.95
350.17	26.4
350.382	36.19
350.594	33.87
350.806	35.01
351.018	34.82
351.23	26.88
351.442	25.51
351.654	23.06
351.866	17.71
352.078	21.04
352.29	13.79
352.502	10.61
352.714	34.22
352.926	28.17
353.138	26.88
353.35	25.82
353.561	23.64
353.773	8.96
353.985	17.42
354.197	19.62
354.409	25.19
354.621	16.08
354.832	18.51
355.044	11.4
355.256	4.82
355.468	3.19
355.679	4.8
355.891	5.31
356.103	5.01
356.314	6.87
356.526	16
356.738	32.39
356.949	28.51
357.161	22.3
357.373	27.29
357.584	18.75
357.796	8.82
358.008	9.85
358.219	21.44
358.431	24.16
358.642	20.47
358.854	22.5
359.065	23.72
359.277	16.2
359.488	3.05
359.7	-8.46
359.911	-18.59
360.123	-15.04
360.334	-18.68
360.546	-21.46
360.757	-11
360.969	-9.65
361.18	-6.09
361.391	-5.2
361.603	-7.85
361.814	-5.63
362.025	-10.47
362.237	-11.93
362.448	-5.51
362.659	13.62
362.871	13.66
363.082	16.21
363.293	18.09
363.504	12.59
363.716	5.4
363.927	9.88
364.138	6.2
364.349	-5.53
364.56	-2.01
364.772	-16.92
364.983	-6.61
365.194	-15.82
365.405	-11.37
365.616	-26.7
365.827	-14.19
366.038	-15.24
366.25	22.62
366.461	15.08
366.672	37.62
366.883	44.12
367.094	31.9
367.305	11.99
367.516	20.48
367.727	11.07
367.938	-9.38
368.149	-13.14
368.36	-7.3
368.571	-13.88
368.781	-13.9
368.992	-11.34
369.203	9.94
369.414	12.61
369.625	8.46
369.836	-2.34
370.047	-0.33
370.258	-11.13
370.468	-18.82
370.679	-37.07
370.89	-25.04
371.101	-3.58
371.312	-15.53
371.522	-6.31
371.733	17.23
371.944	21.08
372.155	14.16
372.365	4.76
372.576	-0.84
372.787	-7.96
372.997	-1.5
373.208	1
373.419	16.58
373.629	10.07
373.84	19.04
374.05	-9.49
374.261	0.31
374.472	-10.85
374.682	5.28
374.893	-3.13
375.103	17.46
375.314	7.24
375.524	12.43
375.735	17.64
375.945	32.33
376.156	19.51
376.366	25.21
376.577	27.85
376.787	28.16
376.997	31
377.208	35.01
377.418	18.1
377.629	23.85
377.839	11.7
378.049	4.73
378.26	15.67
378.47	35.62
378.68	25.71
378.89	26.41
379.101	26.46
379.311	11.85
379.521	-11.87
379.732	-0.91
379.942	-13.11
380.152	-6.94
380.362	7.02
380.572	20.89
380.783	25.76
380.993	39.06
381.203	36.38
381.413	28.47
381.623	20.66
381.833	10.25
382.043	-6.52
382.253	-4.95
382.463	1.77
382.674	5.57
382.884	-1.77
383.094	12.07
383.304	16.41
383.514	13.39
383.724	10.44
383.934	6.94
384.144	2.94
384.353	-1.3
384.563	5.4
384.773	10.79
384.983	20.65
385.193	20.11
385.403	8.27
385.613	6.4
385.823	4.97
386.033	7.03
386.242	-0.12
386.452	10.78
386.662	4.08
386.872	7.4
387.082	3.71
387.291	1.2
387.501	5.46
387.711	8.77
387.921	-1.53
388.13	1.85
388.34	12.08
388.55	4.98
388.759	6.96
388.969	13.24
389.179	10.78
389.388	10.75
389.598	11.29
389.807	8.2
390.017	8.86
390.227	10.13
390.436	8.03
390.646	12.41
390.855	14.76
391.065	14.38
391.274	11.52
391.484	9.33
391.693	7.75
391.903	9.02
392.112	10.1
392.322	12.83
392.531	16.04
392.74	14.31
392.95	10.36
393.159	7.94
393.369	7.35
393.578	4.33
393.787	5.36
393.997	8.5
394.206	9.15
394.415	9.56
394.625	10.06
394.834	8.42
395.043	6.44
395.252	7.54
395.462	7.92
395.671	9.22
395.88	11.42
396.089	13.04
396.298	12.36
396.508	12.22
396.717	12.15
396.926	11.42
397.135	11.21
397.344	11.37
397.553	11.4
397.762	11.53
397.971	11.39
398.181	11.09
398.39	9.75
398.599	9.64
398.808	9.02
399.017	9.06
399.226	8.99
399.435	9.85
399.644	9.37
399.853	9.18
400.062	9.1
400.27	9.2
400.479	9.11
400.688	9.02
400.897	9.26
401.106	9.09
401.315	8.73
401.524	8.65
401.733	8.73
401.941	8.79
402.15	9.01
402.359	9.08
402.568	8.96
402.777	8.96
402.985	8.77
403.194	8.45
403.403	8.31
403.612	8.42
403.82	8.5
404.029	8.64
404.238	8.63
404.446	8.74
404.655	8.44
404.864	8.21
405.072	7.99
405.281	7.93
405.489	7.71
405.698	7.79
405.906	7.85
406.115	7.7
406.324	7.67
406.532	7.66
406.741	7.84
406.949	7.72
407.158	7.87
407.366	7.92
407.574	8.05
407.783	7.96
407.991	7.95
408.2	7.92
408.408	7.87
408.617	7.82
408.825	7.61
409.033	7.73
409.242	7.7
409.45	7.67
409.658	7.49
409.867	7.59
410.075	7.41
410.283	7.3
410.491	7.26
410.7	7.18
410.908	7.06
411.116	7.12
411.324	7.07
411.533	7.05
411.741	7.11
411.949	7.15
412.157	7.02
412.365	7.19
412.573	7.07
412.781	7.2
412.99	7.25
413.198	7.42
413.406	7.38
413.614	7.47
413.822	7.46
414.03	7.4
414.238	7.19
414.446	7.17
414.654	7.03
414.862	6.88
415.07	6.75
415.278	6.9
415.486	6.58
415.694	6.76
415.902	6.83
416.109	6.87
416.317	6.82
416.525	6.73
416.733	6.65
416.941	6.75
417.149	6.7
417.357	6.74
417.564	6.97
417.772	6.86
417.98	6.73
418.188	6.71
418.395	6.54
418.603	6.68
418.811	6.65
419.019	6.52
419.226	6.64
419.434	6.78
419.642	6.61
419.849	6.7
420.057	6.83
420.265	6.69
420.472	6.49
420.68	6.58
420.887	6.41
421.095	6.39
421.302	6.32
421.51	6.57
421.717	6.53
421.925	6.56
422.132	6.48
422.34	6.53
422.547	6.29
422.755	6.31
422.962	6.39
423.17	6.34
423.377	6.44
423.585	6.42
423.792	6.37
423.999	6.27
424.207	6.26
424.414	6.09
424.621	6.3
424.829	6.2
425.036	6.26
425.243	6.18
425.451	6.11
425.658	5.87
425.865	5.89
426.072	5.86
426.28	5.82
426.487	5.81
426.694	5.9
426.901	5.9
427.108	5.96
427.315	6.03
427.523	6.15
427.73	6.2
427.937	6.03
428.144	5.89
428.351	5.88
428.558	5.68
428.765	5.48
428.972	5.51
429.179	5.54
429.386	5.65
429.593	5.79
429.8	5.87
430.007	5.87
430.214	5.98
430.421	6.06
430.628	6.04
430.835	5.88
431.042	6.03
431.249	5.95
431.456	5.95
431.662	6.14
431.869	6.21
432.076	6.14
432.283	6.09
432.49	5.87
432.697	5.69
432.903	5.68
433.11	5.69
433.317	5.74
433.524	5.88
433.73	5.71
433.937	5.78
434.144	5.72
434.35	5.75
434.557	5.63
434.764	5.76
434.97	5.79
435.177	5.9
435.384	5.73
435.59	5.83
435.797	5.96
436.003	5.86
436.21	5.75
436.416	5.76
436.623	5.67
436.829	5.59
437.036	5.58
437.242	5.51
437.449	5.65
437.655	5.6
437.862	5.55
438.068	5.61
438.275	5.74
438.481	5.68
438.687	5.75
438.894	5.85
439.1	5.81
439.307	5.79
439.513	5.76
439.719	5.72
439.926	5.74
440.132	5.76
440.338	5.74
440.544	5.84
440.751	5.71
440.957	5.63
441.163	5.44
441.369	5.47
441.575	5.4
441.782	5.47
441.988	5.39
442.194	5.57
442.4	5.52
442.606	5.64
442.812	5.71
443.018	5.79
443.224	5.87
443.431	5.89
443.637	5.87
443.843	5.87
444.049	5.89
444.255	5.85
444.461	5.89
444.667	5.81
444.873	5.73
445.079	5.8
445.284	5.87
445.49	5.77
445.696	5.69
445.902	5.8
446.108	5.67
446.314	5.49
446.52	5.63
446.726	5.88
446.931	5.81
447.137	5.83
447.343	5.96
447.549	5.85
447.755	5.75
447.96	5.82
448.166	5.84
448.372	5.91
448.578	5.89
448.783	5.91
448.989	6.03
449.195	6.09
449.4	6.01
449.606	6.12
449.812	6.07
450.017	6.08
450.223	6.17
450.428	6.09
450.634	6.07
450.84	6.17
451.045	6.02
451.251	5.91
451.456	6.05
451.662	6.11
451.867	6.07
452.073	6.05
452.278	6.06
452.483	6.06
452.689	6.11
452.894	6.23
453.1	6.32
453.305	6.16
453.51	6.16
453.716	5.96
453.921	5.94
454.127	5.96
454.332	6.01
454.537	5.96
454.742	6.09
454.948	6
455.153	5.95
455.358	6.04
455.563	6.11
455.769	6.12
455.974	6.06
456.179	6.11
456.384	6.06
456.589	6.01
456.795	5.9
457	5.9
457.205	5.86
457.41	5.85
457.615	5.82
457.82	5.88
458.025	5.94
458.23	5.84
458.435	5.93
458.64	5.9
458.845	5.95
459.05	5.89
459.255	5.88
459.46	5.86
459.665	5.99
459.87	6.01
460.075	5.99
460.28	6.1
460.485	6.14
460.69	5.97
460.895	5.73
461.099	5.73
461.304	5.88
461.509	5.8
461.714	5.83
461.919	5.96
462.123	5.92
462.328	5.88
462.533	5.78
462.738	5.92
462.942	5.85
463.147	5.97
463.352	5.87
463.556	5.89
463.761	5.79
463.966	5.96
464.17	5.97
464.375	5.93
464.58	5.98
464.784	6.02
464.989	5.93
465.193	5.94
465.398	5.99
465.602	6.15
465.807	6.1
466.011	6.15
466.216	6.19
466.42	6.24
466.625	6.16
466.829	6.31
467.034	6.35
467.238	6.33
