Data from Ofra_PP_Phys_0GT1H_Reflection_2.txt Node
Date: Sat Jul 24 20:05:55 EDT 2021
User: USUARIO
Spectrometer: FLMT01687
Trigger mode: 0
Integration Time (sec): 1.100000E0
Scans to average: 2
Electric dark correction enabled: true
Nonlinearity correction enabled: false
Boxcar width: 2
XAxis mode: Wavelengths
Number of Pixels in Spectrum: 3648
>>>>>Begin Spectral Data<<<<<
179.494	620.03
179.716	784.04
179.937	1385.38
180.158	1182.59
180.38	556.41
180.601	-311.57
180.823	218.68
181.044	-955.04
181.265	130.47
181.486	85.26
181.708	-136.83
181.929	-3733.33
182.15	917.27
182.372	106.97
182.593	-23733.33
182.814	96.41
183.035	158.35
183.257	125.69
183.478	53.19
183.699	101.83
183.92	-13.22
184.141	25.61
184.363	-41.11
184.584	43.25
184.805	14.91
185.026	50.08
185.247	36.1
185.468	17.33
185.689	-18.61
185.91	-2.21
186.132	-25.75
186.353	-14.32
186.574	29.92
186.795	38.74
187.016	-23.07
187.237	-4.03
187.458	-21.83
187.679	-36.25
187.9	12.66
188.121	50.85
188.342	52.5
188.563	70.05
188.784	69.55
189.005	85.53
189.226	78.33
189.447	63.17
189.667	55.84
189.888	19.18
190.109	-4.74
190.33	-28.8
190.551	-48.95
190.772	-52.53
190.993	-60.85
191.214	-62.79
191.434	-45.91
191.655	-4.6
191.876	-37.37
192.097	-16.3
192.318	-2.27
192.538	-9.93
192.759	-11.63
192.98	-6.33
193.201	1.53
193.421	-34.07
193.642	-7.5
193.863	-8.04
194.083	-8.93
194.304	-13.73
194.525	10.26
194.745	0.38
194.966	-28.2
195.187	-38.33
195.407	-52.75
195.628	-99.72
195.848	-106.86
196.069	-123.94
196.29	-101.75
196.51	-128.24
196.731	-125.89
196.951	-85.06
197.172	-76.86
197.392	-69.41
197.613	-35.63
197.833	-29.13
198.054	-60.53
198.274	-43.99
198.495	-100.37
198.715	-48.31
198.936	-76.56
199.156	-41.81
199.377	-48.74
199.597	-35.15
199.817	-56.91
200.038	-15.17
200.258	3.12
200.479	33.9
200.699	42.79
200.919	35.68
201.14	2.18
201.36	-9.69
201.58	-8.64
201.801	-0.88
202.021	-22.16
202.241	3.07
202.461	-10.54
202.682	-42.16
202.902	-25.58
203.122	-8.91
203.342	7.22
203.563	32.37
203.783	67.24
204.003	-8.95
204.223	-84.48
204.443	-19.05
204.663	-45.77
204.884	-64.15
205.104	-23.33
205.324	40.93
205.544	13.37
205.764	19.03
205.984	37.19
206.204	65.25
206.424	54.57
206.644	48.7
206.864	58.14
207.084	67.95
207.304	47.43
207.525	-15.82
207.745	-2.66
207.964	-33.01
208.184	-44.69
208.404	-29.79
208.624	-3.44
208.844	-6.45
209.064	-33.32
209.284	-29.57
209.504	-31.28
209.724	-17.25
209.944	-12.29
210.164	20.32
210.384	40.09
210.604	48.37
210.823	0.14
211.043	-44.74
211.263	-60.24
211.483	-92.31
211.703	-94.53
211.922	-59.42
212.142	2.49
212.362	25.43
212.582	17.5
212.801	13.15
213.021	-8.86
213.241	-18.17
213.461	-41.23
213.68	-55.59
213.9	-50.54
214.12	-42.46
214.339	-53.62
214.559	-64.18
214.779	-14.86
214.998	5.06
215.218	-7.68
215.438	-11.33
215.657	3.71
215.877	-13.04
216.096	-20.16
216.316	12.01
216.535	5.9
216.755	9.2
216.974	4.98
217.194	6.27
217.413	-8.89
217.633	-0.82
217.852	-42.09
218.072	-50.65
218.291	-63.22
218.511	-45.54
218.73	-98.17
218.95	-87.8
219.169	-80.02
219.389	-102.1
219.608	-102.9
219.827	-29.13
220.047	4.2
220.266	3.18
220.485	3.5
220.705	3.4
220.924	-47.26
221.143	-48.5
221.363	-90.57
221.582	-42.05
221.801	-36.75
222.021	-1.07
222.24	4.49
222.459	40.95
222.678	24.46
222.897	9.87
223.117	3
223.336	-5.04
223.555	12.04
223.774	35.98
223.993	54.28
224.213	72.49
224.432	48.57
224.651	63.25
224.87	50.18
225.089	68.95
225.308	55.65
225.527	79.66
225.746	67.83
225.965	40.57
226.184	8.81
226.404	13.07
226.623	-0.58
226.842	-0.32
227.061	35.79
227.28	46.56
227.499	64.68
227.718	86.87
227.936	74.5
228.155	62.32
228.374	28.06
228.593	9.05
228.812	-3.54
229.031	5.08
229.25	-12.79
229.469	26.37
229.688	24.27
229.907	25.05
230.125	42.06
230.344	52.67
230.563	51.95
230.782	81.66
231.001	47.74
231.22	54.15
231.438	60.36
231.657	28.15
231.876	5.92
232.095	24.62
232.313	16.95
232.532	15.52
232.751	15.11
232.969	19.46
233.188	10.7
233.407	-6.13
233.625	-16.47
233.844	-6.28
234.063	-25.6
234.281	36.35
234.5	58.26
234.719	72.71
234.937	72.56
235.156	66.45
235.374	52.99
235.593	63.45
235.811	58.86
236.03	62.35
236.249	57.6
236.467	73.41
236.686	39.63
236.904	49.91
237.123	-3.44
237.341	0.64
237.559	-36.78
237.778	-27.38
237.996	-45.34
238.215	-11.07
238.433	-4.99
238.652	12.24
238.87	-24.1
239.088	-12.87
239.307	-15.79
239.525	-19
239.743	-48.44
239.962	-8.94
240.18	-30.18
240.398	-69.26
240.617	-86.45
240.835	-46.1
241.053	-98.71
241.271	-59.16
241.49	-1.47
241.708	-16.66
241.926	-42.43
242.144	-0.23
242.363	-19.53
242.581	-27.42
242.799	5.98
243.017	21.16
243.235	-9.55
243.453	28.03
243.672	-0.33
243.89	1.19
244.108	19.47
244.326	42.08
244.544	30.77
244.762	24.8
244.98	28.36
245.198	26.34
245.416	7.52
245.634	4.83
245.852	24.6
246.07	30.68
246.288	10.88
246.506	15
246.724	29.28
246.942	29.01
247.16	33.17
247.378	42.17
247.596	48.55
247.814	43.9
248.032	12.39
248.25	0.98
248.468	-0.52
248.685	16.95
248.903	9.83
249.121	23.29
249.339	-3.75
249.557	-18.85
249.775	-33.95
249.992	-69.73
250.21	-73.39
250.428	-33.04
250.646	-18.64
250.863	-17.68
251.081	-2.75
251.299	15.1
251.517	6.84
251.734	-6.19
251.952	-22.43
252.17	3.46
252.387	18.93
252.605	5
252.823	10.41
253.04	30.14
253.258	27.01
253.475	25.17
253.693	57.72
253.911	86.43
254.128	67.42
254.346	60.31
254.563	46.33
254.781	20.98
254.998	6.41
255.216	3.51
255.433	3.21
255.651	22.45
255.868	31.47
256.086	38.37
256.303	38.96
256.521	28.13
256.738	10.54
256.956	-3.64
257.173	-2.85
257.39	-5.12
257.608	11.75
257.825	31
258.043	51.43
258.26	39.16
258.477	41.85
258.695	40.98
258.912	5.34
259.129	-9.4
259.346	-35.83
259.564	-49.15
259.781	-37.64
259.998	-28.16
260.216	8.73
260.433	36.99
260.65	45.38
260.867	48.63
261.084	46.51
261.302	27.27
261.519	23.03
261.736	8.27
261.953	4.49
262.17	11.56
262.387	8.79
262.604	12.6
262.822	19.04
263.039	5.61
263.256	-13.18
263.473	3.38
263.69	-36.09
263.907	-16.83
264.124	2.48
264.341	33.55
264.558	2.7
264.775	29.73
264.992	34.74
265.209	37.32
265.426	31.33
265.643	46.6
265.86	42.56
266.077	41.73
266.294	44.6
266.51	37.65
266.727	23.33
266.944	44.32
267.161	24.69
267.378	16.68
267.595	20.88
267.812	-8.87
268.028	-20.11
268.245	-9.1
268.462	-13.68
268.679	-15.63
268.896	32.54
269.112	15.48
269.329	21.36
269.546	44.21
269.763	44.68
269.979	35.1
270.196	23
270.413	10.35
270.629	-13.3
270.846	-18.71
271.063	8.64
271.279	12.59
271.496	-16.13
271.712	-21.4
271.929	-21.61
272.146	-32
272.362	-27.72
272.579	24.46
272.795	25.54
273.012	24.84
273.228	17.93
273.445	5.49
273.661	-40.21
273.878	-82.6
274.094	-71.3
274.311	-72.92
274.527	-46.98
274.744	-13.08
274.96	31.74
275.177	27.94
275.393	32.79
275.609	42.96
275.826	45.4
276.042	40.89
276.259	52.51
276.475	32.48
276.691	23.34
276.908	19.97
277.124	49.92
277.34	37.77
277.557	51.77
277.773	51.91
277.989	48.48
278.205	24.27
278.422	32.5
278.638	36.2
278.854	30.9
279.07	32.27
279.286	12.5
279.503	-5.15
279.719	-9.48
279.935	-20.91
280.151	-26.59
280.367	-3.3
280.583	7.86
280.799	11.74
281.016	21.59
281.232	24.63
281.448	31.04
281.664	39.48
281.88	27.07
282.096	31.31
282.312	40.38
282.528	44.67
282.744	40.25
282.96	48.54
283.176	47.08
283.392	26.69
283.608	17
283.824	7.73
284.04	6.1
284.256	21.93
284.471	28.41
284.687	23
284.903	25.23
285.119	39.31
285.335	5.14
285.551	23.67
285.767	22.73
285.982	10.86
286.198	0.12
286.414	32.43
286.63	22.8
286.846	23.29
287.061	4.23
287.277	9.01
287.493	-0.18
287.709	0.54
287.924	-7.2
288.14	29.84
288.356	36.38
288.571	50.67
288.787	45.56
289.003	59.81
289.218	47.48
289.434	-2.86
289.65	6.31
289.865	11.4
290.081	16.92
290.296	20.85
290.512	31.48
290.727	27.79
290.943	12.46
291.159	-5.63
291.374	-7.53
291.59	-27.69
291.805	-35.08
292.021	-10.69
292.236	-17.04
292.451	-16.36
292.667	8.81
292.882	13.7
293.098	22.29
293.313	25.32
293.529	19.63
293.744	-7.95
293.959	-25.87
294.175	-17.93
294.39	12.24
294.605	30.91
294.821	53.28
295.036	44.62
295.251	40.38
295.467	29.8
295.682	22.36
295.897	5.08
296.112	7.61
296.328	11.47
296.543	-1.52
296.758	-15.7
296.973	10.48
297.188	27.91
297.404	3.84
297.619	12.41
297.834	17.87
298.049	7.41
298.264	-11.49
298.479	21.09
298.694	21.96
298.909	37.52
299.125	40.9
299.34	60.76
299.555	42.99
299.77	40.68
299.985	-3.91
300.2	-30.34
300.415	-59.32
300.63	-42.54
300.845	-35.9
301.06	-44.92
301.275	-29.94
301.49	-30.01
301.704	-39.44
301.919	-78.57
302.134	-53.72
302.349	-14.95
302.564	-22.09
302.779	-15.34
302.994	45.24
303.209	43.48
303.423	32.44
303.638	47.7
303.853	22.79
304.068	-44.96
304.283	-35.97
304.497	-32.78
304.712	-18.4
304.927	4.19
305.142	9.81
305.356	20.62
305.571	28.03
305.786	12.8
306	4.77
306.215	25.05
306.43	-1.32
306.644	21.96
306.859	28.44
307.074	14.47
307.288	-23.76
307.503	-17.7
307.717	-40.64
307.932	-39.45
308.147	-41.36
308.361	-1.7
308.576	-6
308.79	-46.33
309.005	-29.97
309.219	-14.61
309.434	-24.83
309.648	-44.2
309.863	-11.92
310.077	-21.22
310.292	-15.54
310.506	-5.7
310.72	44.26
310.935	54.89
311.149	56.81
311.364	56.45
311.578	46.94
311.792	35.67
312.007	27.73
312.221	-0.54
312.435	13.63
312.649	-1.39
312.864	16.06
313.078	16.61
313.292	64.64
313.507	51.93
313.721	59.29
313.935	46.98
314.149	56.82
314.363	32.57
314.578	15.49
314.792	5.36
315.006	20.46
315.22	14.38
315.434	9.01
315.648	12.72
315.862	7.51
316.077	6.97
316.291	3.63
316.505	11.33
316.719	21.21
316.933	-1.85
317.147	8.86
317.361	-20.9
317.575	-11.38
317.789	-17.02
318.003	-9.58
318.217	-9.32
318.431	17.79
318.645	21.33
318.859	20.83
319.073	41.01
319.287	27.83
319.5	7.56
319.714	-20.74
319.928	-27.56
320.142	-40.16
320.356	-9.91
320.57	10.21
320.784	9.56
320.997	18.76
321.211	16.55
321.425	-11.44
321.639	-46.64
321.853	-27.18
322.066	-29.31
322.28	-40.19
322.494	-12.59
322.707	41.54
322.921	28.15
323.135	39.9
323.349	51.09
323.562	31.85
323.776	-3.5
323.989	-2.22
324.203	-22.62
324.417	-17.06
324.63	-36.01
324.844	-45.13
325.057	-35.67
325.271	-40.07
325.485	-53.15
325.698	-12.58
325.912	12.34
326.125	-4.91
326.339	19.05
326.552	29.56
326.766	33.22
326.979	33.26
327.193	58.41
327.406	40.9
327.619	43.67
327.833	43.68
328.046	31.15
328.26	18.41
328.473	19.08
328.686	-1.32
328.9	4.14
329.113	9.82
329.326	-5.76
329.54	9.91
329.753	5.85
329.966	-2.46
330.179	26.01
330.393	48.47
330.606	35.36
330.819	54.03
331.032	62.1
331.246	50.07
331.459	53.35
331.672	45.81
331.885	26.61
332.098	-8.08
332.311	0.92
332.525	-18.26
332.738	-1.74
332.951	19.56
333.164	36.01
333.377	40.07
333.59	66.07
333.803	47.7
334.016	34.03
334.229	27.01
334.442	26.93
334.655	26.8
334.868	40.5
335.081	35.54
335.294	35.81
335.507	49.04
335.72	45.8
335.933	31.95
336.146	36.31
336.359	43.57
336.572	11.57
336.785	-9.75
336.997	-1.74
337.21	13.86
337.423	9.37
337.636	15.65
337.849	23.58
338.062	22.18
338.274	19.82
338.487	14.01
338.7	15.99
338.913	8.82
339.125	-0.79
339.338	4.99
339.551	10.41
339.763	20.5
339.976	31.62
340.189	46.49
340.402	32.94
340.614	35.57
340.827	26.22
341.039	4.41
341.252	-20.32
341.465	-19.98
341.677	-45.28
341.89	-71.21
342.102	-35.36
342.315	-22
342.527	-15.82
342.74	1.56
342.952	35.42
343.165	24.98
343.377	34.69
343.59	18.49
343.802	40.58
344.015	38.74
344.227	44.43
344.44	29.2
344.652	32.27
344.864	14.57
345.077	3.54
345.289	1.8
345.502	17.33
345.714	9.61
345.926	5.63
346.139	9.84
346.351	8.05
346.563	-3.24
346.775	11.97
346.988	7.7
347.2	-10.74
347.412	-22.08
347.624	-10.62
347.837	-11.15
348.049	7.93
348.261	25.77
348.473	23.59
348.685	-1.34
348.897	-9.12
349.11	-24.51
349.322	-36.68
349.534	0.09
349.746	26.2
349.958	35.57
350.17	37.76
350.382	46
350.594	34.75
350.806	30.25
351.018	14.76
351.23	18.92
351.442	13.28
351.654	22.44
351.866	20.32
352.078	36.47
352.29	27.06
352.502	45.95
352.714	47.23
352.926	45.61
353.138	32.49
353.35	19.51
353.561	-0.75
353.773	-16.16
353.985	-10.15
354.197	1.25
354.409	6.34
354.621	20.6
354.832	30.08
355.044	21.25
355.256	14.59
355.468	26.03
355.679	8.75
355.891	12.35
356.103	7.62
356.314	10.3
356.526	16.34
356.738	46.1
356.949	38.08
357.161	40.65
357.373	34.83
357.584	31.93
357.796	14.77
358.008	-0.42
358.219	18.07
358.431	26.95
358.642	24.15
358.854	33.12
359.065	46.68
359.277	28.19
359.488	14.15
359.7	-0.31
359.911	-13.91
360.123	-7.61
360.334	-9.13
360.546	-10.39
360.757	-4.61
360.969	5.16
361.18	0.84
361.391	-3.71
361.603	3.86
361.814	23.25
362.025	-0.18
362.237	-2.62
362.448	7.69
362.659	12.81
362.871	0.39
363.082	12.35
363.293	25.96
363.504	27.59
363.716	24.36
363.927	37.97
364.138	27.01
364.349	0.5
364.56	-9.4
364.772	-22.85
364.983	-21.15
365.194	-32.87
365.405	-23.09
365.616	-27.3
365.827	-17.21
366.038	-18.16
366.25	12.38
366.461	-7.4
366.672	25.72
366.883	36.97
367.094	30.6
367.305	5.04
367.516	34.15
367.727	8.61
367.938	-7.88
368.149	-9.45
368.36	10.57
368.571	2.6
368.781	0.34
368.992	-9.39
369.203	5.42
369.414	-6.01
369.625	-9.21
369.836	-6.82
370.047	-11.36
370.258	-11.71
370.468	-22.62
370.679	-54.68
370.89	-46.81
371.101	-16.64
371.312	-42.87
371.522	-27.82
371.733	-0.77
371.944	9.12
372.155	13.52
372.365	1.96
372.576	11.84
372.787	5.81
372.997	-1.42
373.208	-10.58
373.419	9.95
373.629	-12.04
373.84	-6.03
374.05	-29.33
374.261	-9.76
374.472	-23.99
374.682	-3.15
374.893	-7.41
375.103	26.79
375.314	18.06
375.524	29.74
375.735	40.24
375.945	42.8
376.156	16.6
376.366	26.33
376.577	24.99
376.787	18.07
376.997	28.6
377.208	37.77
377.418	13.31
377.629	25.53
377.839	12.03
378.049	2.26
378.26	9.92
378.47	28.01
378.68	21.21
378.89	29.53
379.101	38.94
379.311	22.09
379.521	1.07
379.732	-2.03
379.942	-26.43
380.152	-28.17
380.362	-14.38
380.572	-3.22
380.783	8.07
380.993	25.82
381.203	27.88
381.413	22.86
381.623	21.92
381.833	15.96
382.043	-2.39
382.253	-0.98
382.463	5.96
382.674	5.64
382.884	-5.93
383.094	4.94
383.304	0.12
383.514	0.12
383.724	6.36
383.934	-0.16
384.144	-4.58
384.353	6.22
384.563	11.31
384.773	10.21
384.983	23.22
385.193	26.87
385.403	10.53
385.613	8.84
385.823	7.99
386.033	10.32
386.242	10.12
386.452	21.2
386.662	15.92
386.872	16.84
387.082	13.05
387.291	2.26
387.501	1.37
387.711	4.25
387.921	-6.68
388.13	-2.39
388.34	11.23
388.55	6.57
388.759	4.99
388.969	15.26
389.179	12.1
389.388	9.17
389.598	8.36
389.807	7.34
390.017	7.25
390.227	6.81
390.436	4.11
390.646	11.64
390.855	13.33
391.065	14.28
391.274	11.49
391.484	9.66
391.693	7.68
391.903	9.45
392.112	9.7
392.322	13.82
392.531	18.92
392.74	18.2
392.95	14.03
393.159	11.94
393.369	13.4
393.578	11.27
393.787	9.8
393.997	12.54
394.206	13.1
394.415	11.87
394.625	10.89
394.834	10.05
395.043	9.59
395.252	10.01
395.462	10.82
395.671	11.91
395.88	13.71
396.089	13.8
396.298	13.66
396.508	12.64
396.717	12.93
396.926	12.38
397.135	12.7
397.344	12.39
397.553	12.97
397.762	13.34
397.971	13.23
398.181	13.11
398.39	12.39
398.599	11.8
398.808	11.15
399.017	11.57
399.226	11.47
399.435	12.33
399.644	12.51
399.853	12.23
400.062	11.74
400.27	11.82
400.479	11.51
400.688	11.11
400.897	11.65
401.106	11.65
401.315	11.23
401.524	11.09
401.733	11.36
401.941	11.4
402.15	11.47
402.359	11.58
402.568	11.74
402.777	11.49
402.985	11.31
403.194	11.35
403.403	11.36
403.612	11.09
403.82	11.12
404.029	11.12
404.238	10.72
404.446	10.8
404.655	10.66
404.864	10.8
405.072	10.59
405.281	10.76
405.489	10.41
405.698	10.6
405.906	10.5
406.115	10.4
406.324	10.23
406.532	10.35
406.741	10.37
406.949	10.14
407.158	10.19
407.366	10.33
407.574	10.34
407.783	10.18
407.991	10.27
408.2	10.15
408.408	9.96
408.617	9.79
408.825	9.64
409.033	9.71
409.242	9.91
409.45	9.89
409.658	9.84
409.867	9.99
410.075	9.74
410.283	9.53
410.491	9.56
410.7	9.36
410.908	9.37
411.116	9.37
411.324	9.29
411.533	9.31
411.741	9.49
411.949	9.4
412.157	9.34
412.365	9.42
412.573	9.33
412.781	9.33
412.99	9.18
413.198	9.38
413.406	9.31
413.614	9.3
413.822	9.29
414.03	9.23
414.238	8.95
414.446	9.04
414.654	8.84
414.862	8.83
415.07	8.82
415.278	8.99
415.486	8.62
415.694	8.75
415.902	8.64
416.109	8.5
416.317	8.56
416.525	8.47
416.733	8.56
416.941	8.64
417.149	8.8
417.357	8.74
417.564	8.97
417.772	8.72
417.98	8.66
418.188	8.55
418.395	8.45
418.603	8.57
418.811	8.45
419.019	8.26
419.226	8.51
419.434	8.52
419.642	8.26
419.849	8.46
420.057	8.64
420.265	8.44
420.472	8.23
420.68	8.44
420.887	8.28
421.095	8.27
421.302	8.23
421.51	8.36
421.717	8.38
421.925	8.53
422.132	8.48
422.34	8.33
422.547	8.15
422.755	7.98
422.962	7.98
423.17	7.99
423.377	8.16
423.585	8.42
423.792	8.44
423.999	8.46
424.207	8.32
424.414	8.24
424.621	8.16
424.829	8.1
425.036	8.05
425.243	8.1
425.451	7.96
425.658	7.84
425.865	7.87
426.072	7.89
426.28	7.88
426.487	7.94
426.694	8.01
426.901	7.99
427.108	7.8
427.315	7.81
427.523	8.07
427.73	8.24
427.937	8.04
428.144	8.08
428.351	8.06
428.558	7.88
428.765	7.74
428.972	7.78
429.179	7.82
429.386	8.1
429.593	8.12
429.8	7.95
430.007	8.1
430.214	8.09
430.421	7.91
430.628	7.82
430.835	7.83
431.042	7.99
431.249	8.05
431.456	8.3
431.662	8.59
431.869	8.63
432.076	8.54
432.283	8.56
432.49	8.14
432.697	7.96
432.903	7.84
433.11	7.87
433.317	7.86
433.524	8.1
433.73	8.07
433.937	8.39
434.144	8.3
434.35	8.28
434.557	8.17
434.764	8.2
434.97	8.05
435.177	8.03
435.384	7.8
435.59	7.92
435.797	8.02
436.003	8.02
436.21	8.06
436.416	8.27
436.623	8.16
436.829	8.1
437.036	8.06
437.242	7.9
437.449	7.8
437.655	7.78
437.862	7.8
438.068	7.86
438.275	8.04
438.481	8.27
438.687	8.28
438.894	8.24
439.1	8.27
439.307	8.24
439.513	8.11
439.719	8.22
439.926	8.19
440.132	8.19
440.338	8.14
440.544	8.18
440.751	8.14
440.957	8.29
441.163	8.05
441.369	8.08
441.575	7.95
441.782	7.88
441.988	7.68
442.194	7.84
442.4	7.94
442.606	8.07
442.812	8.15
443.018	8.14
443.224	8.25
443.431	8.21
443.637	8.23
443.843	8.09
444.049	8.27
444.255	8.17
444.461	8.23
444.667	8.11
444.873	8.26
445.079	8.28
445.284	8.3
445.49	8.13
445.696	8.02
445.902	8.01
446.108	7.95
446.314	7.85
446.52	7.95
446.726	8.23
446.931	8.12
447.137	8.13
447.343	8.27
447.549	8.18
447.755	8.1
447.96	8.29
448.166	8.2
448.372	8.27
448.578	8.29
448.783	8.26
448.989	8.22
449.195	8.44
449.4	8.3
449.606	8.32
449.812	8.32
450.017	8.42
450.223	8.36
450.428	8.26
450.634	8.4
450.84	8.45
451.045	8.32
451.251	8.24
451.456	8.52
451.662	8.43
451.867	8.5
452.073	8.5
452.278	8.61
452.483	8.63
452.689	8.72
452.894	8.8
453.1	8.86
453.305	8.74
453.51	8.74
453.716	8.58
453.921	8.65
454.127	8.69
454.332	8.74
454.537	8.66
454.742	8.79
454.948	8.76
455.153	8.75
455.358	8.89
455.563	8.97
455.769	8.99
455.974	8.83
456.179	8.74
456.384	8.61
456.589	8.57
456.795	8.43
457	8.47
457.205	8.59
457.41	8.52
457.615	8.57
457.82	8.78
458.025	8.93
458.23	8.86
458.435	9.02
458.64	8.8
458.845	8.77
459.05	8.64
459.255	8.6
459.46	8.63
459.665	8.88
459.87	8.92
460.075	8.84
460.28	9
460.485	9.07
460.69	9.06
460.895	8.87
461.099	8.93
461.304	9
461.509	9.04
461.714	8.92
461.919	9.21
462.123	9.19
462.328	9.25
462.533	9.01
462.738	9.17
462.942	9.05
463.147	9.34
463.352	9.27
463.556	9.45
463.761	9.41
463.966	9.49
464.17	9.53
464.375	9.52
464.58	9.51
464.784	9.47
464.989	9.33
465.193	9.23
