Data from Ofra_PP_Phys_2CX12O_Reflection_1.txt Node
Date: Sat Jul 24 20:06:35 EDT 2021
User: USUARIO
Spectrometer: FLMT01687
Trigger mode: 0
Integration Time (sec): 1.100000E0
Scans to average: 2
Electric dark correction enabled: true
Nonlinearity correction enabled: false
Boxcar width: 2
XAxis mode: Wavelengths
Number of Pixels in Spectrum: 3648
>>>>>Begin Spectral Data<<<<<
179.494	624.14
179.716	765.61
179.937	1331.89
180.158	1162.23
180.38	545
180.601	-248.36
180.823	156.47
181.044	82.17
181.265	51.76
181.486	77.11
181.708	-144.69
181.929	-2477.33
182.15	-34.54
182.372	-10.27
182.593	-733.33
182.814	37.95
183.035	109.22
183.257	47.64
183.478	18.45
183.699	33.91
183.92	-18.13
184.141	3.09
184.363	-47.93
184.584	20.96
184.805	1.98
185.026	30.54
185.247	25.07
185.468	15.24
185.689	7.98
185.91	14.06
186.132	0.32
186.353	10.88
186.574	47.12
186.795	47.78
187.016	15.53
187.237	33.74
187.458	9.64
187.679	-16.64
187.9	23.31
188.121	61.01
188.342	75.69
188.563	93.12
188.784	100.59
189.005	120.65
189.226	104.88
189.447	84.07
189.667	81.66
189.888	51.99
190.109	9.38
190.33	-14.13
190.551	-42.34
190.772	-57.2
190.993	-72.02
191.214	-43.07
191.434	-35.46
191.655	32.15
191.876	49.23
192.097	31
192.318	28.98
192.538	24.7
192.759	20.89
192.98	7.81
193.201	39.47
193.421	6.34
193.642	9.12
193.863	4.12
194.083	0.53
194.304	-2.65
194.525	24.48
194.745	14.94
194.966	-38.04
195.187	-63.04
195.407	-116.62
195.628	-129.97
195.848	-96.31
196.069	-102.35
196.29	-60.72
196.51	-89.66
196.731	-106.58
196.951	-93.68
197.172	-64.5
197.392	-73.7
197.613	-22.77
197.833	-6.25
198.054	-31.29
198.274	3.47
198.495	-26.38
198.715	-11.64
198.936	-41.64
199.156	-3.98
199.377	-42.46
199.597	-29.02
199.817	-53.18
200.038	-3.73
200.258	-7.55
200.479	32.47
200.699	42.04
200.919	50.87
201.14	-1.28
201.36	-16.8
201.58	-26.57
201.801	-37.09
202.021	-68.99
202.241	-18.83
202.461	-36.94
202.682	-37.28
202.902	-4.8
203.122	-10.7
203.342	-31.62
203.563	-21.83
203.783	2.43
204.003	-68.09
204.223	-93.27
204.443	42.41
204.663	59.27
204.884	-17.38
205.104	24.5
205.324	51.64
205.544	19.98
205.764	17.3
205.984	42.47
206.204	65.37
206.424	42.79
206.644	-3.88
206.864	30.92
207.084	14.85
207.304	-3.67
207.525	-23.1
207.745	-12.92
207.964	-59.91
208.184	-47.2
208.404	-51.55
208.624	-40.34
208.844	-31.56
209.064	-57.63
209.284	-45.52
209.504	-20.26
209.724	-8.79
209.944	-20.17
210.164	5.88
210.384	0.28
210.604	-28.52
210.823	-68.32
211.043	-90.87
211.263	-77.89
211.483	-99.18
211.703	-81.18
211.922	-30.55
212.142	36.51
212.362	43.26
212.582	27.27
212.801	36.74
213.021	9.76
213.241	-11.44
213.461	-38.17
213.68	-50.88
213.9	-65.4
214.12	-58.01
214.339	-59.58
214.559	-51.16
214.779	-7.48
214.998	21.38
215.218	9.6
215.438	21.44
215.657	27.59
215.877	29.74
216.096	22.96
216.316	38.26
216.535	43.23
216.755	37.75
216.974	16.78
217.194	31.5
217.413	24.46
217.633	2.49
217.852	-60.23
218.072	-60.91
218.291	-108.18
218.511	-86.6
218.73	-119.62
218.95	-89.93
219.169	-74.27
219.389	-84.78
219.608	-87.01
219.827	-18.52
220.047	1.99
220.266	-3.04
220.485	-14.71
220.705	2.95
220.924	-46.8
221.143	-32.19
221.363	-66.96
221.582	-17.43
221.801	-30.29
222.021	1.65
222.24	14.71
222.459	42.19
222.678	23.45
222.897	15.44
223.117	8.12
223.336	22.25
223.555	39.65
223.774	66.43
223.993	83.6
224.213	112.73
224.432	51.11
224.651	44.11
224.87	29.66
225.089	45.72
225.308	35.33
225.527	51.68
225.746	55.58
225.965	44.87
226.184	22.68
226.404	35.87
226.623	18.37
226.842	19.88
227.061	52.34
227.28	73.31
227.499	80.97
227.718	107.39
227.936	101.13
228.155	94.56
228.374	44.69
228.593	11.92
228.812	-0.15
229.031	0.37
229.25	-17.52
229.469	19.68
229.688	32.55
229.907	49.47
230.125	54.2
230.344	58.44
230.563	47.85
230.782	59.05
231.001	-3.97
231.22	-1.66
231.438	5.75
231.657	12.39
231.876	2.14
232.095	38.71
232.313	47.84
232.532	32.9
232.751	36.16
232.969	38.9
233.188	39.87
233.407	25.29
233.625	21.74
233.844	1.45
234.063	-19.89
234.281	4.47
234.5	10.8
234.719	7.65
234.937	32.94
235.156	32.55
235.374	28.87
235.593	40.69
235.811	52.49
236.03	44.95
236.249	33.29
236.467	34.34
236.686	-7.7
236.904	-6.73
237.123	-49.81
237.341	-28.11
237.559	-39.54
237.778	-12.42
237.996	-30.66
238.215	-2.34
238.433	-10.68
238.652	0.72
238.87	-28.01
239.088	-3.85
239.307	3.87
239.525	10.48
239.743	-31.43
239.962	-13.67
240.18	-39.08
240.398	-67.52
240.617	-79.49
240.835	-23.08
241.053	-42.61
241.271	-19.65
241.49	10.06
241.708	12.8
241.926	3.79
242.144	21.1
242.363	21.62
242.581	20.24
242.799	31.02
243.017	20.23
243.235	4.78
243.453	12.82
243.672	-9.71
243.89	15.96
244.108	24.71
244.326	47.78
244.544	28.19
244.762	17.25
244.98	6.8
245.198	8.02
245.416	-23.36
245.634	-18.98
245.852	8.81
246.07	-0.82
246.288	-10.34
246.506	12.84
246.724	27.57
246.942	21.2
247.16	29.64
247.378	39.75
247.596	39.37
247.814	36.13
248.032	6.7
248.25	-1.6
248.468	-3.86
248.685	21.08
248.903	21.55
249.121	36.28
249.339	9.44
249.557	12.96
249.775	-17.01
249.992	-69.43
250.21	-79.43
250.428	-34.28
250.646	-34.41
250.863	-25.95
251.081	7.12
251.299	36.12
251.517	30.15
251.734	30.1
251.952	7.67
252.17	12.43
252.387	19.38
252.605	-4.04
252.823	-3.88
253.04	9.88
253.258	15.64
253.475	9.68
253.693	37.07
253.911	53.25
254.128	49.59
254.346	50.89
254.563	32.94
254.781	30.04
254.998	17.44
255.216	14.1
255.433	10.66
255.651	47.98
255.868	57.76
256.086	62.14
256.303	68.04
256.521	71.99
256.738	44.98
256.956	22.2
257.173	21.25
257.39	19.31
257.608	16.81
257.825	20.41
258.043	23.41
258.26	20.54
258.477	23.01
258.695	8.81
258.912	-35.74
259.129	-20.57
259.346	-46.5
259.564	-63.42
259.781	-27.23
259.998	-1.27
260.216	21.9
260.433	60.54
260.65	53.57
260.867	52.96
261.084	40.01
261.302	24.45
261.519	31.72
261.736	17.07
261.953	6.92
262.17	21.5
262.387	23.13
262.604	-6.44
262.822	11.33
263.039	11.49
263.256	7.64
263.473	1.34
263.69	-8.48
263.907	9.08
264.124	16.94
264.341	38.39
264.558	31.79
264.775	38.95
264.992	42.1
265.209	31.75
265.426	11.69
265.643	21.08
265.86	26.62
266.077	33.77
266.294	33.24
266.51	36.45
266.727	12.36
266.944	19.32
267.161	-13.34
267.378	-8.21
267.595	2.06
267.812	-20.77
268.028	-25.95
268.245	-10.6
268.462	-18.44
268.679	-28.69
268.896	21.26
269.112	13.25
269.329	9.81
269.546	35.45
269.763	33.84
269.979	32.73
270.196	30.51
270.413	26.76
270.629	-11.68
270.846	-18.15
271.063	-15.33
271.279	-25.11
271.496	-54.51
271.712	-43.38
271.929	-42.24
272.146	-30.33
272.362	-18.96
272.579	26.46
272.795	38.77
273.012	63
273.228	59
273.445	45.49
273.661	7.44
273.878	-41.53
274.094	-65.39
274.311	-86.9
274.527	-45.66
274.744	-23.38
274.96	3.24
275.177	21.44
275.393	22.74
275.609	21.02
275.826	36.24
276.042	41.69
276.259	48.19
276.475	43.44
276.691	34.44
276.908	18.81
277.124	44.8
277.34	37.05
277.557	31.71
277.773	33.7
277.989	28.19
278.205	15.61
278.422	8.89
278.638	17.77
278.854	17.71
279.07	33.35
279.286	9.36
279.503	-0.11
279.719	-2.24
279.935	-9.64
280.151	-30.35
280.367	2.73
280.583	17.14
280.799	15.4
281.016	17.46
281.232	26.01
281.448	19.16
281.664	25.56
281.88	20.32
282.096	16.4
282.312	38.25
282.528	50.43
282.744	45.6
282.96	61.35
283.176	74.43
283.392	60.63
283.608	47.19
283.824	35.8
284.04	24.47
284.256	38.08
284.471	27.35
284.687	20.63
284.903	26.3
285.119	38.59
285.335	6.3
285.551	13.47
285.767	17.03
285.982	-2.19
286.198	-17.15
286.414	5.36
286.63	3.66
286.846	17.45
287.061	2.92
287.277	5.83
287.493	7.57
287.709	15.79
287.924	4.79
288.14	43.47
288.356	61.46
288.571	60.22
288.787	52.19
289.003	57.06
289.218	21.93
289.434	-26.34
289.65	0.54
289.865	6.64
290.081	8.31
290.296	26.38
290.512	24.83
290.727	21.95
290.943	6.27
291.159	-0.32
291.374	-5.1
291.59	-16.73
291.805	-34.84
292.021	-13.25
292.236	-12.22
292.451	-9.11
292.667	16.16
292.882	29.21
293.098	40.39
293.313	46.12
293.529	46.86
293.744	27.07
293.959	-2.03
294.175	-11.12
294.39	4.44
294.605	6.68
294.821	15.9
295.036	15.98
295.251	29.13
295.467	12.09
295.682	16.12
295.897	-1.49
296.112	10.99
296.328	4.83
296.543	0.27
296.758	1.94
296.973	32.06
297.188	46.84
297.404	18.77
297.619	24.92
297.834	16.48
298.049	8.44
298.264	-10.03
298.479	17.78
298.694	16.64
298.909	37.21
299.125	45.61
299.34	58.42
299.555	46.4
299.77	58.93
299.985	5.46
300.2	-27.33
300.415	-56.68
300.63	-35.21
300.845	-43.82
301.06	-37.36
301.275	-14.16
301.49	3.53
301.704	-5.47
301.919	-25.7
302.134	-21.78
302.349	4.88
302.564	-13.48
302.779	8.99
302.994	46.1
303.209	50.63
303.423	49.6
303.638	82.94
303.853	50.59
304.068	19.72
304.283	16.92
304.497	1.35
304.712	-2.91
304.927	8.62
305.142	2.65
305.356	6.95
305.571	19.16
305.786	12.86
306	15.95
306.215	48.98
306.43	25.43
306.644	32.21
306.859	36.66
307.074	27.29
307.288	-6.92
307.503	2.59
307.717	-8.46
307.932	-12.09
308.147	-15.35
308.361	14.17
308.576	-7.71
308.79	-60.23
309.005	-24.68
309.219	-23.59
309.434	-15.91
309.648	-17.32
309.863	20.99
310.077	3.72
310.292	16.09
310.506	10.57
310.72	33.69
310.935	23.06
311.149	22.26
311.364	24.01
311.578	33.2
311.792	26.29
312.007	42.18
312.221	6.15
312.435	8.46
312.649	-10.95
312.864	34.49
313.078	21.98
313.292	74.04
313.507	63.57
313.721	55.83
313.935	36.19
314.149	57.34
314.363	39.98
314.578	28.38
314.792	23.45
315.006	28.04
315.22	12.8
315.434	15.02
315.648	17.36
315.862	18.27
316.077	-5.89
316.291	7.79
316.505	2.5
316.719	14.7
316.933	-14.66
317.147	13.64
317.361	-22.4
317.575	-10
317.789	-25.59
318.003	-13.89
318.217	-13.68
318.431	15.82
318.645	16.51
318.859	17.07
319.073	37.48
319.287	22.46
319.5	-7.31
319.714	-40.56
319.928	-36.61
320.142	-66.15
320.356	-19.7
320.57	4.76
320.784	7.78
320.997	6.11
321.211	23.52
321.425	-5.02
321.639	-35.1
321.853	3.97
322.066	1.81
322.28	-9.05
322.494	-0.13
322.707	51.12
322.921	22.47
323.135	30.03
323.349	42.04
323.562	30.54
323.776	4.3
323.989	19.15
324.203	0.9
324.417	-3.8
324.63	-23.34
324.844	-35.41
325.057	-44.81
325.271	-39.99
325.485	-41.43
325.698	10.08
325.912	30.45
326.125	25.36
326.339	42.73
326.552	46.22
326.766	35.95
326.979	35.72
327.193	47.75
327.406	23.82
327.619	26.06
327.833	31.2
328.046	11.13
328.26	2.58
328.473	7.2
328.686	-13.05
328.9	-15.52
329.113	-10.47
329.326	-22.31
329.54	-13.31
329.753	10.19
329.966	8.99
330.179	40.6
330.393	61.7
330.606	54.73
330.819	53.52
331.032	56.48
331.246	45.39
331.459	45.52
331.672	35.27
331.885	19.73
332.098	2.24
332.311	20.52
332.525	-3.14
332.738	10.37
332.951	32.4
333.164	42.46
333.377	45.15
333.59	65.47
333.803	52.36
334.016	33.84
334.229	27.69
334.442	21.7
334.655	26.27
334.868	41.23
335.081	41.86
335.294	34.89
335.507	30.16
335.72	21.96
335.933	9.73
336.146	12.46
336.359	21.41
336.572	5.76
336.785	0.66
336.997	-0.63
337.21	17.95
337.423	22.9
337.636	29.44
337.849	33.44
338.062	35.21
338.274	36.76
338.487	18.42
338.7	13.78
338.913	-3.94
339.125	-11.6
339.338	-15.3
339.551	-4.82
339.763	29.84
339.976	56.11
340.189	70.14
340.402	65.3
340.614	48.15
340.827	28.06
341.039	6.52
341.252	-18.43
341.465	-26.14
341.677	-23.65
341.89	-61.43
342.102	-49.19
342.315	-43.01
342.527	-66.45
342.74	-59.34
342.952	-10.25
343.165	-7.93
343.377	8.26
343.59	14.7
343.802	36.92
344.015	29.55
344.227	45.15
344.44	26.76
344.652	21.57
344.864	16.16
345.077	23.55
345.289	17.63
345.502	36.04
345.714	33.54
345.926	30.57
346.139	20.79
346.351	11.63
346.563	9.5
346.775	30.87
346.988	16.51
347.2	13.7
347.412	6.71
347.624	9.01
347.837	12.48
348.049	23.95
348.261	53.44
348.473	51.52
348.685	27.74
348.897	12.37
349.11	-1.45
349.322	-25.21
349.534	-0.24
349.746	13.53
349.958	15.5
350.17	25.68
350.382	30.35
350.594	23.1
350.806	21.96
351.018	8.87
351.23	11.04
351.442	4.46
351.654	13.05
351.866	6.2
352.078	15.07
352.29	10.26
352.502	15.55
352.714	14.87
352.926	27.94
353.138	31.43
353.35	9.33
353.561	6.29
353.773	-15.56
353.985	-8.98
354.197	-15.41
354.409	1.48
354.621	0.31
354.832	18.93
355.044	7.8
355.256	8.77
355.468	4.66
355.679	3.27
355.891	3.74
356.103	1.82
356.314	-2.44
356.526	17.61
356.738	40.78
356.949	43.16
357.161	46
357.373	48.74
357.584	42.65
357.796	28.21
358.008	21.03
358.219	32.27
358.431	37.98
358.642	37.7
358.854	37.63
359.065	35.85
359.277	15.73
359.488	3.56
359.7	-10.2
359.911	-24.3
360.123	-25.85
360.334	-27.73
360.546	-18.43
360.757	-9.36
360.969	11.22
361.18	39.07
361.391	44.63
361.603	42.18
361.814	66.33
362.025	35.2
362.237	5.3
362.448	11.11
362.659	21.45
362.871	8.92
363.082	15.47
363.293	25.29
363.504	26.11
363.716	23.29
363.927	30.08
364.138	15.76
364.349	-15.11
364.56	-15.63
364.772	-32.03
364.983	-35.73
365.194	-41.5
365.405	-11.1
365.616	-15.75
365.827	-22.33
366.038	-18.84
366.25	10.79
366.461	-15.08
366.672	5.69
366.883	25.22
367.094	23.84
367.305	4.12
367.516	33.83
367.727	18.34
367.938	-1.97
368.149	-9.78
368.36	7.63
368.571	-2.44
368.781	-2.65
368.992	-6.82
369.203	11.25
369.414	-3.26
369.625	-13.2
369.836	-15.31
370.047	-15.02
370.258	-14.23
370.468	-18.03
370.679	-41.81
370.89	-28.5
371.101	1.1
371.312	-22.53
371.522	-20.68
371.733	4.03
371.944	3.52
372.155	4.21
372.365	-6.1
372.576	8.82
372.787	6.77
372.997	-0.73
373.208	-0.35
373.419	20.26
373.629	2.9
373.84	-0.31
374.05	-13.69
374.261	-5.71
374.472	-20.22
374.682	-1.94
374.893	-5.39
375.103	18.3
375.314	7.39
375.524	17.35
375.735	28.32
375.945	37.75
376.156	11.81
376.366	20.05
376.577	15.93
376.787	7.86
376.997	16.16
377.208	32.71
377.418	4.79
377.629	19.27
377.839	9.51
378.049	1.03
378.26	9.96
378.47	33.45
378.68	24.19
378.89	25.4
379.101	21.4
379.311	0.58
379.521	-25.81
379.732	-23.93
379.942	-45.29
380.152	-30.31
380.362	-12.27
380.572	1.02
380.783	16.95
380.993	33.66
381.203	35.61
381.413	30.04
381.623	28.65
381.833	20.74
382.043	4.64
382.253	2.86
382.463	4.84
382.674	5.93
382.884	-11.79
383.094	-2.55
383.304	1.35
383.514	-0.13
383.724	-3.33
383.934	-4.97
384.144	-10.17
384.353	-14.23
384.563	-3.31
384.773	3.46
384.983	11.32
385.193	19.45
385.403	6.08
385.613	2.58
385.823	3.09
386.033	11.43
386.242	4.06
386.452	16.88
386.662	7.46
386.872	11.56
387.082	7.29
387.291	1.27
387.501	2.45
387.711	7.62
387.921	-4.99
388.13	-3.67
388.34	8.13
388.55	4.3
388.759	7.04
388.969	15.41
389.179	10.01
389.388	10.69
389.598	10.51
389.807	8.03
390.017	8.68
390.227	11.74
390.436	6.43
390.646	10.1
390.855	9.35
391.065	9.97
391.274	7.21
391.484	5.56
391.693	5.06
391.903	8.65
392.112	8.56
392.322	11.63
392.531	15.99
392.74	14.98
392.95	10.2
393.159	9.08
393.369	9.86
393.578	6.17
393.787	5.99
393.997	10.37
394.206	9.17
394.415	9.29
394.625	10.09
394.834	8.55
395.043	6.02
395.252	7.27
395.462	6.75
395.671	8.84
395.88	11.1
396.089	12.12
396.298	12.25
396.508	11.9
396.717	11.35
396.926	10.41
397.135	10.36
397.344	9.44
397.553	9.91
397.762	10.12
397.971	10.03
398.181	10.18
398.39	9.49
398.599	8.88
398.808	8.46
399.017	9.19
399.226	8.89
399.435	9.9
399.644	10.37
399.853	9.89
400.062	9
400.27	9.25
400.479	9.01
400.688	8.38
400.897	9
401.106	9.29
401.315	8.41
401.524	8.19
401.733	8.62
401.941	8.65
402.15	8.8
402.359	9.24
402.568	9.44
402.777	9.36
402.985	9.09
403.194	8.93
403.403	8.84
403.612	8.63
403.82	8.5
404.029	8.46
404.238	8.08
404.446	8.11
404.655	7.86
404.864	7.8
405.072	7.7
405.281	8.01
405.489	7.61
405.698	7.65
405.906	7.59
406.115	7.42
406.324	7.15
406.532	7.38
406.741	7.67
406.949	7.59
407.158	7.71
407.366	7.91
407.574	8.04
407.783	7.86
407.991	7.81
408.2	7.86
408.408	7.68
408.617	7.61
408.825	7.48
409.033	7.69
409.242	7.65
409.45	7.65
409.658	7.45
409.867	7.62
410.075	7.35
410.283	7.26
410.491	7.24
410.7	7.12
410.908	7.16
411.116	7.24
411.324	7.28
411.533	7.4
411.741	7.51
411.949	7.44
412.157	7.26
412.365	7.32
412.573	7.11
412.781	7.14
412.99	7.01
413.198	7.25
413.406	7.08
413.614	7.14
413.822	7.09
414.03	7.08
414.238	6.8
414.446	6.97
414.654	6.8
414.862	6.86
415.07	6.88
415.278	7.17
415.486	6.74
415.694	6.87
415.902	6.88
416.109	6.78
416.317	6.77
416.525	6.76
416.733	6.79
416.941	6.77
417.149	6.77
417.357	6.66
417.564	6.86
417.772	6.8
417.98	6.85
418.188	6.74
418.395	6.66
418.603	6.83
418.811	6.63
419.019	6.4
419.226	6.72
419.434	6.93
419.642	6.65
419.849	6.79
420.057	6.96
420.265	6.89
420.472	6.58
420.68	6.8
420.887	6.69
421.095	6.69
421.302	6.48
421.51	6.66
421.717	6.58
421.925	6.71
422.132	6.58
422.34	6.49
422.547	6.4
422.755	6.4
422.962	6.36
423.17	6.35
423.377	6.52
423.585	6.48
423.792	6.39
423.999	6.45
424.207	6.41
424.414	6.47
424.621	6.51
424.829	6.51
425.036	6.49
425.243	6.49
425.451	6.3
425.658	6.17
425.865	6.17
426.072	6.22
426.28	6.27
426.487	6.19
426.694	6.34
426.901	6.37
427.108	6.38
427.315	6.37
427.523	6.61
427.73	6.6
427.937	6.33
428.144	6.09
428.351	6.03
428.558	5.95
428.765	5.82
428.972	5.91
429.179	6.04
429.386	6.25
429.593	6.27
429.8	6.19
430.007	6.37
430.214	6.36
430.421	6.38
430.628	6.25
430.835	6.12
431.042	6.26
431.249	6.26
431.456	6.22
431.662	6.52
431.869	6.73
432.076	6.65
432.283	6.53
432.49	6.34
432.697	6.29
432.903	6.08
433.11	5.99
433.317	6.22
433.524	6.4
433.73	6.2
433.937	6.59
434.144	6.58
434.35	6.61
434.557	6.49
434.764	6.4
434.97	6.28
435.177	6.39
435.384	6.03
435.59	6.13
435.797	6.33
436.003	6.35
436.21	6.28
436.416	6.37
436.623	6.19
436.829	6.16
437.036	6.11
437.242	6.11
437.449	6.21
437.655	6.33
437.862	6.34
438.068	6.4
438.275	6.5
438.481	6.52
438.687	6.37
438.894	6.3
439.1	6.18
439.307	6.15
439.513	6.18
439.719	6.29
439.926	6.37
440.132	6.41
440.338	6.45
440.544	6.42
440.751	6.37
440.957	6.36
441.163	6.19
441.369	6.19
441.575	6.01
441.782	6.04
441.988	5.91
442.194	6.09
442.4	5.97
442.606	6.15
442.812	6.23
443.018	6.3
443.224	6.35
443.431	6.57
443.637	6.53
443.843	6.38
444.049	6.43
444.255	6.38
444.461	6.25
444.667	6.15
444.873	6.22
445.079	6.31
445.284	6.33
445.49	6.16
445.696	6.09
445.902	6.14
446.108	5.95
446.314	5.81
446.52	6.12
446.726	6.42
446.931	6.3
447.137	6.49
447.343	6.63
447.549	6.28
447.755	6.14
447.96	6.26
448.166	6.14
448.372	6.21
448.578	6.37
448.783	6.4
448.989	6.44
449.195	6.58
449.4	6.45
449.606	6.49
449.812	6.41
450.017	6.43
450.223	6.26
450.428	6.14
450.634	6.09
450.84	6.19
451.045	6.17
451.251	6.15
451.456	6.3
451.662	6.42
451.867	6.4
452.073	6.3
452.278	6.36
452.483	6.47
452.689	6.44
452.894	6.49
453.1	6.65
453.305	6.52
453.51	6.37
453.716	6.29
453.921	6.26
454.127	6.08
454.332	6.11
454.537	6.1
454.742	6.17
454.948	6.14
455.153	6.14
455.358	6.27
455.563	6.41
455.769	6.41
455.974	6.33
456.179	6.32
456.384	6.25
456.589	6.18
456.795	6.04
457	6.08
457.205	6.22
457.41	6.14
457.615	6.1
457.82	6.18
458.025	6.3
458.23	6.17
458.435	6.33
458.64	6.22
458.845	6.29
459.05	6.16
459.255	6.14
459.46	6.07
459.665	6.17
459.87	6.11
460.075	6.03
460.28	6.12
460.485	6.18
460.69	6.2
460.895	6.07
461.099	6
461.304	6.06
461.509	6.09
461.714	5.96
461.919	6.09
462.123	6.16
462.328	6.18
462.533	6.02
462.738	6.14
462.942	6.05
463.147	6.12
463.352	6.07
463.556	6.03
463.761	6.03
463.966	6.13
464.17	6.17
464.375	6.13
464.58	6.12
464.784	6.11
464.989	6.06
465.193	5.94
465.398	5.9
465.602	6.15
465.807	6.14
466.011	6.21
466.216	6.38
466.42	6.48
