Data from Ofra_PP_Phys_2GT10K_Reflection_3.txt Node
Date: Sat Jul 24 20:12:35 EDT 2021
User: USUARIO
Spectrometer: FLMT01687
Trigger mode: 0
Integration Time (sec): 1.100000E0
Scans to average: 2
Electric dark correction enabled: true
Nonlinearity correction enabled: false
Boxcar width: 2
XAxis mode: Wavelengths
Number of Pixels in Spectrum: 3648
>>>>>Begin Spectral Data<<<<<
179.494	661.87
179.716	864.39
179.937	1580.16
180.158	1382.16
180.38	634.56
180.601	-792.57
180.823	-7.63
181.044	348.06
181.265	-11.54
181.486	-62.91
181.708	-192.87
181.929	-3254.67
182.15	700.8
182.372	8.66
182.593	49033.33
182.814	785.13
183.035	264.28
183.257	204.36
183.478	86.78
183.699	137.23
183.92	45.55
184.141	53.2
184.363	-35.67
184.584	60.13
184.805	33.56
185.026	64.02
185.247	58.52
185.468	36.54
185.689	30.02
185.91	41.81
186.132	30.14
186.353	21.6
186.574	67.96
186.795	71.97
187.016	13.39
187.237	47.78
187.458	63.4
187.679	112.72
187.9	86.61
188.121	128.76
188.342	139.01
188.563	128.3
188.784	126.53
189.005	147.27
189.226	148.86
189.447	116.83
189.667	105.24
189.888	61.41
190.109	12.71
190.33	-37.92
190.551	-50.05
190.772	-48.19
190.993	-62.88
191.214	-36.84
191.434	-16.15
191.655	47.84
191.876	7.4
192.097	-11.41
192.318	-15.75
192.538	-41.56
192.759	-74.63
192.98	-23.62
193.201	11.82
193.421	-14.71
193.642	18.09
193.863	13.53
194.083	-21.84
194.304	-18.3
194.525	7.91
194.745	25.35
194.966	-26.43
195.187	-42.27
195.407	-101.21
195.628	-147.84
195.848	-168.45
196.069	-167.5
196.29	-153.62
196.51	-183.32
196.731	-199.97
196.951	-176.54
197.172	-129.19
197.392	-118.13
197.613	-71.39
197.833	-74.9
198.054	-113.5
198.274	-105.3
198.495	-173.88
198.715	-131.9
198.936	-121.3
199.156	-77.35
199.377	-102.83
199.597	-100.21
199.817	-109.43
200.038	-48.06
200.258	-12.1
200.479	52.42
200.699	76.59
200.919	63.45
201.14	2.91
201.36	-35.35
201.58	-59.78
201.801	-38.84
202.021	-43.79
202.241	1.84
202.461	-3.7
202.682	-33.17
202.902	-22.54
203.122	-38.8
203.342	-36.32
203.563	11.19
203.783	32.23
204.003	-55.83
204.223	-131.2
204.443	-18.26
204.663	-65.95
204.884	-46.41
205.104	29.82
205.324	87.01
205.544	60.83
205.764	70.41
205.984	80.25
206.204	85.41
206.424	69.63
206.644	-2.43
206.864	37.38
207.084	25.79
207.304	37.39
207.525	-7.97
207.745	26.03
207.964	0.17
208.184	-15.18
208.404	-27.12
208.624	-17.68
208.844	-1.97
209.064	-39.64
209.284	-24.46
209.504	-17.33
209.724	10.87
209.944	-2.21
210.164	30.11
210.384	50.23
210.604	54.2
210.823	-9.79
211.043	-55.74
211.263	-40.47
211.483	-89.93
211.703	-117.26
211.922	-58.37
212.142	25.28
212.362	31.94
212.582	25.6
212.801	33.81
213.021	2.97
213.241	1.94
213.461	-37.21
213.68	-55.14
213.9	-41.58
214.12	-9.17
214.339	-69.68
214.559	-61.75
214.779	-20.26
214.998	-4.6
215.218	-53.77
215.438	-47.75
215.657	-58.14
215.877	-34.98
216.096	-18.29
216.316	39.23
216.535	41.49
216.755	55.99
216.974	32.88
217.194	22.28
217.413	-8.71
217.633	-5.18
217.852	-65.66
218.072	-63.26
218.291	-55.62
218.511	-12.58
218.73	-92.03
218.95	-89.48
219.169	-74.55
219.389	-122.67
219.608	-152.9
219.827	-57.28
220.047	-19.54
220.266	-29.36
220.485	-22.94
220.705	25.82
220.924	-35.25
221.143	-4.33
221.363	-61.6
221.582	-17.73
221.801	-46.69
222.021	4.95
222.24	5.52
222.459	70.31
222.678	45.6
222.897	43.71
223.117	26.35
223.336	10.06
223.555	25.23
223.774	67.21
223.993	99.37
224.213	169.05
224.432	111.57
224.651	130.28
224.87	93.59
225.089	94.15
225.308	71.35
225.527	89.58
225.746	74.06
225.965	51.28
226.184	31.28
226.404	36.37
226.623	9.25
226.842	5.93
227.061	47.73
227.28	55.49
227.499	72.04
227.718	112.45
227.936	98.42
228.155	81.5
228.374	33.56
228.593	-10.49
228.812	-12.71
229.031	-12.74
229.25	-32.24
229.469	18.23
229.688	27.69
229.907	35.45
230.125	55.74
230.344	75.38
230.563	64.76
230.782	89.26
231.001	18.1
231.22	4.06
231.438	-11.28
231.657	-10.4
231.876	-16.09
232.095	34.31
232.313	51.28
232.532	49.59
232.751	58.66
232.969	40.3
233.188	38.16
233.407	41.88
233.625	8.39
233.844	-7.54
234.063	-4.63
234.281	23.53
234.5	5.4
234.719	23.74
234.937	39.64
235.156	42.18
235.374	27.28
235.593	25.37
235.811	23.76
236.03	17.59
236.249	5.56
236.467	11.13
236.686	9.69
236.904	26.23
237.123	-34.37
237.341	-12.98
237.559	-25.79
237.778	-15.29
237.996	-28.58
238.215	21.19
238.433	13.36
238.652	38.04
238.87	-30.33
239.088	-10.56
239.307	-8.11
239.525	-1.37
239.743	-56.77
239.962	-2.32
240.18	-40.84
240.398	-82.82
240.617	-106.38
240.835	-50.91
241.053	-84.73
241.271	-2.56
241.49	17.17
241.708	22.54
241.926	21.75
242.144	32.49
242.363	-2.33
242.581	-2.58
242.799	14.85
243.017	15.58
243.235	-28.52
243.453	-16.72
243.672	-42.27
243.89	-25.23
244.108	-16.23
244.326	26.37
244.544	17.34
244.762	14.48
244.98	16.87
245.198	12.73
245.416	-19.25
245.634	-16.64
245.852	11.51
246.07	1.19
246.288	14.63
246.506	19.01
246.724	38.95
246.942	25.12
247.16	30.27
247.378	36.26
247.596	49.99
247.814	41.37
248.032	1.61
248.25	4.21
248.468	1.18
248.685	17.87
248.903	39.67
249.121	66.81
249.339	11.97
249.557	5.37
249.775	-9.1
249.992	-105.69
250.21	-134.85
250.428	-74.63
250.646	-78.84
250.863	-77.11
251.081	-37.33
251.299	12.44
251.517	9.98
251.734	8.47
251.952	7.59
252.17	12.49
252.387	27.45
252.605	0.81
252.823	4.54
253.04	23.61
253.258	42.94
253.475	25
253.693	68.3
253.911	90.85
254.128	77.74
254.346	68.17
254.563	39.89
254.781	3.14
254.998	-5.99
255.216	-16.67
255.433	-24.45
255.651	14.47
255.868	47.1
256.086	54.06
256.303	55.15
256.521	67.93
256.738	52.37
256.956	8.63
257.173	3.27
257.39	-7.75
257.608	-7.23
257.825	1.26
258.043	21.19
258.26	26.08
258.477	35.99
258.695	44.17
258.912	4.02
259.129	-4.66
259.346	-40.98
259.564	-44.2
259.781	-25.42
259.998	-6.8
260.216	29.69
260.433	67.71
260.65	60.5
260.867	57.83
261.084	35.17
261.302	16.65
261.519	19.82
261.736	-2.65
261.953	-18.24
262.17	16.33
262.387	2.54
262.604	-18.22
262.822	-22.54
263.039	-23.13
263.256	-57.42
263.473	-31.97
263.69	-53.13
263.907	-1.24
264.124	21.41
264.341	80
264.558	62.77
264.775	55.52
264.992	63.02
265.209	52.39
265.426	24.93
265.643	33.71
265.86	34.86
266.077	28.6
266.294	9.49
266.51	11.8
266.727	-11.61
266.944	11.84
267.161	-23.38
267.378	-3.02
267.595	-16.15
267.812	-42.74
268.028	-53.34
268.245	-26.38
268.462	-43.25
268.679	-16.84
268.896	40.55
269.112	33.97
269.329	31.7
269.546	40.91
269.763	26.33
269.979	13.23
270.196	13.86
270.413	-3.48
270.629	-31.64
270.846	-32.91
271.063	-18.46
271.279	-40.78
271.496	-65.22
271.712	-47.68
271.929	-28.75
272.146	-19.77
272.362	-2.11
272.579	50.71
272.795	58.34
273.012	67.22
273.228	49.67
273.445	21.32
273.661	-36.44
273.878	-133.68
274.094	-139.83
274.311	-161.17
274.527	-107.79
274.744	-63.4
274.96	11.43
275.177	26.36
275.393	24.97
275.609	40.93
275.826	47.76
276.042	38.57
276.259	29.02
276.475	20.68
276.691	24.22
276.908	3.66
277.124	39.32
277.34	30.92
277.557	34.38
277.773	26.91
277.989	20.6
278.205	7.6
278.422	8.8
278.638	29.09
278.854	39.26
279.07	41.27
279.286	1.89
279.503	-16.6
279.719	-25.31
279.935	-49.06
280.151	-60.81
280.367	-17.12
280.583	2.18
280.799	-9.35
281.016	2.67
281.232	26.77
281.448	34.81
281.664	52.24
281.88	45.82
282.096	36.2
282.312	51.24
282.528	48.21
282.744	50.69
282.96	62.68
283.176	61.2
283.392	42.04
283.608	40.23
283.824	19.88
284.04	9.89
284.256	39.61
284.471	26.16
284.687	10.83
284.903	30.6
285.119	64.88
285.335	28.04
285.551	47.07
285.767	45.34
285.982	20.84
286.198	-17.95
286.414	12.71
286.63	9.54
286.846	39.55
287.061	-2.4
287.277	9.71
287.493	2.77
287.709	15.03
287.924	11.88
288.14	68.54
288.356	80.77
288.571	100.44
288.787	77.09
289.003	70.05
289.218	58.32
289.434	-6.52
289.65	-6.27
289.865	15.39
290.081	17.56
290.296	14.92
290.512	11.37
290.727	6.5
290.943	-13.6
291.159	-26.21
291.374	-25.39
291.59	-32.84
291.805	-48.37
292.021	-28.4
292.236	-40.82
292.451	-35.81
292.667	-10.55
292.882	7.92
293.098	21.87
293.313	10.99
293.529	-2.2
293.744	-36.37
293.959	-77.69
294.175	-78.48
294.39	-39.13
294.605	-12.36
294.821	31.55
295.036	36.48
295.251	57.56
295.467	37.18
295.682	26.66
295.897	-4.94
296.112	-8.47
296.328	-19.03
296.543	-18.71
296.758	-36.63
296.973	16.7
297.188	56.95
297.404	22.32
297.619	14.19
297.834	19.43
298.049	11.79
298.264	-14.55
298.479	24.45
298.694	48.35
298.909	67.01
299.125	53.32
299.34	74.45
299.555	50.86
299.77	56.57
299.985	-29.48
300.2	-63.56
300.415	-104.8
300.63	-73.68
300.845	-72.86
301.06	-56.23
301.275	-22.02
301.49	2.25
301.704	-27.01
301.919	-74.51
302.134	-67.09
302.349	-29.33
302.564	-60.91
302.779	-26.08
302.994	33.58
303.209	43.72
303.423	36.04
303.638	86.39
303.853	58.9
304.068	8.09
304.283	11.56
304.497	2.74
304.712	7.13
304.927	15.22
305.142	19.53
305.356	33.11
305.571	39.48
305.786	19.89
306	11.45
306.215	34.36
306.43	2.63
306.644	10.27
306.859	33.96
307.074	24.9
307.288	-9.12
307.503	7.47
307.717	-13.69
307.932	-18.31
308.147	-12.59
308.361	28.54
308.576	0.29
308.79	-58.66
309.005	-52.1
309.219	-61.86
309.434	-52.22
309.648	-62.59
309.863	0.42
310.077	6.52
310.292	15.97
310.506	-8.06
310.72	32.55
310.935	44.58
311.149	34.42
311.364	47.1
311.578	67.15
311.792	40.46
312.007	33.31
312.221	-17.16
312.435	8.52
312.649	-33.02
312.864	9.49
313.078	14.1
313.292	75.44
313.507	36.93
313.721	38.08
313.935	31.91
314.149	33.76
314.363	17.59
314.578	9.7
314.792	6.57
315.006	14.34
315.22	2.73
315.434	18.75
315.648	35.01
315.862	37.16
316.077	39.72
316.291	49.99
316.505	19.81
316.719	24.32
316.933	-20.32
317.147	-6.22
317.361	-53.76
317.575	-31.93
317.789	-46.14
318.003	-34.39
318.217	-26.09
318.431	15.19
318.645	26.41
318.859	17.32
319.073	48.05
319.287	26.19
319.5	-12.14
319.714	-55.38
319.928	-49.9
320.142	-64.39
320.356	6.86
320.57	37.63
320.784	40.72
320.997	57.32
321.211	57.69
321.425	-2.8
321.639	-46.65
321.853	-10.26
322.066	-36.9
322.28	-54.97
322.494	-22.31
322.707	42.42
322.921	11.95
323.135	9.44
323.349	19.5
323.562	-6.82
323.776	-55.43
323.989	-40.32
324.203	-45.21
324.417	-33.38
324.63	-51.74
324.844	-59.26
325.057	-70.09
325.271	-60.35
325.485	-56.77
325.698	-4.87
325.912	34.45
326.125	24.66
326.339	39.37
326.552	43.22
326.766	48.98
326.979	38.66
327.193	59.67
327.406	42.88
327.619	29.25
327.833	31.03
328.046	12.52
328.26	-1.59
328.473	-5.77
328.686	-24.31
328.9	-23.01
329.113	-20.91
329.326	-51.39
329.54	-26.42
329.753	-21.32
329.966	-35.72
330.179	-6.34
330.393	21
330.606	5
330.819	35.81
331.032	46.81
331.246	47.94
331.459	73.15
331.672	57.51
331.885	25.18
332.098	-10.03
332.311	1.16
332.525	-29.54
332.738	-18.02
332.951	13.27
333.164	39.15
333.377	39.04
333.59	71.5
333.803	61.29
334.016	44.92
334.229	26.5
334.442	28.39
334.655	34.22
334.868	38.89
335.081	41.78
335.294	37.15
335.507	29.81
335.72	13.73
335.933	3.93
336.146	-1.6
336.359	19.1
336.572	-1.55
336.785	-7.71
336.997	-4.5
337.21	15.98
337.423	3.06
337.636	14.09
337.849	24.68
338.062	24.37
338.274	27.6
338.487	8.67
338.7	11.18
338.913	-18.44
339.125	-24.42
339.338	-23.28
339.551	-2.41
339.763	14
339.976	42.11
340.189	55.89
340.402	58.75
340.614	43.84
340.827	29.53
341.039	8.25
341.252	-19.81
341.465	-34.75
341.677	-39.26
341.89	-74.92
342.102	-49.89
342.315	-32.99
342.527	-46.07
342.74	-47.84
342.952	15.58
343.165	6.73
343.377	22.08
343.59	8.22
343.802	46.22
344.015	33.73
344.227	58.85
344.44	53.81
344.652	58.53
344.864	40.04
345.077	67.06
345.289	39.84
345.502	48.88
345.714	46.64
345.926	54.75
346.139	30.09
346.351	37.5
346.563	34
346.775	50.37
346.988	24.56
347.2	16.59
347.412	-13.28
347.624	-17.72
347.837	-12.52
348.049	15.48
348.261	43.6
348.473	42.6
348.685	-2.21
348.897	-19.85
349.11	-30.93
349.322	-44.19
349.534	-8.29
349.746	22.65
349.958	36.03
350.17	29.38
350.382	28.47
350.594	19.88
350.806	15.28
351.018	-0.05
351.23	3.04
351.442	-1.96
351.654	1.27
351.866	7.17
352.078	24.15
352.29	20.23
352.502	49.54
352.714	64.34
352.926	50.41
353.138	39.23
353.35	12.87
353.561	-5.96
353.773	-34.67
353.985	-24.82
354.197	-25.54
354.409	-10.71
354.621	-5.44
354.832	5.65
355.044	-16.34
355.256	-23.11
355.468	-21.48
355.679	-35.7
355.891	-32.01
356.103	-33.69
356.314	-33.78
356.526	-25.83
356.738	5.34
356.949	0.07
357.161	24.64
357.373	28.84
357.584	31.11
357.796	18.82
358.008	6.4
358.219	17.16
358.431	19.2
358.642	30.88
358.854	36.2
359.065	39.27
359.277	6.56
359.488	-1.77
359.7	-27.33
359.911	-45.02
360.123	-42.75
360.334	-39.55
360.546	-45.05
360.757	-36.58
360.969	-25.96
361.18	-6.5
361.391	-5.74
361.603	-9.04
361.814	20.08
362.025	-2.04
362.237	-7.23
362.448	3.94
362.659	32.26
362.871	16.92
363.082	25.17
363.293	28.51
363.504	28.02
363.716	0.29
363.927	3.86
364.138	-6.47
364.349	-39.82
364.56	-46.89
364.772	-60.5
364.983	-43.15
365.194	-50.48
365.405	-27.97
365.616	-7.52
365.827	4.18
366.038	-7.37
366.25	15.41
366.461	-0.81
366.672	5.11
366.883	21.27
367.094	15.69
367.305	-7.17
367.516	17.79
367.727	4
367.938	-20
368.149	-33.24
368.36	-13.95
368.571	-18.29
368.781	-25.52
368.992	-31.68
369.203	0.56
369.414	-15.85
369.625	-26.88
369.836	-29.91
370.047	-35.77
370.258	-46.05
370.468	-38.63
370.679	-70.66
370.89	-54.94
371.101	-10.83
371.312	-44.43
371.522	-41.33
371.733	-19.97
371.944	-9.09
372.155	-10.04
372.365	-22.84
372.576	-8.74
372.787	-7.71
372.997	-13.01
373.208	-17.07
373.419	25.19
373.629	-1.29
373.84	4.53
374.05	-14.76
374.261	-0.15
374.472	-35.05
374.682	1.33
374.893	-6.61
375.103	22.31
375.314	5.09
375.524	13.99
375.735	15.45
375.945	15.94
376.156	-9.23
376.366	3.27
376.577	14.49
376.787	9.63
376.997	28.33
377.208	37.24
377.418	9.86
377.629	18.09
377.839	4.58
378.049	-3.26
378.26	12.38
378.47	40.58
378.68	32.37
378.89	37.43
379.101	34.12
379.311	3.26
379.521	-25.26
379.732	-22.49
379.942	-46.35
380.152	-43.02
380.362	-22.45
380.572	-15.15
380.783	0.12
380.993	20.47
381.203	26.45
381.413	28.78
381.623	31.65
381.833	19.7
382.043	-2.68
382.253	-10.95
382.463	-11.83
382.674	-13.26
382.884	-21
383.094	-14.12
383.304	-5.03
383.514	-3.64
383.724	6.86
383.934	-5.51
384.144	-12.28
384.353	-8.24
384.563	-3.74
384.773	-4.04
384.983	10.98
385.193	18.48
385.403	-0.34
385.613	-3.38
385.823	-10.52
386.033	-6.27
386.242	-12.13
386.452	-1.5
386.662	-9.72
386.872	-1.97
387.082	-0.27
387.291	-8.56
387.501	-2.08
387.711	5.75
387.921	-9.19
388.13	-6.5
388.34	11.18
388.55	3.34
388.759	3.37
388.969	13.51
389.179	8.6
389.388	6.61
389.598	6.66
389.807	3.25
390.017	1.76
390.227	0.15
390.436	-5.71
390.646	0.09
390.855	3
391.065	5.83
391.274	4.15
391.484	1.9
391.693	1.39
391.903	1.47
392.112	2.38
392.322	7.28
392.531	13.25
392.74	11.89
392.95	6.9
393.159	5.12
393.369	5.49
393.578	1.83
393.787	0.72
393.997	4.97
394.206	3.3
394.415	2.42
394.625	3.09
394.834	1.68
395.043	0.19
395.252	3.16
395.462	4.65
395.671	6.89
395.88	8.73
396.089	9.8
396.298	8
396.508	7.07
396.717	6.18
396.926	5.6
397.135	5.78
397.344	5.2
397.553	5.15
397.762	5.79
397.971	5.66
398.181	5.24
398.39	3.85
398.599	3.32
398.808	2.47
399.017	3.47
399.226	3.84
399.435	6.02
399.644	6.4
399.853	6
400.062	5.22
400.27	5.08
400.479	4.43
400.688	3.56
400.897	4.19
401.106	4.17
401.315	3.59
401.524	3.63
401.733	4.46
401.941	4.5
402.15	4.7
402.359	4.69
402.568	5.03
402.777	4.84
402.985	4.59
403.194	4.55
403.403	4.99
403.612	4.44
403.82	4.28
404.029	4.37
404.238	4.04
404.446	4.01
404.655	3.8
404.864	3.76
405.072	3.56
405.281	3.96
405.489	3.57
405.698	3.71
405.906	3.64
406.115	3.54
406.324	3.22
406.532	3.33
406.741	3.61
406.949	3.52
407.158	3.61
407.366	3.79
407.574	4
407.783	3.89
407.991	3.96
408.2	4.17
408.408	3.87
408.617	3.68
408.825	3.42
409.033	3.54
409.242	3.53
409.45	3.77
409.658	3.62
409.867	3.97
410.075	3.77
410.283	3.57
410.491	3.48
410.7	3.41
410.908	3.4
411.116	3.59
411.324	3.66
411.533	3.71
411.741	3.92
411.949	3.98
412.157	3.82
412.365	3.89
412.573	3.82
412.781	3.82
412.99	3.56
413.198	3.82
413.406	3.73
413.614	3.76
413.822	3.72
414.03	3.67
414.238	3.37
414.446	3.53
414.654	3.21
414.862	3.25
415.07	3.38
415.278	3.63
415.486	3.1
415.694	3.33
415.902	3.21
416.109	3.01
416.317	2.97
416.525	2.83
416.733	2.97
416.941	3.1
417.149	3.17
417.357	3.12
417.564	3.55
417.772	3.47
417.98	3.38
418.188	3.33
418.395	3.26
418.603	3.36
418.811	3.08
419.019	2.88
419.226	3.3
419.434	3.56
419.642	3.19
419.849	3.46
420.057	3.81
420.265	3.49
420.472	2.97
420.68	3.32
420.887	3.14
421.095	3.14
421.302	3.06
421.51	3.45
421.717	3.4
421.925	3.47
422.132	3.15
422.34	3.08
422.547	2.95
422.755	2.96
422.962	2.98
423.17	3.01
423.377	3.11
423.585	3.19
423.792	3.07
423.999	3.21
424.207	3.2
424.414	3.23
424.621	3.23
424.829	3.15
425.036	2.98
425.243	2.93
425.451	2.8
425.658	2.6
425.865	2.8
426.072	2.93
426.28	3.08
426.487	2.91
426.694	3.05
426.901	3.11
427.108	3.1
427.315	3
427.523	3.44
427.73	3.41
427.937	2.99
428.144	2.8
428.351	2.77
428.558	2.66
428.765	2.58
428.972	2.58
429.179	2.71
429.386	2.84
429.593	2.66
429.8	2.51
430.007	2.82
430.214	2.88
430.421	2.92
430.628	2.86
430.835	2.7
431.042	2.94
431.249	2.87
431.456	2.93
431.662	3.23
431.869	3.54
432.076	3.46
432.283	3.45
432.49	3.33
432.697	3.23
432.903	2.86
433.11	2.71
433.317	2.86
433.524	3.02
433.73	2.89
433.937	3.34
434.144	3.26
434.35	3.19
434.557	3.06
434.764	3.1
434.97	2.95
435.177	3.12
435.384	2.78
435.59	2.89
435.797	3.08
436.003	3.16
436.21	3.06
436.416	3.24
436.623	3.01
436.829	2.92
437.036	2.92
437.242	2.92
437.449	2.94
437.655	2.99
437.862	2.93
438.068	2.98
438.275	3.07
438.481	3.2
438.687	3.22
438.894	3.2
439.1	3.06
439.307	3.07
439.513	2.99
439.719	3.14
439.926	3.19
440.132	3.22
440.338	3.11
440.544	3.16
440.751	2.99
440.957	3.05
441.163	2.78
441.369	2.83
441.575	2.63
441.782	2.52
441.988	2.27
442.194	2.43
442.4	2.39
442.606	2.69
442.812	2.86
443.018	3.02
443.224	3.12
443.431	3.2
443.637	3.02
443.843	2.81
444.049	2.85
444.255	2.83
444.461	2.76
444.667	2.67
444.873	2.86
445.079	2.85
445.284	2.94
445.49	2.76
445.696	2.59
445.902	2.51
446.108	2.38
446.314	2.2
446.52	2.44
446.726	2.8
446.931	2.77
447.137	2.89
447.343	3.1
447.549	2.75
447.755	2.6
447.96	2.62
448.166	2.47
448.372	2.38
448.578	2.55
448.783	2.56
448.989	2.67
449.195	2.9
449.4	2.83
449.606	2.83
449.812	2.72
450.017	2.83
450.223	2.67
450.428	2.45
450.634	2.58
450.84	2.75
451.045	2.52
451.251	2.5
451.456	2.89
451.662	2.98
451.867	2.9
452.073	2.83
452.278	2.98
452.483	3.06
452.689	2.95
452.894	3.09
453.1	3.21
453.305	2.92
453.51	2.7
453.716	2.59
453.921	2.6
454.127	2.53
454.332	2.6
454.537	2.55
454.742	2.63
454.948	2.59
455.153	2.56
455.358	2.68
455.563	2.9
455.769	2.95
455.974	2.82
456.179	2.78
456.384	2.73
456.589	2.64
456.795	2.43
457	2.42
457.205	2.62
457.41	2.53
457.615	2.46
457.82	2.54
458.025	2.7
458.23	2.49
458.435	2.76
458.64	2.54
458.845	2.67
459.05	2.59
459.255	2.57
459.46	2.43
459.665	2.56
459.87	2.51
460.075	2.36
460.28	2.48
460.485	2.55
460.69	2.63
460.895	2.44
461.099	2.43
461.304	2.58
461.509	2.66
461.714	2.45
461.919	2.63
462.123	2.57
462.328	2.58
462.533	2.25
462.738	2.4
462.942	2.27
463.147	2.46
463.352	2.51
463.556	2.56
463.761	2.71
463.966	2.9
