Data from Ofra_PP_Phys_2CX12S_Reflection_2.txt Node
Date: Sat Jul 24 20:04:16 EDT 2021
User: USUARIO
Spectrometer: FLMT01687
Trigger mode: 0
Integration Time (sec): 1.100000E0
Scans to average: 2
Electric dark correction enabled: true
Nonlinearity correction enabled: false
Boxcar width: 2
XAxis mode: Wavelengths
Number of Pixels in Spectrum: 3648
>>>>>Begin Spectral Data<<<<<
179.494	561.87
179.716	665.44
179.937	1191.97
180.158	965.71
180.38	469.74
180.601	-337.13
180.823	-13.02
181.044	229.46
181.265	-33.26
181.486	25.67
181.708	-65.79
181.929	-586.67
182.15	-20.88
182.372	-26.05
182.593	17733.33
182.814	100.51
183.035	131.01
183.257	70.63
183.478	25.17
183.699	34
183.92	-24.58
184.141	10.34
184.363	-21.72
184.584	54.21
184.805	30.21
185.026	56.62
185.247	50.13
185.468	28.97
185.689	19.37
185.91	44.1
186.132	45.73
186.353	50.89
186.574	86.95
186.795	94
187.016	45.06
187.237	51.91
187.458	28.32
187.679	26.84
187.9	64.26
188.121	118.67
188.342	137.69
188.563	128.5
188.784	120.37
189.005	116.99
189.226	91.39
189.447	85.8
189.667	75.03
189.888	47.88
190.109	24.65
190.33	4.32
190.551	-14.79
190.772	-28.75
190.993	-29.8
191.214	-20
191.434	-15.08
191.655	12.96
191.876	22.87
192.097	7.33
192.318	3.38
192.538	-13.46
192.759	-26.36
192.98	-16.98
193.201	-11.38
193.421	-19.05
193.642	11.22
193.863	15.23
194.083	12.78
194.304	24.57
194.525	48.45
194.745	32.86
194.966	13.89
195.187	-3.54
195.407	-28.47
195.628	-86.48
195.848	-45.4
196.069	-62.33
196.29	-22.89
196.51	-72.95
196.731	-73.93
196.951	-83.21
197.172	-68.62
197.392	-83.17
197.613	-37.33
197.833	-30.18
198.054	-37.21
198.274	-28.97
198.495	-71.3
198.715	-37.59
198.936	-58.71
199.156	-12.18
199.377	-26.67
199.597	-2.13
199.817	-17.5
200.038	27.83
200.258	-0.78
200.479	45.96
200.699	41.64
200.919	42.08
201.14	7.72
201.36	8.06
201.58	12.8
201.801	32.3
202.021	44.7
202.241	65.17
202.461	63.93
202.682	33.9
202.902	18.19
203.122	-11.5
203.342	5.28
203.563	22.42
203.783	36.93
204.003	-7.1
204.223	-25.93
204.443	27.27
204.663	28.5
204.884	-13.3
205.104	14.16
205.324	63.3
205.544	45.82
205.764	25.06
205.984	55.65
206.204	65.86
206.424	36.24
206.644	9.94
206.864	36.38
207.084	6.64
207.304	19.85
207.525	3.9
207.745	13.67
207.964	4.21
208.184	7.29
208.404	-7.84
208.624	0.59
208.844	-0.98
209.064	-35.42
209.284	-34.4
209.504	-24.37
209.724	-33.07
209.944	-33.51
210.164	20.76
210.384	49.93
210.604	40.34
210.823	22.58
211.043	-12.07
211.263	-5.85
211.483	-36.77
211.703	-38.55
211.922	-14.78
212.142	49.31
212.362	44.19
212.582	43.78
212.801	45.74
213.021	26.88
213.241	12.17
213.461	6.91
213.68	-12.6
213.9	-21.48
214.12	-11.19
214.339	-17.49
214.559	-19.51
214.779	22.66
214.998	41.73
215.218	18.03
215.438	21.7
215.657	5.96
215.877	5.26
216.096	-7.48
216.316	32.36
216.535	10.65
216.755	27.32
216.974	18.43
217.194	27.78
217.413	18.74
217.633	30.11
217.852	-23.27
218.072	-39.55
218.291	-50.66
218.511	-36.18
218.73	-78.74
218.95	-51.21
219.169	-43.46
219.389	-64.55
219.608	-73.89
219.827	-19.59
220.047	-2.4
220.266	1.93
220.485	10.56
220.705	22.5
220.924	-6.42
221.143	5.85
221.363	-26.94
221.582	0.06
221.801	7.18
222.021	35.73
222.24	20.85
222.459	46.99
222.678	25.96
222.897	3.11
223.117	2.76
223.336	24.65
223.555	32.71
223.774	55.63
223.993	86.49
224.213	110.05
224.432	60.88
224.651	83.26
224.87	66.64
225.089	74.92
225.308	69.37
225.527	97.86
225.746	84.27
225.965	70.27
226.184	51.1
226.404	47.55
226.623	29.42
226.842	29.56
227.061	56.62
227.28	62.64
227.499	60.65
227.718	70.72
227.936	62.32
228.155	42.64
228.374	14.13
228.593	-2.26
228.812	-4.15
229.031	13.58
229.25	6.42
229.469	27.33
229.688	34.96
229.907	25.62
230.125	41.71
230.344	50.03
230.563	37.64
230.782	50.19
231.001	9.69
231.22	-4.45
231.438	-23
231.657	5.04
231.876	0.23
232.095	43.51
232.313	32.95
232.532	33.59
232.751	27.74
232.969	28.01
233.188	23.98
233.407	27.81
233.625	21.27
233.844	19.98
234.063	1.95
234.281	24.94
234.5	38.33
234.719	53.1
234.937	54.91
235.156	60.7
235.374	52.94
235.593	60.65
235.811	52.52
236.03	59.38
236.249	42.02
236.467	48.56
236.686	19.61
236.904	26.55
237.123	-26.52
237.341	-4.69
237.559	-25.63
237.778	-12.39
237.996	-28.29
238.215	8.08
238.433	8.05
238.652	13.74
238.87	-21.17
239.088	-10.8
239.307	3.38
239.525	-4.68
239.743	-22.79
239.962	3.01
240.18	-12.58
240.398	-36.55
240.617	-46.31
240.835	-19.46
241.053	-37.32
241.271	8.21
241.49	28.39
241.708	43.11
241.926	52.36
242.144	49.69
242.363	26.02
242.581	10.79
242.799	22.74
243.017	9.14
243.235	-14.13
243.453	24.37
243.672	20.07
243.89	10.97
244.108	30.77
244.326	66.14
244.544	43.99
244.762	40
244.98	51.13
245.198	57.31
245.416	38.42
245.634	40.72
245.852	43.03
246.07	29.54
246.288	14.4
246.506	7.2
246.724	13.82
246.942	18.56
247.16	17.74
247.378	24.32
247.596	32.79
247.814	29.91
248.032	-2.53
248.25	7.72
248.468	6.11
248.685	22.66
248.903	22.79
249.121	42.1
249.339	14.99
249.557	5.92
249.775	-25.97
249.992	-49.81
250.21	-65.06
250.428	-33.59
250.646	-34.84
250.863	-27.28
251.081	-12.47
251.299	14.81
251.517	6.94
251.734	10.82
251.952	0.88
252.17	9.49
252.387	21.69
252.605	4.1
252.823	11.06
253.04	21.19
253.258	29.11
253.475	15.16
253.693	29.74
253.911	24.45
254.128	33.51
254.346	28.94
254.563	9.54
254.781	3.56
254.998	6.75
255.216	2.2
255.433	-2.34
255.651	19.8
255.868	32.82
256.086	27.04
256.303	21.25
256.521	11.5
256.738	-7.98
256.956	-11.71
257.173	3.97
257.39	7.92
257.608	19.14
257.825	30.56
258.043	34.7
258.26	26.18
258.477	23.71
258.695	13.31
258.912	-6.97
259.129	-4.7
259.346	-17.28
259.564	-15.36
259.781	-6.36
259.998	-4.83
260.216	13.01
260.433	40.43
260.65	29.32
260.867	34.28
261.084	25.63
261.302	17.57
261.519	7.83
261.736	1.14
261.953	-15.62
262.17	8.61
262.387	4.33
262.604	-8.3
262.822	-5.89
263.039	-6.05
263.256	-21.17
263.473	-17.78
263.69	-27.64
263.907	-7.16
264.124	26.78
264.341	44.23
264.558	20.95
264.775	25.56
264.992	34.87
265.209	14.43
265.426	11.85
265.643	39.28
265.86	38.98
266.077	38.25
266.294	41.42
266.51	35.06
266.727	22.37
266.944	34.3
267.161	20.81
267.378	28.78
267.595	28.17
267.812	15.22
268.028	14.19
268.245	36.59
268.462	20.48
268.679	34.18
268.896	51.54
269.112	44.66
269.329	31.1
269.546	44.56
269.763	45.5
269.979	44.07
270.196	31.46
270.413	36.74
270.629	19.46
270.846	13.44
271.063	24.1
271.279	15.04
271.496	-19.67
271.712	-7.05
271.929	-19.67
272.146	-16.79
272.362	-24.83
272.579	27.45
272.795	19.84
273.012	39.93
273.228	27.6
273.445	27.93
273.661	-1.84
273.878	-56.54
274.094	-55.73
274.311	-66.92
274.527	-23.19
274.744	-12.5
274.96	54.52
275.177	48.46
275.393	55.46
275.609	53.27
275.826	59.31
276.042	40.41
276.259	42.16
276.475	44.21
276.691	42.66
276.908	28.61
277.124	54.03
277.34	47.89
277.557	29.73
277.773	23.97
277.989	27.61
278.205	18.99
278.422	28.67
278.638	40.93
278.854	44.58
279.07	44.81
279.286	18.03
279.503	5.29
279.719	-3.15
279.935	-8.35
280.151	-20
280.367	17.25
280.583	17.17
280.799	16.29
281.016	22.7
281.232	35.48
281.448	33.6
281.664	47.99
281.88	45.27
282.096	37.85
282.312	27.39
282.528	21.55
282.744	15.15
282.96	26.44
283.176	33.61
283.392	32.41
283.608	32.22
283.824	32.43
284.04	31.22
284.256	47.35
284.471	52.71
284.687	50.22
284.903	54.72
285.119	67.48
285.335	37.28
285.551	33.27
285.767	31.98
285.982	18.57
286.198	-2.37
286.414	6.27
286.63	4.41
286.846	18.96
287.061	4.46
287.277	1.75
287.493	4.76
287.709	8.62
287.924	1.42
288.14	32.78
288.356	43.27
288.571	40.22
288.787	26.92
289.003	22.33
289.218	-13.04
289.434	-39.82
289.65	-4.24
289.865	5.7
290.081	15.84
290.296	21.71
290.512	14.9
290.727	15.15
290.943	4.38
291.159	-5.44
291.374	-8.07
291.59	-11.12
291.805	-23.62
292.021	-0.92
292.236	-2.11
292.451	3.31
292.667	21.05
292.882	20.53
293.098	30.86
293.313	21.73
293.529	14.5
293.744	-10.43
293.959	-20.22
294.175	-29.12
294.39	-16.8
294.605	-6.9
294.821	8.82
295.036	3.13
295.251	10.34
295.467	14.98
295.682	17.3
295.897	3.06
296.112	-5.95
296.328	-7.8
296.543	-13.3
296.758	-30.13
296.973	4.5
297.188	43.93
297.404	17.37
297.619	21.73
297.834	33.06
298.049	26.89
298.264	5.38
298.479	42.7
298.694	51.86
298.909	58.79
299.125	61.08
299.34	75.62
299.555	54.71
299.77	51.82
299.985	2.68
300.2	-31.43
300.415	-61.76
300.63	-48.85
300.845	-46.83
301.06	-41.61
301.275	-18.01
301.49	-1.1
301.704	-9.11
301.919	-24.16
302.134	-25.3
302.349	-2.81
302.564	-5.54
302.779	23.13
302.994	57.51
303.209	57.36
303.423	54.38
303.638	51.37
303.853	22.23
304.068	-24.69
304.283	-1.88
304.497	1.82
304.712	19.87
304.927	30.2
305.142	29.24
305.356	40.5
305.571	51.66
305.786	49.53
306	38.99
306.215	55.86
306.43	22.13
306.644	30.33
306.859	26.18
307.074	29.89
307.288	11.22
307.503	28.93
307.717	4.14
307.932	14.77
308.147	19.55
308.361	39.51
308.576	20.23
308.79	-17.75
309.005	-24.09
309.219	-35.27
309.434	-24.54
309.648	-21.58
309.863	13.38
310.077	4.92
310.292	12.29
310.506	-3.43
310.72	29.83
310.935	41.92
311.149	44.66
311.364	60.42
311.578	60.28
311.792	43.28
312.007	39.65
312.221	11.98
312.435	11.11
312.649	5.93
312.864	8.4
313.078	-3.68
313.292	15.52
313.507	10.62
313.721	16.85
313.935	9.99
314.149	26.24
314.363	27.58
314.578	15.43
314.792	-0.99
315.006	20.04
315.22	11.43
315.434	6.11
315.648	13.88
315.862	9.1
316.077	-0.49
316.291	3.02
316.505	21.09
316.719	18.03
316.933	-0.3
317.147	5.4
317.361	-14.07
317.575	-4.64
317.789	-3.44
318.003	5.65
318.217	23.72
318.431	42.01
318.645	47.64
318.859	43.88
319.073	59.7
319.287	32.89
319.5	8.47
319.714	-23.9
319.928	-27.87
320.142	-42.83
320.356	10.21
320.57	21.83
320.784	31.48
320.997	36.82
321.211	36.15
321.425	-0.24
321.639	-20.3
321.853	-4.22
322.066	-4.56
322.28	-14.71
322.494	2.72
322.707	37.48
322.921	21.58
323.135	15.43
323.349	44.96
323.562	30.97
323.776	12.2
323.989	16.69
324.203	11.63
324.417	-3.5
324.63	-21.9
324.844	-38.7
325.057	-39.91
325.271	-38.44
325.485	-48.12
325.698	-7.53
325.912	18.09
326.125	11.02
326.339	23.21
326.552	38.41
326.766	38.47
326.979	48.77
327.193	67.82
327.406	51.09
327.619	47
327.833	40.97
328.046	28.42
328.26	21.32
328.473	23.3
328.686	5.52
328.9	7.93
329.113	15.21
329.326	10.83
329.54	29.14
329.753	30.92
329.966	35.91
330.179	39.64
330.393	49.53
330.606	28.26
330.819	52.42
331.032	54.77
331.246	54.76
331.459	49.43
331.672	45.28
331.885	20.75
332.098	-3.69
332.311	0.16
332.525	-11.45
332.738	4.59
332.951	16.91
333.164	32.73
333.377	39.29
333.59	52.2
333.803	35.36
334.016	30.86
334.229	22.73
334.442	26
334.655	41.76
334.868	44.18
335.081	44.36
335.294	39.32
335.507	32.68
335.72	24.67
335.933	19.71
336.146	19.29
336.359	34.02
336.572	17.02
336.785	3.75
336.997	2.79
337.21	14.16
337.423	0.25
337.636	11.16
337.849	22.05
338.062	22.47
338.274	20.17
338.487	25.63
338.7	27.56
338.913	18.29
339.125	16.16
339.338	13.93
339.551	15.83
339.763	23.38
339.976	30.01
340.189	39.05
340.402	40.87
340.614	37.06
340.827	23.7
341.039	6.3
341.252	-7.41
341.465	-18.97
341.677	-28.45
341.89	-61.1
342.102	-46.72
342.315	-33.17
342.527	-31.32
342.74	-19.45
342.952	26.29
343.165	35.58
343.377	41.34
343.59	35.23
343.802	54.99
344.015	52.72
344.227	59.87
344.44	53.65
344.652	51.54
344.864	49.96
345.077	59.34
345.289	52.02
345.502	59.65
345.714	56.73
345.926	47.67
346.139	34.8
346.351	24.51
346.563	11.81
346.775	20.36
346.988	14.38
347.2	14.04
347.412	3.7
347.624	5.57
347.837	12.24
348.049	15.86
348.261	15.23
348.473	22.49
348.685	6.8
348.897	-9.02
349.11	-11.6
349.322	-10.04
349.534	0.31
349.746	15.2
349.958	16.22
350.17	10.99
350.382	12
350.594	8.93
350.806	12.88
351.018	18.1
351.23	25.39
351.442	25.76
351.654	28.26
351.866	21.72
352.078	13.58
352.29	1.93
352.502	17.74
352.714	42.78
352.926	40.47
353.138	50.71
353.35	46.01
353.561	36.71
353.773	14.1
353.985	24.7
354.197	15.01
354.409	12.27
354.621	14.69
354.832	23.48
355.044	11.87
355.256	10.43
355.468	10.42
355.679	0.52
355.891	6.73
356.103	4.23
356.314	6.69
356.526	29.67
356.738	42.33
356.949	34.05
357.161	39.71
357.373	40.15
357.584	35.25
357.796	34.92
358.008	26.11
358.219	33.58
358.431	33.79
358.642	30.02
358.854	32.58
359.065	30.53
359.277	17.95
359.488	11.73
359.7	-6.1
359.911	-19.79
360.123	-17.58
360.334	-17.77
360.546	-21.15
360.757	-9.09
360.969	-7.38
361.18	-1.85
361.391	-2.86
361.603	-5.31
361.814	25.51
362.025	12.74
362.237	20.74
362.448	23.85
362.659	38.26
362.871	24.21
363.082	31.94
363.293	33.7
363.504	28.65
363.716	18.9
363.927	10.06
364.138	8.12
364.349	-19.53
364.56	-15.72
364.772	-26
364.983	-12.97
365.194	-15.2
365.405	5.48
365.616	7.94
365.827	12.96
366.038	5.53
366.25	15.37
366.461	-0.08
366.672	8.45
366.883	21.63
367.094	21.46
367.305	11.16
367.516	33.3
367.727	36.58
367.938	20.93
368.149	12.59
368.36	16.84
368.571	5.65
368.781	-1.81
368.992	-4.93
369.203	15.43
369.414	9.87
369.625	9.52
369.836	6.43
370.047	6.31
370.258	-2.66
370.468	-0.18
370.679	-26.53
370.89	-19.46
371.101	-6
371.312	-25.13
371.522	-16.86
371.733	-0.08
371.944	4.98
372.155	15.82
372.365	5.71
372.576	7.4
372.787	10.71
372.997	1.98
373.208	2.81
373.419	20.47
373.629	3.78
373.84	7.44
374.05	5.9
374.261	4.79
374.472	0.47
374.682	16.39
374.893	5.45
375.103	18.42
375.314	9.87
375.524	12.59
375.735	13.15
375.945	19.05
376.156	4.58
376.366	16.85
376.577	16.86
376.787	20.52
376.997	24.21
377.208	25.8
377.418	0.87
377.629	15.48
377.839	6.1
378.049	4.52
378.26	13.32
378.47	29.5
378.68	17.15
378.89	20.89
379.101	24.75
379.311	11.7
379.521	2.04
379.732	3.23
379.942	-13.71
380.152	-15.45
380.362	-2.13
380.572	0.45
380.783	3.89
380.993	15.03
381.203	19.21
381.413	17.56
381.623	20.36
381.833	24.71
382.043	16.16
382.253	18.15
382.463	23.26
382.674	21.06
382.884	12.07
383.094	20.6
383.304	14.61
383.514	8.36
383.724	8.08
383.934	-2.22
384.144	-10.76
384.353	-6.49
384.563	-0.89
384.773	5.86
384.983	17.98
385.193	22.07
385.403	10.58
385.613	10.56
385.823	1.44
386.033	4.62
386.242	1.78
386.452	8.14
386.662	2.26
386.872	9.86
387.082	9.21
387.291	3.7
387.501	2.84
387.711	1.86
387.921	-11.06
388.13	-6.9
388.34	5.45
388.55	5.33
388.759	9.19
388.969	16.01
389.179	12.53
389.388	8.9
389.598	6.19
389.807	7.18
390.017	7.44
390.227	4.71
390.436	1.67
390.646	8.13
390.855	8.55
391.065	8.89
391.274	8.59
391.484	7.21
391.693	5.08
391.903	3.7
392.112	4.47
392.322	6.51
392.531	11.18
392.74	10.79
392.95	6.33
393.159	5.12
393.369	6.15
393.578	2.7
393.787	1.09
393.997	5.96
394.206	5.42
394.415	5.77
394.625	5.9
394.834	5.4
395.043	3.07
395.252	4.09
395.462	4.03
395.671	5.38
395.88	7.59
396.089	8.8
396.298	8.08
396.508	7.41
396.717	7.25
396.926	5.69
397.135	5.48
397.344	5.3
397.553	5.03
397.762	5.05
397.971	5.68
398.181	5.32
398.39	4.42
398.599	4.61
398.808	3.86
399.017	3.98
399.226	4.08
399.435	5.05
399.644	5.07
399.853	5.23
400.062	4.79
400.27	4.84
400.479	4.85
400.688	4.22
400.897	4.48
401.106	4.6
401.315	4.19
401.524	3.9
401.733	4.2
401.941	4.44
402.15	4.3
402.359	4.44
402.568	4.49
402.777	4.42
402.985	4.07
403.194	4.25
403.403	4.21
403.612	4.11
403.82	4.17
404.029	4.22
404.238	3.98
404.446	4.06
404.655	3.88
404.864	3.81
405.072	3.69
405.281	3.82
405.489	3.62
405.698	3.63
405.906	3.62
406.115	3.44
406.324	3.28
406.532	3.4
406.741	3.56
406.949	3.38
407.158	3.5
407.366	3.58
407.574	3.65
407.783	3.57
407.991	3.6
408.2	3.74
408.408	3.65
408.617	3.51
408.825	3.35
409.033	3.52
409.242	3.51
409.45	3.51
409.658	3.44
409.867	3.61
410.075	3.47
410.283	3.22
410.491	3.31
410.7	3.26
410.908	3.34
411.116	3.33
411.324	3.3
411.533	3.29
411.741	3.32
411.949	3.21
412.157	3.13
412.365	3.31
412.573	3.2
412.781	3.23
412.99	3.19
413.198	3.39
413.406	3.34
413.614	3.41
413.822	3.37
414.03	3.44
414.238	3.25
414.446	3.38
414.654	3.13
414.862	3.05
415.07	3.04
415.278	3.19
415.486	2.73
415.694	2.9
415.902	3.01
416.109	2.89
416.317	2.85
416.525	2.92
416.733	3.06
416.941	3.16
417.149	3.17
417.357	3.16
417.564	3.46
417.772	3.3
417.98	3.26
418.188	3.34
418.395	3.2
418.603	3.28
418.811	3.19
419.019	2.97
419.226	3
419.434	3.18
419.642	2.93
419.849	2.96
420.057	3.16
420.265	3.25
420.472	3.08
420.68	3.27
420.887	3.3
421.095	3.21
421.302	3.03
421.51	3.16
421.717	3.08
421.925	3.09
422.132	3.02
422.34	2.81
422.547	2.66
422.755	2.64
422.962	2.58
423.17	2.57
423.377	2.83
423.585	2.93
423.792	2.88
423.999	2.98
424.207	2.99
424.414	2.87
424.621	2.99
424.829	3.07
425.036	2.98
425.243	2.94
425.451	2.94
425.658	2.83
425.865	2.61
426.072	2.71
426.28	2.75
426.487	2.68
426.694	2.63
426.901	2.84
427.108	2.8
427.315	2.79
427.523	2.94
427.73	2.94
427.937	2.6
428.144	2.49
428.351	2.55
428.558	2.47
428.765	2.45
428.972	2.56
429.179	2.7
429.386	2.74
429.593	2.78
429.8	2.67
430.007	2.89
430.214	2.93
430.421	2.89
430.628	2.77
430.835	2.65
431.042	2.69
431.249	2.62
431.456	2.78
431.662	2.93
431.869	3.16
432.076	3.06
432.283	3.04
432.49	2.85
432.697	2.71
432.903	2.47
433.11	2.55
433.317	2.6
433.524	2.65
433.73	2.69
433.937	3
434.144	2.89
434.35	2.88
434.557	2.81
434.764	2.74
434.97	2.65
435.177	2.7
435.384	2.52
435.59	2.66
435.797	2.91
436.003	2.88
436.21	2.8
436.416	2.86
436.623	2.71
436.829	2.53
437.036	2.57
437.242	2.52
437.449	2.6
437.655	2.58
437.862	2.63
438.068	2.59
438.275	2.7
438.481	2.77
438.687	2.81
438.894	2.81
439.1	2.88
439.307	2.92
439.513	2.77
439.719	2.8
439.926	2.75
440.132	2.7
440.338	2.68
440.544	2.8
440.751	2.72
440.957	2.81
441.163	2.65
441.369	2.64
441.575	2.45
441.782	2.41
441.988	2.3
442.194	2.4
442.4	2.36
442.606	2.58
442.812	2.7
443.018	2.73
443.224	2.83
443.431	2.89
443.637	2.81
443.843	2.67
444.049	2.77
444.255	2.69
444.461	2.66
444.667	2.61
444.873	2.69
445.079	2.67
445.284	2.69
445.49	2.58
445.696	2.47
445.902	2.39
446.108	2.27
446.314	2.16
446.52	2.35
446.726	2.57
446.931	2.58
447.137	2.68
447.343	2.86
447.549	2.65
447.755	2.63
447.96	2.76
448.166	2.64
448.372	2.65
448.578	2.66
448.783	2.59
448.989	2.63
449.195	2.83
449.4	2.77
449.606	2.82
449.812	2.75
450.017	2.76
450.223	2.67
450.428	2.55
450.634	2.58
450.84	2.67
451.045	2.55
451.251	2.43
451.456	2.61
451.662	2.64
451.867	2.62
452.073	2.52
452.278	2.62
452.483	2.66
452.689	2.69
452.894	2.8
453.1	2.95
453.305	2.83
453.51	2.64
453.716	2.51
453.921	2.44
454.127	2.52
454.332	2.53
454.537	2.51
454.742	2.64
454.948	2.67
455.153	2.49
455.358	2.52
455.563	2.68
455.769	2.63
455.974	2.52
456.179	2.52
456.384	2.48
456.589	2.42
456.795	2.35
457	2.38
457.205	2.48
457.41	2.44
457.615	2.37
457.82	2.49
458.025	2.54
458.23	2.38
458.435	2.48
458.64	2.34
458.845	2.37
459.05	2.29
459.255	2.27
459.46	2.24
459.665	2.35
459.87	2.23
460.075	2.18
460.28	2.31
460.485	2.39
460.69	2.4
460.895	2.28
461.099	2.18
461.304	2.28
461.509	2.26
461.714	2.11
461.919	2.25
462.123	2.32
462.328	2.32
462.533	2.09
462.738	2.23
462.942	2.08
463.147	2.19
463.352	2.08
463.556	2.2
463.761	2.3
463.966	2.43
464.17	2.47
464.375	2.42
464.58	2.43
464.784	2.35
464.989	2.21
465.193	2.19
465.398	2.14
465.602	2.31
465.807	2.22
466.011	2.39
466.216	2.44
466.42	2.53
466.625	2.42
466.829	2.59
467.034	2.56
467.238	2.53
467.443	2.49
467.647	2.42
467.851	2.38
