Data from Ofra_PP_Phys_0CX04_Reflection_2.txt Node
Date: Sat Jul 24 20:02:28 EDT 2021
User: USUARIO
Spectrometer: FLMT01687
Trigger mode: 0
Integration Time (sec): 1.100000E0
Scans to average: 2
Electric dark correction enabled: true
Nonlinearity correction enabled: false
Boxcar width: 2
XAxis mode: Wavelengths
Number of Pixels in Spectrum: 3648
>>>>>Begin Spectral Data<<<<<
179.494	443.21
179.716	561.05
179.937	975.66
180.158	822.19
180.38	390.61
180.601	-423.32
180.823	5.91
181.044	1100
181.265	-24.3
181.486	-17.13
181.708	8.3
181.929	-196
182.15	-278.31
182.372	-17.24
182.593	33100
182.814	96.92
183.035	98.84
183.257	69.51
183.478	35.45
183.699	18.66
183.92	-1.05
184.141	5.96
184.363	-22.34
184.584	30.05
184.805	31.26
185.026	37.83
185.247	25.36
185.468	6.81
185.689	-10.84
185.91	-2
186.132	-17.89
186.353	1.22
186.574	34.36
186.795	45.45
187.016	11.43
187.237	41.31
187.458	48.76
187.679	64.71
187.9	69.75
188.121	113.5
188.342	115.1
188.563	84.57
188.784	101.53
189.005	93.77
189.226	82.66
189.447	58.51
189.667	73.81
189.888	39.51
190.109	14.37
190.33	-7.74
190.551	-25.4
190.772	-35.93
190.993	-64.09
191.214	-48.81
191.434	-66.79
191.655	-5.03
191.876	-13.01
192.097	-1.55
192.318	-6.13
192.538	-21.97
192.759	-49.41
192.98	-61.58
193.201	-55.07
193.421	-63
193.642	-16.37
193.863	8.9
194.083	6.49
194.304	25.27
194.525	44.7
194.745	45.33
194.966	10.42
195.187	12.49
195.407	-30.6
195.628	-72.07
195.848	-83.05
196.069	-91.79
196.29	-103.78
196.51	-144.52
196.731	-133.66
196.951	-76.24
197.172	-61.22
197.392	-17.22
197.613	6.16
197.833	10.16
198.054	-25.21
198.274	-12.64
198.495	-81.8
198.715	-23.45
198.936	-37.89
199.156	-13.7
199.377	-39.35
199.597	-28.37
199.817	-61.23
200.038	-45.32
200.258	-36.89
200.479	-2.48
200.699	-0.48
200.919	2.32
201.14	-15.74
201.36	-27.81
201.58	-21.34
201.801	-6.99
202.021	-16.79
202.241	3.09
202.461	-0.67
202.682	-10.83
202.902	11.15
203.122	16.57
203.342	25.35
203.563	52.15
203.783	54.54
204.003	-21.7
204.223	-93.98
204.443	-46.97
204.663	-28.88
204.884	-61.44
205.104	-21.16
205.324	31.16
205.544	15.12
205.764	-6.75
205.984	23.86
206.204	25.16
206.424	-24.9
206.644	-26.29
206.864	7.01
207.084	-17.44
207.304	5.65
207.525	0.18
207.745	8.8
207.964	0.22
208.184	6.72
208.404	-1.72
208.624	6.18
208.844	9.62
209.064	-7.38
209.284	7.46
209.504	31.81
209.724	44.31
209.944	35.91
210.164	47.38
210.384	43.25
210.604	6.96
210.823	-3.36
211.043	-22.39
211.263	-13.51
211.483	-27.75
211.703	-9.51
211.922	1.03
212.142	28.41
212.362	24.38
212.582	22.3
212.801	21.32
213.021	2.6
213.241	6.23
213.461	-0.93
213.68	-15.62
213.9	-19.8
214.12	-17.45
214.339	-30.84
214.559	-24.32
214.779	3.96
214.998	21.09
215.218	29.82
215.438	36.79
215.657	21.9
215.877	37.42
216.096	39.63
216.316	56.84
216.535	68.87
216.755	68.2
216.974	58.85
217.194	47.65
217.413	27.45
217.633	15.26
217.852	-24.46
218.072	-40.88
218.291	-45.56
218.511	-19.51
218.73	-43.97
218.95	-23.92
219.169	-28.53
219.389	-45.32
219.608	-55.12
219.827	-20.94
220.047	-11.49
220.266	-6.85
220.485	-6.14
220.705	-9.17
220.924	-32.07
221.143	-29.38
221.363	-60.02
221.582	-19.74
221.801	-18.39
222.021	9.82
222.24	21.28
222.459	35.05
222.678	8.05
222.897	13.13
223.117	-2.2
223.336	-15.18
223.555	23.98
223.774	44.7
223.993	54.07
224.213	89.22
224.432	68.71
224.651	69.48
224.87	56.15
225.089	53.98
225.308	35.93
225.527	48.81
225.746	33.98
225.965	31.37
226.184	27.04
226.404	36.25
226.623	14.06
226.842	23.09
227.061	46.65
227.28	45.69
227.499	52.3
227.718	62.58
227.936	47.15
228.155	16.64
228.374	0.33
228.593	-24.67
228.812	-16.89
229.031	-6.03
229.25	-11.23
229.469	18.59
229.688	17.27
229.907	25.83
230.125	26.61
230.344	33.46
230.563	25.17
230.782	47.4
231.001	5.95
231.22	14.64
231.438	10.41
231.657	1.61
231.876	0.48
232.095	23.84
232.313	32.85
232.532	27.74
232.751	43.97
232.969	37.87
233.188	41.99
233.407	19.92
233.625	19.19
233.844	6.89
234.063	-24.78
234.281	9.78
234.5	24.57
234.719	35.95
234.937	41.96
235.156	48.09
235.374	32.45
235.593	49.21
235.811	42.82
236.03	42.65
236.249	42.43
236.467	43.57
236.686	17.25
236.904	16.86
237.123	-32.17
237.341	-16.28
237.559	-16.78
237.778	-14.57
237.996	-23.52
238.215	20.43
238.433	10.67
238.652	13.82
238.87	-13.47
239.088	-6.26
239.307	-9.48
239.525	-10.66
239.743	-26.2
239.962	-4.69
240.18	-23.16
240.398	-46
240.617	-52.77
240.835	-48.14
241.053	-89.5
241.271	-57.42
241.49	-17.99
241.708	-4.61
241.926	-6.23
242.144	22.77
242.363	9.93
242.581	0.67
242.799	4.49
243.017	-8.29
243.235	-32.03
243.453	-10.8
243.672	-30.53
243.89	-11.58
244.108	21.62
244.326	45.89
244.544	39.03
244.762	38.23
244.98	34.56
245.198	23.63
245.416	-2.06
245.634	1.65
245.852	14.9
246.07	4.64
246.288	26.17
246.506	32.44
246.724	35.29
246.942	25.26
247.16	28.09
247.378	23.78
247.596	31.53
247.814	27.05
248.032	4.06
248.25	13.82
248.468	8.82
248.685	24.6
248.903	25.99
249.121	47.22
249.339	1.99
249.557	-1.46
249.775	-37.71
249.992	-71.73
250.21	-82.59
250.428	-26.43
250.646	-12.84
250.863	-0.28
251.081	18.8
251.299	30.77
251.517	21.39
251.734	8.04
251.952	-12.13
252.17	-2.6
252.387	6.34
252.605	-13.43
252.823	-12.31
253.04	0.12
253.258	5.11
253.475	3.23
253.693	33.19
253.911	53.18
254.128	51.46
254.346	46.22
254.563	28.13
254.781	12.61
254.998	3.32
255.216	-8.02
255.433	-7.41
255.651	20.32
255.868	24.42
256.086	34.24
256.303	38.68
256.521	32.68
256.738	11.1
256.956	6.44
257.173	6.65
257.39	5.57
257.608	7.66
257.825	11.41
258.043	25.35
258.26	24.8
258.477	15.88
258.695	16.73
258.912	-0.53
259.129	-24.59
259.346	-48.82
259.564	-32.48
259.781	-26.7
259.998	-10.51
260.216	16.74
260.433	37.4
260.65	19.11
260.867	24.58
261.084	8.35
261.302	3.5
261.519	-2.68
261.736	-8.08
261.953	-10.69
262.17	5.91
262.387	2.56
262.604	0.37
262.822	4.21
263.039	-2.65
263.256	-19.81
263.473	-15.26
263.69	-36.27
263.907	-10.44
264.124	-2.58
264.341	26.7
264.558	31.03
264.775	51.42
264.992	74.22
265.209	49.31
265.426	40.23
265.643	40.4
265.86	27.35
266.077	28.62
266.294	34.12
266.51	30.89
266.727	22.82
266.944	36.53
267.161	3.52
267.378	10.08
267.595	9.49
267.812	-14.15
268.028	-11.71
268.245	1.35
268.462	0.92
268.679	-5.24
268.896	30.71
269.112	14.33
269.329	23.5
269.546	24.2
269.763	35.27
269.979	16.16
270.196	13.11
270.413	13.33
270.629	5.35
270.846	-5.94
271.063	12.28
271.279	7.02
271.496	-27.06
271.712	-22.3
271.929	-26.9
272.146	-36.75
272.362	-38.96
272.579	-6.93
272.795	-1.73
273.012	11.86
273.228	24.1
273.445	25.47
273.661	4.95
273.878	-36.47
274.094	-46.21
274.311	-55.99
274.527	-49.01
274.744	-20.87
274.96	18.05
275.177	13.25
275.393	17.47
275.609	20.96
275.826	20.91
276.042	12.55
276.259	32.98
276.475	22.49
276.691	32.14
276.908	21.38
277.124	39.35
277.34	16.96
277.557	19.18
277.773	23.28
277.989	29.97
278.205	42.02
278.422	55.9
278.638	55.65
278.854	34.23
279.07	32.71
279.286	4.98
279.503	-16.03
279.719	-13.19
279.935	-12.78
280.151	-28.79
280.367	-13.71
280.583	8.4
280.799	19.81
281.016	22.75
281.232	33.88
281.448	34.36
281.664	35.01
281.88	15.9
282.096	15.23
282.312	20.4
282.528	17.91
282.744	23.51
282.96	37.97
283.176	48.23
283.392	40.14
283.608	34.07
283.824	17.5
284.04	14.16
284.256	18.32
284.471	13.95
284.687	11.1
284.903	21.11
285.119	23.06
285.335	-5.63
285.551	-8.42
285.767	-5.98
285.982	-24.11
286.198	-37.35
286.414	-21.35
286.63	-5.12
286.846	3.9
287.061	-2.66
287.277	-1.17
287.493	4.01
287.709	3.57
287.924	11.02
288.14	41.3
288.356	58.94
288.571	73.64
288.787	70.25
289.003	68.44
289.218	59.85
289.434	32.12
289.65	26.8
289.865	39.12
290.081	33.89
290.296	34.38
290.512	35.46
290.727	32.37
290.943	25.39
291.159	19.77
291.374	13.45
291.59	-14.59
291.805	-20.03
292.021	-12.48
292.236	-10.41
292.451	-5.25
292.667	9.7
292.882	13.71
293.098	21.09
293.313	10.33
293.529	2.91
293.744	2.24
293.959	-14.93
294.175	-27.59
294.39	-7.35
294.605	2.28
294.821	15.56
295.036	12.29
295.251	36.27
295.467	34.49
295.682	31.93
295.897	17.2
296.112	14.71
296.328	-1.93
296.543	-4.48
296.758	-17.29
296.973	6.93
297.188	27.31
297.404	19.11
297.619	19.73
297.834	25.61
298.049	20.72
298.264	12.94
298.479	29.53
298.694	29.79
298.909	34.26
299.125	30.86
299.34	36.5
299.555	17.07
299.77	3.04
299.985	-23.33
300.2	-47.35
300.415	-72.92
300.63	-46.97
300.845	-30.09
301.06	-27.97
301.275	-6.8
301.49	4.42
301.704	-11.47
301.919	-34.16
302.134	-36.56
302.349	-10.63
302.564	-11.53
302.779	-2.68
302.994	29.1
303.209	39.38
303.423	30.16
303.638	35.82
303.853	38.26
304.068	23.38
304.283	12.76
304.497	9.84
304.712	18.61
304.927	28.59
305.142	25.74
305.356	30.65
305.571	34.09
305.786	32.5
306	27.13
306.215	36.03
306.43	15.16
306.644	36.23
306.859	40.75
307.074	23.97
307.288	0.42
307.503	11.51
307.717	-10.19
307.932	-12.46
308.147	-19.36
308.361	4.89
308.576	-12.11
308.79	-48.86
309.005	-34.6
309.219	-22.53
309.434	-20.66
309.648	-19.11
309.863	14.59
310.077	-3.74
310.292	16.01
310.506	14.92
310.72	34.22
310.935	29.96
311.149	17.5
311.364	8.65
311.578	16.2
311.792	4.47
312.007	16.89
312.221	14.63
312.435	8.4
312.649	-7.24
312.864	33.08
313.078	15.06
313.292	52.52
313.507	62.23
313.721	60.83
313.935	42.18
314.149	56.08
314.363	29.76
314.578	-3.4
314.792	-16.47
315.006	2.39
315.22	-2.06
315.434	10.21
315.648	28.18
315.862	20.73
316.077	23.46
316.291	6.61
316.505	-0.06
316.719	5.09
316.933	-10.97
317.147	-7.82
317.361	-20.88
317.575	-22.52
317.789	-31.81
318.003	-27.56
318.217	-12.77
318.431	16.56
318.645	30.53
318.859	26.77
319.073	44.7
319.287	26.32
319.5	5.26
319.714	-20.87
319.928	-15.42
320.142	-35.21
320.356	0.99
320.57	20.73
320.784	23.78
320.997	26.79
321.211	51.74
321.425	32.71
321.639	-5.31
321.853	18.04
322.066	16
322.28	-6.19
322.494	6.7
322.707	58.48
322.921	41.6
323.135	46.4
323.349	68.63
323.562	52.3
323.776	20.95
323.989	32.72
324.203	10.81
324.417	-5
324.63	-17.31
324.844	-30.43
325.057	-40.54
325.271	-32.97
325.485	-24.46
325.698	10.31
325.912	39.48
326.125	32.42
326.339	47.57
326.552	36.87
326.766	26.67
326.979	17.38
327.193	43.59
327.406	16.18
327.619	20.31
327.833	21.51
328.046	15.46
328.26	-10.29
328.473	2.4
328.686	1.72
328.9	5.89
329.113	9.45
329.326	12.16
329.54	9.44
329.753	3.28
329.966	-7.81
330.179	-2.68
330.393	22.13
330.606	17.14
330.819	34.93
331.032	42.09
331.246	40.85
331.459	26.87
331.672	25.86
331.885	-8.4
332.098	-27.31
332.311	-22.22
332.525	-16.04
332.738	-20.05
332.951	-0.55
333.164	9.09
333.377	28.42
333.59	36.46
333.803	38.61
334.016	31.79
334.229	26.15
334.442	22.52
334.655	13.01
334.868	13.13
335.081	26.3
335.294	28.36
335.507	23.33
335.72	35.57
335.933	23.25
336.146	26.04
336.359	16.74
336.572	1.34
336.785	-16.12
336.997	-3.17
337.21	0.98
337.423	3.72
337.636	7.82
337.849	6.08
338.062	0.3
338.274	-8.6
338.487	-1.12
338.7	-1.42
338.913	-3.34
339.125	0.97
339.338	9.31
339.551	16.67
339.763	34.11
339.976	48.81
340.189	46.38
340.402	45.69
340.614	42.55
340.827	29.19
341.039	22.59
341.252	15.15
341.465	3.92
341.677	-8.48
341.89	-29.92
342.102	-26.18
342.315	-7.21
342.527	-8.17
342.74	0.55
342.952	16.65
343.165	11.08
343.377	17.98
343.59	9.87
343.802	24.8
344.015	38.88
344.227	50.08
344.44	35.92
344.652	39.38
344.864	37.81
345.077	37.69
345.289	27.94
345.502	25.2
345.714	16.91
345.926	10.97
346.139	4.19
346.351	12.63
346.563	15.74
346.775	37.01
346.988	30.54
347.2	32.65
347.412	13.79
347.624	11
347.837	7.69
348.049	7.94
348.261	13.48
348.473	9.61
348.685	-5.92
348.897	-21.9
349.11	-17.28
349.322	-11.27
349.534	7
349.746	19.24
349.958	31.74
350.17	33.26
350.382	33.83
350.594	36.67
350.806	53.57
351.018	49.37
351.23	47.7
351.442	45.57
351.654	41.46
351.866	32.28
352.078	26.5
352.29	19.23
352.502	18.54
352.714	45.45
352.926	34.34
353.138	38.5
353.35	24.99
353.561	18.78
353.773	0.62
353.985	0.86
354.197	-1.67
354.409	13.67
354.621	4.99
354.832	13.58
355.044	10.25
355.256	0.08
355.468	-4.67
355.679	-0.39
355.891	-3.62
356.103	0.93
356.314	7.48
356.526	21.29
356.738	35.35
356.949	35.58
357.161	29.84
357.373	30.11
357.584	18.62
357.796	11.08
358.008	-3.07
358.219	14.74
358.431	23.3
358.642	35.3
358.854	39.44
359.065	42.77
359.277	23.59
359.488	14.64
359.7	-7.08
359.911	-23.72
360.123	-19.8
360.334	-16.03
360.546	-20.97
360.757	-10.15
360.969	-9.66
361.18	0.98
361.391	-1.3
361.603	-13.22
361.814	-11.25
362.025	-3.34
362.237	-5.58
362.448	-2.03
362.659	11.34
362.871	7.61
363.082	0.74
363.293	-2.38
363.504	-3.32
363.716	-4.21
363.927	-5.04
364.138	3.29
364.349	-5.32
364.56	-5.91
364.772	-11.23
364.983	2.08
365.194	-8.04
365.405	-3.85
365.616	-13.52
365.827	-14.52
366.038	-11.91
366.25	11.43
366.461	5.3
366.672	22.79
366.883	35.74
367.094	27.2
367.305	15.99
367.516	30.03
367.727	14.92
367.938	0.92
368.149	-1.36
368.36	1.8
368.571	-16.7
368.781	-13.64
368.992	-18.93
369.203	-1.89
369.414	-7.93
369.625	-3.76
369.836	-2.16
370.047	1.72
370.258	-12.15
370.468	-4.46
370.679	-19.72
370.89	-10.74
371.101	3.42
371.312	-6.83
371.522	-8.55
371.733	11.63
371.944	1.06
372.155	-0.4
372.365	-1.7
372.576	10
372.787	5.18
372.997	6.37
373.208	6.27
373.419	11.87
373.629	-3.87
373.84	-1.12
374.05	-11.25
374.261	-5.54
374.472	-8.12
374.682	3.08
374.893	0.78
375.103	25.07
375.314	22.54
375.524	32.62
375.735	33.33
375.945	28.99
376.156	4.62
376.366	7.73
376.577	4.76
376.787	4.94
376.997	16.3
377.208	30.16
377.418	15.75
377.629	20.53
377.839	11.27
378.049	7.53
378.26	8.18
378.47	16.7
378.68	14.99
378.89	23.02
379.101	19.05
379.311	9.11
379.521	3.99
379.732	2.67
379.942	-10.7
380.152	-6.4
380.362	3.17
380.572	-1.36
380.783	9.12
380.993	15.95
381.203	14.25
381.413	10.53
381.623	18.53
381.833	3.63
382.043	-1.16
382.253	8.61
382.463	20.26
382.674	18.63
382.884	17.76
383.094	19.19
383.304	17.95
383.514	11.65
383.724	12.32
383.934	8.76
384.144	3.8
384.353	-4.56
384.563	3.63
384.773	1.37
384.983	8.65
385.193	13.83
385.403	4.47
385.613	-4.74
385.823	-1.79
386.033	-3.37
386.242	-4.28
386.452	8.01
386.662	4.07
386.872	6.91
387.082	7.12
387.291	3.63
387.501	4.88
387.711	9.15
387.921	1.07
388.13	6.17
388.34	12.79
388.55	8.91
388.759	9.89
388.969	12.81
389.179	7.49
389.388	5.99
389.598	5.66
389.807	2.1
390.017	3.06
390.227	3.31
390.436	1.52
390.646	4.49
390.855	7.46
391.065	8.33
391.274	5.76
391.484	4.57
391.693	3.99
391.903	3.77
392.112	4.18
392.322	7.8
392.531	11.1
392.74	10.29
392.95	7.04
393.159	4.92
393.369	5.7
393.578	3.56
393.787	3.14
393.997	7.23
394.206	8.16
394.415	9.09
394.625	9.66
394.834	8.96
395.043	6.85
395.252	8.22
395.462	7.75
395.671	8.1
395.88	9.58
396.089	11.06
396.298	9.84
396.508	9.4
396.717	9.48
396.926	9.01
397.135	8.59
397.344	8.7
397.553	8.77
397.762	8.79
397.971	8.69
398.181	8.67
398.39	7.67
398.599	7.48
398.808	7.22
399.017	7.54
399.226	7.49
399.435	8.3
399.644	8.32
399.853	8.17
400.062	7.58
400.27	7.43
400.479	7.13
400.688	6.61
400.897	7.05
401.106	7.15
401.315	6.92
401.524	7.23
401.733	7.58
401.941	7.53
402.15	7.71
402.359	7.99
402.568	7.95
402.777	7.92
402.985	7.64
403.194	7.61
403.403	7.32
403.612	7.03
403.82	7.07
404.029	7.13
404.238	6.82
404.446	6.97
404.655	6.82
404.864	6.67
405.072	6.52
405.281	6.71
405.489	6.6
405.698	6.69
405.906	6.61
406.115	6.57
406.324	6.38
406.532	6.33
406.741	6.4
406.949	6.45
407.158	6.5
407.366	6.58
407.574	6.65
407.783	6.46
407.991	6.42
408.2	6.41
408.408	6.28
408.617	6.19
408.825	6.21
409.033	6.26
409.242	6.23
409.45	6.26
409.658	6.23
409.867	6.38
410.075	6.26
410.283	6.19
410.491	6.33
410.7	6.22
410.908	6.11
411.116	6.11
411.324	6.14
411.533	6.08
411.741	6.15
411.949	6.21
412.157	6.03
412.365	6.06
412.573	6.01
412.781	6.05
412.99	6.04
413.198	6.2
413.406	6.2
413.614	6.17
413.822	6.22
414.03	6.2
414.238	6.05
414.446	5.97
414.654	5.76
414.862	5.66
415.07	5.62
415.278	5.88
415.486	5.68
415.694	5.89
415.902	5.88
416.109	5.68
416.317	5.61
416.525	5.5
416.733	5.54
416.941	5.57
417.149	5.64
417.357	5.57
417.564	5.79
417.772	5.62
417.98	5.49
418.188	5.53
418.395	5.34
418.603	5.5
418.811	5.51
419.019	5.47
419.226	5.69
419.434	5.93
419.642	5.77
419.849	5.78
420.057	5.93
420.265	5.75
420.472	5.53
420.68	5.49
420.887	5.41
421.095	5.35
421.302	5.14
421.51	5.29
421.717	5.35
421.925	5.35
422.132	5.21
422.34	5.11
422.547	5.13
422.755	5.03
422.962	5.06
423.17	5.08
423.377	5.19
423.585	5.18
423.792	5.27
423.999	5.33
424.207	5.4
424.414	5.5
424.621	5.45
424.829	5.23
425.036	5.23
425.243	5.03
425.451	4.9
425.658	4.77
425.865	4.93
426.072	4.88
426.28	5.04
426.487	5.08
426.694	5.18
426.901	5.11
427.108	5.1
427.315	5.05
427.523	5.19
427.73	5.14
427.937	4.97
428.144	4.89
428.351	4.84
428.558	4.66
428.765	4.65
428.972	4.77
429.179	4.81
429.386	5.01
429.593	4.94
429.8	4.9
430.007	5.03
430.214	5.1
430.421	5.01
430.628	4.97
430.835	4.93
431.042	5.07
431.249	4.94
431.456	4.94
431.662	5.07
431.869	5.06
432.076	4.88
432.283	4.89
432.49	4.9
432.697	4.87
432.903	4.8
433.11	4.85
433.317	4.9
433.524	4.91
433.73	4.92
433.937	5.13
434.144	4.99
434.35	5.02
434.557	4.89
434.764	4.77
434.97	4.65
435.177	4.68
435.384	4.44
435.59	4.61
435.797	4.78
436.003	4.79
436.21	4.88
436.416	4.98
436.623	4.79
436.829	4.68
437.036	4.7
437.242	4.65
437.449	4.6
437.655	4.69
437.862	4.75
438.068	4.75
438.275	4.8
438.481	5.01
438.687	4.97
438.894	4.99
439.1	4.92
439.307	4.97
439.513	4.85
439.719	4.86
439.926	4.82
440.132	4.85
440.338	4.69
440.544	4.74
440.751	4.64
440.957	4.6
441.163	4.49
441.369	4.63
441.575	4.56
441.782	4.64
441.988	4.63
442.194	4.78
442.4	4.72
442.606	4.88
442.812	4.89
443.018	4.93
443.224	4.99
443.431	5.05
443.637	4.83
443.843	4.73
444.049	4.73
444.255	4.71
444.461	4.67
444.667	4.69
444.873	4.8
445.079	4.87
445.284	4.84
445.49	4.79
445.696	4.68
445.902	4.66
446.108	4.62
446.314	4.6
446.52	4.72
446.726	4.97
446.931	4.99
447.137	5.05
447.343	5.15
447.549	4.97
447.755	5
447.96	5.01
448.166	4.93
448.372	4.89
448.578	4.92
448.783	4.82
448.989	4.95
449.195	4.98
449.4	4.96
449.606	4.93
449.812	4.89
450.017	4.86
450.223	4.88
450.428	4.67
450.634	4.71
450.84	4.85
451.045	4.72
451.251	4.62
451.456	4.84
451.662	4.9
451.867	4.77
452.073	4.81
452.278	4.92
452.483	4.98
452.689	5.01
452.894	5.1
453.1	5.18
453.305	5.01
453.51	4.91
453.716	4.83
453.921	4.89
454.127	4.83
454.332	4.85
454.537	4.83
454.742	4.82
454.948	4.8
455.153	4.75
455.358	4.88
455.563	4.97
455.769	4.97
455.974	4.85
456.179	4.86
456.384	4.73
456.589	4.65
456.795	4.61
457	4.69
457.205	4.65
457.41	4.57
457.615	4.58
457.82	4.61
458.025	4.57
458.23	4.59
458.435	4.82
458.64	4.69
458.845	4.81
459.05	4.73
459.255	4.7
459.46	4.63
459.665	4.73
459.87	4.68
460.075	4.63
460.28	4.62
460.485	4.65
460.69	4.67
460.895	4.53
461.099	4.57
461.304	4.76
461.509	4.76
461.714	4.69
461.919	4.8
462.123	4.78
462.328	4.73
462.533	4.55
462.738	4.55
462.942	4.49
463.147	4.54
463.352	4.44
463.556	4.52
463.761	4.56
463.966	4.63
464.17	4.66
464.375	4.64
464.58	4.67
464.784	4.62
464.989	4.48
465.193	4.42
465.398	4.44
465.602	4.61
465.807	4.65
466.011	4.8
466.216	4.83
466.42	4.88
466.625	4.78
466.829	4.94
467.034	4.89
467.238	4.9
