Data from Ofra_PP_Phys_2CX12B_Reflection_2.txt Node
Date: Sat Jul 24 20:07:34 EDT 2021
User: USUARIO
Spectrometer: FLMT01687
Trigger mode: 0
Integration Time (sec): 1.100000E0
Scans to average: 2
Electric dark correction enabled: true
Nonlinearity correction enabled: false
Boxcar width: 2
XAxis mode: Wavelengths
Number of Pixels in Spectrum: 3648
>>>>>Begin Spectral Data<<<<<
179.494	649.11
179.716	828.6
179.937	1475.34
180.158	1247.69
180.38	582.44
180.601	-774.44
180.823	3.43
181.044	192.25
181.265	8.89
181.486	4.13
181.708	-29.11
181.929	-2858.67
182.15	841.77
182.372	70.5
182.593	16933.33
182.814	642.05
183.035	258.67
183.257	193.87
183.478	78.77
183.699	88.77
183.92	16.96
184.141	46.67
184.363	-31.48
184.584	60.06
184.805	43.23
185.026	78.09
185.247	82.21
185.468	67.25
185.689	43.79
185.91	46.44
186.132	24.4
186.353	22.82
186.574	51.58
186.795	65.89
187.016	26.32
187.237	47.49
187.458	41.59
187.679	70.76
187.9	89.98
188.121	144.84
188.342	153.26
188.563	136.41
188.784	134.83
189.005	129.18
189.226	113.74
189.447	106.38
189.667	101.68
189.888	62.62
190.109	51.26
190.33	27.58
190.551	-3.2
190.772	-12.17
190.993	-2.43
191.214	2.53
191.434	-11.93
191.655	50.5
191.876	51.87
192.097	45.77
192.318	28.09
192.538	9.56
192.759	-24.09
192.98	-30.37
193.201	-42.33
193.421	-72.41
193.642	-26.36
193.863	-16.46
194.083	-19.53
194.304	-4.82
194.525	26
194.745	18.87
194.966	-25.73
195.187	-38.71
195.407	-79.95
195.628	-101.99
195.848	-79.01
196.069	-64.82
196.29	-36.62
196.51	-73.63
196.731	-94.83
196.951	-83.86
197.172	-77.21
197.392	-75.05
197.613	-49
197.833	-48.44
198.054	-72.51
198.274	-50.47
198.495	-97.05
198.715	-51.91
198.936	-49.32
199.156	-12.18
199.377	-39.24
199.597	-31.19
199.817	-22.56
200.038	22.99
200.258	33.99
200.479	72
200.699	76.97
200.919	69.86
201.14	15.38
201.36	-7.62
201.58	-18.43
201.801	-13.6
202.021	-54.31
202.241	-4.76
202.461	-23.47
202.682	-23.46
202.902	3.91
203.122	8.49
203.342	-2.01
203.563	37
203.783	61.06
204.003	-14.96
204.223	-62.57
204.443	32.2
204.663	-18.36
204.884	-44.15
205.104	12.63
205.324	72.68
205.544	41.7
205.764	51.67
205.984	55.65
206.204	60.59
206.424	38.44
206.644	16.82
206.864	13.99
207.084	10.91
207.304	19.57
207.525	-18.53
207.745	-0.14
207.964	-17.83
208.184	-15.24
208.404	-26.82
208.624	-18.79
208.844	-6.5
209.064	-23.48
209.284	-23.14
209.504	-6.26
209.724	23.69
209.944	20.62
210.164	53.37
210.384	66.87
210.604	63.51
210.823	9.16
211.043	-32.29
211.263	-31.75
211.483	-43.99
211.703	-56.92
211.922	-18.89
212.142	37.82
212.362	50.87
212.582	27.83
212.801	40.17
213.021	6.36
213.241	0.18
213.461	-38
213.68	-52.09
213.9	-78.94
214.12	-42.05
214.339	-44.81
214.559	-24.63
214.779	1.43
214.998	36.6
215.218	-0.91
215.438	-10.96
215.657	-24.81
215.877	27.89
216.096	22.52
216.316	60.48
216.535	61.42
216.755	65.55
216.974	31.76
217.194	28.96
217.413	1.51
217.633	2.71
217.852	-55.74
218.072	-49.91
218.291	-58.72
218.511	-29.83
218.73	-90.03
218.95	-72.31
219.169	-70.18
219.389	-96.94
219.608	-116.73
219.827	-42.23
220.047	-24.16
220.266	-30.76
220.485	-28.91
220.705	0.61
220.924	-55.65
221.143	-34.28
221.363	-80.98
221.582	-43.6
221.801	-47.67
222.021	3.9
222.24	11.77
222.459	67.97
222.678	58.38
222.897	52.17
223.117	38.17
223.336	36.7
223.555	35.82
223.774	63.09
223.993	70.58
224.213	113.09
224.432	72.6
224.651	91.95
224.87	47.91
225.089	71.47
225.308	57.43
225.527	71.3
225.746	57.68
225.965	59.39
226.184	29.27
226.404	34.44
226.623	21.18
226.842	22.35
227.061	59.92
227.28	74.95
227.499	77.01
227.718	101.14
227.936	96.74
228.155	87.29
228.374	37.31
228.593	29.57
228.812	26.79
229.031	33.78
229.25	-4.24
229.469	30.38
229.688	34.81
229.907	34.03
230.125	35.68
230.344	64.18
230.563	64.87
230.782	64.95
231.001	17.69
231.22	24.16
231.438	5.31
231.657	3.01
231.876	0.41
232.095	25.84
232.313	32.79
232.532	35.74
232.751	41.58
232.969	33.65
233.188	39.22
233.407	22.98
233.625	15.97
233.844	-0.12
234.063	3.81
234.281	43.16
234.5	45.51
234.719	51.07
234.937	73.53
235.156	80.72
235.374	55.42
235.593	65.99
235.811	66.75
236.03	74.81
236.249	53.11
236.467	59.15
236.686	42
236.904	44.4
237.123	-25.8
237.341	-6.6
237.559	-28.69
237.778	-23.12
237.996	-41.54
238.215	-4.98
238.433	-12.52
238.652	4.04
238.87	-46.2
239.088	-31.18
239.307	-19.69
239.525	-18.73
239.743	-46.53
239.962	-7.15
240.18	-35.7
240.398	-71.33
240.617	-88.91
240.835	-59.85
241.053	-89.16
241.271	-31.43
241.49	4.28
241.708	9.36
241.926	22.8
242.144	34.89
242.363	5.94
242.581	-3.52
242.799	15.93
243.017	0.27
243.235	-37.34
243.453	-3.24
243.672	-30.39
243.89	-20.25
244.108	-7.4
244.326	22.53
244.544	3.74
244.762	6.26
244.98	17.72
245.198	31.08
245.416	8.97
245.634	23.22
245.852	44.53
246.07	26.98
246.288	22.32
246.506	17.48
246.724	39.46
246.942	35.14
247.16	41
247.378	42.6
247.596	58.15
247.814	44.92
248.032	7.33
248.25	6.39
248.468	5.96
248.685	27.65
248.903	38.76
249.121	52.56
249.339	22.55
249.557	31.97
249.775	6.71
249.992	-63.13
250.21	-58.3
250.428	-22.87
250.646	-36.22
250.863	-29.24
251.081	4.82
251.299	27.94
251.517	31.07
251.734	32.67
251.952	21.32
252.17	29.99
252.387	51.75
252.605	18.98
252.823	22.42
253.04	45.98
253.258	51.2
253.475	31.97
253.693	69.14
253.911	77.33
254.128	62.15
254.346	60.4
254.563	32.35
254.781	4.47
254.998	0.43
255.216	-4.65
255.433	-10.84
255.651	20.99
255.868	48.7
256.086	47.03
256.303	42.74
256.521	44.42
256.738	20.16
256.956	-10.01
257.173	6.76
257.39	12.23
257.608	7.86
257.825	22.54
258.043	33.99
258.26	35.33
258.477	32.55
258.695	26.08
258.912	-12.69
259.129	-6.76
259.346	-46.48
259.564	-37.16
259.781	-12.77
259.998	8.65
260.216	36.99
260.433	69.42
260.65	56.72
260.867	62.75
261.084	41.99
261.302	24.96
261.519	31.89
261.736	14.09
261.953	3.97
262.17	28.92
262.387	16.66
262.604	-5.47
262.822	0.75
263.039	5.42
263.256	-12.91
263.473	-6.98
263.69	-35.16
263.907	-9
264.124	-0.45
264.341	33.14
264.558	27.51
264.775	48.11
264.992	51.43
265.209	32.62
265.426	21.84
265.643	26.1
265.86	17.19
266.077	22.2
266.294	19.01
266.51	15.15
266.727	2.38
266.944	25.1
267.161	0.19
267.378	5.44
267.595	2.24
267.812	-24.45
268.028	-30.36
268.245	-20.4
268.462	-30.47
268.679	-25.07
268.896	11.09
269.112	3.03
269.329	6.71
269.546	30.73
269.763	36.46
269.979	40.71
270.196	40.13
270.413	31.24
270.629	5.29
270.846	-14.14
271.063	0.48
271.279	-16.12
271.496	-27.79
271.712	-16.54
271.929	-5.25
272.146	-2.17
272.362	20.72
272.579	59.97
272.795	60.7
273.012	85.22
273.228	77.17
273.445	57.87
273.661	-0.98
273.878	-77.32
274.094	-86.63
274.311	-119.82
274.527	-74.59
274.744	-29.63
274.96	35.24
275.177	34.61
275.393	40.27
275.609	36.29
275.826	40.74
276.042	33.32
276.259	42.31
276.475	30.19
276.691	30.14
276.908	15.26
277.124	33.9
277.34	18.81
277.557	30.35
277.773	24.13
277.989	33.12
278.205	22.08
278.422	29.69
278.638	41.55
278.854	46.16
279.07	49.1
279.286	23.33
279.503	5.01
279.719	-6.74
279.935	-24.31
280.151	-47.57
280.367	-0.5
280.583	12.82
280.799	6.24
281.016	21.87
281.232	37.54
281.448	31.71
281.664	35.22
281.88	35.89
282.096	30.29
282.312	38.71
282.528	38.35
282.744	51.41
282.96	55.51
283.176	55.46
283.392	40.5
283.608	30.57
283.824	8.95
284.04	15.27
284.256	36.76
284.471	35.74
284.687	39.34
284.903	48.96
285.119	60.52
285.335	23.64
285.551	32.16
285.767	12.41
285.982	-13.27
286.198	-26.32
286.414	-0.65
286.63	-10.82
286.846	19.78
287.061	3.08
287.277	6.84
287.493	3.01
287.709	16.51
287.924	4.69
288.14	47.72
288.356	55.37
288.571	64.24
288.787	46.44
289.003	54.41
289.218	23.46
289.434	-25.02
289.65	0.57
289.865	16.45
290.081	11.18
290.296	15.68
290.512	17.41
290.727	7.59
290.943	0.78
291.159	-7.46
291.374	4.78
291.59	2.99
291.805	-1.55
292.021	-3.27
292.236	-5.14
292.451	-11.44
292.667	1.92
292.882	6.05
293.098	13.63
293.313	14.77
293.529	4.33
293.744	-21.98
293.959	-39.87
294.175	-38.06
294.39	-9.76
294.605	14.8
294.821	44.74
295.036	46.39
295.251	48.12
295.467	26.74
295.682	22.09
295.897	3.88
296.112	-4.06
296.328	-6.41
296.543	-7.25
296.758	-19.75
296.973	23.48
297.188	46.4
297.404	23.97
297.619	28.4
297.834	25.67
298.049	-1.3
298.264	-4.15
298.479	30.9
298.694	33.77
298.909	32.57
299.125	30.18
299.34	33.2
299.555	9
299.77	8.49
299.985	-31.63
300.2	-46.39
300.415	-65.67
300.63	-47.7
300.845	-43.25
301.06	-22.84
301.275	-8.72
301.49	7.26
301.704	-1.36
301.919	-43.47
302.134	-42.44
302.349	5.26
302.564	-14.38
302.779	0.05
302.994	51.42
303.209	52.89
303.423	52.09
303.638	92.56
303.853	72.97
304.068	26.61
304.283	14.23
304.497	-9.68
304.712	-19.47
304.927	-7.53
305.142	-5.69
305.356	10.56
305.571	22.45
305.786	20.98
306	16.1
306.215	41.87
306.43	9.62
306.644	20.83
306.859	26.87
307.074	26.9
307.288	5.49
307.503	24.92
307.717	5.65
307.932	-2.4
308.147	-5.13
308.361	11.07
308.576	-10.21
308.79	-52.77
309.005	-26.32
309.219	-27.15
309.434	-12.93
309.648	-20.9
309.863	11.76
310.077	-6.15
310.292	-1.27
310.506	-29.41
310.72	15.05
310.935	46.98
311.149	31.66
311.364	43.03
311.578	64.84
311.792	44.63
312.007	38.22
312.221	20.85
312.435	17.36
312.649	-8.27
312.864	21.24
313.078	-2.75
313.292	37.48
313.507	40.89
313.721	39.04
313.935	31.25
314.149	52.13
314.363	36.47
314.578	17.03
314.792	10.02
315.006	13.41
315.22	-5.02
315.434	-3.65
315.648	7.84
315.862	4.35
316.077	6.36
316.291	29.99
316.505	39.87
316.719	41.14
316.933	3.64
317.147	20.14
317.361	-16.01
317.575	-13.05
317.789	-35.37
318.003	-20.37
318.217	-16.85
318.431	5.12
318.645	19.96
318.859	15.71
319.073	40.34
319.287	14.67
319.5	-7.43
319.714	-42.02
319.928	-33.19
320.142	-39.44
320.356	6.97
320.57	30.93
320.784	17.8
320.997	30.46
321.211	26.99
321.425	-13.22
321.639	-59.66
321.853	-23.29
322.066	-37.83
322.28	-60.39
322.494	-28.31
322.707	35.1
322.921	25.23
323.135	30.81
323.349	49.45
323.562	21.31
323.776	-12.66
323.989	-6.1
324.203	-21.2
324.417	-25.19
324.63	-28.41
324.844	-37.55
325.057	-45.47
325.271	-41.31
325.485	-31.9
325.698	6.9
325.912	36.13
326.125	25.38
326.339	42.3
326.552	34.69
326.766	27.07
326.979	11.05
327.193	42.26
327.406	25.43
327.619	29.57
327.833	37.86
328.046	32.01
328.26	8.63
328.473	4.67
328.686	-13.73
328.9	-10.52
329.113	-2.74
329.326	-5.97
329.54	14.84
329.753	29.25
329.966	18.38
330.179	20.51
330.393	29.96
330.606	19.61
330.819	42.71
331.032	45.51
331.246	53.27
331.459	73.38
331.672	61.06
331.885	38.9
332.098	11.4
332.311	18.49
332.525	-2.91
332.738	21.19
332.951	33.46
333.164	58.61
333.377	60.56
333.59	79.1
333.803	49.06
334.016	45.89
334.229	28.09
334.442	29.83
334.655	47.38
334.868	69.44
335.081	61.69
335.294	46.91
335.507	37.65
335.72	24.91
335.933	1.29
336.146	8.89
336.359	31.92
336.572	13.4
336.785	0.55
336.997	7.89
337.21	16.4
337.423	0.68
337.636	17.65
337.849	28.55
338.062	43.7
338.274	58.34
338.487	49.37
338.7	43.59
338.913	24.77
339.125	-5.46
339.338	-20.55
339.551	-0.73
339.763	20.29
339.976	31.71
340.189	49.96
340.402	53.83
340.614	38.48
340.827	21.57
341.039	1.72
341.252	-12.65
341.465	-20.64
341.677	-37.64
341.89	-76.5
342.102	-55.89
342.315	-53.52
342.527	-57.32
342.74	-34.4
342.952	14.62
343.165	19.92
343.377	50.73
343.59	42.68
343.802	60.4
344.015	73.99
344.227	86.1
344.44	57.34
344.652	56.4
344.864	42.72
345.077	27.49
345.289	30.72
345.502	45.8
345.714	39.67
345.926	44.25
346.139	38.5
346.351	29.9
346.563	23.57
346.775	34.48
346.988	14.76
347.2	5.71
347.412	-18.33
347.624	-13.98
347.837	-0.36
348.049	20.26
348.261	41.4
348.473	46.66
348.685	4.21
348.897	-22.56
349.11	-32.12
349.322	-48.13
349.534	-16.02
349.746	16.31
349.958	39.03
350.17	40.95
350.382	57.82
350.594	48.45
350.806	52.39
351.018	41.64
351.23	38.84
351.442	25.05
351.654	28.26
351.866	18.7
352.078	17.69
352.29	13.19
352.502	33.8
352.714	48.97
352.926	46.52
353.138	38.08
353.35	23.08
353.561	9.39
353.773	-11.11
353.985	-0.96
354.197	5.07
354.409	14.36
354.621	11.31
354.832	25.89
355.044	14.57
355.256	4.87
355.468	5.01
355.679	-4.3
355.891	2.27
356.103	3.87
356.314	-0.08
356.526	2.93
356.738	33.76
356.949	29.82
357.161	32.38
357.373	41.31
357.584	40.47
357.796	30.97
358.008	11.43
358.219	23.04
358.431	24.09
358.642	31.53
358.854	30.97
359.065	49.7
359.277	33.66
359.488	18.15
359.7	10.71
359.911	-5.81
360.123	-17.02
360.334	-24.44
360.546	-18.53
360.757	-29.95
360.969	-19.35
361.18	1.05
361.391	1.43
361.603	-4.59
361.814	20.9
362.025	9.04
362.237	8.43
362.448	19.74
362.659	40.24
362.871	33.75
363.082	42.57
363.293	40.86
363.504	44.43
363.716	21.39
363.927	24.61
364.138	9.67
364.349	-25.15
364.56	-27.48
364.772	-40.62
364.983	-18.61
365.194	-25.35
365.405	-0.42
365.616	3.63
365.827	18.79
366.038	-6.34
366.25	14.27
366.461	2.71
366.672	9.81
366.883	21.72
367.094	18.89
367.305	3.25
367.516	17.86
367.727	6.23
367.938	-6.59
368.149	-15.09
368.36	2.1
368.571	-4.18
368.781	-2.73
368.992	-13.82
369.203	6.41
369.414	-9.51
369.625	-12.88
369.836	-16.74
370.047	-20.97
370.258	-26.67
370.468	-24.82
370.679	-46.8
370.89	-34.45
371.101	0.47
371.312	-28.47
371.522	-32.32
371.733	-14.05
371.944	-3.34
372.155	4.48
372.365	2.59
372.576	14.05
372.787	6.15
372.997	-8.03
373.208	-19.96
373.419	3.58
373.629	-12.55
373.84	-4.86
374.05	-12.05
374.261	6.95
374.472	-13.96
374.682	8.91
374.893	-0.19
375.103	21.88
375.314	4.06
375.524	15.56
375.735	16.77
375.945	26.79
376.156	0.9
376.366	10.99
376.577	10.42
376.787	16.47
376.997	28.48
377.208	37.65
377.418	16.89
377.629	29.96
377.839	11.92
378.049	1.39
378.26	17.54
378.47	35.92
378.68	26.4
378.89	28.63
379.101	26.6
379.311	-0.53
379.521	-17.85
379.732	-18.23
379.942	-33.07
380.152	-18.36
380.362	-4.75
380.572	-3.08
380.783	11.54
380.993	24.54
381.203	18.1
381.413	21.61
381.623	29.26
381.833	20.17
382.043	11.35
382.253	13.41
382.463	18.61
382.674	18.18
382.884	2.58
383.094	8.99
383.304	4.53
383.514	2.04
383.724	5.39
383.934	0.3
384.144	-8.88
384.353	-3.37
384.563	0.87
384.773	-1.36
384.983	9.37
385.193	18.15
385.403	-0.55
385.613	-9.98
385.823	-16.05
386.033	-5.72
386.242	-8.04
386.452	8.5
386.662	7.47
386.872	16.39
387.082	10.07
387.291	-2.75
387.501	-1.85
387.711	0.21
387.921	-13.46
388.13	-7.89
388.34	7.42
388.55	2.39
388.759	4.45
388.969	13.36
389.179	9.55
389.388	7.13
389.598	7.8
389.807	5.31
390.017	5.56
390.227	5.25
390.436	2.73
390.646	6.75
390.855	9.36
391.065	8.87
391.274	6.83
391.484	4.39
391.693	3.63
391.903	3.28
392.112	4.72
392.322	8.05
392.531	13.03
392.74	12.26
392.95	8.35
393.159	6.51
393.369	6.43
393.578	2.67
393.787	1.48
393.997	5.5
394.206	5.56
394.415	6.59
394.625	7.17
394.834	5.71
395.043	4.68
395.252	5.53
395.462	5.31
395.671	6.28
395.88	8.86
396.089	9.35
396.298	8.44
396.508	7.87
396.717	7.93
396.926	6.93
397.135	6.55
397.344	6.67
397.553	7.17
397.762	7.56
397.971	7.74
398.181	7.9
398.39	6.56
398.599	6.01
398.808	5.4
399.017	6.01
399.226	6.2
399.435	7.59
399.644	7.64
399.853	7.65
400.062	7.08
400.27	7.04
400.479	6.73
400.688	6.24
400.897	6.67
401.106	6.64
401.315	6.02
401.524	6.01
401.733	6.48
401.941	6.5
402.15	6.49
402.359	6.95
402.568	7.17
402.777	6.89
402.985	6.42
403.194	6.36
403.403	6.16
403.612	5.87
403.82	6.11
404.029	6.22
404.238	6.06
404.446	6.18
404.655	5.96
404.864	5.92
405.072	5.89
405.281	6.12
405.489	5.73
405.698	5.74
405.906	5.59
406.115	5.44
406.324	5.22
406.532	5.3
406.741	5.54
406.949	5.42
407.158	5.48
407.366	5.56
407.574	5.87
407.783	5.78
407.991	5.81
408.2	5.79
408.408	5.75
408.617	5.55
408.825	5.38
409.033	5.47
409.242	5.43
409.45	5.49
409.658	5.32
409.867	5.59
410.075	5.42
410.283	5.4
410.491	5.29
410.7	5.31
410.908	5.19
411.116	5.28
411.324	5.4
411.533	5.53
411.741	5.52
411.949	5.59
412.157	5.47
412.365	5.51
412.573	5.34
412.781	5.38
412.99	5.22
413.198	5.43
413.406	5.31
413.614	5.48
413.822	5.51
414.03	5.47
414.238	5.26
414.446	5.32
414.654	4.94
414.862	4.92
415.07	4.86
415.278	5.07
415.486	4.69
415.694	4.95
415.902	4.97
416.109	4.94
416.317	4.81
416.525	4.77
416.733	4.79
416.941	4.8
417.149	4.9
417.357	4.81
417.564	5.2
417.772	5.02
417.98	5
418.188	4.91
418.395	4.85
418.603	4.78
418.811	4.69
419.019	4.55
419.226	4.84
419.434	5.1
419.642	4.92
419.849	5.04
420.057	5.22
420.265	5.15
420.472	4.84
420.68	5.1
420.887	4.98
421.095	4.98
421.302	4.78
421.51	5.06
421.717	5.08
421.925	5.2
422.132	5.1
422.34	4.93
422.547	4.75
422.755	4.67
422.962	4.7
423.17	4.61
423.377	4.82
423.585	4.92
423.792	4.82
423.999	4.78
424.207	4.77
424.414	4.74
424.621	4.81
424.829	4.67
425.036	4.64
425.243	4.64
425.451	4.57
425.658	4.32
425.865	4.37
426.072	4.39
426.28	4.48
426.487	4.34
426.694	4.51
426.901	4.63
427.108	4.71
427.315	4.61
427.523	4.97
427.73	4.94
427.937	4.53
428.144	4.21
428.351	4.28
428.558	4.18
428.765	4.16
428.972	4.34
429.179	4.58
429.386	4.72
429.593	4.58
429.8	4.36
430.007	4.66
430.214	4.74
430.421	4.65
430.628	4.71
430.835	4.69
431.042	4.66
431.249	4.6
431.456	4.66
431.662	4.83
431.869	5.07
432.076	5.13
432.283	5.17
432.49	5.04
432.697	4.92
432.903	4.67
433.11	4.51
433.317	4.49
433.524	4.73
433.73	4.59
433.937	4.88
434.144	4.86
434.35	4.89
434.557	4.63
434.764	4.7
434.97	4.62
435.177	4.69
435.384	4.42
435.59	4.6
435.797	4.66
436.003	4.68
436.21	4.66
436.416	4.87
436.623	4.74
436.829	4.77
437.036	4.75
437.242	4.68
437.449	4.62
437.655	4.59
437.862	4.6
438.068	4.57
438.275	4.75
438.481	4.91
438.687	4.88
438.894	4.77
439.1	4.73
439.307	4.64
439.513	4.44
439.719	4.52
439.926	4.52
440.132	4.62
440.338	4.57
440.544	4.65
440.751	4.52
440.957	4.65
441.163	4.4
441.369	4.4
441.575	4.25
441.782	4.27
441.988	4.02
442.194	4.1
442.4	4.12
442.606	4.39
442.812	4.47
443.018	4.65
443.224	4.77
443.431	4.88
443.637	4.69
443.843	4.48
444.049	4.5
444.255	4.42
444.461	4.35
444.667	4.28
444.873	4.44
445.079	4.44
445.284	4.49
445.49	4.35
445.696	4.23
445.902	4.2
446.108	4.15
446.314	4
446.52	4.23
446.726	4.51
446.931	4.43
447.137	4.48
447.343	4.64
447.549	4.35
447.755	4.25
447.96	4.33
448.166	4.26
448.372	4.29
448.578	4.34
448.783	4.4
448.989	4.47
449.195	4.6
449.4	4.42
449.606	4.48
449.812	4.38
450.017	4.45
450.223	4.36
450.428	4.26
450.634	4.34
450.84	4.44
451.045	4.33
451.251	4.27
451.456	4.53
451.662	4.49
451.867	4.45
452.073	4.34
452.278	4.42
452.483	4.48
452.689	4.5
452.894	4.64
453.1	4.76
453.305	4.58
453.51	4.41
453.716	4.36
453.921	4.3
454.127	4.26
454.332	4.3
454.537	4.31
454.742	4.39
454.948	4.36
455.153	4.33
455.358	4.44
455.563	4.57
455.769	4.54
455.974	4.5
456.179	4.48
456.384	4.41
456.589	4.34
456.795	4.11
457	4.08
457.205	4.19
457.41	4.12
457.615	4.1
457.82	4.32
458.025	4.38
458.23	4.21
458.435	4.38
458.64	4.23
458.845	4.24
459.05	4.19
459.255	4.22
459.46	4.16
459.665	4.26
459.87	4.29
460.075	4.18
460.28	4.25
460.485	4.34
460.69	4.39
460.895	4.09
461.099	4.12
461.304	4.22
461.509	4.21
461.714	4.01
461.919	4.31
462.123	4.34
462.328	4.31
462.533	4.06
462.738	4.29
462.942	4.11
463.147	4.19
463.352	4.19
463.556	4.23
463.761	4.11
463.966	4.27
464.17	4.31
464.375	4.21
464.58	4.27
464.784	4.31
464.989	4.18
465.193	4.12
465.398	4.14
465.602	4.37
465.807	4.35
466.011	4.52
466.216	4.52
