Data from Ofra_PP_Phys_9CX6B_Reflection_3.txt Node
Date: Sat Jul 24 20:05:18 EDT 2021
User: USUARIO
Spectrometer: FLMT01687
Trigger mode: 0
Integration Time (sec): 1.100000E0
Scans to average: 2
Electric dark correction enabled: true
Nonlinearity correction enabled: false
Boxcar width: 2
XAxis mode: Wavelengths
Number of Pixels in Spectrum: 3648
>>>>>Begin Spectral Data<<<<<
179.494	574.49
179.716	737.89
179.937	1302.17
180.158	1128.98
180.38	508.29
180.601	-611.4
180.823	21.59
181.044	688.37
181.265	-64.52
181.486	-63.3
181.708	-36.68
181.929	-1504
182.15	293.98
182.372	-99.31
182.593	53600
182.814	473.85
183.035	223.6
183.257	182.92
183.478	108.49
183.699	191.68
183.92	106.88
184.141	96.88
184.363	61.27
184.584	108.84
184.805	72.34
185.026	90.76
185.247	88.09
185.468	63.02
185.689	36.54
185.91	54.75
186.132	53.21
186.353	46.57
186.574	64.58
186.795	86.11
187.016	17.24
187.237	24.17
187.458	30.2
187.679	81.05
187.9	50.46
188.121	119.14
188.342	146.93
188.563	128.94
188.784	124.78
189.005	156.13
189.226	127.19
189.447	103.98
189.667	91.62
189.888	55.37
190.109	42.25
190.33	19.83
190.551	-0.36
190.772	10.16
190.993	7.28
191.214	-12.49
191.434	-7.44
191.655	50.65
191.876	45.31
192.097	36.09
192.318	50.9
192.538	36
192.759	18.79
192.98	27.2
193.201	44.01
193.421	5.54
193.642	20.24
193.863	7.78
194.083	-2.51
194.304	-1.26
194.525	28.77
194.745	29.34
194.966	2.81
195.187	5.58
195.407	-26.31
195.628	-58.96
195.848	-49.37
196.069	-43.53
196.29	-44.64
196.51	-76.81
196.731	-69.8
196.951	-38.41
197.172	-8.59
197.392	-11.36
197.613	25.72
197.833	35.54
198.054	0.44
198.274	8.69
198.495	-7.21
198.715	-0.29
198.936	-29.81
199.156	10.24
199.377	4.79
199.597	13.89
199.817	21.19
200.038	71.11
200.258	91.75
200.479	94.43
200.699	102.75
200.919	94.35
201.14	50.26
201.36	21.07
201.58	24.06
201.801	25.5
202.021	19.99
202.241	50.57
202.461	33.41
202.682	17.78
202.902	32.12
203.122	19.78
203.342	21.03
203.563	50.79
203.783	56.99
204.003	-45.54
204.223	-86.32
204.443	-52.21
204.663	-67.42
204.884	-83.49
205.104	8.86
205.324	45.89
205.544	53.77
205.764	60.74
205.984	90.9
206.204	80.92
206.424	93.32
206.644	48.16
206.864	49.97
207.084	44.41
207.304	53.83
207.525	26.71
207.745	39.29
207.964	45.55
208.184	25.15
208.404	21.67
208.624	19.92
208.844	31.94
209.064	-6.99
209.284	5.97
209.504	13.97
209.724	30.53
209.944	19.93
210.164	82.17
210.384	81.31
210.604	67.64
210.823	21.89
211.043	-1.54
211.263	-5.92
211.483	-11.56
211.703	-12.87
211.922	33.62
212.142	75.15
212.362	79.94
212.582	59.42
212.801	65.28
213.021	36.04
213.241	33.59
213.461	11.34
213.68	5.09
213.9	-2.99
214.12	8.33
214.339	-0.87
214.559	8.01
214.779	25.52
214.998	47.41
215.218	34.55
215.438	24.93
215.657	19.63
215.877	24.28
216.096	17.25
216.316	49.86
216.535	62.26
216.755	61.04
216.974	59.97
217.194	78.77
217.413	68.55
217.633	59.52
217.852	14.85
218.072	6.91
218.291	-22.43
218.511	-11.88
218.73	-61.98
218.95	-47.2
219.169	-37.86
219.389	-54.33
219.608	-69.7
219.827	-10.37
220.047	11.45
220.266	3.58
220.485	13.38
220.705	43.23
220.924	7.96
221.143	17.95
221.363	-15.6
221.582	19.69
221.801	11.42
222.021	46.35
222.24	49.1
222.459	93.28
222.678	65.05
222.897	47.24
223.117	53.03
223.336	60.72
223.555	48.97
223.774	88.59
223.993	115.13
224.213	158.24
224.432	118.52
224.651	146.71
224.87	105.07
225.089	104.96
225.308	79.97
225.527	93.39
225.746	92.54
225.965	81.09
226.184	58.92
226.404	57.12
226.623	43.2
226.842	29.92
227.061	61.79
227.28	83.99
227.499	99.67
227.718	117.02
227.936	117.82
228.155	111.22
228.374	58.72
228.593	49.02
228.812	34.6
229.031	34.4
229.25	28.22
229.469	66.92
229.688	58.63
229.907	72.71
230.125	76.85
230.344	79.97
230.563	83.26
230.782	122.17
231.001	78.87
231.22	88.47
231.438	95.42
231.657	68.23
231.876	46.28
232.095	76.88
232.313	91.3
232.532	75.95
232.751	84.95
232.969	69.18
233.188	66.24
233.407	52.55
233.625	43.6
233.844	41.8
234.063	35.61
234.281	71.14
234.5	80.1
234.719	107.04
234.937	88.98
235.156	109.14
235.374	80.9
235.593	84.73
235.811	81.59
236.03	90.36
236.249	69.94
236.467	85.34
236.686	66.77
236.904	65.57
237.123	16.3
237.341	21.47
237.559	3.88
237.778	15.56
237.996	-3.02
238.215	30.7
238.433	22.44
238.652	33.43
238.87	-1.6
239.088	11.84
239.307	15.2
239.525	27.28
239.743	-6.35
239.962	18.36
240.18	-8.06
240.398	-31.49
240.617	-50.84
240.835	-18.83
241.053	-49.86
241.271	7.63
241.49	27.8
241.708	32.47
241.926	45.89
242.144	62.86
242.363	37.9
242.581	50.6
242.799	76.52
243.017	74.39
243.235	51.87
243.453	86.39
243.672	53.14
243.89	50.71
244.108	53.08
244.326	65.76
244.544	45.71
244.762	40.38
244.98	35.48
245.198	48.78
245.416	31.13
245.634	45.55
245.852	63.33
246.07	53.39
246.288	34.89
246.506	49.31
246.724	61.37
246.942	46.72
247.16	50.68
247.378	59.18
247.596	68.8
247.814	60.14
248.032	39.59
248.25	39.22
248.468	40.42
248.685	50.84
248.903	61.43
249.121	77.16
249.339	48.44
249.557	39.58
249.775	12.31
249.992	-49.27
250.21	-49.97
250.428	-5.61
250.646	-5.33
250.863	-8.58
251.081	16.51
251.299	34.21
251.517	28.03
251.734	32.92
251.952	28.08
252.17	28.47
252.387	38.97
252.605	26.31
252.823	18.13
253.04	41.32
253.258	64.43
253.475	59.17
253.693	73.06
253.911	101.32
254.128	78.21
254.346	71.21
254.563	51.13
254.781	40.53
254.998	21.28
255.216	19.92
255.433	17.27
255.651	45.34
255.868	60.89
256.086	67.55
256.303	67.13
256.521	64.07
256.738	43.86
256.956	21.32
257.173	37.41
257.39	40.99
257.608	34.6
257.825	40.12
258.043	51.76
258.26	38.55
258.477	30.47
258.695	36.57
258.912	13.56
259.129	9.35
259.346	-14.92
259.564	-7.98
259.781	-8.6
259.998	11.19
260.216	26.07
260.433	54.34
260.65	41.66
260.867	40.43
261.084	15.1
261.302	25.55
261.519	35.59
261.736	28.91
261.953	32.12
262.17	55.71
262.387	31.42
262.604	1.48
262.822	12.02
263.039	13.35
263.256	-4.86
263.473	11.62
263.69	6.53
263.907	22.81
264.124	49.56
264.341	76.9
264.558	79.24
264.775	72.54
264.992	90.27
265.209	61.9
265.426	42.49
265.643	39.38
265.86	57.99
266.077	47.76
266.294	37.76
266.51	51.82
266.727	35.96
266.944	52.29
267.161	36.83
267.378	45.73
267.595	37.8
267.812	19.22
268.028	4.6
268.245	30.71
268.462	28.39
268.679	40.1
268.896	71.04
269.112	58.98
269.329	34.31
269.546	40.04
269.763	43.48
269.979	43.56
270.196	43.48
270.413	45.45
270.629	32.65
270.846	23.6
271.063	28.4
271.279	14.99
271.496	5.14
271.712	15.14
271.929	17.74
272.146	17
272.362	43.89
272.579	71.61
272.795	68.15
273.012	84.8
273.228	73.88
273.445	53.54
273.661	16.72
273.878	-33.65
274.094	-29.44
274.311	-31.22
274.527	5.1
274.744	24.28
274.96	61.56
275.177	49.98
275.393	52.66
275.609	50.05
275.826	53.61
276.042	54.54
276.259	63.92
276.475	54.9
276.691	44.69
276.908	39.58
277.124	61.43
277.34	46.56
277.557	51.67
277.773	65.37
277.989	60.01
278.205	43.94
278.422	47.95
278.638	63.4
278.854	58.59
279.07	71.51
279.286	39.6
279.503	30.75
279.719	9.44
279.935	11.2
280.151	-15.19
280.367	20.18
280.583	28.71
280.799	33.49
281.016	22.88
281.232	43.15
281.448	41.36
281.664	55.42
281.88	46.39
282.096	51.24
282.312	42.04
282.528	47.28
282.744	49.86
282.96	59.93
283.176	70.26
283.392	77.61
283.608	74.11
283.824	70.55
284.04	74.35
284.256	86.16
284.471	79.38
284.687	73.86
284.903	70.69
285.119	77.8
285.335	46.51
285.551	46.18
285.767	41.24
285.982	21.29
286.198	17.53
286.414	30.18
286.63	26.12
286.846	42.25
287.061	25.27
287.277	11.61
287.493	18.19
287.709	28.41
287.924	24.99
288.14	57.39
288.356	73.54
288.571	80.88
288.787	76.38
289.003	78.57
289.218	77.12
289.434	48.47
289.65	48
289.865	50.47
290.081	44.16
290.296	40.66
290.512	34.23
290.727	37.06
290.943	29.44
291.159	16.1
291.374	12.48
291.59	13.67
291.805	4.8
292.021	10.09
292.236	20.02
292.451	21.53
292.667	24.33
292.882	23.43
293.098	28.79
293.313	29.19
293.529	15.66
293.744	9.42
293.959	-2.06
294.175	0
294.39	13.95
294.605	34.29
294.821	50.12
295.036	42.28
295.251	44.1
295.467	32.42
295.682	29.28
295.897	24.67
296.112	21.95
296.328	33.91
296.543	31.76
296.758	43.75
296.973	61.85
297.188	90.54
297.404	39.31
297.619	43.5
297.834	37.39
298.049	25.76
298.264	-2.16
298.479	25.54
298.694	29.09
298.909	43.37
299.125	44.71
299.34	56.59
299.555	54.13
299.77	70.1
299.985	14
300.2	-4.82
300.415	-21.12
300.63	-0.82
300.845	-7.45
301.06	10.07
301.275	25.33
301.49	61.25
301.704	61.6
301.919	37.75
302.134	40.73
302.349	44.68
302.564	7.3
302.779	15.58
302.994	47
303.209	53.96
303.423	65.33
303.638	92.68
303.853	70.22
304.068	47.76
304.283	29.89
304.497	16.37
304.712	31.71
304.927	40.04
305.142	31.95
305.356	44.54
305.571	54.77
305.786	39.02
306	34.79
306.215	64.18
306.43	35.88
306.644	47.95
306.859	65.4
307.074	51.54
307.288	35.64
307.503	68.03
307.717	44.68
307.932	38.02
308.147	61.33
308.361	82.86
308.576	49.89
308.79	18.04
309.005	26.57
309.219	10.58
309.434	-9.87
309.648	-15.63
309.863	21.62
310.077	13.78
310.292	19.88
310.506	31.6
310.72	64.65
310.935	51.64
311.149	38.26
311.364	60.2
311.578	68.07
311.792	66.94
312.007	72.81
312.221	51.91
312.435	37.83
312.649	23.28
312.864	54.31
313.078	48.58
313.292	82.49
313.507	78.11
313.721	71.19
313.935	53.08
314.149	73.48
314.363	61.98
314.578	37.81
314.792	21.14
315.006	30.82
315.22	14.81
315.434	17.26
315.648	31.84
315.862	34.85
316.077	28.88
316.291	46
316.505	55.9
316.719	60.34
316.933	29.56
317.147	45.52
317.361	21.9
317.575	37.36
317.789	36.42
318.003	44.46
318.217	46.8
318.431	58.79
318.645	52.15
318.859	44.37
319.073	59.77
319.287	37.19
319.5	19.97
319.714	6.49
319.928	1.63
320.142	4.78
320.356	45.93
320.57	64.21
320.784	51.83
320.997	63.46
321.211	58.94
321.425	31.16
321.639	-10.1
321.853	24.66
322.066	15.45
322.28	4.46
322.494	19.58
322.707	59.56
322.921	39.15
323.135	38.75
323.349	39.12
323.562	22.92
323.776	3.04
323.989	24.12
324.203	8.06
324.417	25.1
324.63	9.63
324.844	-0.43
325.057	-5.01
325.271	5.07
325.485	-19.34
325.698	18.07
325.912	43.99
326.125	35.57
326.339	53.28
326.552	64.39
326.766	64.82
326.979	54.97
327.193	55.91
327.406	43.07
327.619	46.73
327.833	51.11
328.046	42.41
328.26	31.14
328.473	28.25
328.686	11.67
328.9	9.05
329.113	13.4
329.326	12.99
329.54	23.3
329.753	42.68
329.966	37.23
330.179	59.38
330.393	58.6
330.606	52.58
330.819	60.09
331.032	71.74
331.246	66.81
331.459	80.7
331.672	72.11
331.885	59.27
332.098	31.01
332.311	35.21
332.525	20.44
332.738	34.23
332.951	45.27
333.164	65.18
333.377	56.42
333.59	66.43
333.803	60.05
334.016	55
334.229	34.65
334.442	31.26
334.655	41.26
334.868	37.49
335.081	34.93
335.294	44.42
335.507	61.53
335.72	51.33
335.933	44.07
336.146	38.51
336.359	45.3
336.572	18.1
336.785	17.62
336.997	20.94
337.21	35.3
337.423	29.72
337.636	43.26
337.849	45.13
338.062	48.94
338.274	52.32
338.487	38.99
338.7	38.25
338.913	20.76
339.125	8.5
339.338	7.9
339.551	27.02
339.763	26.42
339.976	48.85
340.189	51.43
340.402	49.13
340.614	31.8
340.827	19.64
341.039	4.33
341.252	7.07
341.465	8.67
341.677	17.64
341.89	-13.71
342.102	2.29
342.315	3.22
342.527	-1.14
342.74	-2.64
342.952	39.78
343.165	39.52
343.377	53.65
343.59	40.9
343.802	58.79
344.015	65.81
344.227	75.43
344.44	57.69
344.652	53.99
344.864	40.41
345.077	42.47
345.289	27.41
345.502	43.06
345.714	42.22
345.926	48.17
346.139	45.46
346.351	45.63
346.563	46.39
346.775	66.27
346.988	57.85
347.2	46.68
347.412	34.94
347.624	27.12
347.837	17.34
348.049	21.73
348.261	37.99
348.473	41.2
348.685	16.37
348.897	21.27
349.11	18.71
349.322	13.35
349.534	35.05
349.746	58.79
349.958	59.47
350.17	58.42
350.382	65.79
350.594	57.98
350.806	56.09
351.018	56.16
351.23	52.69
351.442	41.97
351.654	52.74
351.866	42.3
352.078	41.03
352.29	45.2
352.502	63.87
352.714	63.43
352.926	64.35
353.138	62.43
353.35	46.44
353.561	29.7
353.773	15.9
353.985	15.44
354.197	15.9
354.409	26.14
354.621	34.32
354.832	34.84
355.044	40.07
355.256	34.29
355.468	37.67
355.679	32.4
355.891	45.34
356.103	34.12
356.314	31.27
356.526	45.89
356.738	60.53
356.949	55.12
357.161	54.21
357.373	58.81
357.584	48.19
357.796	43
358.008	29.48
358.219	43.94
358.431	44.29
358.642	45.24
358.854	46.27
359.065	46.83
359.277	36.63
359.488	27.8
359.7	21.26
359.911	3.55
360.123	18.41
360.334	3.39
360.546	2.74
360.757	-4.57
360.969	10.93
361.18	17.69
361.391	37.28
361.603	44.33
361.814	68.03
362.025	48.93
362.237	45.72
362.448	50.11
362.659	46.83
362.871	37.85
363.082	51.96
363.293	41.24
363.504	33.43
363.716	22.82
363.927	30.8
364.138	17.92
364.349	3.03
364.56	0.9
364.772	-7.47
364.983	-0.19
365.194	-0.34
365.405	24.44
365.616	33.7
365.827	47.07
366.038	35.15
366.25	48.74
366.461	30.45
366.672	40.37
366.883	49.18
367.094	42.49
367.305	17.09
367.516	33.08
367.727	17.57
367.938	5.86
368.149	-2.57
368.36	20.13
368.571	13.52
368.781	12.97
368.992	6.27
369.203	31.14
369.414	5.78
369.625	-0.5
369.836	0.29
370.047	4.74
370.258	-6.51
370.468	6.16
370.679	-14.33
370.89	-3.94
371.101	24.16
371.312	5.96
371.522	18.21
371.733	44.09
371.944	47.27
372.155	43.88
372.365	36.47
372.576	42.16
372.787	30.86
372.997	23.81
373.208	15.83
373.419	28.88
373.629	7.39
373.84	16.01
374.05	5.98
374.261	11.13
374.472	-0.44
374.682	17.16
374.893	13.13
375.103	30.18
375.314	30.83
375.524	41.9
375.735	46.27
375.945	49.01
376.156	38.39
376.366	44.79
376.577	47.37
376.787	43.46
376.997	52.13
377.208	55.26
377.418	28.43
377.629	36.4
377.839	27.2
378.049	16.11
378.26	25.07
378.47	50.75
378.68	39.37
378.89	41.12
379.101	43.14
379.311	29.37
379.521	6.63
379.732	10.58
379.942	-0.88
380.152	3.55
380.362	15.38
380.572	13.85
380.783	20.95
380.993	34.69
381.203	37.26
381.413	33.27
381.623	43.63
381.833	42.34
382.043	27.73
382.253	21.15
382.463	31.09
382.674	28.1
382.884	20.57
383.094	24.97
383.304	30.51
383.514	27.56
383.724	29.75
383.934	23.8
384.144	19.96
384.353	14.86
384.563	15.57
384.773	19.46
384.983	24.17
385.193	29.31
385.403	20.22
385.613	15.69
385.823	12.69
386.033	22.21
386.242	18.73
386.452	29.44
386.662	26.2
386.872	31.14
387.082	29.34
387.291	21.2
387.501	21.19
387.711	24.49
387.921	10.88
388.13	14.09
388.34	25.98
388.55	24.01
388.759	22.13
388.969	27.88
389.179	24.06
389.388	21.47
389.598	20.74
389.807	20.44
390.017	19.25
390.227	17.28
390.436	13.19
390.646	18.04
390.855	18.37
391.065	19.91
391.274	18.48
391.484	17.5
391.693	14.49
391.903	16.4
392.112	17.7
392.322	20.34
392.531	25.54
392.74	25.22
392.95	21.02
393.159	19.67
393.369	21.41
393.578	18.37
393.787	16.76
393.997	19.53
394.206	19.6
394.415	18.39
394.625	18.39
394.834	17.27
395.043	15.83
395.252	16.88
395.462	17.67
395.671	18.65
395.88	20.97
396.089	22.2
396.298	21.66
396.508	21.26
396.717	20.22
396.926	19.16
397.135	18.97
397.344	18.35
397.553	18.11
397.762	19.08
397.971	19.52
398.181	19.19
398.39	17.74
398.599	17.5
398.808	16.94
399.017	17.16
399.226	17.37
399.435	18.78
399.644	18.59
399.853	18.64
400.062	18.25
400.27	18.15
400.479	17.81
400.688	17.41
400.897	17.5
401.106	17.19
401.315	16.68
401.524	16.69
401.733	16.73
401.941	16.84
402.15	17.23
402.359	17.49
402.568	17.69
402.777	17.99
402.985	17.63
403.194	17.3
403.403	17.35
403.612	16.79
403.82	16.69
404.029	16.63
404.238	16.37
404.446	16.27
404.655	16.16
404.864	15.96
405.072	15.89
405.281	16
405.489	15.67
405.698	15.78
405.906	15.82
406.115	15.59
406.324	15.53
406.532	15.6
406.741	15.75
406.949	15.55
407.158	15.64
407.366	15.71
407.574	15.82
407.783	15.7
407.991	15.71
408.2	15.75
408.408	15.49
408.617	15.23
408.825	14.94
409.033	15.02
409.242	15.03
409.45	15.09
409.658	15.1
409.867	15.37
410.075	15.1
410.283	14.89
410.491	14.84
410.7	14.72
410.908	14.72
411.116	14.88
411.324	14.9
411.533	14.73
411.741	14.84
411.949	14.7
412.157	14.48
412.365	14.51
412.573	14.6
412.781	14.58
412.99	14.46
413.198	14.77
413.406	14.74
413.614	14.71
413.822	14.63
414.03	14.59
414.238	14.21
414.446	14.16
414.654	14.06
414.862	14.17
415.07	14.22
415.278	14.46
415.486	14.18
415.694	14.26
415.902	14.18
416.109	14.04
416.317	13.91
416.525	13.81
416.733	13.93
416.941	13.96
417.149	13.95
417.357	14
417.564	14.42
417.772	14.1
417.98	14
418.188	13.92
418.395	13.78
418.603	13.81
418.811	13.84
419.019	13.72
419.226	13.97
419.434	14.14
419.642	13.89
419.849	13.89
420.057	14.06
420.265	13.95
420.472	13.65
420.68	13.77
420.887	13.79
421.095	13.83
421.302	13.49
421.51	13.62
421.717	13.68
421.925	13.71
422.132	13.63
422.34	13.76
422.547	13.6
422.755	13.58
422.962	13.53
423.17	13.35
423.377	13.47
423.585	13.65
423.792	13.58
423.999	13.68
424.207	13.66
424.414	13.56
424.621	13.65
424.829	13.43
425.036	13.35
425.243	13.32
425.451	13.35
425.658	13.1
425.865	13.19
426.072	13.15
426.28	13.31
426.487	13.14
426.694	13.14
426.901	13.32
427.108	13.31
427.315	13.12
427.523	13.39
427.73	13.34
427.937	12.93
428.144	12.83
428.351	13.03
428.558	13.08
428.765	13.14
428.972	13.35
429.179	13.53
429.386	13.52
429.593	13.52
429.8	13.42
430.007	13.54
430.214	13.57
430.421	13.59
430.628	13.38
430.835	13.39
431.042	13.53
431.249	13.48
431.456	13.62
431.662	13.98
431.869	14.14
432.076	14.17
432.283	14.06
432.49	13.86
432.697	13.65
432.903	13.43
433.11	13.26
433.317	13.44
433.524	13.54
433.73	13.51
433.937	13.84
434.144	13.89
434.35	14.02
434.557	14.02
434.764	14.07
434.97	14.03
435.177	14.06
435.384	13.82
435.59	13.91
435.797	14.08
436.003	14.06
436.21	14.03
436.416	14.09
436.623	14.01
436.829	13.89
437.036	13.95
437.242	13.92
437.449	13.96
437.655	13.89
437.862	13.95
438.068	13.97
438.275	14.02
438.481	14.12
438.687	14.16
438.894	14.15
439.1	14.02
439.307	14.04
439.513	13.99
439.719	14.04
439.926	13.99
440.132	14.08
440.338	14.09
440.544	14.11
440.751	14.07
440.957	14.11
441.163	13.81
441.369	13.82
441.575	13.72
441.782	13.65
441.988	13.52
442.194	13.81
442.4	13.8
442.606	14.02
442.812	14.15
443.018	14.31
443.224	14.37
443.431	14.48
443.637	14.47
443.843	14.33
444.049	14.32
444.255	14.2
444.461	14.13
444.667	13.94
444.873	14
445.079	14.01
445.284	14.13
445.49	14.02
445.696	13.96
445.902	14.05
446.108	13.89
446.314	13.77
446.52	14.06
446.726	14.29
446.931	14.2
447.137	14.39
447.343	14.53
447.549	14.21
447.755	14.01
447.96	14.04
448.166	13.91
448.372	14.01
448.578	14.03
448.783	14.12
448.989	14.23
449.195	14.38
449.4	14.18
449.606	14.18
449.812	14.09
450.017	14.08
450.223	13.99
450.428	13.86
450.634	13.95
450.84	14.02
451.045	13.88
451.251	13.8
451.456	13.96
451.662	13.97
451.867	14.01
452.073	13.96
452.278	13.95
452.483	14.01
452.689	13.97
452.894	14.07
453.1	14.24
453.305	14.21
453.51	14.07
453.716	13.96
453.921	13.83
454.127	13.76
454.332	13.7
454.537	13.68
454.742	13.73
454.948	13.72
455.153	13.63
455.358	13.77
455.563	13.75
455.769	13.68
455.974	13.69
456.179	13.63
456.384	13.46
456.589	13.52
456.795	13.35
457	13.31
457.205	13.39
457.41	13.35
457.615	13.3
457.82	13.42
458.025	13.41
458.23	13.22
458.435	13.33
458.64	13.06
458.845	13.21
459.05	13.23
459.255	13.28
459.46	13.28
459.665	13.4
459.87	13.32
460.075	13.12
460.28	13.08
460.485	13.15
460.69	13.2
460.895	13.03
461.099	13.05
461.304	13.2
461.509	13.14
461.714	13
461.919	13.15
462.123	13.16
462.328	13.16
462.533	12.91
462.738	12.98
