Data from Ofra_PP_Phys_2CX12O_Reflection_3.txt Node
Date: Sat Jul 24 20:07:03 EDT 2021
User: USUARIO
Spectrometer: FLMT01687
Trigger mode: 0
Integration Time (sec): 1.100000E0
Scans to average: 2
Electric dark correction enabled: true
Nonlinearity correction enabled: false
Boxcar width: 2
XAxis mode: Wavelengths
Number of Pixels in Spectrum: 3648
>>>>>Begin Spectral Data<<<<<
179.494	620.03
179.716	816.14
179.937	1421.04
180.158	1270.32
180.38	693.43
180.601	-742.66
180.823	56.21
181.044	737.98
181.265	28.96
181.486	91.14
181.708	-11.06
181.929	-1349.33
182.15	59.44
182.372	-83.37
182.593	32266.67
182.814	4.1
183.035	90.26
183.257	73.8
183.478	4.65
183.699	15.93
183.92	-10.42
184.141	13.12
184.363	-29.79
184.584	37.41
184.805	28.71
185.026	52.84
185.247	59.28
185.468	36.72
185.689	33.82
185.91	50.79
186.132	56.9
186.353	33.1
186.574	71.82
186.795	60.38
187.016	6.66
187.237	12.47
187.458	12.33
187.679	-69.19
187.9	7.02
188.121	40.27
188.342	43.79
188.563	61.09
188.784	98.05
189.005	94.54
189.226	101.26
189.447	96.91
189.667	83.97
189.888	49.2
190.109	39.55
190.33	7.01
190.551	-20.88
190.772	-29.1
190.993	-37.75
191.214	-47.11
191.434	-63.09
191.655	-5.28
191.876	-2.68
192.097	1.42
192.318	13.95
192.538	5.06
192.759	-9.16
192.98	-10
193.201	4.51
193.421	-34.82
193.642	-8.33
193.863	-10.76
194.083	-34.88
194.304	-34
194.525	-10.03
194.745	-7.87
194.966	-38.17
195.187	-46.99
195.407	-85.54
195.628	-102.51
195.848	-111.33
196.069	-120.01
196.29	-98.66
196.51	-154.4
196.731	-156.36
196.951	-137.46
197.172	-108.35
197.392	-72.19
197.613	-27.06
197.833	-21.47
198.054	-31.62
198.274	-9
198.495	-48.53
198.715	4.58
198.936	-19.14
199.156	-10.7
199.377	-46.75
199.597	-35.69
199.817	-74.25
200.038	-16.52
200.258	-0.39
200.479	54.64
200.699	61.75
200.919	62.18
201.14	-1.18
201.36	-11.65
201.58	-23.21
201.801	-30.66
202.021	-31.45
202.241	19.04
202.461	-4.57
202.682	-20.62
202.902	22.6
203.122	17.18
203.342	12.22
203.563	22.03
203.783	37.29
204.003	-52.85
204.223	-166.29
204.443	-86.88
204.663	-44.54
204.884	-74.55
205.104	-1.63
205.324	62.55
205.544	55.65
205.764	35.08
205.984	75.53
206.204	60.21
206.424	57.08
206.644	29.7
206.864	48.24
207.084	16.99
207.304	47.43
207.525	-7.24
207.745	9.21
207.964	-4.8
208.184	12.61
208.404	-11.14
208.624	-1.48
208.844	-5.41
209.064	-36.22
209.284	-47.65
209.504	-48.52
209.724	-30.61
209.944	-59.88
210.164	-9.1
210.384	27.02
210.604	39.95
210.823	-20.1
211.043	-28.37
211.263	-23.73
211.483	-58.12
211.703	-66.13
211.922	-22.41
212.142	33.87
212.362	41.82
212.582	26.81
212.801	29.47
213.021	13.5
213.241	-1.91
213.461	-43.17
213.68	-51.57
213.9	-71.69
214.12	-81.89
214.339	-103.7
214.559	-85.77
214.779	-70.74
214.998	-24.08
215.218	-21.34
215.438	-0.74
215.657	-13.58
215.877	-4.79
216.096	-0.55
216.316	32.22
216.535	18.53
216.755	36.29
216.974	30.56
217.194	18.54
217.413	-17.72
217.633	-12.16
217.852	-73.92
218.072	-86.41
218.291	-109.16
218.511	-60.28
218.73	-108.43
218.95	-91.87
219.169	-73.48
219.389	-89.04
219.608	-108.85
219.827	-50.03
220.047	-35.56
220.266	-32.92
220.485	-22.08
220.705	1.03
220.924	-32.64
221.143	15.76
221.363	-33.9
221.582	7.93
221.801	9.3
222.021	46.28
222.24	24.93
222.459	74.52
222.678	51.02
222.897	11.29
223.117	-16.96
223.336	-16.85
223.555	2.14
223.774	33.32
223.993	75.89
224.213	162.69
224.432	111.15
224.651	129.47
224.87	90.02
225.089	81.11
225.308	54.87
225.527	79.39
225.746	52.53
225.965	36.94
226.184	16.19
226.404	32.88
226.623	2.75
226.842	7.44
227.061	43.21
227.28	55.65
227.499	48.9
227.718	73.99
227.936	68.11
228.155	44.37
228.374	12.29
228.593	11.18
228.812	-6.29
229.031	14.15
229.25	-2.47
229.469	28.24
229.688	39.34
229.907	52.61
230.125	52.95
230.344	58.64
230.563	46.77
230.782	52.15
231.001	-1.15
231.22	-10.42
231.438	-19.35
231.657	11.19
231.876	0.65
232.095	41.33
232.313	41.66
232.532	37.53
232.751	32.16
232.969	28.91
233.188	23.35
233.407	11.8
233.625	4.25
233.844	-16.24
234.063	-43.68
234.281	-18.79
234.5	-0.56
234.719	12.34
234.937	35.52
235.156	55.98
235.374	49.01
235.593	64.75
235.811	58.03
236.03	57.04
236.249	34.23
236.467	26.61
236.686	-3.73
236.904	9.33
237.123	-53.29
237.341	-35.14
237.559	-43.31
237.778	-32.05
237.996	-45.84
238.215	-6.98
238.433	-10.09
238.652	16.92
238.87	-17.89
239.088	5.56
239.307	20.91
239.525	10.73
239.743	-30.75
239.962	3.06
240.18	-23.18
240.398	-54.43
240.617	-63.43
240.835	-18.88
241.053	-50.81
241.271	-16.33
241.49	9.44
241.708	14.9
241.926	12.06
242.144	19.45
242.363	7.65
242.581	-14.01
242.799	2.77
243.017	-18
243.235	-16.42
243.453	1.45
243.672	8.21
243.89	31.57
244.108	46.63
244.326	53.48
244.544	44.33
244.762	29.46
244.98	10.4
245.198	12.58
245.416	-11.16
245.634	-18.32
245.852	17.13
246.07	8.9
246.288	0.13
246.506	12.02
246.724	41.69
246.942	30.82
247.16	51.34
247.378	62.68
247.596	72.06
247.814	51.33
248.032	11.48
248.25	-3.88
248.468	-12.18
248.685	0.73
248.903	2.02
249.121	18.06
249.339	-15.81
249.557	-14.81
249.775	-19.03
249.992	-82.25
250.21	-90.6
250.428	-45.42
250.646	-47.29
250.863	-45.98
251.081	-16.68
251.299	19.65
251.517	6.39
251.734	12.97
251.952	1.9
252.17	25.18
252.387	28.74
252.605	20.13
252.823	16.6
253.04	38.56
253.258	33.82
253.475	32.65
253.693	55.67
253.911	73.29
254.128	60.4
254.346	63.16
254.563	37.61
254.781	20.83
254.998	11.57
255.216	1.73
255.433	-8.55
255.651	18.05
255.868	26.05
256.086	23.52
256.303	30.13
256.521	33.25
256.738	12.18
256.956	-7.73
257.173	10.73
257.39	9.86
257.608	8.54
257.825	16.79
258.043	36.03
258.26	28.18
258.477	28.38
258.695	34.28
258.912	7.13
259.129	-7.34
259.346	-38.72
259.564	-41.71
259.781	-27.01
259.998	-10.52
260.216	19.35
260.433	41.42
260.65	29.24
260.867	31.03
261.084	21.2
261.302	17.78
261.519	22.62
261.736	12.91
261.953	2.77
262.17	22.15
262.387	14.11
262.604	0.63
262.822	5.18
263.039	2.56
263.256	-19.82
263.473	-9.05
263.69	-20.06
263.907	7.66
264.124	27.17
264.341	64.7
264.558	54.5
264.775	56.71
264.992	52.06
265.209	29.14
265.426	3.84
265.643	1.31
265.86	2.51
266.077	21.61
266.294	5.27
266.51	16.9
266.727	6.97
266.944	22.33
267.161	-11.28
267.378	9.94
267.595	11.97
267.812	-13.46
268.028	-13.86
268.245	4.15
268.462	-6.68
268.679	-4.66
268.896	36.55
269.112	28.36
269.329	27.89
269.546	39.07
269.763	35.02
269.979	27.16
270.196	7.99
270.413	-0.35
270.629	-16.99
270.846	-13.6
271.063	2.56
271.279	-9.9
271.496	-29.06
271.712	-19.76
271.929	-17.96
272.146	-23.1
272.362	-0.98
272.579	47.36
272.795	48.45
273.012	59.3
273.228	49.36
273.445	34.48
273.661	-8.5
273.878	-87.75
274.094	-97.65
274.311	-110.86
274.527	-66.97
274.744	-39.1
274.96	34.79
275.177	42.22
275.393	42.05
275.609	33.03
275.826	37.49
276.042	23.39
276.259	26.45
276.475	17.41
276.691	26.17
276.908	6.62
277.124	27.01
277.34	20.77
277.557	27.48
277.773	19.91
277.989	29.95
278.205	31.66
278.422	24.8
278.638	31.57
278.854	37.22
279.07	26.98
279.286	-15.94
279.503	-22.38
279.719	-29.56
279.935	-36.59
280.151	-39.56
280.367	-2.62
280.583	11.28
280.799	13.35
281.016	15.43
281.232	20.82
281.448	22.53
281.664	18.56
281.88	17.95
282.096	6.95
282.312	26.56
282.528	28.43
282.744	45.54
282.96	50.71
283.176	61.22
283.392	46.85
283.608	47.39
283.824	28.09
284.04	25.42
284.256	50.21
284.471	39.15
284.687	31.45
284.903	36.12
285.119	54.27
285.335	6.77
285.551	26.04
285.767	23.69
285.982	16.23
286.198	0.29
286.414	19.47
286.63	8.28
286.846	21.65
287.061	4.23
287.277	5.76
287.493	15.18
287.709	19.68
287.924	14.78
288.14	48.39
288.356	49.07
288.571	48.14
288.787	32.9
289.003	41.99
289.218	18.66
289.434	-20.88
289.65	4.24
289.865	17.74
290.081	5.52
290.296	11.02
290.512	19.75
290.727	10.89
290.943	-0.88
291.159	2.76
291.374	6.82
291.59	-13.13
291.805	-19.89
292.021	0.23
292.236	-11.86
292.451	-9.96
292.667	7.26
292.882	21.42
293.098	23.77
293.313	14.96
293.529	2.23
293.744	-14.94
293.959	-32.37
294.175	-33.32
294.39	5.62
294.605	25.12
294.821	53.28
295.036	45.46
295.251	54.2
295.467	26.03
295.682	24.22
295.897	1.47
296.112	4.73
296.328	-0.3
296.543	-1.03
296.758	-10.59
296.973	25.46
297.188	61.28
297.404	33.71
297.619	42.82
297.834	34.22
298.049	22.54
298.264	-8.31
298.479	29.52
298.694	36.99
298.909	62.11
299.125	63.25
299.34	74.34
299.555	47.13
299.77	35.48
299.985	-30.87
300.2	-43.93
300.415	-78.73
300.63	-54.56
300.845	-47.62
301.06	-36.53
301.275	-29.77
301.49	-9.01
301.704	-10.06
301.919	-25.81
302.134	-12.98
302.349	13.04
302.564	-5.95
302.779	7.45
302.994	43.39
303.209	48.33
303.423	29.65
303.638	54.45
303.853	16.91
304.068	-42.75
304.283	-35.58
304.497	-18.92
304.712	-9.44
304.927	11.12
305.142	13.02
305.356	20.25
305.571	26.27
305.786	14.67
306	6.11
306.215	29.57
306.43	9.53
306.644	17.2
306.859	23.04
307.074	24.51
307.288	-4.73
307.503	-9.36
307.717	-28.83
307.932	-27.34
308.147	-37.43
308.361	-0.05
308.576	3.36
308.79	-27.02
309.005	-4.34
309.219	4.09
309.434	3.06
309.648	-17.06
309.863	15.39
310.077	-2.59
310.292	-8.66
310.506	-28.4
310.72	12.04
310.935	27.85
311.149	23.24
311.364	30.53
311.578	54.92
311.792	34.92
312.007	37.79
312.221	15.75
312.435	17.41
312.649	-26.19
312.864	-9.6
313.078	-27.92
313.292	14.58
313.507	10.38
313.721	21.06
313.935	20.44
314.149	37.06
314.363	9.7
314.578	-8.06
314.792	-10.54
315.006	11.04
315.22	11.73
315.434	18.17
315.648	34.89
315.862	30.8
316.077	18.45
316.291	15.64
316.505	23.63
316.719	40.65
316.933	10.15
317.147	29.76
317.361	-5
317.575	-17.04
317.789	-27.66
318.003	-15.02
318.217	-8.91
318.431	22.53
318.645	42.81
318.859	30.89
319.073	52.58
319.287	32.6
319.5	-2.08
319.714	-41.57
319.928	-40.63
320.142	-50.34
320.356	-6.23
320.57	30.46
320.784	39.42
320.997	43.09
321.211	41.24
321.425	7.02
321.639	-33.37
321.853	-22.91
322.066	-18.62
322.28	-38.04
322.494	-24.65
322.707	22.53
322.921	10.14
323.135	5.53
323.349	15.45
323.562	-5.71
323.776	-34.98
323.989	-31.16
324.203	-39.04
324.417	-28.12
324.63	-41.11
324.844	-63.43
325.057	-68.31
325.271	-71.14
325.485	-58.88
325.698	-2.53
325.912	31.57
326.125	30.66
326.339	42.22
326.552	43.63
326.766	31.34
326.979	19.39
327.193	45.84
327.406	36.38
327.619	29.26
327.833	30.29
328.046	23.53
328.26	3.03
328.473	-6.25
328.686	-24.42
328.9	-10.71
329.113	-10.66
329.326	-26.98
329.54	-9.86
329.753	0.86
329.966	-18.38
330.179	8.52
330.393	27.78
330.606	18.59
330.819	39.73
331.032	42.31
331.246	40.1
331.459	52.15
331.672	41.13
331.885	15.12
332.098	-4.48
332.311	3.34
332.525	-10.25
332.738	5.76
332.951	14.53
333.164	27.53
333.377	32.61
333.59	37.97
333.803	31.43
334.016	30.78
334.229	34.36
334.442	37.99
334.655	48.64
334.868	53.66
335.081	48.44
335.294	38.99
335.507	42.4
335.72	43.97
335.933	32.95
336.146	34.28
336.359	47.63
336.572	16.93
336.785	3.15
336.997	9.77
337.21	22.71
337.423	19.42
337.636	35.2
337.849	39.1
338.062	33.84
338.274	35.92
338.487	22.62
338.7	23.06
338.913	2.6
339.125	-1.17
339.338	-3.63
339.551	0.1
339.763	18.95
339.976	51.5
340.189	56.15
340.402	52.05
340.614	41.89
340.827	15.22
341.039	-4.01
341.252	-20.98
341.465	-28.5
341.677	-32.77
341.89	-60.74
342.102	-55.99
342.315	-45.42
342.527	-56.78
342.74	-37.43
342.952	17.93
343.165	28.26
343.377	50.91
343.59	49.13
343.802	59.54
344.015	53.76
344.227	55.32
344.44	33.02
344.652	25.7
344.864	18.34
345.077	25.43
345.289	18.55
345.502	35.87
345.714	34.3
345.926	37.99
346.139	21.87
346.351	22.47
346.563	18.59
346.775	37.12
346.988	14.42
347.2	13.15
347.412	-5.22
347.624	-11.25
347.837	-8.99
348.049	23.33
348.261	36.26
348.473	43.14
348.685	18.19
348.897	0.1
349.11	-27.3
349.322	-17.47
349.534	3.54
349.746	31.85
349.958	34.88
350.17	33.57
350.382	26.56
350.594	24.05
350.806	11.68
351.018	9.05
351.23	8.34
351.442	0.98
351.654	-7.69
351.866	-7.66
352.078	-4.28
352.29	-6.88
352.502	9.86
352.714	37.94
352.926	32.54
353.138	39.75
353.35	24.87
353.561	18.3
353.773	-7.39
353.985	2.52
354.197	-3.2
354.409	14.5
354.621	11.34
354.832	17.82
355.044	7.02
355.256	0.89
355.468	-6.89
355.679	-14.49
355.891	-3.63
356.103	-9.74
356.314	-9.03
356.526	13.57
356.738	34.02
356.949	28.61
357.161	34.45
357.373	36.62
357.584	22.9
357.796	12.86
358.008	6.28
358.219	18.85
358.431	21.18
358.642	37.36
358.854	45.86
359.065	42.22
359.277	24.79
359.488	23.26
359.7	1.64
359.911	-17.15
360.123	-10.2
360.334	-5.98
360.546	-15.62
360.757	-20.78
360.969	-1.87
361.18	12.98
361.391	7.54
361.603	3.57
361.814	31.88
362.025	6.57
362.237	-2.21
362.448	7.31
362.659	22.89
362.871	12.05
363.082	20.79
363.293	27.29
363.504	19.59
363.716	15.1
363.927	21.35
364.138	10.84
364.349	-28.46
364.56	-21.86
364.772	-49.81
364.983	-44.95
365.194	-55.33
365.405	-25.41
365.616	-25.86
365.827	-3.36
366.038	-9.64
366.25	15.97
366.461	-7.91
366.672	6.38
366.883	22.61
367.094	21.49
367.305	2.41
367.516	24.69
367.727	14.06
367.938	-7.41
368.149	-15.63
368.36	2.37
368.571	-1.17
368.781	-10.42
368.992	-16.88
369.203	10.27
369.414	-7.17
369.625	-22.03
369.836	-20.2
370.047	-17.33
370.258	-32.01
370.468	-29
370.679	-51.66
370.89	-46.59
371.101	-17.94
371.312	-37.38
371.522	-31.88
371.733	0.08
371.944	8.76
372.155	-1.77
372.365	-4.6
372.576	8.97
372.787	-5.51
372.997	-9.3
373.208	-7.44
373.419	9.75
373.629	-12.52
373.84	-3.19
374.05	-16.5
374.261	-5.33
374.472	-19.72
374.682	5.14
374.893	-8.79
375.103	8.4
375.314	-0.93
375.524	-2.69
375.735	1.72
375.945	20.26
376.156	2.77
376.366	5.83
376.577	14.23
376.787	10.88
376.997	19.88
377.208	34.91
377.418	18.01
377.629	28.28
377.839	14.77
378.049	3.79
378.26	12.31
378.47	29.19
378.68	22.22
378.89	29.88
379.101	26.44
379.311	9.01
379.521	-11.69
379.732	-9.61
379.942	-34.57
380.152	-18.97
380.362	-10.07
380.572	-2.88
380.783	11.79
380.993	26.72
381.203	27.64
381.413	25.29
381.623	26.24
381.833	6.09
382.043	-7.95
382.253	-13.5
382.463	-6.82
382.674	0.05
382.884	-8.96
383.094	5.9
383.304	4.13
383.514	0.25
383.724	-1.55
383.934	-8.17
384.144	-19.64
384.353	-17.73
384.563	-9.47
384.773	-7.36
384.983	6.37
385.193	13.21
385.403	4.02
385.613	4.17
385.823	4.61
386.033	8.62
386.242	3.34
386.452	12.15
386.662	1.87
386.872	5.3
387.082	5.16
387.291	-1.37
387.501	6.17
387.711	10.6
387.921	-1.44
388.13	-0.92
388.34	11.35
388.55	4.98
388.759	8.19
388.969	14.84
389.179	14.04
389.388	11.1
389.598	11.01
389.807	6.83
390.017	6.18
390.227	4.53
390.436	2.37
390.646	6.36
390.855	7.91
391.065	10.97
391.274	8.03
391.484	5.53
391.693	5.39
391.903	5.95
392.112	6.24
392.322	10.4
392.531	15.49
392.74	13.19
392.95	9.9
393.159	7.57
393.369	7.74
393.578	4.13
393.787	3.7
393.997	7.31
394.206	7.72
394.415	8.38
394.625	9.83
394.834	7.86
395.043	6.19
395.252	7.35
395.462	6.95
395.671	7.67
395.88	10.4
396.089	11.62
396.298	10.2
396.508	9.47
396.717	9.21
396.926	8.59
397.135	8.27
397.344	8.14
397.553	8.77
397.762	9.15
397.971	8.85
398.181	8.91
398.39	8.33
398.599	7.59
398.808	7.02
399.017	7.53
399.226	7.22
399.435	8.2
399.644	8.33
399.853	8.26
400.062	7.74
400.27	7.9
400.479	7.42
400.688	6.99
400.897	7.22
401.106	7.17
401.315	6.67
401.524	6.88
401.733	7.36
401.941	7.63
402.15	7.7
402.359	7.88
402.568	7.97
402.777	7.77
402.985	7.37
403.194	7.53
403.403	7.53
403.612	7.28
403.82	7.26
404.029	7.45
404.238	7.1
404.446	7.08
404.655	6.79
404.864	6.84
405.072	6.52
405.281	6.75
405.489	6.61
405.698	6.64
405.906	6.58
406.115	6.64
406.324	6.34
406.532	6.33
406.741	6.57
406.949	6.41
407.158	6.42
407.366	6.54
407.574	6.71
407.783	6.67
407.991	6.74
408.2	6.67
408.408	6.57
408.617	6.35
408.825	6.12
409.033	6.21
409.242	6.26
409.45	6.34
409.658	6.35
409.867	6.56
410.075	6.39
410.283	6.3
410.491	6.15
410.7	5.95
410.908	5.89
411.116	5.97
411.324	6.05
411.533	6.18
411.741	6.27
411.949	6.38
412.157	6.2
412.365	6.31
412.573	6.21
412.781	6.28
412.99	6.01
413.198	6.19
413.406	6.03
413.614	6.08
413.822	6.1
414.03	6.15
414.238	5.91
414.446	6.02
414.654	5.79
414.862	5.84
415.07	5.92
415.278	6.19
415.486	5.68
415.694	5.94
415.902	5.91
416.109	5.74
416.317	5.62
416.525	5.6
416.733	5.55
416.941	5.55
417.149	5.62
417.357	5.6
417.564	5.92
417.772	5.83
417.98	5.85
418.188	5.79
418.395	5.68
418.603	5.74
418.811	5.51
419.019	5.24
419.226	5.45
419.434	5.66
419.642	5.51
419.849	5.67
420.057	6
420.265	5.87
420.472	5.62
420.68	5.75
420.887	5.6
421.095	5.52
421.302	5.38
421.51	5.69
421.717	5.66
421.925	5.76
422.132	5.51
422.34	5.37
422.547	5.04
422.755	5.05
422.962	5.16
423.17	5.22
423.377	5.3
423.585	5.38
423.792	5.25
423.999	5.24
424.207	5.24
424.414	5.37
424.621	5.35
424.829	5.27
425.036	5.27
425.243	5.22
425.451	5.1
425.658	4.92
425.865	5.01
426.072	4.9
426.28	5.02
426.487	4.83
426.694	5.09
426.901	5.16
427.108	5.14
427.315	5.08
427.523	5.46
427.73	5.47
427.937	5.11
428.144	4.98
428.351	5.06
428.558	4.9
428.765	4.68
428.972	4.77
429.179	4.99
429.386	5.09
429.593	5.05
429.8	5.06
430.007	5.25
430.214	5.34
430.421	5.16
430.628	5.09
430.835	5.02
431.042	5.21
431.249	5.11
431.456	5.25
431.662	5.48
431.869	5.62
432.076	5.45
432.283	5.41
432.49	5.17
432.697	5.09
432.903	4.87
433.11	4.86
433.317	4.87
433.524	5.08
433.73	4.95
433.937	5.32
434.144	5.24
434.35	5.27
434.557	5.15
434.764	5.18
434.97	5.05
435.177	5.15
435.384	4.89
435.59	5.07
435.797	5.2
436.003	5.11
436.21	5.05
436.416	5.1
436.623	4.91
436.829	4.93
437.036	5.08
437.242	5.11
437.449	5.2
437.655	5.25
437.862	5.27
438.068	5.28
438.275	5.27
438.481	5.44
438.687	5.39
438.894	5.3
439.1	5.11
439.307	5.18
439.513	5.04
439.719	5.14
439.926	5.04
440.132	5.15
440.338	5.09
440.544	5.13
440.751	4.94
440.957	5.16
441.163	4.89
441.369	4.94
441.575	4.83
441.782	4.85
441.988	4.62
442.194	4.81
442.4	4.78
442.606	4.98
442.812	5.13
443.018	5.24
443.224	5.36
443.431	5.49
443.637	5.41
443.843	5.23
444.049	5.24
444.255	5.17
444.461	5.07
444.667	4.9
444.873	4.98
445.079	5.08
445.284	5.09
445.49	4.96
445.696	4.92
445.902	5
446.108	4.93
446.314	4.87
446.52	5.07
446.726	5.39
446.931	5.33
447.137	5.34
447.343	5.47
447.549	5.2
447.755	5.04
447.96	5.06
448.166	4.94
448.372	4.88
448.578	4.96
448.783	4.97
448.989	5
449.195	5.21
449.4	5.17
449.606	5.2
449.812	5.1
450.017	5.16
450.223	5.06
450.428	4.89
450.634	5.03
450.84	5.19
451.045	5.1
451.251	5.03
451.456	5.19
451.662	5.19
451.867	5.17
452.073	5.12
452.278	5.14
452.483	5.33
452.689	5.29
452.894	5.42
453.1	5.57
453.305	5.45
453.51	5.25
453.716	5.15
453.921	5.03
454.127	4.93
454.332	4.95
454.537	4.97
454.742	5.08
454.948	5.13
455.153	5.06
455.358	5.21
455.563	5.41
455.769	5.34
455.974	5.18
456.179	5.23
456.384	5.11
456.589	4.98
456.795	4.84
457	4.87
457.205	4.97
457.41	4.98
457.615	4.91
457.82	5.1
458.025	5.18
458.23	4.89
458.435	5.07
458.64	4.92
458.845	4.89
459.05	4.76
459.255	4.81
459.46	4.7
459.665	4.77
459.87	4.76
460.075	4.67
460.28	4.79
460.485	4.88
460.69	4.99
460.895	4.83
461.099	4.86
461.304	4.96
461.509	4.9
461.714	4.72
461.919	4.94
462.123	4.91
462.328	4.86
462.533	4.59
462.738	4.77
462.942	4.52
463.147	4.64
463.352	4.66
463.556	4.75
463.761	4.72
463.966	4.97
464.17	5.06
464.375	4.98
464.58	4.95
464.784	4.93
464.989	4.77
465.193	4.74
465.398	4.71
465.602	5
