Data from Ofra_PP_Phys_9CX6B_Reflection_2.txt Node
Date: Sat Jul 24 20:05:09 EDT 2021
User: USUARIO
Spectrometer: FLMT01687
Trigger mode: 0
Integration Time (sec): 1.100000E0
Scans to average: 2
Electric dark correction enabled: true
Nonlinearity correction enabled: false
Boxcar width: 2
XAxis mode: Wavelengths
Number of Pixels in Spectrum: 3648
>>>>>Begin Spectral Data<<<<<
179.494	527.43
179.716	679.3
179.937	1192.37
180.158	1013.14
180.38	486.99
180.601	-607.43
180.823	10.2
181.044	363.57
181.265	-41.36
181.486	-5.27
181.708	13.83
181.929	-785.33
182.15	111.24
182.372	-64.29
182.593	29166.67
182.814	387.18
183.035	141.52
183.257	119.32
183.478	70.39
183.699	104.12
183.92	26.57
184.141	69.22
184.363	1.53
184.584	55.32
184.805	43.54
185.026	61.31
185.247	45.05
185.468	28.07
185.689	7.94
185.91	12.84
186.132	4.57
186.353	29.75
186.574	35.16
186.795	51.96
187.016	16.22
187.237	31.59
187.458	12.4
187.679	89.89
187.9	72.24
188.121	104.92
188.342	136.01
188.563	96.22
188.784	98.71
189.005	85.6
189.226	85.04
189.447	54.94
189.667	70.88
189.888	48.88
190.109	33.91
190.33	10.5
190.551	-6.17
190.772	-15.15
190.993	-40.95
191.214	-33.82
191.434	-64.45
191.655	-7.71
191.876	-28.24
192.097	-7.92
192.318	0.91
192.538	11.86
192.759	-4.35
192.98	6.24
193.201	-3
193.421	-24.69
193.642	-7.45
193.863	-3.91
194.083	-10.56
194.304	-0.96
194.525	20.28
194.745	19.24
194.966	-19.45
195.187	-31.57
195.407	-45.03
195.628	-85.05
195.848	-80.02
196.069	-84.95
196.29	-57.02
196.51	-107.76
196.731	-93.92
196.951	-90.51
197.172	-59.1
197.392	-47.32
197.613	-8.04
197.833	3.13
198.054	-0.46
198.274	13.93
198.495	-0.37
198.715	16.63
198.936	-25.14
199.156	12.43
199.377	-2.41
199.597	3.82
199.817	-6.76
200.038	53.58
200.258	39.71
200.479	50.28
200.699	54.69
200.919	37.46
201.14	-4.13
201.36	-15.37
201.58	-23.85
201.801	-4.5
202.021	-0.02
202.241	29.26
202.461	23.24
202.682	10.75
202.902	18.84
203.122	25.86
203.342	14.35
203.563	18.56
203.783	38.15
204.003	-33.11
204.223	-117.98
204.443	-7.43
204.663	41.9
204.884	-8.41
205.104	27.78
205.324	62.81
205.544	28.82
205.764	12.58
205.984	52.11
206.204	41.7
206.424	45.54
206.644	34.7
206.864	45.71
207.084	22.75
207.304	28.04
207.525	-5.03
207.745	7.54
207.964	14.96
208.184	3.48
208.404	6.54
208.624	8.34
208.844	11.72
209.064	-24.92
209.284	0.33
209.504	10.24
209.724	23.83
209.944	24.66
210.164	58.82
210.384	48.38
210.604	34.85
210.823	-4.15
211.043	-36.03
211.263	-35.31
211.483	-55.41
211.703	-51.51
211.922	-12
212.142	51.42
212.362	49.89
212.582	41.07
212.801	43.1
213.021	16.43
213.241	7.19
213.461	-11.35
213.68	-23.15
213.9	-18.17
214.12	-2.71
214.339	-31.02
214.559	-12.48
214.779	9.92
214.998	43.29
215.218	34.73
215.438	40.58
215.657	31.62
215.877	42.64
216.096	25.02
216.316	38.2
216.535	35.59
216.755	45.94
216.974	33.48
217.194	27.89
217.413	20.51
217.633	28.89
217.852	-16.57
218.072	-16.47
218.291	-27.67
218.511	-5.55
218.73	-52.35
218.95	-57.58
219.169	-63.88
219.389	-75.77
219.608	-98.95
219.827	-49.05
220.047	-17.68
220.266	-19.94
220.485	-5.27
220.705	30.08
220.924	-0.76
221.143	20.05
221.363	-10.12
221.582	10.02
221.801	7.47
222.021	40.69
222.24	34.94
222.459	74.19
222.678	52.43
222.897	39.52
223.117	35.58
223.336	39.44
223.555	44
223.774	56.8
223.993	71.67
224.213	98.99
224.432	71.84
224.651	103.66
224.87	80.87
225.089	74.1
225.308	56.46
225.527	75.53
225.746	48.26
225.965	45.14
226.184	29.04
226.404	37.58
226.623	12.22
226.842	21.75
227.061	49.15
227.28	59.06
227.499	72.09
227.718	105.1
227.936	91.92
228.155	74.68
228.374	40.84
228.593	25.87
228.812	11.15
229.031	18.81
229.25	11.86
229.469	48.27
229.688	35.94
229.907	21.72
230.125	31.79
230.344	46.99
230.563	38.3
230.782	66.94
231.001	37.06
231.22	29.16
231.438	14.02
231.657	11.97
231.876	7.73
232.095	31.98
232.313	44.75
232.532	39.57
232.751	45.74
232.969	27.83
233.188	35.62
233.407	21.98
233.625	-2.83
233.844	-1.62
234.063	-4.54
234.281	26.56
234.5	36.08
234.719	85.46
234.937	57.72
235.156	60.07
235.374	52.37
235.593	58.31
235.811	47.98
236.03	64.28
236.249	51.33
236.467	51.01
236.686	44.56
236.904	55.22
237.123	-2.42
237.341	-4.07
237.559	-36.53
237.778	-31.83
237.996	-55.86
238.215	-15.6
238.433	-18.71
238.652	-6.42
238.87	-52.09
239.088	-24.66
239.307	-9.8
239.525	1.29
239.743	-6.21
239.962	18.63
240.18	-1.38
240.398	-21.43
240.617	-28.7
240.835	-8.4
241.053	-34.35
241.271	-7.65
241.49	19.69
241.708	16.58
241.926	16.53
242.144	49.44
242.363	30.34
242.581	23.59
242.799	38.15
243.017	18.53
243.235	-13.76
243.453	11.22
243.672	5.1
243.89	7.74
244.108	32.12
244.326	45.26
244.544	33.31
244.762	21.17
244.98	19.27
245.198	14.06
245.416	-14.32
245.634	-11.31
245.852	5.22
246.07	6.82
246.288	13
246.506	24.42
246.724	25.08
246.942	17.66
247.16	28.69
247.378	31.94
247.596	48.59
247.814	46.59
248.032	22.44
248.25	15.32
248.468	14.44
248.685	21.98
248.903	31.74
249.121	37.16
249.339	-5.13
249.557	9.07
249.775	-13.52
249.992	-63.82
250.21	-55.52
250.428	-15.35
250.646	-29.27
250.863	-31.74
251.081	-3.24
251.299	20.19
251.517	15.27
251.734	16
251.952	11.67
252.17	19.01
252.387	24.69
252.605	-1.12
252.823	-4.26
253.04	15.24
253.258	14.93
253.475	6.37
253.693	36.59
253.911	50.48
254.128	41.85
254.346	38.78
254.563	21.11
254.781	6.84
254.998	7.73
255.216	-2.04
255.433	0.24
255.651	22.13
255.868	38.31
256.086	50.54
256.303	54.02
256.521	50.45
256.738	33.61
256.956	24.72
257.173	29.58
257.39	34.24
257.608	35.62
257.825	52.34
258.043	62.59
258.26	43.37
258.477	30.59
258.695	18.83
258.912	-21.41
259.129	-29.64
259.346	-52
259.564	-50.88
259.781	-34.69
259.998	-9.19
260.216	27.9
260.433	41.05
260.65	34.77
260.867	39.59
261.084	23.62
261.302	5.13
261.519	22.23
261.736	16.08
261.953	10.8
262.17	25.67
262.387	25.05
262.604	10.89
262.822	14.41
263.039	17.98
263.256	5.98
263.473	11.6
263.69	7.7
263.907	27.49
264.124	46.33
264.341	73.9
264.558	50.91
264.775	48.64
264.992	43.17
265.209	31.57
265.426	17.2
265.643	22.25
265.86	25.14
266.077	38.19
266.294	30.38
266.51	36.56
266.727	22.97
266.944	35.66
267.161	15.2
267.378	15.91
267.595	13.58
267.812	-8.3
268.028	-3.3
268.245	10.22
268.462	10.29
268.679	2.58
268.896	41.94
269.112	30.55
269.329	24.23
269.546	32.65
269.763	34.92
269.979	34.38
270.196	12.68
270.413	12.91
270.629	7.84
270.846	1.9
271.063	4.48
271.279	12.63
271.496	6.45
271.712	2.36
271.929	12.25
272.146	21.76
272.362	32.81
272.579	56.05
272.795	67.29
273.012	93.81
273.228	70.95
273.445	59.71
273.661	38.93
273.878	-21
274.094	-34.91
274.311	-40.13
274.527	0.19
274.744	9.52
274.96	38.89
275.177	38.4
275.393	37.6
275.609	35.95
275.826	47.14
276.042	45.56
276.259	46.48
276.475	42.06
276.691	55.7
276.908	40.03
277.124	68.88
277.34	47.34
277.557	55.5
277.773	35.03
277.989	33.36
278.205	20.01
278.422	35.44
278.638	35.16
278.854	36.47
279.07	49.04
279.286	21.04
279.503	11.57
279.719	15.54
279.935	1.11
280.151	-30.68
280.367	6.49
280.583	19.35
280.799	8.05
281.016	14.93
281.232	31.43
281.448	32.25
281.664	41.96
281.88	35.84
282.096	28.55
282.312	41.88
282.528	50.54
282.744	33.98
282.96	41.81
283.176	56.54
283.392	43.87
283.608	33.54
283.824	38.02
284.04	44.04
284.256	50.78
284.471	45.42
284.687	39.54
284.903	47.78
285.119	58.37
285.335	30.67
285.551	40.32
285.767	39.3
285.982	-0.57
286.198	-18.06
286.414	4.96
286.63	1.98
286.846	21.52
287.061	19.04
287.277	24.06
287.493	28.82
287.709	41.86
287.924	31.01
288.14	59
288.356	64.13
288.571	70.59
288.787	56.37
289.003	64.6
289.218	51.46
289.434	18.43
289.65	18.05
289.865	10.61
290.081	11.13
290.296	20.88
290.512	32.44
290.727	28.18
290.943	28.06
291.159	20.45
291.374	22.7
291.59	1.9
291.805	-7.37
292.021	-5.4
292.236	-9.09
292.451	-8.49
292.667	16.25
292.882	17.9
293.098	32.95
293.313	34.08
293.529	27.69
293.744	13.2
293.959	1.25
294.175	-12.76
294.39	3.58
294.605	12.14
294.821	23.38
295.036	22.67
295.251	35.12
295.467	24.41
295.682	22.15
295.897	1.04
296.112	-0.9
296.328	-7.86
296.543	-13.48
296.758	-27.64
296.973	22.83
297.188	52.67
297.404	28.18
297.619	33.23
297.834	35.59
298.049	16.71
298.264	-3.19
298.479	26.18
298.694	25.65
298.909	29.74
299.125	30.26
299.34	41.56
299.555	31.93
299.77	44.12
299.985	2.61
300.2	-12.06
300.415	-35.77
300.63	-11.54
300.845	-20.42
301.06	-14.36
301.275	-10.14
301.49	-0.6
301.704	-14.3
301.919	-38.62
302.134	-31.85
302.349	4.47
302.564	-3.27
302.779	1.9
302.994	41.83
303.209	49.23
303.423	42.83
303.638	62.3
303.853	53.24
304.068	25.63
304.283	16.09
304.497	13.11
304.712	25.38
304.927	31.69
305.142	26.79
305.356	38.72
305.571	45.32
305.786	30.9
306	21.4
306.215	28.37
306.43	17.61
306.644	33.94
306.859	36.77
307.074	28.88
307.288	20.37
307.503	25.02
307.717	-1.98
307.932	8.11
308.147	2.49
308.361	14.29
308.576	-0.2
308.79	-43.94
309.005	-30.11
309.219	-12.49
309.434	2.93
309.648	-15.13
309.863	28.11
310.077	13.18
310.292	-3.65
310.506	-33.72
310.72	11.27
310.935	25.98
311.149	22.97
311.364	45.06
311.578	67.91
311.792	56.57
312.007	57.95
312.221	43.52
312.435	51.21
312.649	27.62
312.864	37.88
313.078	23.34
313.292	40.24
313.507	29.26
313.721	34.38
313.935	23.11
314.149	31.41
314.363	34.44
314.578	8.8
314.792	4
315.006	19.98
315.22	0.88
315.434	-3.94
315.648	9.66
315.862	11.26
316.077	4.24
316.291	22.53
316.505	37.77
316.719	30.98
316.933	-5.57
317.147	5.98
317.361	-9.02
317.575	-14.25
317.789	-3.34
318.003	15.11
318.217	21.45
318.431	35.76
318.645	40.4
318.859	25.94
319.073	42.4
319.287	25.8
319.5	-1.23
319.714	-13.13
319.928	-19.08
320.142	-23.46
320.356	21.04
320.57	36
320.784	28.14
320.997	38.98
321.211	31.45
321.425	4.6
321.639	-23.68
321.853	-6.26
322.066	-7.44
322.28	-19.85
322.494	-21.16
322.707	42.02
322.921	29.87
323.135	31.5
323.349	45.62
323.562	38.1
323.776	6.06
323.989	26.1
324.203	20.21
324.417	19.84
324.63	5.94
324.844	-13.7
325.057	-18.7
325.271	-19.77
325.485	-26.56
325.698	15
325.912	42.66
326.125	23.7
326.339	34.41
326.552	32.78
326.766	26.85
326.979	16.22
327.193	52.65
327.406	35.75
327.619	43.47
327.833	37.92
328.046	31.41
328.26	9.6
328.473	16.43
328.686	-0.24
328.9	7.88
329.113	15.66
329.326	2.36
329.54	6.58
329.753	16.61
329.966	-0.61
330.179	17.97
330.393	35.57
330.606	29.94
330.819	37.97
331.032	45.58
331.246	38.76
331.459	37.46
331.672	37.09
331.885	23.81
332.098	-0.98
332.311	13.74
332.525	8.95
332.738	17.85
332.951	33.84
333.164	46.42
333.377	45.69
333.59	56.95
333.803	43.56
334.016	36.95
334.229	28.04
334.442	14.73
334.655	30.02
334.868	39.87
335.081	32.7
335.294	30.34
335.507	44.09
335.72	35.47
335.933	18.17
336.146	28.45
336.359	55.49
336.572	29.32
336.785	13.91
336.997	10.85
337.21	19.83
337.423	4.7
337.636	8.61
337.849	19.81
338.062	35.95
338.274	46.21
338.487	36.8
338.7	38.23
338.913	24.06
339.125	7.36
339.338	-0.37
339.551	9.51
339.763	30.73
339.976	45.71
340.189	55.81
340.402	59.36
340.614	49.65
340.827	35.84
341.039	14.91
341.252	2.48
341.465	-15.38
341.677	-25.64
341.89	-52.38
342.102	-34.71
342.315	-18.75
342.527	-27.81
342.74	-1.33
342.952	36.97
343.165	34.6
343.377	47.08
343.59	42.87
343.802	59.23
344.015	49.79
344.227	63.09
344.44	40.29
344.652	41.89
344.864	20.19
345.077	35.1
345.289	22.42
345.502	44.34
345.714	49.39
345.926	53.72
346.139	49.57
346.351	54.33
346.563	45.35
346.775	40.13
346.988	30.94
347.2	14.29
347.412	11.23
347.624	15.6
347.837	9.61
348.049	23.5
348.261	49.31
348.473	40.27
348.685	19.23
348.897	23.64
349.11	8.03
349.322	3.73
349.534	29.06
349.746	43.5
349.958	52.94
350.17	46.6
350.382	47.95
350.594	36.8
350.806	44.61
351.018	32.38
351.23	40.77
351.442	30.26
351.654	42.08
351.866	25.74
352.078	30.89
352.29	23.35
352.502	41.84
352.714	36.02
352.926	29.14
353.138	29.77
353.35	22.45
353.561	7.56
353.773	-6.93
353.985	11.65
354.197	6.77
354.409	8.78
354.621	16
354.832	31.55
355.044	26.98
355.256	23.88
355.468	27.61
355.679	9.75
355.891	10.27
356.103	0.23
356.314	1.71
356.526	10.83
356.738	41.3
356.949	32.97
357.161	33.58
357.373	39.37
357.584	37.41
357.796	16.71
358.008	8.09
358.219	21.83
358.431	25.01
358.642	20.61
358.854	31.66
359.065	45.08
359.277	30.11
359.488	19.07
359.7	13.36
359.911	-4.6
360.123	-2.38
360.334	-2.8
360.546	-2.13
360.757	2.46
360.969	24.07
361.18	16.04
361.391	25.52
361.603	9.69
361.814	19.84
362.025	4.35
362.237	7.29
362.448	10.46
362.659	33.68
362.871	24.69
363.082	27.61
363.293	29.26
363.504	18.19
363.716	8.58
363.927	20.15
364.138	7.35
364.349	-11.03
364.56	-8.88
364.772	-27.8
364.983	-25.72
365.194	-26.53
365.405	-14.26
365.616	-22.67
365.827	-3.79
366.038	4.25
366.25	18.77
366.461	8.24
366.672	32.26
366.883	42.13
367.094	30.53
367.305	11.71
367.516	30.96
367.727	15.78
367.938	3.87
368.149	-1.43
368.36	17.39
368.571	9.74
368.781	14.43
368.992	11.79
369.203	34.71
369.414	28.05
369.625	28.34
369.836	19.19
370.047	9.98
370.258	-2.81
370.468	-0.77
370.679	-35.08
370.89	-19.85
371.101	3.98
371.312	-13.49
371.522	-5.38
371.733	20.52
371.944	21.82
372.155	26.86
372.365	13.11
372.576	6.85
372.787	8.21
372.997	-6.31
373.208	-14.82
373.419	5.56
373.629	0.95
373.84	-1.86
374.05	-6.74
374.261	13.93
374.472	3.05
374.682	8.05
374.893	5.06
375.103	22.45
375.314	13.17
375.524	19.67
375.735	27.88
375.945	32.14
376.156	12.85
376.366	13.22
376.577	20.96
376.787	19.74
376.997	31.18
377.208	39.6
377.418	27.67
377.629	27.5
377.839	21.29
378.049	15.77
378.26	29.29
378.47	46.18
378.68	42.11
378.89	40.59
379.101	35.08
379.311	12.42
379.521	-10.36
379.732	-3.3
379.942	-17.83
380.152	-9.75
380.362	11.53
380.572	20.31
380.783	24.36
380.993	36.69
381.203	37.42
381.413	34.89
381.623	37.19
381.833	36.31
382.043	20.08
382.253	18.49
382.463	15.63
382.674	13.14
382.884	-1.28
383.094	11.2
383.304	10.7
383.514	15.62
383.724	15.52
383.934	7.72
384.144	-2.28
384.353	0.54
384.563	0.52
384.773	-2.52
384.983	13.03
385.193	22.48
385.403	13.71
385.613	7.84
385.823	15.53
386.033	14.43
386.242	9.76
386.452	17.78
386.662	17.1
386.872	15.49
387.082	16.53
387.291	8.1
387.501	9.92
387.711	12.36
387.921	1.66
388.13	4.27
388.34	14.06
388.55	11.28
388.759	10.35
388.969	17.54
389.179	14.99
389.388	16.32
389.598	14.37
389.807	12.92
390.017	13.45
390.227	12.85
390.436	10.2
390.646	14.76
390.855	16.22
391.065	17.14
391.274	14.76
391.484	11.22
391.693	10.81
391.903	11.04
392.112	13.13
392.322	15.64
392.531	20.74
392.74	20.51
392.95	16.62
393.159	14.15
393.369	16.29
393.578	12.12
393.787	10.22
393.997	14.08
394.206	14.35
394.415	14.1
394.625	15.37
394.834	14.34
395.043	12.73
395.252	13.71
395.462	14.36
395.671	14.92
395.88	16.91
396.089	17.87
396.298	16.91
396.508	15.82
396.717	16.11
396.926	15.42
397.135	15.67
397.344	15.78
397.553	15.71
397.762	16.11
397.971	15.89
398.181	15.39
398.39	14.07
398.599	13.8
398.808	13.04
399.017	13.89
399.226	13.96
399.435	15.12
399.644	15.16
399.853	15.07
400.062	14.43
400.27	14.65
400.479	14.1
400.688	13.84
400.897	14.32
401.106	14.12
401.315	13.52
401.524	13.78
401.733	13.83
401.941	14.06
402.15	14.13
402.359	14.23
402.568	14.36
402.777	14.47
402.985	14.07
403.194	14.16
403.403	14.28
403.612	13.85
403.82	13.79
404.029	13.71
404.238	13.44
404.446	13.23
404.655	13.11
404.864	12.98
405.072	12.9
405.281	13
405.489	12.9
405.698	12.89
405.906	12.97
406.115	12.84
406.324	12.68
406.532	12.77
406.741	12.93
406.949	12.66
407.158	12.63
407.366	12.62
407.574	12.7
407.783	12.53
407.991	12.58
408.2	12.44
408.408	12.36
408.617	12.17
408.825	12.03
409.033	12.02
409.242	12.1
409.45	12.13
409.658	12.02
409.867	12.14
410.075	12.03
410.283	11.97
410.491	11.86
410.7	11.74
410.908	11.72
411.116	11.75
411.324	11.65
411.533	11.78
411.741	11.88
411.949	12.05
412.157	11.86
412.365	12
412.573	11.81
412.781	11.85
412.99	11.57
413.198	11.82
413.406	11.73
413.614	11.81
413.822	11.84
414.03	11.85
414.238	11.68
414.446	11.68
414.654	11.47
414.862	11.37
415.07	11.29
415.278	11.43
415.486	11.1
415.694	11.26
415.902	11.22
416.109	11.16
416.317	11.18
416.525	11.06
416.733	11.16
416.941	11.25
417.149	11.27
417.357	11.24
417.564	11.61
417.772	11.41
417.98	11.23
418.188	11.13
418.395	10.93
418.603	10.95
418.811	10.86
419.019	10.81
419.226	11.1
419.434	11.24
419.642	11.04
419.849	11.06
420.057	11.22
420.265	10.95
420.472	10.8
420.68	10.88
420.887	10.79
421.095	10.85
421.302	10.9
421.51	10.93
421.717	11
421.925	11.06
422.132	10.91
422.34	10.75
422.547	10.86
422.755	10.8
422.962	10.85
423.17	10.8
423.377	10.87
423.585	10.71
423.792	10.83
423.999	10.79
424.207	10.74
424.414	10.79
424.621	10.87
424.829	10.7
425.036	10.71
425.243	10.7
425.451	10.63
425.658	10.41
425.865	10.36
426.072	10.38
426.28	10.31
426.487	10.06
426.694	10.21
426.901	10.21
427.108	10.11
427.315	10.11
427.523	10.43
427.73	10.44
427.937	10.18
428.144	10.11
428.351	10.23
428.558	10.14
428.765	10.02
428.972	10.2
429.179	10.21
429.386	10.21
429.593	10.19
429.8	10.1
430.007	10.31
430.214	10.49
430.421	10.53
430.628	10.49
430.835	10.39
431.042	10.4
431.249	10.46
431.456	10.55
431.662	10.64
431.869	10.79
432.076	10.61
432.283	10.44
432.49	10.16
432.697	10.14
432.903	9.98
433.11	9.99
433.317	10.09
433.524	10.3
433.73	10.24
433.937	10.49
434.144	10.54
434.35	10.5
434.557	10.48
434.764	10.44
434.97	10.35
435.177	10.41
435.384	10.23
435.59	10.32
435.797	10.47
436.003	10.56
436.21	10.49
436.416	10.6
436.623	10.43
436.829	10.4
437.036	10.38
437.242	10.33
437.449	10.38
437.655	10.41
437.862	10.47
438.068	10.44
438.275	10.67
438.481	10.81
438.687	10.73
438.894	10.61
439.1	10.56
439.307	10.49
439.513	10.33
439.719	10.4
439.926	10.48
440.132	10.53
440.338	10.46
440.544	10.56
440.751	10.47
440.957	10.64
441.163	10.47
441.369	10.6
441.575	10.38
441.782	10.44
441.988	10.25
442.194	10.46
442.4	10.27
442.606	10.55
442.812	10.61
443.018	10.69
443.224	10.75
443.431	10.94
443.637	10.87
443.843	10.75
444.049	10.74
444.255	10.62
444.461	10.55
444.667	10.55
444.873	10.64
445.079	10.72
445.284	10.75
445.49	10.64
445.696	10.45
445.902	10.52
446.108	10.45
446.314	10.37
446.52	10.6
446.726	10.85
446.931	10.72
447.137	10.77
447.343	10.9
447.549	10.58
447.755	10.46
447.96	10.63
448.166	10.65
448.372	10.66
448.578	10.8
448.783	10.9
448.989	10.93
449.195	10.92
449.4	10.83
449.606	10.76
449.812	10.63
450.017	10.64
450.223	10.62
450.428	10.49
450.634	10.61
450.84	10.76
451.045	10.64
451.251	10.56
451.456	10.78
451.662	10.78
451.867	10.74
452.073	10.65
452.278	10.78
452.483	10.89
452.689	10.87
452.894	10.97
453.1	11.06
453.305	10.95
453.51	10.83
453.716	10.77
453.921	10.62
454.127	10.62
454.332	10.59
454.537	10.58
454.742	10.68
454.948	10.7
455.153	10.64
455.358	10.77
455.563	10.8
455.769	10.76
455.974	10.72
456.179	10.72
456.384	10.56
456.589	10.53
456.795	10.33
457	10.36
457.205	10.4
457.41	10.38
457.615	10.35
457.82	10.53
458.025	10.52
458.23	10.45
458.435	10.6
458.64	10.45
458.845	10.46
459.05	10.43
459.255	10.38
459.46	10.34
459.665	10.47
459.87	10.47
460.075	10.44
460.28	10.55
460.485	10.68
460.69	10.68
460.895	10.47
461.099	10.43
461.304	10.59
461.509	10.57
461.714	10.48
461.919	10.65
462.123	10.68
462.328	10.64
462.533	10.41
