Data from Ofra_PP_Phys_2CX12B_Reflection_3.txt Node
Date: Sat Jul 24 20:07:45 EDT 2021
User: USUARIO
Spectrometer: FLMT01687
Trigger mode: 0
Integration Time (sec): 1.100000E0
Scans to average: 2
Electric dark correction enabled: true
Nonlinearity correction enabled: false
Boxcar width: 2
XAxis mode: Wavelengths
Number of Pixels in Spectrum: 3648
>>>>>Begin Spectral Data<<<<<
179.494	561.32
179.716	735.79
179.937	1261.69
180.158	1071.54
180.38	525.23
180.601	-696.37
180.823	2.06
181.044	-37.21
181.265	-6.88
181.486	22.84
181.708	-34.93
181.929	-1248
182.15	987.95
182.372	29.43
182.593	20400
182.814	1101.54
183.035	273.11
183.257	221.41
183.478	105
183.699	112.21
183.92	-22.87
184.141	6.81
184.363	-33.17
184.584	39.05
184.805	44.92
185.026	67.77
185.247	56.75
185.468	19.39
185.689	4.92
185.91	-1.95
186.132	2.43
186.353	14.46
186.574	50.55
186.795	51.09
187.016	-12.74
187.237	3.49
187.458	-13.55
187.679	-19.35
187.9	45.56
188.121	107.45
188.342	122.33
188.563	117.86
188.784	103.41
189.005	97.55
189.226	103.28
189.447	81.7
189.667	79.59
189.888	58.61
190.109	43.88
190.33	7.28
190.551	-10.32
190.772	-33.8
190.993	-54.24
191.214	-67.85
191.434	-48.1
191.655	2.94
191.876	-6.73
192.097	-10.46
192.318	12.54
192.538	-7.49
192.759	-22.72
192.98	2.81
193.201	18.11
193.421	-28.19
193.642	3.51
193.863	-8.17
194.083	-13.23
194.304	0.31
194.525	24.45
194.745	11.46
194.966	-25.56
195.187	-45.5
195.407	-81.6
195.628	-117.3
195.848	-98.44
196.069	-90.99
196.29	-64.55
196.51	-112.83
196.731	-117.63
196.951	-104.15
197.172	-85.88
197.392	-73.74
197.613	-28.45
197.833	-27.49
198.054	-70.82
198.274	-42.31
198.495	-93.05
198.715	-56.1
198.936	-58.52
199.156	-6.42
199.377	-20.75
199.597	-31.43
199.817	-56.11
200.038	-21.28
200.258	-7.3
200.479	33.76
200.699	58.37
200.919	33.6
201.14	-13.64
201.36	-34.95
201.58	-60.15
201.801	-35.7
202.021	-13.25
202.241	40.41
202.461	30.13
202.682	11.77
202.902	-1.53
203.122	-11.78
203.342	-21.24
203.563	2.82
203.783	10.6
204.003	-60.93
204.223	-147.05
204.443	-35.77
204.663	-27.95
204.884	-44.26
205.104	31.78
205.324	75.68
205.544	30.57
205.764	30.07
205.984	52.34
206.204	53.64
206.424	26.08
206.644	32.43
206.864	37.71
207.084	10.25
207.304	-16.89
207.525	-40.31
207.745	-17.7
207.964	-49.38
208.184	-38.49
208.404	-43.18
208.624	-34.68
208.844	-25.72
209.064	-53.56
209.284	-45.37
209.504	-8.07
209.724	4.77
209.944	-19.63
210.164	13.25
210.384	32.91
210.604	15.68
210.823	-22.51
211.043	-45.45
211.263	-38.76
211.483	-59.48
211.703	-74.78
211.922	-34.69
212.142	27.54
212.362	37.62
212.582	24.33
212.801	40.53
213.021	8.68
213.241	9.06
213.461	-19.69
213.68	-43.5
213.9	-47.88
214.12	-24.98
214.339	-68.29
214.559	-39.4
214.779	7.25
214.998	7.8
215.218	-9.57
215.438	-0.44
215.657	-24.03
215.877	-5.42
216.096	4.25
216.316	40.2
216.535	39.52
216.755	40.63
216.974	33.32
217.194	31.67
217.413	4.93
217.633	0.38
217.852	-59.63
218.072	-64.2
218.291	-75.56
218.511	-27.65
218.73	-92.15
218.95	-64.97
219.169	-75.72
219.389	-99.61
219.608	-129.2
219.827	-49.98
220.047	-29.61
220.266	-21.46
220.485	-13.72
220.705	29.73
220.924	-6.48
221.143	3.09
221.363	-22.84
221.582	8.92
221.801	-1.68
222.021	32.44
222.24	48.58
222.459	83.93
222.678	47.27
222.897	23.72
223.117	21.57
223.336	1.65
223.555	16.51
223.774	59.12
223.993	86.88
224.213	114.81
224.432	84.47
224.651	114.43
224.87	80.72
225.089	82.82
225.308	65.17
225.527	94.06
225.746	63.57
225.965	47.72
226.184	12.8
226.404	27.4
226.623	-7.98
226.842	-11.42
227.061	30.9
227.28	50.42
227.499	51.6
227.718	73.4
227.936	72.59
228.155	61.35
228.374	14.06
228.593	8.06
228.812	3.66
229.031	9.76
229.25	-25.46
229.469	16.6
229.688	16.56
229.907	23.27
230.125	46.82
230.344	61.54
230.563	54.45
230.782	62.36
231.001	11.27
231.22	6.59
231.438	9.28
231.657	3.5
231.876	3.52
232.095	31.99
232.313	26.47
232.532	22.81
232.751	18.07
232.969	13.62
233.188	13.46
233.407	2.81
233.625	-8.12
233.844	-3.91
234.063	2.39
234.281	50.95
234.5	50.93
234.719	65.19
234.937	56.91
235.156	50.34
235.374	39.62
235.593	48.93
235.811	46.5
236.03	62.41
236.249	46.57
236.467	48.7
236.686	28.91
236.904	24.99
237.123	-42.9
237.341	-34.59
237.559	-59.56
237.778	-51.71
237.996	-68.76
238.215	-24.71
238.433	-22.61
238.652	4.5
238.87	-39.66
239.088	-9.9
239.307	6.64
239.525	2.78
239.743	-45.22
239.962	-1.13
240.18	-29.97
240.398	-72.49
240.617	-87.59
240.835	-34.23
241.053	-63.42
241.271	-1.48
241.49	23.05
241.708	24.26
241.926	9.71
242.144	31.69
242.363	-1.51
242.581	2.68
242.799	21.54
243.017	21.02
243.235	-26.29
243.453	10.99
243.672	-9.75
243.89	3.98
244.108	20.06
244.326	50.89
244.544	35.83
244.762	14.83
244.98	14.87
245.198	9.92
245.416	-14.98
245.634	-18.82
245.852	18.12
246.07	9.61
246.288	3.02
246.506	8.04
246.724	19.23
246.942	16.22
247.16	24.76
247.378	34.66
247.596	52.69
247.814	50.32
248.032	11.98
248.25	1.47
248.468	7.62
248.685	17.93
248.903	15.1
249.121	28.58
249.339	-0.61
249.557	1.82
249.775	-18.47
249.992	-81.98
250.21	-89.91
250.428	-42.23
250.646	-53.94
250.863	-53.54
251.081	-26.96
251.299	9.34
251.517	4.35
251.734	3.44
251.952	-0.14
252.17	27.52
252.387	24.96
252.605	-2.46
252.823	-3.67
253.04	10.81
253.258	8.47
253.475	12.61
253.693	53.22
253.911	73.52
254.128	72.01
254.346	79.89
254.563	61.23
254.781	29.26
254.998	21.03
255.216	-3.93
255.433	-13.89
255.651	16.07
255.868	35.55
256.086	44.41
256.303	65.22
256.521	64.07
256.738	49.34
256.956	21.15
257.173	27.92
257.39	15.72
257.608	19.35
257.825	25.91
258.043	47.06
258.26	29.27
258.477	28.43
258.695	15.17
258.912	-28.26
259.129	-39.29
259.346	-65.46
259.564	-70.18
259.781	-46.19
259.998	-20.37
260.216	10.74
260.433	41.73
260.65	30.28
260.867	40.29
261.084	21.67
261.302	17.03
261.519	36.98
261.736	28.09
261.953	6.89
262.17	32.06
262.387	18.18
262.604	-8.61
262.822	-0.42
263.039	5.8
263.256	-13.77
263.473	5.24
263.69	-14.65
263.907	10.73
264.124	33.15
264.341	59.83
264.558	29
264.775	32.58
264.992	45.6
265.209	31.72
265.426	21.52
265.643	35.44
265.86	40.21
266.077	28.14
266.294	15.98
266.51	15.53
266.727	8.18
266.944	24.54
267.161	2.42
267.378	18.75
267.595	26.4
267.812	4.41
268.028	-7.23
268.245	6.02
268.462	-13.03
268.679	-21.95
268.896	10.2
269.112	13.71
269.329	1.28
269.546	20.28
269.763	24.53
269.979	22.01
270.196	27.39
270.413	34.16
270.629	15.86
270.846	7.81
271.063	26.51
271.279	-8.53
271.496	-39.95
271.712	-37.03
271.929	-32.49
272.146	-30.99
272.362	-10.7
272.579	37.65
272.795	50.05
273.012	68.92
273.228	43.26
273.445	32.48
273.661	-8.96
273.878	-94.8
274.094	-92.69
274.311	-85.85
274.527	-47.32
274.744	-9.11
274.96	50.74
275.177	45.27
275.393	39.35
275.609	34.66
275.826	42.41
276.042	31.83
276.259	40.14
276.475	35.36
276.691	31.73
276.908	16.61
277.124	45.47
277.34	26.38
277.557	15.99
277.773	20.27
277.989	23.73
278.205	21.5
278.422	33.56
278.638	55.07
278.854	58.74
279.07	53.06
279.286	2.23
279.503	-23.58
279.719	-28.58
279.935	-47.04
280.151	-61.78
280.367	-9.75
280.583	11.06
280.799	5.33
281.016	13.27
281.232	26.51
281.448	21.51
281.664	25.4
281.88	21.59
282.096	27.16
282.312	34.11
282.528	54.97
282.744	58.42
282.96	63.88
283.176	57.84
283.392	58.55
283.608	44.69
283.824	32.38
284.04	28.69
284.256	44.49
284.471	35.82
284.687	31.36
284.903	47.67
285.119	69.79
285.335	45.69
285.551	50.45
285.767	32.73
285.982	1.67
286.198	-21.87
286.414	4.08
286.63	1.27
286.846	26.47
287.061	-0.28
287.277	10.9
287.493	3.91
287.709	14.15
287.924	0.25
288.14	48.05
288.356	54.63
288.571	61.8
288.787	44.36
289.003	49.61
289.218	29.39
289.434	-14.16
289.65	18.58
289.865	28.96
290.081	32.76
290.296	32.95
290.512	38.63
290.727	25.86
290.943	16.1
291.159	6.26
291.374	3.62
291.59	-16.17
291.805	-32.63
292.021	-16.45
292.236	-15.99
292.451	-11.88
292.667	17.03
292.882	35.57
293.098	45.48
293.313	34.37
293.529	28.77
293.744	-0.61
293.959	-27.41
294.175	-29.75
294.39	8.42
294.605	21.12
294.821	43.16
295.036	35.56
295.251	50.57
295.467	26.69
295.682	21.46
295.897	2.33
296.112	-3.66
296.328	-24.93
296.543	-19.89
296.758	-31.14
296.973	2.08
297.188	45.73
297.404	29.23
297.619	30.8
297.834	34.48
298.049	18.43
298.264	-7.63
298.479	34.36
298.694	33.24
298.909	41.47
299.125	43.7
299.34	44.22
299.555	11.23
299.77	8.11
299.985	-66.35
300.2	-70.88
300.415	-79.52
300.63	-62.08
300.845	-66.32
301.06	-33.57
301.275	-31.41
301.49	-12.64
301.704	-14.28
301.919	-32.17
302.134	-48.97
302.349	-12.02
302.564	-34.92
302.779	-12.05
302.994	29.79
303.209	39.29
303.423	33.81
303.638	53.62
303.853	10.08
304.068	-38.25
304.283	-27.95
304.497	-27.57
304.712	-13.21
304.927	19.63
305.142	25.42
305.356	28.09
305.571	33.49
305.786	28.92
306	17.4
306.215	27.84
306.43	13.15
306.644	30.56
306.859	35.12
307.074	29.84
307.288	6.04
307.503	21.02
307.717	-6.21
307.932	-5.83
308.147	-9.12
308.361	27.95
308.576	13.87
308.79	-21.22
309.005	-9.1
309.219	2.65
309.434	0.69
309.648	-18.55
309.863	37.38
310.077	26.78
310.292	25.61
310.506	22.24
310.72	55.82
310.935	54.78
311.149	46.88
311.364	46.04
311.578	59.52
311.792	56.44
312.007	48.54
312.221	18.7
312.435	34.34
312.649	5.87
312.864	32.97
313.078	11.83
313.292	66.86
313.507	58.55
313.721	59.1
313.935	31.04
314.149	47.14
314.363	23.72
314.578	1.76
314.792	-13.46
315.006	13.88
315.22	7.85
315.434	4.17
315.648	13.57
315.862	13.05
316.077	-2.04
316.291	14.97
316.505	35.1
316.719	29.89
316.933	-5.19
317.147	11.5
317.361	-32.14
317.575	-39.14
317.789	-53.39
318.003	-35.09
318.217	-23.26
318.431	13.88
318.645	20.04
318.859	24.57
319.073	51.88
319.287	27.98
319.5	-4.48
319.714	-22.46
319.928	-27.51
320.142	-49.52
320.356	0.15
320.57	24.48
320.784	18.02
320.997	31.66
321.211	34.25
321.425	-0.72
321.639	-43.57
321.853	-5.75
322.066	-15.15
322.28	-29.53
322.494	-25.23
322.707	46.79
322.921	31.97
323.135	30.61
323.349	39.41
323.562	27.75
323.776	-8.7
323.989	-0.67
324.203	-14.66
324.417	-5.67
324.63	-14.02
324.844	-24.05
325.057	-42.26
325.271	-33.09
325.485	-39.49
325.698	7.72
325.912	25.81
326.125	20.34
326.339	33.74
326.552	32.92
326.766	21.87
326.979	17.25
327.193	36.29
327.406	25.26
327.619	30.22
327.833	38.47
328.046	16.83
328.26	-0.64
328.473	-5.97
328.686	-24.15
328.9	-19.72
329.113	-5.06
329.326	-12.04
329.54	4.18
329.753	18.66
329.966	-5.97
330.179	16.33
330.393	34.72
330.606	25.96
330.819	39.43
331.032	49.18
331.246	53.47
331.459	66.11
331.672	50.79
331.885	28.64
332.098	4.57
332.311	2.29
332.525	-19.28
332.738	-4.21
332.951	15.72
333.164	28.82
333.377	37.86
333.59	56.19
333.803	42.17
334.016	29.56
334.229	27.05
334.442	22.71
334.655	32.31
334.868	42.27
335.081	44.05
335.294	38.91
335.507	36.36
335.72	22.92
335.933	-0.37
336.146	4.07
336.359	12.86
336.572	-5.49
336.785	-8.17
336.997	13.61
337.21	25.55
337.423	18.71
337.636	30
337.849	38.53
338.062	36.51
338.274	34.4
338.487	25.27
338.7	23.35
338.913	-3.7
339.125	-8.87
339.338	-12.93
339.551	-0.62
339.763	17.46
339.976	47.99
340.189	56.44
340.402	66.53
340.614	49.66
340.827	31.23
341.039	19.13
341.252	0.79
341.465	-15.37
341.677	-22.16
341.89	-53.45
342.102	-44.63
342.315	-35.86
342.527	-35.11
342.74	-26.09
342.952	23.8
343.165	21.51
343.377	37.05
343.59	26.57
343.802	41.3
344.015	50.55
344.227	65.99
344.44	43.86
344.652	40.85
344.864	40.56
345.077	30.87
345.289	14.63
345.502	42.59
345.714	38.22
345.926	40.27
346.139	24.27
346.351	21.26
346.563	16.45
346.775	30.47
346.988	13.07
347.2	6.29
347.412	-5.62
347.624	-23.02
347.837	-16.66
348.049	0.69
348.261	29.54
348.473	33.41
348.685	8.19
348.897	1.79
349.11	-1.97
349.322	-16.93
349.534	2.26
349.746	30.89
349.958	34.1
350.17	29.32
350.382	27.24
350.594	24.2
350.806	16.45
351.018	8.51
351.23	3.09
351.442	3.93
351.654	5.62
351.866	12.74
352.078	14.5
352.29	18.76
352.502	33.56
352.714	46.15
352.926	33.83
353.138	40.66
353.35	27.12
353.561	19.4
353.773	0
353.985	5.55
354.197	-5.38
354.409	7.74
354.621	6.56
354.832	13.99
355.044	7.16
355.256	9.58
355.468	7.07
355.679	6.62
355.891	6.69
356.103	-0.48
356.314	4.56
356.526	16.62
356.738	33.62
356.949	29.67
357.161	30.66
357.373	34.65
357.584	26.99
357.796	17.92
358.008	4.43
358.219	28.65
358.431	28.96
358.642	28.88
358.854	37.74
359.065	42.8
359.277	24.92
359.488	8.82
359.7	-2.23
359.911	-27.13
360.123	-24.63
360.334	-35.02
360.546	-39.39
360.757	-32.95
360.969	-12.37
361.18	14.53
361.391	27.17
361.603	26.66
361.814	44.73
362.025	18.91
362.237	-7.3
362.448	-3.61
362.659	15.21
362.871	6.47
363.082	10.63
363.293	22.1
363.504	21.16
363.716	9.26
363.927	11
364.138	9.32
364.349	-22.05
364.56	-26.51
364.772	-38.89
364.983	-22.94
365.194	-30.58
365.405	1.85
365.616	8.17
365.827	20.46
366.038	4.41
366.25	20.99
366.461	-4.19
366.672	3.47
366.883	16.84
367.094	10.03
367.305	-12.11
367.516	11.95
367.727	3.66
367.938	-11.82
368.149	-19.5
368.36	1.82
368.571	-4.48
368.781	-5.7
368.992	-7.4
369.203	16.76
369.414	3.09
369.625	-2.12
369.836	-4.07
370.047	-4.32
370.258	-9.87
370.468	-6.92
370.679	-43.58
370.89	-34.49
371.101	-10.14
371.312	-30.18
371.522	-15.98
371.733	12.51
371.944	17.37
372.155	28.1
372.365	7.9
372.576	6.34
372.787	2.19
372.997	-11.49
373.208	-18.79
373.419	5.18
373.629	-11.14
373.84	-7.95
374.05	-13.34
374.261	-10.92
374.472	-30.84
374.682	-11.63
374.893	-24.19
375.103	10.46
375.314	-0.78
375.524	9.04
375.735	7.54
375.945	18.03
376.156	-11.7
376.366	-1.7
376.577	6.99
376.787	5.37
376.997	22.47
377.208	31.39
377.418	15.01
377.629	21.52
377.839	15.22
378.049	2.46
378.26	18.55
378.47	29.47
378.68	24.35
378.89	28.86
379.101	26.48
379.311	-0.28
379.521	-24.32
379.732	-22.15
379.942	-43.88
380.152	-32.6
380.362	-16.04
380.572	2.69
380.783	12.55
380.993	25.7
381.203	29.57
381.413	29.13
381.623	28.13
381.833	24.67
382.043	17.07
382.253	8.16
382.463	7.33
382.674	4.52
382.884	-11.8
383.094	-6.24
383.304	-1.41
383.514	0.42
383.724	4.5
383.934	-3.51
384.144	-13.06
384.353	-16.48
384.563	-11.66
384.773	-4.58
384.983	9.96
385.193	19.38
385.403	12.13
385.613	5.87
385.823	-2.25
386.033	1.19
386.242	-5.28
386.452	5.52
386.662	0.97
386.872	9.01
387.082	8.79
387.291	2.47
387.501	5.7
387.711	8.49
387.921	-6.86
388.13	-7.13
388.34	7.12
388.55	1.92
388.759	5.04
388.969	13.21
389.179	9.98
389.388	7.97
389.598	7.49
389.807	4.62
390.017	5.8
390.227	6.77
390.436	2.36
390.646	8.45
390.855	10.11
391.065	10.88
391.274	7.55
391.484	4.91
391.693	2.37
391.903	3.23
392.112	4.44
392.322	9.09
392.531	15.3
392.74	13.9
392.95	9.8
393.159	8.2
393.369	7.97
393.578	3.22
393.787	2.36
393.997	5.76
394.206	4.88
394.415	5.89
394.625	7.14
394.834	5.87
395.043	4.72
395.252	6
395.462	5.99
395.671	7.43
395.88	10.18
396.089	12.24
396.298	11.25
396.508	10.59
396.717	10.48
396.926	9.41
397.135	8.23
397.344	7.57
397.553	7.49
397.762	7.67
397.971	7.85
398.181	7.94
398.39	7.07
398.599	6.65
398.808	5.62
399.017	5.87
399.226	6.32
399.435	7.57
399.644	7.78
399.853	7.85
400.062	7.29
400.27	6.94
400.479	6.69
400.688	6.26
400.897	6.75
401.106	6.84
401.315	6.28
401.524	6.07
401.733	6.46
401.941	6.66
402.15	6.72
402.359	6.87
402.568	7.3
402.777	7.23
402.985	6.83
403.194	6.83
403.403	6.95
403.612	6.62
403.82	6.61
404.029	6.68
404.238	6.37
404.446	6.45
404.655	6.2
404.864	6.14
405.072	5.92
405.281	6.36
405.489	5.98
405.698	6.04
405.906	6
406.115	5.95
406.324	5.56
406.532	5.76
406.741	6.09
406.949	6
407.158	6.03
407.366	6.12
407.574	6.05
407.783	5.99
407.991	6.03
408.2	6.12
408.408	5.96
408.617	5.93
408.825	5.62
409.033	5.74
409.242	5.82
409.45	5.94
409.658	5.83
409.867	5.96
410.075	5.7
410.283	5.4
410.491	5.41
410.7	5.27
410.908	5.36
411.116	5.4
411.324	5.47
411.533	5.42
411.741	5.58
411.949	5.49
412.157	5.43
412.365	5.64
412.573	5.57
412.781	5.6
412.99	5.54
413.198	5.73
413.406	5.6
413.614	5.61
413.822	5.61
414.03	5.54
414.238	5.2
414.446	5.16
414.654	4.92
414.862	4.97
415.07	4.99
415.278	5.33
415.486	5.02
415.694	5.21
415.902	5.1
416.109	5
416.317	4.95
416.525	4.73
416.733	4.78
416.941	4.84
417.149	4.9
417.357	4.84
417.564	5.21
417.772	5.16
417.98	5.15
418.188	5.16
418.395	5
418.603	5.02
418.811	4.81
419.019	4.67
419.226	4.91
419.434	5.17
419.642	5.06
419.849	5.24
420.057	5.35
420.265	5.14
420.472	4.82
420.68	4.93
420.887	4.72
421.095	4.7
421.302	4.61
421.51	4.73
421.717	4.83
421.925	5.04
422.132	4.96
422.34	4.88
422.547	4.81
422.755	4.68
422.962	4.73
423.17	4.71
423.377	4.86
423.585	4.84
423.792	4.79
423.999	4.71
424.207	4.76
424.414	4.59
424.621	4.67
424.829	4.55
425.036	4.51
425.243	4.41
425.451	4.33
425.658	4.13
425.865	4.3
426.072	4.24
426.28	4.3
426.487	4.27
426.694	4.48
426.901	4.53
427.108	4.6
427.315	4.55
427.523	4.89
427.73	4.86
427.937	4.54
428.144	4.41
428.351	4.46
428.558	4.43
428.765	4.36
428.972	4.44
429.179	4.61
429.386	4.66
429.593	4.46
429.8	4.29
430.007	4.39
430.214	4.4
430.421	4.41
430.628	4.43
430.835	4.35
431.042	4.61
431.249	4.58
431.456	4.61
431.662	4.8
431.869	5.05
432.076	4.91
432.283	4.85
432.49	4.73
432.697	4.61
432.903	4.33
433.11	4.25
433.317	4.38
433.524	4.58
433.73	4.41
433.937	4.78
434.144	4.74
434.35	4.78
434.557	4.61
434.764	4.73
434.97	4.59
435.177	4.58
435.384	4.29
435.59	4.4
435.797	4.45
436.003	4.5
436.21	4.53
436.416	4.6
436.623	4.4
436.829	4.37
437.036	4.35
437.242	4.29
437.449	4.38
437.655	4.41
437.862	4.4
438.068	4.47
438.275	4.64
438.481	4.79
438.687	4.74
438.894	4.76
439.1	4.71
439.307	4.75
439.513	4.56
439.719	4.69
439.926	4.64
440.132	4.6
440.338	4.52
440.544	4.58
440.751	4.43
440.957	4.56
441.163	4.29
441.369	4.34
441.575	4.23
441.782	4.22
441.988	4.06
442.194	4.32
442.4	4.21
442.606	4.46
442.812	4.54
443.018	4.64
443.224	4.66
443.431	4.75
443.637	4.57
443.843	4.48
444.049	4.53
444.255	4.48
444.461	4.4
444.667	4.27
444.873	4.37
445.079	4.4
445.284	4.42
445.49	4.37
445.696	4.28
445.902	4.24
446.108	4.06
446.314	3.95
446.52	4.15
446.726	4.44
446.931	4.37
447.137	4.53
447.343	4.68
447.549	4.37
447.755	4.27
447.96	4.45
448.166	4.29
448.372	4.27
448.578	4.33
448.783	4.32
448.989	4.3
449.195	4.52
449.4	4.49
449.606	4.5
449.812	4.53
450.017	4.56
450.223	4.48
450.428	4.31
450.634	4.46
450.84	4.52
451.045	4.37
451.251	4.21
451.456	4.43
451.662	4.45
451.867	4.45
452.073	4.4
452.278	4.53
452.483	4.54
452.689	4.44
452.894	4.58
453.1	4.73
453.305	4.56
453.51	4.5
453.716	4.44
453.921	4.31
454.127	4.23
454.332	4.26
454.537	4.15
454.742	4.2
454.948	4.25
455.153	4.17
455.358	4.32
455.563	4.58
455.769	4.59
455.974	4.47
456.179	4.45
456.384	4.38
456.589	4.27
456.795	4.15
457	4.1
457.205	4.29
457.41	4.15
457.615	4.03
457.82	4.14
458.025	4.21
458.23	4.01
458.435	4.24
458.64	4.19
458.845	4.23
459.05	4.15
459.255	4.12
459.46	4.09
459.665	4.2
459.87	4.19
460.075	4.17
460.28	4.25
460.485	4.33
460.69	4.32
460.895	4.1
461.099	4.09
461.304	4.25
461.509	4.22
461.714	4.12
461.919	4.3
462.123	4.33
462.328	4.32
462.533	4.04
462.738	4.15
462.942	4.06
463.147	4.16
463.352	4.17
463.556	4.27
463.761	4.22
463.966	4.29
464.17	4.3
464.375	4.17
464.58	4.15
464.784	4.15
464.989	4.04
465.193	3.98
465.398	3.91
465.602	4.16
465.807	4.12
466.011	4.31
