Data from Ofra_PP_Phys_2CX12B_Reflection_1.txt Node
Date: Sat Jul 24 20:07:25 EDT 2021
User: USUARIO
Spectrometer: FLMT01687
Trigger mode: 0
Integration Time (sec): 1.100000E0
Scans to average: 2
Electric dark correction enabled: true
Nonlinearity correction enabled: false
Boxcar width: 2
XAxis mode: Wavelengths
Number of Pixels in Spectrum: 3648
>>>>>Begin Spectral Data<<<<<
179.494	599.04
179.716	766.14
179.937	1282.49
180.158	1077.37
180.38	518.29
180.601	-577.37
180.823	72.41
181.044	182.17
181.265	-15.13
181.486	34.86
181.708	110.77
181.929	-1545.33
182.15	272.69
182.372	-35.33
182.593	18966.67
182.814	-132.82
183.035	177.5
183.257	93.15
183.478	37.56
183.699	27.61
183.92	4.4
184.141	23.62
184.363	-34.57
184.584	37.33
184.805	36.06
185.026	58.32
185.247	42.54
185.468	25.64
185.689	7.65
185.91	4.76
186.132	-7.18
186.353	-9.91
186.574	17.96
186.795	6.56
187.016	-51.86
187.237	-41.97
187.458	-51.82
187.679	-62
187.9	27.29
188.121	72.49
188.342	83.55
188.563	101.89
188.784	101.46
189.005	116.74
189.226	116.1
189.447	104.92
189.667	93.18
189.888	60.3
190.109	17.96
190.33	-10.03
190.551	-42.66
190.772	-58.18
190.993	-62.17
191.214	-50.11
191.434	-46.55
191.655	26.32
191.876	24.19
192.097	2.65
192.318	9.85
192.538	-12.9
192.759	-26.35
192.98	-22.36
193.201	-11.14
193.421	-47.47
193.642	6.28
193.863	-14.7
194.083	-13.99
194.304	-10.31
194.525	18.53
194.745	-2.88
194.966	-43.34
195.187	-81.11
195.407	-114.62
195.628	-147.89
195.848	-143.82
196.069	-123.67
196.29	-98.74
196.51	-143.95
196.731	-157.87
196.951	-116.06
197.172	-87.59
197.392	-68.54
197.613	-28.74
197.833	-14.25
198.054	-44.48
198.274	-28.49
198.495	-74.02
198.715	-39.91
198.936	-50.4
199.156	-13.97
199.377	-42.01
199.597	-31.54
199.817	-40.36
200.038	13.58
200.258	24.67
200.479	60.32
200.699	66.22
200.919	67.73
201.14	9.61
201.36	-4.18
201.58	6.81
201.801	29.66
202.021	10.56
202.241	40.75
202.461	-0.17
202.682	-28.95
202.902	-23.35
203.122	-14.43
203.342	1.54
203.563	44.07
203.783	66.91
204.003	5.38
204.223	-51.99
204.443	-2.3
204.663	-19.56
204.884	-74.63
205.104	-38.07
205.324	25.17
205.544	7.68
205.764	2.52
205.984	44.89
206.204	50.3
206.424	47.58
206.644	14.55
206.864	50.78
207.084	27.73
207.304	52.8
207.525	-4.91
207.745	8.72
207.964	-23.98
208.184	-24.18
208.404	-48.82
208.624	-39.23
208.844	-16.67
209.064	-37.63
209.284	-34.73
209.504	-6.46
209.724	16.56
209.944	1.61
210.164	28.47
210.384	53.34
210.604	42.46
210.823	-5.08
211.043	-53.84
211.263	-41.73
211.483	-68.29
211.703	-76.4
211.922	-31.04
212.142	30.72
212.362	35.86
212.582	11.89
212.801	21
213.021	-14.68
213.241	-9.14
213.461	-40.07
213.68	-52.38
213.9	-50.19
214.12	-24.15
214.339	-57.8
214.559	-39.08
214.779	3.6
214.998	-0.94
215.218	-11.83
215.438	-11.82
215.657	-42.08
215.877	-11.22
216.096	-9.82
216.316	21.4
216.535	29.96
216.755	41.39
216.974	12.68
217.194	22.65
217.413	7.27
217.633	-6.35
217.852	-68.24
218.072	-51.92
218.291	-73.73
218.511	-54.39
218.73	-106.84
218.95	-86.55
219.169	-81.13
219.389	-98.14
219.608	-117.91
219.827	-41.11
220.047	-11.87
220.266	-14.74
220.485	-21.78
220.705	4.64
220.924	-49.16
221.143	-30.21
221.363	-82.06
221.582	-32.06
221.801	-24.44
222.021	12.17
222.24	21.04
222.459	73.71
222.678	54.12
222.897	35.16
223.117	35.49
223.336	33.18
223.555	32.91
223.774	71.98
223.993	102.89
224.213	160.79
224.432	100.48
224.651	105.41
224.87	68.36
225.089	72.63
225.308	37.57
225.527	54.27
225.746	44.47
225.965	26.64
226.184	-6.66
226.404	15.94
226.623	-4.73
226.842	-0.76
227.061	38.64
227.28	61.48
227.499	72.31
227.718	100.03
227.936	80.2
228.155	64.35
228.374	6.92
228.593	-23.25
228.812	-29.4
229.031	-7.46
229.25	-38.98
229.469	4.48
229.688	10.51
229.907	21.95
230.125	25.38
230.344	41.73
230.563	44.42
230.782	72.26
231.001	12.62
231.22	18.9
231.438	16.76
231.657	12.8
231.876	5
232.095	41.93
232.313	48.52
232.532	38.16
232.751	41.15
232.969	22.62
233.188	29.03
233.407	10.83
233.625	14.82
233.844	-4.55
234.063	-1.75
234.281	22.99
234.5	49.83
234.719	63.52
234.937	61.75
235.156	60.89
235.374	42.01
235.593	41.7
235.811	35.82
236.03	45.34
236.249	25.83
236.467	39.9
236.686	-0.32
236.904	13.42
237.123	-61.49
237.341	-32.34
237.559	-53.15
237.778	-23.79
237.996	-42.03
238.215	12.19
238.433	11.12
238.652	26.92
238.87	-23.55
239.088	5.52
239.307	2.87
239.525	-2.38
239.743	-33.06
239.962	6.13
240.18	-35.08
240.398	-71.5
240.617	-82.88
240.835	-49.05
241.053	-72.95
241.271	-36.82
241.49	2.19
241.708	1.17
241.926	2.52
242.144	8.78
242.363	-9
242.581	-6.18
242.799	17.65
243.017	7.5
243.235	-29.03
243.453	12.37
243.672	-31.83
243.89	-27.36
244.108	-19.63
244.326	17.42
244.544	9.35
244.762	11.5
244.98	16.55
245.198	27.26
245.416	-0.94
245.634	-7.07
245.852	9.23
246.07	-16.78
246.288	-25.76
246.506	-12.15
246.724	14.92
246.942	13.12
247.16	25.74
247.378	31.41
247.596	37.69
247.814	20.23
248.032	-24.21
248.25	-30.75
248.468	-33.05
248.685	-17.4
248.903	-10.51
249.121	8.3
249.339	-10.95
249.557	-24.55
249.775	-51.77
249.992	-104.71
250.21	-110.72
250.428	-81.75
250.646	-60.13
250.863	-45.89
251.081	-20.46
251.299	17.35
251.517	25.54
251.734	31.64
251.952	17.58
252.17	30.68
252.387	34.82
252.605	5.95
252.823	4.64
253.04	27.08
253.258	25.81
253.475	16.57
253.693	61.51
253.911	59.26
254.128	67.53
254.346	60.69
254.563	42.77
254.781	12.41
254.998	13.08
255.216	-12.51
255.433	-9.46
255.651	14.09
255.868	34.22
256.086	28.05
256.303	32.89
256.521	29.65
256.738	6.47
256.956	-24.66
257.173	-15.19
257.39	-16.02
257.608	-6.23
257.825	8.34
258.043	26.16
258.26	32.46
258.477	28.07
258.695	30.41
258.912	-5.16
259.129	-12.45
259.346	-51.6
259.564	-44.76
259.781	-29.08
259.998	-7.68
260.216	26.91
260.433	58.96
260.65	49.85
260.867	49.28
261.084	28.72
261.302	8.58
261.519	12.15
261.736	-5.4
261.953	-11.84
262.17	17.04
262.387	19.27
262.604	10.42
262.822	23.95
263.039	23.42
263.256	4.44
263.473	18.55
263.69	-10.21
263.907	12.98
264.124	21.38
264.341	51.64
264.558	30.63
264.775	30.14
264.992	29.49
265.209	28.4
265.426	24.22
265.643	14.15
265.86	35.95
266.077	36.86
266.294	32.5
266.51	20.25
266.727	21.22
266.944	30.73
267.161	0.06
267.378	10.98
267.595	14.75
267.812	-25.14
268.028	-33.47
268.245	-19.99
268.462	-47.95
268.679	-43.01
268.896	7.59
269.112	6.84
269.329	-0.51
269.546	10.33
269.763	9.59
269.979	7.4
270.196	-0.25
270.413	10.01
270.629	11
270.846	0.54
271.063	14.55
271.279	0.5
271.496	-32.75
271.712	-42.79
271.929	-30.6
272.146	-32.99
272.362	-27.59
272.579	33.55
272.795	41.49
273.012	52.76
273.228	34.74
273.445	18.13
273.661	-31.47
273.878	-89.38
274.094	-92.61
274.311	-93.35
274.527	-34.18
274.744	-4.68
274.96	48.1
275.177	40.33
275.393	40.13
275.609	48.53
275.826	45.23
276.042	19.16
276.259	25.05
276.475	16.62
276.691	-8.58
276.908	-12.35
277.124	34.95
277.34	22.63
277.557	22.98
277.773	34.81
277.989	30.53
278.205	14.97
278.422	12.99
278.638	38.63
278.854	37.65
279.07	33.24
279.286	-10.82
279.503	-3.8
279.719	-19.75
279.935	-32.98
280.151	-46.09
280.367	4.53
280.583	11.25
280.799	1.91
281.016	7.36
281.232	21
281.448	15.88
281.664	21.38
281.88	12.9
282.096	17.14
282.312	31.08
282.528	32.1
282.744	31.15
282.96	47.49
283.176	44.19
283.392	34.48
283.608	30.45
283.824	19.43
284.04	8.26
284.256	26.86
284.471	17.4
284.687	13.88
284.903	21.45
285.119	57.78
285.335	18.74
285.551	33.28
285.767	30.39
285.982	16.18
286.198	-21.27
286.414	17.3
286.63	8.06
286.846	26.37
287.061	14.42
287.277	17.76
287.493	12.32
287.709	20.81
287.924	4.07
288.14	34.41
288.356	41.75
288.571	45.43
288.787	42.08
289.003	47.44
289.218	39.01
289.434	10.38
289.65	19.86
289.865	18.95
290.081	26.86
290.296	20.04
290.512	16.9
290.727	19.83
290.943	8.41
291.159	-0.4
291.374	14.15
291.59	13.73
291.805	-5.53
292.021	16.23
292.236	20.08
292.451	1.49
292.667	15.86
292.882	28.63
293.098	27.5
293.313	11.79
293.529	4.47
293.744	-4.49
293.959	-36.05
294.175	-27.93
294.39	1.99
294.605	18.43
294.821	28.6
295.036	29.74
295.251	31.81
295.467	21.92
295.682	19.18
295.897	-1.23
296.112	0.16
296.328	-7.79
296.543	-8.47
296.758	-24.52
296.973	17.86
297.188	52.29
297.404	22.04
297.619	11.86
297.834	25.91
298.049	15.31
298.264	-4.53
298.479	32.47
298.694	44.29
298.909	53.76
299.125	51.29
299.34	55.2
299.555	27.05
299.77	36.74
299.985	-23.21
300.2	-51.2
300.415	-78.26
300.63	-37.31
300.845	-38
301.06	-19.17
301.275	-4.66
301.49	8.44
301.704	-19.09
301.919	-63.18
302.134	-73.81
302.349	-29
302.564	-37.96
302.779	-25.08
302.994	19.65
303.209	24.8
303.423	5.16
303.638	38.78
303.853	34.01
304.068	-1.9
304.283	17.55
304.497	12.15
304.712	5.35
304.927	15.97
305.142	14.71
305.356	10.2
305.571	11.64
305.786	-5.68
306	-24.97
306.215	-2.55
306.43	-22.67
306.644	-5.24
306.859	19
307.074	13.08
307.288	-15.34
307.503	7.93
307.717	-16.6
307.932	-17.72
308.147	-27.46
308.361	-2.56
308.576	-18.84
308.79	-51.26
309.005	-44.88
309.219	-9.37
309.434	-1.49
309.648	-23.97
309.863	16
310.077	15.61
310.292	-0.68
310.506	-22.37
310.72	22.46
310.935	25.37
311.149	26.68
311.364	34.19
311.578	51.61
311.792	36.99
312.007	35.68
312.221	-0.9
312.435	2.97
312.649	-27.56
312.864	8.57
313.078	-7.1
313.292	28.84
313.507	26.34
313.721	27.73
313.935	10.77
314.149	31.94
314.363	24.06
314.578	-2.18
314.792	-7.79
315.006	5.66
315.22	-1.97
315.434	-5.78
315.648	18.46
315.862	17.27
316.077	6.56
316.291	6.17
316.505	27.82
316.719	21.9
316.933	-2.79
317.147	18.21
317.361	-8.23
317.575	-6.89
317.789	-12.9
318.003	-8.56
318.217	-11.71
318.431	19.68
318.645	26.84
318.859	27.47
319.073	53.29
319.287	33.55
319.5	-5.38
319.714	-38.36
319.928	-44.61
320.142	-62.57
320.356	-13.63
320.57	12.87
320.784	7.42
320.997	18.31
321.211	16.78
321.425	-21.58
321.639	-57.38
321.853	-33.8
322.066	-37.07
322.28	-60.07
322.494	-38.79
322.707	26.2
322.921	22.76
323.135	23.88
323.349	50.91
323.562	37.61
323.776	3.37
323.989	1.23
324.203	-23.24
324.417	-39.64
324.63	-60.12
324.844	-73.69
325.057	-73.22
325.271	-71.52
325.485	-53.35
325.698	0.79
325.912	32.72
326.125	21.77
326.339	39.7
326.552	41.48
326.766	35.36
326.979	21.04
327.193	54.28
327.406	38.07
327.619	33.64
327.833	28.33
328.046	10.93
328.26	-13.28
328.473	-15.78
328.686	-26.55
328.9	-15.61
329.113	-1.21
329.326	-15.46
329.54	4.41
329.753	6.17
329.966	-19.63
330.179	11.95
330.393	35.51
330.606	18.96
330.819	41.82
331.032	52.35
331.246	42.68
331.459	53.05
331.672	46.52
331.885	20.48
332.098	0.61
332.311	7.17
332.525	-10.49
332.738	4.94
332.951	22.36
333.164	34.42
333.377	33.33
333.59	45.89
333.803	31.73
334.016	28.87
334.229	26.23
334.442	32.35
334.655	43.6
334.868	60.01
335.081	50.75
335.294	42.51
335.507	37.94
335.72	29.07
335.933	12.5
336.146	15.83
336.359	23.97
336.572	8.04
336.785	0.31
336.997	6.86
337.21	13.05
337.423	6.78
337.636	20.56
337.849	25.46
338.062	29.52
338.274	39.78
338.487	32.28
338.7	32.49
338.913	16.58
339.125	-5.32
339.338	-9.89
339.551	5.84
339.763	32.51
339.976	48.34
340.189	55.37
340.402	60.67
340.614	44.37
340.827	15.43
341.039	1.37
341.252	-14.86
341.465	-37.37
341.677	-43.81
341.89	-80.03
342.102	-59.09
342.315	-38.29
342.527	-49.34
342.74	-40.83
342.952	20.35
343.165	14.78
343.377	23.86
343.59	23
343.802	40.78
344.015	30.08
344.227	40.46
344.44	31.53
344.652	37.23
344.864	31.42
345.077	50.21
345.289	44.22
345.502	57.19
345.714	44.27
345.926	53.77
346.139	36.25
346.351	29.91
346.563	25.41
346.775	37.34
346.988	19.97
347.2	8.24
347.412	-13.31
347.624	-11.6
347.837	1.14
348.049	7.48
348.261	29.84
348.473	36.11
348.685	-0.37
348.897	-17.34
349.11	-28.49
349.322	-40.47
349.534	-10.03
349.746	7.8
349.958	17.51
350.17	30.43
350.382	46.08
350.594	40.8
350.806	51.03
351.018	38.5
351.23	26.17
351.442	10.03
351.654	4.47
351.866	-5.73
352.078	-12.11
352.29	-20.23
352.502	1.52
352.714	25.18
352.926	28.52
353.138	35.96
353.35	27.17
353.561	15.43
353.773	-4.39
353.985	3.16
354.197	6.25
354.409	6.95
354.621	7.66
354.832	20.79
355.044	10.94
355.256	-1.6
355.468	0.27
355.679	-2.24
355.891	0.92
356.103	-3.3
356.314	0.91
356.526	18.96
356.738	39.38
356.949	28.12
357.161	29.35
357.373	39.63
357.584	29.7
357.796	10.2
358.008	3.72
358.219	20.23
358.431	18.34
358.642	25.22
358.854	36.06
359.065	35.44
359.277	15.55
359.488	6.37
359.7	-13.24
359.911	-30.74
360.123	-27.18
360.334	-24.18
360.546	-21.76
360.757	-18.71
360.969	-11.66
361.18	1.06
361.391	8.39
361.603	0.21
361.814	17.75
362.025	12.09
362.237	-2.92
362.448	-3.31
362.659	21.18
362.871	21.78
363.082	24.71
363.293	32.58
363.504	29.64
363.716	8.97
363.927	11.54
364.138	3.05
364.349	-32.38
364.56	-32.45
364.772	-41.13
364.983	-28.35
365.194	-41.48
365.405	-10.26
365.616	-0.51
365.827	3.69
366.038	-10.89
366.25	12.35
366.461	-3.88
366.672	6.04
366.883	21.06
367.094	15.67
367.305	-6.31
367.516	16.85
367.727	-0.9
367.938	-20.2
368.149	-24.98
368.36	-0.13
368.571	-7.86
368.781	-12.38
368.992	-17.28
369.203	6.5
369.414	-9.22
369.625	-15.59
369.836	-5.78
370.047	-7.99
370.258	-28.56
370.468	-25.79
370.679	-59.49
370.89	-51.91
371.101	-24.98
371.312	-37.29
371.522	-32.96
371.733	-5.42
371.944	-7.91
372.155	-2.41
372.365	-14.63
372.576	-2.11
372.787	5.15
372.997	-3.67
373.208	-5.89
373.419	17.31
373.629	-14.27
373.84	-18.69
374.05	-30.74
374.261	-14.87
374.472	-28.83
374.682	-0.18
374.893	-1.33
375.103	29.2
375.314	16.24
375.524	21.53
375.735	27.21
375.945	28.07
376.156	3.81
376.366	14.5
376.577	22.76
376.787	10.11
376.997	17.38
377.208	23.99
377.418	-6.17
377.629	-6.92
377.839	-10.31
378.049	-16.25
378.26	-1.16
378.47	25.54
378.68	21.37
378.89	27.6
379.101	30.77
379.311	3.33
379.521	-18.85
379.732	-13.83
379.942	-35.7
380.152	-29.46
380.362	-20.59
380.572	-14.49
380.783	-1.83
380.993	16.22
381.203	15.97
381.413	25.27
381.623	28.33
381.833	24.52
382.043	1.93
382.253	0.7
382.463	1.11
382.674	-0.29
382.884	-17.11
383.094	-5.81
383.304	-7.65
383.514	-3.72
383.724	3.37
383.934	1.29
384.144	-7.67
384.353	-3.02
384.563	-1.02
384.773	-1.23
384.983	7.1
385.193	12.57
385.403	0.85
385.613	0.14
385.823	-2.47
386.033	2.41
386.242	3.76
386.452	11.52
386.662	4.06
386.872	9.91
387.082	9.07
387.291	0.02
387.501	2.7
387.711	6.28
387.921	-7.18
388.13	-5.99
388.34	5.28
388.55	1.12
388.759	3.14
388.969	12.14
389.179	9.18
389.388	4.31
389.598	2.75
389.807	-0.76
390.017	-2.45
390.227	-2.35
390.436	-2.79
390.646	4.78
390.855	6.69
391.065	6.13
391.274	3.38
391.484	1.14
391.693	-2.17
391.903	-0.05
392.112	1.99
392.322	5.75
392.531	10.06
392.74	9.91
392.95	5.23
393.159	4.96
393.369	6.59
393.578	3.28
393.787	2.99
393.997	6.37
394.206	5.05
394.415	4.79
394.625	5.94
394.834	4.42
395.043	2.98
395.252	4.87
395.462	5.09
395.671	6.71
395.88	8.82
396.089	9.92
396.298	8.89
396.508	8.18
396.717	7.52
396.926	6.88
397.135	6.3
397.344	5.92
397.553	6.57
397.762	6.85
397.971	6.71
398.181	6.73
398.39	5.39
398.599	4.68
398.808	4.39
399.017	5.04
399.226	5.29
399.435	6.91
399.644	6.95
399.853	6.57
400.062	5.87
400.27	5.91
400.479	5.4
400.688	4.91
400.897	5.39
401.106	5.49
401.315	4.85
401.524	4.91
401.733	5.37
401.941	5.75
402.15	5.77
402.359	5.85
402.568	6.02
402.777	5.95
402.985	5.47
403.194	5.52
403.403	5.65
403.612	5.37
403.82	5.48
404.029	5.47
404.238	5.13
404.446	5.26
404.655	5.12
404.864	4.97
405.072	4.81
405.281	5.23
405.489	4.81
405.698	4.89
405.906	4.95
406.115	4.9
406.324	4.65
406.532	4.78
406.741	4.98
406.949	4.71
407.158	4.7
407.366	4.79
407.574	5.03
407.783	4.94
407.991	5
408.2	5.11
408.408	5
408.617	4.66
408.825	4.46
409.033	4.6
409.242	4.61
409.45	4.65
409.658	4.67
409.867	4.8
410.075	4.68
410.283	4.56
410.491	4.58
410.7	4.56
410.908	4.58
411.116	4.57
411.324	4.64
411.533	4.54
411.741	4.62
411.949	4.61
412.157	4.49
412.365	4.5
412.573	4.5
412.781	4.55
412.99	4.43
413.198	4.65
413.406	4.63
413.614	4.73
413.822	4.59
414.03	4.54
414.238	4.29
414.446	4.34
414.654	4.06
414.862	4.16
415.07	4.26
415.278	4.5
415.486	4.05
415.694	4.25
415.902	4.25
416.109	4.09
416.317	4.06
416.525	4.05
416.733	4
416.941	4.06
417.149	4.13
417.357	4.13
417.564	4.53
417.772	4.48
417.98	4.43
418.188	4.44
418.395	4.3
418.603	4.24
418.811	4.1
419.019	3.97
419.226	4.14
419.434	4.31
419.642	4.14
419.849	4.21
420.057	4.4
420.265	4.36
420.472	4.15
420.68	4.3
420.887	4.2
421.095	4.14
421.302	4.01
421.51	4.18
421.717	4.24
421.925	4.34
422.132	4.24
422.34	4.07
422.547	3.99
422.755	3.92
422.962	3.99
423.17	4.04
423.377	4.21
423.585	4.29
423.792	4.16
423.999	4.12
424.207	4.03
424.414	4.11
424.621	4.12
424.829	4.06
425.036	4.13
425.243	4.03
425.451	3.83
425.658	3.59
425.865	3.68
426.072	3.62
426.28	3.72
426.487	3.62
426.694	3.65
426.901	3.74
427.108	3.67
427.315	3.67
427.523	3.98
427.73	4.07
427.937	3.68
428.144	3.61
428.351	3.62
428.558	3.62
428.765	3.56
428.972	3.67
429.179	3.8
429.386	3.91
429.593	3.68
429.8	3.5
430.007	3.66
430.214	3.71
430.421	3.66
430.628	3.53
430.835	3.46
431.042	3.64
431.249	3.6
431.456	3.74
431.662	4.14
431.869	4.45
432.076	4.38
432.283	4.31
432.49	4.2
432.697	4.03
432.903	3.68
433.11	3.58
433.317	3.71
433.524	3.8
433.73	3.67
433.937	4.06
434.144	3.98
434.35	3.99
434.557	3.86
434.764	3.91
434.97	3.88
435.177	4.07
435.384	3.77
435.59	3.84
435.797	4.04
436.003	3.94
436.21	3.82
436.416	3.97
436.623	3.85
436.829	3.76
437.036	3.73
437.242	3.72
437.449	3.82
437.655	3.76
437.862	3.78
438.068	3.9
438.275	4.04
438.481	4.06
438.687	4.1
438.894	4.06
439.1	3.92
439.307	3.99
439.513	3.87
439.719	3.93
439.926	3.86
440.132	3.85
440.338	3.64
440.544	3.71
440.751	3.64
440.957	3.8
441.163	3.6
441.369	3.65
441.575	3.48
441.782	3.45
441.988	3.21
442.194	3.39
442.4	3.33
442.606	3.6
442.812	3.7
443.018	3.85
443.224	3.85
443.431	4
443.637	3.77
443.843	3.6
444.049	3.6
444.255	3.63
444.461	3.52
444.667	3.48
444.873	3.68
445.079	3.7
445.284	3.71
445.49	3.59
445.696	3.52
445.902	3.38
446.108	3.36
446.314	3.23
446.52	3.46
446.726	3.72
446.931	3.67
447.137	3.73
447.343	3.97
447.549	3.66
447.755	3.58
447.96	3.69
448.166	3.6
448.372	3.61
448.578	3.69
448.783	3.67
448.989	3.78
449.195	3.83
449.4	3.59
449.606	3.6
449.812	3.58
450.017	3.57
450.223	3.52
450.428	3.46
450.634	3.53
450.84	3.6
451.045	3.41
451.251	3.29
451.456	3.49
451.662	3.58
451.867	3.55
452.073	3.53
452.278	3.68
452.483	3.74
452.689	3.7
452.894	3.79
453.1	3.92
453.305	3.72
453.51	3.61
453.716	3.47
453.921	3.38
454.127	3.3
454.332	3.37
454.537	3.28
454.742	3.39
454.948	3.4
455.153	3.29
455.358	3.34
455.563	3.48
455.769	3.49
455.974	3.49
456.179	3.48
456.384	3.4
456.589	3.36
456.795	3.21
457	3.13
457.205	3.39
457.41	3.37
457.615	3.35
457.82	3.57
458.025	3.64
458.23	3.43
458.435	3.52
458.64	3.37
458.845	3.29
459.05	3.23
459.255	3.14
459.46	3.15
459.665	3.19
459.87	3.21
460.075	3.1
460.28	3.28
460.485	3.39
460.69	3.46
460.895	3.22
461.099	3.23
461.304	3.29
461.509	3.19
461.714	3
461.919	3.17
462.123	3.13
462.328	3.14
462.533	2.98
462.738	3.14
462.942	3.13
463.147	3.31
463.352	3.28
463.556	3.35
463.761	3.32
463.966	3.43
464.17	3.47
464.375	3.38
464.58	3.33
464.784	3.29
464.989	3.05
465.193	2.98
465.398	2.97
