Data from Ofra_PP_Phys_9GT47Q_Reflection_3.txt Node
Date: Sat Jul 24 20:13:26 EDT 2021
User: USUARIO
Spectrometer: FLMT01687
Trigger mode: 0
Integration Time (sec): 1.100000E0
Scans to average: 2
Electric dark correction enabled: true
Nonlinearity correction enabled: false
Boxcar width: 2
XAxis mode: Wavelengths
Number of Pixels in Spectrum: 3648
>>>>>Begin Spectral Data<<<<<
179.494	770.51
179.716	1004.39
179.937	1810.52
180.158	1521.06
180.38	705.28
180.601	-910.71
180.823	49.96
181.044	-489.15
181.265	45.23
181.486	24.52
181.708	32.46
181.929	-2710.67
182.15	888.76
182.372	61.99
182.593	-8966.67
182.814	95.9
183.035	237.98
183.257	206.09
183.478	91.54
183.699	162.46
183.92	69.35
184.141	73.64
184.363	-50.5
184.584	45.38
184.805	30.06
185.026	65.56
185.247	57.97
185.468	45.23
185.689	26.61
185.91	31.09
186.132	24.74
186.353	28.19
186.574	81.03
186.795	95.39
187.016	25.88
187.237	48.25
187.458	20.49
187.679	20.7
187.9	51.58
188.121	104.27
188.342	115.98
188.563	149.4
188.784	152.18
189.005	169.01
189.226	165.72
189.447	129.57
189.667	105.06
189.888	40.37
190.109	7.03
190.33	-47.43
190.551	-69.07
190.772	-72.87
190.993	-79.7
191.214	-54.48
191.434	-42.5
191.655	36.08
191.876	7.92
192.097	11.02
192.318	2.69
192.538	-13.23
192.759	-46.55
192.98	-10.02
193.201	-13.16
193.421	-48.44
193.642	-3.6
193.863	14.5
194.083	-11.96
194.304	-11.85
194.525	24.21
194.745	21.68
194.966	-62.47
195.187	-92.23
195.407	-115.32
195.628	-168.94
195.848	-159.83
196.069	-149.66
196.29	-111.04
196.51	-172.44
196.731	-184.03
196.951	-167.43
197.172	-129.45
197.392	-115.81
197.613	-54.98
197.833	-49.37
198.054	-74
198.274	-29.14
198.495	-90.44
198.715	-52.13
198.936	-67.2
199.156	-20.15
199.377	-68.11
199.597	-51.61
199.817	-49.47
200.038	13.36
200.258	13.03
200.479	78.45
200.699	90.59
200.919	80.69
201.14	17.67
201.36	-2.03
201.58	-16.75
201.801	-2.74
202.021	-31.24
202.241	-3
202.461	-17.13
202.682	-35.17
202.902	-17.44
203.122	-16.5
203.342	2.83
203.563	38.23
203.783	60.86
204.003	-26.02
204.223	-75.99
204.443	60.26
204.663	24.08
204.884	-13.89
205.104	32.57
205.324	78.45
205.544	34.81
205.764	27.14
205.984	44.07
206.204	56.52
206.424	22.81
206.644	-19.79
206.864	12.63
207.084	13.55
207.304	50.85
207.525	12.3
207.745	6.82
207.964	-9.23
208.184	-22.84
208.404	-64.41
208.624	-58.77
208.844	-40.3
209.064	-70.35
209.284	-52.1
209.504	-33.26
209.724	1.81
209.944	-15.59
210.164	43.36
210.384	20.23
210.604	39.46
210.823	-26.52
211.043	-64.02
211.263	-68.42
211.483	-84.15
211.703	-107.04
211.922	-54.61
212.142	40.05
212.362	57.58
212.582	43.81
212.801	46.05
213.021	11.78
213.241	-4.45
213.461	-60.19
213.68	-73.96
213.9	-63.33
214.12	-27.78
214.339	-70.12
214.559	-58.41
214.779	-15.96
214.998	-10.76
215.218	-50.45
215.438	-24.58
215.657	-34.11
215.877	-25.55
216.096	-18.05
216.316	30
216.535	13
216.755	24.27
216.974	4.43
217.194	5.26
217.413	-16.71
217.633	-13.12
217.852	-68.84
218.072	-51.89
218.291	-60.19
218.511	-28.96
218.73	-85.46
218.95	-61.53
219.169	-73.67
219.389	-101.25
219.608	-131.31
219.827	-56.18
220.047	-29.52
220.266	-25.61
220.485	-28.53
220.705	25.09
220.924	-29.51
221.143	9.76
221.363	-46
221.582	12.93
221.801	1.79
222.021	52.31
222.24	30.16
222.459	86.14
222.678	46.5
222.897	11.67
223.117	-0.25
223.336	-23.02
223.555	7.44
223.774	51.41
223.993	93.19
224.213	152.04
224.432	120.64
224.651	132.14
224.87	79.11
225.089	75.47
225.308	58.76
225.527	88.5
225.746	76.73
225.965	74.08
226.184	55.9
226.404	58.96
226.623	19.49
226.842	15.04
227.061	48.14
227.28	79.68
227.499	89.43
227.718	111.48
227.936	95.14
228.155	85.88
228.374	16.07
228.593	-19.4
228.812	-4.47
229.031	12.94
229.25	-21.06
229.469	27.38
229.688	44.7
229.907	41.88
230.125	49.99
230.344	70.7
230.563	76.14
230.782	95.77
231.001	32.82
231.22	34.18
231.438	34.64
231.657	21.32
231.876	10.84
232.095	67.9
232.313	70.53
232.532	65.96
232.751	67.12
232.969	48.89
233.188	45.91
233.407	48.9
233.625	23.47
233.844	16.82
234.063	13.44
234.281	37.81
234.5	29.55
234.719	40.48
234.937	49.99
235.156	76.18
235.374	61.76
235.593	83.53
235.811	94.92
236.03	97.49
236.249	69.18
236.467	97.95
236.686	56.91
236.904	59.1
237.123	-23.11
237.341	-17.75
237.559	-43.74
237.778	-33.1
237.996	-64.47
238.215	-17.85
238.433	-7.38
238.652	9.8
238.87	-44.75
239.088	-6.29
239.307	26.31
239.525	17.41
239.743	-40.29
239.962	5.17
240.18	-27.3
240.398	-77.7
240.617	-99.86
240.835	-52.79
241.053	-89.76
241.271	-39.24
241.49	-4.82
241.708	8.86
241.926	27.93
242.144	49.38
242.363	23.95
242.581	27.64
242.799	40.73
243.017	39.69
243.235	1.32
243.453	41.04
243.672	-0.59
243.89	4.73
244.108	7.74
244.326	40.91
244.544	23.82
244.762	26.2
244.98	33.51
245.198	45.68
245.416	14.07
245.634	27.22
245.852	51.11
246.07	42.2
246.288	44.99
246.506	30.18
246.724	43.58
246.942	34.44
247.16	49.47
247.378	51.12
247.596	81.82
247.814	70.31
248.032	32.85
248.25	21.61
248.468	14.39
248.685	31.28
248.903	45.57
249.121	76.52
249.339	41
249.557	24.55
249.775	-9.57
249.992	-88.12
250.21	-108.64
250.428	-65.88
250.646	-59.49
250.863	-54.69
251.081	-22.24
251.299	15.22
251.517	10.43
251.734	15.2
251.952	5.64
252.17	10.2
252.387	15.87
252.605	-2.02
252.823	8.33
253.04	38.55
253.258	52.57
253.475	38.55
253.693	71.38
253.911	78.56
254.128	76.5
254.346	86.89
254.563	67.6
254.781	38.49
254.998	23.42
255.216	3.12
255.433	-12.31
255.651	32.56
255.868	60.84
256.086	84.62
256.303	97.99
256.521	111.89
256.738	77.04
256.956	38.14
257.173	32.87
257.39	28.19
257.608	21.61
257.825	36.78
258.043	63.97
258.26	49.47
258.477	51.49
258.695	63.49
258.912	15.94
259.129	-6.56
259.346	-44.51
259.564	-39.24
259.781	-35.47
259.998	-8.81
260.216	32.04
260.433	74.82
260.65	48.49
260.867	63.33
261.084	49.43
261.302	32.24
261.519	24.55
261.736	9.22
261.953	-6.18
262.17	20.11
262.387	9.94
262.604	-8.53
262.822	-3.74
263.039	-3.54
263.256	-30.36
263.473	-12.99
263.69	-24.43
263.907	17.37
264.124	40.35
264.341	71.55
264.558	48.27
264.775	57.14
264.992	59.11
265.209	61.27
265.426	58.95
265.643	78.39
265.86	82.27
266.077	75.97
266.294	51.95
266.51	39.76
266.727	14.75
266.944	35.49
267.161	-2.76
267.378	13.7
267.595	8.53
267.812	-30.57
268.028	-33.28
268.245	7.34
268.462	-28.67
268.679	-19.83
268.896	51.75
269.112	42.23
269.329	22.91
269.546	51.18
269.763	52.84
269.979	45.94
270.196	34.13
270.413	28.16
270.629	5.33
270.846	-14.73
271.063	-8.17
271.279	-23.29
271.496	-61.57
271.712	-54.07
271.929	-33.72
272.146	-23.27
272.362	-13.91
272.579	59.85
272.795	66.96
273.012	85.08
273.228	71.86
273.445	40.96
273.661	-27.13
273.878	-114.28
274.094	-113.66
274.311	-138.63
274.527	-59.44
274.744	-12.01
274.96	42.89
275.177	45.78
275.393	55.2
275.609	57.9
275.826	68.43
276.042	63.45
276.259	58.25
276.475	53.65
276.691	43.89
276.908	10.65
277.124	48.34
277.34	53.17
277.557	58.99
277.773	54.95
277.989	59.03
278.205	32.59
278.422	29.73
278.638	41.12
278.854	46.99
279.07	51.14
279.286	21.41
279.503	-8.33
279.719	-25.18
279.935	-43.74
280.151	-50.93
280.367	-8.32
280.583	10.61
280.799	5.53
281.016	14.16
281.232	26.67
281.448	28.31
281.664	43.41
281.88	34.77
282.096	36.9
282.312	49.19
282.528	49.5
282.744	53.96
282.96	58.47
283.176	57.92
283.392	44.78
283.608	37.76
283.824	32.89
284.04	35.8
284.256	51.4
284.471	46
284.687	47.82
284.903	58.63
285.119	98.6
285.335	56.54
285.551	67.31
285.767	50.47
285.982	19.73
286.198	-34.26
286.414	-2.2
286.63	1.92
286.846	32.81
287.061	-0.47
287.277	36.33
287.493	38.61
287.709	44.25
287.924	37.37
288.14	81.37
288.356	72.08
288.571	78.56
288.787	71.78
289.003	73.16
289.218	59.82
289.434	12.14
289.65	23.5
289.865	16.9
290.081	14.84
290.296	28.21
290.512	36.91
290.727	28.34
290.943	16.58
291.159	10.35
291.374	7.19
291.59	-16.97
291.805	-36.37
292.021	-14.16
292.236	-33.05
292.451	-23.68
292.667	6.92
292.882	28.28
293.098	38.69
293.313	45.08
293.529	28.05
293.744	-8.11
293.959	-30.64
294.175	-31.28
294.39	-3.37
294.605	13.1
294.821	45.61
295.036	42.22
295.251	49.63
295.467	31.45
295.682	32.38
295.897	-3.77
296.112	-9.58
296.328	-8.15
296.543	-17.35
296.758	-39.67
296.973	39.39
297.188	82.13
297.404	39.65
297.619	56.92
297.834	48.43
298.049	20.7
298.264	-8.57
298.479	29.64
298.694	34.41
298.909	54.03
299.125	51.31
299.34	72.04
299.555	46.85
299.77	46.99
299.985	-23.01
300.2	-36.37
300.415	-78.06
300.63	-41.24
300.845	-48.18
301.06	-21.73
301.275	-10.2
301.49	14.7
301.704	-1.72
301.919	-39.98
302.134	-47.95
302.349	-3.3
302.564	-32.82
302.779	-19.02
302.994	49.33
303.209	50.93
303.423	44.58
303.638	86.57
303.853	69.82
304.068	-4.51
304.283	0.7
304.497	-15.54
304.712	-11.36
304.927	-0.82
305.142	13.92
305.356	28.28
305.571	47.54
305.786	38.34
306	26.17
306.215	51.37
306.43	22.16
306.644	31.18
306.859	43.22
307.074	41.45
307.288	2.5
307.503	28.17
307.717	-1.12
307.932	8.98
308.147	-3.83
308.361	38.9
308.576	16.85
308.79	-29.8
309.005	-32.03
309.219	-8.2
309.434	-7.17
309.648	-37.17
309.863	9.52
310.077	8.85
310.292	17.12
310.506	4.58
310.72	57.59
310.935	81.04
311.149	55.29
311.364	58.85
311.578	69.72
311.792	50.37
312.007	28.52
312.221	-7
312.435	19.58
312.649	-11.06
312.864	49.32
313.078	58.48
313.292	119.85
313.507	80.05
313.721	75.87
313.935	53.8
314.149	58.15
314.363	43.99
314.578	37.1
314.792	23.87
315.006	22.61
315.22	17.54
315.434	27.2
315.648	44.15
315.862	32.86
316.077	37.5
316.291	55.9
316.505	49.54
316.719	40.09
316.933	13.72
317.147	33.47
317.361	-22.5
317.575	-23.68
317.789	-39.49
318.003	-13.82
318.217	-13.9
318.431	16.99
318.645	33.39
318.859	28.55
319.073	51.21
319.287	21.53
319.5	-8.48
319.714	-47.13
319.928	-52.49
320.142	-67.94
320.356	-0.8
320.57	19.81
320.784	13.62
320.997	34.23
321.211	28.89
321.425	-16.5
321.639	-59.77
321.853	-16.02
322.066	-21.45
322.28	-29.44
322.494	-6.33
322.707	70.64
322.921	38.84
323.135	38.53
323.349	46.73
323.562	25.07
323.776	-21.6
323.989	-7.89
324.203	-22.05
324.417	-8.42
324.63	-29.23
324.844	-50.76
325.057	-61.96
325.271	-57.82
325.485	-69.55
325.698	-16.53
325.912	21.94
326.125	16.42
326.339	34.72
326.552	34.33
326.766	44.29
326.979	53.21
327.193	77.17
327.406	43.28
327.619	44.24
327.833	49.46
328.046	28.12
328.26	0.46
328.473	11.15
328.686	-8.45
328.9	-9.33
329.113	-3.21
329.326	-2.76
329.54	1.54
329.753	10.27
329.966	7.48
330.179	27.97
330.393	35.65
330.606	31.23
330.819	45.75
331.032	47.28
331.246	45.32
331.459	71.94
331.672	57.76
331.885	50.99
332.098	24.59
332.311	35.64
332.525	-3.52
332.738	24.86
332.951	40.3
333.164	48.58
333.377	51.35
333.59	84.46
333.803	63
334.016	49.93
334.229	46.57
334.442	51.1
334.655	73.81
334.868	79.71
335.081	73.45
335.294	69.33
335.507	61.89
335.72	44.69
335.933	18.5
336.146	19.32
336.359	35.45
336.572	10.68
336.785	-10.52
336.997	3.48
337.21	19.12
337.423	7.12
337.636	23.28
337.849	30.88
338.062	36.03
338.274	47.59
338.487	29.69
338.7	37.56
338.913	13.43
339.125	-12.05
339.338	-23.52
339.551	-2.25
339.763	12.14
339.976	44.81
340.189	63.92
340.402	68.76
340.614	45.04
340.827	25.98
341.039	0.79
341.252	-15.89
341.465	-15.58
341.677	-28.86
341.89	-77.54
342.102	-48.21
342.315	-38.11
342.527	-51.43
342.74	-24.25
342.952	44.05
343.165	46.02
343.377	71.22
343.59	59.49
343.802	86.27
344.015	77.52
344.227	88.89
344.44	61.19
344.652	49.07
344.864	40.65
345.077	65.26
345.289	52.48
345.502	71.76
345.714	74.05
345.926	63.29
346.139	35.54
346.351	35.63
346.563	34.46
346.775	52.1
346.988	42.45
347.2	44.1
347.412	7.84
347.624	10.02
347.837	12.13
348.049	26.21
348.261	48.31
348.473	60.56
348.685	9.42
348.897	-20.44
349.11	-23.7
349.322	-29.37
349.534	6.05
349.746	39.03
349.958	63.5
350.17	58.8
350.382	63.19
350.594	54.1
350.806	58.78
351.018	38.17
351.23	32.03
351.442	21.24
351.654	18.96
351.866	26.35
352.078	33.17
352.29	45.13
352.502	59.65
352.714	78.37
352.926	54.81
353.138	57.88
353.35	32.42
353.561	21.72
353.773	-7.08
353.985	8.4
354.197	4.28
354.409	10.52
354.621	14.23
354.832	22.73
355.044	4.42
355.256	3.56
355.468	9.45
355.679	1.64
355.891	11.1
356.103	4.62
356.314	0.56
356.526	10.55
356.738	39.5
356.949	37.84
357.161	52.02
357.373	54.56
357.584	46.75
357.796	29.81
358.008	4.5
358.219	29.89
358.431	30.31
358.642	42.71
358.854	47.83
359.065	53.75
359.277	17.37
359.488	7.15
359.7	-10.99
359.911	-31.87
360.123	-26.48
360.334	-28.28
360.546	-31.59
360.757	-29.3
360.969	-22.05
361.18	-5.11
361.391	7.91
361.603	4.72
361.814	29.86
362.025	13.43
362.237	7.52
362.448	10.17
362.659	33.15
362.871	31.02
363.082	47.09
363.293	49.38
363.504	40.73
363.716	21.19
363.927	21.09
364.138	5.76
364.349	-28.58
364.56	-33.63
364.772	-45.57
364.983	-34.74
365.194	-45.63
365.405	-14.53
365.616	4.82
365.827	20.87
366.038	10.59
366.25	43.3
366.461	18.72
366.672	37.07
366.883	48.76
367.094	40.43
367.305	6.6
367.516	36.63
367.727	12.18
367.938	-13.19
368.149	-25.63
368.36	2.28
368.571	-7.76
368.781	-16.41
368.992	-23.82
369.203	7.28
369.414	-13.83
369.625	-23.35
369.836	-21.28
370.047	-23.52
370.258	-44.37
370.468	-35.6
370.679	-74.04
370.89	-61.81
371.101	-25.39
371.312	-47.41
371.522	-36.87
371.733	-0.05
371.944	12.61
372.155	25.83
372.365	13.3
372.576	12.54
372.787	-3.14
372.997	-16.35
373.208	-29.94
373.419	-1.48
373.629	-29.24
373.84	-15.95
374.05	-31.84
374.261	-7.5
374.472	-30.78
374.682	17.11
374.893	9.63
375.103	48.52
375.314	29.55
375.524	47.92
375.735	50.36
375.945	50.34
376.156	12.82
376.366	27.08
376.577	35.65
376.787	17.23
376.997	36.37
377.208	45.63
377.418	18.59
377.629	20.51
377.839	9.89
378.049	-4.36
378.26	14.77
378.47	37.2
378.68	26.88
378.89	30.31
379.101	25.42
379.311	-9.08
379.521	-34.51
379.732	-25.09
379.942	-32.6
380.152	-26.9
380.362	1.84
380.572	6.93
380.783	14.38
380.993	23.81
381.203	27.88
381.413	26.26
381.623	22.42
381.833	18.32
382.043	7.22
382.253	13.24
382.463	15.33
382.674	21.57
382.884	5.39
383.094	15.74
383.304	9.62
383.514	7.26
383.724	20.29
383.934	13.45
384.144	-3.38
384.353	1.19
384.563	6.88
384.773	0.73
384.983	13.19
385.193	29.6
385.403	15.21
385.613	13.81
385.823	9.29
386.033	13.5
386.242	-0.45
386.452	6.42
386.662	-1.91
386.872	7.05
387.082	0.88
387.291	-3.9
387.501	5.35
387.711	8.56
387.921	-6.69
388.13	1.15
388.34	18.46
388.55	13.03
388.759	12.44
388.969	21.23
389.179	13.35
389.388	8.31
389.598	6.72
389.807	5.29
390.017	5.37
390.227	6.56
390.436	4.5
390.646	12.41
390.855	15.76
391.065	19.03
391.274	15.07
391.484	13.4
391.693	11.56
391.903	13.64
392.112	13.83
392.322	21.38
392.531	26.01
392.74	24.67
392.95	18.06
393.159	14.99
393.369	13.82
393.578	10.44
393.787	8.95
393.997	13.55
394.206	13.31
394.415	14.06
394.625	14.14
394.834	12.67
395.043	10.98
395.252	13.38
395.462	14.37
395.671	16.84
395.88	18.79
396.089	19.67
396.298	17.88
396.508	16.6
396.717	15.9
396.926	15.72
397.135	16.09
397.344	15.63
397.553	16.15
397.762	17.03
397.971	16.83
398.181	16.34
398.39	14.98
398.599	14.41
398.808	13.29
399.017	14.18
399.226	14.26
399.435	16.1
399.644	16
399.853	15.59
400.062	14.58
400.27	14.46
400.479	14.13
400.688	13.44
400.897	13.85
401.106	13.69
401.315	13.03
401.524	12.71
401.733	13.21
401.941	13.8
402.15	14.03
402.359	14.2
402.568	14.43
402.777	14.44
402.985	14.06
403.194	14.19
403.403	14.32
403.612	14
403.82	14.02
404.029	13.78
404.238	13.26
404.446	13.39
404.655	12.95
404.864	12.91
405.072	12.65
405.281	12.99
405.489	12.33
405.698	12.41
405.906	12.1
406.115	12.01
406.324	11.5
406.532	11.77
406.741	12.16
406.949	12
407.158	11.98
407.366	12.16
407.574	12.16
407.783	11.97
407.991	11.95
408.2	12.17
408.408	12.06
408.617	11.94
408.825	11.61
409.033	11.8
409.242	11.71
409.45	11.72
409.658	11.58
409.867	11.86
410.075	11.66
410.283	11.33
410.491	11.13
410.7	10.94
410.908	10.87
411.116	10.89
411.324	10.96
411.533	11.18
411.741	11.37
411.949	11.5
412.157	11.32
412.365	11.33
412.573	11.21
412.781	11.3
412.99	10.91
413.198	11.07
413.406	11
413.614	10.96
413.822	10.78
414.03	10.81
414.238	10.5
414.446	10.6
414.654	10.32
414.862	10.34
415.07	10.41
415.278	10.73
415.486	10.32
415.694	10.5
415.902	10.4
416.109	10.3
416.317	10.16
416.525	9.99
416.733	10.01
416.941	10.09
417.149	9.96
417.357	10.02
417.564	10.52
417.772	10.54
417.98	10.5
418.188	10.59
418.395	10.38
418.603	10.37
418.811	9.88
419.019	9.65
419.226	9.91
419.434	10.08
419.642	9.86
419.849	10.29
420.057	10.66
420.265	10.47
420.472	10.1
420.68	10.31
420.887	10.04
421.095	9.94
421.302	9.81
421.51	10.18
421.717	10.02
421.925	10.14
422.132	9.99
422.34	9.68
422.547	9.61
422.755	9.49
422.962	9.51
423.17	9.4
423.377	9.71
423.585	9.68
423.792	9.8
423.999	9.78
424.207	9.76
424.414	9.77
424.621	9.79
424.829	9.51
425.036	9.44
425.243	9.47
425.451	9.28
425.658	8.96
425.865	9.16
426.072	9.17
426.28	9.38
426.487	9.22
426.694	9.53
426.901	9.58
427.108	9.56
427.315	9.47
427.523	9.84
427.73	9.79
427.937	9.34
428.144	9.11
428.351	9.1
428.558	9.25
428.765	9.22
428.972	9.49
429.179	9.76
429.386	9.75
429.593	9.35
429.8	9
430.007	9.06
430.214	9.14
430.421	9.11
430.628	9.03
430.835	9
431.042	9.2
431.249	9.17
431.456	9.27
431.662	9.67
431.869	9.98
432.076	9.97
432.283	9.91
432.49	9.64
432.697	9.43
432.903	9.1
433.11	8.96
433.317	9.05
433.524	9.34
433.73	9.19
433.937	9.73
434.144	9.62
434.35	9.61
434.557	9.55
434.764	9.66
434.97	9.39
435.177	9.51
435.384	9.23
435.59	9.28
435.797	9.42
436.003	9.58
436.21	9.59
436.416	9.77
436.623	9.61
436.829	9.61
437.036	9.59
437.242	9.49
437.449	9.46
437.655	9.44
437.862	9.53
438.068	9.48
438.275	9.63
438.481	9.8
438.687	9.9
438.894	9.79
439.1	9.75
439.307	9.95
439.513	9.87
439.719	9.9
439.926	9.81
440.132	9.82
440.338	9.51
440.544	9.53
440.751	9.44
440.957	9.6
441.163	9.37
441.369	9.54
441.575	9.35
441.782	9.25
441.988	9.01
442.194	9.13
442.4	9.04
442.606	9.4
442.812	9.57
443.018	9.84
443.224	10.04
443.431	10.21
443.637	10.02
443.843	9.91
444.049	9.86
444.255	9.76
444.461	9.61
444.667	9.51
444.873	9.58
445.079	9.64
445.284	9.71
445.49	9.58
445.696	9.42
445.902	9.45
446.108	9.3
446.314	9.09
446.52	9.35
446.726	9.68
446.931	9.59
447.137	9.74
447.343	9.99
447.549	9.73
447.755	9.68
447.96	9.83
448.166	9.71
448.372	9.74
448.578	9.75
448.783	9.68
448.989	9.76
449.195	10.05
449.4	9.82
449.606	9.83
449.812	9.83
450.017	9.95
450.223	9.71
450.428	9.65
450.634	9.83
450.84	9.94
451.045	9.67
451.251	9.55
451.456	9.86
451.662	9.93
451.867	9.88
452.073	9.82
452.278	10.05
452.483	10.04
452.689	9.97
452.894	10.16
453.1	10.31
453.305	10.1
453.51	9.98
453.716	9.91
453.921	9.73
454.127	9.65
454.332	9.64
454.537	9.55
454.742	9.58
454.948	9.74
455.153	9.72
455.358	9.83
455.563	10.07
455.769	10.06
455.974	9.88
456.179	9.81
456.384	9.71
456.589	9.59
456.795	9.44
457	9.48
457.205	9.68
457.41	9.61
457.615	9.49
457.82	9.63
458.025	9.7
458.23	9.41
458.435	9.69
458.64	9.56
458.845	9.61
459.05	9.48
459.255	9.44
459.46	9.28
459.665	9.39
459.87	9.31
460.075	9.19
460.28	9.4
460.485	9.5
460.69	9.57
460.895	9.34
461.099	9.28
461.304	9.49
461.509	9.43
461.714	9.29
461.919	9.58
462.123	9.62
462.328	9.51
462.533	9.24
462.738	9.45
462.942	9.26
