Data from Ofra_PP_Phys_6GT17_Reflection_2.txt Node
Date: Sat Jul 24 20:11:23 EDT 2021
User: USUARIO
Spectrometer: FLMT01687
Trigger mode: 0
Integration Time (sec): 1.100000E0
Scans to average: 2
Electric dark correction enabled: true
Nonlinearity correction enabled: false
Boxcar width: 2
XAxis mode: Wavelengths
Number of Pixels in Spectrum: 3648
>>>>>Begin Spectral Data<<<<<
179.494	742.52
179.716	929.12
179.937	1630.28
180.158	1373.8
180.38	629.4
180.601	-844.39
180.823	-72.41
181.044	1148.06
181.265	-65.73
181.486	-42.69
181.708	27.22
181.929	-998.67
182.15	136.95
182.372	-74.1
182.593	52233.33
182.814	1160.51
183.035	278.98
183.257	180.14
183.478	85.2
183.699	190.92
183.92	71.68
184.141	84.23
184.363	58.76
184.584	132.69
184.805	66.81
185.026	96.37
185.247	105.07
185.468	63.11
185.689	49.9
185.91	58.18
186.132	49.31
186.353	48.18
186.574	77.38
186.795	89.59
187.016	30.63
187.237	42.44
187.458	40.25
187.679	76.64
187.9	64.56
188.121	157.43
188.342	164.23
188.563	161
188.784	169.48
189.005	198.17
189.226	152.59
189.447	153.55
189.667	131.53
189.888	77.95
190.109	40.75
190.33	3.56
190.551	-41.18
190.772	-41.14
190.993	-40.03
191.214	-14.06
191.434	-0.12
191.655	72.49
191.876	50.12
192.097	33.65
192.318	31.46
192.538	7.23
192.759	-13.92
192.98	16.53
193.201	35.43
193.421	1.66
193.642	35.64
193.863	26.37
194.083	2.94
194.304	9.52
194.525	41.01
194.745	54.69
194.966	4.75
195.187	-27.75
195.407	-59.26
195.628	-98.5
195.848	-118.79
196.069	-109.34
196.29	-44.78
196.51	-116.37
196.731	-157.1
196.951	-101.03
197.172	-63.09
197.392	-74.76
197.613	-33.82
197.833	-15.4
198.054	-70.91
198.274	-53.15
198.495	-97.65
198.715	-44.83
198.936	-63.88
199.156	-20.96
199.377	-42.58
199.597	-39
199.817	-52.6
200.038	3.12
200.258	33.19
200.479	69.19
200.699	82.62
200.919	83.7
201.14	34.11
201.36	7.94
201.58	17.72
201.801	31.33
202.021	16.64
202.241	51.93
202.461	41.34
202.682	-2.61
202.902	-1.89
203.122	4.33
203.342	2
203.563	50.7
203.783	93.99
204.003	17.55
204.223	-29.32
204.443	55.74
204.663	40.94
204.884	9.58
205.104	67.41
205.324	84.77
205.544	48.47
205.764	41.56
205.984	53.55
206.204	58.82
206.424	90.36
206.644	84.71
206.864	74.15
207.084	69.35
207.304	119.28
207.525	35.68
207.745	42.65
207.964	41.61
208.184	27.03
208.404	-10.99
208.624	1.7
208.844	15.47
209.064	-28.73
209.284	-29.24
209.504	-17.11
209.724	17.79
209.944	24.56
210.164	73.58
210.384	85.32
210.604	81.82
210.823	2.6
211.043	-49.19
211.263	-39.04
211.483	-62.71
211.703	-65.2
211.922	1.71
212.142	80.91
212.362	92.31
212.582	74.39
212.801	66.18
213.021	29.94
213.241	13.41
213.461	-36.76
213.68	-61.77
213.9	-55.34
214.12	-39.54
214.339	-67.3
214.559	-37.71
214.779	16.01
214.998	33.98
215.218	13.97
215.438	20.43
215.657	6.03
215.877	32.9
216.096	23.29
216.316	47.14
216.535	41.95
216.755	49.48
216.974	21.54
217.194	23.47
217.413	-0.91
217.633	6.91
217.852	-60.99
218.072	-50.26
218.291	-63.02
218.511	-16.88
218.73	-80.54
218.95	-59.86
219.169	-65.89
219.389	-93.76
219.608	-131.14
219.827	-55.7
220.047	-25.43
220.266	-34.98
220.485	-34.46
220.705	1.38
220.924	-30.8
221.143	-9.73
221.363	-56.1
221.582	-0.82
221.801	10.59
222.021	53.52
222.24	55.67
222.459	118.38
222.678	93.55
222.897	71.48
223.117	39.48
223.336	29.43
223.555	34.22
223.774	58.51
223.993	55.45
224.213	118.93
224.432	85.26
224.651	103.79
224.87	79.45
225.089	91.08
225.308	74.6
225.527	104.47
225.746	88.61
225.965	83.74
226.184	75.6
226.404	72.51
226.623	27.73
226.842	28.91
227.061	64.89
227.28	70
227.499	74.25
227.718	102.95
227.936	81.37
228.155	84
228.374	33.75
228.593	28.35
228.812	18.78
229.031	43.57
229.25	8.19
229.469	48.72
229.688	47.83
229.907	59.03
230.125	69.87
230.344	63.82
230.563	65.48
230.782	92.6
231.001	39.91
231.22	50.93
231.438	80.81
231.657	61.15
231.876	37.41
232.095	80.32
232.313	66.84
232.532	50.8
232.751	52.54
232.969	45.46
233.188	35.03
233.407	34.09
233.625	26.45
233.844	17.18
234.063	28.06
234.281	75.96
234.5	71.63
234.719	84.61
234.937	86.62
235.156	85.36
235.374	69.06
235.593	94.06
235.811	85.66
236.03	86.68
236.249	69.86
236.467	67.25
236.686	26.38
236.904	42.95
237.123	-13.76
237.341	-2.01
237.559	-27.83
237.778	-27.05
237.996	-47.53
238.215	5.92
238.433	8.26
238.652	46.53
238.87	6.93
239.088	40.87
239.307	46.59
239.525	34.56
239.743	-18.21
239.962	26.63
240.18	-14.52
240.398	-61.95
240.617	-79.59
240.835	-35.84
241.053	-46.67
241.271	38.3
241.49	52.37
241.708	58.47
241.926	68.96
242.144	57.05
242.363	16.7
242.581	10.12
242.799	31.85
243.017	32.47
243.235	-18.81
243.453	5.01
243.672	-20.33
243.89	-18.11
244.108	-4.33
244.326	43.05
244.544	29.28
244.762	24.51
244.98	28.94
245.198	23.28
245.416	-0.74
245.634	2.18
245.852	41.96
246.07	47.11
246.288	49.14
246.506	36.29
246.724	62.81
246.942	46.18
247.16	54.33
247.378	69.98
247.596	91.2
247.814	79.2
248.032	47.57
248.25	31.93
248.468	31.8
248.685	50.62
248.903	63.44
249.121	80.63
249.339	52.85
249.557	37.47
249.775	12.22
249.992	-73.78
250.21	-71.77
250.428	-38.17
250.646	-35.26
250.863	-32.27
251.081	4.2
251.299	30.37
251.517	32.31
251.734	30.32
251.952	20.8
252.17	33.81
252.387	38.28
252.605	23.43
252.823	33.7
253.04	58.42
253.258	71.33
253.475	57.39
253.693	96.52
253.911	103.81
254.128	98.26
254.346	85.4
254.563	64.84
254.781	12.74
254.998	7.43
255.216	-1.7
255.433	2.45
255.651	47.44
255.868	80.88
256.086	84.77
256.303	77.23
256.521	81.53
256.738	50.54
256.956	18.18
257.173	28.59
257.39	34.18
257.608	25.45
257.825	45.85
258.043	58.55
258.26	36.67
258.477	41.43
258.695	30.11
258.912	-17.87
259.129	-12.9
259.346	-30.39
259.564	-34.46
259.781	-3.56
259.998	19.3
260.216	52.61
260.433	75.76
260.65	72.39
260.867	81.62
261.084	63.42
261.302	51.36
261.519	64.87
261.736	35.13
261.953	26.57
262.17	40.85
262.387	26.43
262.604	-3.42
262.822	7.29
263.039	-9.64
263.256	-19.18
263.473	-2.36
263.69	-11.17
263.907	12.34
264.124	51.68
264.341	99
264.558	71.57
264.775	72.18
264.992	90.38
265.209	71.14
265.426	46.31
265.643	54.76
265.86	58.08
266.077	53.56
266.294	36.44
266.51	25.36
266.727	20.2
266.944	50.95
267.161	19
267.378	31.38
267.595	53.66
267.812	15.09
268.028	1.08
268.245	35.64
268.462	4.59
268.679	0.32
268.896	59.77
269.112	44.38
269.329	45.46
269.546	68.17
269.763	66.22
269.979	68.11
270.196	56.26
270.413	35.88
270.629	15.03
270.846	-4.05
271.063	0.08
271.279	-2.85
271.496	-34.05
271.712	-21.96
271.929	-13.33
272.146	-6.9
272.362	-1.37
272.579	72.66
272.795	71.2
273.012	85.08
273.228	74.13
273.445	57.12
273.661	-12.82
273.878	-84.6
274.094	-74.04
274.311	-94.62
274.527	-43.74
274.744	-11.15
274.96	45.26
275.177	52.64
275.393	62.72
275.609	72.86
275.826	89.38
276.042	86.02
276.259	73.85
276.475	68.12
276.691	66.53
276.908	42.78
277.124	76.11
277.34	70.49
277.557	73.6
277.773	63.17
277.989	61.47
278.205	46.3
278.422	53.41
278.638	58.71
278.854	55.52
279.07	56
279.286	19.88
279.503	12.35
279.719	1.01
279.935	-9.44
280.151	-24.98
280.367	17.69
280.583	26.55
280.799	25.13
281.016	27.64
281.232	45.58
281.448	48.64
281.664	51.28
281.88	38.24
282.096	42.92
282.312	61.24
282.528	62.6
282.744	64.66
282.96	74.41
283.176	76.06
283.392	56.85
283.608	42.16
283.824	25.96
284.04	28.04
284.256	48.99
284.471	45.38
284.687	54.22
284.903	62.63
285.119	90.07
285.335	46.99
285.551	65.73
285.767	53.2
285.982	46.57
286.198	17.11
286.414	59.05
286.63	51.81
286.846	66.52
287.061	35.7
287.277	32.79
287.493	23.52
287.709	31.84
287.924	13.89
288.14	58.83
288.356	78.78
288.571	90.3
288.787	76.31
289.003	83.56
289.218	66.56
289.434	10.21
289.65	27.63
289.865	32.9
290.081	36.07
290.296	34.02
290.512	35.44
290.727	25.07
290.943	11.71
291.159	2.08
291.374	12.43
291.59	8.76
291.805	0.89
292.021	11.56
292.236	5.13
292.451	2.82
292.667	15.55
292.882	23.99
293.098	44.88
293.313	43.31
293.529	17.61
293.744	-9.79
293.959	-31.91
294.175	-41.83
294.39	-13.04
294.605	16.87
294.821	48.53
295.036	50.06
295.251	71.38
295.467	57.53
295.682	45.21
295.897	16.24
296.112	4.72
296.328	-6
296.543	-18.46
296.758	-28.81
296.973	38.8
297.188	93.56
297.404	54.91
297.619	72.07
297.834	63.77
298.049	43.77
298.264	15.72
298.479	55.96
298.694	55.56
298.909	73.69
299.125	70.28
299.34	82.38
299.555	52.07
299.77	74.25
299.985	9.91
300.2	-20.89
300.415	-48.43
300.63	-19.83
300.845	-34.67
301.06	-7.24
301.275	13.61
301.49	33.95
301.704	40.1
301.919	-0.3
302.134	-21.24
302.349	23.61
302.564	-7.52
302.779	0.23
302.994	55.03
303.209	54.66
303.423	40.97
303.638	82.13
303.853	49.99
304.068	-12.25
304.283	5.94
304.497	-7.73
304.712	-12.24
304.927	9.31
305.142	14.61
305.356	17.15
305.571	33.69
305.786	22.76
306	11.32
306.215	41.63
306.43	21.4
306.644	38.25
306.859	48.89
307.074	28.02
307.288	-11.69
307.503	6.83
307.717	-25.51
307.932	-24.9
308.147	-17.24
308.361	27.39
308.576	14.33
308.79	-27.04
309.005	2.15
309.219	21.84
309.434	20.37
309.648	3.71
309.863	51.62
310.077	30.97
310.292	33.37
310.506	12.78
310.72	40.96
310.935	56.1
311.149	55.74
311.364	63.19
311.578	89.94
311.792	86.84
312.007	80.89
312.221	47.49
312.435	62.36
312.649	35.32
312.864	79.46
313.078	67.67
313.292	117.35
313.507	90.34
313.721	81.36
313.935	63.89
314.149	89.87
314.363	72.23
314.578	47.03
314.792	41.52
315.006	31.4
315.22	9.18
315.434	16.61
315.648	37.7
315.862	44.14
316.077	51.94
316.291	62.74
316.505	71.9
316.719	75.12
316.933	18.73
317.147	40.11
317.361	10.17
317.575	12.23
317.789	-12.04
318.003	20.96
318.217	11.85
318.431	34.25
318.645	45.79
318.859	38.72
319.073	56.68
319.287	42.24
319.5	15.02
319.714	-24
319.928	-29.07
320.142	-46.03
320.356	10.24
320.57	38.01
320.784	32.7
320.997	62.58
321.211	55.97
321.425	13.07
321.639	-30.37
321.853	20.32
322.066	0.53
322.28	-10.98
322.494	4.01
322.707	66.63
322.921	32.05
323.135	39.14
323.349	65.28
323.562	36.67
323.776	-1.58
323.989	18.89
324.203	-0.79
324.417	-2.89
324.63	-13.23
324.844	-16.34
325.057	-29.72
325.271	-21.01
325.485	-26.12
325.698	20.49
325.912	45.12
326.125	32.9
326.339	51.53
326.552	55.97
326.766	66.94
326.979	70.97
327.193	86.63
327.406	65.75
327.619	54.7
327.833	55.25
328.046	35.41
328.26	20.71
328.473	19.8
328.686	6.37
328.9	7.26
329.113	12.71
329.326	0.41
329.54	27.9
329.753	39.65
329.966	34.36
330.179	49.09
330.393	63.23
330.606	51.46
330.819	62.17
331.032	69.03
331.246	72.12
331.459	84.65
331.672	58.13
331.885	45.31
332.098	12.13
332.311	30.22
332.525	6.7
332.738	23.5
332.951	41.56
333.164	57.07
333.377	46.31
333.59	74.34
333.803	66.1
334.016	59.33
334.229	63.15
334.442	73.07
334.655	77.3
334.868	93.26
335.081	85.05
335.294	64.8
335.507	69.49
335.72	58.83
335.933	18.62
336.146	17.65
336.359	36.71
336.572	3.57
336.785	-18.06
336.997	2.95
337.21	17.66
337.423	4.98
337.636	20.86
337.849	36.49
338.062	44.83
338.274	50.06
338.487	32.08
338.7	41.98
338.913	14.75
339.125	-7.05
339.338	-2.44
339.551	26.02
339.763	41.5
339.976	69.23
340.189	72.07
340.402	66.83
340.614	47.22
340.827	21.13
341.039	2.6
341.252	-10.65
341.465	-9.34
341.677	-15.44
341.89	-42.42
342.102	-28.49
342.315	-14.26
342.527	-22.01
342.74	-6.07
342.952	46.61
343.165	47.66
343.377	73.93
343.59	59.14
343.802	81.53
344.015	87.91
344.227	108.18
344.44	88.32
344.652	86.12
344.864	72.31
345.077	68.04
345.289	45.1
345.502	67.54
345.714	60.4
345.926	65.86
346.139	53.24
346.351	57
346.563	39.71
346.775	61.27
346.988	31.54
347.2	23.51
347.412	-5.38
347.624	-1.8
347.837	-3.71
348.049	40.92
348.261	65.31
348.473	77.99
348.685	34.7
348.897	20.32
349.11	2.23
349.322	-5.77
349.534	16.54
349.746	41.8
349.958	60.24
350.17	51.93
350.382	49.41
350.594	41.05
350.806	50.81
351.018	32.58
351.23	31.37
351.442	22.05
351.654	33.07
351.866	22.28
352.078	31.67
352.29	37.46
352.502	63.25
352.714	65.65
352.926	63.33
353.138	57.75
353.35	36.96
353.561	15.92
353.773	-11.41
353.985	3.62
354.197	-4.02
354.409	3.93
354.621	17.22
354.832	29.78
355.044	17.29
355.256	20.86
355.468	24.7
355.679	8.74
355.891	19.52
356.103	1.51
356.314	-1.65
356.526	18.14
356.738	44.67
356.949	31.79
357.161	65.44
357.373	63.49
357.584	49.42
357.796	40.92
358.008	32.97
358.219	42.86
358.431	49.01
358.642	56.73
358.854	64.16
359.065	63.44
359.277	24.18
359.488	19.04
359.7	6
359.911	-10.9
360.123	-5.81
360.334	-10.71
360.546	-11.4
360.757	-11.78
360.969	-7.6
361.18	8.67
361.391	25.22
361.603	7.18
361.814	39.06
362.025	18.19
362.237	10.77
362.448	21.64
362.659	46.39
362.871	32.93
363.082	44.02
363.293	49.28
363.504	39.53
363.716	21.64
363.927	25
364.138	9.7
364.349	-27.5
364.56	-22.97
364.772	-38.42
364.983	-14.09
365.194	-20.02
365.405	13.62
365.616	15.72
365.827	24.49
366.038	-12.08
366.25	16.24
366.461	-7.03
366.672	20.77
366.883	36.49
367.094	25.35
367.305	-0.04
367.516	25.97
367.727	5.97
367.938	-12.71
368.149	-7.46
368.36	13.88
368.571	10.94
368.781	5.94
368.992	4.27
369.203	27.96
369.414	14.23
369.625	3.09
369.836	3.74
370.047	4.69
370.258	-8.91
370.468	-5.77
370.679	-37.22
370.89	-29.35
371.101	0.71
371.312	-14.96
371.522	7.54
371.733	30.44
371.944	33.96
372.155	37.05
372.365	18.19
372.576	9.99
372.787	0.6
372.997	-12.83
373.208	-19.39
373.419	6.39
373.629	-12.14
373.84	-2.01
374.05	-6.41
374.261	3.74
374.472	-21.27
374.682	0.64
374.893	-6.5
375.103	28.2
375.314	17.71
375.524	41.33
375.735	52.84
375.945	59.55
376.156	22.97
376.366	33.6
376.577	36.66
376.787	24.18
376.997	37.82
377.208	53.41
377.418	28.48
377.629	28.6
377.839	17.84
378.049	11.84
378.26	23.21
378.47	50.55
378.68	42.81
378.89	51
379.101	42.17
379.311	16.06
379.521	-15.41
379.732	-6.43
379.942	-28.53
380.152	-23.44
380.362	-6.23
380.572	2.06
380.783	21.14
380.993	33.25
381.203	43.18
381.413	45.17
381.623	51.9
381.833	39.53
382.043	19.86
382.253	8.78
382.463	14.53
382.674	3.58
382.884	-12.95
383.094	3.49
383.304	6.17
383.514	8.23
383.724	26.6
383.934	18.3
384.144	8.54
384.353	13.94
384.563	13.78
384.773	12.65
384.983	22.11
385.193	29.91
385.403	16.91
385.613	11.23
385.823	4.01
386.033	13.27
386.242	8.78
386.452	16.95
386.662	11.72
386.872	15.28
387.082	12.04
387.291	0.03
387.501	5.88
387.711	10.5
387.921	0.96
388.13	4.35
388.34	19.81
388.55	11.8
388.759	10.86
388.969	18.26
389.179	14.75
389.388	14.21
389.598	11.8
389.807	9.23
390.017	7.33
390.227	6.02
390.436	1.03
390.646	10.23
390.855	12.51
391.065	13.44
391.274	9.68
391.484	8.46
391.693	8.84
391.903	9.72
392.112	11.87
392.322	16.72
392.531	20.77
392.74	17.51
392.95	12.87
393.159	10.12
393.369	11.49
393.578	7.79
393.787	6.58
393.997	10.27
394.206	11.12
394.415	11.03
394.625	12.31
394.834	11.4
395.043	10.31
395.252	11.29
395.462	11.91
395.671	13.71
395.88	15.95
396.089	17.01
396.298	15.81
396.508	14.64
396.717	14.02
396.926	12.59
397.135	12.53
397.344	12.36
397.553	12.79
397.762	13.15
397.971	13.1
398.181	12.67
398.39	11.23
398.599	10.9
398.808	10.16
399.017	11.21
399.226	11.77
399.435	13.43
399.644	13.26
399.853	13.39
400.062	12.8
400.27	12.48
400.479	11.95
400.688	11.28
400.897	11.47
401.106	11.27
401.315	10.51
401.524	10.56
401.733	11.05
401.941	10.94
402.15	10.95
402.359	11.23
402.568	11.32
402.777	11.26
402.985	11.14
403.194	11.19
403.403	11.2
403.612	10.88
403.82	10.91
404.029	11.05
404.238	10.75
404.446	10.74
404.655	10.45
404.864	10.38
405.072	10.14
405.281	10.41
405.489	10.16
405.698	10.34
405.906	10.17
406.115	10.09
406.324	9.8
406.532	10.01
406.741	10.22
406.949	10.07
407.158	10.05
407.366	10.18
407.574	10.21
407.783	9.93
407.991	9.95
408.2	10.03
408.408	9.86
408.617	9.65
408.825	9.5
409.033	9.76
409.242	9.78
409.45	9.81
409.658	9.71
409.867	9.98
410.075	9.72
410.283	9.47
410.491	9.43
410.7	9.24
410.908	9.16
411.116	9.25
411.324	9.26
411.533	9.35
411.741	9.62
411.949	9.61
412.157	9.29
412.365	9.44
412.573	9.28
412.781	9.34
412.99	9.19
413.198	9.45
413.406	9.37
413.614	9.49
413.822	9.48
414.03	9.54
414.238	9.31
414.446	9.38
414.654	9.01
414.862	8.91
415.07	8.87
415.278	9.14
415.486	8.72
415.694	9.05
415.902	8.96
416.109	8.86
416.317	8.81
416.525	8.85
416.733	8.86
416.941	8.99
417.149	8.99
417.357	8.97
417.564	9.22
417.772	9.07
417.98	8.97
418.188	8.88
418.395	8.66
418.603	8.75
418.811	8.41
419.019	8.23
419.226	8.58
419.434	8.78
419.642	8.37
419.849	8.61
420.057	8.8
420.265	8.7
420.472	8.35
420.68	8.59
420.887	8.37
421.095	8.4
421.302	8.17
421.51	8.58
421.717	8.66
421.925	8.91
422.132	8.82
422.34	8.68
422.547	8.42
422.755	8.31
422.962	8.21
423.17	8.13
423.377	8.25
423.585	8.43
423.792	8.35
423.999	8.52
424.207	8.45
424.414	8.49
424.621	8.47
424.829	8.3
425.036	8.1
425.243	8.11
425.451	8.02
425.658	7.75
425.865	7.83
426.072	7.88
426.28	8.02
426.487	7.94
426.694	8.22
426.901	8.23
427.108	8.1
427.315	8.09
427.523	8.42
427.73	8.19
427.937	7.97
428.144	7.83
428.351	7.61
428.558	7.62
428.765	7.5
428.972	7.63
429.179	7.95
429.386	8.27
429.593	8.06
429.8	8.16
430.007	8.36
430.214	8.34
430.421	8.3
430.628	8.25
430.835	8.06
431.042	8.24
431.249	8.2
431.456	8.3
431.662	8.49
431.869	8.73
432.076	8.64
432.283	8.65
432.49	8.41
432.697	8.36
432.903	8.11
433.11	7.95
433.317	8.07
433.524	8.21
433.73	8.08
433.937	8.45
434.144	8.39
434.35	8.49
434.557	8.33
434.764	8.26
434.97	8.19
435.177	8.41
435.384	7.98
435.59	8.17
435.797	8.4
436.003	8.46
436.21	8.36
436.416	8.56
436.623	8.42
436.829	8.48
437.036	8.38
437.242	8.23
437.449	8.35
437.655	8.33
437.862	8.16
438.068	8.23
438.275	8.39
438.481	8.41
438.687	8.41
438.894	8.41
439.1	8.24
439.307	8.38
439.513	8.23
439.719	8.41
439.926	8.46
440.132	8.51
440.338	8.43
440.544	8.52
440.751	8.27
440.957	8.37
441.163	8.13
441.369	8.15
441.575	7.99
441.782	7.97
441.988	7.74
442.194	7.92
442.4	7.85
442.606	8.17
442.812	8.26
443.018	8.46
443.224	8.59
443.431	8.75
443.637	8.56
443.843	8.46
444.049	8.52
444.255	8.42
444.461	8.28
444.667	8.11
444.873	8.22
445.079	8.17
445.284	8.15
445.49	7.93
445.696	7.81
445.902	7.83
446.108	7.71
446.314	7.58
446.52	7.92
446.726	8.28
446.931	8.18
447.137	8.3
447.343	8.52
447.549	8.18
447.755	8.07
447.96	8.19
448.166	8.09
448.372	8.1
448.578	8.15
448.783	8.04
448.989	8.06
449.195	8.33
449.4	8.16
449.606	8.21
449.812	8.24
450.017	8.29
450.223	8.08
450.428	7.9
450.634	8.05
450.84	8.17
451.045	7.96
451.251	7.81
451.456	8.24
451.662	8.25
451.867	8.27
452.073	8.21
452.278	8.46
452.483	8.44
452.689	8.28
452.894	8.27
453.1	8.36
453.305	8.05
453.51	7.84
453.716	7.83
453.921	7.84
454.127	7.83
454.332	7.88
454.537	7.84
454.742	7.85
454.948	7.87
455.153	7.8
455.358	7.89
455.563	8.04
455.769	8.18
455.974	8.09
456.179	8.1
456.384	8.04
456.589	8.02
456.795	7.79
457	7.8
457.205	8.02
457.41	7.98
457.615	7.93
457.82	8.06
458.025	8.12
458.23	7.83
458.435	7.99
458.64	7.77
458.845	7.88
459.05	7.77
459.255	7.8
459.46	7.78
459.665	7.92
459.87	7.87
460.075	7.7
460.28	7.76
460.485	7.89
460.69	8.01
460.895	7.68
461.099	7.71
461.304	7.9
461.509	7.92
461.714	7.75
461.919	8.04
462.123	8.06
462.328	8.04
462.533	7.61
462.738	7.78
462.942	7.58
463.147	7.78
463.352	7.68
463.556	7.73
463.761	7.64
463.966	7.89
464.17	7.81
464.375	7.7
464.58	7.78
464.784	7.77
464.989	7.5
465.193	7.45
465.398	7.48
465.602	7.76
