Data from Ofra_PP_Phys_8HS23B_Reflection_2.txt Node
Date: Sat Jul 24 20:08:16 EDT 2021
User: USUARIO
Spectrometer: FLMT01687
Trigger mode: 0
Integration Time (sec): 1.100000E0
Scans to average: 2
Electric dark correction enabled: true
Nonlinearity correction enabled: false
Boxcar width: 2
XAxis mode: Wavelengths
Number of Pixels in Spectrum: 3648
>>>>>Begin Spectral Data<<<<<
179.494	617.83
179.716	786.49
179.937	1385.7
180.158	1161.01
180.38	561.08
180.601	-710.19
180.823	-3.77
181.044	480.62
181.265	-37.56
181.486	13.27
181.708	86.17
181.929	-794.67
182.15	152.61
182.372	-76.63
182.593	21733.33
182.814	512.82
183.035	181.3
183.257	170.09
183.478	65.13
183.699	123.13
183.92	24.89
184.141	61.05
184.363	-37.72
184.584	34.23
184.805	32.93
185.026	56.32
185.247	48.46
185.468	29.14
185.689	26.94
185.91	18.77
186.132	10.08
186.353	18.78
186.574	51.77
186.795	49.15
187.016	3.08
187.237	18.21
187.458	16.47
187.679	19.52
187.9	57.15
188.121	117.28
188.342	116.52
188.563	111.1
188.784	128.31
189.005	134.75
189.226	121.18
189.447	124
189.667	96.68
189.888	41.05
190.109	6.16
190.33	-23.6
190.551	-49.37
190.772	-44.93
190.993	-43.36
191.214	-24.9
191.434	-27.11
191.655	20.65
191.876	4.23
192.097	1.57
192.318	7.81
192.538	-20.59
192.759	-37.72
192.98	-37.27
193.201	-32.7
193.421	-57.31
193.642	0.69
193.863	17.57
194.083	13.62
194.304	28.66
194.525	51.61
194.745	53.26
194.966	-21.38
195.187	-30.89
195.407	-95.58
195.628	-129.92
195.848	-102.8
196.069	-95.15
196.29	-87.1
196.51	-105.92
196.731	-123.89
196.951	-113.81
197.172	-60.03
197.392	-63.69
197.613	-24.38
197.833	-18.2
198.054	-47.14
198.274	-43.15
198.495	-96.71
198.715	-63.89
198.936	-87.97
199.156	-53.12
199.377	-64.57
199.597	-37.03
199.817	-37.01
200.038	27.3
200.258	58.83
200.479	67.81
200.699	70.08
200.919	50.48
201.14	-4.98
201.36	-35.23
201.58	-46.42
201.801	-41.54
202.021	-56.87
202.241	-18.07
202.461	-16.6
202.682	-30.47
202.902	-11.39
203.122	-11.92
203.342	11.94
203.563	33.71
203.783	65.3
204.003	-15.29
204.223	-72.61
204.443	-6.44
204.663	-33.98
204.884	-54.54
205.104	25.16
205.324	71.26
205.544	39.53
205.764	38.87
205.984	44.01
206.204	53.94
206.424	32.47
206.644	17.47
206.864	32.37
207.084	41.09
207.304	44.19
207.525	10.34
207.745	21.66
207.964	48.59
208.184	13.85
208.404	-11.7
208.624	-5.81
208.844	-0.29
209.064	-39.86
209.284	-21.78
209.504	-8.22
209.724	25.84
209.944	13.18
210.164	30.31
210.384	28.88
210.604	49.46
210.823	-9.64
211.043	-47.12
211.263	-44.4
211.483	-55.07
211.703	-74.9
211.922	-25.51
212.142	45.11
212.362	59.82
212.582	50.56
212.801	53.77
213.021	13.99
213.241	-2.09
213.461	-25.02
213.68	-56.56
213.9	-60.98
214.12	-25.15
214.339	-49.36
214.559	-58.69
214.779	-20.33
214.998	0.07
215.218	-27.07
215.438	-5
215.657	2.74
215.877	19.41
216.096	22.05
216.316	64.21
216.535	43.96
216.755	45.84
216.974	38.96
217.194	31.34
217.413	4.79
217.633	15.18
217.852	-37.28
218.072	-47.88
218.291	-52.4
218.511	-21.44
218.73	-82.44
218.95	-70.09
219.169	-66.99
219.389	-85.62
219.608	-107.89
219.827	-44.58
220.047	-11.89
220.266	-17.82
220.485	-30.95
220.705	3.53
220.924	-25.11
221.143	-9.39
221.363	-45.84
221.582	6.75
221.801	-7.8
222.021	26.06
222.24	23.82
222.459	63.01
222.678	53.65
222.897	36.76
223.117	34.04
223.336	39.06
223.555	40.04
223.774	51.19
223.993	85.54
224.213	101.54
224.432	45.62
224.651	72.7
224.87	56.08
225.089	60.46
225.308	54.96
225.527	85.12
225.746	66.44
225.965	53.5
226.184	34.85
226.404	43.18
226.623	23.57
226.842	33.23
227.061	63.76
227.28	78.32
227.499	69.79
227.718	95.83
227.936	67.73
228.155	48.27
228.374	-0.51
228.593	-4.39
228.812	-15.5
229.031	21.28
229.25	1.78
229.469	45.97
229.688	52.12
229.907	61.9
230.125	72.19
230.344	79.37
230.563	81.43
230.782	87.8
231.001	30.96
231.22	13.43
231.438	19.35
231.657	9.28
231.876	3.58
232.095	43.19
232.313	59.9
232.532	45
232.751	40.7
232.969	40.03
233.188	41.66
233.407	13.78
233.625	1.38
233.844	-10.79
234.063	-24.63
234.281	13.87
234.5	47.18
234.719	61.47
234.937	63.6
235.156	59.96
235.374	41.66
235.593	47.52
235.811	52.85
236.03	77.21
236.249	60.44
236.467	87.74
236.686	69.89
236.904	75.22
237.123	15.66
237.341	37.05
237.559	-12.17
237.778	-19.48
237.996	-43.72
238.215	-25.92
238.433	-35.98
238.652	-6.01
238.87	-65.03
239.088	-49.23
239.307	-8.68
239.525	-3.7
239.743	-45.77
239.962	-2.64
240.18	-16.53
240.398	-51.2
240.617	-49.58
240.835	-7.65
241.053	-27.7
241.271	19.53
241.49	36.13
241.708	12.46
241.926	9.12
242.144	20.26
242.363	-9.01
242.581	-7.09
242.799	15.56
243.017	1.1
243.235	-24.31
243.453	-0.94
243.672	-36.48
243.89	-17.95
244.108	-8.64
244.326	22.53
244.544	24.97
244.762	21.93
244.98	24.49
245.198	36.04
245.416	16.21
245.634	33.95
245.852	57.79
246.07	51.75
246.288	48.72
246.506	46.68
246.724	47.23
246.942	29.45
247.16	37.53
247.378	38.59
247.596	42.83
247.814	38.94
248.032	10.82
248.25	2.41
248.468	10.16
248.685	38.88
248.903	55.76
249.121	80.77
249.339	55.87
249.557	40.05
249.775	1.97
249.992	-87.16
250.21	-98.86
250.428	-40.85
250.646	-40.79
250.863	-31.08
251.081	1.85
251.299	30.84
251.517	8.44
251.734	13.37
251.952	8.81
252.17	19.88
252.387	30.99
252.605	14.18
252.823	19.78
253.04	38.83
253.258	47.54
253.475	40.53
253.693	73.99
253.911	90.97
254.128	74.13
254.346	70.98
254.563	55.16
254.781	35.86
254.998	11.01
255.216	2.58
255.433	-2.21
255.651	13.73
255.868	30.8
256.086	50.32
256.303	49.22
256.521	46.39
256.738	44.46
256.956	21.04
257.173	20.54
257.39	30.01
257.608	26.57
257.825	30.69
258.043	40.4
258.26	35.59
258.477	40.71
258.695	40.77
258.912	8.22
259.129	5.44
259.346	-37.01
259.564	-39.82
259.781	-24.43
259.998	-4.25
260.216	16.42
260.433	55.6
260.65	44.33
260.867	55.6
261.084	35.42
261.302	25.93
261.519	20.21
261.736	5.09
261.953	-7
262.17	16.44
262.387	8.61
262.604	-6.28
262.822	0.19
263.039	-6.19
263.256	-21.98
263.473	0.38
263.69	-26.06
263.907	-0.78
264.124	7.5
264.341	40.01
264.558	14.21
264.775	33.52
264.992	42.13
265.209	47.14
265.426	26.98
265.643	42.91
265.86	38.02
266.077	33.53
266.294	17.76
266.51	18.4
266.727	7.57
266.944	38.9
267.161	19.81
267.378	26.76
267.595	39.1
267.812	13.28
268.028	8.77
268.245	24.75
268.462	2.2
268.679	-21.68
268.896	21.12
269.112	9.14
269.329	4.44
269.546	29.68
269.763	39.06
269.979	32.76
270.196	27.75
270.413	29.9
270.629	8.21
270.846	6.59
271.063	17.14
271.279	-4.8
271.496	-41.22
271.712	-23.47
271.929	-11.05
272.146	0.69
272.362	20.72
272.579	70.54
272.795	68.91
273.012	78.54
273.228	61.29
273.445	47.26
273.661	7.12
273.878	-67.23
274.094	-65
274.311	-89.47
274.527	-59.49
274.744	-40.47
274.96	17.98
275.177	24.61
275.393	30.28
275.609	36.87
275.826	53.65
276.042	44.89
276.259	35.19
276.475	38.99
276.691	38.78
276.908	18.21
277.124	49.52
277.34	54.56
277.557	47.26
277.773	32.81
277.989	31.59
278.205	31.89
278.422	45.09
278.638	65.77
278.854	86.59
279.07	84.14
279.286	41.59
279.503	11.21
279.719	-0.35
279.935	-22.07
280.151	-35.63
280.367	-0.5
280.583	19.93
280.799	22.24
281.016	26.36
281.232	43.39
281.448	47.07
281.664	50.98
281.88	29.34
282.096	34.63
282.312	37.98
282.528	37.07
282.744	40.96
282.96	50.54
283.176	48.46
283.392	35.42
283.608	29.88
283.824	22.67
284.04	26.39
284.256	43.06
284.471	47.59
284.687	57.64
284.903	61.97
285.119	79.41
285.335	46.82
285.551	53.35
285.767	31.18
285.982	-1.23
286.198	-15.39
286.414	2.01
286.63	-1.03
286.846	22.58
287.061	13.44
287.277	15.91
287.493	19.45
287.709	25.09
287.924	15.24
288.14	44.98
288.356	50.91
288.571	55.97
288.787	45.03
289.003	45.8
289.218	32.07
289.434	-3.79
289.65	19.33
289.865	25.42
290.081	32.55
290.296	36.45
290.512	38.24
290.727	25.24
290.943	13.8
291.159	5.52
291.374	10.15
291.59	-8.18
291.805	-16.58
292.021	-6.31
292.236	-9.89
292.451	-8.96
292.667	12.98
292.882	23.96
293.098	42.96
293.313	34.41
293.529	24
293.744	-2.23
293.959	-26.56
294.175	-41.58
294.39	-12.38
294.605	4.53
294.821	32.21
295.036	30.85
295.251	44.89
295.467	32.47
295.682	28.27
295.897	10.05
296.112	10.57
296.328	-0.46
296.543	-17.88
296.758	-33.64
296.973	21.26
297.188	52.12
297.404	31.47
297.619	50.09
297.834	48.4
298.049	27.02
298.264	3.35
298.479	47.5
298.694	44.04
298.909	56.14
299.125	46.89
299.34	61.68
299.555	37.06
299.77	41.6
299.985	-17.1
300.2	-25.75
300.415	-67.04
300.63	-59.39
300.845	-47.66
301.06	-37.49
301.275	-27.47
301.49	5.9
301.704	15.77
301.919	-17.52
302.134	-10.61
302.349	19.62
302.564	-9.42
302.779	-5.83
302.994	37.91
303.209	46.79
303.423	43.55
303.638	70.54
303.853	52.3
304.068	5.16
304.283	0.84
304.497	-3.34
304.712	12.82
304.927	22.76
305.142	27.52
305.356	37.03
305.571	34.04
305.786	16
306	9.95
306.215	29.67
306.43	8.85
306.644	28.98
306.859	45.95
307.074	34.23
307.288	-4.93
307.503	8.72
307.717	-15.25
307.932	-21.57
308.147	-17.64
308.361	19.95
308.576	11.41
308.79	-34.31
309.005	-19.45
309.219	-16.19
309.434	-4.45
309.648	-19.01
309.863	18.42
310.077	6.66
310.292	14.01
310.506	11.78
310.72	22.44
310.935	37.04
311.149	42.24
311.364	42.71
311.578	53.02
311.792	56.04
312.007	61.69
312.221	28.43
312.435	43.26
312.649	15.59
312.864	54.21
313.078	45.83
313.292	86.21
313.507	73.31
313.721	64.41
313.935	40.87
314.149	62.9
314.363	44.1
314.578	17.19
314.792	4.95
315.006	15.83
315.22	-6.92
315.434	2.54
315.648	20.87
315.862	31.34
316.077	28.57
316.291	51.42
316.505	53.74
316.719	52.33
316.933	12.24
317.147	15.61
317.361	-21.84
317.575	-9.49
317.789	-13.75
318.003	0.96
318.217	12.23
318.431	36.14
318.645	47.97
318.859	30.01
319.073	48.23
319.287	26.71
319.5	-4.3
319.714	-45.95
319.928	-40.54
320.142	-51.32
320.356	0.79
320.57	16.96
320.784	21.48
320.997	30.05
321.211	25.93
321.425	-11.92
321.639	-43.67
321.853	-7.51
322.066	-6.63
322.28	-13.02
322.494	3.97
322.707	61.84
322.921	34.89
323.135	27.34
323.349	42.79
323.562	30.01
323.776	4.19
323.989	15.52
324.203	4.3
324.417	8.55
324.63	-11.28
324.844	-32.36
325.057	-36.12
325.271	-27.3
325.485	-37.31
325.698	-1.41
325.912	29.41
326.125	11.52
326.339	27.19
326.552	23.28
326.766	22.54
326.979	16.8
327.193	47.35
327.406	32.35
327.619	30.26
327.833	34.32
328.046	27.3
328.26	14.91
328.473	18.18
328.686	5.17
328.9	6.77
329.113	11.16
329.326	-7.08
329.54	5.2
329.753	12.07
329.966	17.99
330.179	39.15
330.393	58.27
330.606	43.57
330.819	59.24
331.032	57.78
331.246	54.64
331.459	60.27
331.672	41.46
331.885	14.79
332.098	-16.15
332.311	-13.1
332.525	-22.4
332.738	-0.19
332.951	20.78
333.164	43.73
333.377	46.38
333.59	60.59
333.803	45.53
334.016	33.24
334.229	35.44
334.442	31.75
334.655	23.56
334.868	37.93
335.081	47.49
335.294	23.66
335.507	25.35
335.72	32.47
335.933	16.85
336.146	12.48
336.359	32.06
336.572	17.26
336.785	8.09
336.997	15.61
337.21	23.24
337.423	14.04
337.636	16
337.849	20.25
338.062	24.78
338.274	32.76
338.487	23.34
338.7	25.54
338.913	8.51
339.125	-3.21
339.338	-4.27
339.551	-3.54
339.763	10.71
339.976	35.26
340.189	39.93
340.402	38.48
340.614	33.58
340.827	21.22
341.039	-0.32
341.252	-10.56
341.465	-15.92
341.677	-19.55
341.89	-58.32
342.102	-40.91
342.315	-38
342.527	-38.14
342.74	-21.35
342.952	32.58
343.165	37.69
343.377	54.72
343.59	34.53
343.802	47.43
344.015	58.1
344.227	61.57
344.44	47.06
344.652	52.33
344.864	57.49
345.077	58.36
345.289	59.4
345.502	72.67
345.714	65.78
345.926	63.8
346.139	43.85
346.351	34.98
346.563	24.26
346.775	39.56
346.988	21.1
347.2	19.23
347.412	5.52
347.624	9.35
347.837	9.93
348.049	33.18
348.261	45.74
348.473	41.77
348.685	9.1
348.897	-0.99
349.11	-20.79
349.322	-19.16
349.534	12.26
349.746	47.86
349.958	56.6
350.17	56.3
350.382	50.45
350.594	40.68
350.806	31.83
351.018	20.31
351.23	16.9
351.442	19.5
351.654	23.6
351.866	22.11
352.078	32.46
352.29	26.15
352.502	34.88
352.714	42.94
352.926	33.6
353.138	21.69
353.35	17.96
353.561	-5.64
353.773	-17.17
353.985	-3.63
354.197	3.43
354.409	4.11
354.621	18.54
354.832	22.42
355.044	9.79
355.256	4.26
355.468	7.22
355.679	-1.89
355.891	6.98
356.103	-0.44
356.314	-1.07
356.526	16.54
356.738	32.12
356.949	25.15
357.161	38.02
357.373	43.3
357.584	48.11
357.796	41.37
358.008	24.97
358.219	37.05
358.431	33.51
358.642	18.61
358.854	33.08
359.065	44.47
359.277	19.95
359.488	19.11
359.7	12.56
359.911	-6.75
360.123	-6.63
360.334	-7.23
360.546	-11.55
360.757	-20.32
360.969	-13.88
361.18	8
361.391	18.49
361.603	19.32
361.814	48.09
362.025	36.28
362.237	23.18
362.448	19.36
362.659	32.53
362.871	24.74
363.082	22.84
363.293	27.25
363.504	29.96
363.716	16.3
363.927	13
364.138	14.33
364.349	-15.85
364.56	-17.71
364.772	-32.32
364.983	-17.46
365.194	-29.53
365.405	-4.83
365.616	-3.25
365.827	14.85
366.038	5.68
366.25	35.95
366.461	14.38
366.672	27.79
366.883	28.57
367.094	24.4
367.305	-3.58
367.516	22.64
367.727	11.21
367.938	-6.68
368.149	-14.05
368.36	5.66
368.571	-8.57
368.781	-17.9
368.992	-22.34
369.203	1.05
369.414	-10.96
369.625	-5.01
369.836	-5.59
370.047	3.12
370.258	-9.61
370.468	-11.2
370.679	-45.52
370.89	-37.27
371.101	-12.8
371.312	-33.24
371.522	-27.47
371.733	-8.46
371.944	-1.53
372.155	12.37
372.365	0.48
372.576	11.09
372.787	9.34
372.997	4.57
373.208	-10.24
373.419	20.66
373.629	-1.79
373.84	8.97
374.05	-8.81
374.261	1.01
374.472	-20.75
374.682	5.11
374.893	-6.18
375.103	37.42
375.314	36.56
375.524	41.62
375.735	41.86
375.945	49.63
376.156	12.7
376.366	20.16
376.577	21.55
376.787	18.21
376.997	33.35
377.208	42.49
377.418	17.14
377.629	30.36
377.839	19.44
378.049	9.78
378.26	17.86
378.47	38.11
378.68	28.96
378.89	34.28
379.101	29.1
379.311	13.49
379.521	-10.11
379.732	-6.15
379.942	-23.39
380.152	-20.82
380.362	-2.31
380.572	8.67
380.783	19.93
380.993	31.22
381.203	31.27
381.413	30.95
381.623	28.07
381.833	20.86
382.043	12.67
382.253	11.89
382.463	14.5
382.674	11.45
382.884	-3.24
383.094	4.03
383.304	5.87
383.514	2.38
383.724	12.29
383.934	3.89
384.144	-4.87
384.353	0.57
384.563	2.76
384.773	1.4
384.983	12.63
385.193	19.89
385.403	7.92
385.613	2.71
385.823	0.43
386.033	7.35
386.242	1.46
386.452	9.68
386.662	9.57
386.872	14.44
387.082	16.25
387.291	10.06
387.501	12.67
387.711	13.98
387.921	3.35
388.13	2.65
388.34	14.71
388.55	10.73
388.759	11.26
388.969	18.98
389.179	12.67
389.388	12.83
389.598	12.4
389.807	9.08
390.017	6.55
390.227	8.65
390.436	4.28
390.646	9.45
390.855	12.6
391.065	16.91
391.274	12.22
391.484	10.08
391.693	8.3
391.903	10.51
392.112	10.03
392.322	16.88
392.531	20.57
392.74	20.92
392.95	14.67
393.159	11.92
393.369	11.87
393.578	9.44
393.787	6.2
393.997	10.77
394.206	11.31
394.415	11.13
394.625	11.37
394.834	10.14
395.043	8.17
395.252	8.82
395.462	9.14
395.671	10.31
395.88	13.23
396.089	14.47
396.298	14.5
396.508	12.87
396.717	12.65
396.926	10.99
397.135	11.41
397.344	10.83
397.553	11.62
397.762	12.12
397.971	12.65
398.181	12.04
398.39	10.45
398.599	10.05
398.808	9.47
399.017	10.05
399.226	9.93
399.435	11.66
399.644	11.62
399.853	11.19
400.062	10.54
400.27	10.65
400.479	10.03
400.688	9.5
400.897	10.09
401.106	10.2
401.315	9.77
401.524	9.76
401.733	10.06
401.941	10.25
402.15	10.39
402.359	10.5
402.568	10.75
402.777	10.87
402.985	10.5
403.194	10.26
403.403	10.28
403.612	9.97
403.82	9.94
404.029	9.98
404.238	9.92
404.446	9.88
404.655	9.58
404.864	9.54
405.072	9.34
405.281	9.44
405.489	9.23
405.698	9.29
405.906	9.03
406.115	8.98
406.324	8.83
406.532	8.84
406.741	9.09
406.949	8.95
407.158	8.95
407.366	9
407.574	9.08
407.783	8.92
407.991	8.97
408.2	9
408.408	8.85
408.617	8.7
408.825	8.55
409.033	8.65
409.242	8.68
409.45	8.78
409.658	8.7
409.867	8.94
410.075	8.82
410.283	8.63
410.491	8.55
410.7	8.47
410.908	8.37
411.116	8.4
411.324	8.38
411.533	8.5
411.741	8.61
411.949	8.65
412.157	8.52
412.365	8.72
412.573	8.52
412.781	8.64
412.99	8.46
413.198	8.57
413.406	8.44
413.614	8.5
413.822	8.35
414.03	8.26
414.238	8.02
414.446	8.04
414.654	7.88
414.862	7.89
415.07	8.05
415.278	8.37
415.486	7.99
415.694	8.12
415.902	7.97
416.109	7.85
416.317	7.82
416.525	7.65
416.733	7.59
416.941	7.8
417.149	7.76
417.357	7.61
417.564	8.05
417.772	7.92
417.98	7.77
418.188	7.69
418.395	7.61
418.603	7.7
418.811	7.66
419.019	7.48
419.226	7.72
419.434	7.95
419.642	7.7
419.849	7.76
420.057	8.11
420.265	8.05
420.472	7.71
420.68	7.8
420.887	7.7
421.095	7.63
421.302	7.43
421.51	7.68
421.717	7.68
421.925	7.7
422.132	7.54
422.34	7.41
422.547	7.28
422.755	7.31
422.962	7.35
423.17	7.33
423.377	7.58
423.585	7.55
423.792	7.43
423.999	7.47
424.207	7.36
424.414	7.34
424.621	7.4
424.829	7.24
425.036	7.16
425.243	7.25
425.451	7.03
425.658	6.94
425.865	7.11
426.072	7.13
426.28	7.16
426.487	7.03
426.694	7.1
426.901	7.12
427.108	7.06
427.315	6.98
427.523	7.36
427.73	7.37
427.937	6.99
428.144	6.82
428.351	6.95
428.558	6.9
428.765	6.82
428.972	7.06
429.179	7.2
429.386	7.25
429.593	7.14
429.8	7.03
430.007	7.09
430.214	7.26
430.421	7.29
430.628	7.22
430.835	7.01
431.042	7.15
431.249	7.03
431.456	7.09
431.662	7.31
431.869	7.6
432.076	7.51
432.283	7.54
432.49	7.33
432.697	7.21
432.903	6.91
433.11	6.83
433.317	6.88
433.524	7.09
433.73	6.99
433.937	7.34
434.144	7.36
434.35	7.33
434.557	7.18
434.764	7.2
434.97	7.22
435.177	7.27
435.384	7.03
435.59	7.12
435.797	7.34
436.003	7.25
436.21	7.26
436.416	7.41
436.623	7.23
436.829	7.11
437.036	7.18
437.242	7.04
437.449	7.08
437.655	7.13
437.862	7.13
438.068	7.11
438.275	7.39
438.481	7.5
438.687	7.49
438.894	7.45
439.1	7.31
439.307	7.19
439.513	7.12
439.719	7.12
439.926	7.14
440.132	7.21
440.338	7.14
440.544	7.26
440.751	7.31
440.957	7.45
441.163	7.23
441.369	7.34
441.575	7.15
441.782	6.94
441.988	6.59
442.194	6.78
442.4	6.7
442.606	6.92
442.812	7.14
443.018	7.31
443.224	7.42
443.431	7.55
443.637	7.44
443.843	7.28
444.049	7.4
444.255	7.3
444.461	7.3
444.667	7.11
444.873	7.2
445.079	7.21
445.284	7.24
445.49	6.98
445.696	6.91
445.902	6.95
446.108	6.85
446.314	6.8
446.52	6.99
446.726	7.29
446.931	7.21
447.137	7.29
447.343	7.41
447.549	7.1
447.755	6.95
447.96	7
448.166	6.9
448.372	6.94
448.578	7.15
448.783	7.11
448.989	7.24
449.195	7.4
449.4	7.27
449.606	7.27
449.812	7.22
450.017	7.25
450.223	7.21
450.428	7.01
450.634	7.09
450.84	7.27
451.045	7.06
451.251	6.92
451.456	7.28
451.662	7.37
451.867	7.3
452.073	7.3
452.278	7.39
452.483	7.33
452.689	7.2
452.894	7.33
453.1	7.45
453.305	7.29
453.51	7.24
453.716	7.19
453.921	7.16
454.127	7.09
454.332	7.12
454.537	7.13
454.742	7.3
454.948	7.33
455.153	7.25
455.358	7.36
455.563	7.47
455.769	7.33
455.974	7.22
456.179	7.25
456.384	7.18
456.589	7.1
456.795	7.02
457	7.05
457.205	7.15
457.41	7.1
457.615	7.01
457.82	7.2
458.025	7.25
458.23	7.09
458.435	7.22
458.64	7.13
458.845	7.14
459.05	7.12
459.255	7.16
459.46	7.15
459.665	7.26
459.87	7.25
460.075	7.1
460.28	7.17
460.485	7.2
460.69	7.25
460.895	6.98
461.099	6.99
461.304	7.11
461.509	7.22
461.714	7.1
461.919	7.4
462.123	7.39
462.328	7.4
462.533	7.11
462.738	7.25
462.942	6.99
463.147	7.17
463.352	7.17
463.556	7.24
463.761	7.2
463.966	7.39
464.17	7.34
464.375	7.2
464.58	7.18
464.784	7.19
464.989	7.03
465.193	7.13
465.398	7.21
465.602	7.4
465.807	7.35
