Data from Ofra_PP_Phys_9GT47Q_Reflection_2.txt Node
Date: Sat Jul 24 20:13:15 EDT 2021
User: USUARIO
Spectrometer: FLMT01687
Trigger mode: 0
Integration Time (sec): 1.100000E0
Scans to average: 2
Electric dark correction enabled: true
Nonlinearity correction enabled: false
Boxcar width: 2
XAxis mode: Wavelengths
Number of Pixels in Spectrum: 3648
>>>>>Begin Spectral Data<<<<<
179.494	736.08
179.716	954.56
179.937	1643.21
180.158	1437.95
180.38	728.42
180.601	-884.63
180.823	-20.39
181.044	1058.91
181.265	-60.93
181.486	16.42
181.708	-24.16
181.929	-781.33
182.15	-145.38
182.372	-119.69
182.593	61266.67
182.814	739.49
183.035	197.42
183.257	163.1
183.478	82.84
183.699	139.69
183.92	83.63
184.141	109.81
184.363	5.92
184.584	101.82
184.805	81.32
185.026	97.38
185.247	108.51
185.468	74.75
185.689	48.11
185.91	59.07
186.132	52.44
186.353	26.62
186.574	79.22
186.795	108.91
187.016	27.27
187.237	53.5
187.458	72.31
187.679	116.17
187.9	71.81
188.121	119.74
188.342	134.22
188.563	124.76
188.784	125.84
189.005	162.54
189.226	156.23
189.447	133.72
189.667	109.98
189.888	56.48
190.109	7.75
190.33	-31.73
190.551	-57.73
190.772	-54.71
190.993	-67
191.214	-48.7
191.434	-41.47
191.655	43
191.876	15.06
192.097	14.98
192.318	10.36
192.538	-10.02
192.759	-52.21
192.98	-23.71
193.201	-9.36
193.421	-55.34
193.642	-16.9
193.863	-2.69
194.083	-18.72
194.304	-0.92
194.525	52.09
194.745	77.75
194.966	35.31
195.187	10.37
195.407	-60.57
195.628	-152.62
195.848	-165.3
196.069	-219.74
196.29	-178.14
196.51	-222.54
196.731	-208.62
196.951	-177.33
197.172	-116.03
197.392	-113.35
197.613	-60.34
197.833	-53.38
198.054	-96.16
198.274	-75.66
198.495	-131.1
198.715	-56.93
198.936	-89.95
199.156	-32.08
199.377	-53.23
199.597	-48.39
199.817	-59.68
200.038	10.28
200.258	19.92
200.479	73.29
200.699	74.78
200.919	56.26
201.14	-7.63
201.36	-17.78
201.58	-39.98
201.801	-17.1
202.021	-32.27
202.241	17.95
202.461	-23.81
202.682	-32.02
202.902	-24.18
203.122	-21.01
203.342	-15.79
203.563	29.9
203.783	48.55
204.003	-19.6
204.223	-77.21
204.443	23.5
204.663	-4.86
204.884	-34.48
205.104	36.41
205.324	89.38
205.544	64.43
205.764	70.53
205.984	105.37
206.204	115.57
206.424	129.51
206.644	69.83
206.864	66.04
207.084	25.95
207.304	25.24
207.525	-46.95
207.745	-8.38
207.964	-28.75
208.184	-14.4
208.404	-32.23
208.624	-12.6
208.844	6.59
209.064	-38.35
209.284	-37.16
209.504	-23.1
209.724	3.62
209.944	-27.91
210.164	28.67
210.384	45.05
210.604	68.38
210.823	-2.24
211.043	-44.84
211.263	-34.85
211.483	-74.13
211.703	-107.11
211.922	-50.57
212.142	34.87
212.362	42.04
212.582	35.38
212.801	41.91
213.021	3.84
213.241	-7.84
213.461	-43.69
213.68	-71.86
213.9	-73.18
214.12	-39.4
214.339	-90.59
214.559	-67.19
214.779	-13.92
214.998	8.24
215.218	-6.02
215.438	33.57
215.657	9.13
215.877	23.37
216.096	22.96
216.316	45.51
216.535	31.05
216.755	45.98
216.974	35.87
217.194	47.73
217.413	34.31
217.633	17.6
217.852	-25
218.072	-32.67
218.291	-64.63
218.511	-30.89
218.73	-72.62
218.95	-73.27
219.169	-71.8
219.389	-89.3
219.608	-117.1
219.827	-34.87
220.047	-7.33
220.266	-13.94
220.485	-14.71
220.705	11.7
220.924	-57.16
221.143	-6.53
221.363	-67.62
221.582	-11.67
221.801	8.27
222.021	51.62
222.24	23.97
222.459	83.96
222.678	57.89
222.897	10.98
223.117	4.34
223.336	-14.37
223.555	11.95
223.774	47.79
223.993	101.4
224.213	185.02
224.432	123.2
224.651	153.16
224.87	103.9
225.089	86.42
225.308	63.25
225.527	92.21
225.746	71.77
225.965	52.72
226.184	53.86
226.404	66.47
226.623	39.9
226.842	42.73
227.061	93.4
227.28	94.71
227.499	88.93
227.718	125.42
227.936	112.44
228.155	110.62
228.374	52.67
228.593	37.17
228.812	11.01
229.031	25.7
229.25	-24.4
229.469	33.07
229.688	37.18
229.907	47.17
230.125	49.34
230.344	62.21
230.563	42.37
230.782	69.52
231.001	21.66
231.22	10.01
231.438	31.21
231.657	59.41
231.876	40.15
232.095	71.97
232.313	89.4
232.532	71.27
232.751	51.9
232.969	36.94
233.188	24.23
233.407	4.24
233.625	-16.88
233.844	-12.95
234.063	-10.85
234.281	33.27
234.5	58.62
234.719	88.31
234.937	63.77
235.156	66.91
235.374	63.02
235.593	70.18
235.811	55.96
236.03	75.3
236.249	48.3
236.467	65.47
236.686	37.29
236.904	59.21
237.123	-36.63
237.341	-8.31
237.559	-49.74
237.778	-33.17
237.996	-61.86
238.215	15.3
238.433	13.8
238.652	44.55
238.87	-23.2
239.088	19.63
239.307	13.66
239.525	9.34
239.743	-42.47
239.962	6.94
240.18	-40.14
240.398	-87.66
240.617	-98.21
240.835	-40.19
241.053	-70.82
241.271	9.64
241.49	34.87
241.708	30.67
241.926	28.72
242.144	62.02
242.363	17.69
242.581	20.24
242.799	34.42
243.017	36.51
243.235	-21.51
243.453	16.4
243.672	-24.58
243.89	-13.38
244.108	-15.42
244.326	28.94
244.544	23.02
244.762	17.11
244.98	23.14
245.198	46.41
245.416	11.3
245.634	3.61
245.852	37.96
246.07	36.13
246.288	20.21
246.506	19.69
246.724	46.26
246.942	41.17
247.16	57.76
247.378	66.63
247.596	85.07
247.814	81.27
248.032	37.64
248.25	25.97
248.468	12.77
248.685	34.8
248.903	42.55
249.121	69.16
249.339	22.52
249.557	31.94
249.775	-0.43
249.992	-94.87
250.21	-108.52
250.428	-64.96
250.646	-72.66
250.863	-70.06
251.081	-35.32
251.299	2.17
251.517	-2.07
251.734	-4.31
251.952	5.17
252.17	22.69
252.387	30.08
252.605	13.18
252.823	27.68
253.04	43.25
253.258	51.17
253.475	44.4
253.693	78.38
253.911	88.05
254.128	84.98
254.346	84.25
254.563	61.56
254.781	24.1
254.998	3.38
255.216	-2.26
255.433	-2.61
255.651	37.87
255.868	64.57
256.086	87.99
256.303	87.47
256.521	79.88
256.738	32.56
256.956	2.76
257.173	-3.13
257.39	-14.57
257.608	-5.23
257.825	15.28
258.043	37.53
258.26	37.4
258.477	39.87
258.695	55.28
258.912	13.42
259.129	6.68
259.346	-39.44
259.564	-33.47
259.781	-24.31
259.998	7.48
260.216	33.69
260.433	66.04
260.65	49.57
260.867	64.24
261.084	36.65
261.302	19.79
261.519	30.89
261.736	3.02
261.953	-31.62
262.17	-4.62
262.387	-3.74
262.604	-27.29
262.822	-16.8
263.039	-19.56
263.256	-42.91
263.473	-38.42
263.69	-70.03
263.907	-27.65
264.124	-4.03
264.341	35.4
264.558	28.17
264.775	47.79
264.992	64.43
265.209	57.69
265.426	42.51
265.643	41.83
265.86	58.98
266.077	56.44
266.294	39.04
266.51	34.19
266.727	26.64
266.944	42.46
267.161	7.56
267.378	34.15
267.595	41.1
267.812	-1.38
268.028	-15.43
268.245	28.53
268.462	-4.83
268.679	-9.94
268.896	59.7
269.112	58.68
269.329	30.08
269.546	51.39
269.763	56.63
269.979	45.57
270.196	23.55
270.413	28.25
270.629	1.1
270.846	-20.54
271.063	3.94
271.279	-21.73
271.496	-50.03
271.712	-47.21
271.929	-15.72
272.146	-12.37
272.362	20.87
272.579	77.4
272.795	83.3
273.012	104.86
273.228	82.17
273.445	58.01
273.661	-2.56
273.878	-85.47
274.094	-96.65
274.311	-122.02
274.527	-61.98
274.744	-35.52
274.96	36.9
275.177	35.01
275.393	49.36
275.609	51.37
275.826	68.38
276.042	58.9
276.259	63.18
276.475	51.95
276.691	57.68
276.908	39.76
277.124	63.54
277.34	48.02
277.557	53.08
277.773	48.18
277.989	39.83
278.205	31.87
278.422	44.78
278.638	60.03
278.854	57.51
279.07	54.37
279.286	15.36
279.503	-0.8
279.719	-12.34
279.935	-22.52
280.151	-26.07
280.367	26.44
280.583	36.64
280.799	19.12
281.016	24.25
281.232	38.34
281.448	39.02
281.664	53.13
281.88	50.9
282.096	43.01
282.312	61.91
282.528	69.51
282.744	69.52
282.96	79.84
283.176	84.28
283.392	65.16
283.608	52.14
283.824	25.19
284.04	14.22
284.256	38.62
284.471	40.08
284.687	32.66
284.903	50.94
285.119	90.02
285.335	33.98
285.551	33.72
285.767	25.54
285.982	16.87
286.198	-23.92
286.414	23.64
286.63	32.86
286.846	56.75
287.061	21.01
287.277	48.17
287.493	45.96
287.709	38.64
287.924	20.62
288.14	66.87
288.356	73.91
288.571	84.37
288.787	78.12
289.003	94.64
289.218	66.85
289.434	-8.54
289.65	3.3
289.865	18.09
290.081	19.45
290.296	28.84
290.512	29.85
290.727	18.69
290.943	0.76
291.159	-15.86
291.374	-9.46
291.59	-4.53
291.805	-12.29
292.021	-4.82
292.236	-2.28
292.451	-13.42
292.667	-1.53
292.882	14
293.098	33.93
293.313	19.12
293.529	15.14
293.744	-19.12
293.959	-51.14
294.175	-50.98
294.39	-16.82
294.605	4.36
294.821	42.91
295.036	51.97
295.251	65.59
295.467	45.86
295.682	40.5
295.897	10.84
296.112	-8.18
296.328	-31.61
296.543	-33.47
296.758	-46.76
296.973	15
297.188	75.73
297.404	42.57
297.619	50.58
297.834	33.72
298.049	15.16
298.264	-18.93
298.479	23.36
298.694	22.63
298.909	36.71
299.125	30.92
299.34	51.33
299.555	28.36
299.77	43.35
299.985	-20.63
300.2	-51.58
300.415	-78.3
300.63	-39.66
300.845	-55.13
301.06	-28.82
301.275	3.74
301.49	13.06
301.704	4.32
301.919	-31.06
302.134	-53.39
302.349	-19.17
302.564	-40.8
302.779	-36.29
302.994	31.93
303.209	42.42
303.423	34
303.638	76.37
303.853	64.87
304.068	25.24
304.283	34
304.497	21.99
304.712	24.24
304.927	18.5
305.142	9.52
305.356	16.72
305.571	33.76
305.786	21.83
306	24.51
306.215	53.09
306.43	26.07
306.644	26.78
306.859	37.22
307.074	25.79
307.288	-6.62
307.503	9.49
307.717	-19.66
307.932	-22.05
308.147	-20.35
308.361	14.99
308.576	-13.12
308.79	-56.2
309.005	-41.03
309.219	-20.94
309.434	-14.7
309.648	-19.72
309.863	30.58
310.077	35.36
310.292	18.38
310.506	-6.05
310.72	37.39
310.935	61.96
311.149	43.43
311.364	65.38
311.578	97.42
311.792	76.57
312.007	69.81
312.221	34.21
312.435	34.95
312.649	-16.63
312.864	36.88
313.078	15.75
313.292	72.71
313.507	61.57
313.721	71.43
313.935	57.46
314.149	73.05
314.363	46.33
314.578	27.1
314.792	16.98
315.006	20.27
315.22	15.71
315.434	28.58
315.648	43.69
315.862	35.17
316.077	38.9
316.291	36.43
316.505	29.77
316.719	36.16
316.933	5.76
317.147	14.61
317.361	-34.76
317.575	-22.78
317.789	-47.37
318.003	-35.82
318.217	-27.11
318.431	23.15
318.645	31.79
318.859	30.84
319.073	61.05
319.287	37.64
319.5	-9.08
319.714	-48.54
319.928	-54.05
320.142	-73.25
320.356	-4.39
320.57	28.86
320.784	31.85
320.997	50.07
321.211	45.96
321.425	-15.41
321.639	-58.32
321.853	-16.91
322.066	-17.5
322.28	-32.42
322.494	2.69
322.707	68.35
322.921	35.39
323.135	27.16
323.349	48.7
323.562	17.83
323.776	-26.9
323.989	-6.29
324.203	-15.81
324.417	-21.39
324.63	-31.41
324.844	-36.85
325.057	-51.86
325.271	-51.98
325.485	-33.57
325.698	11.1
325.912	36.24
326.125	18.37
326.339	43.07
326.552	32.55
326.766	31.11
326.979	31.15
327.193	66.38
327.406	48.14
327.619	49.31
327.833	61.63
328.046	43.1
328.26	20.78
328.473	20.6
328.686	0.02
328.9	-9.84
329.113	-4.28
329.326	-15.5
329.54	-10.9
329.753	-7.73
329.966	-16.69
330.179	18.34
330.393	35.85
330.606	36.63
330.819	58.1
331.032	66.55
331.246	70.32
331.459	89.15
331.672	56.85
331.885	20.58
332.098	-2.88
332.311	9.91
332.525	-14.2
332.738	15.94
332.951	40.68
333.164	55.56
333.377	51.31
333.59	80.93
333.803	62.63
334.016	57.9
334.229	50.01
334.442	48.97
334.655	60.09
334.868	62.1
335.081	50.2
335.294	41.01
335.507	32.24
335.72	16.84
335.933	2.88
336.146	13.17
336.359	31.62
336.572	13.37
336.785	3.98
336.997	15.59
337.21	26.69
337.423	16.8
337.636	29.05
337.849	40.95
338.062	42.91
338.274	53.38
338.487	34.54
338.7	44.2
338.913	11.39
339.125	-11.1
339.338	-22.01
339.551	-5.28
339.763	12.54
339.976	30.55
340.189	55.71
340.402	56.32
340.614	44.67
340.827	20.96
341.039	11.33
341.252	-20.91
341.465	-13.52
341.677	-30.28
341.89	-70.67
342.102	-41.55
342.315	-17.39
342.527	-38.49
342.74	-25.04
342.952	39.33
343.165	37.9
343.377	61.78
343.59	57.23
343.802	89.38
344.015	83.6
344.227	102.88
344.44	74.31
344.652	54.27
344.864	33.2
345.077	44.78
345.289	29.98
345.502	57.63
345.714	73.53
345.926	74.36
346.139	57.82
346.351	57.16
346.563	49.49
346.775	61.59
346.988	50.26
347.2	47.81
347.412	17.8
347.624	6.02
347.837	1.51
348.049	18.31
348.261	38.61
348.473	36.21
348.685	2.03
348.897	-12.32
349.11	-19.01
349.322	-27.16
349.534	9.05
349.746	43.42
349.958	58.91
350.17	51.88
350.382	55.45
350.594	52.37
350.806	55.99
351.018	40.57
351.23	41.79
351.442	34.62
351.654	38.88
351.866	34.83
352.078	46.52
352.29	61.09
352.502	75.63
352.714	84.17
352.926	61.62
353.138	61.45
353.35	27.14
353.561	18.36
353.773	-9.5
353.985	16.79
354.197	7.62
354.409	21.14
354.621	28.46
354.832	35.24
355.044	10.5
355.256	4.24
355.468	0.24
355.679	-21.54
355.891	-10.88
356.103	-7.4
356.314	3.1
356.526	11.34
356.738	40.78
356.949	41.67
357.161	42.62
357.373	41.39
357.584	35
357.796	22.95
358.008	0.65
358.219	23.02
358.431	26.32
358.642	45.4
358.854	51.98
359.065	54.69
359.277	25.24
359.488	9.79
359.7	-9.36
359.911	-31.29
360.123	-25.62
360.334	-26.64
360.546	-29.02
360.757	-22.44
360.969	-5.71
361.18	10.64
361.391	26.69
361.603	27.84
361.814	54.68
362.025	23.69
362.237	15.85
362.448	23.21
362.659	41.01
362.871	27.69
363.082	43.54
363.293	57.22
363.504	40.47
363.716	30.18
363.927	29.84
364.138	17.21
364.349	-26.68
364.56	-26.7
364.772	-51.11
364.983	-30.09
365.194	-39.13
365.405	-13.77
365.616	2.03
365.827	21.91
366.038	8.09
366.25	32.88
366.461	16.51
366.672	33.45
366.883	49.2
367.094	41.4
367.305	18.37
367.516	45.41
367.727	27.92
367.938	5.69
368.149	-4.17
368.36	13.93
368.571	5.19
368.781	-6.51
368.992	-18.71
369.203	10.39
369.414	-9.34
369.625	-23.19
369.836	-21.22
370.047	-22.84
370.258	-38.24
370.468	-38.46
370.679	-72.22
370.89	-54.31
371.101	-11.09
371.312	-42.57
371.522	-27.62
371.733	8.77
371.944	22.45
372.155	33.43
372.365	25.71
372.576	22.94
372.787	10.79
372.997	-4.71
373.208	-18.96
373.419	18.92
373.629	2.71
373.84	14.5
374.05	-8.95
374.261	-4.31
374.472	-30.5
374.682	-8.39
374.893	-11.15
375.103	32.43
375.314	24.15
375.524	24.8
375.735	33.38
375.945	34.62
376.156	3.01
376.366	15.61
376.577	25.12
376.787	14.23
376.997	33.26
377.208	37.72
377.418	14.69
377.629	25.41
377.839	21.82
378.049	7.22
378.26	25.57
378.47	51.86
378.68	41.12
378.89	45.4
379.101	36.67
379.311	10.28
379.521	-20.98
379.732	-17.94
379.942	-37.27
380.152	-26.57
380.362	-11.99
380.572	-6.79
380.783	10.86
380.993	27.94
381.203	35.06
381.413	43.43
381.623	49.16
381.833	41.96
382.043	17.28
382.253	11.3
382.463	9.93
382.674	11.68
382.884	-9.95
383.094	2.33
383.304	-0.83
383.514	-1.31
383.724	7.12
383.934	0.71
384.144	-14.25
384.353	-5.96
384.563	0.53
384.773	1.33
384.983	16.12
385.193	33.55
385.403	22.38
385.613	13.9
385.823	7.78
386.033	13.7
386.242	3
386.452	8.95
386.662	1.54
386.872	8.93
387.082	9.45
387.291	0.06
387.501	6.53
387.711	11.94
387.921	-7.34
388.13	-9.33
388.34	13.61
388.55	6.88
388.759	8.51
388.969	20.97
389.179	19.55
389.388	13.25
389.598	14.5
389.807	12.03
390.017	10.19
390.227	11.36
390.436	8.32
390.646	13.32
390.855	17.7
391.065	20.37
391.274	15.91
391.484	12.16
391.693	12.37
391.903	12.94
392.112	14.27
392.322	20.31
392.531	26.88
392.74	26.04
392.95	20.14
393.159	17.93
393.369	18
393.578	14.14
393.787	12.5
393.997	17.73
394.206	17.72
394.415	17.93
394.625	18.2
394.834	15.85
395.043	13.3
395.252	14.47
395.462	15.13
395.671	17.38
395.88	19.99
396.089	21.74
396.298	20.86
396.508	20.15
396.717	19.68
396.926	19.18
397.135	18.94
397.344	18.14
397.553	18.43
397.762	18.91
397.971	18.2
398.181	18.4
398.39	17.88
398.599	17.03
398.808	16.08
399.017	17.42
399.226	17.64
399.435	19.21
399.644	19.44
399.853	19.02
400.062	18.36
400.27	18.18
400.479	17.5
400.688	16.72
400.897	17.59
401.106	17.54
401.315	16.43
401.524	16.21
401.733	16.83
401.941	16.81
402.15	16.73
402.359	17.15
402.568	17.53
402.777	17.37
402.985	17.16
403.194	17.19
403.403	17.32
403.612	16.78
403.82	16.87
404.029	16.71
404.238	16.21
404.446	16.05
404.655	15.66
404.864	15.63
405.072	15.53
405.281	15.84
405.489	15.55
405.698	15.82
405.906	15.5
406.115	15.12
406.324	14.81
406.532	14.9
406.741	15.13
406.949	14.88
407.158	15.01
407.366	15.06
407.574	15.07
407.783	14.84
407.991	14.84
408.2	14.93
408.408	14.62
408.617	14.59
408.825	14.33
409.033	14.52
409.242	14.5
409.45	14.81
409.658	14.47
409.867	14.78
410.075	14.49
410.283	14.18
410.491	13.97
410.7	13.86
410.908	13.71
411.116	13.95
411.324	13.97
411.533	14
411.741	14.29
411.949	14.32
412.157	14.08
412.365	14.14
412.573	14.06
412.781	14.05
412.99	13.73
413.198	13.88
413.406	13.78
413.614	13.72
413.822	13.59
414.03	13.57
414.238	13.26
414.446	13.3
414.654	13.03
414.862	12.98
415.07	12.9
415.278	13.14
415.486	12.67
415.694	12.89
415.902	12.8
416.109	12.77
416.317	12.75
416.525	12.68
416.733	12.71
416.941	12.72
417.149	12.74
417.357	12.62
417.564	13.11
417.772	12.94
417.98	13
418.188	12.85
418.395	12.73
418.603	12.61
418.811	12.43
419.019	12.07
419.226	12.43
419.434	12.61
419.642	12.39
419.849	12.53
420.057	12.92
420.265	12.85
420.472	12.38
420.68	12.59
420.887	12.3
421.095	12.25
421.302	11.99
421.51	12.35
421.717	12.28
421.925	12.43
422.132	12.35
422.34	12.26
422.547	12.25
422.755	12.17
422.962	12.22
423.17	12.02
423.377	12.1
423.585	12.09
423.792	12.19
423.999	12.21
424.207	12.27
424.414	12.45
424.621	12.38
424.829	12.13
425.036	12.24
425.243	12.15
425.451	11.83
425.658	11.61
425.865	11.81
426.072	11.65
426.28	11.76
426.487	11.68
426.694	11.81
426.901	11.77
427.108	11.84
427.315	11.81
427.523	12.08
427.73	12.09
427.937	11.69
428.144	11.38
428.351	11.39
428.558	11.52
428.765	11.56
428.972	11.84
429.179	12.08
429.386	12.24
429.593	12
429.8	11.66
430.007	11.7
430.214	11.74
430.421	11.59
430.628	11.5
430.835	11.43
431.042	11.76
431.249	11.85
431.456	12.05
431.662	12.32
431.869	12.57
432.076	12.34
432.283	12.31
432.49	11.96
432.697	11.87
432.903	11.51
433.11	11.48
433.317	11.45
433.524	11.85
433.73	11.72
433.937	12.27
434.144	12.07
434.35	12.22
434.557	12.06
434.764	12.13
434.97	11.96
435.177	12.29
435.384	11.82
435.59	12.03
435.797	12.14
436.003	12.36
436.21	12.24
436.416	12.49
436.623	12.19
436.829	12.28
437.036	12.26
437.242	12.24
437.449	12.35
437.655	12.4
437.862	12.28
438.068	12.18
438.275	12.41
438.481	12.5
438.687	12.57
438.894	12.52
439.1	12.57
439.307	12.51
439.513	12.35
439.719	12.34
439.926	12.49
440.132	12.38
440.338	12.2
440.544	12.41
440.751	12.21
440.957	12.18
441.163	11.91
441.369	12.07
441.575	11.87
441.782	11.94
441.988	11.75
442.194	12.03
442.4	12.03
442.606	12.28
442.812	12.43
443.018	12.62
443.224	12.73
443.431	12.81
443.637	12.7
443.843	12.51
444.049	12.57
444.255	12.45
444.461	12.39
444.667	12.31
444.873	12.58
445.079	12.55
445.284	12.65
445.49	12.51
445.696	12.33
445.902	12.2
446.108	12.09
446.314	11.87
446.52	12.14
446.726	12.42
446.931	12.37
447.137	12.53
447.343	12.82
447.549	12.54
447.755	12.53
447.96	12.67
448.166	12.52
448.372	12.53
448.578	12.54
448.783	12.51
448.989	12.61
449.195	12.91
449.4	12.74
449.606	12.79
449.812	12.7
450.017	12.77
450.223	12.56
450.428	12.44
450.634	12.61
450.84	12.82
451.045	12.56
451.251	12.54
451.456	12.83
451.662	12.86
451.867	12.74
452.073	12.74
452.278	12.86
452.483	13.01
452.689	12.9
452.894	13.02
453.1	13.21
453.305	13
453.51	12.79
453.716	12.6
453.921	12.53
454.127	12.39
454.332	12.33
454.537	12.23
454.742	12.46
454.948	12.55
455.153	12.43
455.358	12.56
455.563	12.76
455.769	12.68
455.974	12.5
456.179	12.53
456.384	12.45
456.589	12.38
456.795	12.32
457	12.38
457.205	12.55
457.41	12.5
457.615	12.4
457.82	12.46
458.025	12.43
458.23	12.24
458.435	12.45
458.64	12.26
458.845	12.35
459.05	12.28
459.255	12.22
459.46	12.09
459.665	12.17
459.87	12.09
