Data from Ofra_PP_Phys_9GT47Q_Reflection_1.txt Node
Date: Sat Jul 24 20:13:06 EDT 2021
User: USUARIO
Spectrometer: FLMT01687
Trigger mode: 0
Integration Time (sec): 1.100000E0
Scans to average: 2
Electric dark correction enabled: true
Nonlinearity correction enabled: false
Boxcar width: 2
XAxis mode: Wavelengths
Number of Pixels in Spectrum: 3648
>>>>>Begin Spectral Data<<<<<
179.494	773.25
179.716	962.11
179.937	1731.81
180.158	1497.39
180.38	699.63
180.601	-840.93
180.823	-26.48
181.044	-281.4
181.265	30.32
181.486	20.39
181.708	-24.02
181.929	-2940
182.15	1015.66
182.372	7.13
182.593	24500
182.814	549.23
183.035	309.67
183.257	205.95
183.478	68.6
183.699	134.9
183.92	82.73
184.141	82.59
184.363	25.46
184.584	135.66
184.805	83.86
185.026	91.11
185.247	94.81
185.468	59.21
185.689	36.02
185.91	32.78
186.132	43.55
186.353	27.49
186.574	65.02
186.795	81.48
187.016	35.54
187.237	37.25
187.458	40.44
187.679	78.56
187.9	79.91
188.121	131.73
188.342	159.14
188.563	162.76
188.784	162.29
189.005	183.5
189.226	178.78
189.447	158.78
189.667	131.28
189.888	84.72
190.109	44.74
190.33	-18.36
190.551	-45.95
190.772	-46.6
190.993	-73.01
191.214	-44.76
191.434	-30.28
191.655	41.66
191.876	1.88
192.097	2.62
192.318	-2.17
192.538	-13.84
192.759	-49.51
192.98	-0.38
193.201	18.62
193.421	-26.87
193.642	12.03
193.863	13.08
194.083	-13.52
194.304	-2.32
194.525	41.79
194.745	43.84
194.966	6.2
195.187	-9.98
195.407	-42.23
195.628	-102.64
195.848	-113.53
196.069	-105.89
196.29	-64.12
196.51	-115.8
196.731	-131
196.951	-96.91
197.172	-79.57
197.392	-93.86
197.613	-48.47
197.833	-44.33
198.054	-70.77
198.274	-36.31
198.495	-76.14
198.715	-37.33
198.936	-62.87
199.156	-29.45
199.377	-61.4
199.597	-58.79
199.817	-54.61
200.038	37.51
200.258	50.91
200.479	108.83
200.699	127.57
200.919	98.28
201.14	25.08
201.36	-3.06
201.58	-26.55
201.801	-15.25
202.021	-7.15
202.241	21.11
202.461	8.43
202.682	-10.96
202.902	12.3
203.122	-9.42
203.342	-1.61
203.563	52.97
203.783	74.02
204.003	6.96
204.223	-17.94
204.443	90.54
204.663	46.15
204.884	1.09
205.104	45.3
205.324	85.72
205.544	43.63
205.764	41.49
205.984	85.14
206.204	115.82
206.424	127.97
206.644	94.1
206.864	100
207.084	95.16
207.304	80.53
207.525	17.47
207.745	37.83
207.964	22.7
208.184	-15.69
208.404	-34.06
208.624	-27.35
208.844	-0.13
209.064	-43.11
209.284	-34.93
209.504	-19.37
209.724	8.88
209.944	-18.36
210.164	59.44
210.384	79.92
210.604	118.49
210.823	51.88
211.043	1.2
211.263	-7.9
211.483	-37.03
211.703	-94.42
211.922	-26.96
212.142	57.68
212.362	62.08
212.582	46.96
212.801	65.59
213.021	15.42
213.241	-0.5
213.461	-40.4
213.68	-61.2
213.9	-63.39
214.12	-19.29
214.339	-51.98
214.559	-25.77
214.779	55.67
214.998	53.62
215.218	18.59
215.438	44.62
215.657	60.73
215.877	33.53
216.096	27.23
216.316	90.33
216.535	71.51
216.755	64.51
216.974	48.67
217.194	49.13
217.413	13.6
217.633	26.88
217.852	-33.05
218.072	-33.47
218.291	-38.49
218.511	-21.66
218.73	-84.5
218.95	-67.33
219.169	-54.27
219.389	-77.97
219.608	-107.73
219.827	-34.07
220.047	0.2
220.266	1.58
220.485	0.72
220.705	52.76
220.924	-4.58
221.143	28.99
221.363	-36.19
221.582	16.58
221.801	8.47
222.021	58.29
222.24	29.05
222.459	100.38
222.678	73.44
222.897	42.83
223.117	34.02
223.336	45.42
223.555	31.04
223.774	58.46
223.993	93.35
224.213	144.65
224.432	89.39
224.651	120.9
224.87	94.21
225.089	95.65
225.308	79.1
225.527	119.19
225.746	102.23
225.965	75.84
226.184	61.43
226.404	60.36
226.623	35.53
226.842	41.38
227.061	83.38
227.28	94.28
227.499	105.16
227.718	118.67
227.936	104.42
228.155	122.33
228.374	61.24
228.593	45.04
228.812	41.6
229.031	46.77
229.25	-1.85
229.469	51.38
229.688	61.95
229.907	62.65
230.125	90.87
230.344	100.13
230.563	100.72
230.782	116.34
231.001	55.29
231.22	35.44
231.438	58.83
231.657	50.95
231.876	39.64
232.095	86.95
232.313	90.69
232.532	64.98
232.751	53.66
232.969	53.88
233.188	53.21
233.407	45.73
233.625	28.06
233.844	24.41
234.063	-7.64
234.281	26.15
234.5	33.05
234.719	68.04
234.937	72.06
235.156	97.43
235.374	74.64
235.593	85.26
235.811	65.41
236.03	73.25
236.249	36.55
236.467	41.56
236.686	14.91
236.904	42.7
237.123	-38.53
237.341	7.45
237.559	-8.11
237.778	1.08
237.996	-28.3
238.215	26.64
238.433	6.84
238.652	25.34
238.87	-25.59
239.088	2.57
239.307	18.39
239.525	26.34
239.743	-22.34
239.962	19.24
240.18	-12.13
240.398	-59.63
240.617	-81.19
240.835	-25.46
241.053	-35.81
241.271	35.26
241.49	48.26
241.708	47.65
241.926	40.43
242.144	44.97
242.363	0.79
242.581	9.88
242.799	33.68
243.017	43.53
243.235	-4.68
243.453	36.61
243.672	-7.01
243.89	-5.61
244.108	-10.43
244.326	42.17
244.544	39.4
244.762	40.56
244.98	47.29
245.198	61.78
245.416	6.6
245.634	3.25
245.852	33.68
246.07	31.23
246.288	27.39
246.506	35.94
246.724	54.59
246.942	42.39
247.16	49.55
247.378	57.8
247.596	84.55
247.814	75.71
248.032	35.08
248.25	16.99
248.468	14.65
248.685	25.46
248.903	50.02
249.121	61.33
249.339	38.89
249.557	37.2
249.775	12.85
249.992	-88.59
250.21	-79.42
250.428	-36.91
250.646	-53.3
250.863	-45.67
251.081	-18.8
251.299	15.3
251.517	15.92
251.734	39.99
251.952	25.76
252.17	50.49
252.387	61.67
252.605	33.23
252.823	32.05
253.04	67.9
253.258	81.74
253.475	67.93
253.693	97.5
253.911	108.87
254.128	90.77
254.346	79.79
254.563	53.62
254.781	29.75
254.998	13.96
255.216	24.9
255.433	17.92
255.651	52.99
255.868	74.91
256.086	103
256.303	83.22
256.521	97.24
256.738	67.66
256.956	35.18
257.173	17.73
257.39	16.33
257.608	6.31
257.825	13.58
258.043	41.68
258.26	40.15
258.477	47.91
258.695	64.87
258.912	28.3
259.129	11.92
259.346	-23.06
259.564	-30.79
259.781	-23.28
259.998	4.63
260.216	40.65
260.433	80.41
260.65	67.34
260.867	91.06
261.084	56.24
261.302	43.59
261.519	41.33
261.736	24.99
261.953	-3.41
262.17	39.35
262.387	31.58
262.604	6.22
262.822	12.34
263.039	4.97
263.256	-16.65
263.473	-9.12
263.69	-27.66
263.907	2.89
264.124	44.36
264.341	70.96
264.558	57.19
264.775	70.22
264.992	92.37
265.209	60.8
265.426	54.74
265.643	55.77
265.86	58.51
266.077	54.15
266.294	50.02
266.51	46.77
266.727	33.66
266.944	61.39
267.161	30.75
267.378	49.95
267.595	41.9
267.812	9.03
268.028	-16.24
268.245	18.31
268.462	-24.84
268.679	-10.32
268.896	62.56
269.112	69.6
269.329	48.53
269.546	63.25
269.763	54.91
269.979	37.33
270.196	15.51
270.413	12.81
270.629	-3.66
270.846	-4.9
271.063	19.59
271.279	4.15
271.496	-28.47
271.712	-7.8
271.929	6.17
272.146	-0.44
272.362	28.08
272.579	89.27
272.795	87.56
273.012	105.23
273.228	90.6
273.445	65.15
273.661	15.38
273.878	-73.78
274.094	-79.55
274.311	-105.75
274.527	-47.27
274.744	-21.19
274.96	46.38
275.177	46.16
275.393	51.83
275.609	64.33
275.826	77.08
276.042	74.68
276.259	85.31
276.475	85.38
276.691	57.69
276.908	30.62
277.124	63.73
277.34	41.36
277.557	45.25
277.773	48.04
277.989	39.84
278.205	22.61
278.422	35.49
278.638	48.79
278.854	69.36
279.07	70.83
279.286	31.68
279.503	12.17
279.719	-6.61
279.935	-31.19
280.151	-36.53
280.367	6.67
280.583	18.47
280.799	10.2
281.016	11.1
281.232	23.56
281.448	25.67
281.664	45.13
281.88	38.19
282.096	51.42
282.312	75.16
282.528	79.49
282.744	77.84
282.96	96.68
283.176	97.57
283.392	79.29
283.608	65.62
283.824	38.07
284.04	18.62
284.256	36.08
284.471	26.86
284.687	28.19
284.903	39.57
285.119	90.42
285.335	50.36
285.551	68.37
285.767	57.64
285.982	52.43
286.198	4.73
286.414	39.46
286.63	33.42
286.846	72.05
287.061	29.44
287.277	52
287.493	56.75
287.709	63.24
287.924	48.63
288.14	106.1
288.356	108.46
288.571	112.95
288.787	93.91
289.003	80.25
289.218	49.84
289.434	-12.17
289.65	-4.6
289.865	11.62
290.081	28.13
290.296	23.26
290.512	22.01
290.727	18.51
290.943	5.85
291.159	-9.7
291.374	-4.59
291.59	-9.22
291.805	-28.59
292.021	-14.21
292.236	-18.55
292.451	-7.01
292.667	10.87
292.882	33.03
293.098	52.77
293.313	48.99
293.529	29.61
293.744	2.62
293.959	-20.24
294.175	-20.19
294.39	10.39
294.605	37.36
294.821	66.59
295.036	59.82
295.251	75.89
295.467	52.96
295.682	45.64
295.897	15.97
296.112	9.89
296.328	-2.25
296.543	-8.87
296.758	-16.89
296.973	51.35
297.188	100.93
297.404	57.32
297.619	66.25
297.834	51.75
298.049	37.02
298.264	14.53
298.479	53.84
298.694	63.7
298.909	84.12
299.125	69.36
299.34	80.29
299.555	50.55
299.77	66.57
299.985	6.7
300.2	-15.61
300.415	-53.43
300.63	-1.44
300.845	-30.58
301.06	-17.82
301.275	6.96
301.49	31.36
301.704	6.99
301.919	-36.19
302.134	-35.34
302.349	-3.19
302.564	-30.85
302.779	1.8
302.994	73.92
303.209	79.48
303.423	86.38
303.638	129.12
303.853	83.54
304.068	29.02
304.283	18.87
304.497	4.46
304.712	17.06
304.927	25.83
305.142	32.78
305.356	48.65
305.571	58.33
305.786	45.78
306	36.43
306.215	57.76
306.43	19.82
306.644	36.16
306.859	49.81
307.074	49.41
307.288	8.8
307.503	53.79
307.717	13.97
307.932	14.14
308.147	8.63
308.361	54.13
308.576	19.5
308.79	-14.59
309.005	-12.59
309.219	-2.79
309.434	-7.41
309.648	-28.47
309.863	14.34
310.077	16.16
310.292	23.36
310.506	22.76
310.72	70.86
310.935	82.03
311.149	68.09
311.364	81.81
311.578	90.46
311.792	72.53
312.007	57.21
312.221	7.62
312.435	12.84
312.649	-18.5
312.864	13.61
313.078	17.94
313.292	77.55
313.507	67.87
313.721	56.61
313.935	58.25
314.149	84.44
314.363	67.53
314.578	43.13
314.792	39.89
315.006	39.76
315.22	20.4
315.434	18.36
315.648	35.77
315.862	33.41
316.077	28
316.291	47.9
316.505	63.33
316.719	87.71
316.933	55.22
317.147	71.49
317.361	23
317.575	22.04
317.789	-18.75
318.003	3.06
318.217	-4.95
318.431	27.11
318.645	35.79
318.859	33.39
319.073	58.85
319.287	33.42
319.5	-10.83
319.714	-50.02
319.928	-59.89
320.142	-82.03
320.356	-10.27
320.57	23.87
320.784	25.95
320.997	57.97
321.211	59.24
321.425	5.95
321.639	-35.7
321.853	16.15
322.066	-4.72
322.28	-16.88
322.494	17.27
322.707	79.06
322.921	37.62
323.135	43.01
323.349	55.23
323.562	26.41
323.776	-12.25
323.989	0.87
324.203	-25.32
324.417	-25.35
324.63	-42.73
324.844	-49.51
325.057	-59.84
325.271	-54.33
325.485	-54.2
325.698	1.35
325.912	35.07
326.125	17.25
326.339	34.79
326.552	42.52
326.766	37.68
326.979	36.74
327.193	83.06
327.406	67.56
327.619	59.08
327.833	71.5
328.046	50.18
328.26	22.2
328.473	28.28
328.686	4.7
328.9	3.97
329.113	12.67
329.326	6.85
329.54	14.02
329.753	21.66
329.966	0.45
330.179	26.6
330.393	34.63
330.606	34.91
330.819	62.25
331.032	75.59
331.246	69.34
331.459	105.35
331.672	81.51
331.885	61.29
332.098	35.06
332.311	41.88
332.525	13.41
332.738	26.98
332.951	37.23
333.164	52.74
333.377	55.33
333.59	79.2
333.803	66.39
334.016	62.79
334.229	57.49
334.442	54.44
334.655	65.42
334.868	86.71
335.081	73.28
335.294	53.87
335.507	66.95
335.72	51.23
335.933	16.96
336.146	27.06
336.359	56.24
336.572	25.74
336.785	8.97
336.997	19.92
337.21	34.21
337.423	14.57
337.636	27.51
337.849	42.06
338.062	53.48
338.274	74.03
338.487	59.16
338.7	73.75
338.913	33.88
339.125	7.4
339.338	-10.03
339.551	13.94
339.763	23.37
339.976	60.1
340.189	77.55
340.402	76.46
340.614	54.91
340.827	32.68
341.039	5.56
341.252	-16.19
341.465	-33.43
341.677	-45.8
341.89	-81.75
342.102	-52.54
342.315	-34.21
342.527	-29.38
342.74	-22.83
342.952	45.76
343.165	50.19
343.377	73.62
343.59	50.13
343.802	89.62
344.015	73.85
344.227	98.56
344.44	65.62
344.652	73.99
344.864	48.13
345.077	60.64
345.289	39.37
345.502	59.4
345.714	59.31
345.926	66.25
346.139	52.69
346.351	44.41
346.563	44.7
346.775	55.53
346.988	40.12
347.2	32.1
347.412	16.14
347.624	12.34
347.837	30.1
348.049	51.19
348.261	74.56
348.473	77.29
348.685	44.27
348.897	13.28
349.11	-4.88
349.322	-21.29
349.534	2.16
349.746	32.91
349.958	45.88
350.17	39.44
350.382	54.61
350.594	52.38
350.806	50.39
351.018	36.62
351.23	40.92
351.442	20.4
351.654	25.14
351.866	13.04
352.078	26.84
352.29	34.84
352.502	53.09
352.714	56.79
352.926	53.66
353.138	44.45
353.35	15.86
353.561	4.17
353.773	-8.95
353.985	6.8
354.197	10.67
354.409	21.05
354.621	24.42
354.832	29.84
355.044	24.11
355.256	17.43
355.468	26.65
355.679	18.46
355.891	35.46
356.103	9.13
356.314	0.52
356.526	7.26
356.738	38.26
356.949	25.82
357.161	35.08
357.373	47.28
357.584	46.13
357.796	25.23
358.008	4.33
358.219	40.51
358.431	43.9
358.642	51.6
358.854	69.32
359.065	67.76
359.277	36.05
359.488	22.26
359.7	1.97
359.911	-26.48
360.123	-8.78
360.334	-9.78
360.546	-9.57
360.757	-1.33
360.969	20.73
361.18	36.94
361.391	35.42
361.603	32.78
361.814	51.96
362.025	31.24
362.237	16.81
362.448	40.42
362.659	58.11
362.871	56.11
363.082	54.73
363.293	68.07
363.504	64.15
363.716	48.38
363.927	41.7
364.138	25.51
364.349	-13.27
364.56	-20.71
364.772	-42.49
364.983	-22.15
365.194	-22.2
365.405	1.3
365.616	5.49
365.827	14.99
366.038	-9.24
366.25	26.96
366.461	8.02
366.672	26.31
366.883	48.92
367.094	51.99
367.305	19.55
367.516	40.36
367.727	18.16
367.938	-5.18
368.149	-16.34
368.36	9.05
368.571	-0.5
368.781	1.22
368.992	-7.56
369.203	15.25
369.414	0.6
369.625	-5.73
369.836	-5.31
370.047	-2.75
370.258	-14.33
370.468	-7.97
370.679	-41.22
370.89	-37.95
371.101	-1.7
371.312	-25.62
371.522	-25.78
371.733	8.29
371.944	23.42
372.155	22.34
372.365	6.48
372.576	13.43
372.787	3.77
372.997	-6.83
373.208	-17.84
373.419	22.96
373.629	-5.16
373.84	7.11
374.05	-6.82
374.261	14.94
374.472	-15.07
374.682	28.94
374.893	14.2
375.103	49.1
375.314	27.84
375.524	42.46
375.735	42.78
375.945	51.48
376.156	19.17
376.366	41.98
376.577	38.56
376.787	29.11
376.997	47.53
377.208	59.26
377.418	22.83
377.629	37.23
377.839	25.17
378.049	15.62
378.26	25.17
378.47	50.35
378.68	39.39
378.89	41.58
379.101	33.07
379.311	2.85
379.521	-17.56
379.732	-16.64
379.942	-28.35
380.152	-19.1
380.362	0.49
380.572	5.39
380.783	24.46
380.993	37.75
381.203	42.2
381.413	51.8
381.623	55.09
381.833	55.88
382.043	33.03
382.253	25.63
382.463	25.31
382.674	26.14
382.884	0.66
383.094	9.31
383.304	9.74
383.514	12.38
383.724	25.05
383.934	16.45
384.144	6.91
384.353	6.66
384.563	5.88
384.773	2.71
384.983	19.82
385.193	37.15
385.403	30.16
385.613	24.98
385.823	19.58
386.033	23.14
386.242	10.58
386.452	18.93
386.662	11.45
386.872	18.24
387.082	17.05
387.291	10.39
387.501	17.56
387.711	22.95
387.921	10.11
388.13	11.25
388.34	26.74
388.55	20.79
388.759	22.1
388.969	31.28
389.179	27.56
389.388	24.33
389.598	21.44
389.807	16.42
390.017	14.15
390.227	13.29
390.436	8.45
390.646	16.2
390.855	21.88
391.065	22.39
391.274	19.86
391.484	17.7
391.693	14.66
391.903	15.22
392.112	15.7
392.322	21.71
392.531	28.02
392.74	27.41
392.95	20.95
393.159	20.73
393.369	20.76
393.578	16.7
393.787	15.16
393.997	19.62
394.206	18.02
394.415	18.02
394.625	18.3
394.834	17.11
395.043	15.21
395.252	16.83
395.462	17.01
395.671	18.04
395.88	20.24
396.089	21.56
396.298	20.33
396.508	19.56
396.717	19.74
396.926	18.93
397.135	18.64
397.344	18.37
397.553	18.26
397.762	18.71
397.971	18.33
398.181	18.01
398.39	16.62
398.599	16.29
398.808	15.51
399.017	16.39
399.226	16.82
399.435	18.23
399.644	18.22
399.853	17.79
400.062	16.94
400.27	16.57
400.479	16.41
400.688	15.89
400.897	16.76
401.106	16.77
401.315	15.97
401.524	15.55
401.733	15.8
401.941	15.47
402.15	15.35
402.359	15.62
402.568	16.02
402.777	16.14
402.985	16.16
403.194	16.24
403.403	16.36
403.612	15.9
403.82	15.89
404.029	15.79
404.238	15.38
404.446	15.28
404.655	14.82
404.864	14.67
405.072	14.27
405.281	14.64
405.489	14.33
405.698	14.38
405.906	14.15
406.115	14.1
406.324	13.86
406.532	14
406.741	14.36
406.949	14.21
407.158	14.19
407.366	14.1
407.574	14.17
407.783	14.1
407.991	14.08
408.2	14.17
408.408	14
408.617	13.71
408.825	13.39
409.033	13.4
409.242	13.38
409.45	13.46
409.658	13.25
409.867	13.47
410.075	13.3
410.283	13.08
410.491	13.03
410.7	12.92
410.908	12.87
411.116	12.86
411.324	12.94
411.533	12.89
411.741	13.15
411.949	13.2
412.157	13.08
412.365	13.11
412.573	12.99
412.781	12.9
412.99	12.62
413.198	12.86
413.406	12.77
413.614	12.86
413.822	12.91
414.03	12.79
414.238	12.43
414.446	12.42
414.654	11.98
414.862	11.86
415.07	11.99
415.278	12.21
415.486	11.69
415.694	12.04
415.902	12.03
416.109	11.78
416.317	11.76
416.525	11.79
416.733	11.87
416.941	11.98
417.149	12.1
417.357	12.15
417.564	12.45
417.772	12.38
417.98	12.35
418.188	12.37
418.395	12.18
418.603	12.2
418.811	11.8
419.019	11.56
419.226	11.84
419.434	11.98
419.642	11.84
419.849	12
420.057	12.19
420.265	11.88
420.472	11.64
420.68	11.68
420.887	11.53
421.095	11.55
421.302	11.46
421.51	11.67
421.717	11.58
421.925	11.57
422.132	11.41
422.34	11.15
422.547	10.95
422.755	11.01
422.962	11.14
423.17	11.06
423.377	11.25
423.585	11.39
423.792	11.4
423.999	11.51
424.207	11.51
424.414	11.59
424.621	11.45
424.829	11.29
425.036	11.01
425.243	10.9
425.451	10.74
425.658	10.68
425.865	10.79
426.072	10.81
426.28	10.86
426.487	10.64
426.694	10.8
426.901	10.75
427.108	10.8
427.315	10.8
427.523	11.17
427.73	11.15
427.937	10.73
428.144	10.58
428.351	10.56
428.558	10.54
428.765	10.4
428.972	10.7
429.179	10.86
429.386	11.16
429.593	11.06
429.8	10.92
430.007	11
430.214	11.19
430.421	11.02
430.628	10.85
430.835	10.64
431.042	10.88
431.249	10.81
431.456	10.89
431.662	11.21
431.869	11.6
432.076	11.5
432.283	11.41
432.49	11.17
432.697	11.12
432.903	10.71
433.11	10.55
433.317	10.69
433.524	10.89
433.73	10.68
433.937	11.15
434.144	11.15
434.35	11.09
434.557	10.98
434.764	11.07
434.97	10.97
435.177	11.11
435.384	10.76
435.59	11
435.797	11.2
436.003	11.34
436.21	11.33
436.416	11.56
436.623	11.34
436.829	11.25
437.036	11.2
437.242	11.05
437.449	11.09
437.655	11.06
437.862	10.94
438.068	10.86
438.275	11.08
438.481	11.33
438.687	11.43
438.894	11.49
439.1	11.54
439.307	11.62
439.513	11.42
439.719	11.46
439.926	11.59
440.132	11.53
440.338	11.4
440.544	11.52
440.751	11.43
440.957	11.44
441.163	11.24
441.369	11.25
441.575	11.01
441.782	10.97
441.988	10.77
442.194	10.96
442.4	10.96
442.606	11.12
442.812	11.3
443.018	11.48
443.224	11.58
443.431	11.69
443.637	11.71
443.843	11.54
444.049	11.61
444.255	11.52
444.461	11.43
444.667	11.22
444.873	11.34
445.079	11.49
445.284	11.52
445.49	11.36
445.696	11.3
445.902	11.25
446.108	11.02
446.314	10.94
446.52	11.17
446.726	11.56
446.931	11.51
447.137	11.6
447.343	11.82
447.549	11.6
447.755	11.51
447.96	11.53
448.166	11.45
448.372	11.46
448.578	11.58
448.783	11.6
448.989	11.79
449.195	11.94
449.4	11.8
449.606	11.75
449.812	11.65
450.017	11.68
450.223	11.67
450.428	11.46
450.634	11.67
450.84	11.81
451.045	11.67
451.251	11.54
451.456	11.83
451.662	11.83
451.867	11.83
452.073	11.78
452.278	11.92
452.483	12.12
452.689	12.01
452.894	12.12
453.1	12.2
453.305	11.94
453.51	11.76
453.716	11.61
453.921	11.47
454.127	11.4
454.332	11.43
454.537	11.3
454.742	11.43
454.948	11.59
455.153	11.47
455.358	11.57
455.563	11.76
455.769	11.81
455.974	11.52
456.179	11.6
456.384	11.49
456.589	11.46
456.795	11.19
457	11.26
457.205	11.41
457.41	11.48
457.615	11.42
457.82	11.62
458.025	11.76
458.23	11.56
458.435	11.64
458.64	11.49
458.845	11.64
459.05	11.49
459.255	11.43
459.46	11.4
459.665	11.42
459.87	11.35
460.075	11.23
460.28	11.36
460.485	11.45
460.69	11.63
460.895	11.41
461.099	11.4
