Data from Ofra_PP_Phys_2GT10K_Reflection_2.txt Node
Date: Sat Jul 24 20:12:24 EDT 2021
User: USUARIO
Spectrometer: FLMT01687
Trigger mode: 0
Integration Time (sec): 1.100000E0
Scans to average: 2
Electric dark correction enabled: true
Nonlinearity correction enabled: false
Boxcar width: 2
XAxis mode: Wavelengths
Number of Pixels in Spectrum: 3648
>>>>>Begin Spectral Data<<<<<
179.494	741.56
179.716	930.53
179.937	1630.36
180.158	1441.78
180.38	648.62
180.601	-761.66
180.823	14.91
181.044	488.37
181.265	25.38
181.486	-8.81
181.708	-44.54
181.929	-1864
182.15	431.33
182.372	-21.61
182.593	41400
182.814	1092.31
183.035	245.65
183.257	175.78
183.478	72.8
183.699	102.28
183.92	-25.9
184.141	27.44
184.363	-19.32
184.584	70.56
184.805	43.07
185.026	71.06
185.247	53.13
185.468	15.46
185.689	-3.12
185.91	11.59
186.132	2.3
186.353	16.48
186.574	53.53
186.795	72.17
187.016	-1.62
187.237	18.71
187.458	3.81
187.679	47.32
187.9	59.15
188.121	115.94
188.342	124.98
188.563	115.62
188.784	102.49
189.005	74.88
189.226	89.66
189.447	74.8
189.667	77.83
189.888	30.29
190.109	6.6
190.33	-30.25
190.551	-52.6
190.772	-56.71
190.993	-60.89
191.214	-51.56
191.434	-57.12
191.655	1.02
191.876	-14.63
192.097	-2.67
192.318	7.65
192.538	-7.95
192.759	-25.09
192.98	-17.59
193.201	-7.22
193.421	-39.14
193.642	-0.72
193.863	3.21
194.083	-20.34
194.304	-4.32
194.525	19.21
194.745	12.49
194.966	-52.27
195.187	-64.34
195.407	-172.93
195.628	-193.79
195.848	-176.51
196.069	-181.45
196.29	-131.33
196.51	-172.47
196.731	-196.46
196.951	-192.51
197.172	-166.95
197.392	-161.28
197.613	-83.08
197.833	-72.56
198.054	-94.98
198.274	-49.97
198.495	-92.88
198.715	-72.61
198.936	-118.84
199.156	-60.71
199.377	-92.07
199.597	-81.96
199.817	-111.14
200.038	-22.76
200.258	-17.68
200.479	29.9
200.699	28.54
200.919	37.59
201.14	-35.59
201.36	-51.69
201.58	-59.34
201.801	-38.65
202.021	-59.62
202.241	-5.69
202.461	-29.98
202.682	-50.72
202.902	-29.96
203.122	-33.14
203.342	-19.89
203.563	12.11
203.783	17.89
204.003	-84.68
204.223	-160.35
204.443	-75.03
204.663	-102.57
204.884	-94.38
205.104	-7.49
205.324	43.35
205.544	19.19
205.764	22.04
205.984	55.47
206.204	66.59
206.424	61.12
206.644	34.89
206.864	52.21
207.084	9.25
207.304	19.04
207.525	-8.23
207.745	-8.31
207.964	-19.84
208.184	-27.88
208.404	-42.92
208.624	-52.91
208.844	-23.39
209.064	-65.07
209.284	-50.23
209.504	-28.26
209.724	1.31
209.944	-25.13
210.164	27.97
210.384	69.57
210.604	60.97
210.823	-0.72
211.043	-35.15
211.263	-37.23
211.483	-90.43
211.703	-116.52
211.922	-55.88
212.142	18.88
212.362	39.36
212.582	30.11
212.801	34.21
213.021	-1.25
213.241	-15.93
213.461	-66.32
213.68	-95.72
213.9	-88.68
214.12	-71.89
214.339	-104.61
214.559	-82.69
214.779	-29.68
214.998	-20.42
215.218	-60.22
215.438	-41.81
215.657	-72.53
215.877	-48.2
216.096	-32.01
216.316	21.86
216.535	6.55
216.755	22.89
216.974	1.89
217.194	-1.88
217.413	-28.22
217.633	-14.45
217.852	-78.41
218.072	-81.36
218.291	-85.9
218.511	-37.99
218.73	-125.5
218.95	-100.23
219.169	-86.42
219.389	-119.02
219.608	-146.45
219.827	-57.45
220.047	-31.98
220.266	-48.96
220.485	-52.6
220.705	-16.87
220.924	-75.24
221.143	-53.16
221.363	-100.49
221.582	-45.24
221.801	-48.2
222.021	13.2
222.24	32.24
222.459	87.84
222.678	61.56
222.897	35.38
223.117	10.34
223.336	-16.66
223.555	11.46
223.774	42.7
223.993	56.14
224.213	129.23
224.432	70.65
224.651	84.12
224.87	48.62
225.089	67.26
225.308	40.57
225.527	74.14
225.746	47.6
225.965	30.28
226.184	1.07
226.404	19.02
226.623	-5.12
226.842	1.7
227.061	50.74
227.28	62.95
227.499	58.9
227.718	72.68
227.936	53.83
228.155	17.42
228.374	-35.44
228.593	-56.34
228.812	-48.97
229.031	-32.43
229.25	-48.43
229.469	-2.8
229.688	20.51
229.907	27.17
230.125	48.21
230.344	54.85
230.563	54.23
230.782	66.88
231.001	8.63
231.22	2.54
231.438	9.64
231.657	4.33
231.876	-12.58
232.095	31.12
232.313	35.06
232.532	25.96
232.751	36.79
232.969	20.06
233.188	13.26
233.407	3.66
233.625	-8.54
233.844	-30.86
234.063	-27.24
234.281	20.8
234.5	13.03
234.719	42.23
234.937	52.46
235.156	50.07
235.374	35.23
235.593	54.35
235.811	39.47
236.03	42.95
236.249	37.27
236.467	24.03
236.686	6.62
236.904	21.89
237.123	-55.96
237.341	-60.94
237.559	-54.97
237.778	-44.19
237.996	-68.85
238.215	-11.26
238.433	-8.07
238.652	3.9
238.87	-59.79
239.088	-26.49
239.307	-19.66
239.525	-30.62
239.743	-76.14
239.962	-29.72
240.18	-79.5
240.398	-128.6
240.617	-135.77
240.835	-78.82
241.053	-115.8
241.271	-30.89
241.49	5.54
241.708	4.29
241.926	3.2
242.144	26.73
242.363	-6.72
242.581	-26.2
242.799	7.27
243.017	-0.1
243.235	-71.17
243.453	-41.28
243.672	-36.44
243.89	-34.26
244.108	-26.54
244.326	22.88
244.544	14.23
244.762	1.62
244.98	0.07
245.198	-0.56
245.416	-36.43
245.634	-40.75
245.852	-10.37
246.07	-14.84
246.288	-3.87
246.506	-0.82
246.724	18.75
246.942	15.43
247.16	24.47
247.378	27.88
247.596	52.1
247.814	35.51
248.032	-17.06
248.25	-13.64
248.468	-13.29
248.685	-8.03
248.903	14.14
249.121	48.11
249.339	0.72
249.557	-14.84
249.775	-10.54
249.992	-94.19
250.21	-119.3
250.428	-72.49
250.646	-53.41
250.863	-59.72
251.081	-40.05
251.299	14.83
251.517	7.57
251.734	11.6
251.952	1.18
252.17	27.86
252.387	18.15
252.605	-6.95
252.823	-10.96
253.04	11.2
253.258	16.36
253.475	7.24
253.693	51.67
253.911	60.47
254.128	54.6
254.346	63
254.563	59.93
254.781	24.3
254.998	15.03
255.216	11.48
255.433	-7.82
255.651	13.63
255.868	37.38
256.086	46.77
256.303	37.91
256.521	56.68
256.738	35.18
256.956	-2.47
257.173	-1.4
257.39	-13.76
257.608	-17.24
257.825	-5.59
258.043	26.88
258.26	22.41
258.477	29.45
258.695	25.15
258.912	-15.11
259.129	-27.8
259.346	-63.14
259.564	-63.36
259.781	-40.87
259.998	-20.58
260.216	13.56
260.433	46.63
260.65	33.72
260.867	41.73
261.084	23.28
261.302	3.94
261.519	12.58
261.736	-7.43
261.953	-30
262.17	-5.01
262.387	-12.27
262.604	-34.38
262.822	-27.22
263.039	-27.64
263.256	-51.76
263.473	-23.48
263.69	-44.83
263.907	-10.15
264.124	19.7
264.341	58.16
264.558	17.35
264.775	28.82
264.992	31.36
265.209	11.49
265.426	-0.21
265.643	14.77
265.86	16.42
266.077	18.91
266.294	18.88
266.51	23.79
266.727	14.22
266.944	27.17
267.161	1.64
267.378	11.8
267.595	3.36
267.812	-42.04
268.028	-41.18
268.245	-35.62
268.462	-59.21
268.679	-51.37
268.896	18.3
269.112	10
269.329	18.5
269.546	46.95
269.763	42.06
269.979	37.98
270.196	20.5
270.413	7.2
270.629	-31.96
270.846	-42.49
271.063	-34.7
271.279	-36.82
271.496	-81.14
271.712	-65.39
271.929	-50.64
272.146	-34.41
272.362	-25.73
272.579	47.98
272.795	47.72
273.012	67.93
273.228	52.41
273.445	23.21
273.661	-33.35
273.878	-127.36
274.094	-127.31
274.311	-166.83
274.527	-90.06
274.744	-43.47
274.96	32.39
275.177	42.63
275.393	48.25
275.609	44.37
275.826	48.14
276.042	42.89
276.259	30.37
276.475	27.83
276.691	33.45
276.908	3.8
277.124	34.79
277.34	29
277.557	26.07
277.773	19.43
277.989	19.82
278.205	9.2
278.422	8.06
278.638	25.99
278.854	19.03
279.07	32.25
279.286	-7.04
279.503	-16.61
279.719	-25.99
279.935	-43.47
280.151	-68.19
280.367	-19.44
280.583	-4.41
280.799	-14.33
281.016	5.17
281.232	31.29
281.448	30.66
281.664	41.49
281.88	40.54
282.096	28.49
282.312	26.24
282.528	31.97
282.744	30.28
282.96	32.96
283.176	35.63
283.392	35.17
283.608	32.11
283.824	24.53
284.04	19.98
284.256	42.95
284.471	36.51
284.687	18.88
284.903	29.21
285.119	63.96
285.335	11.8
285.551	16.53
285.767	21.26
285.982	-13.79
286.198	-38.44
286.414	3.11
286.63	6.62
286.846	30.17
287.061	10.29
287.277	14.23
287.493	4.65
287.709	8.06
287.924	-10.99
288.14	38.03
288.356	58.33
288.571	74.67
288.787	64.58
289.003	74.64
289.218	45.02
289.434	-28.63
289.65	7.66
289.865	19.65
290.081	22.08
290.296	31.11
290.512	34.18
290.727	17.04
290.943	-3.87
291.159	-18.06
291.374	-15.16
291.59	-34.33
291.805	-50.78
292.021	-24.13
292.236	-20.67
292.451	-29.95
292.667	-3.37
292.882	17.72
293.098	23.75
293.313	8.25
293.529	0.74
293.744	-22.56
293.959	-58.22
294.175	-52.11
294.39	-13.32
294.605	17.29
294.821	39.47
295.036	37.73
295.251	47.56
295.467	19.53
295.682	0.52
295.897	-22.4
296.112	-27.54
296.328	-43.97
296.543	-48.01
296.758	-70.82
296.973	-14.02
297.188	32.68
297.404	0.97
297.619	10.46
297.834	21.44
298.049	4.46
298.264	-23.08
298.479	19.51
298.694	27.07
298.909	48.47
299.125	48.67
299.34	65.67
299.555	38.56
299.77	50.55
299.985	-26.35
300.2	-61.33
300.415	-108.56
300.63	-74.85
300.845	-73.7
301.06	-61.43
301.275	-33.52
301.49	-5.74
301.704	-2.75
301.919	-38.71
302.134	-39.07
302.349	-5.11
302.564	-30.81
302.779	-18.74
302.994	34.23
303.209	48.31
303.423	52.28
303.638	98.62
303.853	75.01
304.068	32.84
304.283	25.13
304.497	-1.84
304.712	-2.57
304.927	8.02
305.142	2.58
305.356	7.86
305.571	10.76
305.786	-7.92
306	-16.66
306.215	12.14
306.43	-18.07
306.644	13.79
306.859	40.03
307.074	33.16
307.288	-4
307.503	27.52
307.717	-14.16
307.932	-19.55
308.147	-29.77
308.361	14.88
308.576	-20.62
308.79	-59.95
309.005	-57.69
309.219	-32.03
309.434	-28.84
309.648	-39.42
309.863	2.68
310.077	-1.46
310.292	-16.34
310.506	-29.14
310.72	25.76
310.935	30.79
311.149	25.33
311.364	35.01
311.578	53.9
311.792	28.74
312.007	34.09
312.221	-4.27
312.435	21.75
312.649	-25.65
312.864	38.72
313.078	9.89
313.292	82.91
313.507	44.77
313.721	53.01
313.935	27.4
314.149	57.69
314.363	36.78
314.578	25.23
314.792	17.91
315.006	13.94
315.22	2.34
315.434	4.58
315.648	25.19
315.862	18.32
316.077	13.98
316.291	16.54
316.505	12.41
316.719	11.65
316.933	-23.56
317.147	-3.65
317.361	-34.88
317.575	-24.67
317.789	-47.32
318.003	-23.67
318.217	-17.79
318.431	15.85
318.645	25.19
318.859	24.31
319.073	55.51
319.287	28.68
319.5	-17.05
319.714	-62.43
319.928	-66.12
320.142	-109.29
320.356	-40.12
320.57	-1.47
320.784	-7.3
320.997	9.06
321.211	9.49
321.425	-43.92
321.639	-99.74
321.853	-52.69
322.066	-67.95
322.28	-72.51
322.494	-30.16
322.707	53.25
322.921	19.77
323.135	26.31
323.349	49.76
323.562	9.32
323.776	-31.41
323.989	-23.87
324.203	-40.97
324.417	-34.53
324.63	-47.65
324.844	-63.02
325.057	-66.31
325.271	-60.87
325.485	-84.15
325.698	-28.63
325.912	5.6
326.125	-7.93
326.339	17.55
326.552	19.05
326.766	20.07
326.979	14.12
327.193	46.52
327.406	29.44
327.619	38.65
327.833	36.91
328.046	10.15
328.26	-14.42
328.473	-17.84
328.686	-39.6
328.9	-24.53
329.113	-8.15
329.326	-30.65
329.54	-19.37
329.753	-20.05
329.966	-42.71
330.179	-10.64
330.393	23.21
330.606	18.17
330.819	33.01
331.032	39.4
331.246	40.45
331.459	58.28
331.672	39.01
331.885	13.54
332.098	-18.76
332.311	-11.03
332.525	-35.77
332.738	-19.73
332.951	8.86
333.164	29.6
333.377	33.9
333.59	56.68
333.803	45.33
334.016	37.52
334.229	31.47
334.442	31.18
334.655	55.59
334.868	60.29
335.081	54.28
335.294	33.1
335.507	36.71
335.72	18.71
335.933	6.41
336.146	7.35
336.359	27.61
336.572	-8.92
336.785	-26.24
336.997	-15.77
337.21	0.5
337.423	-7.54
337.636	8.47
337.849	18.96
338.062	19.41
338.274	28.24
338.487	14.21
338.7	18.37
338.913	-8.53
339.125	-26.8
339.338	-24.12
339.551	-10.23
339.763	15.84
339.976	39.12
340.189	51.36
340.402	46.46
340.614	38.17
340.827	8.22
341.039	-7.04
341.252	-30.81
341.465	-62
341.677	-76.97
341.89	-118.68
342.102	-95.3
342.315	-59.2
342.527	-52.58
342.74	-40.38
342.952	33.54
343.165	29.52
343.377	42.26
343.59	29.3
343.802	69.34
344.015	60.12
344.227	84.29
344.44	56.96
344.652	48.93
344.864	23.6
345.077	34.22
345.289	19.1
345.502	37.49
345.714	41.46
345.926	40.96
346.139	21.24
346.351	22.76
346.563	13.54
346.775	39.33
346.988	15.92
347.2	8.88
347.412	-16.79
347.624	-17.74
347.837	-22.28
348.049	4.61
348.261	26.47
348.473	15.25
348.685	-15.3
348.897	-33.25
349.11	-39.8
349.322	-45.01
349.534	-1.13
349.746	28.4
349.958	34.86
350.17	25.83
350.382	29.75
350.594	19.65
350.806	13.77
351.018	1.22
351.23	-0.61
351.442	-4.19
351.654	-7
351.866	-6.11
352.078	5.4
352.29	12.54
352.502	28.6
352.714	45.9
352.926	31.83
353.138	38.47
353.35	11.58
353.561	-11.54
353.773	-33.16
353.985	-11.83
354.197	-14.67
354.409	2.14
354.621	12.29
354.832	24.95
355.044	2.02
355.256	-3.86
355.468	5.25
355.679	-2.71
355.891	3.41
356.103	-2.21
356.314	-8.8
356.526	-2.35
356.738	22.69
356.949	12.27
357.161	23.27
357.373	38.17
357.584	31.68
357.796	14.15
358.008	-4.87
358.219	10.86
358.431	-3.44
358.642	-0.07
358.854	22.46
359.065	35.99
359.277	10.56
359.488	1.29
359.7	-9.61
359.911	-42.73
360.123	-45.58
360.334	-48.77
360.546	-53.79
360.757	-52.88
360.969	-34.82
361.18	-2.21
361.391	6.64
361.603	1.23
361.814	15.75
362.025	-9.72
362.237	-31.72
362.448	-23
362.659	7.06
362.871	2.17
363.082	24.17
363.293	35.56
363.504	26.8
363.716	9.32
363.927	5.32
364.138	-21.6
364.349	-61.66
364.56	-59.96
364.772	-73.17
364.983	-52.9
365.194	-56.93
365.405	-22.42
365.616	-5.67
365.827	4.64
366.038	-20.92
366.25	9.32
366.461	-13.89
366.672	-0.26
366.883	17.17
367.094	13.57
367.305	-14.79
367.516	8.87
367.727	-6.91
367.938	-32.4
368.149	-35.05
368.36	-3.69
368.571	-14.97
368.781	-24.42
368.992	-21.67
369.203	1.23
369.414	-25.98
369.625	-33.44
369.836	-31.76
370.047	-37.73
370.258	-51.22
370.468	-40.69
370.679	-78.59
370.89	-63.06
371.101	-24.32
371.312	-49.81
371.522	-42.65
371.733	-13.3
371.944	-7.42
372.155	1.91
372.365	-7.73
372.576	-11.61
372.787	-13.28
372.997	-24.42
373.208	-40.04
373.419	-5.13
373.629	-19.16
373.84	-12.58
374.05	-31.97
374.261	-14.75
374.472	-41.4
374.682	-17.68
374.893	-25.51
375.103	14.27
375.314	-3.63
375.524	6.86
375.735	19.47
375.945	27.3
376.156	-2.95
376.366	9.78
376.577	14.67
376.787	3.18
376.997	21.66
377.208	34.72
377.418	13.29
377.629	22.29
377.839	12.87
378.049	0.3
378.26	12.54
378.47	25.54
378.68	13.6
378.89	19.34
379.101	14.12
379.311	-17.27
379.521	-45.16
379.732	-41.26
379.942	-69.67
380.152	-63.78
380.362	-46.75
380.572	-28.16
380.783	-12.89
380.993	7.47
381.203	17.32
381.413	17.89
381.623	20.46
381.833	11.99
382.043	-6.46
382.253	-14.84
382.463	-8.89
382.674	-10.8
382.884	-28.74
383.094	-16.37
383.304	-11.94
383.514	-6.77
383.724	3.88
383.934	0.81
384.144	-5.26
384.353	-1.53
384.563	2.18
384.773	-0.09
384.983	14.05
385.193	19.72
385.403	7.74
385.613	-1.53
385.823	-2.88
386.033	4.06
386.242	-5.1
386.452	4.52
386.662	-1.81
386.872	1.73
387.082	-4.9
387.291	-10.84
387.501	-9.51
387.711	-2.3
387.921	-19.43
388.13	-15.71
388.34	-0.69
388.55	-5.87
388.759	-2.24
388.969	9.42
389.179	7.11
389.388	4.74
389.598	4.16
389.807	-2.27
390.017	-0.73
390.227	-2.4
390.436	-7.99
390.646	-0.29
390.855	3.33
391.065	2.08
391.274	-0.59
391.484	-0.97
391.693	-1.65
391.903	-0.14
392.112	1.36
392.322	8.66
392.531	13.85
392.74	11.81
392.95	6.12
393.159	3.49
393.369	2.43
393.578	-0.78
393.787	-1.93
393.997	3.32
394.206	3.3
394.415	3.09
394.625	3.41
394.834	0.9
395.043	-0.98
395.252	1.04
395.462	2.4
395.671	4.19
395.88	7.52
396.089	8.33
396.298	7.15
396.508	6.3
396.717	5.83
396.926	4.6
397.135	4.15
397.344	3.66
397.553	3.81
397.762	3.98
397.971	4.29
398.181	4.4
398.39	3.26
398.599	2.81
398.808	2.44
399.017	3.33
399.226	3.7
399.435	5.54
399.644	5.6
399.853	5.41
400.062	4.79
400.27	4.64
400.479	4.18
400.688	3.51
400.897	3.88
401.106	3.73
401.315	2.89
401.524	2.62
401.733	3.21
401.941	3.54
402.15	3.54
402.359	4.02
402.568	4.61
402.777	4.47
402.985	4.16
403.194	4.26
403.403	4.37
403.612	3.66
403.82	3.68
404.029	3.74
404.238	3.39
404.446	3.38
404.655	3.22
404.864	3.02
405.072	2.77
405.281	3.14
405.489	2.71
405.698	2.85
405.906	2.85
406.115	2.94
406.324	2.74
406.532	3.04
406.741	3.44
406.949	3.31
407.158	3.18
407.366	3.3
407.574	3.32
407.783	3.21
407.991	3.32
408.2	3.54
408.408	3.35
408.617	3.24
408.825	2.97
409.033	3.1
409.242	2.95
409.45	3.07
409.658	2.88
409.867	3.11
410.075	2.87
410.283	2.76
410.491	2.65
410.7	2.65
410.908	2.6
411.116	2.76
411.324	2.74
411.533	2.81
411.741	3.05
411.949	3.08
412.157	2.85
412.365	3.01
412.573	2.94
412.781	2.88
412.99	2.71
413.198	2.97
413.406	2.89
413.614	2.91
413.822	2.92
414.03	2.96
414.238	2.72
414.446	2.83
414.654	2.61
414.862	2.64
415.07	2.65
415.278	2.92
415.486	2.48
415.694	2.65
415.902	2.42
416.109	2.32
416.317	2.4
416.525	2.36
416.733	2.36
416.941	2.55
417.149	2.56
417.357	2.48
417.564	2.81
417.772	2.81
417.98	2.81
418.188	2.75
418.395	2.61
418.603	2.69
418.811	2.46
419.019	2.2
419.226	2.56
419.434	2.69
419.642	2.42
419.849	2.62
420.057	2.91
420.265	2.69
420.472	2.35
420.68	2.58
420.887	2.36
421.095	2.46
421.302	2.44
421.51	2.86
421.717	2.78
421.925	3.01
422.132	2.79
422.34	2.59
422.547	2.44
422.755	2.49
422.962	2.47
423.17	2.43
423.377	2.5
423.585	2.56
423.792	2.43
423.999	2.53
424.207	2.52
424.414	2.65
424.621	2.7
424.829	2.62
425.036	2.45
425.243	2.42
425.451	2.21
425.658	1.93
425.865	2.07
426.072	2.13
426.28	2.29
426.487	2.24
426.694	2.45
426.901	2.48
427.108	2.52
427.315	2.45
427.523	2.77
427.73	2.76
427.937	2.43
428.144	2.28
428.351	2.29
428.558	2.15
428.765	1.98
428.972	2.1
429.179	2.18
429.386	2.31
429.593	2.21
429.8	2.05
430.007	2.13
430.214	2.32
430.421	2.23
430.628	2.17
430.835	2.03
431.042	2.29
431.249	2.17
431.456	2.33
431.662	2.59
431.869	2.83
432.076	2.83
432.283	2.73
432.49	2.64
432.697	2.63
432.903	2.42
433.11	2.21
433.317	2.48
433.524	2.55
433.73	2.36
433.937	2.73
434.144	2.7
434.35	2.56
434.557	2.45
434.764	2.51
434.97	2.48
435.177	2.62
435.384	2.34
435.59	2.44
435.797	2.61
436.003	2.62
436.21	2.65
436.416	2.83
436.623	2.64
436.829	2.57
437.036	2.57
437.242	2.42
437.449	2.47
437.655	2.45
437.862	2.39
438.068	2.39
438.275	2.53
438.481	2.65
438.687	2.69
438.894	2.69
439.1	2.54
439.307	2.58
439.513	2.38
439.719	2.41
439.926	2.41
440.132	2.46
440.338	2.31
440.544	2.49
440.751	2.41
440.957	2.5
441.163	2.33
441.369	2.42
441.575	2.13
441.782	2.01
441.988	1.73
442.194	1.83
442.4	1.78
442.606	2.08
442.812	2.28
443.018	2.42
443.224	2.59
443.431	2.7
443.637	2.57
443.843	2.33
444.049	2.37
444.255	2.23
444.461	2.11
444.667	1.9
444.873	2.09
445.079	2.16
445.284	2.21
445.49	2.02
445.696	1.96
445.902	1.94
446.108	1.79
446.314	1.67
446.52	1.95
446.726	2.28
446.931	2.25
447.137	2.32
447.343	2.44
447.549	2.12
447.755	2.01
447.96	2.12
448.166	2.03
448.372	2.11
448.578	2.19
448.783	2.21
448.989	2.23
449.195	2.45
449.4	2.24
449.606	2.24
449.812	2.15
450.017	2.22
450.223	2.07
450.428	2.02
450.634	2.23
450.84	2.41
451.045	2.16
451.251	2.1
451.456	2.26
451.662	2.31
451.867	2.23
452.073	2.19
452.278	2.31
452.483	2.42
452.689	2.3
452.894	2.38
453.1	2.55
453.305	2.37
453.51	2.13
453.716	2.05
453.921	2.05
454.127	2.01
454.332	2
454.537	1.98
454.742	2.05
454.948	2.09
455.153	2.03
455.358	2.18
455.563	2.47
455.769	2.5
455.974	2.29
456.179	2.24
456.384	2.16
456.589	2.01
456.795	1.83
457	1.96
457.205	2.17
457.41	2.08
457.615	2.05
457.82	2.27
458.025	2.27
458.23	1.95
458.435	2.2
458.64	2.03
458.845	2.08
459.05	2.02
459.255	2.07
459.46	1.93
459.665	2.06
459.87	2.03
460.075	1.89
460.28	2
460.485	2.13
460.69	2.14
460.895	1.78
461.099	1.77
461.304	1.9
461.509	1.92
461.714	1.8
461.919	2.12
462.123	2.08
462.328	2.15
462.533	1.85
462.738	2.01
462.942	1.8
