Data from Ofra_PP_Phys_6GT17_Reflection_3.txt Node
Date: Sat Jul 24 20:11:38 EDT 2021
User: USUARIO
Spectrometer: FLMT01687
Trigger mode: 0
Integration Time (sec): 1.100000E0
Scans to average: 2
Electric dark correction enabled: true
Nonlinearity correction enabled: false
Boxcar width: 2
XAxis mode: Wavelengths
Number of Pixels in Spectrum: 3648
>>>>>Begin Spectral Data<<<<<
179.494	661.87
179.716	825.44
179.937	1403.78
180.158	1219.23
180.38	582.26
180.601	-668.22
180.823	-0.43
181.044	1296.9
181.265	-88.96
181.486	0.38
181.708	11.5
181.929	-1494.67
182.15	218.88
182.372	-178.93
182.593	55033.33
182.814	778.97
183.035	253.45
183.257	210.41
183.478	53.79
183.699	108.23
183.92	54.41
184.141	69.09
184.363	-32.94
184.584	41.69
184.805	41.92
185.026	61.72
185.247	58.34
185.468	31.02
185.689	35.7
185.91	31.29
186.132	26.63
186.353	17.99
186.574	57.2
186.795	67.73
187.016	12.89
187.237	48.25
187.458	48.72
187.679	145.14
187.9	113.31
188.121	170.52
188.342	158.31
188.563	155.46
188.784	134.67
189.005	147.01
189.226	135.15
189.447	126.17
189.667	113.39
189.888	76.33
190.109	43.59
190.33	3.96
190.551	-39.19
190.772	-37
190.993	-55.6
191.214	-31.46
191.434	-28.47
191.655	53.04
191.876	47.79
192.097	49.88
192.318	29.98
192.538	18.2
192.759	-11.03
192.98	-3.54
193.201	-0.78
193.421	-41.64
193.642	-13.51
193.863	-9.42
194.083	-25.18
194.304	-6.82
194.525	27.87
194.745	37.73
194.966	-9.82
195.187	-44.5
195.407	-108.07
195.628	-161.81
195.848	-164.58
196.069	-153.58
196.29	-88.38
196.51	-130.64
196.731	-114.59
196.951	-91.59
197.172	-81.83
197.392	-88.44
197.613	-43.3
197.833	-39.55
198.054	-73.12
198.274	-61.39
198.495	-128.21
198.715	-77.55
198.936	-111.36
199.156	-66.32
199.377	-87.46
199.597	-73.72
199.817	-102.93
200.038	-37.01
200.258	-26.42
200.479	31.46
200.699	57.64
200.919	53.98
201.14	-8.67
201.36	-29.3
201.58	-32.25
201.801	-33.54
202.021	-42.86
202.241	8.61
202.461	10.61
202.682	-20.89
202.902	-10.3
203.122	-28.49
203.342	-22.58
203.563	21.54
203.783	46.28
204.003	-20.12
204.223	-53.91
204.443	35.18
204.663	19.15
204.884	-3.83
205.104	61.29
205.324	100.68
205.544	80.34
205.764	65.94
205.984	88.87
206.204	78.07
206.424	60.2
206.644	6.42
206.864	23.71
207.084	16.68
207.304	37.1
207.525	-7.02
207.745	14.59
207.964	14.28
208.184	-19.99
208.404	-46.44
208.624	-26.75
208.844	-9.22
209.064	-55.85
209.284	-56.53
209.504	-17.55
209.724	-8.21
209.944	-11.72
210.164	49.99
210.384	71.53
210.604	69.18
210.823	14.99
211.043	-43.6
211.263	-37
211.483	-57.66
211.703	-78.07
211.922	-41.02
212.142	53.55
212.362	60.61
212.582	48.47
212.801	57.47
213.021	28.09
213.241	8.21
213.461	-39
213.68	-49.43
213.9	-36.59
214.12	-0.35
214.339	-37.16
214.559	-6.99
214.779	21.92
214.998	3.4
215.218	-22.73
215.438	-18.4
215.657	-35.87
215.877	-6.7
216.096	-3.64
216.316	31.1
216.535	26.56
216.755	31.13
216.974	10.19
217.194	14.96
217.413	-3.78
217.633	-2.91
217.852	-66.72
218.072	-58.39
218.291	-65.41
218.511	-42.69
218.73	-102.5
218.95	-83.37
219.169	-85.17
219.389	-113.61
219.608	-127.4
219.827	-38.1
220.047	-3.5
220.266	-1.94
220.485	-9.39
220.705	30.93
220.924	-41.54
221.143	-5.87
221.363	-73.46
221.582	-12.53
221.801	-10.75
222.021	48.28
222.24	31.38
222.459	89.19
222.678	58.43
222.897	19.18
223.117	12.33
223.336	-3.88
223.555	24.87
223.774	58.51
223.993	81.8
224.213	161.15
224.432	103.61
224.651	99.86
224.87	66.17
225.089	83.15
225.308	58.24
225.527	81.66
225.746	78.81
225.965	66.83
226.184	43.26
226.404	48.17
226.623	27.46
226.842	29.32
227.061	67.09
227.28	85.68
227.499	83.39
227.718	114.7
227.936	90.55
228.155	81.29
228.374	9.99
228.593	-6.24
228.812	-19.3
229.031	4.55
229.25	-23.3
229.469	27.38
229.688	25
229.907	36.52
230.125	49.99
230.344	66.42
230.563	67.49
230.782	92.6
231.001	35.73
231.22	29.29
231.438	38.45
231.657	35.7
231.876	28.79
232.095	74.74
232.313	73.42
232.532	49.86
232.751	34.62
232.969	20.07
233.188	6.74
233.407	5.55
233.625	-9.19
233.844	-6.83
234.063	-10.74
234.281	31.65
234.5	35.05
234.719	52.15
234.937	53.72
235.156	76.36
235.374	74.86
235.593	85.47
235.811	83.17
236.03	84.8
236.249	58.61
236.467	60.26
236.686	21.9
236.904	29.61
237.123	-29.34
237.341	-23
237.559	-66.17
237.778	-49.88
237.996	-64.47
238.215	-18.96
238.433	-19.96
238.652	12.05
238.87	-34.13
239.088	-0.47
239.307	16.53
239.525	12.35
239.743	-30.76
239.962	7.42
240.18	-30.49
240.398	-74.4
240.617	-87.83
240.835	-39.61
241.053	-68.33
241.271	7.77
241.49	32.13
241.708	23.64
241.926	35.43
242.144	45.9
242.363	-3.69
242.581	-10.45
242.799	20.71
243.017	5.27
243.235	-36.81
243.453	-0.62
243.672	-35.69
243.89	-35.5
244.108	-17.65
244.326	28.35
244.544	28.69
244.762	31.57
244.98	37.04
245.198	30.48
245.416	-12.86
245.634	-10.05
245.852	0.3
246.07	-2.87
246.288	-0.08
246.506	16.92
246.724	36.36
246.942	41.22
247.16	56.19
247.378	64.91
247.596	76.54
247.814	70.31
248.032	19.5
248.25	-1.83
248.468	3.04
248.685	17.09
248.903	11.55
249.121	38.04
249.339	4
249.557	-12
249.775	-27.57
249.992	-99.83
250.21	-100.03
250.428	-55.99
250.646	-48.98
250.863	-52.85
251.081	-20.82
251.299	5
251.517	-1.26
251.734	1.88
251.952	-0.61
252.17	16.67
252.387	27.33
252.605	8.06
252.823	8.45
253.04	34.26
253.258	36.46
253.475	24.69
253.693	62.12
253.911	78.73
254.128	69.62
254.346	70.75
254.563	63.31
254.781	39.25
254.998	22.52
255.216	22.66
255.433	18.09
255.651	52.43
255.868	73.06
256.086	78.63
256.303	70.46
256.521	79.56
256.738	39.03
256.956	11.19
257.173	24.86
257.39	15.27
257.608	8.66
257.825	25.59
258.043	46.71
258.26	41.63
258.477	47.68
258.695	44.64
258.912	-4.8
259.129	-8.46
259.346	-42.1
259.564	-46.86
259.781	-22.94
259.998	10.12
260.216	36.76
260.433	67.84
260.65	64.88
260.867	72.54
261.084	40.21
261.302	15.68
261.519	24.27
261.736	-3.19
261.953	-15.11
262.17	20.54
262.387	14.49
262.604	-15.53
262.822	-11.65
263.039	-10.94
263.256	-35.06
263.473	-20.68
263.69	-40.85
263.907	2.61
264.124	12.78
264.341	51.84
264.558	42.05
264.775	65.84
264.992	81.26
265.209	70.58
265.426	62.42
265.643	67.34
265.86	63.05
266.077	42.86
266.294	32.99
266.51	22.67
266.727	8.51
266.944	33.82
267.161	28.52
267.378	36.77
267.595	43.04
267.812	21.96
268.028	-0.56
268.245	13.16
268.462	-13.5
268.679	-7.66
268.896	50.75
269.112	39.42
269.329	25.75
269.546	56.18
269.763	49.75
269.979	37.38
270.196	46.2
270.413	32.02
270.629	2.86
270.846	-1.5
271.063	15.59
271.279	-13.44
271.496	-28.08
271.712	-23.42
271.929	-3.38
272.146	-6.58
272.362	20.02
272.579	81.63
272.795	95.24
273.012	110.34
273.228	95.52
273.445	74.23
273.661	6.13
273.878	-67.38
274.094	-77.13
274.311	-94.83
274.527	-36.6
274.744	0.13
274.96	40.86
275.177	41.07
275.393	45.08
275.609	40.21
275.826	40.77
276.042	34.08
276.259	27.5
276.475	18.14
276.691	27.2
276.908	26.01
277.124	53.9
277.34	53.97
277.557	54.84
277.773	40.62
277.989	39.12
278.205	32.86
278.422	51.96
278.638	69.04
278.854	81.58
279.07	74.45
279.286	34.1
279.503	-2.95
279.719	-13.48
279.935	-33.24
280.151	-48.27
280.367	-16.31
280.583	-0.32
280.799	-7.99
281.016	0.17
281.232	19.89
281.448	20.39
281.664	33.08
281.88	34.25
282.096	32.28
282.312	50.95
282.528	65.44
282.744	64.16
282.96	70.84
283.176	73.77
283.392	49.31
283.608	42.02
283.824	32.89
284.04	30.82
284.256	47.38
284.471	49.62
284.687	48.59
284.903	61.51
285.119	86.92
285.335	35.54
285.551	43.43
285.767	21.75
285.982	2.51
286.198	-12.05
286.414	28.33
286.63	32.76
286.846	62.08
287.061	26.04
287.277	26.42
287.493	28.91
287.709	25.35
287.924	12.38
288.14	57.46
288.356	71.85
288.571	69.08
288.787	46.64
289.003	50.14
289.218	11.34
289.434	-55.64
289.65	3.03
289.865	33.45
290.081	50.32
290.296	56.59
290.512	51.36
290.727	39.63
290.943	17.32
291.159	-0.72
291.374	1.32
291.59	-5.21
291.805	-36.05
292.021	-11.95
292.236	-20.95
292.451	-10.76
292.667	11.68
292.882	32.45
293.098	47.71
293.313	41.54
293.529	15.33
293.744	-9.79
293.959	-18.6
294.175	-23.51
294.39	-0.33
294.605	29.74
294.821	52.01
295.036	26.4
295.251	44.33
295.467	40.65
295.682	35.06
295.897	10.08
296.112	13.7
296.328	-6.76
296.543	-21.92
296.758	-45.58
296.973	11.21
297.188	52.62
297.404	24
297.619	38.96
297.834	40.37
298.049	33.03
298.264	-1.83
298.479	35.86
298.694	34.41
298.909	43.44
299.125	34.36
299.34	56.3
299.555	42.71
299.77	73.77
299.985	19.18
300.2	-13.49
300.415	-45.71
300.63	-19.67
300.845	-34.25
301.06	-11.66
301.275	3.64
301.49	19.56
301.704	-0.29
301.919	-61.86
302.134	-81.78
302.349	-20.53
302.564	-49.42
302.779	-20.2
302.994	38.61
303.209	44.21
303.423	38.83
303.638	93.14
303.853	48.48
304.068	4.99
304.283	14.86
304.497	5.69
304.712	1.26
304.927	25.87
305.142	23.43
305.356	34.71
305.571	34.45
305.786	28.62
306	10.78
306.215	37.65
306.43	16.16
306.644	33.08
306.859	40.04
307.074	35.07
307.288	1.15
307.503	8.28
307.717	-20.96
307.932	-6.81
308.147	-9.73
308.361	32.65
308.576	21.72
308.79	-20.88
309.005	-24.97
309.219	-14.44
309.434	-23.29
309.648	-44.21
309.863	5.46
310.077	6.13
310.292	5.65
310.506	6.22
310.72	49.58
310.935	62.55
311.149	47.27
311.364	60.62
311.578	67.3
311.792	50.67
312.007	38.26
312.221	-1.68
312.435	12.6
312.649	-24.31
312.864	11.58
313.078	-5.51
313.292	58.64
313.507	45.35
313.721	56.09
313.935	60.63
314.149	95.71
314.363	67.01
314.578	56.96
314.792	46.41
315.006	39.55
315.22	25.89
315.434	25.42
315.648	39.85
315.862	40.87
316.077	42.68
316.291	43.53
316.505	62.29
316.719	59.16
316.933	14.79
317.147	23.1
317.361	-11.38
317.575	-11.07
317.789	-35.33
318.003	-12.61
318.217	-2
318.431	26.13
318.645	36.27
318.859	33
319.073	64.78
319.287	27.17
319.5	-6.58
319.714	-45.24
319.928	-40.23
320.142	-75.65
320.356	3.18
320.57	40.83
320.784	39.27
320.997	59.53
321.211	63
321.425	17.25
321.639	-37
321.853	3.55
322.066	-21.6
322.28	-39.28
322.494	-19.34
322.707	47.62
322.921	23.18
323.135	12
323.349	22.11
323.562	1.6
323.776	-31.81
323.989	-33.17
324.203	-32.31
324.417	-7.43
324.63	-21.3
324.844	-34.34
325.057	-27.15
325.271	-19.99
325.485	-35.96
325.698	9.12
325.912	34.19
326.125	16.05
326.339	39.71
326.552	44.68
326.766	40.08
326.979	45.93
327.193	73.5
327.406	51.52
327.619	49.59
327.833	64.35
328.046	40.35
328.26	14.56
328.473	20.16
328.686	-4.48
328.9	-10.25
329.113	1.46
329.326	-1.49
329.54	4.75
329.753	6.2
329.966	1.91
330.179	16.59
330.393	29.13
330.606	31.36
330.819	45.3
331.032	53.99
331.246	57.91
331.459	83.18
331.672	51.97
331.885	40.49
332.098	-1.03
332.311	11.41
332.525	-6.15
332.738	5.41
332.951	23.12
333.164	42.19
333.377	45.47
333.59	55.5
333.803	46.2
334.016	38.41
334.229	37.59
334.442	30.02
334.655	49.54
334.868	71.33
335.081	73.85
335.294	56.72
335.507	67
335.72	52.37
335.933	24.22
336.146	18.84
336.359	39.23
336.572	-0.18
336.785	-11.67
336.997	-0.19
337.21	13.4
337.423	1.13
337.636	16.61
337.849	24.88
338.062	30.09
338.274	43.7
338.487	23.15
338.7	28.85
338.913	8.67
339.125	-4.55
339.338	-19.68
339.551	3.53
339.763	30.99
339.976	44.39
340.189	50.62
340.402	61.25
340.614	46.24
340.827	16.63
341.039	-2.34
341.252	-22.04
341.465	-41.6
341.677	-44.39
341.89	-79.08
342.102	-58.45
342.315	-48.8
342.527	-53.87
342.74	-39.49
342.952	19.67
343.165	21.7
343.377	56.94
343.59	38.05
343.802	62.8
344.015	69.39
344.227	95.32
344.44	72.78
344.652	85.99
344.864	80.6
345.077	81.6
345.289	51.34
345.502	50.29
345.714	41.35
345.926	37.45
346.139	24.03
346.351	24.74
346.563	27.26
346.775	46.15
346.988	32.3
347.2	32
347.412	0.09
347.624	-6.06
347.837	-7.78
348.049	17.54
348.261	28.17
348.473	40.49
348.685	1.38
348.897	-1.85
349.11	-24.03
349.322	-34.91
349.534	-1.65
349.746	29.96
349.958	38.24
350.17	39.47
350.382	55.71
350.594	47.12
350.806	53.42
351.018	34.79
351.23	38.31
351.442	21.04
351.654	13.82
351.866	12.42
352.078	20.73
352.29	26.71
352.502	57.84
352.714	86.19
352.926	69.79
353.138	67.76
353.35	33.93
353.561	15.09
353.773	-15.3
353.985	-1.82
354.197	-9.64
354.409	7.59
354.621	17.22
354.832	27.95
355.044	14.8
355.256	10.46
355.468	16.19
355.679	7.54
355.891	16.92
356.103	11.2
356.314	17.55
356.526	17.17
356.738	43.35
356.949	43.2
357.161	54.73
357.373	58.87
357.584	57.76
357.796	44.02
358.008	29.68
358.219	41.06
358.431	42.82
358.642	50.54
358.854	53.89
359.065	50.27
359.277	25.88
359.488	13.95
359.7	-5.24
359.911	-28.53
360.123	-28.4
360.334	-39.55
360.546	-48.79
360.757	-35.72
360.969	-24
361.18	5
361.391	16.25
361.603	24.57
361.814	34.89
362.025	9.99
362.237	0.76
362.448	19.52
362.659	38.09
362.871	33.35
363.082	50.16
363.293	48.56
363.504	33.5
363.716	11.81
363.927	14
364.138	-0.87
364.349	-33.33
364.56	-32.34
364.772	-49.51
364.983	-34.64
365.194	-37.73
365.405	-10.24
365.616	5.1
365.827	20.87
366.038	2.98
366.25	23.14
366.461	2.86
366.672	20.04
366.883	37.44
367.094	31.79
367.305	1.13
367.516	21.56
367.727	-2.01
367.938	-24.92
368.149	-30.38
368.36	-10.06
368.571	-11.8
368.781	-12
368.992	-16.42
369.203	9.41
369.414	4.49
369.625	-8.92
369.836	-16.33
370.047	-25.27
370.258	-41.56
370.468	-41.87
370.679	-68.79
370.89	-54.37
371.101	-16.65
371.312	-40.25
371.522	-27.31
371.733	-3.82
371.944	4.41
372.155	18.32
372.365	11.19
372.576	15.41
372.787	10.01
372.997	-1.52
373.208	-15.87
373.419	15.79
373.629	-9.07
373.84	0.06
374.05	-13.39
374.261	3.95
374.472	-21.81
374.682	13.31
374.893	-0.97
375.103	35.82
375.314	19.5
375.524	35.27
375.735	32.28
375.945	40.64
376.156	9.24
376.366	32.37
376.577	32.89
376.787	25.17
376.997	32.09
377.208	40.27
377.418	4.41
377.629	9.43
377.839	-0.21
378.049	-7.92
378.26	4.27
378.47	26.31
378.68	19.01
378.89	20.74
379.101	21.81
379.311	-4.65
379.521	-36.31
379.732	-27.18
379.942	-45.47
380.152	-37.01
380.362	-17.86
380.572	-5.58
380.783	2.2
380.993	24.78
381.203	35.25
381.413	43.38
381.623	50.72
381.833	48.52
382.043	24.29
382.253	15.42
382.463	8
382.674	4.4
382.884	-9.84
383.094	-4.2
383.304	-3.48
383.514	0.46
383.724	5.92
383.934	-3.47
384.144	-12.75
384.353	-12.37
384.563	-7.84
384.773	-3.48
384.983	12.4
385.193	26.62
385.403	13.37
385.613	7.76
385.823	-0.44
386.033	0.94
386.242	-7.33
386.452	4.43
386.662	-1.09
386.872	8.75
387.082	8.32
387.291	1.63
387.501	9.66
387.711	14.82
387.921	4.44
388.13	9.4
388.34	23.81
388.55	13.56
388.759	14.47
388.969	16.9
389.179	11.15
389.388	7.56
389.598	7.11
389.807	3.1
390.017	5.26
390.227	5.69
390.436	2.89
390.646	10.86
390.855	14.76
391.065	16.9
391.274	14.22
391.484	10.42
391.693	8.43
391.903	7.93
392.112	9.66
392.322	12.18
392.531	18.02
392.74	18.02
392.95	12.99
393.159	10.18
393.369	13.55
393.578	10.95
393.787	8.34
393.997	13.12
394.206	12.82
394.415	11.32
394.625	11.9
394.834	10.5
395.043	9.36
395.252	10.75
395.462	12.22
395.671	13.61
395.88	16.43
396.089	16.92
396.298	16.11
396.508	15.22
396.717	14.75
396.926	14.41
397.135	14.3
397.344	13.43
397.553	12.85
397.762	13.82
397.971	13.21
398.181	12.93
398.39	11.99
398.599	11.77
398.808	10.85
399.017	11.73
399.226	12.21
399.435	13.99
399.644	14.23
399.853	13.98
400.062	13.38
400.27	13.16
400.479	12.49
400.688	11.94
400.897	12.39
401.106	12.33
401.315	11.64
401.524	11.7
401.733	11.81
401.941	12.17
402.15	11.94
402.359	12.04
402.568	12.13
402.777	12.32
402.985	11.87
403.194	12.12
403.403	12.14
403.612	11.68
403.82	11.81
404.029	11.57
404.238	11.06
404.446	11.28
404.655	11.1
404.864	10.78
405.072	10.71
405.281	11.09
405.489	10.74
405.698	10.85
405.906	10.83
406.115	10.73
406.324	10.5
406.532	10.63
406.741	11
406.949	10.78
407.158	10.87
407.366	11.1
407.574	11.15
407.783	10.84
407.991	10.9
408.2	11.02
408.408	10.76
408.617	10.68
408.825	10.43
409.033	10.64
409.242	10.61
409.45	10.68
409.658	10.48
409.867	10.76
410.075	10.39
410.283	10.1
410.491	10.03
410.7	9.91
410.908	9.86
411.116	10.12
411.324	10.13
411.533	10.13
411.741	10.32
411.949	10.34
412.157	10.08
412.365	10.26
412.573	10.14
412.781	10.12
412.99	9.86
413.198	10.04
413.406	9.94
413.614	10.04
413.822	10
414.03	9.99
414.238	9.71
414.446	9.73
414.654	9.41
414.862	9.44
415.07	9.59
415.278	9.89
415.486	9.35
415.694	9.65
415.902	9.65
416.109	9.46
416.317	9.43
416.525	9.52
416.733	9.55
416.941	9.6
417.149	9.62
417.357	9.57
417.564	9.97
417.772	9.88
417.98	9.86
418.188	9.88
418.395	9.78
418.603	9.87
418.811	9.64
419.019	9.41
419.226	9.71
419.434	9.76
419.642	9.35
419.849	9.48
420.057	9.65
420.265	9.3
420.472	9.06
420.68	9.28
420.887	9.15
421.095	9.16
421.302	9.13
421.51	9.44
421.717	9.55
421.925	9.56
422.132	9.4
422.34	9.17
422.547	9.02
422.755	8.91
422.962	8.97
423.17	8.93
423.377	9.3
423.585	9.39
423.792	9.39
423.999	9.37
424.207	9.37
424.414	9.24
424.621	9.28
424.829	9.09
425.036	9.09
425.243	9.06
425.451	9
425.658	8.8
425.865	8.9
426.072	8.73
426.28	8.81
426.487	8.68
426.694	8.72
426.901	8.63
427.108	8.74
427.315	8.64
427.523	9.13
427.73	9.15
427.937	8.94
428.144	8.79
428.351	8.9
428.558	8.61
428.765	8.5
428.972	8.76
429.179	8.94
429.386	9.29
429.593	9.23
429.8	9.2
430.007	9.25
430.214	9.42
430.421	9.13
430.628	9.03
430.835	8.76
431.042	8.97
431.249	8.81
431.456	8.98
431.662	9.31
431.869	9.72
432.076	9.61
432.283	9.55
432.49	9.25
432.697	9.18
432.903	8.74
433.11	8.68
433.317	8.81
433.524	9.16
433.73	8.86
433.937	9.27
434.144	9.15
434.35	9.21
434.557	8.89
434.764	9.02
434.97	8.92
435.177	9.19
435.384	8.84
435.59	9.04
435.797	9.28
436.003	9.44
436.21	9.23
436.416	9.42
436.623	9.21
436.829	9.16
437.036	9.05
437.242	9
437.449	9
437.655	9.12
437.862	9.05
438.068	9.09
438.275	9.23
438.481	9.34
438.687	9.27
438.894	9.23
439.1	9.21
439.307	9.24
439.513	9.11
439.719	9.2
439.926	9.2
440.132	9.13
440.338	9.02
440.544	9.16
440.751	9.03
440.957	9.14
441.163	8.91
441.369	8.95
441.575	8.65
441.782	8.54
441.988	8.3
442.194	8.48
442.4	8.56
442.606	8.85
442.812	9.05
443.018	9.24
443.224	9.36
443.431	9.42
443.637	9.31
443.843	9.07
444.049	9.06
444.255	8.98
444.461	8.91
444.667	8.8
444.873	9.01
445.079	9.09
445.284	9.15
445.49	8.87
445.696	8.8
445.902	8.74
446.108	8.61
446.314	8.45
446.52	8.62
446.726	8.9
446.931	8.8
447.137	8.85
447.343	9.03
447.549	8.79
447.755	8.63
447.96	8.7
448.166	8.61
448.372	8.64
448.578	8.79
448.783	8.76
448.989	8.82
449.195	8.96
449.4	8.8
449.606	8.79
449.812	8.75
450.017	8.92
450.223	8.85
450.428	8.72
450.634	8.89
450.84	9.08
451.045	8.85
451.251	8.71
451.456	8.95
451.662	8.9
451.867	8.84
452.073	8.72
452.278	8.97
452.483	9.1
452.689	9.04
452.894	9.2
453.1	9.43
453.305	9.16
453.51	9.01
453.716	8.86
453.921	8.77
454.127	8.65
454.332	8.63
454.537	8.56
454.742	8.73
454.948	8.74
455.153	8.65
455.358	8.72
455.563	8.92
455.769	8.9
455.974	8.81
456.179	8.85
456.384	8.79
456.589	8.68
456.795	8.45
457	8.45
457.205	8.57
457.41	8.51
457.615	8.38
457.82	8.53
458.025	8.6
458.23	8.41
458.435	8.57
458.64	8.42
458.845	8.61
459.05	8.47
459.255	8.41
459.46	8.39
459.665	8.58
459.87	8.45
460.075	8.32
460.28	8.46
460.485	8.62
460.69	8.7
460.895	8.43
461.099	8.5
461.304	8.64
461.509	8.61
461.714	8.35
461.919	8.6
462.123	8.63
462.328	8.71
462.533	8.37
462.738	8.57
462.942	8.42
463.147	8.51
463.352	8.4
463.556	8.45
463.761	8.48
463.966	8.67
464.17	8.65
464.375	8.54
464.58	8.57
