Data from Ofra_PP_Phys_2HS27C_Reflection_1.txt Node
Date: Sat Jul 24 20:03:17 EDT 2021
User: USUARIO
Spectrometer: FLMT01687
Trigger mode: 0
Integration Time (sec): 1.100000E0
Scans to average: 2
Electric dark correction enabled: true
Nonlinearity correction enabled: false
Boxcar width: 2
XAxis mode: Wavelengths
Number of Pixels in Spectrum: 3648
>>>>>Begin Spectral Data<<<<<
179.494	520.85
179.716	664.56
179.937	1174.06
180.158	1011.05
180.38	469.31
180.601	-563.9
180.823	7.11
181.044	810.08
181.265	-55.13
181.486	-56.17
181.708	-1.89
181.929	-1361.33
182.15	197.99
182.372	-42.22
182.593	55166.67
182.814	331.79
183.035	133.01
183.257	115.86
183.478	58.66
183.699	11.77
183.92	-56.98
184.141	-33.71
184.363	-84.72
184.584	-23.7
184.805	11.85
185.026	32.64
185.247	27.43
185.468	6.84
185.689	-7.97
185.91	-16.38
186.132	-28.65
186.353	-10.86
186.574	14.59
186.795	10.91
187.016	-21.76
187.237	-6.29
187.458	-17.24
187.679	-13.12
187.9	46.52
188.121	97.96
188.342	127.91
188.563	93.85
188.784	92.81
189.005	71.55
189.226	49.57
189.447	13.35
189.667	41.45
189.888	9.33
190.109	-10.38
190.33	-20.65
190.551	-30.26
190.772	-34.02
190.993	-46.98
191.214	-30.64
191.434	-13.77
191.655	43.62
191.876	7.23
192.097	24.54
192.318	22.85
192.538	-10.25
192.759	-37.81
192.98	-15.34
193.201	-15.15
193.421	-48.86
193.642	-7.04
193.863	-11.1
194.083	-22.28
194.304	-13.37
194.525	17.95
194.745	-4.83
194.966	-37.34
195.187	-36.87
195.407	-91.17
195.628	-121.36
195.848	-88.35
196.069	-67.11
196.29	-63.89
196.51	-79.55
196.731	-74.79
196.951	-64.8
197.172	-55.97
197.392	-43.15
197.613	-28.83
197.833	-29.28
198.054	-36.2
198.274	-35.01
198.495	-72.47
198.715	-20.77
198.936	-49.99
199.156	-32.33
199.377	-41.71
199.597	-41.68
199.817	-54.2
200.038	-29.11
200.258	-30.41
200.479	15.65
200.699	31.22
200.919	26.91
201.14	7.27
201.36	4.07
201.58	-20.61
201.801	-18.99
202.021	-42.09
202.241	-23.01
202.461	-46.86
202.682	-21.06
202.902	-2.06
203.122	-2.33
203.342	18.31
203.563	53.36
203.783	45.57
204.003	-10.51
204.223	-37.18
204.443	-20.18
204.663	-72.39
204.884	-91.56
205.104	-53.2
205.324	7.73
205.544	-5.44
205.764	-6.31
205.984	27.98
206.204	44.45
206.424	35.79
206.644	22.25
206.864	42.88
207.084	40.97
207.304	32.04
207.525	8.81
207.745	22.65
207.964	8.79
208.184	15.29
208.404	15.61
208.624	24.71
208.844	12.76
209.064	-4.96
209.284	-14.51
209.504	-13.55
209.724	-13.62
209.944	-2.7
210.164	23.3
210.384	28.53
210.604	22.22
210.823	-13.23
211.043	-33.72
211.263	-27.96
211.483	-55.89
211.703	-56.81
211.922	-20.76
212.142	19.68
212.362	25.62
212.582	27.51
212.801	33.72
213.021	6.7
213.241	-2.41
213.461	-30.6
213.68	-49.07
213.9	-54.68
214.12	-47.05
214.339	-51.62
214.559	-37.41
214.779	-3.25
214.998	4.91
215.218	-5.68
215.438	-12.81
215.657	-39.88
215.877	-9.21
216.096	-33.1
216.316	-6.17
216.535	-5.3
216.755	29.99
216.974	11.51
217.194	26.7
217.413	27.69
217.633	32.11
217.852	-32.7
218.072	-49.79
218.291	-57.29
218.511	-48.56
218.73	-92.37
218.95	-62.39
219.169	-52.38
219.389	-79.07
219.608	-91.47
219.827	-40.88
220.047	-30.61
220.266	-19.77
220.485	-14.25
220.705	8.01
220.924	-19.64
221.143	-20.47
221.363	-65.48
221.582	-34.76
221.801	-54.67
222.021	-37.5
222.24	-9.45
222.459	11.81
222.678	-6.55
222.897	-11.78
223.117	-9.54
223.336	-23.41
223.555	1.27
223.774	21.65
223.993	43.9
224.213	81.98
224.432	43.54
224.651	59.17
224.87	60.44
225.089	61.69
225.308	38.94
225.527	52.99
225.746	47.52
225.965	22.94
226.184	16.73
226.404	25.2
226.623	19.66
226.842	10.87
227.061	38.85
227.28	42.79
227.499	50.26
227.718	67.59
227.936	63.08
228.155	50.9
228.374	16.9
228.593	-9.99
228.812	-15.76
229.031	-5.66
229.25	-11.89
229.469	20.82
229.688	22.22
229.907	16.98
230.125	24.72
230.344	28.29
230.563	18.14
230.782	35.21
231.001	16.89
231.22	10.71
231.438	-6.21
231.657	-9.97
231.876	-10.22
232.095	11.45
232.313	7.53
232.532	11.39
232.751	10.63
232.969	12.38
233.188	1.76
233.407	2.48
233.625	-1.67
233.844	0.7
234.063	-23.94
234.281	0.23
234.5	0.46
234.719	9.11
234.937	2.26
235.156	11.56
235.374	12.75
235.593	17.16
235.811	16.37
236.03	34.79
236.249	32.74
236.467	50.17
236.686	30.31
236.904	37.94
237.123	-17.52
237.341	-9.32
237.559	-37.34
237.778	-22.84
237.996	-43.62
238.215	4.24
238.433	-3.58
238.652	7.43
238.87	-22.85
239.088	-6.42
239.307	-12.6
239.525	-0.01
239.743	-23
239.962	-0.15
240.18	-18.42
240.398	-37.91
240.617	-64.93
240.835	-42.8
241.053	-85.31
241.271	-69.93
241.49	-35.91
241.708	-27.37
241.926	-31.79
242.144	0.33
242.363	-8.62
242.581	-9.13
242.799	11.51
243.017	-4.55
243.235	-34.83
243.453	-5.9
243.672	-40.24
243.89	-44.86
244.108	-17.59
244.326	16.18
244.544	11.64
244.762	14.25
244.98	15.74
245.198	11.02
245.416	-9.94
245.634	-7.36
245.852	0.54
246.07	-6
246.288	8.28
246.506	17.86
246.724	15.26
246.942	16.21
247.16	24.64
247.378	24.39
247.596	24.42
247.814	22.43
248.032	1.2
248.25	-2.96
248.468	-12.29
248.685	-4.54
248.903	-6.61
249.121	-7.3
249.339	-39.87
249.557	-33.54
249.775	-48.57
249.992	-89.67
250.21	-86.86
250.428	-41.58
250.646	-35.37
250.863	-21.2
251.081	1.92
251.299	16.02
251.517	17.37
251.734	15.25
251.952	-3.77
252.17	20.36
252.387	35.52
252.605	15.73
252.823	16.17
253.04	36.06
253.258	20.24
253.475	12.91
253.693	17.33
253.911	25.57
254.128	19.54
254.346	25.22
254.563	7.03
254.781	3.19
254.998	-4.4
255.216	-2.93
255.433	-6.52
255.651	23.91
255.868	26.08
256.086	24.69
256.303	30.76
256.521	29.75
256.738	1.45
256.956	4.93
257.173	14.32
257.39	-5.82
257.608	2.55
257.825	12.88
258.043	18.24
258.26	12.27
258.477	16.99
258.695	4.14
258.912	-25
259.129	-22.19
259.346	-39.48
259.564	-30.67
259.781	-20.12
259.998	-2.16
260.216	21.61
260.433	34.47
260.65	17.76
260.867	25.98
261.084	1.39
261.302	-25.73
261.519	-8.21
261.736	-12.01
261.953	-21.63
262.17	-6.25
262.387	5.57
262.604	-9.29
262.822	1.83
263.039	-2.62
263.256	-0.18
263.473	4.57
263.69	-6.55
263.907	-0.52
264.124	10.13
264.341	24.62
264.558	5.86
264.775	16.94
264.992	23.81
265.209	29.74
265.426	19.29
265.643	28.76
265.86	32.19
266.077	42.78
266.294	31.64
266.51	42.06
266.727	27.25
266.944	50.61
267.161	12.36
267.378	34.12
267.595	32.47
267.812	12.5
268.028	-4.95
268.245	0.18
268.462	-33.27
268.679	-41.11
268.896	-1.69
269.112	-18.35
269.329	-1
269.546	28.31
269.763	31.7
269.979	28.57
270.196	35.58
270.413	24.35
270.629	0.6
270.846	3.65
271.063	20.85
271.279	8.37
271.496	-6.98
271.712	-17.89
271.929	-19.08
272.146	-16.7
272.362	-14.03
272.579	29.78
272.795	36.33
273.012	30.84
273.228	19.75
273.445	12.66
273.661	-26.73
273.878	-59.39
274.094	-48.54
274.311	-48.36
274.527	-29.59
274.744	-17.36
274.96	12.33
275.177	15.7
275.393	4.76
275.609	9.62
275.826	25.01
276.042	10.26
276.259	12.86
276.475	11.33
276.691	8.93
276.908	2.94
277.124	33.65
277.34	21.12
277.557	22.44
277.773	24.83
277.989	15.3
278.205	11.95
278.422	6.38
278.638	16.34
278.854	14.67
279.07	19.72
279.286	-8.8
279.503	-0.7
279.719	-4
279.935	-20.59
280.151	-29.65
280.367	-1.37
280.583	6.05
280.799	-0.26
281.016	20.05
281.232	25.88
281.448	26.34
281.664	34.22
281.88	39.31
282.096	26.17
282.312	34.83
282.528	41.43
282.744	34.87
282.96	27.91
283.176	39.55
283.392	35.37
283.608	26.94
283.824	25.16
284.04	32.33
284.256	39.39
284.471	36.43
284.687	31.48
284.903	27.27
285.119	32
285.335	-3.69
285.551	4.89
285.767	2.87
285.982	-14.82
286.198	-22.75
286.414	11.35
286.63	-3.64
286.846	8.54
287.061	4.27
287.277	5.51
287.493	-7.56
287.709	6.25
287.924	3.76
288.14	28.75
288.356	36.52
288.571	54.84
288.787	46.38
289.003	47.22
289.218	24.32
289.434	4.49
289.65	11
289.865	12.67
290.081	11.77
290.296	20.21
290.512	17.58
290.727	15.58
290.943	8.25
291.159	5.36
291.374	1.74
291.59	-1.04
291.805	-12.65
292.021	-10.66
292.236	-17.01
292.451	-4.32
292.667	12.71
292.882	24.15
293.098	39.68
293.313	43.49
293.529	29.97
293.744	7.13
293.959	-13.8
294.175	-26.4
294.39	-17.41
294.605	-6.38
294.821	-1.13
295.036	-8.27
295.251	-0.01
295.467	-4.23
295.682	-0.13
295.897	-11.65
296.112	-8.1
296.328	-7.22
296.543	-11.75
296.758	-29.87
296.973	6.66
297.188	28.11
297.404	5.68
297.619	7.56
297.834	10.07
298.049	-0.01
298.264	-10.06
298.479	15.55
298.694	18.81
298.909	26.97
299.125	29
299.34	30.15
299.555	19.5
299.77	13.13
299.985	-15.42
300.2	-33.73
300.415	-49.74
300.63	-40.19
300.845	-33.24
301.06	-23.21
301.275	-22.81
301.49	-9.74
301.704	-12.26
301.919	-37.12
302.134	-41.64
302.349	3.93
302.564	-9.64
302.779	-2.07
302.994	39.98
303.209	46
303.423	34.13
303.638	41.71
303.853	31.74
304.068	-6.87
304.283	-8.17
304.497	-4.14
304.712	1.31
304.927	4.87
305.142	13.62
305.356	16.57
305.571	16.23
305.786	20.93
306	13.51
306.215	13.02
306.43	-6.9
306.644	2.43
306.859	-10.66
307.074	-17.64
307.288	-37.01
307.503	-25.2
307.717	-40
307.932	-29.76
308.147	-17.54
308.361	1.47
308.576	-7.76
308.79	-46.07
309.005	-22.12
309.219	-30.06
309.434	-25.31
309.648	-20.97
309.863	17.05
310.077	-16.9
310.292	6.29
310.506	-17.57
310.72	0.6
310.935	23.01
311.149	33.26
311.364	21.07
311.578	52.68
311.792	44.42
312.007	34
312.221	10.63
312.435	18.9
312.649	-8.16
312.864	18.04
313.078	4.81
313.292	39.74
313.507	28.69
313.721	31.85
313.935	-0.32
314.149	23.78
314.363	17.92
314.578	12.16
314.792	0.86
315.006	19.22
315.22	2.27
315.434	1.66
315.648	8.45
315.862	2.21
316.077	-6.68
316.291	-0.38
316.505	-6.28
316.719	-4.05
316.933	-15.06
317.147	4.85
317.361	3.52
317.575	-0.5
317.789	-4.5
318.003	5.43
318.217	0.82
318.431	14.09
318.645	16.49
318.859	14.39
319.073	24.09
319.287	15.82
319.5	-6.8
319.714	-14.08
319.928	-17.44
320.142	-35.03
320.356	-5.02
320.57	14.73
320.784	11.56
320.997	15.34
321.211	22.16
321.425	-2.03
321.639	-48.56
321.853	-32.57
322.066	-32.99
322.28	-37.08
322.494	-28.69
322.707	22.86
322.921	18.39
323.135	22.6
323.349	20.13
323.562	9.65
323.776	-10.23
323.989	-5.84
324.203	-10.27
324.417	3.53
324.63	5.37
324.844	3.59
325.057	-7.05
325.271	-27.54
325.485	-32.62
325.698	-13.27
325.912	-1.06
326.125	-7.5
326.339	26.69
326.552	39.42
326.766	32.47
326.979	18.76
327.193	32.04
327.406	15.94
327.619	0.22
327.833	13.17
328.046	14.46
328.26	7.29
328.473	-1.71
328.686	-2.81
328.9	-6.74
329.113	-0.64
329.326	-9.36
329.54	10.11
329.753	18.65
329.966	13.32
330.179	18.79
330.393	28.43
330.606	29.41
330.819	32.72
331.032	31.69
331.246	29.03
331.459	27.82
331.672	11.33
331.885	-4.27
332.098	-18.56
332.311	-18.22
332.525	-17.92
332.738	-6.49
332.951	1.56
333.164	9.95
333.377	24.15
333.59	24.28
333.803	17.01
334.016	4.62
334.229	0.11
334.442	-14.76
334.655	0.9
334.868	8.9
335.081	30.49
335.294	29.85
335.507	41.88
335.72	34.25
335.933	25.39
336.146	11.35
336.359	18.72
336.572	-12.37
336.785	-24.78
336.997	-25.53
337.21	-6.29
337.423	-6.1
337.636	12.38
337.849	17.7
338.062	16.93
338.274	14.01
338.487	12.19
338.7	-0.77
338.913	-14.29
339.125	-15.88
339.338	-5.64
339.551	-12.2
339.763	16.98
339.976	36.62
340.189	42.64
340.402	31.49
340.614	28.74
340.827	3.3
341.039	-14.09
341.252	-22.12
341.465	-38.51
341.677	-36.35
341.89	-47.3
342.102	-27.98
342.315	-24.16
342.527	-26.83
342.74	-16.28
342.952	16.09
343.165	13.9
343.377	27.01
343.59	32.38
343.802	48.62
344.015	43.41
344.227	43.28
344.44	30.15
344.652	17.2
344.864	0.29
345.077	8.32
345.289	17.31
345.502	25.1
345.714	27.28
345.926	30
346.139	19.43
346.351	12.64
346.563	2.05
346.775	13.86
346.988	-1.03
347.2	-12.59
347.412	-27.36
347.624	-16.25
347.837	-19.52
348.049	-13.07
348.261	8.43
348.473	11.08
348.685	-11.65
348.897	-16.08
349.11	-16.1
349.322	-22.15
349.534	-2.67
349.746	12.83
349.958	20.36
350.17	18.25
350.382	22.53
350.594	22.84
350.806	25.04
351.018	21.43
351.23	22.59
351.442	28.94
351.654	27.73
351.866	23.11
352.078	30.07
352.29	14.48
352.502	-3.98
352.714	8.63
352.926	21.03
353.138	13
353.35	13.02
353.561	18.45
353.773	13.84
353.985	15.21
354.197	11.68
354.409	18.4
354.621	8.77
354.832	17.17
355.044	0.93
355.256	7.2
355.468	12.92
355.679	8.78
355.891	-3.23
356.103	2.15
356.314	-8.63
356.526	-1.09
356.738	25.15
356.949	23.61
357.161	21.86
357.373	26.56
357.584	10.42
357.796	-7.65
358.008	-22.16
358.219	-4.76
358.431	-4.23
358.642	-5.92
358.854	7.41
359.065	15.67
359.277	2.19
359.488	-3.46
359.7	-14.21
359.911	-27.25
360.123	-21.13
360.334	-24.97
360.546	-22.7
360.757	-5.32
360.969	0.38
361.18	6.69
361.391	3.65
361.603	-11.17
361.814	-0.73
362.025	-10.33
362.237	-6.64
362.448	11.71
362.659	23.5
362.871	21.09
363.082	20.6
363.293	23.94
363.504	14.79
363.716	21
363.927	23.82
364.138	23.82
364.349	2.04
364.56	0.89
364.772	-20.65
364.983	-17.12
365.194	-30.36
365.405	-21.32
365.616	-28.84
365.827	-23.15
366.038	-26.49
366.25	4.41
366.461	8.62
366.672	21.54
366.883	29.48
367.094	25.84
367.305	5.26
367.516	8.26
367.727	6.01
367.938	-2.47
368.149	2.28
368.36	19.04
368.571	17.64
368.781	13.33
368.992	4.95
369.203	17.52
369.414	3.75
369.625	-8.48
369.836	-10.87
370.047	-8.76
370.258	-23.35
370.468	-19.9
370.679	-29.14
370.89	-26.72
371.101	-8.53
371.312	-26.61
371.522	-27.26
371.733	-10.82
371.944	5.18
372.155	12.07
372.365	1.66
372.576	11.25
372.787	9.49
372.997	-0.01
373.208	-3.25
373.419	13.71
373.629	-6.63
373.84	-12.32
374.05	-29.43
374.261	-13.95
374.472	-26.04
374.682	-15.9
374.893	-14.98
375.103	6.7
375.314	-2.13
375.524	9.24
375.735	19.3
375.945	23.03
376.156	7.05
376.366	11.33
376.577	17.28
376.787	22.8
376.997	29.39
377.208	36.75
377.418	15.43
377.629	12.85
377.839	2.13
378.049	0.42
378.26	6.44
378.47	24.99
378.68	28.47
378.89	26.25
379.101	19.52
379.311	9.97
379.521	-7.75
379.732	-12.58
379.942	-28.71
380.152	-16.12
380.362	-7.79
380.572	-4.04
380.783	8.16
380.993	19.53
381.203	16.88
381.413	14.84
381.623	14.74
381.833	1.08
382.043	-5.86
382.253	0.66
382.463	3.75
382.674	2.21
382.884	5.41
383.094	7.44
383.304	8.31
383.514	7.42
383.724	15.45
383.934	1.33
384.144	-3.29
384.353	-8.48
384.563	-2.29
384.773	1.75
384.983	11
385.193	18.94
385.403	11.43
385.613	7.78
385.823	2.19
386.033	8.01
386.242	2.29
386.452	11.75
386.662	8.83
386.872	12.52
387.082	12.71
387.291	7.9
387.501	7.43
387.711	5.57
387.921	-6.82
388.13	-5.23
388.34	1.68
388.55	-0.54
388.759	3.08
388.969	10.62
389.179	5.83
389.388	6.91
389.598	5.23
389.807	3.67
390.017	4.33
390.227	7.52
390.436	5.7
390.646	11.54
390.855	12.71
391.065	13.76
391.274	8.26
391.484	5.16
391.693	2.48
391.903	2.67
392.112	3.29
392.322	7.71
392.531	12.89
392.74	12.35
392.95	8.3
393.159	7.61
393.369	8.07
393.578	5.02
393.787	4.9
393.997	9.03
394.206	8.3
394.415	8.34
394.625	8.35
394.834	6.83
395.043	5.38
395.252	5.66
395.462	6.19
395.671	6.81
395.88	8.66
396.089	8.99
396.298	8.78
396.508	8.09
396.717	8.73
396.926	8
397.135	8.21
397.344	8.17
397.553	8.05
397.762	8.05
397.971	8.08
398.181	8.22
398.39	7.3
398.599	7.23
398.808	6.85
399.017	7.15
399.226	7
399.435	7.98
399.644	7.82
399.853	7.36
400.062	7.24
400.27	6.9
400.479	6.41
400.688	6.11
400.897	6.57
401.106	6.39
401.315	6.28
401.524	6.24
401.733	6.49
401.941	6.4
402.15	6.42
402.359	6.49
402.568	6.86
402.777	6.85
402.985	6.63
403.194	6.61
403.403	6.5
403.612	6
403.82	5.93
404.029	5.99
404.238	5.68
404.446	5.86
404.655	5.81
404.864	6.01
405.072	5.87
405.281	6.12
405.489	5.82
405.698	5.81
405.906	5.6
406.115	5.52
406.324	5.41
406.532	5.57
406.741	5.9
406.949	5.89
407.158	6
407.366	6.13
407.574	6.11
407.783	5.84
407.991	5.76
408.2	5.71
408.408	5.56
408.617	5.57
408.825	5.55
409.033	5.63
409.242	5.75
409.45	5.86
409.658	5.71
409.867	5.85
410.075	5.76
410.283	5.56
410.491	5.44
410.7	5.34
410.908	5.26
411.116	5.32
411.324	5.3
411.533	5.35
411.741	5.43
411.949	5.36
412.157	5.2
412.365	5.42
412.573	5.35
412.781	5.33
412.99	5.38
413.198	5.49
413.406	5.41
413.614	5.4
413.822	5.53
414.03	5.45
414.238	5.29
414.446	5.27
414.654	5.11
414.862	4.99
415.07	5.03
415.278	5.25
415.486	4.94
415.694	5.13
415.902	5.11
416.109	4.99
416.317	4.97
416.525	4.95
416.733	5.06
416.941	5.29
417.149	5.3
417.357	5.24
417.564	5.54
417.772	5.26
417.98	5.06
418.188	5.09
418.395	4.92
418.603	4.97
418.811	4.89
419.019	4.73
419.226	4.9
419.434	5.09
419.642	4.89
419.849	4.9
420.057	5.09
420.265	4.98
420.472	4.86
420.68	4.9
420.887	4.82
421.095	4.76
421.302	4.67
421.51	4.79
421.717	4.88
421.925	4.92
422.132	4.88
422.34	4.76
422.547	4.61
422.755	4.68
422.962	4.79
423.17	4.75
423.377	4.81
423.585	4.96
423.792	4.7
423.999	4.75
424.207	4.81
424.414	4.89
424.621	4.79
424.829	4.8
425.036	4.72
425.243	4.52
425.451	4.48
425.658	4.4
425.865	4.46
426.072	4.46
426.28	4.43
426.487	4.41
426.694	4.38
426.901	4.46
427.108	4.43
427.315	4.53
427.523	4.66
427.73	4.85
427.937	4.52
428.144	4.43
428.351	4.52
428.558	4.32
428.765	4.07
428.972	4.21
429.179	4.34
429.386	4.44
429.593	4.57
429.8	4.62
430.007	4.71
430.214	4.68
430.421	4.67
430.628	4.68
430.835	4.55
431.042	4.75
431.249	4.76
431.456	4.79
431.662	4.85
431.869	5.03
432.076	4.79
432.283	4.83
432.49	4.64
432.697	4.56
432.903	4.28
433.11	4.38
433.317	4.45
433.524	4.56
433.73	4.48
433.937	4.82
434.144	4.79
434.35	4.66
434.557	4.54
434.764	4.62
434.97	4.55
435.177	4.54
435.384	4.28
435.59	4.37
435.797	4.32
436.003	4.32
436.21	4.33
436.416	4.52
436.623	4.48
436.829	4.55
437.036	4.56
437.242	4.56
437.449	4.6
437.655	4.55
437.862	4.57
438.068	4.59
438.275	4.7
438.481	4.82
438.687	4.85
438.894	4.79
439.1	4.74
439.307	4.63
439.513	4.51
439.719	4.55
439.926	4.56
440.132	4.56
440.338	4.57
440.544	4.65
440.751	4.57
440.957	4.59
441.163	4.46
441.369	4.49
441.575	4.46
441.782	4.45
441.988	4.37
442.194	4.34
442.4	4.34
442.606	4.52
442.812	4.58
443.018	4.68
443.224	4.8
443.431	4.84
443.637	4.68
443.843	4.56
444.049	4.56
444.255	4.57
444.461	4.57
444.667	4.49
444.873	4.55
445.079	4.57
445.284	4.57
445.49	4.42
445.696	4.23
445.902	4.17
446.108	4.18
446.314	4.19
446.52	4.38
446.726	4.69
446.931	4.7
447.137	4.68
447.343	4.73
447.549	4.55
447.755	4.5
447.96	4.66
448.166	4.59
448.372	4.64
448.578	4.67
448.783	4.6
448.989	4.65
449.195	4.79
449.4	4.61
449.606	4.59
449.812	4.55
450.017	4.6
450.223	4.49
450.428	4.37
450.634	4.38
450.84	4.48
451.045	4.32
451.251	4.21
451.456	4.48
451.662	4.6
451.867	4.62
452.073	4.52
452.278	4.69
452.483	4.65
452.689	4.65
452.894	4.74
453.1	4.92
453.305	4.73
453.51	4.66
453.716	4.58
453.921	4.46
454.127	4.39
454.332	4.45
454.537	4.42
454.742	4.51
454.948	4.55
455.153	4.49
455.358	4.58
455.563	4.66
455.769	4.66
455.974	4.62
456.179	4.61
456.384	4.53
456.589	4.51
456.795	4.38
457	4.4
457.205	4.48
457.41	4.5
457.615	4.42
457.82	4.48
458.025	4.54
458.23	4.41
458.435	4.5
458.64	4.4
458.845	4.45
459.05	4.34
459.255	4.38
459.46	4.3
459.665	4.39
459.87	4.34
460.075	4.26
460.28	4.3
460.485	4.37
460.69	4.42
460.895	4.27
461.099	4.31
461.304	4.41
461.509	4.35
461.714	4.29
461.919	4.41
462.123	4.48
462.328	4.52
462.533	4.39
462.738	4.37
462.942	4.35
463.147	4.32
463.352	4.23
463.556	4.24
463.761	4.25
463.966	4.32
464.17	4.36
464.375	4.33
464.58	4.34
464.784	4.37
464.989	4.23
465.193	4.27
465.398	4.31
465.602	4.5
465.807	4.48
466.011	4.61
466.216	4.56
