Data from Ofra_PP_Phys_0GT15_Reflection_1.txt Node
Date: Sat Jul 24 20:00:08 EDT 2021
User: USUARIO
Spectrometer: FLMT01687
Trigger mode: 0
Integration Time (sec): 1.100000E0
Scans to average: 2
Electric dark correction enabled: true
Nonlinearity correction enabled: false
Boxcar width: 2
XAxis mode: Wavelengths
Number of Pixels in Spectrum: 3648
>>>>>Begin Spectral Data<<<<<
179.494	350.89
179.716	431.4
179.937	756.47
180.158	646.3
180.38	318.85
180.601	-320.9
180.823	51.59
181.044	-559.69
181.265	86.16
181.486	94.73
181.708	3.78
181.929	-717.33
182.15	635.34
182.372	87.2
182.593	-28333.33
182.814	333.33
183.035	-22.31
183.257	5.26
183.478	-9.46
183.699	-38.03
183.92	-72.27
184.141	-19.24
184.363	-19.84
184.584	9.58
184.805	19.87
185.026	34.06
185.247	36.56
185.468	18.58
185.689	15.18
185.91	2.96
186.132	-16.43
186.353	-9.53
186.574	14.26
186.795	19.89
187.016	9.79
187.237	42.11
187.458	52.55
187.679	50.28
187.9	71.08
188.121	88.84
188.342	51.73
188.563	68.6
188.784	70.26
189.005	40.6
189.226	40.01
189.447	48.84
189.667	50.19
189.888	44.07
190.109	19.94
190.33	1.85
190.551	-10.11
190.772	-37.71
190.993	-49.68
191.214	-24.7
191.434	-16.27
191.655	0.49
191.876	1.08
192.097	8.36
192.318	-3.1
192.538	-19.16
192.759	-18.34
192.98	-20.9
193.201	-26.55
193.421	-23.12
193.642	2.1
193.863	-3.27
194.083	0.7
194.304	6.47
194.525	18.66
194.745	-4.32
194.966	-31.65
195.187	-44.62
195.407	-70.48
195.628	-78.15
195.848	-39.5
196.069	-30.98
196.29	-28.44
196.51	-63.15
196.731	-100.92
196.951	-90.43
197.172	-66.84
197.392	-55.38
197.613	-38.27
197.833	-34.53
198.054	-69.46
198.274	-51.88
198.495	-103.29
198.715	-41.15
198.936	-50.2
199.156	-15.42
199.377	-30.49
199.597	-13.31
199.817	-29.1
200.038	18.9
200.258	52.06
200.479	41.51
200.699	48.93
200.919	29.33
201.14	-3.14
201.36	-9.94
201.58	-21.71
201.801	-34.03
202.021	-10.89
202.241	5.36
202.461	-7.11
202.682	13.32
202.902	43.89
203.122	16.66
203.342	13.57
203.563	12.27
203.783	19.39
204.003	-39.26
204.223	-132.41
204.443	-89.96
204.663	-72.29
204.884	-62.64
205.104	-30.81
205.324	35.73
205.544	39.71
205.764	20.76
205.984	7.57
206.204	-1.34
206.424	-30.11
206.644	-41.88
206.864	-7.03
207.084	-31.27
207.304	-34.6
207.525	-47.66
207.745	-38.39
207.964	-57.85
208.184	-26.64
208.404	-4
208.624	-5.31
208.844	-2.91
209.064	-20.78
209.284	-11.57
209.504	-30.95
209.724	-9.74
209.944	-20.17
210.164	-13.47
210.384	-11.57
210.604	-6.75
210.823	-27.64
211.043	-45.23
211.263	-23.22
211.483	-28.62
211.703	-26.09
211.922	-12.49
212.142	27.21
212.362	24.9
212.582	11.19
212.801	23.96
213.021	15.28
213.241	13.08
213.461	-4.9
213.68	-2.29
213.9	-33.08
214.12	-30.82
214.339	-36.17
214.559	-15.32
214.779	-20.37
214.998	-3.87
215.218	-1.33
215.438	-19.16
215.657	-57.09
215.877	-31.31
216.096	-16.26
216.316	-17.32
216.535	-6.17
216.755	17.52
216.974	18.76
217.194	11.12
217.413	-3.66
217.633	-17.16
217.852	-55.56
218.072	-63.35
218.291	-66.81
218.511	-30.48
218.73	-50.45
218.95	-35.32
219.169	-24.74
219.389	-39.5
219.608	-58.11
219.827	-25.75
220.047	-25.82
220.266	-34.54
220.485	-21.66
220.705	2.22
220.924	-15.15
221.143	5.43
221.363	-22.81
221.582	-10.19
221.801	-33.47
222.021	-15.89
222.24	-17.1
222.459	9.38
222.678	-19.32
222.897	15.85
223.117	5.78
223.336	3.11
223.555	25.34
223.774	55.42
223.993	26.86
224.213	39.23
224.432	34.31
224.651	26.11
224.87	28.47
225.089	47.51
225.308	39.23
225.527	51.01
225.746	50.08
225.965	46.23
226.184	17.75
226.404	23.19
226.623	10.26
226.842	1.25
227.061	9.77
227.28	22.01
227.499	32.9
227.718	48.96
227.936	39.19
228.155	24.45
228.374	8.39
228.593	-11.85
228.812	-15.71
229.031	8.07
229.25	-5.65
229.469	13.07
229.688	17.33
229.907	17.17
230.125	11.8
230.344	21.18
230.563	20.77
230.782	42.87
231.001	13.12
231.22	20.36
231.438	14.08
231.657	10.91
231.876	-14.75
232.095	0.19
232.313	-9.28
232.532	-0.38
232.751	0.75
232.969	15.97
233.188	7.37
233.407	0.81
233.625	3.51
233.844	-0.5
234.063	-17.76
234.281	13.58
234.5	25.14
234.719	9.93
234.937	-1.83
235.156	-12.28
235.374	-11.91
235.593	0.03
235.811	9.13
236.03	16.15
236.249	23.06
236.467	39.21
236.686	14.69
236.904	12.81
237.123	-25.12
237.341	-20.23
237.559	-35.87
237.778	-21.07
237.996	-32.68
238.215	2.23
238.433	-0.82
238.652	-5.69
238.87	-30.01
239.088	-18.6
239.307	-10.11
239.525	-13.69
239.743	-12.38
239.962	4.26
240.18	-12.3
240.398	-45.92
240.617	-50.12
240.835	-43.1
241.053	-75.85
241.271	-59.04
241.49	-26.37
241.708	-9.64
241.926	-23.79
242.144	8.91
242.363	4.86
242.581	4.14
242.799	6.08
243.017	5.8
243.235	-9.67
243.453	2.09
243.672	-4.83
243.89	0.66
244.108	30.03
244.326	47.94
244.544	45.73
244.762	36.45
244.98	38.74
245.198	25.78
245.416	9.45
245.634	-14.84
245.852	10.49
246.07	-1.67
246.288	-6.38
246.506	4.49
246.724	25.12
246.942	10.79
247.16	17.95
247.378	23.72
247.596	11.25
247.814	5.6
248.032	-0.88
248.25	-16.49
248.468	-23.29
248.685	0.34
248.903	11.66
249.121	14.6
249.339	-7.53
249.557	-9.86
249.775	-61.3
249.992	-112.43
250.21	-105.65
250.428	-61.99
250.646	-51.02
250.863	-29.63
251.081	-5.27
251.299	1.79
251.517	-7.17
251.734	-16.59
251.952	-7.35
252.17	10.41
252.387	17.6
252.605	14.65
252.823	20.33
253.04	7.18
253.258	-0.3
253.475	1.27
253.693	6.93
253.911	25.27
254.128	35.69
254.346	34.75
254.563	13.34
254.781	8.56
254.998	-3.72
255.216	-19.64
255.433	-31.26
255.651	-7.83
255.868	-8.68
256.086	-14.69
256.303	17.99
256.521	19.75
256.738	2.41
256.956	3.95
257.173	10.64
257.39	-10.08
257.608	0.28
257.825	5.68
258.043	13
258.26	14.27
258.477	7.64
258.695	6.41
258.912	-11.24
259.129	-19.78
259.346	-41.21
259.564	-31.34
259.781	-11.49
259.998	1.17
260.216	15.48
260.433	32.36
260.65	14.03
260.867	7.59
261.084	-2.49
261.302	-0.78
261.519	3.64
261.736	17.07
261.953	8.33
262.17	25.12
262.387	23.52
262.604	18.59
262.822	14.02
263.039	16.71
263.256	-1.76
263.473	-5.7
263.69	-18.18
263.907	-3.16
264.124	-4.2
264.341	9.88
264.558	5.9
264.775	11.97
264.992	3.57
265.209	8.48
265.426	-1.37
265.643	-3.46
265.86	-3.98
266.077	-0.87
266.294	-4.52
266.51	4.4
266.727	6.25
266.944	10.12
267.161	7.42
267.378	11.22
267.595	16.89
267.812	-4.55
268.028	19.92
268.245	16.89
268.462	10.34
268.679	6.82
268.896	24.1
269.112	-0.3
269.329	0.17
269.546	18.99
269.763	17.49
269.979	22.65
270.196	24.63
270.413	40.43
270.629	15.58
270.846	19.64
271.063	20.89
271.279	6.79
271.496	-17.05
271.712	-4.35
271.929	-5.77
272.146	-13.8
272.362	-9.37
272.579	19.89
272.795	20.1
273.012	10.13
273.228	24.49
273.445	30.28
273.661	1.75
273.878	-35
274.094	-30.32
274.311	-46.36
274.527	-35.66
274.744	-10.15
274.96	26.58
275.177	27.59
275.393	34.02
275.609	32.82
275.826	26.63
276.042	11.16
276.259	16.69
276.475	0.62
276.691	3.45
276.908	13.06
277.124	30.74
277.34	18.94
277.557	25.71
277.773	13.59
277.989	4.46
278.205	1.77
278.422	3.22
278.638	7.12
278.854	-0.61
279.07	-7.13
279.286	-23.12
279.503	-16.25
279.719	-23.24
279.935	-18.18
280.151	-19.14
280.367	4.22
280.583	11.22
280.799	15.15
281.016	21.75
281.232	29.4
281.448	25.31
281.664	23.38
281.88	20.97
282.096	16.26
282.312	28.4
282.528	33.91
282.744	34.77
282.96	39.55
283.176	42.15
283.392	25.67
283.608	26.01
283.824	23.78
284.04	18.76
284.256	28.97
284.471	29.85
284.687	36.63
284.903	29.3
285.119	38.59
285.335	15.71
285.551	12.36
285.767	-6.55
285.982	-5.34
286.198	-6.57
286.414	16.36
286.63	5.65
286.846	7.26
287.061	-10.33
287.277	-15.13
287.493	-19.65
287.709	6.63
287.924	5.92
288.14	33.01
288.356	50.42
288.571	43.67
288.787	27.67
289.003	29.58
289.218	8.45
289.434	-32.99
289.65	5.19
289.865	14.78
290.081	13.1
290.296	13.2
290.512	18.13
290.727	18.13
290.943	5.52
291.159	-1.88
291.374	-0.48
291.59	-14.09
291.805	-14.53
292.021	-1.91
292.236	7.23
292.451	8.37
292.667	19.26
292.882	13.15
293.098	14.02
293.313	4.66
293.529	-0.51
293.744	-15.47
293.959	-12.65
294.175	-6.28
294.39	3.2
294.605	15.65
294.821	16.59
295.036	7.58
295.251	3.55
295.467	12.54
295.682	12.62
295.897	3.51
296.112	-1.31
296.328	-4.53
296.543	-3.69
296.758	-27.12
296.973	2.1
297.188	27.99
297.404	21.49
297.619	17.09
297.834	36.07
298.049	29.56
298.264	12.36
298.479	25.69
298.694	23
298.909	28.13
299.125	38.58
299.34	38.95
299.555	31.56
299.77	34.27
299.985	-3.47
300.2	-35.07
300.415	-44.93
300.63	-30.93
300.845	-34.31
301.06	-33.55
301.275	-25.64
301.49	-7.36
301.704	-19.96
301.919	-18.62
302.134	-27.12
302.349	2
302.564	-28.38
302.779	-12.62
302.994	22.27
303.209	30.36
303.423	11.85
303.638	30.92
303.853	28.42
304.068	-5.27
304.283	5.66
304.497	7.99
304.712	12.65
304.927	6.95
305.142	2.19
305.356	0.02
305.571	-1.11
305.786	-0.98
306	-10.42
306.215	-5.05
306.43	-20.66
306.644	-4.19
306.859	-4.95
307.074	-0.66
307.288	-3.9
307.503	7.09
307.717	-1.03
307.932	-9.94
308.147	0.39
308.361	12.19
308.576	15.34
308.79	-17.37
309.005	9.88
309.219	-1.67
309.434	3.15
309.648	2.26
309.863	22.94
310.077	15.56
310.292	19.72
310.506	11.51
310.72	14.4
310.935	15.73
311.149	12.12
311.364	12.1
311.578	16.97
311.792	22.69
312.007	32.44
312.221	20.66
312.435	24.47
312.649	7.04
312.864	-8.03
313.078	-36.56
313.292	-25.59
313.507	-30.82
313.721	-4.71
313.935	-22.64
314.149	15.89
314.363	23.46
314.578	23.09
314.792	-8.71
315.006	20.65
315.22	-11.87
315.434	-14.5
315.648	-12.74
315.862	-6.95
316.077	-18.29
316.291	17.58
316.505	9.65
316.719	9.93
316.933	-3.73
317.147	5.37
317.361	-19.75
317.575	-17.44
317.789	-21.09
318.003	-9.8
318.217	-18.25
318.431	6.11
318.645	4.67
318.859	8.07
319.073	19.28
319.287	10.64
319.5	-1.88
319.714	-9.99
319.928	-9.78
320.142	-15.71
320.356	14.01
320.57	10.66
320.784	13.31
320.997	13.57
321.211	10.38
321.425	1.03
321.639	-4.8
321.853	6.6
322.066	0.32
322.28	1.72
322.494	-10.31
322.707	17.11
322.921	12.29
323.135	15.55
323.349	12.92
323.562	15.21
323.776	-9.78
323.989	-12.95
324.203	-21.08
324.417	-8.63
324.63	-26.88
324.844	-31.38
325.057	-32.08
325.271	-40.66
325.485	-61.75
325.698	-14.69
325.912	9.11
326.125	12.5
326.339	24.33
326.552	32.42
326.766	23.3
326.979	4.59
327.193	18.38
327.406	12.12
327.619	21.99
327.833	25.63
328.046	25.6
328.26	12.84
328.473	14.63
328.686	4.57
328.9	-4.85
329.113	-0.48
329.326	-10.43
329.54	3.24
329.753	-5.51
329.966	-4.55
330.179	16.03
330.393	35.23
330.606	27.18
330.819	41.91
331.032	38.55
331.246	34.05
331.459	32.54
331.672	17.15
331.885	3.43
332.098	1.96
332.311	-0.22
332.525	-1.98
332.738	5.36
332.951	11.86
333.164	16.68
333.377	21
333.59	25.07
333.803	26.14
334.016	12.17
334.229	5.51
334.442	10.64
334.655	7.46
334.868	19.3
335.081	20.88
335.294	15.56
335.507	6.38
335.72	11.6
335.933	-8.32
336.146	-8.83
336.359	0.86
336.572	-4.35
336.785	-15.43
336.997	-4.03
337.21	4.39
337.423	6.75
337.636	12.31
337.849	16.43
338.062	13.22
338.274	22.74
338.487	14.94
338.7	10.12
338.913	-5
339.125	-2.48
339.338	4.57
339.551	3.93
339.763	17.64
339.976	32.4
340.189	28.74
340.402	15.37
340.614	29.64
340.827	13.74
341.039	-0.34
341.252	-8.61
341.465	-18.38
341.677	-50.79
341.89	-64.97
342.102	-31.16
342.315	-17.83
342.527	-12.81
342.74	8.67
342.952	23.12
343.165	6.92
343.377	0.54
343.59	2.7
343.802	7.58
344.015	16.04
344.227	21.93
344.44	25.05
344.652	24.98
344.864	18.72
345.077	10.97
345.289	17.06
345.502	22.9
345.714	19.31
345.926	19.88
346.139	13.08
346.351	12.25
346.563	-1.12
346.775	-4.32
346.988	-11.27
347.2	-11.13
347.412	-19.27
347.624	-7.54
347.837	10.59
348.049	21.06
348.261	26.67
348.473	26.17
348.685	17.55
348.897	8.06
349.11	1.18
349.322	-8.76
349.534	0.69
349.746	5.44
349.958	16.08
350.17	18.38
350.382	29.82
350.594	28.61
350.806	40.66
351.018	31.25
351.23	32.64
351.442	32.7
351.654	33.14
351.866	28.79
352.078	28.47
352.29	22.71
352.502	15.01
352.714	41.12
352.926	40.86
353.138	32.55
353.35	25.27
353.561	21.2
353.773	3.37
353.985	14.46
354.197	22.12
354.409	33.27
354.621	29.13
354.832	29.35
355.044	18.5
355.256	5.99
355.468	0.35
355.679	-5.88
355.891	1.75
356.103	-0.94
356.314	8.27
356.526	16.76
356.738	31.22
356.949	26.95
357.161	26.84
357.373	27.32
357.584	23.65
357.796	26.89
358.008	20.65
358.219	25.98
358.431	23.5
358.642	16.94
358.854	19.07
359.065	26.26
359.277	22.83
359.488	22.93
359.7	16.17
359.911	1.48
360.123	-3.26
360.334	-13.43
360.546	-16.43
360.757	-8
360.969	3.93
361.18	14.3
361.391	21.25
361.603	19.58
361.814	16.85
362.025	-2.89
362.237	-4.04
362.448	2.89
362.659	9.99
362.871	-0.83
363.082	12.3
363.293	12.5
363.504	3.96
363.716	-2.47
363.927	11.87
364.138	9.65
364.349	-5.28
364.56	0.61
364.772	-2.68
364.983	-5.05
365.194	-20.07
365.405	-10.17
365.616	-26.51
365.827	-21.54
366.038	-10.78
366.25	18.11
366.461	4.33
366.672	12.21
366.883	16.66
367.094	8.84
367.305	-6.13
367.516	14.9
367.727	19.47
367.938	12.78
368.149	9.91
368.36	14.43
368.571	4.67
368.781	-0.63
368.992	-8.13
369.203	11.16
369.414	-1.43
369.625	-8.05
369.836	-6.19
370.047	-4.72
370.258	-17.04
370.468	-8.74
370.679	-14.55
370.89	-14.18
371.101	12.2
371.312	-1.05
371.522	7.1
371.733	17.51
371.944	25.22
372.155	13.46
372.365	14.14
372.576	16.59
372.787	12.8
372.997	-1.75
373.208	-1.47
373.419	2.8
373.629	-10.45
373.84	-2.81
374.05	-2.47
374.261	4.02
374.472	-0.31
374.682	1.75
374.893	-11.73
375.103	5.6
375.314	-8.58
375.524	-4.45
375.735	6.42
375.945	8.05
376.156	5.04
376.366	18.25
376.577	16.39
376.787	19.27
376.997	31.38
377.208	27.43
377.418	14.52
377.629	26.22
377.839	19
378.049	12.82
378.26	21.19
378.47	28.05
378.68	19.7
378.89	26.97
379.101	23.81
379.311	10.84
379.521	5.54
379.732	9.4
379.942	-15.82
380.152	-5.99
380.362	-1.39
380.572	-4.1
380.783	0.9
380.993	11.38
381.203	11.27
381.413	10.97
381.623	14.08
381.833	3.87
382.043	1.52
382.253	-5.2
382.463	5.46
382.674	5.44
382.884	6.23
383.094	8.66
383.304	18.75
383.514	12.09
383.724	8.5
383.934	4.79
384.144	0.08
384.353	-6.57
384.563	-2.4
384.773	5.22
384.983	13.35
385.193	19.82
385.403	12.27
385.613	13.06
385.823	9.68
386.033	6.77
386.242	3.69
386.452	9.16
386.662	3.53
386.872	6.2
387.082	5.64
387.291	-0.87
387.501	1.11
387.711	2.29
387.921	-5.48
388.13	2.51
388.34	8.72
388.55	4.26
388.759	4.71
388.969	6.78
389.179	1.67
389.388	0.53
389.598	2.81
389.807	3.03
390.017	6
390.227	4.81
390.436	5.39
390.646	8.82
390.855	8.33
391.065	9.56
391.274	9.09
391.484	6.72
391.693	3.35
391.903	2.82
392.112	1.06
392.322	3.84
392.531	7.06
392.74	6.27
392.95	5.08
393.159	5.16
393.369	5.04
393.578	2.6
393.787	2.96
393.997	4.52
394.206	4.44
394.415	4.48
394.625	5.19
394.834	4.44
395.043	4.18
395.252	4.12
395.462	3.84
395.671	3.71
395.88	5.14
396.089	5.61
396.298	5.8
396.508	5.64
396.717	6.42
396.926	5.43
397.135	5.3
397.344	5.01
397.553	5.02
397.762	4.95
397.971	5.46
398.181	5.39
398.39	5.08
398.599	4.78
398.808	4.33
399.017	4.32
399.226	4.19
399.435	4.56
399.644	4.81
399.853	4.72
400.062	4.39
400.27	4.41
400.479	4.26
400.688	4.03
400.897	4.31
401.106	4.26
401.315	3.95
401.524	4.05
401.733	4.17
401.941	4.07
402.15	4.15
402.359	4.42
402.568	4.19
402.777	4.07
402.985	3.91
403.194	4
403.403	3.71
403.612	3.74
403.82	3.98
404.029	3.92
404.238	3.95
404.446	4.08
404.655	4.01
404.864	3.79
405.072	3.77
405.281	3.8
405.489	3.57
405.698	3.67
405.906	3.65
406.115	3.63
406.324	3.31
406.532	3.48
406.741	3.62
406.949	3.54
407.158	3.61
407.366	3.75
407.574	3.75
407.783	3.45
407.991	3.57
408.2	3.57
408.408	3.54
408.617	3.45
408.825	3.45
409.033	3.44
409.242	3.42
409.45	3.46
409.658	3.39
409.867	3.5
410.075	3.52
410.283	3.44
410.491	3.48
410.7	3.43
410.908	3.41
411.116	3.26
411.324	3.14
411.533	3.07
411.741	3.19
411.949	3.23
412.157	3.25
412.365	3.48
412.573	3.36
412.781	3.35
412.99	3.26
413.198	3.26
413.406	3.11
413.614	3.22
413.822	3.17
414.03	3.25
414.238	3.13
414.446	3.21
414.654	3.08
414.862	3.09
415.07	3.03
415.278	3.21
415.486	2.94
415.694	3.13
415.902	3.14
416.109	3.08
416.317	3.03
416.525	3.06
416.733	3
416.941	2.97
417.149	2.96
417.357	2.92
417.564	3.02
417.772	2.86
417.98	2.82
418.188	2.89
418.395	2.83
418.603	2.93
418.811	3.01
419.019	2.85
419.226	2.86
419.434	3.01
419.642	2.91
419.849	2.83
420.057	3.07
420.265	2.92
420.472	2.74
420.68	2.83
420.887	2.9
421.095	2.89
421.302	2.98
421.51	3.09
421.717	3.13
421.925	3.06
422.132	3.12
422.34	3.02
422.547	2.88
422.755	2.87
422.962	3.01
423.17	2.88
423.377	3.02
423.585	3.07
423.792	2.98
423.999	2.9
424.207	2.81
424.414	2.61
424.621	2.67
424.829	2.64
425.036	2.54
425.243	2.54
425.451	2.51
425.658	2.4
425.865	2.4
426.072	2.55
426.28	2.54
426.487	2.49
426.694	2.54
426.901	2.59
427.108	2.54
427.315	2.61
427.523	2.79
427.73	2.77
427.937	2.61
428.144	2.48
428.351	2.51
428.558	2.37
428.765	2.29
428.972	2.27
429.179	2.33
429.386	2.36
429.593	2.59
429.8	2.58
430.007	2.74
430.214	2.74
430.421	2.7
430.628	2.51
430.835	2.46
431.042	2.6
431.249	2.64
431.456	2.74
431.662	2.94
431.869	2.97
432.076	2.84
432.283	2.83
432.49	2.66
432.697	2.56
432.903	2.53
433.11	2.62
433.317	2.64
433.524	2.71
433.73	2.61
433.937	2.7
434.144	2.59
434.35	2.56
434.557	2.48
434.764	2.45
434.97	2.53
435.177	2.58
435.384	2.43
435.59	2.57
435.797	2.67
436.003	2.46
436.21	2.46
436.416	2.6
436.623	2.46
436.829	2.52
437.036	2.62
437.242	2.46
437.449	2.44
437.655	2.47
437.862	2.45
438.068	2.48
438.275	2.54
438.481	2.66
438.687	2.6
438.894	2.56
439.1	2.52
439.307	2.62
439.513	2.48
439.719	2.56
439.926	2.53
440.132	2.51
440.338	2.49
440.544	2.57
440.751	2.55
440.957	2.59
441.163	2.44
441.369	2.47
441.575	2.41
441.782	2.39
441.988	2.29
442.194	2.44
442.4	2.31
442.606	2.37
442.812	2.45
443.018	2.46
443.224	2.53
443.431	2.67
443.637	2.58
443.843	2.53
444.049	2.58
444.255	2.49
444.461	2.4
444.667	2.36
444.873	2.44
445.079	2.46
445.284	2.52
445.49	2.48
445.696	2.46
445.902	2.38
446.108	2.39
446.314	2.35
446.52	2.4
446.726	2.54
446.931	2.5
447.137	2.48
447.343	2.5
447.549	2.34
447.755	2.25
447.96	2.34
448.166	2.36
448.372	2.43
448.578	2.49
448.783	2.52
448.989	2.5
449.195	2.53
449.4	2.43
449.606	2.53
449.812	2.51
450.017	2.56
450.223	2.52
450.428	2.4
450.634	2.34
450.84	2.36
451.045	2.31
451.251	2.22
451.456	2.36
451.662	2.4
451.867	2.42
452.073	2.35
452.278	2.45
452.483	2.45
452.689	2.48
452.894	2.52
453.1	2.64
453.305	2.56
453.51	2.49
453.716	2.42
453.921	2.43
454.127	2.39
454.332	2.41
454.537	2.42
454.742	2.48
454.948	2.44
455.153	2.4
455.358	2.4
455.563	2.51
455.769	2.52
455.974	2.43
456.179	2.46
456.384	2.42
456.589	2.38
456.795	2.24
457	2.32
457.205	2.32
457.41	2.29
457.615	2.26
457.82	2.38
458.025	2.39
458.23	2.32
458.435	2.43
458.64	2.38
458.845	2.41
459.05	2.31
459.255	2.34
459.46	2.34
459.665	2.35
459.87	2.35
460.075	2.32
460.28	2.36
460.485	2.37
460.69	2.35
460.895	2.22
461.099	2.24
461.304	2.29
461.509	2.28
461.714	2.27
461.919	2.35
462.123	2.34
462.328	2.34
462.533	2.26
462.738	2.29
462.942	2.24
463.147	2.33
463.352	2.32
463.556	2.28
463.761	2.24
463.966	2.27
464.17	2.32
464.375	2.29
464.58	2.39
464.784	2.41
464.989	2.4
465.193	2.31
465.398	2.29
465.602	2.34
465.807	2.32
466.011	2.41
466.216	2.57
466.42	2.58
466.625	2.54
466.829	2.69
467.034	2.68
467.238	2.56
