Data from Ofra_PP_Phys_2GT10K_Reflection_1.txt Node
Date: Sat Jul 24 20:12:13 EDT 2021
User: USUARIO
Spectrometer: FLMT01687
Trigger mode: 0
Integration Time (sec): 1.100000E0
Scans to average: 2
Electric dark correction enabled: true
Nonlinearity correction enabled: false
Boxcar width: 2
XAxis mode: Wavelengths
Number of Pixels in Spectrum: 3648
>>>>>Begin Spectral Data<<<<<
179.494	677.09
179.716	874.91
179.937	1538.96
180.158	1291.56
180.38	605.28
180.601	-726.77
180.823	-3.77
181.044	871.32
181.265	-89.18
181.486	-24.58
181.708	-226.49
181.929	-4058.67
182.15	803.21
182.372	-91.34
182.593	34133.33
182.814	1072.82
183.035	305.09
183.257	202.52
183.478	41.66
183.699	71.59
183.92	-3.58
184.141	42.51
184.363	-32.26
184.584	70.82
184.805	54.51
185.026	71.34
185.247	60.7
185.468	22.12
185.689	3.09
185.91	-11.43
186.132	-24.22
186.353	-10.77
186.574	33.32
186.795	39.56
187.016	-15.91
187.237	-0.39
187.458	-20.8
187.679	6.45
187.9	43.19
188.121	103.09
188.342	138.94
188.563	134.56
188.784	130.14
189.005	129.98
189.226	113.93
189.447	82.19
189.667	70.21
189.888	24.33
190.109	-12.93
190.33	-34.94
190.551	-62.59
190.772	-57.78
190.993	-64.95
191.214	-50.38
191.434	-62.04
191.655	9.57
191.876	-14.93
192.097	-17.01
192.318	-6.58
192.538	-26.8
192.759	-47.63
192.98	-31.23
193.201	-27.2
193.421	-70.15
193.642	-31.73
193.863	-14.91
194.083	-28.41
194.304	-7.65
194.525	19.35
194.745	34.69
194.966	-43.37
195.187	-63.27
195.407	-138.67
195.628	-168.09
195.848	-166.15
196.069	-176.51
196.29	-115.59
196.51	-171.17
196.731	-184.47
196.951	-155.47
197.172	-113.64
197.392	-127
197.613	-55.02
197.833	-51.78
198.054	-89.28
198.274	-64.65
198.495	-150.27
198.715	-125.25
198.936	-143.46
199.156	-83.43
199.377	-95.3
199.597	-70.84
199.817	-67.35
200.038	4.4
200.258	16.46
200.479	58.54
200.699	82.14
200.919	64.69
201.14	9.4
201.36	-21.51
201.58	-47.35
201.801	-22.37
202.021	-33.39
202.241	0.08
202.461	0.99
202.682	-16.95
202.902	-12.66
203.122	-22.23
203.342	-7.22
203.563	26.18
203.783	43.03
204.003	-72.29
204.223	-153.41
204.443	-58.65
204.663	-89.89
204.884	-88.07
205.104	5.3
205.324	62.49
205.544	21.75
205.764	35.21
205.984	63.83
206.204	67.47
206.424	38.44
206.644	-1.53
206.864	20.59
207.084	-14.14
207.304	-2.2
207.525	-36.89
207.745	-8.35
207.964	-36.35
208.184	-50.67
208.404	-63.45
208.624	-58.46
208.844	-39.48
209.064	-76.7
209.284	-57.6
209.504	-33.75
209.724	-3.26
209.944	-38.27
210.164	9.63
210.384	32.99
210.604	7.33
210.823	-48.05
211.043	-74.47
211.263	-67.65
211.483	-106.84
211.703	-110.87
211.922	-54.12
212.142	28.88
212.362	48.14
212.582	34.61
212.801	45.34
213.021	8.73
213.241	-3.15
213.461	-56.94
213.68	-71.22
213.9	-61.58
214.12	-48.42
214.339	-93.37
214.559	-56.69
214.779	-36.98
214.998	-26.2
215.218	-42.3
215.438	-23.97
215.657	-40.93
215.877	1.96
216.096	-1.81
216.316	33.9
216.535	17.08
216.755	23.72
216.974	4.2
217.194	6.4
217.413	-4.04
217.633	1.2
217.852	-61.89
218.072	-57.83
218.291	-83.11
218.511	-57.48
218.73	-116.09
218.95	-97.86
219.169	-103.26
219.389	-116.09
219.608	-132.71
219.827	-47.1
220.047	-20.4
220.266	-30.94
220.485	-29.25
220.705	3.71
220.924	-53.25
221.143	-34.86
221.363	-90.21
221.582	-40.25
221.801	-49.73
222.021	-7.39
222.24	9.32
222.459	87.81
222.678	56.57
222.897	38.18
223.117	16.78
223.336	-2.76
223.555	-4.71
223.774	29.89
223.993	47.08
224.213	108.83
224.432	61.77
224.651	85.95
224.87	60.17
225.089	66.86
225.308	44.44
225.527	84.85
225.746	76.54
225.965	58.79
226.184	44.04
226.404	58.34
226.623	19.98
226.842	13.24
227.061	61.98
227.28	75.24
227.499	75.98
227.718	105
227.936	88.54
228.155	68.93
228.374	-0.13
228.593	-30.49
228.812	-30.14
229.031	-5.93
229.25	-45.02
229.469	8.53
229.688	21.83
229.907	25.16
230.125	32.44
230.344	42.89
230.563	42.97
230.782	48.29
231.001	-18.29
231.22	-38.71
231.438	-34.19
231.657	-31.66
231.876	-28.45
232.095	24.57
232.313	46.1
232.532	35.74
232.751	33.27
232.969	14.51
233.188	4.4
233.407	2.08
233.625	-7.24
233.844	-16.13
234.063	-8.68
234.281	42.91
234.5	42.64
234.719	68.32
234.937	84.7
235.156	90.28
235.374	56.58
235.593	44.93
235.811	41.1
236.03	31.43
236.249	7.73
236.467	25.06
236.686	21.03
236.904	17.91
237.123	-45.94
237.341	-7.31
237.559	-51.54
237.778	-46.98
237.996	-60.15
238.215	-12.54
238.433	-33.77
238.652	-2.37
238.87	-67.84
239.088	-30.02
239.307	-9.73
239.525	-2.4
239.743	-43.2
239.962	5.69
240.18	-33.57
240.398	-86.16
240.617	-100.59
240.835	-56.6
241.053	-93.75
241.271	-35.61
241.49	4.81
241.708	6.81
241.926	3.82
242.144	36.45
242.363	-4.63
242.581	-7.27
242.799	10.08
243.017	-13.53
243.235	-72.86
243.453	-31.61
243.672	-51.59
243.89	-49.17
244.108	-17.87
244.326	24.67
244.544	20.1
244.762	11.2
244.98	14.33
245.198	32.04
245.416	-6.51
245.634	-10.67
245.852	5.11
246.07	3.06
246.288	-7.29
246.506	1.09
246.724	18.73
246.942	15.65
247.16	26.07
247.378	31.04
247.596	50.89
247.814	57.4
248.032	10.97
248.25	0.64
248.468	4.56
248.685	32.18
248.903	20.54
249.121	46.02
249.339	7.02
249.557	-14.27
249.775	-51.31
249.992	-126.13
250.21	-125.89
250.428	-67.74
250.646	-54.2
250.863	-54.6
251.081	-12.99
251.299	32.99
251.517	36.32
251.734	33.12
251.952	23.26
252.17	30.67
252.387	30.22
252.605	-1.93
252.823	6.7
253.04	34.7
253.258	37.58
253.475	12.66
253.693	47.83
253.911	43.72
254.128	50.3
254.346	54.03
254.563	35.26
254.781	8.58
254.998	-0.09
255.216	-13.53
255.433	-24.98
255.651	26.46
255.868	46.06
256.086	59.74
256.303	53.78
256.521	59.8
256.738	15.23
256.956	-0.97
257.173	-4.59
257.39	-4.8
257.608	0.81
257.825	23.72
258.043	40.69
258.26	37.16
258.477	41.39
258.695	47.16
258.912	-10.89
259.129	-20.86
259.346	-67.5
259.564	-78.27
259.781	-70.19
259.998	-37.53
260.216	0.96
260.433	49.69
260.65	40.7
260.867	57.66
261.084	35
261.302	7.61
261.519	12
261.736	-9.77
261.953	-22.98
262.17	0.63
262.387	6.4
262.604	-21.75
262.822	-20.88
263.039	-33.18
263.256	-50.65
263.473	-36.43
263.69	-61.69
263.907	-24.26
264.124	12.06
264.341	45.46
264.558	18.53
264.775	42.51
264.992	68.93
265.209	52.64
265.426	50.03
265.643	56.54
265.86	42.18
266.077	30.22
266.294	7.89
266.51	-8.85
266.727	-14.89
266.944	24.2
267.161	-5.07
267.378	18.66
267.595	27.7
267.812	-7.87
268.028	-21.98
268.245	3.28
268.462	-35.33
268.679	-36.04
268.896	35.33
269.112	15.09
269.329	9.83
269.546	38.5
269.763	33.36
269.979	21.3
270.196	26.82
270.413	17.87
270.629	-8.42
270.846	-12.38
271.063	10.77
271.279	-9.51
271.496	-27.3
271.712	-14.53
271.929	-4.25
272.146	-19.34
272.362	-9.71
272.579	37.54
272.795	54.77
273.012	67.18
273.228	69.07
273.445	53.6
273.661	7.3
273.878	-81.48
274.094	-78.63
274.311	-98.36
274.527	-56.43
274.744	-29.2
274.96	27.46
275.177	31.18
275.393	33.18
275.609	33.99
275.826	49.96
276.042	43.59
276.259	41.55
276.475	30.34
276.691	33.72
276.908	9.99
277.124	37.54
277.34	22.14
277.557	38.81
277.773	41.5
277.989	35.41
278.205	16.17
278.422	24.02
278.638	20.26
278.854	10.48
279.07	17.92
279.286	-8.88
279.503	-27.94
279.719	-37.31
279.935	-51.2
280.151	-64.38
280.367	-19.87
280.583	-4.7
280.799	0.66
281.016	8.29
281.232	29.32
281.448	25.8
281.664	36.58
281.88	18.03
282.096	18.81
282.312	23.72
282.528	41.49
282.744	50.53
282.96	55.25
283.176	66.02
283.392	43.52
283.608	18.06
283.824	9.52
284.04	8.54
284.256	21.75
284.471	24.13
284.687	28.84
284.903	28.94
285.119	68.39
285.335	28
285.551	47.34
285.767	46.1
285.982	35.97
286.198	-2.72
286.414	34.32
286.63	27.63
286.846	48.55
287.061	14.54
287.277	26.67
287.493	17.83
287.709	24.97
287.924	12.6
288.14	58.18
288.356	71.82
288.571	75.59
288.787	61.9
289.003	55.9
289.218	21.96
289.434	-60.41
289.65	-13.71
289.865	-1.47
290.081	13.12
290.296	29.64
290.512	38.66
290.727	23.37
290.943	3.85
291.159	-9.02
291.374	-15.31
291.59	-25.24
291.805	-46.17
292.021	-15.02
292.236	-19.54
292.451	-18.62
292.667	5.01
292.882	27.52
293.098	29.78
293.313	16.82
293.529	11.29
293.744	-38.54
293.959	-67.43
294.175	-52.57
294.39	-19.15
294.605	0.48
294.821	51.28
295.036	48.77
295.251	55.47
295.467	48.9
295.682	41.57
295.897	8.07
296.112	0.26
296.328	-7.68
296.543	-23.07
296.758	-40.98
296.973	13.55
297.188	63.55
297.404	23.45
297.619	26.86
297.834	22.09
298.049	-2.52
298.264	-39.51
298.479	2.12
298.694	9.08
298.909	16.18
299.125	22.4
299.34	43.06
299.555	20.36
299.77	42.89
299.985	-16.22
300.2	-42.44
300.415	-80.83
300.63	-56.1
300.845	-69.86
301.06	-59.77
301.275	-45.7
301.49	-22.88
301.704	-44.2
301.919	-84.65
302.134	-71.38
302.349	-27.76
302.564	-49.77
302.779	-14.5
302.994	50.23
303.209	51.02
303.423	57.83
303.638	85.63
303.853	47.26
304.068	-12.09
304.283	-13.33
304.497	-44.33
304.712	-26.08
304.927	-8.43
305.142	-8.89
305.356	-0.82
305.571	28.12
305.786	-2.2
306	-14.81
306.215	10.74
306.43	-15.79
306.644	-10.96
306.859	31.57
307.074	25.68
307.288	-5.84
307.503	28.13
307.717	1.11
307.932	-7.92
308.147	-9.95
308.361	26.03
308.576	4.02
308.79	-51.28
309.005	-36.72
309.219	-17.89
309.434	-21.08
309.648	-53.87
309.863	23.46
310.077	15.98
310.292	23
310.506	46.19
310.72	91.4
310.935	60.42
311.149	43.15
311.364	53.98
311.578	48.89
311.792	35.17
312.007	38.86
312.221	-4.46
312.435	1.36
312.649	-34.01
312.864	-8.9
313.078	-21.12
313.292	43.8
313.507	38.75
313.721	50.9
313.935	60.9
314.149	95.07
314.363	67.4
314.578	43.95
314.792	29.24
315.006	27.93
315.22	3.84
315.434	7.18
315.648	25.44
315.862	13.25
316.077	-9.01
316.291	-15.09
316.505	-17.81
316.719	-21.76
316.933	-59.05
317.147	-28.78
317.361	-74.47
317.575	-65.78
317.789	-83.44
318.003	-47.44
318.217	-39.28
318.431	9.97
318.645	24.84
318.859	30.01
319.073	45.6
319.287	20.1
319.5	-21.55
319.714	-58.8
319.928	-65.19
320.142	-78.62
320.356	-21.3
320.57	10.81
320.784	8.2
320.997	16.91
321.211	21.55
321.425	-19.14
321.639	-59.5
321.853	-13.92
322.066	-20.15
322.28	-43.62
322.494	-19.53
322.707	45.65
322.921	12.83
323.135	18.9
323.349	34.96
323.562	18.82
323.776	-23.43
323.989	-9.92
324.203	-38.5
324.417	-21.65
324.63	-43.99
324.844	-60.74
325.057	-68.36
325.271	-64.78
325.485	-83.35
325.698	-24.43
325.912	5.97
326.125	-9.94
326.339	17.76
326.552	21.29
326.766	23.79
326.979	34.56
327.193	66.55
327.406	53.22
327.619	50.61
327.833	54.15
328.046	30.89
328.26	20.68
328.473	17.57
328.686	-4.86
328.9	-10.4
329.113	-4.51
329.326	-35.12
329.54	-21.8
329.753	-16.38
329.966	-28.6
330.179	6.32
330.393	32.05
330.606	18.41
330.819	39.58
331.032	44.82
331.246	44.42
331.459	67.36
331.672	48.98
331.885	17.63
332.098	-2.58
332.311	11.86
332.525	-18.19
332.738	-2.01
332.951	25.08
333.164	40.07
333.377	42
333.59	63.2
333.803	47.88
334.016	37
334.229	27.59
334.442	18.63
334.655	29.63
334.868	42.72
335.081	32.63
335.294	22.43
335.507	26.18
335.72	18.33
335.933	-5.81
336.146	4.82
336.359	18.08
336.572	-12.06
336.785	-26.9
336.997	-12.26
337.21	3.62
337.423	3.03
337.636	16.29
337.849	28.25
338.062	27.86
338.274	39.51
338.487	18.99
338.7	27.05
338.913	-4.98
339.125	-12.45
339.338	-19.95
339.551	1.77
339.763	15.04
339.976	50.17
340.189	59.87
340.402	64.52
340.614	48.5
340.827	35.06
341.039	11.83
341.252	-6.11
341.465	-29.16
341.677	-44.88
341.89	-92.05
342.102	-56.2
342.315	-43.13
342.527	-42.37
342.74	-27.21
342.952	25.82
343.165	16.06
343.377	37.35
343.59	30.22
343.802	56.12
344.015	51.09
344.227	62.23
344.44	28.49
344.652	26.71
344.864	13.77
345.077	28.96
345.289	23.19
345.502	53.08
345.714	41.44
345.926	40.73
346.139	22.97
346.351	26.89
346.563	19.92
346.775	41.79
346.988	17.04
347.2	11.37
347.412	-27.14
347.624	-32.9
347.837	-28.27
348.049	5.41
348.261	30.55
348.473	38.74
348.685	9.38
348.897	-8.58
349.11	-22.6
349.322	-31.53
349.534	-7.39
349.746	13.54
349.958	30.18
350.17	21.73
350.382	28.66
350.594	31
350.806	30.71
351.018	15.89
351.23	19
351.442	8.81
351.654	1.95
351.866	10.42
352.078	9.21
352.29	15.75
352.502	28.93
352.714	45.88
352.926	28.78
353.138	40.96
353.35	21.34
353.561	6.66
353.773	-19.22
353.985	-0.41
354.197	-11.07
354.409	-13.46
354.621	1
354.832	11.52
355.044	-6.09
355.256	-4.6
355.468	8.76
355.679	-12.37
355.891	1.28
356.103	-7.38
356.314	-12.39
356.526	-8.63
356.738	23.88
356.949	14.76
357.161	22.58
357.373	25.34
357.584	21.59
357.796	9.36
358.008	-10.71
358.219	7.5
358.431	16.07
358.642	15.45
358.854	28
359.065	35.97
359.277	10.34
359.488	-6.97
359.7	-17.7
359.911	-46.09
360.123	-49.78
360.334	-54.13
360.546	-48.57
360.757	-43.4
360.969	-30.02
361.18	-10.7
361.391	-6.53
361.603	-22.12
361.814	10.55
362.025	-4.32
362.237	-8.34
362.448	7.15
362.659	32.53
362.871	19.44
363.082	31.94
363.293	37.28
363.504	29.3
363.716	16.42
363.927	13.48
364.138	-1.42
364.349	-34.77
364.56	-38.64
364.772	-53.17
364.983	-30.84
365.194	-47.92
365.405	-19.89
365.616	-8.7
365.827	-14.12
366.038	-36.62
366.25	9.3
366.461	-12.01
366.672	11.18
366.883	28.38
367.094	22.2
367.305	-7.09
367.516	16.02
367.727	-0.06
367.938	-24.56
368.149	-31.07
368.36	-9.83
368.571	-11.29
368.781	-23.88
368.992	-23.75
369.203	0.62
369.414	-16.94
369.625	-32.05
369.836	-27.7
370.047	-31.06
370.258	-49.44
370.468	-44.92
370.679	-75.46
370.89	-62.97
371.101	-23.26
371.312	-41
371.522	-29.57
371.733	-3.73
371.944	0.76
372.155	5.1
372.365	-7.64
372.576	-4.26
372.787	-14.21
372.997	-21.74
373.208	-37.18
373.419	-6.3
373.629	-24.55
373.84	-15.32
374.05	-39.72
374.261	-13.04
374.472	-37.37
374.682	-8.83
374.893	-17.7
375.103	23.91
375.314	6.4
375.524	14.39
375.735	23.69
375.945	33.46
376.156	8.93
376.366	27.44
376.577	37.1
376.787	20.19
376.997	37.2
377.208	38.52
377.418	7.91
377.629	18.71
377.839	12.94
378.049	0.79
378.26	19.77
378.47	46.64
378.68	35.37
378.89	34.11
379.101	23.17
379.311	-7.78
379.521	-37.75
379.732	-34.69
379.942	-57.26
380.152	-46.41
380.362	-26.89
380.572	-18.86
380.783	-0.57
380.993	11.76
381.203	15.8
381.413	19.42
381.623	24.94
381.833	14.74
382.043	7.48
382.253	10.37
382.463	14.24
382.674	8.41
382.884	-10.34
383.094	-2.53
383.304	-0.82
383.514	1.34
383.724	10.69
383.934	5.36
384.144	-2.72
384.353	-0.59
384.563	0.61
384.773	-0.17
384.983	12.32
385.193	18.71
385.403	5.01
385.613	-0.46
385.823	-3.83
386.033	0.7
386.242	-4.73
386.452	7.33
386.662	-0.14
386.872	6.06
387.082	4.19
387.291	-5.13
387.501	-1.42
387.711	0.21
387.921	-17.58
388.13	-14.33
388.34	1.11
388.55	-6.82
388.759	-2.89
388.969	7.1
389.179	2.25
389.388	-0.81
389.598	-0.17
389.807	-3.04
390.017	-2.45
390.227	-0.45
390.436	-2.66
390.646	2.51
390.855	5.06
391.065	6.04
391.274	2.81
391.484	0.72
391.693	1.89
391.903	3.67
392.112	5.35
392.322	10.66
392.531	15.23
392.74	12.72
392.95	6.99
393.159	5.33
393.369	4.91
393.578	0.45
393.787	-0.34
393.997	2.97
394.206	1.53
394.415	1.19
394.625	2.75
394.834	1.23
395.043	0.25
395.252	2.55
395.462	3.57
395.671	5.26
395.88	7.48
396.089	9.16
396.298	8.07
396.508	7.2
396.717	6.46
396.926	5.52
397.135	5.32
397.344	4.73
397.553	5.06
397.762	5.6
397.971	5.66
398.181	5.26
398.39	4.11
398.599	3.81
398.808	3.23
399.017	4.14
399.226	4.27
399.435	5.88
399.644	5.81
399.853	5.34
400.062	4.35
400.27	4.29
400.479	3.76
400.688	3.12
400.897	3.71
401.106	3.77
401.315	3.03
401.524	2.77
401.733	3.48
401.941	3.61
402.15	3.72
402.359	4.17
402.568	4.47
402.777	4.09
402.985	3.87
403.194	4.02
403.403	4.06
403.612	3.94
403.82	3.99
404.029	3.95
404.238	3.55
404.446	3.53
404.655	3.17
404.864	3.16
405.072	3
405.281	3.35
405.489	2.95
405.698	2.99
405.906	2.81
406.115	2.87
406.324	2.63
406.532	2.8
406.741	3.24
406.949	3.14
407.158	3.14
407.366	3.24
407.574	3.46
407.783	3.31
407.991	3.39
408.2	3.43
408.408	3.25
408.617	3.07
408.825	2.82
409.033	3.03
409.242	3.02
409.45	3.13
409.658	2.98
409.867	3.2
410.075	2.96
410.283	2.94
410.491	2.89
410.7	2.76
410.908	2.8
411.116	2.92
411.324	2.84
411.533	2.93
411.741	3.25
411.949	3.24
412.157	3.07
412.365	3.2
412.573	2.98
412.781	2.92
412.99	2.76
413.198	3.02
413.406	2.89
413.614	3.01
413.822	2.96
414.03	2.99
414.238	2.67
414.446	2.83
414.654	2.61
414.862	2.69
415.07	2.69
415.278	2.99
415.486	2.58
415.694	2.77
415.902	2.7
416.109	2.56
416.317	2.54
416.525	2.41
416.733	2.5
416.941	2.59
417.149	2.64
417.357	2.63
417.564	3.02
417.772	2.94
417.98	2.82
418.188	2.86
418.395	2.69
418.603	2.72
418.811	2.42
419.019	2.16
419.226	2.51
419.434	2.74
419.642	2.53
419.849	2.69
420.057	3.06
420.265	2.93
420.472	2.5
420.68	2.74
420.887	2.65
421.095	2.69
421.302	2.39
421.51	2.79
421.717	2.73
421.925	2.73
422.132	2.53
422.34	2.39
422.547	2.22
422.755	2.24
422.962	2.38
423.17	2.34
423.377	2.55
423.585	2.65
423.792	2.59
423.999	2.67
424.207	2.76
424.414	2.82
424.621	2.83
424.829	2.71
425.036	2.67
425.243	2.66
425.451	2.53
425.658	2.33
425.865	2.53
426.072	2.41
426.28	2.45
426.487	2.39
426.694	2.55
426.901	2.42
427.108	2.43
427.315	2.42
427.523	2.73
427.73	2.78
427.937	2.44
428.144	2.29
428.351	2.32
428.558	2.29
428.765	2.11
428.972	2.32
429.179	2.45
429.386	2.53
429.593	2.35
429.8	2.1
430.007	2.32
430.214	2.52
430.421	2.35
430.628	2.25
430.835	2.17
431.042	2.41
431.249	2.31
431.456	2.44
431.662	2.67
431.869	2.96
432.076	2.75
432.283	2.74
432.49	2.55
432.697	2.53
432.903	2.3
433.11	2.18
433.317	2.35
433.524	2.64
433.73	2.41
433.937	2.79
434.144	2.8
434.35	2.72
434.557	2.5
434.764	2.54
434.97	2.36
435.177	2.55
435.384	2.19
435.59	2.38
435.797	2.57
436.003	2.63
436.21	2.52
436.416	2.73
436.623	2.5
436.829	2.56
437.036	2.62
437.242	2.5
437.449	2.46
437.655	2.44
437.862	2.32
438.068	2.33
438.275	2.47
438.481	2.65
438.687	2.66
438.894	2.62
439.1	2.49
439.307	2.6
439.513	2.45
439.719	2.55
439.926	2.57
440.132	2.62
440.338	2.39
440.544	2.54
440.751	2.39
440.957	2.58
441.163	2.29
441.369	2.36
441.575	2.12
441.782	2.09
441.988	1.78
442.194	1.99
442.4	1.96
442.606	2.19
442.812	2.31
443.018	2.46
443.224	2.55
443.431	2.69
443.637	2.48
443.843	2.24
444.049	2.24
444.255	2.12
444.461	1.98
444.667	1.93
444.873	2.22
445.079	2.28
445.284	2.26
445.49	2.11
445.696	1.95
445.902	1.85
446.108	1.7
446.314	1.59
446.52	1.88
446.726	2.34
446.931	2.16
447.137	2.31
447.343	2.55
447.549	2.21
447.755	1.99
447.96	2.09
448.166	1.91
448.372	1.87
448.578	1.93
448.783	1.94
448.989	2.13
449.195	2.41
449.4	2.29
449.606	2.28
449.812	2.23
450.017	2.25
450.223	2.06
450.428	1.93
450.634	2.16
450.84	2.32
451.045	2.08
451.251	2.01
451.456	2.28
451.662	2.26
451.867	2.28
452.073	2.3
452.278	2.45
452.483	2.5
452.689	2.46
452.894	2.54
453.1	2.68
453.305	2.45
453.51	2.34
453.716	2.23
453.921	2.1
454.127	2.05
454.332	2.06
454.537	2.01
454.742	2.09
454.948	2.12
455.153	2.04
455.358	2.19
455.563	2.37
455.769	2.43
455.974	2.3
456.179	2.26
456.384	2.16
456.589	2.08
456.795	1.82
457	1.92
457.205	2.11
457.41	2.08
457.615	2.03
457.82	2.17
458.025	2.15
458.23	1.95
458.435	2.12
458.64	1.93
458.845	2.01
459.05	1.96
459.255	1.93
459.46	1.9
459.665	1.95
459.87	1.97
460.075	1.82
460.28	1.98
460.485	2
460.69	2.17
460.895	1.9
461.099	1.9
461.304	2.08
461.509	2.14
461.714	1.92
461.919	2.21
462.123	2.26
462.328	2.2
462.533	1.94
462.738	2.13
462.942	1.86
463.147	1.95
463.352	1.97
463.556	1.97
463.761	2.03
463.966	2.27
464.17	2.34
