Data from Ofra_PP_Phys_2HS27C_Reflection_2.txt Node
Date: Sat Jul 24 20:03:28 EDT 2021
User: USUARIO
Spectrometer: FLMT01687
Trigger mode: 0
Integration Time (sec): 1.100000E0
Scans to average: 2
Electric dark correction enabled: true
Nonlinearity correction enabled: false
Boxcar width: 2
XAxis mode: Wavelengths
Number of Pixels in Spectrum: 3648
>>>>>Begin Spectral Data<<<<<
179.494	475.86
179.716	568.6
179.937	939.2
180.158	776.41
180.38	347.27
180.601	-311.74
180.823	66.41
181.044	180.62
181.265	12.54
181.486	-15.93
181.708	-49.64
181.929	-854.67
182.15	136.95
182.372	-30.88
182.593	39833.33
182.814	834.36
183.035	159.06
183.257	129.55
183.478	65.53
183.699	149.04
183.92	113.69
184.141	109.97
184.363	36.13
184.584	87.19
184.805	44.06
185.026	50.53
185.247	50.36
185.468	31.52
185.689	23.58
185.91	29.92
186.132	27.71
186.353	13.73
186.574	44.71
186.795	53.45
187.016	22.88
187.237	43.6
187.458	50.98
187.679	84.49
187.9	49.38
188.121	80.61
188.342	48.12
188.563	54.21
188.784	57.32
189.005	49.19
189.226	58.13
189.447	62.72
189.667	70.26
189.888	53.68
190.109	44.61
190.33	18.13
190.551	-11.85
190.772	-38.66
190.993	-63.88
191.214	-53.99
191.434	-49.65
191.655	-5.29
191.876	8.95
192.097	3.11
192.318	6.01
192.538	-10.31
192.759	-11.65
192.98	-18.87
193.201	6.09
193.421	-5.14
193.642	23.87
193.863	20.73
194.083	15.5
194.304	12.51
194.525	24.21
194.745	8.62
194.966	-29.24
195.187	-51.48
195.407	-84.05
195.628	-88.88
195.848	-69.12
196.069	-61.88
196.29	-36.88
196.51	-81.37
196.731	-88.37
196.951	-67.18
197.172	-37.58
197.392	-37.89
197.613	4.85
197.833	10.52
198.054	-17.08
198.274	-15.65
198.495	-41
198.715	-21.16
198.936	-45.66
199.156	-10.12
199.377	-13.05
199.597	1.57
199.817	9.05
200.038	48.91
200.258	62.41
200.479	60.8
200.699	68.84
200.919	50.53
201.14	20.29
201.36	1.08
201.58	3.61
201.801	18.07
202.021	19.66
202.241	42.97
202.461	35.37
202.682	23.94
202.902	17.74
203.122	29.16
203.342	21.36
203.563	56.57
203.783	71.2
204.003	26.4
204.223	-85.03
204.443	-24.84
204.663	-50.33
204.884	-72.9
205.104	-33.44
205.324	40.3
205.544	25.49
205.764	20.43
205.984	50.1
206.204	64.78
206.424	71.2
206.644	81.11
206.864	83.81
207.084	66.5
207.304	67.45
207.525	26.85
207.745	36.61
207.964	34.56
208.184	41.24
208.404	6.82
208.624	3.48
208.844	-9.05
209.064	-40.67
209.284	-32.31
209.504	-9.04
209.724	10.87
209.944	23.37
210.164	64.57
210.384	55.31
210.604	50.46
210.823	4.25
211.043	-17.22
211.263	-17.63
211.483	-41.76
211.703	-52.14
211.922	0.1
212.142	50.27
212.362	47.72
212.582	52.05
212.801	61.15
213.021	30.2
213.241	21.94
213.461	-0.36
213.68	-26.75
213.9	-27.41
214.12	-18.96
214.339	-40.2
214.559	-9
214.779	6.34
214.998	15.72
215.218	3.24
215.438	1.01
215.657	-27.96
215.877	10.27
216.096	8.88
216.316	36.37
216.535	51.37
216.755	58.39
216.974	45.85
217.194	58.9
217.413	58.41
217.633	43
217.852	8.19
218.072	-5.57
218.291	-43.64
218.511	-40.84
218.73	-73.56
218.95	-69.12
219.169	-53.86
219.389	-61.89
219.608	-63.14
219.827	-16.1
220.047	13.84
220.266	3.51
220.485	6.03
220.705	22.72
220.924	-18.03
221.143	-22.27
221.363	-50.17
221.582	-18.84
221.801	-23.48
222.021	12.41
222.24	26.84
222.459	60.77
222.678	49.2
222.897	35.19
223.117	35.52
223.336	42.43
223.555	43.76
223.774	64.37
223.993	73.73
224.213	87.04
224.432	54.74
224.651	73.58
224.87	64.64
225.089	80.84
225.308	66.16
225.527	85.82
225.746	76.28
225.965	58.37
226.184	36.86
226.404	50.07
226.623	27.86
226.842	31.77
227.061	53.36
227.28	60.33
227.499	70.56
227.718	82.35
227.936	66.63
228.155	58.55
228.374	39.26
228.593	27.71
228.812	22.81
229.031	29.71
229.25	15.24
229.469	38.05
229.688	30.23
229.907	30.86
230.125	37.04
230.344	51.62
230.563	44.59
230.782	51.5
231.001	25.91
231.22	19.87
231.438	2.04
231.657	4.53
231.876	12.07
232.095	36.54
232.313	40.53
232.532	40.6
232.751	39.14
232.969	29.14
233.188	26.46
233.407	18.34
233.625	22.48
233.844	31.76
234.063	29.66
234.281	64.39
234.5	71.87
234.719	70.66
234.937	52.27
235.156	54.86
235.374	40.05
235.593	60.04
235.811	61.33
236.03	68.51
236.249	63.38
236.467	71.48
236.686	37.57
236.904	32.8
237.123	-28.38
237.341	-10.59
237.559	-30.07
237.778	-29.99
237.996	-44.68
238.215	6.07
238.433	-9.93
238.652	4.43
238.87	-12.9
239.088	-1.63
239.307	-7.06
239.525	2.71
239.743	-22.9
239.962	12.08
240.18	13.48
240.398	-4.84
240.617	-23.77
240.835	7.12
241.053	-23.49
241.271	-1.33
241.49	23.68
241.708	30.02
241.926	23.74
242.144	37.72
242.363	24.1
242.581	36.94
242.799	60.76
243.017	56.38
243.235	35.19
243.453	50.5
243.672	14.77
243.89	20.87
244.108	36.14
244.326	49.33
244.544	36.06
244.762	34.11
244.98	30.27
245.198	26.96
245.416	18.78
245.634	17.8
245.852	34.86
246.07	17.21
246.288	22.74
246.506	31.82
246.724	49.45
246.942	43.04
247.16	59.54
247.378	60.19
247.596	70.6
247.814	65
248.032	33.31
248.25	27.95
248.468	33.36
248.685	38.14
248.903	33.25
249.121	57.09
249.339	33.64
249.557	18.9
249.775	-29.7
249.992	-71.97
250.21	-78.32
250.428	-47.41
250.646	-36.33
250.863	-17.33
251.081	12.59
251.299	34.66
251.517	35.31
251.734	27.02
251.952	17.32
252.17	20.72
252.387	29.87
252.605	13.35
252.823	15.22
253.04	29.65
253.258	27.33
253.475	4.14
253.693	20.52
253.911	35.24
254.128	36.57
254.346	53.11
254.563	49.08
254.781	46.41
254.998	36.58
255.216	34.71
255.433	24.97
255.651	46.48
255.868	53.27
256.086	54.35
256.303	54.56
256.521	41.12
256.738	30.26
256.956	14.6
257.173	16.3
257.39	14.52
257.608	13.4
257.825	15.73
258.043	15.91
258.26	5.96
258.477	4.98
258.695	0.25
258.912	-18.85
259.129	-7.04
259.346	-17.72
259.564	-19.04
259.781	-5.6
259.998	0.94
260.216	23.92
260.433	55.09
260.65	42.61
260.867	44.08
261.084	36.85
261.302	26.29
261.519	33.45
261.736	29.54
261.953	35.5
262.17	45.5
262.387	39.54
262.604	20.66
262.822	24.26
263.039	7.05
263.256	-8.33
263.473	-2.36
263.69	-34.72
263.907	-17.68
264.124	2.97
264.341	24.56
264.558	9.94
264.775	16.6
264.992	31.57
265.209	32.51
265.426	27.15
265.643	29.93
265.86	46.87
266.077	28.35
266.294	21.87
266.51	21.26
266.727	27.34
266.944	45.58
267.161	40.32
267.378	44.87
267.595	53.98
267.812	21.79
268.028	0.42
268.245	18.78
268.462	2.64
268.679	-9.66
268.896	25
269.112	21.91
269.329	15.11
269.546	32.21
269.763	38.85
269.979	33.72
270.196	32.89
270.413	37.37
270.629	23.96
270.846	17.95
271.063	27.18
271.279	19.64
271.496	-11.01
271.712	-3.54
271.929	-0.57
272.146	11.38
272.362	15.6
272.579	50.87
272.795	54.52
273.012	59.83
273.228	47.89
273.445	40.01
273.661	27.16
273.878	-33.53
274.094	-24.61
274.311	-35.43
274.527	-12.12
274.744	-18.74
274.96	18.87
275.177	19.93
275.393	22.65
275.609	28.99
275.826	41.04
276.042	48.55
276.259	44.62
276.475	40.67
276.691	37.03
276.908	28.19
277.124	59.28
277.34	65.89
277.557	51.61
277.773	53.73
277.989	58.11
278.205	36.09
278.422	21.44
278.638	30.63
278.854	33.41
279.07	22.68
279.286	-6.19
279.503	-8.74
279.719	-6.3
279.935	-27.64
280.151	-42.08
280.367	-5.47
280.583	1.26
280.799	1.81
281.016	21.58
281.232	38.49
281.448	38.83
281.664	47.62
281.88	39.39
282.096	20.94
282.312	23.75
282.528	31.41
282.744	30.79
282.96	41.9
283.176	42.07
283.392	36.28
283.608	32.26
283.824	32.32
284.04	35.5
284.256	59.58
284.471	64.85
284.687	53.07
284.903	58.75
285.119	64.62
285.335	33.9
285.551	36
285.767	35.39
285.982	31.95
286.198	14.85
286.414	36.85
286.63	27.14
286.846	40.21
287.061	21.62
287.277	25.14
287.493	29.18
287.709	34.16
287.924	35.11
288.14	49
288.356	45.77
288.571	39.45
288.787	26.8
289.003	36.77
289.218	33.8
289.434	31.65
289.65	37.26
289.865	45.03
290.081	33.61
290.296	33.91
290.512	27.38
290.727	34.5
290.943	26.22
291.159	13.71
291.374	20.79
291.59	13.32
291.805	-5.34
292.021	2.43
292.236	5.41
292.451	4.9
292.667	28.71
292.882	30.98
293.098	30.49
293.313	29.67
293.529	17.61
293.744	-7.66
293.959	-16.38
294.175	-15.6
294.39	-10.41
294.605	-5.27
294.821	21.94
295.036	21.08
295.251	23.61
295.467	29.19
295.682	16.75
295.897	1.7
296.112	0.06
296.328	13.99
296.543	11.32
296.758	20.53
296.973	30.94
297.188	61.89
297.404	30.98
297.619	26.25
297.834	32.08
298.049	26.07
298.264	-5.01
298.479	17.19
298.694	21.83
298.909	20.37
299.125	25.94
299.34	44.77
299.555	27.21
299.77	39.53
299.985	15.51
300.2	1.99
300.415	-24.08
300.63	-9.62
300.845	-7.64
301.06	-10.29
301.275	-20.84
301.49	-16.8
301.704	-12.73
301.919	-45.34
302.134	-30.59
302.349	27.56
302.564	15.46
302.779	16.7
302.994	56.88
303.209	55.4
303.423	23.07
303.638	51.95
303.853	40.59
304.068	-3.63
304.283	3.02
304.497	14.83
304.712	8.75
304.927	14.32
305.142	20.68
305.356	34.47
305.571	34.82
305.786	33.6
306	28.45
306.215	31.34
306.43	2.37
306.644	20.32
306.859	19.44
307.074	23.82
307.288	3.41
307.503	14.53
307.717	0.54
307.932	11.89
308.147	-1.33
308.361	19.17
308.576	13.25
308.79	-27.04
309.005	-13.64
309.219	13.71
309.434	26.26
309.648	19.51
309.863	48.69
310.077	40.48
310.292	27.25
310.506	6.22
310.72	38.91
310.935	35.86
311.149	28.52
311.364	25.2
311.578	41.81
311.792	22.6
312.007	31.71
312.221	16.7
312.435	32.53
312.649	16.77
312.864	48.58
313.078	32.48
313.292	59.14
313.507	50.78
313.721	47.19
313.935	28.34
314.149	50.07
314.363	47.24
314.578	32.45
314.792	20.72
315.006	26.56
315.22	10.45
315.434	2.21
315.648	-0.73
315.862	15.66
316.077	5.66
316.291	20.62
316.505	34.34
316.719	54.21
316.933	12.11
317.147	31.85
317.361	11.94
317.575	13.84
317.789	-4.56
318.003	9.77
318.217	15.45
318.431	35.72
318.645	43.91
318.859	43.27
319.073	56.47
319.287	34.87
319.5	14.61
319.714	-7.36
319.928	-16.4
320.142	-28.14
320.356	8.18
320.57	29.3
320.784	14.94
320.997	27.18
321.211	23.58
321.425	-0.49
321.639	-45.9
321.853	-22.26
322.066	-27.99
322.28	-27.44
322.494	-13.23
322.707	44.94
322.921	37.53
323.135	48.79
323.349	51.23
323.562	39.85
323.776	12.65
323.989	11.74
324.203	-0.79
324.417	4.9
324.63	-14.78
324.844	-31.17
325.057	-31.48
325.271	-31.98
325.485	-29.89
325.698	2.42
325.912	36.17
326.125	37.76
326.339	51.87
326.552	56.63
326.766	70.06
326.979	52.7
327.193	50.35
327.406	44.21
327.619	45.05
327.833	30.39
328.046	20.26
328.26	12.12
328.473	-2.73
328.686	-14.63
328.9	-2.14
329.113	8.92
329.326	15.93
329.54	29.66
329.753	27.08
329.966	18.83
330.179	28.96
330.393	36.51
330.606	30.56
330.819	48.32
331.032	49.71
331.246	51.55
331.459	46.78
331.672	39.27
331.885	24.33
332.098	2.43
332.311	-2.94
332.525	-11.95
332.738	-7.78
332.951	-4.13
333.164	9.81
333.377	22.16
333.59	35.13
333.803	33.03
334.016	36.53
334.229	36.72
334.442	37.39
334.655	43.02
334.868	50.06
335.081	47.13
335.294	37.27
335.507	37.97
335.72	37.62
335.933	27.09
336.146	30.92
336.359	47.62
336.572	26.41
336.785	12.97
336.997	20.75
337.21	26.29
337.423	21.55
337.636	27.74
337.849	27.28
338.062	28.33
338.274	27.47
338.487	23.15
338.7	15.85
338.913	14.75
339.125	3.32
339.338	11.2
339.551	10.87
339.763	40.72
339.976	56.6
340.189	56.39
340.402	50.34
340.614	49.72
340.827	35.21
341.039	17.51
341.252	11.2
341.465	6.17
341.677	-8.81
341.89	-36.26
342.102	-19.93
342.315	-10.31
342.527	-22.82
342.74	-16.18
342.952	26.43
343.165	21.23
343.377	32.88
343.59	33.74
343.802	56.37
344.015	48.24
344.227	57.14
344.44	42.75
344.652	33.18
344.864	33.41
345.077	32.44
345.289	36.86
345.502	46.42
345.714	44.06
345.926	30.4
346.139	24.75
346.351	7.84
346.563	2.35
346.775	16.42
346.988	21.26
347.2	23.98
347.412	23.33
347.624	9.24
347.837	7.8
348.049	5.44
348.261	19.36
348.473	18.43
348.685	15.16
348.897	12.73
349.11	-1.22
349.322	-26.6
349.534	-0.59
349.746	12.57
349.958	17.06
350.17	27.02
350.382	42.25
350.594	43.97
350.806	40.71
351.018	38.75
351.23	44.26
351.442	33.65
351.654	35.82
351.866	39.62
352.078	24.7
352.29	8.97
352.502	17.43
352.714	23.09
352.926	19.19
353.138	26.47
353.35	19.27
353.561	12.14
353.773	-4.91
353.985	1.84
354.197	7.9
354.409	16.58
354.621	21.94
354.832	27.56
355.044	19.27
355.256	13.34
355.468	12.66
355.679	13.56
355.891	19.89
356.103	18.99
356.314	15.83
356.526	34.64
356.738	45.77
356.949	42.29
357.161	52.36
357.373	55.3
357.584	47.1
357.796	31.6
358.008	26.27
358.219	35.28
358.431	31.01
358.642	24.28
358.854	43.62
359.065	38.29
359.277	21.67
359.488	19.71
359.7	3.58
359.911	-15.07
360.123	-9.2
360.334	-10.59
360.546	-9.4
360.757	11.55
360.969	13.48
361.18	28.38
361.391	19.16
361.603	16.46
361.814	22.52
362.025	12.64
362.237	4.27
362.448	13.16
362.659	27.13
362.871	27.1
363.082	32.62
363.293	40.99
363.504	50.82
363.716	45.93
363.927	46.15
364.138	37.77
364.349	13.46
364.56	12.22
364.772	-8.03
364.983	-7.88
365.194	-15.51
365.405	-11.75
365.616	-34.05
365.827	-21.79
366.038	-27.45
366.25	-1.16
366.461	-0.81
366.672	18.25
366.883	31.16
367.094	30.59
367.305	10.02
367.516	21.46
367.727	10.3
367.938	-3.26
368.149	-4.61
368.36	7.01
368.571	6.02
368.781	9.44
368.992	4.27
369.203	24.38
369.414	23.29
369.625	23.06
369.836	13.15
370.047	4.49
370.258	-14.75
370.468	-8.15
370.679	-32.32
370.89	-15.94
371.101	15.05
371.312	3.29
371.522	-6.61
371.733	17.81
371.944	18.4
372.155	20.41
372.365	12.74
372.576	26.26
372.787	18.22
372.997	9.51
373.208	1.54
373.419	19.63
373.629	1.02
373.84	7.36
374.05	-4.91
374.261	13.9
374.472	5.53
374.682	22.3
374.893	4.79
375.103	28.51
375.314	8.55
375.524	14.21
375.735	14.31
375.945	29.27
376.156	11.85
376.366	21.79
376.577	23.23
376.787	25.25
376.997	23.55
377.208	35.77
377.418	21.44
377.629	28.6
377.839	15.19
378.049	15.82
378.26	18.43
378.47	28.08
378.68	23.22
378.89	31.61
379.101	33.56
379.311	19.26
379.521	8.5
379.732	4.75
379.942	-11.15
380.152	-4.23
380.362	2.4
380.572	9.87
380.783	15.94
380.993	32.65
381.203	31.84
381.413	35.75
381.623	26.48
381.833	28.68
382.043	10.52
382.253	9.26
382.463	14.62
382.674	20.42
382.884	6.03
383.094	6.45
383.304	3.71
383.514	-4.47
383.724	-6.85
383.934	-7.4
384.144	-6.12
384.353	-3.22
384.563	6.75
384.773	8.7
384.983	13.99
385.193	18.42
385.403	7.75
385.613	5.6
385.823	4.36
386.033	7.25
386.242	3.13
386.452	11.68
386.662	5.44
386.872	9.48
387.082	11.99
387.291	8.95
387.501	10.91
387.711	10.02
387.921	-0.8
388.13	-1.83
388.34	4.99
388.55	-0.1
388.759	4.39
388.969	14.62
389.179	12.57
389.388	12.38
389.598	12.14
389.807	11.39
390.017	9.93
390.227	9.93
390.436	6.59
390.646	9.46
390.855	10.8
391.065	10.24
391.274	6.99
391.484	6.08
391.693	5.91
391.903	3.74
392.112	2.75
392.322	5.94
392.531	8.96
392.74	6.92
392.95	4.82
393.159	5.3
393.369	6.56
393.578	4.54
393.787	4.2
393.997	8
394.206	7.1
394.415	7.19
394.625	7.16
394.834	7.12
395.043	4.77
395.252	5.81
395.462	5.83
395.671	7.28
395.88	9.25
396.089	10.45
396.298	9.93
396.508	9.17
396.717	8.87
396.926	7.75
397.135	7.4
397.344	7.51
397.553	7.41
397.762	7.26
397.971	7.42
398.181	7.06
398.39	5.42
398.599	4.82
398.808	4.54
399.017	4.75
399.226	5.02
399.435	6.46
399.644	6.69
399.853	6.34
400.062	5.7
400.27	5.54
400.479	5.22
400.688	4.94
400.897	5.28
401.106	5.25
401.315	5.01
401.524	4.95
401.733	5.2
401.941	5.35
402.15	5.42
402.359	5.49
402.568	5.51
402.777	5.41
402.985	5.23
403.194	5.35
403.403	5.17
403.612	5.15
403.82	5.33
404.029	5.26
404.238	5.11
404.446	5.3
404.655	5.02
404.864	4.94
405.072	4.95
405.281	5.04
405.489	4.84
405.698	4.91
405.906	4.76
406.115	4.61
406.324	4.41
406.532	4.47
406.741	4.75
406.949	4.64
407.158	4.68
407.366	4.84
407.574	4.98
407.783	4.83
407.991	4.99
408.2	4.91
408.408	4.81
408.617	4.68
408.825	4.52
409.033	4.54
409.242	4.6
409.45	4.59
409.658	4.57
409.867	4.6
410.075	4.53
410.283	4.39
410.491	4.37
410.7	4.32
410.908	4.25
411.116	4.19
411.324	4.26
411.533	4.29
411.741	4.35
411.949	4.45
412.157	4.3
412.365	4.4
412.573	4.21
412.781	4.03
412.99	3.93
413.198	4.14
413.406	4.05
413.614	4.26
413.822	4.4
414.03	4.41
414.238	4.27
414.446	4.39
414.654	4.06
414.862	4.02
415.07	3.99
415.278	4.22
415.486	3.84
415.694	4.12
415.902	4.13
416.109	4.05
416.317	3.97
416.525	3.83
416.733	3.88
416.941	3.98
417.149	4.14
417.357	4.1
417.564	4.41
417.772	4.25
417.98	4.18
418.188	4
418.395	3.85
418.603	3.95
418.811	3.9
419.019	3.78
419.226	4.09
419.434	4.26
419.642	4.07
419.849	4.03
420.057	4.19
420.265	4.04
420.472	3.94
420.68	4.1
420.887	4.1
421.095	4.12
421.302	3.96
421.51	4.01
421.717	3.96
421.925	3.97
422.132	3.91
422.34	3.94
422.547	3.92
422.755	4.01
422.962	3.99
423.17	3.84
423.377	3.89
423.585	3.93
423.792	3.77
423.999	3.83
424.207	3.87
424.414	3.8
424.621	3.76
424.829	3.71
425.036	3.82
425.243	3.69
425.451	3.66
425.658	3.56
425.865	3.45
426.072	3.43
426.28	3.38
426.487	3.3
426.694	3.42
426.901	3.61
427.108	3.57
427.315	3.68
427.523	4
427.73	3.87
427.937	3.65
428.144	3.57
428.351	3.6
428.558	3.47
428.765	3.41
428.972	3.4
429.179	3.4
429.386	3.46
429.593	3.41
429.8	3.37
430.007	3.62
430.214	3.7
430.421	3.66
430.628	3.61
430.835	3.65
431.042	3.66
431.249	3.61
431.456	3.83
431.662	3.95
431.869	3.96
432.076	3.91
432.283	3.74
432.49	3.41
432.697	3.38
432.903	3.26
433.11	3.28
433.317	3.5
433.524	3.66
433.73	3.57
433.937	3.73
434.144	3.65
434.35	3.53
434.557	3.44
434.764	3.44
434.97	3.45
435.177	3.51
435.384	3.44
435.59	3.57
435.797	3.64
436.003	3.63
436.21	3.55
436.416	3.66
436.623	3.49
436.829	3.47
437.036	3.46
437.242	3.4
437.449	3.25
437.655	3.26
437.862	3.28
438.068	3.37
438.275	3.45
438.481	3.65
438.687	3.63
438.894	3.59
439.1	3.55
439.307	3.59
439.513	3.45
439.719	3.6
439.926	3.6
440.132	3.56
440.338	3.52
440.544	3.57
440.751	3.49
440.957	3.62
441.163	3.44
441.369	3.56
441.575	3.47
441.782	3.44
441.988	3.21
442.194	3.4
442.4	3.3
442.606	3.44
442.812	3.55
443.018	3.62
443.224	3.65
443.431	3.71
443.637	3.63
443.843	3.56
444.049	3.63
444.255	3.57
444.461	3.5
444.667	3.42
444.873	3.37
445.079	3.32
445.284	3.35
445.49	3.33
445.696	3.26
445.902	3.27
446.108	3.28
446.314	3.18
446.52	3.25
446.726	3.56
446.931	3.52
447.137	3.49
447.343	3.69
447.549	3.48
447.755	3.34
447.96	3.43
448.166	3.39
448.372	3.39
448.578	3.47
448.783	3.52
448.989	3.57
449.195	3.74
449.4	3.65
449.606	3.69
449.812	3.54
450.017	3.59
450.223	3.55
450.428	3.36
450.634	3.44
450.84	3.54
451.045	3.41
451.251	3.28
451.456	3.53
451.662	3.53
451.867	3.55
452.073	3.48
452.278	3.61
452.483	3.58
452.689	3.56
452.894	3.64
453.1	3.81
453.305	3.64
453.51	3.55
453.716	3.44
453.921	3.39
454.127	3.34
454.332	3.39
454.537	3.42
454.742	3.52
454.948	3.52
455.153	3.44
455.358	3.45
455.563	3.48
455.769	3.5
455.974	3.43
456.179	3.46
456.384	3.35
456.589	3.37
456.795	3.27
457	3.23
457.205	3.26
457.41	3.35
457.615	3.35
457.82	3.45
458.025	3.54
458.23	3.46
458.435	3.55
458.64	3.38
458.845	3.4
459.05	3.28
459.255	3.29
459.46	3.22
459.665	3.34
459.87	3.28
460.075	3.23
460.28	3.26
460.485	3.34
460.69	3.26
460.895	3.1
461.099	3.16
461.304	3.26
461.509	3.21
461.714	3.23
461.919	3.44
462.123	3.41
462.328	3.41
462.533	3.27
462.738	3.3
462.942	3.16
463.147	3.3
463.352	3.22
463.556	3.3
463.761	3.27
463.966	3.35
464.17	3.39
464.375	3.36
464.58	3.31
464.784	3.36
464.989	3.27
465.193	3.21
465.398	3.22
465.602	3.35
465.807	3.28
466.011	3.34
466.216	3.39
466.42	3.45
466.625	3.46
466.829	3.53
467.034	3.59
467.238	3.61
467.443	3.51
