Data from Ofra_PP_Phys_8HS23B_Reflection_1.txt Node
Date: Sat Jul 24 20:08:07 EDT 2021
User: USUARIO
Spectrometer: FLMT01687
Trigger mode: 0
Integration Time (sec): 1.100000E0
Scans to average: 2
Electric dark correction enabled: true
Nonlinearity correction enabled: false
Boxcar width: 2
XAxis mode: Wavelengths
Number of Pixels in Spectrum: 3648
>>>>>Begin Spectral Data<<<<<
179.494	596.3
179.716	768.42
179.937	1343.86
180.158	1166.84
180.38	552.67
180.601	-730.05
180.823	-52.7
181.044	979.07
181.265	-20
181.486	-1.47
181.708	15.28
181.929	-916
182.15	242.17
182.372	-73.33
182.593	33100
182.814	656.92
183.035	198.65
183.257	125.73
183.478	13.88
183.699	31.54
183.92	-33.72
184.141	13.91
184.363	-44.59
184.584	70.33
184.805	68.01
185.026	80.45
185.247	76.73
185.468	68.16
185.689	47.28
185.91	31.9
186.132	29.1
186.353	30.14
186.574	42.82
186.795	55.94
187.016	-1.81
187.237	20.86
187.458	7.55
187.679	43.79
187.9	39.13
188.121	94.85
188.342	105.76
188.563	116.74
188.784	106.21
189.005	112.86
189.226	116.36
189.447	80.58
189.667	73.99
189.888	48.13
190.109	14.17
190.33	-23.72
190.551	-36.99
190.772	-40.07
190.993	-62.08
191.214	-21.37
191.434	-40.73
191.655	27.53
191.876	19.09
192.097	10.62
192.318	-0.23
192.538	8.73
192.759	-13.89
192.98	-14.52
193.201	18.97
193.421	-20.7
193.642	0.77
193.863	5.98
194.083	-12.1
194.304	-9.94
194.525	17.09
194.745	8.42
194.966	-36.1
195.187	-28.54
195.407	-76.74
195.628	-95.66
195.848	-84.24
196.069	-82.16
196.29	-62.58
196.51	-89.12
196.731	-99.29
196.951	-81.77
197.172	-50.03
197.392	-57.33
197.613	-13.54
197.833	-6.14
198.054	-28.74
198.274	-15.15
198.495	-55.71
198.715	-41.27
198.936	-57.76
199.156	-20.12
199.377	-39.35
199.597	-20.51
199.817	-31.13
200.038	7.47
200.258	13.66
200.479	37.89
200.699	53.8
200.919	56.38
201.14	23.68
201.36	-1.02
201.58	-3.99
201.801	5.25
202.021	-14.7
202.241	3.81
202.461	-17.38
202.682	-18.1
202.902	-11.79
203.122	-0.26
203.342	-3.8
203.563	25.81
203.783	47.12
204.003	-29.89
204.223	-107.03
204.443	-23.12
204.663	-24.77
204.884	-45.01
205.104	2.98
205.324	65.22
205.544	55.66
205.764	54.8
205.984	56.38
206.204	80.4
206.424	55.85
206.644	22.19
206.864	27.75
207.084	39.79
207.304	25.98
207.525	-13.42
207.745	3.18
207.964	4.63
208.184	-11.21
208.404	-20.71
208.624	-13.21
208.844	-4.19
209.064	-33.48
209.284	-18.98
209.504	3
209.724	43.83
209.944	29.37
210.164	50.56
210.384	54.14
210.604	32.48
210.823	-20.5
211.043	-37.22
211.263	-31.26
211.483	-47.5
211.703	-65.55
211.922	-25.26
212.142	34.61
212.362	50.17
212.582	39.05
212.801	55.73
213.021	25.49
213.241	24.36
213.461	-20.48
213.68	-35.21
213.9	-41.95
214.12	-23.58
214.339	-57.94
214.559	-39.45
214.779	-8.39
214.998	13.49
215.218	-13.13
215.438	-14.84
215.657	-26.74
215.877	13.61
216.096	20.5
216.316	68.7
216.535	95.52
216.755	82.43
216.974	37.78
217.194	43.89
217.413	13.49
217.633	-4.02
217.852	-53.53
218.072	-56.53
218.291	-75.83
218.511	-47.36
218.73	-98.15
218.95	-75.2
219.169	-61.61
219.389	-89.55
219.608	-102.38
219.827	-39.33
220.047	-10.02
220.266	-9.07
220.485	-10.89
220.705	17.83
220.924	-20.22
221.143	-13.36
221.363	-51.24
221.582	1.63
221.801	-4.54
222.021	33.2
222.24	34.21
222.459	79.69
222.678	55.54
222.897	41.1
223.117	29.08
223.336	32.55
223.555	33.15
223.774	48.07
223.993	74.48
224.213	112
224.432	57.66
224.651	80.86
224.87	62.62
225.089	63.97
225.308	58.26
225.527	87.99
225.746	79.73
225.965	70.03
226.184	53.47
226.404	44.12
226.623	23.36
226.842	10.71
227.061	42.26
227.28	54.64
227.499	66.75
227.718	84.63
227.936	79.76
228.155	80.07
228.374	35.49
228.593	20.32
228.812	13.68
229.031	22.72
229.25	-9.16
229.469	43.33
229.688	37.56
229.907	49.87
230.125	58.12
230.344	70.46
230.563	50.38
230.782	73.26
231.001	20.85
231.22	3.53
231.438	-2.2
231.657	2.54
231.876	-10.6
232.095	27.02
232.313	46.01
232.532	38.21
232.751	51.11
232.969	51.98
233.188	49.47
233.407	57.97
233.625	49.69
233.844	23.61
234.063	12.69
234.281	36.86
234.5	22.89
234.719	47.11
234.937	54.99
235.156	56.55
235.374	41.9
235.593	55.37
235.811	43.15
236.03	54.82
236.249	41.58
236.467	47.8
236.686	20.31
236.904	25.88
237.123	-42.24
237.341	-45.38
237.559	-51.86
237.778	-53.31
237.996	-78.2
238.215	-29.32
238.433	-32.51
238.652	-20.83
238.87	-60.74
239.088	-19.26
239.307	-9.83
239.525	-2.49
239.743	-33.76
239.962	6.32
240.18	-24.08
240.398	-75.65
240.617	-93.47
240.835	-55.84
241.053	-93.44
241.271	-39.94
241.49	4.36
241.708	18.01
241.926	23.55
242.144	37.4
242.363	7.06
242.581	0.85
242.799	20.17
243.017	6.75
243.235	-31.79
243.453	-4.92
243.672	-8.35
243.89	-10.32
244.108	1.55
244.326	28.87
244.544	26.06
244.762	13.24
244.98	16.45
245.198	17.07
245.416	6.69
245.634	2.02
245.852	25.55
246.07	21.09
246.288	19.94
246.506	7.86
246.724	23.15
246.942	17.03
247.16	19.76
247.378	23.9
247.596	47.11
247.814	40.19
248.032	9.06
248.25	10.14
248.468	8.98
248.685	17.74
248.903	32.41
249.121	47.03
249.339	5.47
249.557	5.2
249.775	-30.85
249.992	-102.42
250.21	-99.39
250.428	-55.13
250.646	-46.82
250.863	-35.07
251.081	-11.13
251.299	14.99
251.517	11.05
251.734	-3.63
251.952	-16.3
252.17	4.01
252.387	13.34
252.605	-12.2
252.823	-1.41
253.04	24.27
253.258	15.9
253.475	3.23
253.693	38.92
253.911	55.39
254.128	39.62
254.346	46.9
254.563	27.98
254.781	12.91
254.998	2.03
255.216	0.86
255.433	-3.91
255.651	30.2
255.868	45.98
256.086	45.23
256.303	56.64
256.521	56.92
256.738	24.26
256.956	2.17
257.173	20.43
257.39	1.26
257.608	1.12
257.825	10.62
258.043	25.63
258.26	21.4
258.477	21.32
258.695	20.4
258.912	-4.61
259.129	-3.52
259.346	-33.57
259.564	-25.21
259.781	-9.51
259.998	5.27
260.216	34.95
260.433	66.66
260.65	55.65
260.867	65.01
261.084	45.54
261.302	23.58
261.519	26.8
261.736	8.01
261.953	-6.62
262.17	19.26
262.387	11.52
262.604	-14.56
262.822	-7.67
263.039	-7.29
263.256	-29.04
263.473	-14.93
263.69	-22.81
263.907	-4.4
264.124	3.34
264.341	34.98
264.558	20.33
264.775	28.71
264.992	35.69
265.209	48.61
265.426	37.59
265.643	37.98
265.86	46.1
266.077	53.33
266.294	28.95
266.51	29.62
266.727	20.48
266.944	36.15
267.161	-1.6
267.378	6.85
267.595	5.58
267.812	-19.44
268.028	-30.29
268.245	1.96
268.462	-10.94
268.679	-7.23
268.896	30.05
269.112	7.39
269.329	5.78
269.546	34.47
269.763	41.1
269.979	50.4
270.196	49.94
270.413	39.47
270.629	11.98
270.846	-4.03
271.063	8.51
271.279	-0.18
271.496	-22.25
271.712	-17.37
271.929	-20.6
272.146	-19.75
272.362	-3
272.579	42.25
272.795	57.09
273.012	82.05
273.228	51.96
273.445	28
273.661	-10.21
273.878	-81.2
274.094	-82.55
274.311	-72.25
274.527	0.36
274.744	29
274.96	63.55
275.177	60.37
275.393	59.42
275.609	47.57
275.826	39.74
276.042	39.31
276.259	34.19
276.475	24.28
276.691	25.29
276.908	28.68
277.124	55.84
277.34	49.07
277.557	47.17
277.773	40.19
277.989	30.27
278.205	19.58
278.422	34.98
278.638	43.77
278.854	34.7
279.07	31.57
279.286	-6.31
279.503	-24.72
279.719	-26.09
279.935	-34.76
280.151	-38.08
280.367	2.95
280.583	9.19
280.799	5.67
281.016	11.47
281.232	23.61
281.448	19.23
281.664	26.86
281.88	29.01
282.096	33.01
282.312	45.09
282.528	59.34
282.744	54.86
282.96	51.74
283.176	59.94
283.392	42.34
283.608	30.9
283.824	34.89
284.04	38.02
284.256	46.87
284.471	47.15
284.687	39.65
284.903	32
285.119	55.46
285.335	22.2
285.551	35.23
285.767	34.14
285.982	23.09
286.198	10.72
286.414	32.45
286.63	21.54
286.846	42.05
287.061	20.95
287.277	8.46
287.493	14.11
287.709	19.92
287.924	4.99
288.14	44.04
288.356	58
288.571	57.09
288.787	44.32
289.003	44.52
289.218	19.05
289.434	-23.86
289.65	0.47
289.865	10.17
290.081	14.73
290.296	15.61
290.512	20.6
290.727	15.19
290.943	2.73
291.159	7.69
291.374	7.58
291.59	-3.12
291.805	-11.56
292.021	1.62
292.236	-13.58
292.451	-0.69
292.667	16.67
292.882	29.9
293.098	48.54
293.313	37.47
293.529	27.94
293.744	-7.79
293.959	-33.47
294.175	-41.66
294.39	-13.84
294.605	2.71
294.821	42.85
295.036	38.89
295.251	44.95
295.467	39.77
295.682	30.88
295.897	6.37
296.112	2.96
296.328	7.56
296.543	-5.96
296.758	-15.05
296.973	28.74
297.188	74.43
297.404	39.8
297.619	50.66
297.834	45.54
298.049	27.43
298.264	0.48
298.479	24.73
298.694	29.67
298.909	42.33
299.125	39.4
299.34	51.28
299.555	27.1
299.77	28.36
299.985	-35.75
300.2	-55.27
300.415	-84.5
300.63	-40.22
300.845	-41.12
301.06	-14.38
301.275	-4.77
301.49	-1.99
301.704	-20.65
301.919	-37.59
302.134	-43.46
302.349	10.36
302.564	-6.25
302.779	8.49
302.994	49.75
303.209	50.58
303.423	49.04
303.638	83.93
303.853	50.36
304.068	7.68
304.283	11.98
304.497	-2.1
304.712	4.37
304.927	16.52
305.142	16
305.356	21.62
305.571	21.12
305.786	14.3
306	17.77
306.215	28.08
306.43	-0.03
306.644	15.45
306.859	24.58
307.074	12.17
307.288	-12.12
307.503	24.35
307.717	8.6
307.932	10.39
308.147	13.9
308.361	40.4
308.576	-6.17
308.79	-52.89
309.005	-42.41
309.219	-30.85
309.434	-25.68
309.648	-20.65
309.863	20.6
310.077	25.57
310.292	15.62
310.506	-0.06
310.72	38.74
310.935	36.24
311.149	24.16
311.364	24.43
311.578	51.23
311.792	32.53
312.007	38.44
312.221	5.6
312.435	26.15
312.649	-5.16
312.864	32.94
313.078	22.69
313.292	69.31
313.507	49.09
313.721	57.65
313.935	35.66
314.149	52.34
314.363	33.15
314.578	19.34
314.792	-7.91
315.006	14.1
315.22	-4.08
315.434	0.45
315.648	10.31
315.862	9.9
316.077	2.92
316.291	20.09
316.505	24.99
316.719	20.5
316.933	4.97
317.147	16.16
317.361	-19.65
317.575	-14.11
317.789	-14.84
318.003	-10.78
318.217	-1.97
318.431	27.73
318.645	37.61
318.859	35.24
319.073	49.12
319.287	25.78
319.5	-6.28
319.714	-45.89
319.928	-52.6
320.142	-59.58
320.356	0.99
320.57	26.11
320.784	39.3
320.997	52.09
321.211	64.22
321.425	22.9
321.639	-13.61
321.853	7.03
322.066	-5.38
322.28	-32.64
322.494	-24.48
322.707	37.24
322.921	21.37
323.135	19.86
323.349	44.3
323.562	35.04
323.776	-0.31
323.989	-2.2
324.203	-5.9
324.417	-0.46
324.63	-23.68
324.844	-41.38
325.057	-32.95
325.271	-29.25
325.485	-55.43
325.698	1.86
325.912	29.86
326.125	14.07
326.339	28.6
326.552	26.52
326.766	26.2
326.979	38.35
327.193	68.3
327.406	55.53
327.619	60.3
327.833	56.01
328.046	36.1
328.26	3.68
328.473	3.5
328.686	-13.33
328.9	-11.97
329.113	-6.6
329.326	3.29
329.54	15.07
329.753	14.18
329.966	11.3
330.179	19.42
330.393	26.93
330.606	23.26
330.819	39.74
331.032	43.71
331.246	50.08
331.459	58.85
331.672	31.77
331.885	15.99
332.098	-15.96
332.311	-3.04
332.525	-8.03
332.738	6.23
332.951	20.62
333.164	40.32
333.377	40.17
333.59	49.31
333.803	41.5
334.016	32.79
334.229	21.16
334.442	9.1
334.655	21.05
334.868	37.06
335.081	38.94
335.294	42.43
335.507	52.64
335.72	39.23
335.933	19.64
336.146	20.9
336.359	35.62
336.572	5.46
336.785	-6.16
336.997	1.8
337.21	12.08
337.423	-4.62
337.636	6.46
337.849	17.19
338.062	22.96
338.274	17.75
338.487	11.95
338.7	13.85
338.913	-9.02
339.125	-22.15
339.338	-14.16
339.551	-4.72
339.763	26.54
339.976	48.95
340.189	55.03
340.402	54.56
340.614	50.5
340.827	28.25
341.039	4.06
341.252	-11.15
341.465	-23.77
341.677	-43.76
341.89	-81.83
342.102	-54.45
342.315	-32.53
342.527	-33.36
342.74	-12.79
342.952	26.22
343.165	30.49
343.377	45.77
343.59	25.14
343.802	51.2
344.015	65.91
344.227	68.58
344.44	51.6
344.652	55.14
344.864	39.16
345.077	44.22
345.289	35.75
345.502	39.28
345.714	28.55
345.926	18.13
346.139	4.29
346.351	-3.45
346.563	-25.74
346.775	-5.36
346.988	-5.74
347.2	-22.83
347.412	-32.55
347.624	-1.93
347.837	9.31
348.049	18.12
348.261	34.94
348.473	37.47
348.685	-1.18
348.897	-21.46
349.11	-18.26
349.322	-30
349.534	-4.28
349.746	19.68
349.958	32.67
350.17	27.03
350.382	42.59
350.594	43.09
350.806	48.33
351.018	32.01
351.23	34.14
351.442	24.19
351.654	23.05
351.866	15.34
352.078	26.22
352.29	22.47
352.502	42.35
352.714	68.61
352.926	61.16
353.138	62.53
353.35	43.85
353.561	20.67
353.773	-8.68
353.985	7.41
354.197	-0.38
354.409	3.95
354.621	10.2
354.832	13.58
355.044	1.64
355.256	-12.9
355.468	-12.95
355.679	-19.9
355.891	0.22
356.103	-10.45
356.314	8.96
356.526	26.47
356.738	46.88
356.949	41.51
357.161	45.62
357.373	44.5
357.584	33.57
357.796	18.36
358.008	-0.16
358.219	28.11
358.431	34.97
358.642	48.23
358.854	56.26
359.065	54.97
359.277	27.4
359.488	10.42
359.7	-5.87
359.911	-24.45
360.123	-26.12
360.334	-22.57
360.546	-20.97
360.757	-15.46
360.969	-14.22
361.18	10.21
361.391	1.61
361.603	-11.92
361.814	4.28
362.025	5.52
362.237	-0.44
362.448	20.16
362.659	43.64
362.871	36.87
363.082	44.48
363.293	49.81
363.504	46.34
363.716	35.33
363.927	35.66
364.138	12.3
364.349	-17.21
364.56	-24.05
364.772	-44.31
364.983	-30.42
365.194	-32.64
365.405	-22.15
365.616	-13.52
365.827	0.28
366.038	1.33
366.25	36.69
366.461	30.67
366.672	34.24
366.883	44.11
367.094	31.52
367.305	10.03
367.516	30.3
367.727	19.24
367.938	7.92
368.149	1.88
368.36	13.9
368.571	7.7
368.781	1.91
368.992	-10.79
369.203	13.25
369.414	-1.08
369.625	-12.33
369.836	-10.21
370.047	-7.13
370.258	-12.03
370.468	-11.05
370.679	-37.2
370.89	-23.81
371.101	1.59
371.312	-22.22
371.522	-20.08
371.733	7.5
371.944	8.17
372.155	13.65
372.365	2.75
372.576	14.1
372.787	7.56
372.997	-4.47
373.208	-8.63
373.419	13.22
373.629	-4.83
373.84	8.36
374.05	12.56
374.261	18.99
374.472	-2
374.682	19.44
374.893	-0.49
375.103	16.43
375.314	5.89
375.524	24.97
375.735	28.27
375.945	38.79
376.156	8
376.366	14.53
376.577	15.15
376.787	14.6
376.997	29.89
377.208	39.5
377.418	17.51
377.629	24.73
377.839	14
378.049	3.54
378.26	20.76
378.47	40.09
378.68	34.58
378.89	31.88
379.101	29.97
379.311	9.67
379.521	-6.76
379.732	-7.71
379.942	-16.85
380.152	-20.42
380.362	-12.31
380.572	-7.74
380.783	10.9
380.993	22.49
381.203	34.07
381.413	37.72
381.623	44.12
381.833	31.26
382.043	15.54
382.253	6.52
382.463	9.63
382.674	10.33
382.884	-5.28
383.094	4.78
383.304	5.97
383.514	5.47
383.724	5.5
383.934	3.21
384.144	-7.18
384.353	-5.58
384.563	-1.77
384.773	-0.27
384.983	8.41
385.193	20.35
385.403	9.84
385.613	14.89
385.823	11.43
386.033	17.99
386.242	11.35
386.452	16.96
386.662	4.94
386.872	11.15
387.082	8.23
387.291	-1.86
387.501	2.96
387.711	5.47
387.921	-9.91
388.13	-3.64
388.34	12.83
388.55	9.07
388.759	13.73
388.969	23.85
389.179	17.84
389.388	12.58
389.598	13.51
389.807	9.18
390.017	6.7
390.227	6.43
390.436	4.97
390.646	7.89
390.855	10.27
391.065	12.48
391.274	11.17
391.484	9.89
391.693	9
391.903	9.7
392.112	10.92
392.322	14.61
392.531	18.33
392.74	17.37
392.95	12.98
393.159	11.36
393.369	12.11
393.578	8.78
393.787	9.09
393.997	12.57
394.206	12.04
394.415	13.22
394.625	14.54
394.834	13.54
395.043	12.54
395.252	13.84
395.462	13.52
395.671	14.47
395.88	15.29
396.089	15.76
396.298	15.3
396.508	14.34
396.717	14.21
396.926	13.97
397.135	13.92
397.344	13.39
397.553	13.81
397.762	14.46
397.971	14.2
398.181	13.87
398.39	13.06
398.599	12.43
398.808	11.57
399.017	12.09
399.226	12.29
399.435	13.57
399.644	13.57
399.853	13.24
400.062	12.47
400.27	12.54
400.479	11.98
400.688	11.26
400.897	11.63
401.106	11.89
401.315	11.28
401.524	11.11
401.733	11.75
401.941	11.63
402.15	11.79
402.359	11.99
402.568	12.29
402.777	12.24
402.985	12.25
403.194	12.27
403.403	12.32
403.612	11.87
403.82	11.8
404.029	11.79
404.238	11.33
404.446	11.39
404.655	11.07
404.864	11.13
405.072	11.01
405.281	11.15
405.489	10.77
405.698	11.01
405.906	10.78
406.115	10.51
406.324	10.46
406.532	10.61
406.741	10.86
406.949	10.67
407.158	10.77
407.366	10.74
407.574	10.7
407.783	10.41
407.991	10.39
408.2	10.46
408.408	10.29
408.617	10.23
408.825	10.03
409.033	10.24
409.242	10.32
409.45	10.41
409.658	10.27
409.867	10.54
410.075	10.31
410.283	10.05
410.491	9.96
410.7	9.9
410.908	9.76
411.116	9.87
411.324	9.76
411.533	9.84
411.741	9.96
411.949	10.07
412.157	9.87
412.365	10.07
412.573	9.96
412.781	9.95
412.99	9.82
413.198	9.85
413.406	9.8
413.614	9.7
413.822	9.64
414.03	9.54
414.238	9.5
414.446	9.54
414.654	9.46
414.862	9.38
415.07	9.45
415.278	9.51
415.486	9.05
415.694	9.28
415.902	9.24
416.109	9.03
416.317	9.15
416.525	9.1
416.733	8.99
416.941	9.11
417.149	9.11
417.357	8.99
417.564	9.33
417.772	9.29
417.98	9.19
418.188	9.32
418.395	9.29
418.603	9.3
418.811	9.15
419.019	8.93
419.226	9.06
419.434	9.23
419.642	9.06
419.849	9.18
420.057	9.49
420.265	9.41
420.472	9.02
420.68	9.11
420.887	8.98
421.095	8.99
421.302	8.85
421.51	9.05
421.717	9.05
421.925	9.15
422.132	9.03
422.34	8.81
422.547	8.85
422.755	8.9
422.962	8.94
423.17	8.86
423.377	9.14
423.585	9.1
423.792	8.96
423.999	8.82
424.207	8.78
424.414	8.79
424.621	8.83
424.829	8.69
425.036	8.77
425.243	8.73
425.451	8.66
425.658	8.49
425.865	8.55
426.072	8.46
426.28	8.54
426.487	8.35
426.694	8.41
426.901	8.49
427.108	8.46
427.315	8.41
427.523	8.67
427.73	8.6
427.937	8.29
428.144	8.15
428.351	8.08
428.558	8.04
428.765	7.98
428.972	8.15
429.179	8.24
429.386	8.51
429.593	8.45
429.8	8.36
430.007	8.38
430.214	8.44
430.421	8.31
430.628	8.2
430.835	8.09
431.042	8.24
431.249	8.27
431.456	8.39
431.662	8.65
431.869	8.88
432.076	8.86
432.283	8.72
432.49	8.4
432.697	8.28
432.903	7.98
433.11	7.99
433.317	8.27
433.524	8.53
433.73	8.42
433.937	8.79
434.144	8.74
434.35	8.72
434.557	8.66
434.764	8.8
434.97	8.69
435.177	8.79
435.384	8.42
435.59	8.58
435.797	8.61
436.003	8.75
436.21	8.58
436.416	8.81
436.623	8.6
436.829	8.56
437.036	8.47
437.242	8.43
437.449	8.25
437.655	8.28
437.862	8.24
438.068	8.29
438.275	8.45
438.481	8.67
438.687	8.62
438.894	8.57
439.1	8.41
439.307	8.45
439.513	8.33
439.719	8.39
439.926	8.32
440.132	8.41
440.338	8.29
440.544	8.46
440.751	8.34
440.957	8.54
441.163	8.2
441.369	8.3
441.575	8.14
441.782	8.1
441.988	7.87
442.194	8.12
442.4	8.07
442.606	8.21
442.812	8.42
443.018	8.6
443.224	8.74
443.431	8.84
443.637	8.78
443.843	8.54
444.049	8.56
444.255	8.43
444.461	8.38
444.667	8.25
444.873	8.4
445.079	8.47
445.284	8.55
445.49	8.41
445.696	8.34
445.902	8.34
446.108	8.25
446.314	8.1
446.52	8.35
446.726	8.69
446.931	8.57
447.137	8.62
447.343	8.71
447.549	8.37
447.755	8.23
447.96	8.4
448.166	8.31
448.372	8.38
448.578	8.39
448.783	8.38
448.989	8.48
449.195	8.63
449.4	8.54
449.606	8.64
449.812	8.58
450.017	8.54
450.223	8.48
450.428	8.37
450.634	8.57
450.84	8.64
451.045	8.43
451.251	8.33
451.456	8.55
451.662	8.57
451.867	8.62
452.073	8.65
452.278	8.8
452.483	8.93
452.689	8.74
452.894	8.85
453.1	9.02
453.305	8.87
453.51	8.73
453.716	8.75
453.921	8.66
454.127	8.59
454.332	8.5
454.537	8.39
454.742	8.44
454.948	8.53
455.153	8.39
455.358	8.5
455.563	8.69
455.769	8.71
455.974	8.54
456.179	8.64
456.384	8.57
456.589	8.55
456.795	8.37
457	8.45
457.205	8.52
457.41	8.55
457.615	8.48
457.82	8.63
458.025	8.66
458.23	8.46
458.435	8.62
458.64	8.43
458.845	8.58
459.05	8.48
459.255	8.5
459.46	8.37
459.665	8.48
459.87	8.39
460.075	8.32
460.28	8.44
460.485	8.57
460.69	8.66
460.895	8.41
461.099	8.42
461.304	8.69
461.509	8.73
461.714	8.59
461.919	8.9
462.123	8.98
462.328	8.85
462.533	8.6
462.738	8.65
462.942	8.43
463.147	8.48
463.352	8.4
463.556	8.41
463.761	8.54
463.966	8.67
464.17	8.73
464.375	8.59
464.58	8.58
464.784	8.46
464.989	8.3
465.193	8.17
465.398	8.28
