Data from Ofra_PP_Phys_0GT15_Reflection_4.txt Node
Date: Sat Jul 24 20:01:22 EDT 2021
User: USUARIO
Spectrometer: FLMT01687
Trigger mode: 0
Integration Time (sec): 1.100000E0
Scans to average: 2
Electric dark correction enabled: true
Nonlinearity correction enabled: false
Boxcar width: 2
XAxis mode: Wavelengths
Number of Pixels in Spectrum: 3648
>>>>>Begin Spectral Data<<<<<
179.494	416.74
179.716	535.09
179.937	923.21
180.158	726.72
180.38	328.42
180.601	-333.33
180.823	148.24
181.044	-308.53
181.265	44.87
181.486	2.07
181.708	-10.19
181.929	-2317.33
182.15	471.49
182.372	105.59
182.593	-3533.33
182.814	197.95
183.035	169.57
183.257	145.37
183.478	79.67
183.699	97.27
183.92	42.08
184.141	46.61
184.363	25.82
184.584	83.06
184.805	65.95
185.026	73
185.247	62.53
185.468	36.63
185.689	17.07
185.91	27.31
186.132	30.84
186.353	29.38
186.574	46.16
186.795	65.18
187.016	25.03
187.237	48.85
187.458	40.98
187.679	38.26
187.9	56.13
188.121	84.11
188.342	73.51
188.563	67.81
188.784	88.99
189.005	69.76
189.226	78.03
189.447	51.6
189.667	81.29
189.888	59.9
190.109	51.63
190.33	13.18
190.551	17.96
190.772	3.35
190.993	-15.02
191.214	-6.08
191.434	29.54
191.655	47.75
191.876	30.85
192.097	23.31
192.318	28.06
192.538	7.71
192.759	-14.83
192.98	-6.87
193.201	6
193.421	-0.71
193.642	42.57
193.863	45.54
194.083	40.55
194.304	54.25
194.525	64.73
194.745	41.76
194.966	43.49
195.187	35.5
195.407	-10.23
195.628	-51.15
195.848	-47.53
196.069	-95.93
196.29	-103.63
196.51	-108.01
196.731	-103.75
196.951	-66.02
197.172	-29.1
197.392	-5.06
197.613	14.26
197.833	14.76
198.054	0.7
198.274	10.56
198.495	-6.47
198.715	25.47
198.936	10.54
199.156	22.11
199.377	11.21
199.597	11.18
199.817	1.49
200.038	39.64
200.258	56.73
200.479	60.93
200.699	72.84
200.919	76.5
201.14	44.87
201.36	18.48
201.58	11.84
201.801	24.92
202.021	8.17
202.241	28.59
202.461	10.19
202.682	2.05
202.902	-6.59
203.122	6.14
203.342	9.4
203.563	33.67
203.783	46.43
204.003	-7.81
204.223	-103.3
204.443	-40.22
204.663	-43.92
204.884	-69.01
205.104	-42.73
205.324	36.14
205.544	16.08
205.764	26.44
205.984	50.66
206.204	71.1
206.424	50.64
206.644	37.73
206.864	25.26
207.084	22.82
207.304	-0.81
207.525	-21.9
207.745	-1.91
207.964	15.33
208.184	10.1
208.404	22.54
208.624	26.53
208.844	25.58
209.064	6.51
209.284	10.95
209.504	15.31
209.724	26.04
209.944	8.08
210.164	6.14
210.384	5.12
210.604	-4.88
210.823	-24.54
211.043	-36.75
211.263	-13.84
211.483	-19.47
211.703	-13.98
211.922	8.61
212.142	59.31
212.362	46.14
212.582	46.55
212.801	61.77
213.021	36.46
213.241	21.88
213.461	13.45
213.68	-4.14
213.9	-25.7
214.12	5.43
214.339	-0.18
214.559	-6.2
214.779	36.58
214.998	59.55
215.218	43.57
215.438	43.5
215.657	54.85
215.877	48.83
216.096	17.05
216.316	32.77
216.535	16.12
216.755	18.72
216.974	-4.83
217.194	0.23
217.413	-5.1
217.633	9.48
217.852	-12.7
218.072	-5.04
218.291	-11.5
218.511	-7.95
218.73	-34.03
218.95	-23.48
219.169	-15.36
219.389	-35.15
219.608	-44.68
219.827	-7.52
220.047	2.64
220.266	-11.21
220.485	0.71
220.705	22.1
220.924	-1.82
221.143	12.57
221.363	-1.72
221.582	21.58
221.801	10.33
222.021	32.28
222.24	39.7
222.459	59.16
222.678	46.86
222.897	44.84
223.117	47.13
223.336	44.93
223.555	58.72
223.774	62.35
223.993	47.75
224.213	32.55
224.432	21.04
224.651	20.73
224.87	31.19
225.089	67.86
225.308	63.77
225.527	78.92
225.746	67.61
225.965	54.39
226.184	23.01
226.404	29.02
226.623	14.25
226.842	16.75
227.061	37.1
227.28	48.1
227.499	55.9
227.718	77.45
227.936	81.8
228.155	78.7
228.374	49.06
228.593	42.05
228.812	23.46
229.031	17.49
229.25	-10.12
229.469	26.12
229.688	31.21
229.907	35.23
230.125	49.49
230.344	58.96
230.563	47.56
230.782	61.27
231.001	35.47
231.22	32.22
231.438	35.73
231.657	18.1
231.876	5.66
232.095	33.77
232.313	35.49
232.532	35.72
232.751	57.15
232.969	43.81
233.188	33.75
233.407	18.43
233.625	15.61
233.844	-0.86
234.063	-15.9
234.281	8.16
234.5	30.17
234.719	26.93
234.937	29.21
235.156	30.53
235.374	28.71
235.593	47.82
235.811	50.01
236.03	56.61
236.249	54.44
236.467	67.37
236.686	41.56
236.904	49.07
237.123	16.34
237.341	43.21
237.559	14.52
237.778	-1.18
237.996	-19.26
238.215	15.61
238.433	-0.31
238.652	4.88
238.87	-16.99
239.088	-11.61
239.307	-7.66
239.525	5.09
239.743	-4.06
239.962	28.97
240.18	19.8
240.398	-11.14
240.617	-32.78
240.835	-14.01
241.053	-50.92
241.271	-20.88
241.49	11.47
241.708	24.65
241.926	16.58
242.144	27.89
242.363	14.97
242.581	19.34
242.799	25.54
243.017	17.14
243.235	-1.38
243.453	31.22
243.672	8.57
243.89	21.62
244.108	41.75
244.326	58.02
244.544	35.11
244.762	26.85
244.98	3.56
245.198	-5.57
245.416	-34.81
245.634	-43.83
245.852	-27.43
246.07	3.67
246.288	14.74
246.506	37.72
246.724	45.71
246.942	46.98
247.16	34.38
247.378	33.03
247.596	33.04
247.814	41.31
248.032	7.46
248.25	7.99
248.468	13.55
248.685	20.61
248.903	6.28
249.121	23.76
249.339	0.44
249.557	-20.97
249.775	-40.69
249.992	-60.54
250.21	-73.29
250.428	-34.61
250.646	-25.12
250.863	-18.23
251.081	-8.75
251.299	14.79
251.517	18.46
251.734	20.83
251.952	22.96
252.17	28.62
252.387	40.14
252.605	19.33
252.823	13.33
253.04	17.98
253.258	21.78
253.475	17.46
253.693	31.34
253.911	49.32
254.128	41.19
254.346	52.79
254.563	30.95
254.781	27
254.998	16.92
255.216	14.86
255.433	8.28
255.651	40.96
255.868	50.82
256.086	54.43
256.303	58.77
256.521	65.09
256.738	31.64
256.956	30.39
257.173	55.68
257.39	58.99
257.608	47.83
257.825	51.45
258.043	46.08
258.26	32.82
258.477	24.1
258.695	6.89
258.912	-12.06
259.129	-6.47
259.346	-24.36
259.564	-22.12
259.781	3.67
259.998	2.03
260.216	14.43
260.433	18.54
260.65	12.66
260.867	9.1
261.084	11.77
261.302	9.99
261.519	31.58
261.736	33.57
261.953	30.11
262.17	41.08
262.387	37.15
262.604	22.76
262.822	21.09
263.039	16.71
263.256	13.15
263.473	21.13
263.69	12.7
263.907	21.66
264.124	37.58
264.341	39.8
264.558	26.79
264.775	26.42
264.992	31.3
265.209	33.3
265.426	30.01
265.643	25.32
265.86	30.62
266.077	29.06
266.294	11.62
266.51	24.73
266.727	27.16
266.944	37.99
267.161	30.31
267.378	29.97
267.595	29.55
267.812	-1.38
268.028	-3.75
268.245	-4.98
268.462	10.53
268.679	4.22
268.896	43.15
269.112	27.95
269.329	17.46
269.546	26.89
269.763	25.91
269.979	22.65
270.196	33.76
270.413	48.45
270.629	38.22
270.846	28.56
271.063	30.45
271.279	24.87
271.496	0.69
271.712	-2.16
271.929	3.51
272.146	8.29
272.362	8.33
272.579	39.75
272.795	45.27
273.012	51.45
273.228	33.24
273.445	17.61
273.661	-0.66
273.878	-55.39
274.094	-53.58
274.311	-60.02
274.527	-21.38
274.744	-1.7
274.96	36.73
275.177	44.86
275.393	48.49
275.609	51.23
275.826	40.19
276.042	40.24
276.259	51.22
276.475	42.55
276.691	22.52
276.908	23.77
277.124	35.78
277.34	22.59
277.557	26.94
277.773	33.7
277.989	31.25
278.205	27.43
278.422	18.33
278.638	23.16
278.854	13.45
279.07	21.76
279.286	2.53
279.503	9.67
279.719	11.59
279.935	17.94
280.151	5.04
280.367	23.05
280.583	24.26
280.799	11.43
281.016	3.05
281.232	7.31
281.448	1.67
281.664	3.01
281.88	8.5
282.096	19.34
282.312	28.69
282.528	36.48
282.744	39.43
282.96	43.88
283.176	55.72
283.392	39.93
283.608	31.37
283.824	17.13
284.04	16.27
284.256	16.91
284.471	22.74
284.687	17.56
284.903	21.67
285.119	37.8
285.335	25.25
285.551	36.88
285.767	45.27
285.982	51.49
286.198	22.07
286.414	27.73
286.63	19.26
286.846	18.61
287.061	5.27
287.277	5.55
287.493	16.19
287.709	11.85
287.924	6.93
288.14	30.27
288.356	42.9
288.571	33.92
288.787	33.61
289.003	44.44
289.218	25.86
289.434	8.4
289.65	22.74
289.865	30.22
290.081	20.87
290.296	26.04
290.512	24.2
290.727	34.18
290.943	29.35
291.159	25.4
291.374	19.62
291.59	10.17
291.805	-6.53
292.021	2.79
292.236	3.77
292.451	6.68
292.667	23.57
292.882	27.99
293.098	34.47
293.313	34.94
293.529	27.72
293.744	9.29
293.959	-5.52
294.175	-2.17
294.39	0.3
294.605	19.7
294.821	36.36
295.036	34.47
295.251	34.57
295.467	44.05
295.682	27.2
295.897	16.43
296.112	9.99
296.328	1.67
296.543	-1.09
296.758	-2.53
296.973	16.04
297.188	40.97
297.404	27.96
297.619	28.13
297.834	32.26
298.049	18.82
298.264	2.06
298.479	15.58
298.694	17.13
298.909	17.04
299.125	17.1
299.34	31.74
299.555	24.75
299.77	24.85
299.985	-5.57
300.2	-1.35
300.415	-23.13
300.63	-9.69
300.845	-6.18
301.06	2.31
301.275	-6.56
301.49	-10.27
301.704	-15.47
301.919	-28.92
302.134	-31.79
302.349	13.31
302.564	10.27
302.779	15.17
302.994	39.74
303.209	49.63
303.423	35.97
303.638	45.84
303.853	38.84
304.068	8.22
304.283	-2.49
304.497	-0.86
304.712	8.98
304.927	14.14
305.142	9.18
305.356	18.08
305.571	28.73
305.786	17.72
306	20.77
306.215	36.91
306.43	23.51
306.644	15.1
306.859	20.62
307.074	0.97
307.288	-18.4
307.503	-24.2
307.717	-17.09
307.932	-21.75
308.147	-6.23
308.361	22.55
308.576	16.42
308.79	-1.03
309.005	21.58
309.219	18.17
309.434	17.18
309.648	16.86
309.863	27.5
310.077	15.95
310.292	23.16
310.506	7.29
310.72	35.74
310.935	46.78
311.149	41.61
311.364	39.14
311.578	51.15
311.792	47.75
312.007	35.8
312.221	28.24
312.435	35.09
312.649	19.91
312.864	41.65
313.078	44.09
313.292	74.87
313.507	53
313.721	50.33
313.935	24.86
314.149	38.48
314.363	14
314.578	16.37
314.792	2.83
315.006	15.56
315.22	3.44
315.434	9.66
315.648	15.61
315.862	16.78
316.077	17.43
316.291	26.27
316.505	34.92
316.719	43.68
316.933	27.44
317.147	29.19
317.361	27.23
317.575	10.86
317.789	7.51
318.003	3.65
318.217	2.93
318.431	11.75
318.645	24.71
318.859	13.04
319.073	32.22
319.287	29.62
319.5	12.79
319.714	7.06
319.928	9.56
320.142	1.57
320.356	22.84
320.57	41.42
320.784	28.43
320.997	27.81
321.211	34.54
321.425	7.09
321.639	-36.16
321.853	-8.69
322.066	-1.01
322.28	-15.81
322.494	-4.67
322.707	42.06
322.921	26.51
323.135	18.72
323.349	19.44
323.562	18.66
323.776	-3.43
323.989	-1.8
324.203	-1.44
324.417	10.66
324.63	-2.53
324.844	-6.17
325.057	-20.84
325.271	-30.36
325.485	-42.41
325.698	0.46
325.912	12.93
326.125	22.24
326.339	36.6
326.552	46.22
326.766	47.66
326.979	55.17
327.193	57.91
327.406	43.76
327.619	45.94
327.833	38.91
328.046	28.29
328.26	26.55
328.473	32.9
328.686	28.02
328.9	26.23
329.113	31.49
329.326	24.42
329.54	30.24
329.753	33.29
329.966	20.14
330.179	44.4
330.393	46.8
330.606	34.76
330.819	41.35
331.032	53.24
331.246	44.27
331.459	46.59
331.672	49.94
331.885	31.08
332.098	17.33
332.311	16.66
332.525	14.77
332.738	16.4
332.951	27.37
333.164	37.95
333.377	38.53
333.59	37.92
333.803	30.84
334.016	19.44
334.229	17.35
334.442	14.77
334.655	11.25
334.868	23.15
335.081	34.3
335.294	25.35
335.507	30.99
335.72	40.37
335.933	26.29
336.146	17.36
336.359	24.35
336.572	6.39
336.785	1.3
336.997	4.21
337.21	19.07
337.423	18.62
337.636	26.92
337.849	31.94
338.062	34.33
338.274	41.05
338.487	29.31
338.7	24.63
338.913	15.63
339.125	9.89
339.338	4.81
339.551	10.96
339.763	31.85
339.976	46.88
340.189	56.84
340.402	51.09
340.614	45.43
340.827	40.01
341.039	21.43
341.252	9.84
341.465	8.85
341.677	5
341.89	-29.85
342.102	-16.02
342.315	-9.78
342.527	-8.1
342.74	5.15
342.952	35.13
343.165	28.67
343.377	38.36
343.59	31.83
343.802	32.4
344.015	25.29
344.227	39.51
344.44	25.57
344.652	31.42
344.864	32.89
345.077	38.9
345.289	36.37
345.502	46.48
345.714	35.77
345.926	30.89
346.139	36.53
346.351	43.37
346.563	30.64
346.775	39.66
346.988	32.88
347.2	26.27
347.412	-4.38
347.624	5.86
347.837	13.3
348.049	27.52
348.261	29.56
348.473	27.36
348.685	8.21
348.897	-8.45
349.11	-16.71
349.322	-20.49
349.534	6.13
349.746	23.6
349.958	38.66
350.17	42.43
350.382	43.06
350.594	43.93
350.806	49.88
351.018	30.66
351.23	25.59
351.442	25.64
351.654	14.37
351.866	-3.92
352.078	6.59
352.29	2.93
352.502	16.63
352.714	31.01
352.926	43.61
353.138	36.56
353.35	24.69
353.561	17.65
353.773	6.51
353.985	6.68
354.197	7.97
354.409	18
354.621	22.09
354.832	30.51
355.044	28.57
355.256	29.15
355.468	34.7
355.679	16.04
355.891	19.72
356.103	14.27
356.314	18.24
356.526	24.47
356.738	39.24
356.949	36.54
357.161	35.07
357.373	29.95
357.584	16.12
357.796	22.12
358.008	10.52
358.219	32.27
358.431	26.6
358.642	31.51
358.854	31.45
359.065	38.68
359.277	15.63
359.488	12.76
359.7	5.21
359.911	-2.38
360.123	-8
360.334	-2.77
360.546	-1.35
360.757	4.22
360.969	1.32
361.18	12.79
361.391	10.01
361.603	11.47
361.814	8.51
362.025	-3.02
362.237	-9.99
362.448	-1.6
362.659	16.71
362.871	16.66
363.082	28.19
363.293	32.46
363.504	28.08
363.716	17.75
363.927	20.55
364.138	11.21
364.349	-3.22
364.56	-0.78
364.772	-3.82
364.983	4.6
365.194	1.26
365.405	13.46
365.616	8.63
365.827	-15.56
366.038	-17.32
366.25	-9.37
366.461	-25.48
366.672	-3.87
366.883	17.9
367.094	10.78
367.305	6.95
367.516	24.64
367.727	20.22
367.938	9
368.149	-3.6
368.36	3.24
368.571	1.24
368.781	-1
368.992	-6.16
369.203	19.84
369.414	12.74
369.625	-2.51
369.836	-2.31
370.047	-5.75
370.258	-13.11
370.468	-3.98
370.679	-12.68
370.89	-8.89
371.101	23.85
371.312	11
371.522	11.42
371.733	31.97
371.944	37.04
372.155	31.7
372.365	24.15
372.576	29.59
372.787	15.26
372.997	12.89
373.208	3.16
373.419	17.29
373.629	-1.52
373.84	10.47
374.05	-6.71
374.261	6.94
374.472	-10.7
374.682	8.43
374.893	-0.1
375.103	15.87
375.314	-0.2
375.524	17.35
375.735	20.98
375.945	25.5
376.156	15.58
376.366	20.9
376.577	14.36
376.787	11.5
376.997	23.17
377.208	33.14
377.418	25.93
377.629	34.55
377.839	32.34
378.049	23.08
378.26	27.71
378.47	41.14
378.68	33.43
378.89	29.14
379.101	31.95
379.311	19.41
379.521	9.46
379.732	14.68
379.942	3.1
380.152	5.39
380.362	9.21
380.572	7.65
380.783	12.42
380.993	22.52
381.203	19.12
381.413	19.08
381.623	13.82
381.833	11.27
382.043	0.3
382.253	1.82
382.463	7.34
382.674	15.95
382.884	9.42
383.094	20.03
383.304	21.29
383.514	13.76
383.724	13.73
383.934	11.81
384.144	1.22
384.353	-2.36
384.563	5.94
384.773	6.79
384.983	7.14
385.193	13.67
385.403	5.51
385.613	7.79
385.823	7.07
386.033	13.13
386.242	8.6
386.452	15.45
386.662	9.35
386.872	10.87
387.082	9.2
387.291	5.15
387.501	6.43
387.711	9.17
387.921	-0.24
388.13	3.68
388.34	11.37
388.55	8.47
388.759	9.98
388.969	12.83
389.179	8.69
389.388	7.05
389.598	6.58
389.807	3.2
390.017	5.31
390.227	5.09
390.436	4.2
390.646	7.18
390.855	7.97
391.065	7.69
391.274	6.73
391.484	4.74
391.693	3.72
391.903	5.09
392.112	5.72
392.322	7.29
392.531	10.72
392.74	10.09
392.95	6.61
393.159	6.33
393.369	7.03
393.578	5.16
393.787	5.55
393.997	7.98
394.206	7.94
394.415	8.01
394.625	8.03
394.834	6.78
395.043	6.37
395.252	7.24
395.462	7.19
395.671	7.59
395.88	8.59
396.089	8.73
396.298	8.38
396.508	7.95
396.717	8.43
396.926	8.28
397.135	8.42
397.344	7.64
397.553	7.64
397.762	7.52
397.971	7.75
398.181	7.05
398.39	6.17
398.599	5.62
398.808	5.33
399.017	4.99
399.226	5.24
399.435	6.05
399.644	6.05
399.853	5.84
400.062	5.6
400.27	5.75
400.479	5.59
400.688	5.56
400.897	5.84
401.106	5.76
401.315	5.27
401.524	5.47
401.733	5.73
401.941	5.72
402.15	5.77
402.359	5.76
402.568	5.7
402.777	5.42
402.985	5.33
403.194	5.37
403.403	5.49
403.612	5.25
403.82	5.5
404.029	5.36
404.238	5.19
404.446	5.23
404.655	5.09
404.864	4.91
405.072	4.88
405.281	5.01
405.489	4.76
405.698	4.8
405.906	4.74
406.115	4.62
406.324	4.48
406.532	4.55
406.741	4.74
406.949	4.61
407.158	4.73
407.366	4.8
407.574	4.83
407.783	4.74
407.991	4.87
408.2	4.81
408.408	4.64
408.617	4.59
408.825	4.5
409.033	4.57
409.242	4.61
409.45	4.73
409.658	4.65
409.867	4.76
410.075	4.59
410.283	4.5
410.491	4.51
410.7	4.39
410.908	4.22
411.116	4.27
411.324	4.29
411.533	4.31
411.741	4.39
411.949	4.56
412.157	4.47
412.365	4.57
412.573	4.44
412.781	4.48
412.99	4.37
413.198	4.49
413.406	4.46
413.614	4.59
413.822	4.59
414.03	4.54
414.238	4.37
414.446	4.34
414.654	4.14
414.862	4.12
415.07	4.24
415.278	4.5
415.486	4.25
415.694	4.43
415.902	4.45
416.109	4.32
416.317	4.15
416.525	4.15
416.733	4.15
416.941	4.14
417.149	4.09
417.357	4.12
417.564	4.21
417.772	4.01
417.98	4.07
418.188	4.18
418.395	4.1
418.603	4.19
418.811	4.19
419.019	4.11
419.226	4.14
419.434	4.26
419.642	4.15
419.849	4.21
420.057	4.25
420.265	4.26
420.472	4.16
420.68	4.25
420.887	4.11
421.095	4.07
421.302	3.89
421.51	3.96
421.717	3.98
421.925	4.14
422.132	4.01
422.34	3.85
422.547	3.83
422.755	3.86
422.962	3.8
423.17	3.85
423.377	4
423.585	3.83
423.792	3.7
423.999	3.75
424.207	3.73
424.414	3.68
424.621	3.69
424.829	3.7
425.036	3.6
425.243	3.57
425.451	3.59
425.658	3.67
425.865	3.56
426.072	3.66
426.28	3.71
426.487	3.63
426.694	3.7
426.901	3.86
427.108	3.84
427.315	3.81
427.523	4.03
427.73	3.97
427.937	3.68
428.144	3.59
428.351	3.66
428.558	3.59
428.765	3.57
428.972	3.66
429.179	3.69
429.386	3.76
429.593	3.76
429.8	3.67
430.007	3.76
430.214	3.83
430.421	3.82
430.628	3.68
430.835	3.62
431.042	3.76
431.249	3.69
431.456	3.75
431.662	3.96
431.869	4.09
432.076	3.89
432.283	3.75
432.49	3.51
432.697	3.33
432.903	3.11
433.11	3.25
433.317	3.48
433.524	3.54
433.73	3.53
433.937	3.8
434.144	3.73
434.35	3.69
434.557	3.67
434.764	3.7
434.97	3.63
435.177	3.73
435.384	3.55
435.59	3.79
435.797	3.86
436.003	3.77
436.21	3.63
436.416	3.64
436.623	3.46
436.829	3.47
437.036	3.5
437.242	3.48
437.449	3.52
437.655	3.46
437.862	3.44
438.068	3.45
438.275	3.5
438.481	3.6
438.687	3.61
438.894	3.57
439.1	3.57
439.307	3.62
439.513	3.49
439.719	3.55
439.926	3.58
440.132	3.56
440.338	3.53
440.544	3.52
440.751	3.41
440.957	3.5
441.163	3.37
441.369	3.37
441.575	3.39
441.782	3.41
441.988	3.25
442.194	3.32
442.4	3.21
442.606	3.38
442.812	3.49
443.018	3.49
443.224	3.58
443.431	3.7
443.637	3.59
443.843	3.46
444.049	3.55
444.255	3.48
444.461	3.42
444.667	3.34
444.873	3.42
445.079	3.42
445.284	3.5
445.49	3.49
445.696	3.45
445.902	3.49
446.108	3.48
446.314	3.44
446.52	3.59
446.726	3.74
446.931	3.62
447.137	3.62
447.343	3.67
447.549	3.45
447.755	3.45
447.96	3.55
448.166	3.6
448.372	3.62
448.578	3.66
448.783	3.6
448.989	3.62
449.195	3.62
449.4	3.63
449.606	3.66
449.812	3.59
450.017	3.62
450.223	3.62
450.428	3.48
450.634	3.5
450.84	3.56
451.045	3.48
451.251	3.39
451.456	3.53
451.662	3.6
451.867	3.65
452.073	3.58
452.278	3.55
452.483	3.53
452.689	3.53
452.894	3.52
453.1	3.66
453.305	3.62
453.51	3.54
453.716	3.45
453.921	3.49
454.127	3.53
454.332	3.57
454.537	3.57
454.742	3.62
454.948	3.6
455.153	3.46
455.358	3.52
455.563	3.58
455.769	3.56
455.974	3.49
456.179	3.51
456.384	3.42
456.589	3.39
456.795	3.33
457	3.33
457.205	3.35
457.41	3.41
457.615	3.43
457.82	3.46
458.025	3.55
458.23	3.56
458.435	3.63
458.64	3.48
458.845	3.51
459.05	3.42
459.255	3.3
459.46	3.22
459.665	3.37
459.87	3.38
460.075	3.37
460.28	3.47
460.485	3.56
460.69	3.55
460.895	3.46
461.099	3.39
461.304	3.46
461.509	3.45
461.714	3.35
461.919	3.44
462.123	3.45
462.328	3.41
462.533	3.29
462.738	3.32
462.942	3.18
463.147	3.23
463.352	3.27
463.556	3.3
463.761	3.32
463.966	3.47
464.17	3.6
464.375	3.53
464.58	3.46
464.784	3.59
464.989	3.51
465.193	3.38
465.398	3.37
465.602	3.54
465.807	3.37
466.011	3.5
466.216	3.61
466.42	3.62
466.625	3.57
466.829	3.71
467.034	3.65
467.238	3.65
467.443	3.58
467.647	3.48
467.851	3.44
468.056	3.47
468.26	3.41
468.464	3.46
