Data from Ofra_PP_Phys_0GT1H_Reflection_3.txt Node
Date: Sat Jul 24 20:06:13 EDT 2021
User: USUARIO
Spectrometer: FLMT01687
Trigger mode: 0
Integration Time (sec): 1.100000E0
Scans to average: 2
Electric dark correction enabled: true
Nonlinearity correction enabled: false
Boxcar width: 2
XAxis mode: Wavelengths
Number of Pixels in Spectrum: 3648
>>>>>Begin Spectral Data<<<<<
179.494	575.99
179.716	747.72
179.937	1337.43
180.158	1110.79
180.38	527.87
180.601	-355.61
180.823	169.07
181.044	-515.5
181.265	11.54
181.486	-20.61
181.708	-280.49
181.929	-4329.33
182.15	711.24
182.372	23.52
182.593	24166.67
182.814	-206.67
183.035	97.03
183.257	52.94
183.478	-21.76
183.699	-94.27
183.92	-82.89
184.141	-8.92
184.363	-44.72
184.584	41.94
184.805	49.28
185.026	66.6
185.247	55.9
185.468	29.66
185.689	20.33
185.91	20.93
186.132	-11.23
186.353	-13.31
186.574	17.57
186.795	6.56
187.016	-38.62
187.237	-8.74
187.458	-20.77
187.679	-6.58
187.9	50.07
188.121	73.88
188.342	86.67
188.563	64.45
188.784	67.06
189.005	34.57
189.226	47.12
189.447	16
189.667	31.17
189.888	1.15
190.109	-21.86
190.33	-39.37
190.551	-56.78
190.772	-71.87
190.993	-99.33
191.214	-77.55
191.434	-96.95
191.655	-8.05
191.876	-9.47
192.097	14.18
192.318	16.67
192.538	15.61
192.759	-7.97
192.98	-12.43
193.201	-11.37
193.421	-38.41
193.642	0.71
193.863	-7.11
194.083	-12.15
194.304	-1.98
194.525	20.53
194.745	-3.8
194.966	-36.19
195.187	-41.2
195.407	-103.94
195.628	-156.89
195.848	-152.14
196.069	-162.56
196.29	-132.05
196.51	-159.25
196.731	-152.55
196.951	-113.13
197.172	-86.03
197.392	-72.48
197.613	-31.3
197.833	-15.82
198.054	-32.12
198.274	-24.38
198.495	-89.81
198.715	-51.3
198.936	-89.6
199.156	-65.14
199.377	-72.34
199.597	-46.52
199.817	-61.07
200.038	-11.2
200.258	7.43
200.479	36.5
200.699	35.63
200.919	15.6
201.14	-35.05
201.36	-38.8
201.58	-64.22
201.801	-49.69
202.021	-61.96
202.241	-23.86
202.461	-47.3
202.682	-59.26
202.902	-29.47
203.122	-34.42
203.342	-16.57
203.563	13.5
203.783	21.58
204.003	-77.83
204.223	-168.42
204.443	-76.7
204.663	-93.56
204.884	-81
205.104	-17.29
205.324	39.25
205.544	32.61
205.764	28.12
205.984	54.8
206.204	48.23
206.424	59.52
206.644	18.15
206.864	28.85
207.084	1.83
207.304	21.31
207.525	-17.79
207.745	-9.84
207.964	-28.09
208.184	-11.28
208.404	-21.43
208.624	-9.89
208.844	1.97
209.064	-26.2
209.284	-41.04
209.504	-45.95
209.724	-42.12
209.944	-60.84
210.164	-7.05
210.384	10.02
210.604	19.76
210.823	-15.4
211.043	-45.95
211.263	-60.7
211.483	-69.74
211.703	-61.82
211.922	-31.4
212.142	24.88
212.362	43.14
212.582	36.08
212.801	27.39
213.021	5.32
213.241	0.72
213.461	-27.54
213.68	-50.22
213.9	-57.17
214.12	-42.03
214.339	-66.9
214.559	-61.34
214.779	-28.63
214.998	-5.46
215.218	-33.69
215.438	-38.74
215.657	-45.3
215.877	-18.05
216.096	-8.64
216.316	26.45
216.535	32.03
216.755	31.1
216.974	4.22
217.194	-1.9
217.413	-22.9
217.633	-24.48
217.852	-85.43
218.072	-71.22
218.291	-78.95
218.511	-43.54
218.73	-99.86
218.95	-83.96
219.169	-82.37
219.389	-104.41
219.608	-120.29
219.827	-56.67
220.047	-31.67
220.266	-32.28
220.485	-30.59
220.705	-3.02
220.924	-36.94
221.143	-17.67
221.363	-75.25
221.582	-26.49
221.801	-35.49
222.021	-6.77
222.24	-7.62
222.459	33.65
222.678	7.75
222.897	5.36
223.117	-3.88
223.336	-18.57
223.555	8.7
223.774	18.54
223.993	18.14
224.213	61.48
224.432	51.61
224.651	53.47
224.87	49.62
225.089	60.09
225.308	39.91
225.527	68.22
225.746	67.94
225.965	54.12
226.184	32.07
226.404	32.99
226.623	-5.13
226.842	-2.94
227.061	30.82
227.28	42.42
227.499	52.11
227.718	83.93
227.936	57.26
228.155	31.39
228.374	-13.6
228.593	-14.98
228.812	-7.61
229.031	12.05
229.25	0.07
229.469	36.5
229.688	26.32
229.907	17.67
230.125	23.91
230.344	33.55
230.563	23.25
230.782	42.27
231.001	-6.1
231.22	-7.83
231.438	-14.18
231.657	-3.98
231.876	-22.28
232.095	10.41
232.313	13.54
232.532	7.84
232.751	13.61
232.969	19.92
233.188	18.28
233.407	5.21
233.625	0.23
233.844	-14.69
234.063	-42.95
234.281	-16.14
234.5	-2.53
234.719	16.34
234.937	41.06
235.156	60.89
235.374	49.63
235.593	62.76
235.811	60.14
236.03	60.77
236.249	42.89
236.467	60.44
236.686	46.5
236.904	44.42
237.123	-22.67
237.341	-5.15
237.559	-27.86
237.778	-38.84
237.996	-56.45
238.215	-13
238.433	-32.23
238.652	-16.9
238.87	-40.38
239.088	-26.7
239.307	-22.82
239.525	-17.08
239.743	-48.78
239.962	-17.59
240.18	-38.58
240.398	-58.14
240.617	-75.33
240.835	-34.16
241.053	-67.49
241.271	-17.87
241.49	7.99
241.708	1.17
241.926	-1.89
242.144	27.06
242.363	-10.21
242.581	-14.41
242.799	17.46
243.017	0.7
243.235	-38.74
243.453	1.13
243.672	-47.19
243.89	-35.74
244.108	-16.97
244.326	7.67
244.544	11.86
244.762	19.68
244.98	25.09
245.198	32.69
245.416	6.97
245.634	-12.53
245.852	7.92
246.07	-6.53
246.288	-18.03
246.506	-3.22
246.724	20.38
246.942	11.06
247.16	24.93
247.378	32.47
247.596	33.86
247.814	29.53
248.032	-2.97
248.25	-11.88
248.468	-4.29
248.685	19.09
248.903	15.86
249.121	26.42
249.339	-0.73
249.557	-8.8
249.775	-37.08
249.992	-77.65
250.21	-80.41
250.428	-49.42
250.646	-56.47
250.863	-46.63
251.081	-30.13
251.299	-0.58
251.517	-1.59
251.734	-2.33
251.952	-8.56
252.17	7.75
252.387	16.61
252.605	-7.57
252.823	8.08
253.04	31.53
253.258	37.76
253.475	29.49
253.693	57.54
253.911	58.07
254.128	46.74
254.346	46.45
254.563	24.71
254.781	-2.07
254.998	-3.56
255.216	-5.78
255.433	-7.58
255.651	27.3
255.868	43.29
256.086	36.19
256.303	30.24
256.521	12.9
256.738	-13.45
256.956	-33.19
257.173	-21.7
257.39	-17.7
257.608	-13.02
257.825	1.24
258.043	24.87
258.26	24.1
258.477	15.29
258.695	24.66
258.912	-14.8
259.129	-14.83
259.346	-44.22
259.564	-40.33
259.781	-22.23
259.998	6.66
260.216	21.28
260.433	35.48
260.65	25.33
260.867	29.35
261.084	6.63
261.302	-8.13
261.519	10.62
261.736	3.74
261.953	-13.57
262.17	9.64
262.387	4.73
262.604	-15.15
262.822	-12.95
263.039	-16.91
263.256	-37.19
263.473	-16.46
263.69	-30
263.907	-0.1
264.124	12.76
264.341	45.48
264.558	18.72
264.775	35.59
264.992	31.91
265.209	33.62
265.426	18.8
265.643	33.69
265.86	18.65
266.077	28.07
266.294	9.15
266.51	19.4
266.727	4.08
266.944	31.37
267.161	10.87
267.378	16.65
267.595	7.41
267.812	-17.91
268.028	-22.95
268.245	-5.54
268.462	-11.98
268.679	-13.08
268.896	21.97
269.112	10.48
269.329	0.63
269.546	20.21
269.763	25.07
269.979	19.17
270.196	16.93
270.413	13.13
270.629	-6.56
270.846	-12.69
271.063	0.49
271.279	-20.81
271.496	-46.01
271.712	-38.59
271.929	-41.7
272.146	-28.38
272.362	-13.02
272.579	24.9
272.795	43.04
273.012	59.62
273.228	44.3
273.445	28.11
273.661	-8.2
273.878	-94.13
274.094	-95.7
274.311	-108.53
274.527	-75.79
274.744	-48.91
274.96	15.8
275.177	21.62
275.393	13.8
275.609	15.88
275.826	24.29
276.042	6.71
276.259	2.03
276.475	-12.77
276.691	4.38
276.908	-8.63
277.124	22.28
277.34	22
277.557	40.36
277.773	31.76
277.989	27.16
278.205	16.45
278.422	26.94
278.638	32.77
278.854	29.6
279.07	26.95
279.286	-3.43
279.503	-25.31
279.719	-23.21
279.935	-27.38
280.151	-29.13
280.367	1.68
280.583	14.02
280.799	8.98
281.016	7.77
281.232	18.85
281.448	22.5
281.664	34.01
281.88	22.28
282.096	22.74
282.312	28.14
282.528	25.83
282.744	14.91
282.96	26.19
283.176	28.34
283.392	7.46
283.608	11.33
283.824	7.13
284.04	8.26
284.256	16.14
284.471	24.01
284.687	21.56
284.903	23.45
285.119	39.67
285.335	11.38
285.551	15.09
285.767	2.79
285.982	-8.81
286.198	-29.95
286.414	-12.89
286.63	-10.26
286.846	-5.36
287.061	-23.42
287.277	-19.91
287.493	-10.05
287.709	-1.92
287.924	-8.99
288.14	25.32
288.356	30.36
288.571	31.42
288.787	14.9
289.003	28.73
289.218	18.23
289.434	-28.87
289.65	-21.26
289.865	-6.15
290.081	-5.13
290.296	-1.41
290.512	11.77
290.727	12.36
290.943	-0.49
291.159	-9.68
291.374	-14.43
291.59	-36.54
291.805	-47.27
292.021	-33.26
292.236	-36.96
292.451	-28.66
292.667	1.15
292.882	6.06
293.098	18.89
293.313	6.88
293.529	7.95
293.744	-17.86
293.959	-19.1
294.175	-23.24
294.39	8.34
294.605	16.12
294.821	35.7
295.036	19.66
295.251	30.34
295.467	16.8
295.682	13
295.897	-5.07
296.112	-10.04
296.328	-17.03
296.543	-24.17
296.758	-34.74
296.973	-4.83
297.188	36.99
297.404	3.42
297.619	18.92
297.834	24.56
298.049	13.11
298.264	-14.83
298.479	20.41
298.694	18.38
298.909	20.85
299.125	28.06
299.34	39.82
299.555	24.38
299.77	29.76
299.985	-14.28
300.2	-50.16
300.415	-81.33
300.63	-57.07
300.845	-58.54
301.06	-48.31
301.275	-27.11
301.49	-14.7
301.704	-23.78
301.919	-44.52
302.134	-45.09
302.349	-6.56
302.564	-16.85
302.779	-10.23
302.994	25.61
303.209	17.58
303.423	1.38
303.638	42.51
303.853	22.75
304.068	-19.81
304.283	-3.8
304.497	-10.11
304.712	-26.36
304.927	-16.24
305.142	-4.3
305.356	-0.94
305.571	-2.21
305.786	-1.69
306	-5.16
306.215	-0.22
306.43	-6.71
306.644	7.39
306.859	4.21
307.074	-7.4
307.288	-32.55
307.503	-31.06
307.717	-47.04
307.932	-43.63
308.147	-30.14
308.361	2.21
308.576	-10.19
308.79	-51.05
309.005	-25.93
309.219	-12.96
309.434	-2.87
309.648	-16.76
309.863	21.2
310.077	13.08
310.292	-1.07
310.506	-33.84
310.72	0.91
310.935	27.46
311.149	20.63
311.364	31.62
311.578	52.32
311.792	40.74
312.007	34.4
312.221	2.81
312.435	11.85
312.649	-17.72
312.864	41.54
313.078	28.25
313.292	75.41
313.507	55.33
313.721	61.13
313.935	25.05
314.149	42.11
314.363	29.85
314.578	17.05
314.792	-4.3
315.006	10.62
315.22	-5.01
315.434	-5.66
315.648	-2.9
315.862	-19.22
316.077	-37.13
316.291	-25.6
316.505	-37.92
316.719	-18.26
316.933	-25.18
317.147	-1.71
317.361	-49.02
317.575	-28.4
317.789	-38.02
318.003	-31.09
318.217	-23.76
318.431	20.58
318.645	30.93
318.859	28.96
319.073	52.24
319.287	33.44
319.5	6.71
319.714	-27.94
319.928	-25.96
320.142	-34.18
320.356	5.95
320.57	26.58
320.784	21.89
320.997	25.22
321.211	13.2
321.425	-22.44
321.639	-61.3
321.853	-29.52
322.066	-32.76
322.28	-47.61
322.494	-32.37
322.707	18.93
322.921	-2.95
323.135	-2.65
323.349	32.51
323.562	17.45
323.776	-1.74
323.989	3.4
324.203	-15.92
324.417	-19.51
324.63	-28.83
324.844	-48.63
325.057	-52.5
325.271	-46.03
325.485	-68.92
325.698	-34.77
325.912	-3.5
326.125	-8.56
326.339	5.27
326.552	8.82
326.766	10.37
326.979	7.17
327.193	37.9
327.406	26.51
327.619	31.2
327.833	36.48
328.046	19.12
328.26	-0.46
328.473	-3.36
328.686	-17.33
328.9	-24.07
329.113	-13.34
329.326	-17.83
329.54	-1.54
329.753	17.63
329.966	16.01
330.179	21.84
330.393	38.96
330.606	25.75
330.819	33.67
331.032	40.08
331.246	38.44
331.459	45.56
331.672	36.91
331.885	16.65
332.098	-4.1
332.311	0.41
332.525	-15.65
332.738	-1.09
332.951	10.21
333.164	11.47
333.377	22.98
333.59	31.52
333.803	26.05
334.016	22.23
334.229	30.84
334.442	24.54
334.655	34.34
334.868	40.87
335.081	36.29
335.294	19.63
335.507	19.69
335.72	20.17
335.933	-0.94
336.146	-1.15
336.359	5.93
336.572	-14.67
336.785	-30.46
336.997	-22.58
337.21	-10.15
337.423	3.79
337.636	12.91
337.849	13.15
338.062	16.21
338.274	18.88
338.487	-2.68
338.7	-4.74
338.913	-15.42
339.125	-19.44
339.338	-20.06
339.551	-8.53
339.763	22.78
339.976	43.94
340.189	47.97
340.402	56.69
340.614	46.98
340.827	23.83
341.039	4.14
341.252	-22.32
341.465	-29.45
341.677	-24.06
341.89	-61.85
342.102	-41.66
342.315	-24.67
342.527	-42.68
342.74	-38.78
342.952	7.86
343.165	-0.07
343.377	18.58
343.59	6.69
343.802	32.99
344.015	35.21
344.227	50.83
344.44	31.4
344.652	35.26
344.864	11.22
345.077	26.85
345.289	9.29
345.502	31.03
345.714	35.22
345.926	35.4
346.139	16.91
346.351	19.44
346.563	12.62
346.775	12.19
346.988	-5.02
347.2	-5.91
347.412	-12.24
347.624	-23.43
347.837	-9.56
348.049	-2.14
348.261	3.31
348.473	-3.11
348.685	-27.52
348.897	-41.44
349.11	-31.61
349.322	-33.79
349.534	-6.58
349.746	14.99
349.958	23.79
350.17	21.2
350.382	26.11
350.594	24.25
350.806	31.09
351.018	29.29
351.23	29.14
351.442	20.52
351.654	15.12
351.866	7.54
352.078	3.61
352.29	8.6
352.502	24.97
352.714	57.47
352.926	45.85
353.138	50.1
353.35	28.33
353.561	17.91
353.773	-12.72
353.985	-4.06
354.197	-11.88
354.409	6
354.621	11.51
354.832	19.92
355.044	6.27
355.256	7.04
355.468	-7.8
355.679	-24.52
355.891	-12.58
356.103	-11.32
356.314	-18.17
356.526	-1.64
356.738	25.31
356.949	18.88
357.161	36.56
357.373	43.83
357.584	35.03
357.796	24.3
358.008	6.38
358.219	9.43
358.431	5.54
358.642	12.57
358.854	18.61
359.065	33.59
359.277	15.95
359.488	8.76
359.7	-5.53
359.911	-16.03
360.123	-23.45
360.334	-24.79
360.546	-33.48
360.757	-31.91
360.969	-30.53
361.18	-13.98
361.391	-4.24
361.603	-12.11
361.814	18.61
362.025	6.14
362.237	-1.57
362.448	-4.68
362.659	24.54
362.871	21.04
363.082	23.83
363.293	37.7
363.504	36.44
363.716	31.68
363.927	25.1
364.138	22.63
364.349	-8.28
364.56	-17.3
364.772	-34.18
364.983	-24.81
365.194	-33.35
365.405	-10.15
365.616	8.81
365.827	9.04
366.038	-0.85
366.25	11.1
366.461	-9.46
366.672	-0.9
366.883	12.69
367.094	15.67
367.305	3.65
367.516	17.22
367.727	6.43
367.938	-15.76
368.149	-27.07
368.36	-6.92
368.571	-6.63
368.781	-9.62
368.992	-8.01
369.203	11.61
369.414	-4.3
369.625	-3.19
369.836	-5.68
370.047	-6.03
370.258	-16.56
370.468	-10.11
370.679	-45.51
370.89	-34.89
371.101	-13.65
371.312	-32.4
371.522	-35.06
371.733	-14.28
371.944	-9.72
372.155	8.06
372.365	-0.95
372.576	9.56
372.787	3.42
372.997	1.43
373.208	-7.92
373.419	14.91
373.629	-8.32
373.84	0.15
374.05	-26.25
374.261	-10.44
374.472	-32.77
374.682	-4.67
374.893	-16.19
375.103	27.07
375.314	14.68
375.524	24.19
375.735	25.45
375.945	36.31
376.156	2.84
376.366	3.25
376.577	8.32
376.787	3.67
376.997	17.98
377.208	27.97
377.418	15.55
377.629	22.6
377.839	19.88
378.049	6.23
378.26	15.71
378.47	32.29
378.68	30.34
378.89	28.46
379.101	27.07
379.311	3.52
379.521	-18.14
379.732	-19.61
379.942	-38.78
380.152	-31.56
380.362	-10
380.572	-5.34
380.783	3.52
380.993	18.97
381.203	23.58
381.413	21.94
381.623	22.15
381.833	12.28
382.043	-4.87
382.253	-11.72
382.463	-9.79
382.674	-1.2
382.884	-10.09
383.094	-1.17
383.304	-0.32
383.514	2.6
383.724	2.57
383.934	-1.16
384.144	-7.94
384.353	-3.09
384.563	-2.64
384.773	-0.41
384.983	12.26
385.193	18.41
385.403	9.32
385.613	3.44
385.823	-2.94
386.033	1.27
386.242	-3.02
386.452	9.22
386.662	8.96
386.872	14.44
387.082	12.33
387.291	5.84
387.501	5.39
387.711	5.16
387.921	-5.62
388.13	-2.36
388.34	10.33
388.55	4.8
388.759	5.77
388.969	11.96
389.179	10.5
389.388	7
389.598	6.35
389.807	5.35
390.017	8.27
390.227	8.03
390.436	4.96
390.646	11.25
390.855	15.06
391.065	15.4
391.274	12.04
391.484	11.57
391.693	9.16
391.903	7.72
392.112	7.82
392.322	11.02
392.531	15.2
392.74	15.61
392.95	12.36
393.159	11.22
393.369	14.3
393.578	11.55
393.787	10.45
393.997	13.01
394.206	13.56
394.415	12.79
394.625	14.19
394.834	13.03
395.043	12.58
395.252	12.72
395.462	12.01
395.671	13.41
395.88	15.36
396.089	16.87
396.298	17.37
396.508	17.85
396.717	17.73
396.926	16.89
397.135	16.07
397.344	15.01
397.553	14.87
397.762	14.74
397.971	14.81
398.181	14.87
398.39	13.81
398.599	13.39
398.808	13.13
399.017	14.36
399.226	14.54
399.435	15.51
399.644	15.55
399.853	15.41
400.062	14.55
400.27	14.53
400.479	14.64
400.688	14.09
400.897	14.19
401.106	14.16
401.315	13.67
401.524	13.51
401.733	13.99
401.941	14.08
402.15	14.04
402.359	14.25
402.568	14.41
402.777	14.2
402.985	13.99
403.194	14.18
403.403	14.04
403.612	13.77
403.82	13.94
404.029	14.01
404.238	13.45
404.446	13.47
404.655	13.3
404.864	13.07
405.072	12.88
405.281	13.26
405.489	13.04
405.698	12.87
405.906	12.69
406.115	12.64
406.324	12.29
406.532	12.28
406.741	12.68
406.949	12.62
407.158	12.48
407.366	12.62
407.574	12.79
407.783	12.56
407.991	12.64
408.2	12.75
408.408	12.56
408.617	12.39
408.825	12.24
409.033	12.3
409.242	12.24
409.45	12.31
409.658	12.14
409.867	12.28
410.075	11.96
410.283	11.79
410.491	11.7
410.7	11.56
410.908	11.54
411.116	11.64
411.324	11.58
411.533	11.6
411.741	11.63
411.949	11.61
412.157	11.45
412.365	11.56
412.573	11.39
412.781	11.45
412.99	11.27
413.198	11.43
413.406	11.41
413.614	11.49
413.822	11.52
414.03	11.49
414.238	11.22
414.446	11.19
414.654	10.9
414.862	10.82
415.07	10.88
415.278	11.11
415.486	10.67
415.694	10.94
415.902	11.01
416.109	10.87
416.317	10.81
416.525	10.67
416.733	10.68
416.941	10.67
417.149	10.67
417.357	10.77
417.564	11.09
417.772	10.84
417.98	10.77
418.188	10.62
418.395	10.43
418.603	10.48
418.811	10.42
419.019	10.27
419.226	10.61
419.434	10.62
419.642	10.56
419.849	10.64
420.057	10.81
420.265	10.73
420.472	10.57
420.68	10.75
420.887	10.62
421.095	10.58
421.302	10.32
421.51	10.44
421.717	10.35
421.925	10.51
422.132	10.37
422.34	10.34
422.547	10.35
422.755	10.39
422.962	10.34
423.17	10.32
423.377	10.45
423.585	10.58
423.792	10.49
423.999	10.58
424.207	10.5
424.414	10.51
424.621	10.38
424.829	10.44
425.036	10.42
425.243	10.43
425.451	10.35
425.658	10.24
425.865	10.1
426.072	9.96
426.28	10.13
426.487	10
426.694	10.08
426.901	10.22
427.108	10.21
427.315	10.08
427.523	10.35
427.73	10.28
427.937	9.85
428.144	9.79
428.351	9.88
428.558	9.8
428.765	9.77
428.972	10.01
429.179	10.17
429.386	10.28
429.593	10.26
429.8	10.29
430.007	10.52
430.214	10.64
430.421	10.51
430.628	10.46
430.835	10.31
431.042	10.32
431.249	10.25
431.456	10.47
431.662	10.7
431.869	10.91
432.076	10.78
432.283	10.74
432.49	10.43
432.697	10.21
432.903	9.9
433.11	9.88
433.317	9.95
433.524	10.18
433.73	10.06
433.937	10.37
434.144	10.42
434.35	10.41
434.557	10.22
434.764	10.43
434.97	10.37
435.177	10.32
435.384	10.01
435.59	10.18
435.797	10.19
436.003	10.23
436.21	10.21
436.416	10.39
436.623	10.22
436.829	10.26
437.036	10.23
437.242	10.2
437.449	10.23
437.655	10.26
437.862	10.28
438.068	10.26
438.275	10.38
438.481	10.49
438.687	10.5
438.894	10.43
439.1	10.31
439.307	10.32
439.513	10.13
439.719	10.11
439.926	10.07
440.132	10.17
440.338	10.14
440.544	10.26
440.751	10.18
440.957	10.22
441.163	10.08
441.369	10.19
441.575	10.04
441.782	10.05
441.988	9.96
442.194	10.09
442.4	9.98
442.606	10.23
442.812	10.31
443.018	10.4
443.224	10.43
443.431	10.47
443.637	10.39
443.843	10.29
444.049	10.27
444.255	10.25
444.461	10.17
444.667	10.09
444.873	10.26
445.079	10.36
445.284	10.41
445.49	10.37
445.696	10.28
445.902	10.23
446.108	10.12
446.314	10
446.52	10.21
446.726	10.48
446.931	10.44
447.137	10.53
447.343	10.72
447.549	10.56
447.755	10.45
447.96	10.53
448.166	10.44
448.372	10.52
448.578	10.54
448.783	10.51
448.989	10.62
449.195	10.81
449.4	10.63
449.606	10.69
449.812	10.74
450.017	10.71
450.223	10.61
450.428	10.54
450.634	10.61
450.84	10.68
451.045	10.6
451.251	10.6
451.456	10.79
451.662	10.87
451.867	10.86
452.073	10.94
452.278	10.99
452.483	11.09
452.689	11.03
452.894	11.19
453.1	11.26
453.305	11.12
453.51	11
453.716	10.88
453.921	10.84
454.127	10.77
454.332	10.87
454.537	10.86
454.742	10.98
454.948	10.97
455.153	10.94
455.358	11
455.563	11.17
455.769	11.21
455.974	11.11
456.179	11.07
456.384	11.09
456.589	11.09
456.795	10.94
457	11.06
457.205	11.1
457.41	11.07
457.615	11.05
457.82	11.2
458.025	11.22
458.23	11.21
458.435	11.28
458.64	11.12
458.845	11.14
459.05	11.1
459.255	11.15
459.46	11.14
459.665	11.22
