Data from Ofav_PS_Phys_352_Reflection_2.txt Node
Date: Thu Jul 29 18:18:52 EDT 2021
User: USUARIO
Spectrometer: FLMT01687
Trigger mode: 0
Integration Time (sec): 9.010000E-1
Scans to average: 2
Electric dark correction enabled: true
Nonlinearity correction enabled: false
Boxcar width: 2
XAxis mode: Wavelengths
Number of Pixels in Spectrum: 3648
>>>>>Begin Spectral Data<<<<<
179.494	-42.22
179.716	-69.37
179.937	-53.04
180.158	321.47
180.38	35.33
180.601	-663.25
180.823	-221.16
181.044	-166.92
181.265	-155.42
181.486	-742.94
181.708	131.05
181.929	353.84
182.15	12480.95
182.372	-221.57
182.593	-59.37
182.814	-25.96
183.035	-141.92
183.257	81.74
183.478	38.11
183.699	46.55
183.92	58.02
184.141	67.46
184.363	56.2
184.584	46.44
184.805	41.63
185.026	39.75
185.247	40.93
185.468	57.66
185.689	53.68
185.91	113.55
186.132	126.13
186.353	61.98
186.574	64.83
186.795	63.29
187.016	55.04
187.237	30.34
187.458	17.8
187.679	38.14
187.9	50.61
188.121	33.18
188.342	56.75
188.563	69.29
188.784	47.39
189.005	46.77
189.226	57.2
189.447	53.67
189.667	44.11
189.888	35.7
190.109	33.71
190.33	-32.16
190.551	25.31
190.772	50.94
190.993	44.72
191.214	47.79
191.434	51.43
191.655	48.38
191.876	52.82
192.097	72.46
192.318	66.74
192.538	63.38
192.759	52.89
192.98	38.78
193.201	35.46
193.421	17.44
193.642	-15.47
193.863	-33.05
194.083	-71.75
194.304	-63.43
194.525	-29.26
194.745	-3.25
194.966	6.23
195.187	-4.25
195.407	0.67
195.628	-49.88
195.848	-27.69
196.069	9.05
196.29	57.44
196.51	58.2
196.731	56.35
196.951	29.25
197.172	19.63
197.392	7.77
197.613	-15.16
197.833	-20.25
198.054	-10.55
198.274	-12.02
198.495	10.14
198.715	-1.16
198.936	25.06
199.156	59.01
199.377	64.83
199.597	67.41
199.817	66.44
200.038	49.59
200.258	38.01
200.479	-15.68
200.699	-49.25
200.919	-1.05
201.14	-5.34
201.36	-5.71
201.58	15.55
201.801	22.78
202.021	38.44
202.241	56.17
202.461	76.33
202.682	85.84
202.902	99.05
203.122	49.74
203.342	37.25
203.563	15
203.783	21.68
204.003	-19.59
204.223	-16.73
204.443	2.68
204.663	7.06
204.884	10.81
205.104	20.09
205.324	19.92
205.544	36.64
205.764	37.81
205.984	56.85
206.204	63.62
206.424	69.54
206.644	48.24
206.864	45.51
207.084	9.03
207.304	13.53
207.525	-5.05
207.745	29.53
207.964	37.77
208.184	27.34
208.404	8.06
208.624	15.73
208.844	-1.02
209.064	14.53
209.284	25.2
209.504	26.64
209.724	39.13
209.944	48.13
210.164	37.2
210.384	30.64
210.604	33.3
210.823	20.58
211.043	-2.14
211.263	8.67
211.483	5.79
211.703	-0.39
211.922	-3.98
212.142	22.25
212.362	8.82
212.582	25.54
212.801	24.95
213.021	33.68
213.241	25.59
213.461	32.4
213.68	27.21
213.9	44.41
214.12	36.09
214.339	26.01
214.559	22.77
214.779	-3.37
214.998	-18.18
215.218	-43.34
215.438	-24.19
215.657	-21.96
215.877	10.07
216.096	-7.6
216.316	-11.29
216.535	-30.96
216.755	-17.99
216.974	-55.52
217.194	-34.34
217.413	-2.12
217.633	16.7
217.852	-6.92
218.072	7.44
218.291	13.2
218.511	19.44
218.73	30.47
218.95	31.6
219.169	35.51
219.389	42.42
219.608	41.29
219.827	31.68
220.047	32.98
220.266	23.76
220.485	18.28
220.705	12.34
220.924	-10.11
221.143	-22.48
221.363	-38.11
221.582	-39.28
221.801	-89.95
222.021	11.16
222.24	55.31
222.459	67.2
222.678	57.51
222.897	60.55
223.117	43.49
223.336	34.86
223.555	33.79
223.774	43.04
223.993	21.2
224.213	26.1
224.432	25
224.651	26.1
224.87	20.23
225.089	35.11
225.308	32.79
225.527	45.8
225.746	28.31
225.965	28.42
226.184	12.21
226.404	11.76
226.623	11.66
226.842	22.59
227.061	9.67
227.28	20.02
227.499	26.27
227.718	14.77
227.936	19.73
228.155	15.74
228.374	-4.31
228.593	1.95
228.812	-7.94
229.031	1.33
229.25	16.69
229.469	29.63
229.688	8.26
229.907	44.71
230.125	36.95
230.344	45.4
230.563	37.69
230.782	62.36
231.001	9.78
231.22	-12.12
231.438	-12.99
231.657	-1.49
231.876	-5.56
232.095	-11.4
232.313	2.63
232.532	-15.78
232.751	-22.82
232.969	-5.96
233.188	-6.96
233.407	-11.99
233.625	41.13
233.844	48.19
234.063	31.73
234.281	14.8
234.5	7.99
234.719	-21.72
234.937	-29.86
235.156	-28.35
235.374	31.48
235.593	46.48
235.811	64.07
236.03	41.27
236.249	39.96
236.467	30.09
236.686	34.57
236.904	13.63
237.123	26.51
237.341	13.19
237.559	15.04
237.778	3.56
237.996	29.12
238.215	43.74
238.433	58.45
238.652	52.62
238.87	48.43
239.088	34.29
239.307	11.58
239.525	8.22
239.743	12.56
239.962	23.73
240.18	29.96
240.398	39.84
240.617	32.88
240.835	33.82
241.053	17.84
241.271	14.19
241.49	6.52
241.708	17.34
241.926	-1.67
242.144	-6.35
242.363	8.81
242.581	9.94
242.799	10.91
243.017	27.19
243.235	33.59
243.453	32.54
243.672	23.75
243.89	33.17
244.108	31.78
244.326	45.38
244.544	19.64
244.762	32.02
244.98	26.9
245.198	24.64
245.416	12.59
245.634	39.38
245.852	44.81
246.07	51.23
246.288	60.51
246.506	62.63
246.724	66.59
246.942	60.86
247.16	74.4
247.378	56.71
247.596	54.96
247.814	41.12
248.032	22.93
248.25	2.83
248.468	-5.36
248.685	3.72
248.903	2.24
249.121	23.2
249.339	17.57
249.557	51.81
249.775	48.65
249.992	34.53
250.21	21.91
250.428	31.89
250.646	12.09
250.863	22.23
251.081	28.34
251.299	48.94
251.517	51.51
251.734	65.56
251.952	63.36
252.17	46.8
252.387	27.9
252.605	24.03
252.823	-9.64
253.04	2.86
253.258	15.36
253.475	26.38
253.693	44.72
253.911	52.23
254.128	68.22
254.346	41.81
254.563	30.51
254.781	-3.2
254.998	25.93
255.216	-8.43
255.433	20.05
255.651	16.39
255.868	14.36
256.086	12.47
256.303	33.45
256.521	34.44
256.738	43.69
256.956	48.33
257.173	52.92
257.39	57.77
257.608	60.93
257.825	61.15
258.043	63.56
258.26	43.67
258.477	25.34
258.695	3.11
258.912	1.4
259.129	-13.76
259.346	16.66
259.564	1.23
259.781	5.42
259.998	-8.67
260.216	20.76
260.433	22.8
260.65	37.5
260.867	52.49
261.084	54.82
261.302	27
261.519	-6.6
261.736	0.64
261.953	-21.07
262.17	-1
262.387	11.81
262.604	9.06
262.822	11.09
263.039	31.68
263.256	29.19
263.473	36.27
263.69	41.39
263.907	49.48
264.124	50.94
264.341	44.01
264.558	49.68
264.775	58.83
264.992	43.99
265.209	23.45
265.426	24.45
265.643	30.66
265.86	20.99
266.077	23.93
266.294	35.96
266.51	26.25
266.727	21.24
266.944	33.21
267.161	30.65
267.378	17.02
267.595	27.34
267.812	11.62
268.028	4.61
268.245	0.09
268.462	-9.56
268.679	0.67
268.896	-1.09
269.112	1.57
269.329	10.29
269.546	25.58
269.763	15
269.979	38.31
270.196	46.09
270.413	48.17
270.629	48.14
270.846	60.79
271.063	44.12
271.279	47.43
271.496	29.75
271.712	19.98
271.929	0.87
272.146	29.7
272.362	6.94
272.579	33.74
272.795	54.22
273.012	51.38
273.228	27.87
273.445	34.5
273.661	26.11
273.878	-8.36
274.094	19.48
274.311	15.29
274.527	25.46
274.744	19.74
274.96	28.89
275.177	17.31
275.393	12.84
275.609	14.41
275.826	9.44
276.042	12.4
276.259	12.27
276.475	33.64
276.691	39.66
276.908	36.61
277.124	31.8
277.34	18.79
277.557	5.23
277.773	-13.96
277.989	-12.84
278.205	4.2
278.422	7.41
278.638	1.45
278.854	6.92
279.07	41.32
279.286	20.75
279.503	23.4
279.719	23.22
279.935	24.79
280.151	-10.38
280.367	-10.85
280.583	-1.3
280.799	0.56
281.016	-1.24
281.232	14.53
281.448	20.05
281.664	28.2
281.88	12.8
282.096	24.4
282.312	16.66
282.528	14.66
282.744	2.91
282.96	28.31
283.176	23.23
283.392	38.21
283.608	30.68
283.824	27.44
284.04	9.74
284.256	17.04
284.471	3.64
284.687	24.82
284.903	19.23
285.119	32.45
285.335	3.57
285.551	9.47
285.767	13.93
285.982	12.55
286.198	12.46
286.414	25.71
286.63	26.83
286.846	8.21
287.061	12.74
287.277	21.32
287.493	16.01
287.709	1.74
287.924	30.42
288.14	34.61
288.356	29.03
288.571	24.33
288.787	25.56
289.003	13.58
289.218	16.11
289.434	27.71
289.65	47.13
289.865	51.38
290.081	39.95
290.296	35.67
290.512	31.27
290.727	12.54
290.943	25.75
291.159	28.04
291.374	18.34
291.59	16.57
291.805	16.45
292.021	6.51
292.236	7.33
292.451	9.6
292.667	0.48
292.882	7.1
293.098	13.56
293.313	22.68
293.529	27.55
293.744	33.01
293.959	23
294.175	35.15
294.39	37.93
294.605	37.76
294.821	30.21
295.036	31.2
295.251	10.19
295.467	3.44
295.682	1.2
295.897	5.91
296.112	4.39
296.328	9.13
296.543	-4.88
296.758	-13.11
296.973	-21.25
297.188	-14.29
297.404	-24.68
297.619	-14.93
297.834	-1.77
298.049	20.77
298.264	25.35
298.479	45.08
298.694	44.12
298.909	43.88
299.125	31.33
299.34	39.7
299.555	23.17
299.77	20.67
299.985	-17.44
300.2	2.89
300.415	-17.19
300.63	7.86
300.845	-27.28
301.06	-12.92
301.275	-19.29
301.49	-26.37
301.704	-64.15
301.919	12.31
302.134	17.12
302.349	11.83
302.564	30.12
302.779	24.59
302.994	11.36
303.209	11.64
303.423	21.61
303.638	13.03
303.853	3.87
304.068	0.66
304.283	3.67
304.497	8.82
304.712	-14.74
304.927	-4.52
305.142	1.27
305.356	-8.77
305.571	-16.06
305.786	11.76
306	-12.54
306.215	-3.85
306.43	-7.27
306.644	-18.61
306.859	-22.58
307.074	5.28
307.288	5.3
307.503	42.79
307.717	34.23
307.932	23.66
308.147	27.93
308.361	4.31
308.576	-25.03
308.79	-28.02
309.005	3.65
309.219	12.01
309.434	35.4
309.648	33.8
309.863	34.3
310.077	40.77
310.292	33.75
310.506	21.91
310.72	28.58
310.935	7.16
311.149	0.72
311.364	6.84
311.578	-0.65
311.792	-18.03
312.007	-8.44
312.221	-26.65
312.435	-28.39
312.649	-15.96
312.864	-125.26
313.078	-56.46
313.292	-40.89
313.507	-26.58
313.721	-30.81
313.935	13.47
314.149	18.05
314.363	14.91
314.578	16.37
314.792	32.52
315.006	36.52
315.22	34.19
315.434	27.39
315.648	29.85
315.862	20.14
316.077	8.19
316.291	6.03
316.505	19.27
316.719	20.71
316.933	26.01
317.147	30.26
317.361	10.95
317.575	2.91
317.789	-0.79
318.003	8.88
318.217	21.7
318.431	30.99
318.645	33.27
318.859	35.77
319.073	18.5
319.287	6.78
319.5	4.79
319.714	17.83
319.928	-3.35
320.142	18.56
320.356	33.41
320.57	33.64
320.784	29.47
320.997	25.44
321.211	21.91
321.425	5.63
321.639	-2.17
321.853	2.49
322.066	7.51
322.28	14.93
322.494	12.8
322.707	21.27
322.921	11.88
323.135	9.65
323.349	-5.84
323.562	-3.84
323.776	-5.4
323.989	11.11
324.203	19.62
324.417	40.46
324.63	44.57
324.844	47.1
325.057	34.22
325.271	25.03
325.485	9.83
325.698	2.87
325.912	0.06
326.125	-4.92
326.339	-4.84
326.552	-5.9
326.766	-2.54
326.979	3.18
327.193	6.76
327.406	16.51
327.619	23.35
327.833	23.18
328.046	37.06
328.26	36.89
328.473	34.35
328.686	38.27
328.9	51.05
329.113	31.2
329.326	-1.88
329.54	-30.26
329.753	-51.33
329.966	-32.01
330.179	-20.48
330.393	-6.31
330.606	8.66
330.819	30.64
331.032	25.69
331.246	9.17
331.459	-9.14
331.672	2.4
331.885	3.27
332.098	4.16
332.311	31.35
332.525	40.62
332.738	39.8
332.951	13.84
333.164	16.63
333.377	6.6
333.59	15.09
333.803	23.55
334.016	40.82
334.229	37.93
334.442	41.22
334.655	33.11
334.868	19.75
335.081	36.71
335.294	34.98
335.507	35.85
335.72	50.91
335.933	34.72
336.146	9.67
336.359	3.97
336.572	-10.3
336.785	-29.13
336.997	-25.3
337.21	0.55
337.423	15.88
337.636	22.8
337.849	22.57
338.062	32.95
338.274	30.29
338.487	28.02
338.7	-0.36
338.913	5.59
339.125	6.06
339.338	-3.73
339.551	-2.53
339.763	1.04
339.976	-26
340.189	-18.76
340.402	-12.78
340.614	-25.46
340.827	-6.23
341.039	28.69
341.252	20.24
341.465	22.43
341.677	26.76
341.89	17.28
342.102	15
342.315	21.42
342.527	18.01
342.74	13.66
342.952	30.62
343.165	24.94
343.377	18.34
343.59	18.57
343.802	31.04
344.015	29.23
344.227	36.46
344.44	43.13
344.652	38.91
344.864	23.47
345.077	26.07
345.289	11.46
345.502	8.32
345.714	13.9
345.926	16.93
346.139	-1.46
346.351	10.49
346.563	12.27
346.775	6.49
346.988	-9.73
347.2	2.35
347.412	0.96
347.624	-2.81
347.837	-12.79
348.049	-7.89
348.261	-14.51
348.473	-14.38
348.685	-9.81
348.897	5.5
349.11	11.32
349.322	23.82
349.534	26.96
349.746	29.73
349.958	44.39
350.17	34.82
350.382	17.95
350.594	15.37
350.806	24.92
351.018	-6.2
351.23	1.08
351.442	4.61
351.654	14
351.866	-16.36
352.078	10.15
352.29	4.37
352.502	5.14
352.714	1.13
352.926	23.68
353.138	27.55
353.35	45.57
353.561	25
353.773	31.54
353.985	30.97
354.197	24.58
354.409	17.97
354.621	16.2
354.832	-2.18
355.044	-14.27
355.256	-22.28
355.468	-31.73
355.679	-14.12
355.891	-0.76
356.103	3.63
356.314	15.36
356.526	21.27
356.738	8.96
356.949	-4.2
357.161	0.98
357.373	3.7
357.584	-4.82
357.796	23.4
358.008	24.25
358.219	16.6
358.431	-2.99
358.642	-10.33
358.854	-28.3
359.065	-8.94
359.277	-15.68
359.488	-7.07
359.7	12.26
359.911	26.76
360.123	23.58
360.334	39.54
360.546	35.56
360.757	27.25
360.969	8.19
361.18	15.06
361.391	5.95
361.603	-5.21
361.814	8.18
362.025	4.89
362.237	5.67
362.448	5.3
362.659	2.45
362.871	-7.94
363.082	6.61
363.293	14.84
363.504	17.43
363.716	33
363.927	33.89
364.138	19.47
364.349	5.29
364.56	15.75
364.772	10.59
364.983	12.17
365.194	16.06
365.405	18.99
365.616	3.56
365.827	10.97
366.038	6.96
366.25	0.06
366.461	-12.09
366.672	-26.59
366.883	-33.33
367.094	-34.7
367.305	-6.72
367.516	0.31
367.727	14.44
367.938	24.35
368.149	25.29
368.36	19.81
368.571	37.69
368.781	32.22
368.992	6.97
369.203	15.26
369.414	27.01
369.625	22.52
369.836	25.79
370.047	27.71
370.258	23.14
370.468	17.09
370.679	-4.06
370.89	-19.83
371.101	-7.88
371.312	-8.84
371.522	-4.64
371.733	12.4
371.944	4.09
372.155	2.04
372.365	4.5
372.576	-15.3
372.787	-27.83
372.997	-13.58
373.208	-13.72
373.419	-20.34
373.629	-1.02
373.84	18.95
374.05	14.85
374.261	15.56
374.472	16.48
374.682	-3.41
374.893	-0.07
375.103	4.03
375.314	12.88
375.524	13.38
375.735	32.77
375.945	33.09
376.156	33.43
376.366	14.53
376.577	26.32
376.787	20.35
376.997	22.09
377.208	17.27
377.418	18.43
377.629	12.44
377.839	21.12
378.049	17.17
378.26	27.55
378.47	40.81
378.68	38.98
378.89	32.13
379.101	28.75
379.311	20.07
379.521	9.41
379.732	6.97
379.942	5.72
380.152	-1.26
380.362	-4.79
380.572	-5.09
380.783	-11
380.993	-15.17
381.203	-10.36
381.413	-11.1
381.623	2.79
381.833	20.63
382.043	17.77
382.253	11.63
382.463	13.39
382.674	11.43
382.884	7.49
383.094	5.61
383.304	10
383.514	6.08
383.724	11.55
383.934	6.61
384.144	7.31
384.353	8.63
384.563	10.64
384.773	9.35
384.983	10.1
385.193	16.56
385.403	11.14
385.613	11.42
385.823	6.38
386.033	7.32
386.242	-1.27
386.452	-0.95
386.662	-1.19
386.872	-0.53
387.082	-1.08
387.291	-3.01
387.501	-2.8
387.711	1.25
387.921	-0.82
388.13	-1.15
388.34	2.76
388.55	4.1
388.759	0.67
388.969	3.05
389.179	0.3
389.388	0.52
389.598	2.6
389.807	2.58
390.017	2.28
390.227	9.12
390.436	10.31
390.646	6.99
390.855	9.15
391.065	8.61
391.274	4.52
391.484	2.32
391.693	3.06
391.903	2.39
392.112	2.92
392.322	2.47
392.531	1.16
392.74	-0.56
392.95	-0.86
393.159	-0.26
393.369	1.06
393.578	2.37
393.787	4.57
393.997	4.34
394.206	4.48
394.415	4.98
394.625	5.08
394.834	4.47
395.043	3.62
395.252	3.78
395.462	2.36
395.671	2.88
395.88	4.07
396.089	4.97
396.298	4.65
396.508	4.58
396.717	4.42
396.926	3.9
397.135	3.42
397.344	3.07
397.553	3.61
397.762	3.65
397.971	3.65
398.181	4.15
398.39	4.08
398.599	3.76
398.808	3.9
399.017	4.1
399.226	3.92
399.435	4.2
399.644	4.68
399.853	4.47
400.062	4.85
400.27	5.15
400.479	5
400.688	4.73
400.897	4.54
401.106	4.08
401.315	3.69
401.524	3.95
401.733	3.83
401.941	4.22
402.15	4.22
402.359	4
402.568	4.04
402.777	3.97
402.985	3.7
403.194	3.59
403.403	3.9
403.612	3.71
403.82	3.93
404.029	3.87
404.238	3.8
404.446	3.65
404.655	3.5
404.864	3.47
405.072	3.51
405.281	3.65
405.489	3.73
405.698	3.79
405.906	3.71
406.115	3.59
406.324	3.4
406.532	3.38
406.741	3.3
406.949	3.38
407.158	3.58
407.366	3.6
407.574	3.52
407.783	3.61
407.991	3.43
408.2	3.36
408.408	3.29
408.617	3.24
408.825	3.24
409.033	3.34
409.242	3.38
409.45	3.41
409.658	3.56
409.867	3.57
410.075	3.43
410.283	3.35
410.491	3.34
410.7	3.24
410.908	3.23
411.116	3.3
411.324	3.23
411.533	3.34
411.741	3.36
411.949	3.35
412.157	3.27
412.365	3.22
412.573	3.18
412.781	3.13
412.99	3.12
413.198	3.29
413.406	3.42
413.614	3.49
413.822	3.5
414.03	3.45
414.238	3.29
414.446	3.39
414.654	3.22
414.862	3.15
415.07	3.02
415.278	3.04
415.486	2.83
415.694	2.97
415.902	2.94
416.109	3.14
416.317	3.17
416.525	3.14
416.733	3.13
416.941	3.28
417.149	3.12
417.357	3.05
417.564	3.06
417.772	2.91
417.98	2.92
418.188	2.96
418.395	2.86
418.603	2.97
418.811	3.07
419.019	3.07
419.226	3.28
419.434	3.32
419.642	3.23
419.849	3.09
420.057	3.01
420.265	2.69
420.472	2.74
420.68	2.75
420.887	2.86
421.095	2.89
421.302	2.95
421.51	2.92
421.717	2.96
421.925	2.99
422.132	2.98
422.34	2.89
422.547	2.76
422.755	2.8
422.962	2.77
423.17	2.56
423.377	2.82
423.585	3.05
423.792	2.92
423.999	2.88
424.207	2.9
424.414	2.68
424.621	2.66
424.829	2.74
425.036	2.78
425.243	2.8
425.451	2.78
425.658	2.77
425.865	2.71
426.072	2.75
426.28	2.83
426.487	2.96
426.694	2.91
426.901	2.65
427.108	2.54
427.315	2.58
427.523	2.51
427.73	2.56
427.937	2.79
428.144	2.77
428.351	2.79
428.558	2.91
428.765	2.93
428.972	2.99
429.179	2.97
429.386	2.88
429.593	2.76
429.8	2.78
430.007	2.82
430.214	3.05
430.421	3.15
430.628	3.19
430.835	3.21
431.042	3.14
431.249	3.18
431.456	3.22
431.662	3.28
431.869	3.34
432.076	3.49
432.283	3.47
432.49	3.28
432.697	3.28
432.903	3.08
433.11	2.82
433.317	2.63
433.524	2.74
433.73	2.64
433.937	2.73
434.144	2.79
434.35	2.95
434.557	2.9
434.764	2.91
434.97	2.9
435.177	3.04
435.384	2.85
435.59	2.96
435.797	3.06
436.003	3.03
436.21	2.99
436.416	3.14
436.623	3.21
436.829	3.17
437.036	3.28
437.242	3.3
437.449	3.28
437.655	3.29
437.862	3.28
438.068	3.25
438.275	3.25
438.481	3.26
438.687	3.1
438.894	3.19
439.1	3.2
439.307	3.26
439.513	3.3
439.719	3.35
439.926	3.2
440.132	3.19
440.338	3.19
440.544	3.14
440.751	3.11
440.957	3.21
441.163	3.34
441.369	3.37
441.575	3.4
441.782	3.47
441.988	3.53
442.194	3.33
442.4	3.24
442.606	3.2
442.812	3.25
443.018	3.25
443.224	3.42
443.431	3.47
443.637	3.51
443.843	3.45
444.049	3.43
444.255	3.35
444.461	3.29
444.667	3.29
444.873	3.3
445.079	3.23
445.284	3.33
445.49	3.31
445.696	3.29
445.902	3.26
446.108	3.26
446.314	3.2
446.52	3.27
446.726	3.31
446.931	3.39
447.137	3.41
447.343	3.42
447.549	3.32
447.755	3.33
447.96	3.4
448.166	3.5
448.372	3.56
448.578	3.74
448.783	3.82
448.989	3.76
449.195	3.59
449.4	3.65
449.606	3.56
449.812	3.42
450.017	3.41
450.223	3.56
450.428	3.49
450.634	3.59
450.84	3.72
451.045	3.7
451.251	3.67
451.456	3.71
451.662	3.66
451.867	3.57
452.073	3.59
452.278	3.6
452.483	3.63
452.689	3.64
452.894	3.62
453.1	3.63
453.305	3.64
453.51	3.58
453.716	3.52
453.921	3.65
454.127	3.71
454.332	3.6
454.537	3.56
454.742	3.66
454.948	3.53
455.153	3.49
455.358	3.71
455.563	3.7
455.769	3.57
455.974	3.66
456.179	3.56
456.384	3.4
456.589	3.46
456.795	3.52
457	3.49
457.205	3.68
457.41	3.72
457.615	3.66
457.82	3.65
458.025	3.64
458.23	3.53
458.435	3.51
458.64	3.54
458.845	3.59
459.05	3.56
459.255	3.61
459.46	3.65
459.665	3.66
459.87	3.59
460.075	3.66
460.28	3.65
460.485	3.61
460.69	3.67
460.895	3.72
461.099	3.72
461.304	3.65
461.509	3.66
461.714	3.64
461.919	3.56
462.123	3.59
462.328	3.67
462.533	3.7
462.738	3.66
462.942	3.69
463.147	3.72
463.352	3.65
463.556	3.72
463.761	3.64
463.966	3.68
464.17	3.72
464.375	3.71
464.58	3.57
464.784	3.69
464.989	3.7
465.193	3.67
465.398	3.85
465.602	3.95
465.807	3.96
466.011	3.98
466.216	3.9
466.42	3.85
466.625	3.94
466.829	3.94
467.034	4.05
467.238	4.14
467.443	4.06
467.647	3.92
467.851	3.99
468.056	3.87
468.26	3.82
468.464	3.89
468.669	4.01
