Data from Ofav_PS_Phys_2HS2_Reflection_2.txt Node
Date: Thu Jul 29 18:16:37 EDT 2021
User: USUARIO
Spectrometer: FLMT01687
Trigger mode: 0
Integration Time (sec): 9.010000E-1
Scans to average: 2
Electric dark correction enabled: true
Nonlinearity correction enabled: false
Boxcar width: 2
XAxis mode: Wavelengths
Number of Pixels in Spectrum: 3648
>>>>>Begin Spectral Data<<<<<
179.494	4.13
179.716	-31.98
179.937	-14.4
180.158	227.68
180.38	69.5
180.601	-325.72
180.823	-116.92
181.044	-23.44
181.265	11.5
181.486	-131.64
181.708	71.19
181.929	180.06
182.15	5861.9
182.372	-39.14
182.593	21.43
182.814	-55.36
183.035	-336.43
183.257	40.78
183.478	30.51
183.699	22.09
183.92	9.75
184.141	24.3
184.363	26.93
184.584	22.72
184.805	17.76
185.026	28.25
185.247	16.33
185.468	11.17
185.689	23.31
185.91	106.01
186.132	60.42
186.353	47.73
186.574	62.91
186.795	59.7
187.016	36.2
187.237	47.24
187.458	51.38
187.679	34.68
187.9	31.08
188.121	15.32
188.342	17.36
188.563	15.34
188.784	-2.78
189.005	-15.45
189.226	7.95
189.447	-4.36
189.667	-20.52
189.888	-13.76
190.109	31.83
190.33	45.56
190.551	26.23
190.772	48.42
190.993	31.61
191.214	11.51
191.434	21.71
191.655	36.79
191.876	20.52
192.097	6.59
192.318	6.93
192.538	-2.49
192.759	-23.47
192.98	10.31
193.201	29.21
193.421	22.87
193.642	37.07
193.863	31.07
194.083	11.84
194.304	-5.55
194.525	13.15
194.745	-6
194.966	-6.71
195.187	0.17
195.407	-14.45
195.628	-60.71
195.848	-7.55
196.069	16.78
196.29	22.92
196.51	37.4
196.731	40.94
196.951	4.79
197.172	-13.86
197.392	-8.23
197.613	-29.82
197.833	-42.63
198.054	-30.74
198.274	-39.8
198.495	-17.34
198.715	-23.16
198.936	9.59
199.156	9.33
199.377	35.24
199.597	27.67
199.817	43.77
200.038	14.62
200.258	22.13
200.479	-16.44
200.699	-38.29
200.919	-32.11
201.14	-36.66
201.36	-29.57
201.58	-17.17
201.801	-6.81
202.021	22.22
202.241	40.06
202.461	53.9
202.682	57.83
202.902	45.21
203.122	20.28
203.342	30.35
203.563	-4.39
203.783	24.32
204.003	9.14
204.223	-29.22
204.443	-39.02
204.663	-5.85
204.884	18.62
205.104	29.15
205.324	25.37
205.544	46.48
205.764	31.41
205.984	32.44
206.204	46.59
206.424	56.56
206.644	61.89
206.864	75.08
207.084	44.72
207.304	33.69
207.525	21.8
207.745	19.79
207.964	25.71
208.184	43.91
208.404	44.25
208.624	39.33
208.844	34.47
209.064	45.84
209.284	37.38
209.504	32.8
209.724	64.98
209.944	62.99
210.164	63.64
210.384	63.19
210.604	60.96
210.823	42.39
211.043	37.43
211.263	47.37
211.483	33.57
211.703	36.22
211.922	31.82
212.142	35.2
212.362	17.34
212.582	25.4
212.801	26
213.021	20.16
213.241	16.26
213.461	4.92
213.68	-27.99
213.9	-26.17
214.12	-26.25
214.339	-49.58
214.559	-46.95
214.779	-14.79
214.998	-26.18
215.218	-7.09
215.438	29.49
215.657	0.15
215.877	7.79
216.096	-0.77
216.316	-21.19
216.535	-70.49
216.755	-48.76
216.974	-69.82
217.194	-64.9
217.413	-24.27
217.633	-3.82
217.852	-23.89
218.072	-13.67
218.291	-2.08
218.511	18.21
218.73	5.33
218.95	18.82
219.169	19.27
219.389	10.05
219.608	-17.51
219.827	-23.27
220.047	-8.5
220.266	-22.91
220.485	-6.5
220.705	4.97
220.924	1.58
221.143	-18.04
221.363	-22.5
221.582	-34.18
221.801	-53.54
222.021	-29.9
222.24	-31.93
222.459	-0.67
222.678	8.7
222.897	3.28
223.117	14.4
223.336	31.55
223.555	26.85
223.774	48.54
223.993	45.14
224.213	32.4
224.432	40.55
224.651	48.98
224.87	33.95
225.089	31.24
225.308	35.9
225.527	28.59
225.746	-23.16
225.965	-36.88
226.184	-53.11
226.404	-82.81
226.623	-40.42
226.842	-21.19
227.061	-29.84
227.28	-28.19
227.499	-1.41
227.718	-57.07
227.936	-41.86
228.155	4.8
228.374	0.76
228.593	-24.24
228.812	-12.68
229.031	-10.21
229.25	-14.06
229.469	2.31
229.688	13.1
229.907	34.28
230.125	37.83
230.344	52.48
230.563	63.62
230.782	77.32
231.001	63.38
231.22	52.75
231.438	12.73
231.657	1.66
231.876	-4.08
232.095	-18.26
232.313	-3.17
232.532	-0.29
232.751	3.54
232.969	-20.83
233.188	-21.6
233.407	-56.07
233.625	-12.58
233.844	-10.76
234.063	-16.9
234.281	-38.73
234.5	-21.89
234.719	-27.84
234.937	-17.77
235.156	-7.27
235.374	24.44
235.593	25.12
235.811	23.32
236.03	6.57
236.249	20.47
236.467	23.22
236.686	16.36
236.904	-10.12
237.123	-5.95
237.341	-49.04
237.559	-55.27
237.778	-30.04
237.996	-3.48
238.215	8.34
238.433	48.24
238.652	51.11
238.87	35.24
239.088	56.75
239.307	50.82
239.525	27.71
239.743	25.92
239.962	24.82
240.18	12.48
240.398	11.69
240.617	-0.39
240.835	-23.41
241.053	-13.46
241.271	-27.81
241.49	-30.62
241.708	-10.58
241.926	7.51
242.144	-6.5
242.363	12.56
242.581	6.45
242.799	6.04
243.017	-1.42
243.235	6.05
243.453	-9.07
243.672	-18.75
243.89	-27.06
244.108	-20.69
244.326	-12.76
244.544	-21.99
244.762	-8.68
244.98	-14.7
245.198	-9.87
245.416	-30.1
245.634	-22.47
245.852	9.77
246.07	35.71
246.288	24.68
246.506	37.98
246.724	39.01
246.942	27.86
247.16	20.86
247.378	6.15
247.596	-25.25
247.814	-10.54
248.032	-20.94
248.25	-15.36
248.468	-10.59
248.685	7.87
248.903	8.23
249.121	4.3
249.339	-7.04
249.557	4.13
249.775	14.92
249.992	-0.74
250.21	20.71
250.428	39.06
250.646	40.7
250.863	44.93
251.081	51.12
251.299	40.77
251.517	41.29
251.734	40.12
251.952	22.9
252.17	25.94
252.387	18.33
252.605	3.33
252.823	-9.81
253.04	9.8
253.258	8.46
253.475	12.25
253.693	18.45
253.911	42.9
254.128	48.87
254.346	43.52
254.563	36.06
254.781	19.96
254.998	-7.75
255.216	-24.55
255.433	-13.77
255.651	-1.16
255.868	13.35
256.086	19.38
256.303	23.01
256.521	18.97
256.738	7.18
256.956	11.72
257.173	6.27
257.39	14.75
257.608	20.77
257.825	30.64
258.043	18.98
258.26	16.39
258.477	15.62
258.695	10.64
258.912	19.89
259.129	13.99
259.346	12.69
259.564	-6.61
259.781	-14.84
259.998	-31.25
260.216	12.33
260.433	28.51
260.65	19.46
260.867	27.39
261.084	32.81
261.302	-6.32
261.519	-30.74
261.736	-3.28
261.953	-6.48
262.17	4.57
262.387	11.67
262.604	20.53
262.822	5.9
263.039	-1.11
263.256	-19.08
263.473	-3.18
263.69	-32.54
263.907	-37.6
264.124	-19.6
264.341	-11.68
264.558	-6.92
264.775	11.35
264.992	26.71
265.209	7.54
265.426	13.47
265.643	15.24
265.86	8.56
266.077	-0.59
266.294	9.57
266.51	3.91
266.727	6.23
266.944	9.68
267.161	6.78
267.378	-4.94
267.595	17.5
267.812	-2.28
268.028	-15.15
268.245	-1.59
268.462	-5.62
268.679	-10.09
268.896	-4.56
269.112	14.57
269.329	9.64
269.546	27.27
269.763	16.99
269.979	14.19
270.196	10.11
270.413	13.44
270.629	1.29
270.846	5.37
271.063	12.05
271.279	20.52
271.496	11.9
271.712	22.36
271.929	28.79
272.146	42.74
272.362	16.31
272.579	36.78
272.795	22.37
273.012	14.66
273.228	1.17
273.445	31.29
273.661	16.43
273.878	30.73
274.094	55.62
274.311	69.15
274.527	47.91
274.744	63.99
274.96	55.27
275.177	37.23
275.393	27.2
275.609	27.54
275.826	3.81
276.042	7.95
276.259	9.25
276.475	8.4
276.691	16.19
276.908	20.69
277.124	12.5
277.34	8.05
277.557	-1.07
277.773	-16.66
277.989	-28.28
278.205	-29.52
278.422	-20.81
278.638	-14.57
278.854	-8.25
279.07	17.29
279.286	19.23
279.503	19.38
279.719	24.7
279.935	13.36
280.151	-16.66
280.367	-14.87
280.583	0.51
280.799	-8.94
281.016	13.44
281.232	29.37
281.448	22.16
281.664	31.79
281.88	27.29
282.096	24.74
282.312	2.45
282.528	-0.96
282.744	-39.83
282.96	-34
283.176	-56.34
283.392	-15.62
283.608	-7.26
283.824	2.49
284.04	2.25
284.256	27.17
284.471	18.09
284.687	31.04
284.903	9.85
285.119	25.37
285.335	10.13
285.551	12.36
285.767	5.18
285.982	17.57
286.198	12.11
286.414	9.26
286.63	13.72
286.846	10.82
287.061	5.5
287.277	7.3
287.493	-5.02
287.709	-8.77
287.924	6.75
288.14	5.3
288.356	7.22
288.571	24.68
288.787	15.73
289.003	13.6
289.218	8.7
289.434	10.63
289.65	12.79
289.865	31.27
290.081	16.63
290.296	21.99
290.512	24.52
290.727	17.29
290.943	5.48
291.159	29.89
291.374	35.59
291.59	28.1
291.805	14.07
292.021	17.01
292.236	-0.21
292.451	-27.53
292.667	-10.98
292.882	0.52
293.098	-6.91
293.313	4.65
293.529	18.26
293.744	-4.12
293.959	0.28
294.175	20.92
294.39	9.28
294.605	14.9
294.821	23.37
295.036	29.64
295.251	19.08
295.467	17.53
295.682	11.37
295.897	17.05
296.112	17.55
296.328	16.5
296.543	9.82
296.758	15.3
296.973	4.52
297.188	11.56
297.404	7.49
297.619	27.9
297.834	1.97
298.049	11.14
298.264	1.5
298.479	17.11
298.694	19.59
298.909	21.6
299.125	16.83
299.34	25.59
299.555	9.13
299.77	4.76
299.985	-5.41
300.2	-6.15
300.415	-19.77
300.63	-8.53
300.845	-26.57
301.06	-20.96
301.275	-6.74
301.49	-2.4
301.704	-1.13
301.919	13.57
302.134	18.26
302.349	17.18
302.564	11.45
302.779	9.21
302.994	-9.61
303.209	-0.26
303.423	-4.7
303.638	0.13
303.853	-5.87
304.068	21.98
304.283	12.3
304.497	3.58
304.712	-16.43
304.927	-11.62
305.142	-30.73
305.356	-53.76
305.571	-25.44
305.786	-6.84
306	-25.43
306.215	-21.61
306.43	-8.91
306.644	-35.46
306.859	-14.45
307.074	11.4
307.288	11.04
307.503	19.44
307.717	19.29
307.932	-16.25
308.147	-18.72
308.361	-19.01
308.576	-36.9
308.79	-54.23
309.005	-7.06
309.219	-8.86
309.434	0.61
309.648	9.92
309.863	16.97
310.077	13.83
310.292	27.1
310.506	27.48
310.72	33.7
310.935	43.52
311.149	41.26
311.364	33.39
311.578	3.55
311.792	-11.91
312.007	-26.71
312.221	-47.86
312.435	-56.13
312.649	-37.4
312.864	-324.17
313.078	-174.94
313.292	-145.96
313.507	-104.72
313.721	-53.5
313.935	18.14
314.149	17.68
314.363	26.03
314.578	21.74
314.792	13.33
315.006	22.25
315.22	14.58
315.434	15.9
315.648	16.27
315.862	17.26
316.077	13.59
316.291	13.38
316.505	19.43
316.719	16.1
316.933	8.63
317.147	5.7
317.361	-11.36
317.575	-35.47
317.789	-25.05
318.003	-15.3
318.217	-0.32
318.431	4.29
318.645	12.06
318.859	11.02
319.073	5.7
319.287	5.18
319.5	13.09
319.714	30.73
319.928	35.61
320.142	43.59
320.356	48.79
320.57	51.1
320.784	29.78
320.997	23.17
321.211	9.2
321.425	-3.54
321.639	-14.65
321.853	1.1
322.066	-9.79
322.28	6.7
322.494	18.92
322.707	39.08
322.921	35.22
323.135	38.43
323.349	36.71
323.562	20.18
323.776	-5.92
323.989	-5.2
324.203	11.61
324.417	0.27
324.63	1.14
324.844	15.56
325.057	14.87
325.271	-1.94
325.485	5.92
325.698	18.2
325.912	10.56
326.125	-8.01
326.339	-7.03
326.552	-4.98
326.766	-9.58
326.979	-2.29
327.193	6.62
327.406	16.83
327.619	4.12
327.833	13.22
328.046	17.4
328.26	37.05
328.473	35.63
328.686	59.41
328.9	47.85
329.113	12.69
329.326	-2.08
329.54	-25.06
329.753	-44.08
329.966	-13.18
330.179	1.2
330.393	-4.8
330.606	-2.11
330.819	1.65
331.032	1.04
331.246	1.11
331.459	-26.74
331.672	-24.07
331.885	-18.11
332.098	-19.12
332.311	-1.02
332.525	16.96
332.738	16.37
332.951	7.58
333.164	4.85
333.377	-6.96
333.59	7.92
333.803	18.18
334.016	26.49
334.229	14.25
334.442	11.33
334.655	8.42
334.868	-9.09
335.081	-0.57
335.294	-1.18
335.507	7.56
335.72	-2
335.933	-7.09
336.146	-17.41
336.359	-0.21
336.572	-25.91
336.785	-21.17
336.997	6.22
337.21	15.58
337.423	0.99
337.636	14.02
337.849	17.17
338.062	-5.44
338.274	-10.28
338.487	5.54
338.7	-6.69
338.913	-4.6
339.125	13.44
339.338	14.81
339.551	4.35
339.763	1.69
339.976	-12.39
340.189	-17.35
340.402	-30.71
340.614	-3.23
340.827	8.57
341.039	24.31
341.252	43.41
341.465	39.58
341.677	24.75
341.89	23.77
342.102	13.06
342.315	6.99
342.527	6.22
342.74	1.73
342.952	2
343.165	12.27
343.377	11.54
343.59	0.25
343.802	11.35
344.015	10.25
344.227	-12.39
344.44	-16.66
344.652	-9.49
344.864	-45.54
345.077	-30.37
345.289	-14.76
345.502	-20.65
345.714	-22.18
345.926	3.87
346.139	-33.74
346.351	-32.74
346.563	-14.89
346.775	-15.43
346.988	-25.17
347.2	-11.21
347.412	-11.29
347.624	-25.48
347.837	-36.46
348.049	-45.05
348.261	-38.28
348.473	-25.25
348.685	-12.32
348.897	6.88
349.11	21.06
349.322	20.67
349.534	18.06
349.746	18.87
349.958	13.74
350.17	7.56
350.382	3.48
350.594	-5.83
350.806	5.58
351.018	-13.61
351.23	-14.89
351.442	-24.05
351.654	-9.46
351.866	-16.49
352.078	14.55
352.29	1.97
352.502	15.61
352.714	14.73
352.926	9.03
353.138	1.04
353.35	19.37
353.561	12.47
353.773	12.35
353.985	18.37
354.197	22.2
354.409	20.03
354.621	4.67
354.832	4.6
355.044	-5.86
355.256	-0.47
355.468	-4.14
355.679	16.32
355.891	22.71
356.103	33.33
356.314	20.48
356.526	20.45
356.738	18
356.949	6.76
357.161	-4.43
357.373	2.46
357.584	3.75
357.796	10.84
358.008	-6.03
358.219	-3.14
358.431	-8.74
358.642	-16.08
358.854	-43.74
359.065	-13.35
359.277	-3.57
359.488	-4.14
359.7	9.38
359.911	23.8
360.123	32.53
360.334	27.85
360.546	28.23
360.757	19.8
360.969	26.4
361.18	23.63
361.391	20.53
361.603	7.86
361.814	19.91
362.025	6.53
362.237	9.87
362.448	6.32
362.659	11.77
362.871	11.6
363.082	20.18
363.293	0.86
363.504	8.52
363.716	0.55
363.927	-17.78
364.138	-15.53
364.349	-7.63
364.56	-10.25
364.772	-4.03
364.983	7.94
365.194	8.45
365.405	25.15
365.616	20.75
365.827	20.48
366.038	7.1
366.25	2.29
366.461	-21.72
366.672	-32.39
366.883	-42.99
367.094	-24.64
367.305	-5.24
367.516	4.63
367.727	7.38
367.938	9.52
368.149	10.02
368.36	0.32
368.571	-10.34
368.781	-21.99
368.992	-30.95
369.203	-20.33
369.414	-5.98
369.625	3.12
369.836	18.04
370.047	18.57
370.258	14.9
370.468	6.15
370.679	-7.66
370.89	-29.82
371.101	-12.53
371.312	-25
371.522	-35.83
371.733	-29.35
371.944	-32.91
372.155	-48.38
372.365	-39.32
372.576	-27.13
372.787	-18.18
372.997	-6.13
373.208	-8.76
373.419	-4.17
373.629	7.18
373.84	18.74
374.05	19.15
374.261	27.16
374.472	25.91
374.682	12.08
374.893	14.68
375.103	14.02
375.314	11.62
375.524	11.62
375.735	21.44
375.945	10.53
376.156	9.9
376.366	-9.75
376.577	-9.55
376.787	-14.48
376.997	-17.02
377.208	-22.86
377.418	-5.55
377.629	-4.46
377.839	-0.05
378.049	5.34
378.26	7.59
378.47	4.73
378.68	0.19
378.89	-4.46
379.101	3.99
379.311	4.49
379.521	-4.67
379.732	2.77
379.942	2.22
380.152	-11.27
380.362	-14.32
380.572	-7.99
380.783	-13.86
380.993	-14.32
381.203	-11.61
381.413	-24.69
381.623	-13.22
381.833	1.36
382.043	7.66
382.253	8.7
382.463	10.27
382.674	4.15
382.884	4.84
383.094	-7.63
383.304	-7.47
383.514	-1.72
383.724	11.11
383.934	1.51
384.144	9.84
384.353	12.94
384.563	9.21
384.773	6.69
384.983	9.52
385.193	11.41
385.403	5.5
385.613	10.87
385.823	4.69
386.033	4.42
386.242	0.15
386.452	3.42
386.662	2.74
386.872	7.01
387.082	5.13
387.291	2.38
387.501	1.54
387.711	0.21
387.921	-4.54
388.13	-8.82
388.34	-3.23
388.55	-3.98
388.759	-4.52
388.969	-2.23
389.179	3.66
389.388	1.58
389.598	4.48
389.807	4.82
390.017	3.23
390.227	5.16
390.436	5.76
390.646	2.78
390.855	2.67
391.065	3.65
391.274	0.57
391.484	-2.4
391.693	-2.13
391.903	-2.75
392.112	-3.09
392.322	-1.96
392.531	-0.52
392.74	-2.55
392.95	-1.14
393.159	-0.9
393.369	0.28
393.578	0.56
393.787	3.33
393.997	1.86
394.206	2.21
394.415	2.01
394.625	2.67
394.834	1.23
395.043	0.62
395.252	1.62
395.462	1.17
395.671	0.9
395.88	2.61
396.089	3.77
396.298	3.06
396.508	2.48
396.717	2.12
396.926	1.36
397.135	0.58
397.344	0.57
397.553	1.3
397.762	1.58
397.971	1.55
398.181	2.53
398.39	2.21
398.599	2.11
398.808	2.07
399.017	2.72
399.226	2.36
399.435	2.2
399.644	2.64
399.853	2.78
400.062	2.68
400.27	3.06
400.479	3.43
400.688	2.84
400.897	2.78
401.106	2.52
401.315	2.09
401.524	2.3
401.733	2.37
401.941	2.54
402.15	2.41
402.359	2.44
402.568	2.14
402.777	1.97
402.985	1.79
403.194	1.79
403.403	1.94
403.612	1.91
403.82	2.07
404.029	1.96
404.238	1.95
404.446	1.8
404.655	1.71
404.864	1.79
405.072	1.89
405.281	2.01
405.489	1.96
405.698	2.02
405.906	1.9
406.115	1.83
406.324	1.7
406.532	1.76
406.741	1.81
406.949	1.81
407.158	1.94
407.366	1.96
407.574	1.99
407.783	2.01
407.991	1.9
408.2	1.8
408.408	1.71
408.617	1.73
408.825	1.76
409.033	1.88
409.242	1.93
409.45	1.96
409.658	1.88
409.867	1.84
410.075	1.8
410.283	1.71
410.491	1.69
410.7	1.81
410.908	1.92
411.116	1.96
411.324	1.87
411.533	1.92
411.741	1.89
411.949	1.81
412.157	1.71
412.365	1.75
412.573	1.79
412.781	1.74
412.99	1.64
413.198	1.57
413.406	1.68
413.614	1.76
413.822	1.79
414.03	1.81
414.238	1.92
414.446	2.07
414.654	1.88
414.862	1.82
415.07	1.76
415.278	1.74
415.486	1.47
415.694	1.59
415.902	1.54
416.109	1.59
416.317	1.63
416.525	1.71
416.733	1.68
416.941	1.73
417.149	1.7
417.357	1.48
417.564	1.49
417.772	1.44
417.98	1.58
418.188	1.57
418.395	1.68
418.603	1.7
418.811	1.79
419.019	1.72
419.226	1.95
419.434	1.99
419.642	1.97
419.849	1.9
420.057	1.72
420.265	1.46
420.472	1.42
420.68	1.37
420.887	1.36
421.095	1.55
421.302	1.69
421.51	1.77
421.717	1.83
421.925	1.87
422.132	1.8
422.34	1.57
422.547	1.48
422.755	1.52
422.962	1.58
423.17	1.38
423.377	1.56
423.585	1.73
423.792	1.63
423.999	1.55
424.207	1.74
424.414	1.55
424.621	1.48
424.829	1.42
425.036	1.43
425.243	1.44
425.451	1.6
425.658	1.59
425.865	1.64
426.072	1.56
426.28	1.61
426.487	1.65
426.694	1.56
426.901	1.39
427.108	1.41
427.315	1.29
427.523	1.14
427.73	1.13
427.937	1.37
428.144	1.31
428.351	1.29
428.558	1.39
428.765	1.46
428.972	1.47
429.179	1.59
429.386	1.55
429.593	1.57
429.8	1.54
430.007	1.5
430.214	1.59
430.421	1.61
430.628	1.44
430.835	1.44
431.042	1.39
431.249	1.36
431.456	1.39
431.662	1.57
431.869	1.63
432.076	1.64
432.283	1.51
432.49	1.6
432.697	1.66
432.903	1.54
433.11	1.46
433.317	1.51
433.524	1.4
433.73	1.27
433.937	1.37
434.144	1.47
434.35	1.57
434.557	1.68
434.764	1.68
434.97	1.59
435.177	1.66
435.384	1.54
435.59	1.53
435.797	1.62
436.003	1.68
436.21	1.55
436.416	1.56
436.623	1.57
436.829	1.45
437.036	1.43
437.242	1.6
437.449	1.67
437.655	1.7
437.862	1.83
438.068	1.87
438.275	1.8
438.481	1.83
438.687	1.81
438.894	1.85
439.1	1.89
439.307	1.91
439.513	1.77
439.719	1.72
439.926	1.58
440.132	1.65
440.338	1.7
440.544	1.76
440.751	1.75
440.957	1.9
441.163	1.81
441.369	1.75
441.575	1.74
441.782	1.74
441.988	1.66
442.194	1.7
442.4	1.74
442.606	1.91
442.812	1.95
443.018	2.06
443.224	2.05
443.431	1.98
443.637	1.95
443.843	1.93
444.049	1.87
444.255	1.75
444.461	1.78
444.667	1.65
444.873	1.63
445.079	1.55
445.284	1.66
445.49	1.62
445.696	1.7
445.902	1.68
446.108	1.69
446.314	1.76
446.52	1.77
446.726	1.79
446.931	1.81
447.137	1.84
447.343	1.75
447.549	1.79
447.755	1.69
447.96	1.82
448.166	1.82
448.372	1.79
448.578	1.87
448.783	2.04
448.989	1.96
449.195	1.81
449.4	1.93
449.606	1.79
449.812	1.72
450.017	1.76
450.223	2.01
450.428	2
450.634	2.1
450.84	2.16
451.045	2.12
451.251	2.12
451.456	2.17
451.662	2.12
451.867	2.06
452.073	2.11
452.278	1.97
452.483	1.96
452.689	2.03
452.894	1.99
453.1	1.93
453.305	2.1
453.51	2.04
453.716	1.94
453.921	2.04
454.127	2.12
454.332	1.87
454.537	1.86
454.742	1.92
454.948	1.74
455.153	1.67
455.358	1.81
455.563	1.82
455.769	1.72
455.974	1.85
456.179	1.82
456.384	1.71
456.589	1.75
456.795	1.84
457	1.85
457.205	1.97
457.41	2.1
457.615	1.99
457.82	2
458.025	2.01
458.23	1.94
458.435	1.9
458.64	1.94
458.845	1.98
459.05	1.94
459.255	1.9
459.46	1.92
459.665	1.99
459.87	1.88
460.075	1.82
460.28	1.9
460.485	1.91
460.69	1.85
460.895	1.92
461.099	2
461.304	1.97
461.509	1.88
461.714	1.89
461.919	1.84
462.123	1.85
462.328	1.8
462.533	1.9
462.738	1.92
462.942	1.87
463.147	1.94
463.352	2.05
463.556	2.1
463.761	2.04
463.966	2.17
464.17	2.17
464.375	2.14
464.58	2.05
464.784	2.14
464.989	2.04
465.193	2.02
465.398	2.05
465.602	2.13
465.807	2.1
466.011	2.23
466.216	2.17
466.42	2.11
466.625	2.16
466.829	2.22
467.034	2.25
467.238	2.29
