Data from Ofav_PS_Phys_358_Reflection_3.txt Node
Date: Thu Jul 29 18:25:23 EDT 2021
User: USUARIO
Spectrometer: FLMT01687
Trigger mode: 0
Integration Time (sec): 9.010000E-1
Scans to average: 2
Electric dark correction enabled: true
Nonlinearity correction enabled: false
Boxcar width: 2
XAxis mode: Wavelengths
Number of Pixels in Spectrum: 3648
>>>>>Begin Spectral Data<<<<<
179.494	251.43
179.716	287.84
179.937	169.98
180.158	-603.39
180.38	-10.11
180.601	-355.91
180.823	-43.34
181.044	13.1
181.265	0.99
181.486	-108.47
181.708	115.47
181.929	164.02
182.15	2857.14
182.372	1.88
182.593	13.95
182.814	-8.97
183.035	-404.12
183.257	113.87
183.478	84.76
183.699	78.73
183.92	55.64
184.141	58.82
184.363	50.28
184.584	56.09
184.805	41.55
185.026	61.75
185.247	65.48
185.468	73.82
185.689	108.16
185.91	186.53
186.132	204.29
186.353	138.62
186.574	122.67
186.795	127.63
187.016	117.67
187.237	98.11
187.458	114.59
187.679	118.14
187.9	91.12
188.121	105.64
188.342	102.81
188.563	83.28
188.784	83.43
189.005	81.52
189.226	73.97
189.447	89.68
189.667	98.37
189.888	102.21
190.109	118.16
190.33	186.24
190.551	103.09
190.772	77.64
190.993	37.14
191.214	30.14
191.434	42.63
191.655	50.17
191.876	67.96
192.097	90.57
192.318	88.72
192.538	60.89
192.759	60.75
192.98	43.89
193.201	67.14
193.421	56.24
193.642	60.97
193.863	53.58
194.083	39.47
194.304	7.78
194.525	25.47
194.745	24.67
194.966	8.26
195.187	33.26
195.407	31.15
195.628	-12.11
195.848	43.35
196.069	98.89
196.29	76.12
196.51	68.21
196.731	81.84
196.951	46.94
197.172	20.34
197.392	12.87
197.613	41.82
197.833	33.36
198.054	19.69
198.274	39.97
198.495	56.85
198.715	31.16
198.936	46.85
199.156	84.52
199.377	94.63
199.597	78.45
199.817	77.67
200.038	73.66
200.258	77.32
200.479	55.89
200.699	60.31
200.919	66.03
201.14	55.48
201.36	54.72
201.58	59.92
201.801	68.47
202.021	52.11
202.241	64.79
202.461	59.22
202.682	47.28
202.902	53.6
203.122	79.12
203.342	111.68
203.563	106.81
203.783	105.78
204.003	90.52
204.223	116.08
204.443	45.58
204.663	54.56
204.884	48.7
205.104	53.42
205.324	39.66
205.544	61.06
205.764	61.23
205.984	83.23
206.204	105.46
206.424	108.3
206.644	90.55
206.864	95.73
207.084	56.12
207.304	45.34
207.525	48
207.745	70.35
207.964	64.02
208.184	75.14
208.404	55.32
208.624	59.03
208.844	69.45
209.064	50.31
209.284	52.06
209.504	59.22
209.724	55.25
209.944	52.18
210.164	57.57
210.384	47.45
210.604	30.88
210.823	19.84
211.043	9.6
211.263	38.85
211.483	45.76
211.703	61.52
211.922	59.08
212.142	61.88
212.362	48.46
212.582	46.56
212.801	46.36
213.021	31.69
213.241	28.3
213.461	23.35
213.68	-15.64
213.9	11.21
214.12	29.51
214.339	27.64
214.559	22.95
214.779	74.58
214.998	52.06
215.218	49.66
215.438	77.32
215.657	75.18
215.877	72.78
216.096	69.27
216.316	69.64
216.535	54.73
216.755	18.2
216.974	-28.19
217.194	-14.67
217.413	21.88
217.633	29.23
217.852	23.18
218.072	31.73
218.291	28.41
218.511	51.82
218.73	38.9
218.95	48.98
219.169	41.73
219.389	29.87
219.608	4.45
219.827	13.09
220.047	26.43
220.266	31.87
220.485	54.02
220.705	50.35
220.924	32.45
221.143	24.08
221.363	5.6
221.582	3.99
221.801	-12.88
222.021	42.97
222.24	27.75
222.459	40.47
222.678	36.21
222.897	44.8
223.117	31.48
223.336	30.08
223.555	48.41
223.774	57.19
223.993	37.1
224.213	50.15
224.432	36.96
224.651	36.75
224.87	28.47
225.089	42.23
225.308	41.28
225.527	64.47
225.746	48.8
225.965	47.56
226.184	48.64
226.404	45.43
226.623	47.45
226.842	45.93
227.061	65.42
227.28	54.37
227.499	50.68
227.718	43.24
227.936	53.31
228.155	35.86
228.374	16.24
228.593	34.59
228.812	37.33
229.031	45.59
229.25	53.06
229.469	69.39
229.688	66.48
229.907	79.97
230.125	69.03
230.344	78.92
230.563	88.61
230.782	105.72
231.001	62.44
231.22	95.89
231.438	64.7
231.657	51.58
231.876	45.29
232.095	54.93
232.313	33.9
232.532	37.42
232.751	45.6
232.969	28.81
233.188	40.79
233.407	36.05
233.625	43.91
233.844	39.71
234.063	38.05
234.281	6.25
234.5	6.05
234.719	23
234.937	0.54
235.156	5.7
235.374	33.75
235.593	52.51
235.811	58.17
236.03	39.94
236.249	38.3
236.467	37.07
236.686	30.06
236.904	7.82
237.123	27.82
237.341	27.05
237.559	27.59
237.778	40.59
237.996	64.01
238.215	73.2
238.433	81.9
238.652	80.83
238.87	64.29
239.088	63.69
239.307	51.59
239.525	49.54
239.743	43.63
239.962	52.28
240.18	42.18
240.398	53.05
240.617	22.2
240.835	19.28
241.053	38.22
241.271	51.2
241.49	36.26
241.708	63.91
241.926	60.73
242.144	31.21
242.363	35.77
242.581	24.93
242.799	15.93
243.017	37.56
243.235	39.13
243.453	33.17
243.672	35.14
243.89	32.3
244.108	30.71
244.326	52.83
244.544	40.49
244.762	50.98
244.98	73.24
245.198	81.72
245.416	63.78
245.634	91.07
245.852	96.17
246.07	66.93
246.288	45.37
246.506	41.26
246.724	38.19
246.942	20.26
247.16	28.91
247.378	23.41
247.596	19.6
247.814	26.76
248.032	35.11
248.25	31.72
248.468	45.9
248.685	49.38
248.903	53.09
249.121	52.62
249.339	31.38
249.557	30.08
249.775	37.94
249.992	20.49
250.21	24.09
250.428	63.12
250.646	53.74
250.863	43.27
251.081	52.86
251.299	58.38
251.517	46.49
251.734	50.75
251.952	52.33
252.17	48.37
252.387	56.23
252.605	63.07
252.823	72.3
253.04	63.11
253.258	78.9
253.475	75.03
253.693	59.12
253.911	68.01
254.128	78.51
254.346	65.02
254.563	67.99
254.781	56.38
254.998	46.41
255.216	38.14
255.433	34.43
255.651	27.91
255.868	42.18
256.086	48.3
256.303	49.87
256.521	50.99
256.738	45.32
256.956	41
257.173	23.51
257.39	37.58
257.608	46.02
257.825	65.54
258.043	52.85
258.26	61.87
258.477	40.81
258.695	31.44
258.912	19.59
259.129	33.82
259.346	27.34
259.564	62.42
259.781	48.86
259.998	24.48
260.216	54.91
260.433	68.02
260.65	50.5
260.867	63.13
261.084	78.18
261.302	45.58
261.519	17.24
261.736	12.98
261.953	1.32
262.17	17.15
262.387	23.31
262.604	13.91
262.822	11.57
263.039	18.58
263.256	-3.64
263.473	9.48
263.69	3.86
263.907	28.78
264.124	39.93
264.341	45.35
264.558	53.55
264.775	65.36
264.992	70.16
265.209	50.29
265.426	52.01
265.643	45.59
265.86	36.54
266.077	40.15
266.294	51.77
266.51	46.44
266.727	44.55
266.944	61.21
267.161	-5.58
267.378	-18.8
267.595	-10.2
267.812	-12.64
268.028	-50.35
268.245	25.28
268.462	19.55
268.679	32.96
268.896	36.98
269.112	39.98
269.329	31.37
269.546	40.09
269.763	22.78
269.979	21
270.196	41.17
270.413	49.83
270.629	56.11
270.846	71.27
271.063	76.31
271.279	73.11
271.496	61.25
271.712	45.95
271.929	39.35
272.146	41.02
272.362	41.72
272.579	64.5
272.795	74.39
273.012	72.33
273.228	56.49
273.445	62.21
273.661	41.77
273.878	28.07
274.094	28.52
274.311	28.71
274.527	22.42
274.744	34.77
274.96	47.03
275.177	52.31
275.393	56.47
275.609	60.71
275.826	47.37
276.042	27.44
276.259	3.41
276.475	0.4
276.691	18.23
276.908	33.76
277.124	52.19
277.34	55.82
277.557	52.5
277.773	29.64
277.989	19.38
278.205	13.79
278.422	21.77
278.638	29.56
278.854	25.12
279.07	51.38
279.286	43.46
279.503	46.52
279.719	47.77
279.935	63.53
280.151	42.62
280.367	51.04
280.583	55.67
280.799	43.75
281.016	22.19
281.232	40.79
281.448	22.58
281.664	17.8
281.88	17.25
282.096	23.53
282.312	15.5
282.528	41.54
282.744	55.76
282.96	69.3
283.176	70.36
283.392	73.22
283.608	62.9
283.824	55.86
284.04	46
284.256	80.04
284.471	81.11
284.687	53.71
284.903	47.15
285.119	49.53
285.335	-0.64
285.551	5.05
285.767	23.06
285.982	18.3
286.198	12.91
286.414	32.53
286.63	40.04
286.846	40.38
287.061	44.68
287.277	49.47
287.493	40.42
287.709	40.82
287.924	38.17
288.14	52.09
288.356	58.51
288.571	54.02
288.787	45.92
289.003	37.46
289.218	22.65
289.434	23.69
289.65	40.8
289.865	41.84
290.081	38.01
290.296	52.93
290.512	51.04
290.727	45.3
290.943	44.87
291.159	45.15
291.374	41.47
291.59	30.32
291.805	16.25
292.021	20.46
292.236	26.94
292.451	0.43
292.667	19.22
292.882	34.29
293.098	16.52
293.313	25.52
293.529	35.3
293.744	22.9
293.959	20.79
294.175	51.47
294.39	49.75
294.605	74.95
294.821	76.74
295.036	77.07
295.251	67.39
295.467	61.63
295.682	50.02
295.897	45.78
296.112	34.36
296.328	42.83
296.543	32.57
296.758	18.66
296.973	24.44
297.188	44.12
297.404	11.52
297.619	39.65
297.834	44.06
298.049	35.36
298.264	47.91
298.479	77.1
298.694	57.51
298.909	53.73
299.125	60.84
299.34	52.35
299.555	44.44
299.77	54.09
299.985	49.34
300.2	34.21
300.415	11.05
300.63	15.4
300.845	17.72
301.06	20.86
301.275	55.9
301.49	65.18
301.704	61.64
301.919	42.38
302.134	50.58
302.349	29.48
302.564	32.15
302.779	30.94
302.994	28.95
303.209	25.88
303.423	31.86
303.638	40.97
303.853	43.39
304.068	31.93
304.283	37.26
304.497	35.46
304.712	20.41
304.927	25.48
305.142	35.99
305.356	24.33
305.571	46.89
305.786	54.33
306	30.41
306.215	31.01
306.43	46.69
306.644	30.67
306.859	40.33
307.074	67.63
307.288	82.23
307.503	77.48
307.717	73.69
307.932	63.72
308.147	80.17
308.361	71.46
308.576	59.72
308.79	49.44
309.005	62.55
309.219	61.55
309.434	64.71
309.648	57.31
309.863	59.09
310.077	40.86
310.292	27.46
310.506	17.1
310.72	36.5
310.935	34.65
311.149	49.53
311.364	51.27
311.578	39.33
311.792	14.7
312.007	23.09
312.221	21.97
312.435	42.14
312.649	57.53
312.864	124.23
313.078	98.79
313.292	54.37
313.507	66.61
313.721	57.92
313.935	41.74
314.149	40.36
314.363	38.92
314.578	27.43
314.792	37.65
315.006	47.53
315.22	45.03
315.434	55.64
315.648	54.16
315.862	34.27
316.077	28.79
316.291	25.52
316.505	19.49
316.719	25.93
316.933	42.96
317.147	51.42
317.361	41.47
317.575	50.35
317.789	28.05
318.003	29.18
318.217	33.26
318.431	44.62
318.645	52.4
318.859	56.8
319.073	52.26
319.287	38.79
319.5	30.87
319.714	23.44
319.928	24.51
320.142	49.28
320.356	67.42
320.57	65.88
320.784	69.48
320.997	65.45
321.211	48.14
321.425	34.97
321.639	30.15
321.853	31.85
322.066	27.82
322.28	29.59
322.494	26.6
322.707	47.21
322.921	36.58
323.135	31.44
323.349	33.3
323.562	33.86
323.776	5.11
323.989	15.56
324.203	26.53
324.417	27.61
324.63	19.77
324.844	27.42
325.057	25.4
325.271	22.23
325.485	31.79
325.698	50.19
325.912	50.16
326.125	41.76
326.339	35.62
326.552	33.99
326.766	34.52
326.979	36.66
327.193	50.43
327.406	48.6
327.619	36.13
327.833	44.06
328.046	45.58
328.26	45.81
328.473	44.46
328.686	20.92
328.9	-18.76
329.113	-35.79
329.326	-49.54
329.54	-76.2
329.753	-20.48
329.966	7.93
330.179	17.07
330.393	21.79
330.606	36.73
330.819	45.03
331.032	27.42
331.246	21.45
331.459	5.74
331.672	24.67
331.885	8.9
332.098	34
332.311	39.38
332.525	37.8
332.738	25.44
332.951	16.32
333.164	9.97
333.377	13.77
333.59	35.16
333.803	37.31
334.016	47.47
334.229	46.66
334.442	42.81
334.655	40.94
334.868	44.94
335.081	44.4
335.294	47.95
335.507	48.72
335.72	58.62
335.933	45.67
336.146	48.01
336.359	49.72
336.572	24.41
336.785	8.29
336.997	27.35
337.21	25.66
337.423	18.98
337.636	48.11
337.849	48.63
338.062	43.8
338.274	57.68
338.487	60.45
338.7	39.8
338.913	36.56
339.125	34.35
339.338	28.47
339.551	46.85
339.763	53.24
339.976	53.53
340.189	72.4
340.402	70.24
340.614	41.71
340.827	41.94
341.039	51.66
341.252	52.89
341.465	50.29
341.677	58.01
341.89	48.08
342.102	35.76
342.315	30.54
342.527	33.02
342.74	25.87
342.952	35.77
343.165	48.17
343.377	46.26
343.59	44.52
343.802	46.61
344.015	48.05
344.227	38.84
344.44	33.05
344.652	38.34
344.864	45.27
345.077	38.69
345.289	51.06
345.502	54.14
345.714	44.6
345.926	41.77
346.139	22.36
346.351	-3.33
346.563	9.93
346.775	1.1
346.988	-24.41
347.2	-9.16
347.412	-2.4
347.624	8.61
347.837	17.34
348.049	36.05
348.261	48.76
348.473	52.74
348.685	45.46
348.897	47.23
349.11	47.02
349.322	47.66
349.534	61.37
349.746	65.3
349.958	68.41
350.17	64.76
350.382	53
350.594	34.73
350.806	47.12
351.018	37.14
351.23	32.51
351.442	25.48
351.654	33.03
351.866	-1.33
352.078	26.29
352.29	25.62
352.502	35.49
352.714	31.87
352.926	45.15
353.138	29.72
353.35	39.98
353.561	35.44
353.773	46.46
353.985	55.31
354.197	71.91
354.409	64.7
354.621	50.94
354.832	45.52
355.044	41.78
355.256	16.37
355.468	7
355.679	32.06
355.891	38
356.103	37.08
356.314	40.73
356.526	43.94
356.738	38.29
356.949	38.41
357.161	43.25
357.373	46.23
357.584	48.87
357.796	51.53
358.008	48.88
358.219	38.01
358.431	32.69
358.642	38.55
358.854	30.58
359.065	23.87
359.277	11.38
359.488	21.26
359.7	23.4
359.911	28.02
360.123	25.79
360.334	34.38
360.546	24.98
360.757	16.76
360.969	20.3
361.18	26.4
361.391	23.87
361.603	25.09
361.814	45.73
362.025	39.84
362.237	24.94
362.448	27.51
362.659	31.09
362.871	19.52
363.082	21.88
363.293	32.63
363.504	49.16
363.716	42.02
363.927	40.85
364.138	14.04
364.349	19.81
364.56	19.22
364.772	19.84
364.983	17.14
365.194	36.26
365.405	34.87
365.616	25.88
365.827	32
366.038	23.07
366.25	21.71
366.461	26.8
366.672	33.48
366.883	35.99
367.094	48.7
367.305	41.71
367.516	43.81
367.727	37.13
367.938	30.81
368.149	32.3
368.36	35.94
368.571	35.33
368.781	40.28
368.992	42.38
369.203	36.72
369.414	35.32
369.625	26.43
369.836	22.89
370.047	13.83
370.258	15.05
370.468	3.04
370.679	-0.12
370.89	-16.6
371.101	-12.19
371.312	-2.37
371.522	4.7
371.733	1.08
371.944	15.92
372.155	34.87
372.365	7.92
372.576	11.49
372.787	19.24
372.997	12.73
373.208	15.2
373.419	39.96
373.629	50.35
373.84	54.23
374.05	57.36
374.261	55.92
374.472	35.58
374.682	20.92
374.893	11.52
375.103	16.95
375.314	22.36
375.524	26.45
375.735	36.1
375.945	43.4
376.156	35.7
376.366	21.85
376.577	30.49
376.787	23.85
376.997	23.68
377.208	18.75
377.418	15.55
377.629	12.11
377.839	22.42
378.049	35.67
378.26	49.72
378.47	59.62
378.68	64.15
378.89	61.95
379.101	43.29
379.311	29.72
379.521	23.68
379.732	24.79
379.942	13.06
380.152	11.94
380.362	17.3
380.572	23.34
380.783	8.06
380.993	23.79
381.203	39.2
381.413	38.52
381.623	31.31
381.833	45.59
382.043	40.16
382.253	28.34
382.463	30.18
382.674	30.99
382.884	24.81
383.094	12.21
383.304	8.3
383.514	3.8
383.724	13.79
383.934	7.56
384.144	13.96
384.353	19.84
384.563	21.48
384.773	13.08
384.983	14.52
385.193	15.36
385.403	9.21
385.613	11.4
385.823	10.44
386.033	11.4
386.242	9.47
386.452	8.08
386.662	8.76
386.872	7.86
387.082	7.41
387.291	5.69
387.501	7.25
387.711	7.26
387.921	8.33
388.13	10.05
388.34	12.89
388.55	12.47
388.759	13.86
388.969	13.31
389.179	9.17
389.388	6.67
389.598	6.92
389.807	6.58
390.017	7.12
390.227	11.92
390.436	11.41
390.646	11.65
390.855	11.05
391.065	10.65
391.274	6.85
391.484	6.24
391.693	4.76
391.903	6.26
392.112	6.07
392.322	6.83
392.531	7.35
392.74	6.78
392.95	5.43
393.159	6.39
393.369	8.78
393.578	9.15
393.787	10.24
393.997	9.15
394.206	9.05
394.415	7.28
394.625	7.15
394.834	6.45
395.043	6.73
395.252	7.16
395.462	7.4
395.671	8.1
395.88	9.91
396.089	10.89
396.298	9.98
396.508	8.91
396.717	8.24
396.926	7.35
397.135	5.98
397.344	5.78
397.553	6.39
397.762	7.21
397.971	7.37
398.181	8.1
398.39	8.29
398.599	8.52
398.808	7.87
399.017	8.42
399.226	8.31
399.435	8.52
399.644	8.92
399.853	9.18
400.062	9.1
400.27	9.61
400.479	9.71
400.688	9.18
400.897	9.21
401.106	8.79
401.315	8.35
401.524	8.22
401.733	8.48
401.941	8.54
402.15	8.62
402.359	8.55
402.568	8.74
402.777	8.53
402.985	8.32
403.194	8.13
403.403	8.18
403.612	7.81
403.82	7.92
404.029	7.79
404.238	7.65
404.446	7.53
404.655	7.41
404.864	7.24
405.072	7.33
405.281	7.52
405.489	7.45
405.698	7.54
405.906	7.5
406.115	7.55
406.324	7.36
406.532	7.33
406.741	7.34
406.949	7.36
407.158	7.35
407.366	7.4
407.574	7.27
407.783	7.24
407.991	7.12
408.2	6.93
408.408	6.94
408.617	7.03
408.825	7.09
409.033	7.09
409.242	7.24
409.45	7.06
409.658	7.17
409.867	7.1
410.075	7.17
410.283	7.07
410.491	7.01
410.7	6.93
410.908	6.99
411.116	7.02
411.324	6.98
411.533	7.11
411.741	7.14
411.949	7.06
412.157	6.88
412.365	6.69
412.573	6.64
412.781	6.61
412.99	6.65
413.198	6.79
413.406	7.07
413.614	7.19
413.822	7.07
414.03	6.92
414.238	6.7
414.446	6.76
414.654	6.55
414.862	6.69
415.07	6.52
415.278	6.72
415.486	6.49
415.694	6.68
415.902	6.42
416.109	6.45
416.317	6.41
416.525	6.36
416.733	6.24
416.941	6.34
417.149	6.36
417.357	6.26
417.564	6.22
417.772	6.07
417.98	6.16
418.188	6.07
418.395	6
418.603	6.04
418.811	6.23
419.019	6.26
419.226	6.57
419.434	6.68
419.642	6.53
419.849	6.48
420.057	6.36
420.265	6.18
420.472	6.11
420.68	6.28
420.887	6.27
421.095	6.31
421.302	6.34
421.51	6.27
421.717	6.17
421.925	6.14
422.132	6.12
422.34	5.95
422.547	5.94
422.755	6.03
422.962	6.11
423.17	5.92
423.377	6.19
423.585	6.27
423.792	6.18
423.999	6.04
424.207	6.13
424.414	5.83
424.621	5.85
424.829	5.87
425.036	6.03
425.243	6.02
425.451	6.09
425.658	6.08
425.865	6.16
426.072	6.05
426.28	6.23
426.487	6.36
426.694	6.33
426.901	6.22
427.108	6.18
427.315	6.25
427.523	6.22
427.73	6.16
427.937	6.19
428.144	6.18
428.351	5.96
428.558	6.03
428.765	6.27
428.972	6.34
429.179	6.37
429.386	6.33
429.593	6.28
429.8	6.13
430.007	6.23
430.214	6.43
430.421	6.42
430.628	6.31
430.835	6.31
431.042	6.09
431.249	6.19
431.456	6.22
431.662	6.48
431.869	6.58
432.076	6.81
432.283	6.7
432.49	6.91
432.697	6.87
432.903	6.72
433.11	6.46
433.317	6.42
433.524	6.44
433.73	6.32
433.937	6.37
434.144	6.58
434.35	6.62
434.557	6.52
434.764	6.46
434.97	6.5
435.177	6.61
435.384	6.48
435.59	6.43
435.797	6.52
436.003	6.61
436.21	6.47
436.416	6.45
436.623	6.6
436.829	6.63
437.036	6.6
437.242	6.7
437.449	6.84
437.655	6.87
437.862	7
438.068	7.01
438.275	6.94
438.481	6.9
438.687	6.77
438.894	6.69
439.1	6.82
439.307	6.8
439.513	6.85
439.719	6.97
439.926	6.97
440.132	6.85
440.338	6.93
440.544	6.89
440.751	6.68
440.957	6.73
441.163	6.75
441.369	6.82
441.575	6.87
441.782	7.05
441.988	7.08
442.194	7.08
442.4	6.99
442.606	7.16
442.812	7.19
443.018	7.14
443.224	7.16
443.431	7.09
443.637	7.05
443.843	7.07
444.049	7.17
444.255	7.17
444.461	7.34
444.667	7.19
444.873	7.09
445.079	6.95
445.284	6.99
445.49	6.9
445.696	6.97
445.902	7.01
446.108	7.03
446.314	7.11
446.52	7.23
446.726	7.2
446.931	7.3
447.137	7.38
447.343	7.31
447.549	7.25
447.755	7.24
447.96	7.24
448.166	7.28
448.372	7.29
448.578	7.46
448.783	7.6
448.989	7.71
449.195	7.56
449.4	7.48
449.606	7.38
449.812	7.31
450.017	7.23
450.223	7.32
450.428	7.48
450.634	7.53
450.84	7.68
451.045	7.66
451.251	7.77
451.456	7.81
451.662	7.77
451.867	7.6
452.073	7.62
452.278	7.65
452.483	7.67
452.689	7.78
452.894	7.93
453.1	7.99
453.305	7.91
453.51	7.93
453.716	7.83
453.921	7.88
454.127	7.94
454.332	7.95
454.537	7.89
454.742	7.96
454.948	7.77
455.153	7.71
455.358	7.79
455.563	7.82
455.769	7.76
455.974	7.89
456.179	7.81
456.384	7.74
456.589	7.77
456.795	7.85
457	7.93
457.205	8.2
457.41	8.3
457.615	8.31
457.82	8.38
458.025	8.33
458.23	8.21
458.435	8.17
458.64	8.18
458.845	8.21
459.05	8.28
459.255	8.29
459.46	8.32
459.665	8.41
459.87	8.4
460.075	8.29
460.28	8.27
460.485	8.36
460.69	8.28
460.895	8.19
461.099	8.38
461.304	8.42
461.509	8.35
461.714	8.34
461.919	8.34
462.123	8.29
462.328	8.38
462.533	8.47
462.738	8.55
462.942	8.59
463.147	8.64
463.352	8.68
463.556	8.6
463.761	8.51
463.966	8.64
464.17	8.74
464.375	8.64
464.58	8.67
464.784	8.76
464.989	8.71
465.193	8.55
465.398	8.62
465.602	8.79
465.807	8.91
466.011	8.95
466.216	8.99
466.42	9.06
466.625	9.04
466.829	9.02
467.034	9.09
467.238	9.19
467.443	9.1
467.647	8.92
467.851	8.95
