Data from Ofav_PS_Phys_352_Reflection_3.txt Node
Date: Thu Jul 29 18:19:04 EDT 2021
User: USUARIO
Spectrometer: FLMT01687
Trigger mode: 0
Integration Time (sec): 9.010000E-1
Scans to average: 2
Electric dark correction enabled: true
Nonlinearity correction enabled: false
Boxcar width: 2
XAxis mode: Wavelengths
Number of Pixels in Spectrum: 3648
>>>>>Begin Spectral Data<<<<<
179.494	18.41
179.716	-18.47
179.937	-82.99
180.158	534.46
180.38	104.67
180.601	-186.35
180.823	-64.6
181.044	-71.8
181.265	-10.09
181.486	-374.01
181.708	74.53
181.929	145.33
182.15	5247.62
182.372	-60.08
182.593	-22.78
182.814	-71.05
183.035	-667.35
183.257	175.02
183.478	117.79
183.699	108.96
183.92	91.78
184.141	104.17
184.363	113.41
184.584	100.02
184.805	78.44
185.026	88.29
185.247	99.37
185.468	86.73
185.689	104.06
185.91	180.86
186.132	196.76
186.353	98.78
186.574	96.9
186.795	82.5
187.016	54.92
187.237	31.95
187.458	51.44
187.679	44.19
187.9	57.24
188.121	49.68
188.342	77.81
188.563	69.94
188.784	83.58
189.005	78.89
189.226	83.04
189.447	91.98
189.667	88.01
189.888	81.83
190.109	125.21
190.33	183.3
190.551	90.66
190.772	66.54
190.993	38.64
191.214	9.59
191.434	13.99
191.655	23.36
191.876	19.88
192.097	19.79
192.318	55.82
192.538	73.28
192.759	97.79
192.98	80.46
193.201	73.96
193.421	54.09
193.642	44.52
193.863	3.64
194.083	-12.04
194.304	5.69
194.525	11.13
194.745	10.32
194.966	19.78
195.187	20.67
195.407	4.92
195.628	-1.68
195.848	34.13
196.069	97.21
196.29	77.58
196.51	74.41
196.731	73.05
196.951	50.25
197.172	17
197.392	26.84
197.613	36
197.833	22.98
198.054	29.21
198.274	54.43
198.495	75.33
198.715	68.1
198.936	91.43
199.156	101.55
199.377	104.1
199.597	107.38
199.817	99.41
200.038	83.07
200.258	71.72
200.479	64.58
200.699	17.94
200.919	9.93
201.14	12.14
201.36	35.25
201.58	40.46
201.801	58.51
202.021	96.47
202.241	89.4
202.461	87.96
202.682	67.53
202.902	75.5
203.122	42.41
203.342	64.9
203.563	81.64
203.783	98.46
204.003	83.89
204.223	132.93
204.443	112.46
204.663	114.49
204.884	107.25
205.104	104.53
205.324	63.06
205.544	42.53
205.764	22.81
205.984	25.31
206.204	39.73
206.424	47.28
206.644	58.15
206.864	60.24
207.084	56.67
207.304	55.76
207.525	57.61
207.745	46
207.964	56.44
208.184	36.87
208.404	46.97
208.624	55.02
208.844	43.61
209.064	43.73
209.284	54.17
209.504	63.04
209.724	72.28
209.944	86.88
210.164	93.07
210.384	77.98
210.604	58.3
210.823	52.58
211.043	55.35
211.263	56.7
211.483	61.13
211.703	60
211.922	71.04
212.142	61.08
212.362	54.23
212.582	53.11
212.801	63.2
213.021	36.63
213.241	36.04
213.461	33.94
213.68	24.19
213.9	24.71
214.12	46.99
214.339	44.46
214.559	38.82
214.779	46.16
214.998	20.47
215.218	7.25
215.438	12.73
215.657	17.92
215.877	29.92
216.096	40.71
216.316	44.72
216.535	33.74
216.755	24.69
216.974	-3.7
217.194	-0.07
217.413	5.1
217.633	31.91
217.852	19.03
218.072	8.9
218.291	25.9
218.511	55.55
218.73	59.96
218.95	58.24
219.169	66.72
219.389	44.07
219.608	23.91
219.827	5.58
220.047	17
220.266	6.62
220.485	30.91
220.705	29.84
220.924	17.02
221.143	7.09
221.363	13.87
221.582	-20.8
221.801	-96.14
222.021	-63.62
222.24	-47.44
222.459	-11.13
222.678	21.55
222.897	26.47
223.117	42.48
223.336	77.07
223.555	44.62
223.774	73.48
223.993	57.86
224.213	68.91
224.432	49.58
224.651	53.07
224.87	27.52
225.089	42.51
225.308	37.66
225.527	62.93
225.746	60.29
225.965	83.39
226.184	67.49
226.404	55.62
226.623	37.08
226.842	77.06
227.061	87.61
227.28	85.98
227.499	111.5
227.718	132.94
227.936	55.79
228.155	50.57
228.374	28.29
228.593	27.82
228.812	14.51
229.031	23.37
229.25	33.59
229.469	59.26
229.688	36.75
229.907	63.56
230.125	58.1
230.344	59.56
230.563	54.97
230.782	75.33
231.001	45.16
231.22	56.71
231.438	46.06
231.657	40.13
231.876	44.17
232.095	24.82
232.313	15.64
232.532	18.88
232.751	3.6
232.969	8.55
233.188	54.88
233.407	52.73
233.625	40.99
233.844	44.43
234.063	59.01
234.281	27.96
234.5	41.37
234.719	49.99
234.937	77.81
235.156	80.44
235.374	74.53
235.593	77.68
235.811	84.86
236.03	60.29
236.249	52.11
236.467	56.04
236.686	58.45
236.904	57.41
237.123	59.93
237.341	43.12
237.559	44.62
237.778	59.22
237.996	50.17
238.215	45.79
238.433	71.1
238.652	72.35
238.87	59.31
239.088	66.28
239.307	58.88
239.525	47.48
239.743	39.57
239.962	39.88
240.18	36.8
240.398	41.53
240.617	29.08
240.835	18.67
241.053	7.48
241.271	19.46
241.49	42.42
241.708	48.92
241.926	64.98
242.144	56.14
242.363	43.84
242.581	24.23
242.799	31
243.017	28.44
243.235	45.91
243.453	53.26
243.672	49.53
243.89	48.02
244.108	39.19
244.326	31.37
244.544	8.2
244.762	21.64
244.98	20.02
245.198	30.22
245.416	14.97
245.634	34.86
245.852	50.38
246.07	58.88
246.288	53.26
246.506	59.88
246.724	53.4
246.942	37.95
247.16	37.75
247.378	29.04
247.596	26.99
247.814	32.71
248.032	30.78
248.25	18.03
248.468	23.8
248.685	32.21
248.903	25.07
249.121	23.48
249.339	14.71
249.557	26.03
249.775	37.9
249.992	26.34
250.21	49.79
250.428	72.62
250.646	63.24
250.863	49.13
251.081	68.9
251.299	67.38
251.517	53.7
251.734	69.09
251.952	63.02
252.17	44.13
252.387	28.78
252.605	46.78
252.823	37.43
253.04	46.9
253.258	59.32
253.475	62.5
253.693	53.34
253.911	67.67
254.128	89.25
254.346	64.43
254.563	70.82
254.781	43.64
254.998	20.32
255.216	-12.6
255.433	20.89
255.651	13.2
255.868	25.07
256.086	27.49
256.303	43.97
256.521	43.38
256.738	40.05
256.956	44.47
257.173	38.49
257.39	22.56
257.608	23.82
257.825	29.69
258.043	18.16
258.26	16.43
258.477	15.66
258.695	-11.82
258.912	-14.54
259.129	-8.49
259.346	-4.31
259.564	6.04
259.781	25.85
259.998	18.59
260.216	21.22
260.433	48.36
260.65	37.57
260.867	40.77
261.084	47.72
261.302	49.77
261.519	11.21
261.736	34.2
261.953	41.18
262.17	36.59
262.387	40.47
262.604	45.06
262.822	33.38
263.039	38.53
263.256	38.37
263.473	38.86
263.69	36.72
263.907	37.98
264.124	27.36
264.341	31.08
264.558	24.43
264.775	6.38
264.992	19.47
265.209	32.91
265.426	28.86
265.643	41.52
265.86	56.22
266.077	50.93
266.294	38.35
266.51	27.76
266.727	26.22
266.944	29.2
267.161	16.38
267.378	15.75
267.595	37.61
267.812	34.97
268.028	28.58
268.245	49.46
268.462	51.26
268.679	52.35
268.896	47.85
269.112	39.51
269.329	42.25
269.546	51.15
269.763	53.54
269.979	54.27
270.196	63.69
270.413	61.97
270.629	63.92
270.846	60.86
271.063	60.92
271.279	81.2
271.496	71.68
271.712	51.17
271.929	32.79
272.146	25.38
272.362	-10.62
272.579	17.83
272.795	35.66
273.012	51.66
273.228	48.31
273.445	55.7
273.661	32.99
273.878	15.58
274.094	35.62
274.311	39.65
274.527	45.18
274.744	58.99
274.96	52.83
275.177	35.18
275.393	29.32
275.609	29.92
275.826	6.86
276.042	26.02
276.259	4.81
276.475	21.59
276.691	30.69
276.908	23.36
277.124	6.26
277.34	22.5
277.557	8.68
277.773	-6.86
277.989	20.13
278.205	42.79
278.422	28.43
278.638	16.81
278.854	19.8
279.07	21.14
279.286	-14.13
279.503	6.82
279.719	30.38
279.935	33.05
280.151	15.16
280.367	45.13
280.583	63.56
280.799	46.73
281.016	48.11
281.232	60.14
281.448	46.69
281.664	43.94
281.88	46.86
282.096	52.79
282.312	50.08
282.528	48.03
282.744	46.3
282.96	46.52
283.176	37.45
283.392	41.12
283.608	52
283.824	42.23
284.04	42.21
284.256	62.66
284.471	69.7
284.687	71.74
284.903	76.45
285.119	70.22
285.335	45.53
285.551	39.96
285.767	39.45
285.982	39.42
286.198	31.94
286.414	32.24
286.63	36.41
286.846	29.48
287.061	21
287.277	33.64
287.493	18.09
287.709	13.69
287.924	25.52
288.14	33.86
288.356	28.66
288.571	37.07
288.787	28.1
289.003	25.39
289.218	21.96
289.434	22.84
289.65	29.76
289.865	36.65
290.081	23.32
290.296	25.5
290.512	18.62
290.727	26.02
290.943	18.84
291.159	29.93
291.374	40.92
291.59	45.46
291.805	31.91
292.021	45.24
292.236	42.65
292.451	17.47
292.667	25.72
292.882	30.24
293.098	32.24
293.313	25.71
293.529	40.38
293.744	13.18
293.959	5.83
294.175	23.41
294.39	31.19
294.605	26.52
294.821	38.08
295.036	52.63
295.251	34.03
295.467	21.08
295.682	23.98
295.897	23.08
296.112	0.84
296.328	4.35
296.543	3.68
296.758	-6.14
296.973	-10.03
297.188	19.12
297.404	11.66
297.619	39.25
297.834	28.38
298.049	40.85
298.264	29.47
298.479	54.29
298.694	39.78
298.909	39.5
299.125	34.11
299.34	40.19
299.555	14.29
299.77	37.28
299.985	42.88
300.2	60
300.415	49.79
300.63	53.63
300.845	58.52
301.06	66.59
301.275	59.43
301.49	47.32
301.704	39.05
301.919	27.47
302.134	24.05
302.349	24.43
302.564	37.81
302.779	32.96
302.994	34.65
303.209	42.01
303.423	43.05
303.638	25.19
303.853	35.32
304.068	37.9
304.283	38.33
304.497	40.56
304.712	26.15
304.927	34.8
305.142	29.43
305.356	8.6
305.571	13.42
305.786	35.37
306	6.43
306.215	18.58
306.43	25.65
306.644	-1.34
306.859	4.71
307.074	29.97
307.288	21.01
307.503	53.45
307.717	58.05
307.932	41.62
308.147	57.11
308.361	42.64
308.576	27.51
308.79	10.51
309.005	48.2
309.219	32.99
309.434	49.74
309.648	44.18
309.863	63.28
310.077	35.75
310.292	48.81
310.506	25.62
310.72	46.09
310.935	12.08
311.149	13.58
311.364	17.59
311.578	30.06
311.792	-4.33
312.007	30.13
312.221	34.11
312.435	13.85
312.649	8.93
312.864	90.3
313.078	13.98
313.292	-0.42
313.507	42.1
313.721	50.29
313.935	19.82
314.149	36.89
314.363	50.71
314.578	33.32
314.792	44.24
315.006	58.42
315.22	42.98
315.434	43.54
315.648	48.33
315.862	40.84
316.077	21.51
316.291	35.81
316.505	40.86
316.719	40.15
316.933	32.87
317.147	53.63
317.361	44.46
317.575	38.81
317.789	32.65
318.003	41.5
318.217	42.36
318.431	37.23
318.645	28.15
318.859	30.95
319.073	19.05
319.287	4.5
319.5	4.19
319.714	28.93
319.928	35.65
320.142	60.35
320.356	71.05
320.57	69.86
320.784	62.39
320.997	45.66
321.211	26.13
321.425	26.45
321.639	19.57
321.853	22.19
322.066	19.89
322.28	20.1
322.494	22.01
322.707	32.96
322.921	26.04
323.135	35.95
323.349	38.87
323.562	16.48
323.776	-3.13
323.989	-8.27
324.203	2.25
324.417	0.14
324.63	7.52
324.844	27.24
325.057	29.83
325.271	13.83
325.485	20.68
325.698	25.81
325.912	16.6
326.125	28.02
326.339	41.76
326.552	43.66
326.766	55.82
326.979	67.06
327.193	74.55
327.406	71.9
327.619	62.39
327.833	53.07
328.046	50.14
328.26	43.61
328.473	23.46
328.686	15.8
328.9	9.46
329.113	-17.03
329.326	-23.82
329.54	-3.3
329.753	-12.6
329.966	-8.14
330.179	9.61
330.393	16.28
330.606	16.67
330.819	37.65
331.032	42.97
331.246	35.67
331.459	19.85
331.672	13.56
331.885	11.62
332.098	13.95
332.311	21.09
332.525	37.02
332.738	41.45
332.951	24.83
333.164	28.97
333.377	35.31
333.59	25.7
333.803	41.43
334.016	49.06
334.229	35.76
334.442	33.73
334.655	33.02
334.868	19.65
335.081	26.18
335.294	29.27
335.507	37.13
335.72	42.81
335.933	21.98
336.146	20.26
336.359	33.62
336.572	14.49
336.785	6.46
336.997	30.02
337.21	27.4
337.423	24.98
337.636	34.01
337.849	38.88
338.062	43.46
338.274	53.33
338.487	49.57
338.7	28.16
338.913	34.17
339.125	31.92
339.338	27.82
339.551	30.39
339.763	41.68
339.976	32.9
340.189	29
340.402	22.22
340.614	31.06
340.827	41.91
341.039	44.52
341.252	66.82
341.465	65.95
341.677	50.4
341.89	39.3
342.102	39.36
342.315	22.85
342.527	16.97
342.74	16.67
342.952	24.23
343.165	41.99
343.377	47.2
343.59	65.23
343.802	64.44
344.015	60.78
344.227	41.25
344.44	40.35
344.652	45.2
344.864	40.29
345.077	41.39
345.289	45.24
345.502	32.4
345.714	11.02
345.926	11.8
346.139	-11.55
346.351	2.25
346.563	19.32
346.775	8.44
346.988	-14.64
347.2	-5.83
347.412	-6.31
347.624	6.26
347.837	0.13
348.049	11.5
348.261	27.62
348.473	18.83
348.685	16.27
348.897	38.9
349.11	42.56
349.322	43.19
349.534	50.13
349.746	40.97
349.958	39.96
350.17	33.99
350.382	31.06
350.594	30.92
350.806	43.13
351.018	24.74
351.23	22.2
351.442	9.97
351.654	19.23
351.866	-4.67
352.078	28.09
352.29	28.56
352.502	33.46
352.714	41.76
352.926	53.9
353.138	54.87
353.35	45.87
353.561	50.6
353.773	43.56
353.985	53.58
354.197	46.91
354.409	57.81
354.621	48.03
354.832	32.94
355.044	31.24
355.256	38.27
355.468	40.37
355.679	50.89
355.891	57.39
356.103	44.67
356.314	38.21
356.526	30.09
356.738	31.75
356.949	26.48
357.161	49.73
357.373	38.09
357.584	35.87
357.796	24.98
358.008	16.79
358.219	2.53
358.431	10.26
358.642	4.21
358.854	10.47
359.065	14.27
359.277	17.54
359.488	16.87
359.7	26.53
359.911	28.71
360.123	33.56
360.334	30.13
360.546	27.16
360.757	22.02
360.969	18.32
361.18	18.72
361.391	2.75
361.603	1.46
361.814	18.23
362.025	16.36
362.237	23.48
362.448	35.62
362.659	33.06
362.871	24.51
363.082	40.02
363.293	26.6
363.504	25.24
363.716	39.99
363.927	36.03
364.138	16.7
364.349	20.62
364.56	29.14
364.772	21.33
364.983	29.11
365.194	32.49
365.405	34.58
365.616	26.83
365.827	27.06
366.038	20.95
366.25	31.51
366.461	33.48
366.672	36.56
366.883	41.88
367.094	39.05
367.305	30.53
367.516	24.8
367.727	24
367.938	22.69
368.149	24.64
368.36	25.17
368.571	30.84
368.781	19.14
368.992	10.32
369.203	16.44
369.414	18.21
369.625	37.64
369.836	43.92
370.047	41.59
370.258	38.55
370.468	33.56
370.679	7.59
370.89	-11.39
371.101	3.94
371.312	9.77
371.522	15.13
371.733	24.79
371.944	31.31
372.155	35.26
372.365	23.74
372.576	27.39
372.787	18.57
372.997	20.59
373.208	22.58
373.419	13.86
373.629	18.19
373.84	25.3
374.05	21.49
374.261	19.08
374.472	16.96
374.682	-2
374.893	3.43
375.103	8.62
375.314	18.81
375.524	22.88
375.735	41.3
375.945	38.54
376.156	43.86
376.366	19.86
376.577	33.52
376.787	23.21
376.997	29.74
377.208	16.21
377.418	29.21
377.629	25.85
377.839	23.76
378.049	21.17
378.26	28.78
378.47	34.45
378.68	24.96
378.89	20.55
379.101	16.47
379.311	14.63
379.521	1.19
379.732	2.15
379.942	8.72
380.152	9.29
380.362	12.44
380.572	17.37
380.783	16.56
380.993	7
381.203	15.59
381.413	10.05
381.623	12.41
381.833	32.86
382.043	40.24
382.253	35.87
382.463	36.36
382.674	34.26
382.884	28.15
383.094	16.48
383.304	13.03
383.514	7.58
383.724	17.08
383.934	6.78
384.144	10.89
384.353	17.44
384.563	20.4
384.773	17.67
384.983	19.08
385.193	20.8
385.403	9.91
385.613	14.04
385.823	10.38
386.033	10.2
386.242	9.52
386.452	14.38
386.662	8.98
386.872	10.49
387.082	7.24
387.291	2.91
387.501	5.1
387.711	5.61
387.921	3.27
388.13	8.96
388.34	10.48
388.55	9.4
388.759	8.81
388.969	9.87
389.179	6.31
389.388	7.27
389.598	10.7
389.807	12.44
390.017	11.83
390.227	14.9
390.436	15.49
390.646	13
390.855	11.98
391.065	10.18
391.274	9.07
391.484	5.71
391.693	2.8
391.903	2.62
392.112	3.9
392.322	3.35
392.531	4.81
392.74	4.27
392.95	3.5
393.159	3.7
393.369	3.34
393.578	3.03
393.787	3.86
393.997	3.35
394.206	3.19
394.415	3.7
394.625	4.08
394.834	4.22
395.043	4.72
395.252	5.76
395.462	4.93
395.671	4.4
395.88	5.26
396.089	5.57
396.298	4.61
396.508	4.51
396.717	4.92
396.926	4.6
397.135	3.54
397.344	3.6
397.553	4.19
397.762	4.18
397.971	3.76
398.181	4.67
398.39	4.01
398.599	3.79
398.808	3.69
399.017	4.05
399.226	3.73
399.435	4.21
399.644	4.66
399.853	4.63
400.062	4.83
400.27	4.86
400.479	4.66
400.688	4.2
400.897	4.48
401.106	4.24
401.315	4.01
401.524	4.02
401.733	3.8
401.941	3.79
402.15	3.67
402.359	3.69
402.568	3.71
402.777	3.63
402.985	3.25
403.194	3.02
403.403	3.14
403.612	2.99
403.82	3.23
404.029	3.19
404.238	3.26
404.446	3.48
404.655	3.43
404.864	3.37
405.072	3.31
405.281	3.41
405.489	3.15
405.698	3.32
405.906	3.2
406.115	3.21
406.324	3.07
406.532	3.04
406.741	2.86
406.949	2.84
407.158	3
407.366	3.01
407.574	2.92
407.783	3.09
407.991	3.01
408.2	2.91
408.408	2.84
408.617	2.98
408.825	2.94
409.033	3.1
409.242	3.24
409.45	3.31
409.658	3.27
409.867	3.14
410.075	3.2
410.283	3.07
410.491	2.96
410.7	2.96
410.908	3.07
411.116	3.04
411.324	2.97
411.533	3.11
411.741	3.08
411.949	3.08
412.157	2.91
412.365	2.78
412.573	2.72
412.781	2.68
412.99	2.67
413.198	2.74
413.406	2.94
413.614	2.95
413.822	3.04
414.03	3.05
414.238	3
414.446	3.04
414.654	2.97
414.862	2.89
415.07	2.69
415.278	2.72
415.486	2.55
415.694	2.7
415.902	2.66
416.109	2.79
416.317	2.83
416.525	2.88
416.733	2.79
416.941	2.88
417.149	2.8
417.357	2.65
417.564	2.74
417.772	2.68
417.98	2.65
418.188	2.74
418.395	2.73
418.603	2.56
418.811	2.67
419.019	2.7
419.226	2.83
419.434	2.96
419.642	3
419.849	2.88
420.057	2.73
420.265	2.46
420.472	2.48
420.68	2.56
420.887	2.72
421.095	2.76
421.302	2.87
421.51	2.83
421.717	2.81
421.925	2.74
422.132	2.76
422.34	2.75
422.547	2.61
422.755	2.54
422.962	2.55
423.17	2.47
423.377	2.57
423.585	2.72
423.792	2.72
423.999	2.66
424.207	2.65
424.414	2.45
424.621	2.36
424.829	2.42
425.036	2.51
425.243	2.66
425.451	2.7
425.658	2.73
425.865	2.62
426.072	2.49
426.28	2.53
426.487	2.71
426.694	2.6
426.901	2.51
427.108	2.53
427.315	2.46
427.523	2.32
427.73	2.5
427.937	2.7
428.144	2.65
428.351	2.58
428.558	2.79
428.765	2.82
428.972	2.87
429.179	2.83
429.386	2.87
429.593	2.67
429.8	2.59
430.007	2.55
430.214	2.74
430.421	2.83
430.628	2.77
430.835	2.79
431.042	2.73
431.249	2.68
431.456	2.58
431.662	2.78
431.869	2.85
432.076	2.85
432.283	2.86
432.49	2.89
432.697	2.86
432.903	2.65
433.11	2.63
433.317	2.51
433.524	2.62
433.73	2.55
433.937	2.61
434.144	2.67
434.35	2.84
434.557	2.76
434.764	2.81
434.97	2.84
435.177	3.02
435.384	2.88
435.59	2.86
435.797	2.87
436.003	2.9
436.21	2.79
436.416	2.85
436.623	2.84
436.829	2.76
437.036	2.81
437.242	2.83
437.449	2.89
437.655	2.97
437.862	3.07
438.068	3
438.275	2.95
438.481	2.95
438.687	2.99
438.894	2.96
439.1	2.97
439.307	3.05
439.513	2.95
439.719	2.84
439.926	2.78
440.132	2.78
440.338	2.81
440.544	2.76
440.751	2.82
440.957	2.96
441.163	3.04
441.369	3.01
441.575	3.13
441.782	3.19
441.988	3.11
442.194	3.08
442.4	3.06
442.606	3.15
442.812	3.08
443.018	3.09
443.224	3.15
443.431	3.13
443.637	3.06
443.843	3.06
444.049	3.13
444.255	3.05
444.461	3.14
444.667	3.11
444.873	3.09
445.079	3.1
445.284	3.11
445.49	3.06
445.696	3.1
445.902	3.14
446.108	3.06
446.314	3.08
446.52	3.12
446.726	3.13
446.931	3.09
447.137	3.14
447.343	3.12
447.549	3.04
447.755	3.03
447.96	3.17
448.166	3.19
448.372	3.26
448.578	3.4
448.783	3.45
448.989	3.39
449.195	3.3
449.4	3.3
449.606	3.25
449.812	3.23
450.017	3.2
450.223	3.22
450.428	3.21
450.634	3.21
450.84	3.14
451.045	3.16
451.251	3.2
451.456	3.25
451.662	3.27
451.867	3.35
452.073	3.41
452.278	3.43
452.483	3.44
452.689	3.46
452.894	3.39
453.1	3.38
453.305	3.45
453.51	3.42
453.716	3.32
453.921	3.42
454.127	3.43
454.332	3.3
454.537	3.27
454.742	3.35
454.948	3.25
455.153	3.16
455.358	3.27
455.563	3.33
455.769	3.24
455.974	3.34
456.179	3.32
456.384	3.21
456.589	3.23
456.795	3.23
457	3.23
457.205	3.36
457.41	3.52
457.615	3.36
457.82	3.4
458.025	3.33
458.23	3.26
458.435	3.07
458.64	3.23
458.845	3.32
459.05	3.3
459.255	3.36
459.46	3.45
459.665	3.46
459.87	3.39
460.075	3.52
460.28	3.39
460.485	3.46
460.69	3.44
460.895	3.47
461.099	3.44
461.304	3.4
461.509	3.35
461.714	3.3
461.919	3.2
462.123	3.17
462.328	3.33
462.533	3.28
462.738	3.3
462.942	3.4
463.147	3.49
463.352	3.51
463.556	3.66
463.761	3.67
463.966	3.7
464.17	3.64
464.375	3.62
464.58	3.53
464.784	3.57
464.989	3.58
465.193	3.56
465.398	3.54
465.602	3.61
465.807	3.6
466.011	3.62
466.216	3.64
466.42	3.62
466.625	3.72
466.829	3.82
467.034	3.85
467.238	3.93
467.443	3.97
467.647	3.73
467.851	3.64
468.056	3.6
468.26	3.52
468.464	3.52
468.669	3.77
