Data from Ofav_PS_Phys_0HS3_Reflection_2.txt Node
Date: Thu Jul 29 18:17:24 EDT 2021
User: USUARIO
Spectrometer: FLMT01687
Trigger mode: 0
Integration Time (sec): 9.010000E-1
Scans to average: 2
Electric dark correction enabled: true
Nonlinearity correction enabled: false
Boxcar width: 2
XAxis mode: Wavelengths
Number of Pixels in Spectrum: 3648
>>>>>Begin Spectral Data<<<<<
179.494	72.38
179.716	45.95
179.937	0
180.158	40.68
180.38	69.89
180.601	-390.55
180.823	-147.37
181.044	-78.61
181.265	-28.78
181.486	-216.95
181.708	143.54
181.929	339.75
182.15	10628.57
182.372	-121.41
182.593	3.35
182.814	-20.93
183.035	-358.76
183.257	110.99
183.478	71.85
183.699	73.83
183.92	62.51
184.141	86.39
184.363	49.53
184.584	68.21
184.805	52.79
185.026	57.65
185.247	32.2
185.468	46.55
185.689	10.27
185.91	39.14
186.132	26.32
186.353	64.65
186.574	79.96
186.795	99.65
187.016	93.76
187.237	70.23
187.458	63.37
187.679	51.79
187.9	42.78
188.121	23.17
188.342	47.41
188.563	40.1
188.784	29.62
189.005	14.27
189.226	30.81
189.447	34.12
189.667	11.59
189.888	10.7
190.109	11.3
190.33	-55.73
190.551	-59.64
190.772	-12.88
190.993	-7.48
191.214	11.61
191.434	28.8
191.655	51.41
191.876	59.05
192.097	60.38
192.318	38.07
192.538	42.36
192.759	39.97
192.98	19.14
193.201	40.13
193.421	49.68
193.642	57.96
193.863	31.18
194.083	56.39
194.304	35.84
194.525	34.57
194.745	14.02
194.966	0.71
195.187	-6.13
195.407	-8.55
195.628	-79.52
195.848	-41.23
196.069	14.53
196.29	29.11
196.51	23.23
196.731	50.26
196.951	14.7
197.172	-14.57
197.392	-33.65
197.613	-42.11
197.833	-67.6
198.054	-23.51
198.274	-7.7
198.495	42.96
198.715	34.96
198.936	66.81
199.156	79.63
199.377	67.98
199.597	52.95
199.817	29.47
200.038	5.84
200.258	-13.14
200.479	-66.32
200.699	-81.68
200.919	-6.46
201.14	-21.78
201.36	-5.36
201.58	14.22
201.801	39.73
202.021	73.79
202.241	101.96
202.461	134.34
202.682	146.63
202.902	112.33
203.122	64.78
203.342	61.31
203.563	35.01
203.783	21.31
204.003	8.07
204.223	-41.11
204.443	-20.72
204.663	14.47
204.884	50.84
205.104	34.75
205.324	28.85
205.544	37.21
205.764	8.21
205.984	14.36
206.204	26.8
206.424	56
206.644	45.41
206.864	40.09
207.084	-2.38
207.304	26.56
207.525	7.44
207.745	46.06
207.964	54.34
208.184	96.84
208.404	47.41
208.624	51.89
208.844	36.57
209.064	47.59
209.284	45.31
209.504	65.34
209.724	66.56
209.944	67.95
210.164	54.99
210.384	55.09
210.604	48.76
210.823	29.11
211.043	22.78
211.263	49.51
211.483	26.56
211.703	12.85
211.922	29.65
212.142	36.82
212.362	13.57
212.582	27.67
212.801	37.49
213.021	21.77
213.241	22.32
213.461	25.64
213.68	5.99
213.9	-1.04
214.12	10.32
214.339	-8.73
214.559	-20.2
214.779	5.42
214.998	-10.27
215.218	-31.18
215.438	-5.3
215.657	13.6
215.877	36.68
216.096	33.73
216.316	35.11
216.535	47.61
216.755	47.53
216.974	-26.39
217.194	-3.88
217.413	15.45
217.633	12.88
217.852	-8.51
218.072	-10.03
218.291	-24.71
218.511	11.12
218.73	5.39
218.95	8.8
219.169	18.72
219.389	25.13
219.608	4.96
219.827	5.42
220.047	10.05
220.266	1.19
220.485	21.04
220.705	16.78
220.924	9.72
221.143	-1.02
221.363	-15.15
221.582	-51.1
221.801	-147
222.021	-100.11
222.24	-36.48
222.459	-5.27
222.678	15.91
222.897	22.03
223.117	35.64
223.336	29.86
223.555	23.21
223.774	20.43
223.993	41.88
224.213	20.66
224.432	20.62
224.651	42.55
224.87	30.47
225.089	30.7
225.308	29.81
225.527	28.89
225.746	-1.72
225.965	7.88
226.184	-22.62
226.404	-4.78
226.623	17.21
226.842	26.01
227.061	28.44
227.28	61.01
227.499	69.16
227.718	69.57
227.936	50.41
228.155	39.33
228.374	9.45
228.593	3.71
228.812	-2.6
229.031	-6.16
229.25	14.99
229.469	17.99
229.688	6.42
229.907	26.99
230.125	29.14
230.344	22.57
230.563	19.17
230.782	44.24
231.001	19.33
231.22	37.64
231.438	25.67
231.657	26.14
231.876	33.65
232.095	38.43
232.313	21.32
232.532	23.79
232.751	37.26
232.969	13.64
233.188	12.24
233.407	-1.15
233.625	13.68
233.844	8.62
234.063	1.24
234.281	5.17
234.5	4.84
234.719	-2.85
234.937	-19.26
235.156	0.71
235.374	21
235.593	33.6
235.811	50.17
236.03	41.19
236.249	29.56
236.467	29.41
236.686	20.37
236.904	-3.03
237.123	8.47
237.341	5.8
237.559	-6.74
237.778	6.95
237.996	31.38
238.215	26.85
238.433	35.56
238.652	41.18
238.87	32.44
239.088	26.03
239.307	25.62
239.525	23.14
239.743	18.62
239.962	16.1
240.18	18.54
240.398	18.57
240.617	4.34
240.835	-13.49
241.053	-4.6
241.271	-9.63
241.49	-17.67
241.708	4.45
241.926	11.29
242.144	-5.14
242.363	8.74
242.581	9.7
242.799	3.06
243.017	-4.88
243.235	4.25
243.453	1.41
243.672	-4.62
243.89	-16.15
244.108	9.91
244.326	19.72
244.544	-0.47
244.762	18.34
244.98	28.99
245.198	23.35
245.416	16.05
245.634	24.27
245.852	44.7
246.07	55.36
246.288	57.85
246.506	54.64
246.724	42.31
246.942	27.44
247.16	25.9
247.378	5.47
247.596	11.55
247.814	14.96
248.032	7.62
248.25	-3.58
248.468	-5.43
248.685	-11.43
248.903	4.88
249.121	10.16
249.339	-5.69
249.557	7.62
249.775	14.38
249.992	-8.94
250.21	-13.79
250.428	19.57
250.646	16.2
250.863	16.1
251.081	32.12
251.299	44.77
251.517	40.3
251.734	58.03
251.952	57.14
252.17	47.27
252.387	41.02
252.605	45.54
252.823	28.76
253.04	44.28
253.258	41.94
253.475	35.49
253.693	23.34
253.911	15.38
254.128	-1.96
254.346	-9.69
254.563	-20.21
254.781	-36.32
254.998	-14.01
255.216	-34.77
255.433	-13.12
255.651	-8.52
255.868	-11.15
256.086	-7.33
256.303	10.89
256.521	17.75
256.738	14.95
256.956	18.18
257.173	28.85
257.39	35.82
257.608	23.51
257.825	42.76
258.043	42.56
258.26	26.33
258.477	5.79
258.695	7.15
258.912	-12.44
259.129	-11.98
259.346	3.76
259.564	3.59
259.781	-3.24
259.998	26.35
260.216	28.77
260.433	21.01
260.65	25.49
260.867	36.14
261.084	30.08
261.302	28.68
261.519	38.06
261.736	33.1
261.953	22.48
262.17	31.62
262.387	24.67
262.604	10.39
262.822	16.8
263.039	20.84
263.256	-8.08
263.473	7.93
263.69	5.22
263.907	7.92
264.124	-2.32
264.341	17.29
264.558	7.27
264.775	0.6
264.992	-0.73
265.209	1.77
265.426	2.53
265.643	14.85
265.86	18.47
266.077	20.54
266.294	20.68
266.51	3.57
266.727	3.01
266.944	-0.44
267.161	-11.15
267.378	-12.42
267.595	17.4
267.812	9.16
268.028	4.3
268.245	11.14
268.462	15.64
268.679	1.77
268.896	-2.34
269.112	1.66
269.329	-2.15
269.546	4.64
269.763	-9.66
269.979	-4.5
270.196	11.27
270.413	26.27
270.629	34.13
270.846	49.38
271.063	45.58
271.279	35.46
271.496	19.21
271.712	19
271.929	23.33
272.146	32.22
272.362	35.29
272.579	45.7
272.795	39.1
273.012	25.36
273.228	17.53
273.445	29.31
273.661	20.01
273.878	4.22
274.094	36.1
274.311	41.16
274.527	32.98
274.744	47.43
274.96	61.59
275.177	28.24
275.393	35.34
275.609	31.18
275.826	1.06
276.042	-8.32
276.259	3.41
276.475	-5.86
276.691	2.3
276.908	17.5
277.124	19.33
277.34	16.56
277.557	6.93
277.773	11.31
277.989	18.6
278.205	30.47
278.422	36.63
278.638	29.76
278.854	32.4
279.07	36.36
279.286	12.55
279.503	14.62
279.719	26.49
279.935	17.03
280.151	-15.98
280.367	4.46
280.583	9.51
280.799	-1.4
281.016	12.42
281.232	31.46
281.448	8.86
281.664	24.03
281.88	17.78
282.096	7.84
282.312	-12.08
282.528	-5.44
282.744	-36.16
282.96	-29.49
283.176	-37.01
283.392	6.86
283.608	22.42
283.824	23.21
284.04	18.26
284.256	36.59
284.471	28.05
284.687	-1.43
284.903	-6.81
285.119	15
285.335	3.66
285.551	10.37
285.767	27.31
285.982	31.94
286.198	28.33
286.414	38.07
286.63	41.07
286.846	36.1
287.061	44.68
287.277	47.16
287.493	43.98
287.709	28.11
287.924	42.28
288.14	23.97
288.356	34.68
288.571	37.43
288.787	36.9
289.003	21.3
289.218	21.33
289.434	20.9
289.65	27.25
289.865	33.41
290.081	19.77
290.296	38.28
290.512	20.01
290.727	11.89
290.943	13.16
291.159	23.41
291.374	11.79
291.59	5.14
291.805	-9.33
292.021	-20.62
292.236	-17.25
292.451	-30.25
292.667	-10.1
292.882	-6.42
293.098	7.21
293.313	4.74
293.529	17.27
293.744	3.35
293.959	4.98
294.175	17.31
294.39	20.67
294.605	19.36
294.821	32.04
295.036	35.76
295.251	27.15
295.467	32.64
295.682	32.44
295.897	27.06
296.112	34.79
296.328	42.2
296.543	18.99
296.758	10.04
296.973	16.56
297.188	17.27
297.404	1.03
297.619	20.19
297.834	14.2
298.049	23.63
298.264	16.54
298.479	33.2
298.694	26.88
298.909	23.08
299.125	16.05
299.34	9.1
299.555	-9.23
299.77	12.71
299.985	8.92
300.2	4.89
300.415	13.06
300.63	33.01
300.845	17.5
301.06	21.99
301.275	11.49
301.49	-7.13
301.704	-40.43
301.919	-0.61
302.134	17.97
302.349	11.45
302.564	23.18
302.779	17.99
302.994	0.64
303.209	-7.34
303.423	19.94
303.638	6.47
303.853	1.5
304.068	18.19
304.283	25.68
304.497	23.32
304.712	16.21
304.927	38.31
305.142	42.51
305.356	22.74
305.571	29.61
305.786	33.24
306	0.47
306.215	12.24
306.43	25.51
306.644	0.78
306.859	11
307.074	40.03
307.288	5.2
307.503	8.54
307.717	28.3
307.932	22.82
308.147	14.02
308.361	35.23
308.576	27.55
308.79	4.92
309.005	17.55
309.219	26.55
309.434	16.82
309.648	10.32
309.863	16.41
310.077	-10.34
310.292	-9.65
310.506	-20.58
310.72	-10.89
310.935	-24.97
311.149	-0.66
311.364	3.03
311.578	11.24
311.792	5.38
312.007	16.02
312.221	5.01
312.435	-6.83
312.649	-13.34
312.864	-265.37
313.078	-177.39
313.292	-158.42
313.507	-121.32
313.721	-99.77
313.935	-0
314.149	5.43
314.363	9.95
314.578	5.49
314.792	8.66
315.006	21.04
315.22	20.26
315.434	41.9
315.648	51.44
315.862	46.33
316.077	35.31
316.291	31.63
316.505	26.85
316.719	18.73
316.933	14.71
317.147	30.18
317.361	15.7
317.575	3.47
317.789	-2.21
318.003	5.61
318.217	5.74
318.431	14.22
318.645	13.75
318.859	24.12
319.073	14.91
319.287	11.78
319.5	6.24
319.714	9.04
319.928	0.78
320.142	13.61
320.356	11.41
320.57	20.86
320.784	21.77
320.997	16.08
321.211	17.03
321.425	27.86
321.639	15.28
321.853	14.64
322.066	12.16
322.28	8.86
322.494	6.79
322.707	33.66
322.921	28.65
323.135	22.03
323.349	24.06
323.562	11.57
323.776	-5.48
323.989	3.89
324.203	18.95
324.417	18.24
324.63	23.39
324.844	19
325.057	16.65
325.271	7.51
325.485	2.92
325.698	2.8
325.912	6.43
326.125	8.41
326.339	13.45
326.552	18.19
326.766	25.62
326.979	27.9
327.193	18.93
327.406	21.08
327.619	18.66
327.833	14.92
328.046	22.79
328.26	38.85
328.473	29.12
328.686	24.92
328.9	-3.71
329.113	-37.1
329.326	-55.23
329.54	-80.27
329.753	-60.97
329.966	-23.11
330.179	-8.69
330.393	-5.04
330.606	8.6
330.819	10.63
331.032	7.3
331.246	0.73
331.459	-8.61
331.672	-6.46
331.885	-2.76
332.098	13.79
332.311	28.9
332.525	25.2
332.738	23.05
332.951	7.19
333.164	0.31
333.377	-31.54
333.59	-18.06
333.803	-2.07
334.016	3.62
334.229	0.45
334.442	20.45
334.655	21.14
334.868	16.07
335.081	38.08
335.294	38.81
335.507	32.53
335.72	41.67
335.933	33.64
336.146	25.09
336.359	19.23
336.572	17.71
336.785	1.44
336.997	14.93
337.21	14.84
337.423	32.54
337.636	30.66
337.849	28.76
338.062	16.44
338.274	2.75
338.487	-18.76
338.7	-20.92
338.913	-11.6
339.125	-5.55
339.338	5.54
339.551	10.35
339.763	7.32
339.976	-13.27
340.189	7.26
340.402	-3.27
340.614	-8.68
340.827	5.62
341.039	33.61
341.252	16.71
341.465	23.61
341.677	21.69
341.89	16.07
342.102	5.28
342.315	14.95
342.527	12.53
342.74	18.01
342.952	20.83
343.165	36.22
343.377	19.11
343.59	22.66
343.802	22.06
344.015	15.81
344.227	3.44
344.44	11.21
344.652	15.13
344.864	4.37
345.077	18.37
345.289	16.12
345.502	23.07
345.714	21.31
345.926	24.74
346.139	7.97
346.351	10.4
346.563	13.59
346.775	1.41
346.988	2.75
347.2	12.07
347.412	2.4
347.624	10.93
347.837	5.42
348.049	-0.49
348.261	-5.19
348.473	10.46
348.685	-15.85
348.897	-0.68
349.11	-0
349.322	-0.25
349.534	-1.08
349.746	12.23
349.958	13.01
350.17	22.37
350.382	23.04
350.594	26.09
350.806	33.55
351.018	11.72
351.23	0.84
351.442	-4.15
351.654	6.11
351.866	-17.92
352.078	18.98
352.29	18.74
352.502	25.31
352.714	12.81
352.926	24.57
353.138	10.21
353.35	11
353.561	-3.44
353.773	16.65
353.985	11.44
354.197	13.54
354.409	18.68
354.621	11.55
354.832	-15.76
355.044	-11.28
355.256	-2.64
355.468	-13.42
355.679	10.6
355.891	25.53
356.103	37.08
356.314	33.78
356.526	35.91
356.738	27.76
356.949	21.76
357.161	4.25
357.373	5.46
357.584	12.83
357.796	15.27
358.008	16.29
358.219	26.59
358.431	5.78
358.642	-17.35
358.854	-17.32
359.065	-7.43
359.277	-13.21
359.488	-7.72
359.7	1.01
359.911	9.54
360.123	-0.14
360.334	8.72
360.546	9.18
360.757	7.73
360.969	4.71
361.18	11.7
361.391	6.05
361.603	2.15
361.814	11.39
362.025	2.36
362.237	8.1
362.448	10.5
362.659	8.37
362.871	9.08
363.082	24.12
363.293	12.31
363.504	14.61
363.716	12.47
363.927	8.46
364.138	-12.62
364.349	-10.87
364.56	-2.75
364.772	0.96
364.983	8.64
365.194	13.75
365.405	24.03
365.616	7.26
365.827	17.47
366.038	12.65
366.25	0.73
366.461	-0.93
366.672	-10.32
366.883	-14.63
367.094	-23.73
367.305	8.37
367.516	16.46
367.727	23.09
367.938	19.64
368.149	20.72
368.36	13.58
368.571	4.6
368.781	-0
368.992	-5.09
369.203	0.79
369.414	0.99
369.625	4.36
369.836	14.1
370.047	9.95
370.258	15.26
370.468	18.97
370.679	7.61
370.89	-8.97
371.101	11.19
371.312	-1.78
371.522	-6.67
371.733	5.39
371.944	15.25
372.155	-14.08
372.365	-9.95
372.576	-23.34
372.787	-18.6
372.997	-12.43
373.208	-0.91
373.419	4.25
373.629	23.03
373.84	22.73
374.05	16.77
374.261	19.57
374.472	18.38
374.682	2.85
374.893	10.22
375.103	13.07
375.314	19.47
375.524	10.78
375.735	27.51
375.945	23.8
376.156	28.41
376.366	7.98
376.577	27.21
376.787	16.88
376.997	17.47
377.208	-1.12
377.418	1.61
377.629	-5.92
377.839	4.68
378.049	8.56
378.26	21.75
378.47	29.34
378.68	31.66
378.89	34.04
379.101	20.75
379.311	17.81
379.521	12.34
379.732	2.92
379.942	-8.63
380.152	-0.24
380.362	-1.94
380.572	-0.82
380.783	-2.19
380.993	7.26
381.203	8.67
381.413	4.63
381.623	1.24
381.833	17.57
382.043	19.05
382.253	11.96
382.463	13.92
382.674	17.54
382.884	11.04
383.094	-3.96
383.304	-2.69
383.514	-2.53
383.724	2.72
383.934	-2.52
384.144	4.84
384.353	10.58
384.563	19.73
384.773	15.07
384.983	13.99
385.193	15.36
385.403	9.86
385.613	8.8
385.823	12.77
386.033	11.4
386.242	10.94
386.452	6.82
386.662	1.15
386.872	0.49
387.082	3.1
387.291	-0.42
387.501	4.96
387.711	3.15
387.921	2.44
388.13	2.59
388.34	3.87
388.55	3.74
388.759	4.81
388.969	2.44
389.179	-0.61
389.388	0.51
389.598	0.91
389.807	1.13
390.017	4.25
390.227	10.76
390.436	11.49
390.646	8.5
390.855	7.58
391.065	5.57
391.274	3.39
391.484	0.59
391.693	1.17
391.903	2.38
392.112	3.81
392.322	2.93
392.531	4.37
392.74	5.74
392.95	6.02
393.159	6.15
393.369	8.05
393.578	8.2
393.787	8.5
393.997	7.49
394.206	7.9
394.415	7.73
394.625	7.7
394.834	6.89
395.043	6.8
395.252	6.32
395.462	5.74
395.671	6.05
395.88	7.14
396.089	7.44
396.298	7.87
396.508	7.48
396.717	7.25
396.926	7.09
397.135	6.55
397.344	6.55
397.553	6.92
397.762	7.35
397.971	7.2
398.181	7.71
398.39	7.15
398.599	7.03
398.808	6.93
399.017	6.74
399.226	6.72
399.435	7.37
399.644	7.9
399.853	8.07
400.062	8.5
400.27	8.92
400.479	8.74
400.688	8.35
400.897	8.2
401.106	7.85
401.315	7.62
401.524	7.64
401.733	7.81
401.941	7.43
402.15	7.57
402.359	7.48
402.568	7.52
402.777	7.18
402.985	7.46
403.194	7.14
403.403	7.06
403.612	6.71
403.82	6.76
404.029	6.46
404.238	6.66
404.446	6.8
404.655	6.83
404.864	6.78
405.072	6.91
405.281	6.97
405.489	6.98
405.698	7.07
405.906	7.19
406.115	7.11
406.324	6.91
406.532	6.78
406.741	6.96
406.949	7.06
407.158	7.21
407.366	7.27
407.574	7.17
407.783	7.06
407.991	6.75
408.2	6.72
408.408	6.71
408.617	6.83
408.825	6.85
409.033	7.08
409.242	7.21
409.45	7.18
409.658	7.12
409.867	7.01
410.075	7
410.283	6.79
410.491	6.79
410.7	6.83
410.908	6.89
411.116	6.87
411.324	6.92
411.533	6.81
411.741	6.83
411.949	6.92
412.157	6.67
412.365	6.64
412.573	6.67
412.781	6.62
412.99	6.47
413.198	6.52
413.406	6.52
413.614	6.54
413.822	6.49
414.03	6.3
414.238	6.4
414.446	6.36
414.654	6.36
414.862	6.4
415.07	6.37
415.278	6.28
415.486	6.22
415.694	6.25
415.902	6.15
416.109	6.24
416.317	6.33
416.525	6.4
416.733	6.38
416.941	6.48
417.149	6.54
417.357	6.4
417.564	6.34
417.772	6.23
417.98	6.18
418.188	5.94
418.395	5.93
418.603	5.94
418.811	5.9
419.019	6
419.226	6.38
419.434	6.33
419.642	6.21
419.849	6.2
420.057	6.09
420.265	5.89
420.472	5.97
420.68	6.05
420.887	6.15
421.095	6.15
421.302	6.2
421.51	6.24
421.717	6.1
421.925	6.08
422.132	5.99
422.34	5.71
422.547	5.54
422.755	5.63
422.962	5.64
423.17	5.52
423.377	5.96
423.585	5.96
423.792	6.05
423.999	6.06
424.207	6.23
424.414	5.88
424.621	5.92
424.829	6.04
425.036	6
425.243	6.06
425.451	6.03
425.658	6.02
425.865	5.89
426.072	5.81
426.28	5.76
426.487	6.06
426.694	6.02
426.901	5.91
427.108	5.88
427.315	5.97
427.523	5.82
427.73	5.82
427.937	5.91
428.144	5.92
428.351	5.77
428.558	5.85
428.765	5.82
428.972	5.88
429.179	5.92
429.386	5.91
429.593	5.83
429.8	5.86
430.007	5.93
430.214	6.08
430.421	6.33
430.628	6.35
430.835	6.54
431.042	6.44
431.249	6.41
431.456	6.33
431.662	6.5
431.869	6.47
432.076	6.59
432.283	6.56
432.49	6.47
432.697	6.31
432.903	6.22
433.11	6.19
433.317	6.2
433.524	6.34
433.73	6.39
433.937	6.5
434.144	6.39
434.35	6.39
434.557	6.4
434.764	6.44
434.97	6.38
435.177	6.53
435.384	6.54
435.59	6.45
435.797	6.52
436.003	6.65
436.21	6.65
436.416	6.63
436.623	6.7
436.829	6.71
437.036	6.6
437.242	6.6
437.449	6.75
437.655	6.88
437.862	6.93
438.068	7.01
438.275	7
438.481	6.84
438.687	6.61
438.894	6.64
439.1	6.6
439.307	6.66
439.513	6.72
439.719	6.82
439.926	6.72
440.132	6.84
440.338	6.86
440.544	6.86
440.751	6.86
440.957	6.96
441.163	6.97
441.369	7.02
441.575	7.1
441.782	7.08
441.988	6.96
442.194	6.82
442.4	6.75
442.606	6.89
442.812	7.06
443.018	7.19
443.224	7.36
443.431	7.31
443.637	7.2
443.843	7.15
444.049	7.09
444.255	7.03
444.461	7.1
444.667	7.01
444.873	6.92
445.079	6.93
445.284	6.9
445.49	6.84
445.696	6.96
445.902	6.94
446.108	6.86
446.314	6.99
446.52	7.17
446.726	7.12
446.931	7.28
447.137	7.27
447.343	7.25
447.549	7.14
447.755	7.12
447.96	7.16
448.166	7.3
448.372	7.29
448.578	7.42
448.783	7.42
448.989	7.4
449.195	7.23
449.4	7.15
449.606	7.15
449.812	7.17
450.017	7.11
450.223	7.29
450.428	7.41
450.634	7.36
450.84	7.48
451.045	7.48
451.251	7.47
451.456	7.45
451.662	7.42
451.867	7.33
452.073	7.48
452.278	7.41
452.483	7.42
452.689	7.48
452.894	7.53
453.1	7.47
453.305	7.52
453.51	7.55
453.716	7.54
453.921	7.51
454.127	7.55
454.332	7.45
454.537	7.42
454.742	7.5
454.948	7.37
455.153	7.29
455.358	7.44
455.563	7.45
455.769	7.22
455.974	7.35
456.179	7.3
456.384	7.19
456.589	7.22
456.795	7.48
457	7.51
457.205	7.65
457.41	7.75
457.615	7.67
457.82	7.62
458.025	7.53
458.23	7.53
458.435	7.57
458.64	7.62
458.845	7.61
459.05	7.65
459.255	7.65
459.46	7.75
459.665	7.78
459.87	7.77
460.075	7.83
460.28	7.79
460.485	7.69
460.69	7.69
460.895	7.71
461.099	7.64
461.304	7.58
461.509	7.5
461.714	7.52
461.919	7.39
462.123	7.49
462.328	7.58
462.533	7.67
462.738	7.66
462.942	7.79
463.147	7.77
463.352	7.89
463.556	7.9
463.761	7.8
463.966	7.87
464.17	7.94
464.375	7.82
464.58	7.77
464.784	7.88
464.989	7.81
465.193	7.7
465.398	7.72
465.602	7.86
465.807	7.87
466.011	7.88
466.216	7.95
466.42	7.94
466.625	7.89
466.829	7.92
467.034	8.01
467.238	8.05
467.443	8.04
467.647	7.96
467.851	8.02
468.056	8.04
468.26	8.04
468.464	8.19
468.669	8.29
468.873	8.31
469.077	8.24
469.282	8.23
