Data from Ofav_PS_Phys_2HS2_Reflection_3.txt Node
Date: Thu Jul 29 18:16:46 EDT 2021
User: USUARIO
Spectrometer: FLMT01687
Trigger mode: 0
Integration Time (sec): 9.010000E-1
Scans to average: 2
Electric dark correction enabled: true
Nonlinearity correction enabled: false
Boxcar width: 2
XAxis mode: Wavelengths
Number of Pixels in Spectrum: 3648
>>>>>Begin Spectral Data<<<<<
179.494	255.56
179.716	331.53
179.937	285.84
180.158	-1562.15
180.38	-90.5
180.601	-889.5
180.823	-292.78
181.044	-135.97
181.265	-126.47
181.486	-1324.86
181.708	67.36
181.929	201.81
182.15	10547.62
182.372	-169.96
182.593	-66.16
182.814	6.83
183.035	-18.9
183.257	-50.03
183.478	-62.33
183.699	-20.6
183.92	2.65
184.141	23.33
184.363	9.75
184.584	30.56
184.805	22.22
185.026	28.45
185.247	-4.2
185.468	-13.44
185.689	-29.85
185.91	-60.69
186.132	-39.15
186.353	-14.43
186.574	37.17
186.795	37.56
187.016	46.69
187.237	16.33
187.458	27.61
187.679	-7.93
187.9	-28.38
188.121	-67.77
188.342	-47.02
188.563	-34.59
188.784	-15.24
189.005	-6.19
189.226	7.95
189.447	3.5
189.667	-16.1
189.888	-37.03
190.109	-34.03
190.33	-79.31
190.551	-14.66
190.772	10.52
190.993	10.98
191.214	-23.33
191.434	-9.74
191.655	-5.02
191.876	-9
192.097	-56.57
192.318	-4.12
192.538	-6.2
192.759	4.98
192.98	20.92
193.201	30.35
193.421	35.75
193.642	27.77
193.863	22.56
194.083	15.01
194.304	12.37
194.525	29
194.745	8.29
194.966	-3.87
195.187	-18.5
195.407	-15.83
195.628	-104.71
195.848	-33.27
196.069	5.89
196.29	15.34
196.51	35.02
196.731	48.09
196.951	22.07
197.172	-8.36
197.392	-9.58
197.613	-35.02
197.833	-50.01
198.054	-24.72
198.274	-33.28
198.495	-25.83
198.715	-54.06
198.936	-35.32
199.156	-28.2
199.377	-8
199.597	-3.25
199.817	39.78
200.038	33.24
200.258	13.03
200.479	8.17
200.699	-60.49
200.919	-71.44
201.14	-65.69
201.36	-36.94
201.58	-26.17
201.801	5.96
202.021	32.22
202.241	40.27
202.461	45.94
202.682	27.92
202.902	44.64
203.122	31.31
203.342	34.33
203.563	15.41
203.783	14.97
204.003	-5.8
204.223	-46.15
204.443	-39.65
204.663	-13.69
204.884	20.22
205.104	0.83
205.324	6.89
205.544	30.44
205.764	7.01
205.984	5.74
206.204	10.28
206.424	24.43
206.644	8.04
206.864	28.15
207.084	24.82
207.304	47.37
207.525	11.01
207.745	9.28
207.964	-2.53
208.184	-11.47
208.404	-37.03
208.624	21.86
208.844	15.19
209.064	36.32
209.284	41.69
209.504	21.46
209.724	25.51
209.944	39.34
210.164	24.73
210.384	19.83
210.604	39.29
210.823	10.69
211.043	2.59
211.263	34.65
211.483	34.76
211.703	13.73
211.922	32.96
212.142	35
212.362	4.74
212.582	2.12
212.801	2.83
213.021	-13.83
213.241	-12.64
213.461	-3.63
213.68	-23.56
213.9	-14.44
214.12	3.5
214.339	-21.65
214.559	-26.75
214.779	14.53
214.998	-10.79
215.218	-45.2
215.438	-4.18
215.657	-6.26
215.877	-7.95
216.096	-13.45
216.316	-8.32
216.535	-61.14
216.755	-64.43
216.974	-97.4
217.194	-57.57
217.413	-11.08
217.633	37.05
217.852	5.45
218.072	28.36
218.291	26.33
218.511	37.76
218.73	12.19
218.95	28.9
219.169	36.91
219.389	33.6
219.608	11.9
219.827	25.73
220.047	27.33
220.266	5.04
220.485	21.61
220.705	16.73
220.924	-10.68
221.143	-31.78
221.363	-33.09
221.582	-52.01
221.801	-105.08
222.021	-33.56
222.24	-1.38
222.459	21.23
222.678	12.54
222.897	12.24
223.117	16.93
223.336	2.36
223.555	-13.33
223.774	-24.31
223.993	-22.32
224.213	-18.9
224.432	-9.07
224.651	2.74
224.87	4.09
225.089	16.56
225.308	15.17
225.527	37.21
225.746	10.2
225.965	12.72
226.184	-22.13
226.404	-45.57
226.623	-31.82
226.842	-23.3
227.061	-20.79
227.28	2.19
227.499	21.86
227.718	4.97
227.936	12.9
228.155	10.58
228.374	-8.39
228.593	-10.31
228.812	-21.58
229.031	-32.88
229.25	-16.69
229.469	-19.9
229.688	-18.53
229.907	4.18
230.125	10.27
230.344	-7.48
230.563	-9.06
230.782	5.04
231.001	-16.05
231.22	-28.21
231.438	-12.16
231.657	8.06
231.876	12.66
232.095	33.96
232.313	16.51
232.532	8.46
232.751	-9.49
232.969	-24.62
233.188	-64.83
233.407	-57.51
233.625	-37.29
233.844	-32.31
234.063	-32.47
234.281	-38.73
234.5	-40.34
234.719	-13.61
234.937	-6.8
235.156	-24.73
235.374	26.1
235.593	34.48
235.811	25.52
236.03	13.85
236.249	27.17
236.467	14.18
236.686	11.59
236.904	7.59
237.123	9.09
237.341	-23.06
237.559	-13.15
237.778	-18.1
237.996	-8.14
238.215	0.64
238.433	29.92
238.652	30.52
238.87	30.73
239.088	34.32
239.307	21.19
239.525	19.41
239.743	8.28
239.962	21.89
240.18	26.72
240.398	32.91
240.617	6.21
240.835	-5.29
241.053	-13.25
241.271	-32.28
241.49	-34.29
241.708	-10.76
241.926	-8.06
242.144	-23.76
242.363	-5.09
242.581	-18.3
242.799	-17.85
243.017	-14.05
243.235	-7.05
243.453	-14.01
243.672	-5.99
243.89	-19.78
244.108	5.86
244.326	11.83
244.544	1.08
244.762	1.33
244.98	9.72
245.198	0.38
245.416	-10.3
245.634	-10.2
245.852	3.27
246.07	7.69
246.288	4.87
246.506	2.94
246.724	-2.76
246.942	-9.16
247.16	-18.88
247.378	-35.76
247.596	-40.31
247.814	-25.83
248.032	-17.46
248.25	-4.13
248.468	-8.48
248.685	2.47
248.903	-1.16
249.121	-2.08
249.339	-13.15
249.557	0.92
249.775	-3.21
249.992	-16.22
250.21	-26.85
250.428	-0.24
250.646	-14.56
250.863	-6.82
251.081	11.47
251.299	29.12
251.517	24.5
251.734	53.22
251.952	55.3
252.17	50.68
252.387	44.54
252.605	51.22
252.823	26.04
253.04	32.45
253.258	23.74
253.475	23.46
253.693	18.29
253.911	26.09
254.128	26.74
254.346	42.77
254.563	40.75
254.781	36.21
254.998	38
255.216	5.96
255.433	-3.31
255.651	-14.94
255.868	-17.68
256.086	-20.55
256.303	2.66
256.521	2.03
256.738	6.1
256.956	19.28
257.173	22.44
257.39	9.45
257.608	5.43
257.825	0.43
258.043	-28.04
258.26	-33.63
258.477	-32.04
258.695	-54.03
258.912	-37.01
259.129	-29.93
259.346	-20.17
259.564	-32.8
259.781	5.47
259.998	-6.5
260.216	22.3
260.433	18.35
260.65	8.16
260.867	5.98
261.084	5.87
261.302	-28.33
261.519	-27.87
261.736	11.02
261.953	12.03
262.17	12.25
262.387	9.63
262.604	-5.53
262.822	-24.34
263.039	-10.15
263.256	-24.34
263.473	-15.17
263.69	-26.64
263.907	-15.95
264.124	-15.65
264.341	-11.88
264.558	-22.35
264.775	-9.51
264.992	-19.94
265.209	-33.19
265.426	-26.08
265.643	-10.11
265.86	-13.19
266.077	1.95
266.294	17.38
266.51	8.41
266.727	17.57
266.944	37.45
267.161	32.91
267.378	17.22
267.595	36.4
267.812	30.71
268.028	-3.96
268.245	-24.3
268.462	-13.44
268.679	-18.33
268.896	-36.29
269.112	-7.61
269.329	8.56
269.546	-1.21
269.763	1.75
269.979	18.09
270.196	30.93
270.413	14.02
270.629	34.84
270.846	24.22
271.063	13.25
271.279	12.4
271.496	18.37
271.712	14.94
271.929	30.76
272.146	52.54
272.362	34.16
272.579	52.58
272.795	48.84
273.012	25.86
273.228	-3.79
273.445	-4.84
273.661	-26.89
273.878	-42.94
274.094	-34.41
274.311	-3.04
274.527	-0.63
274.744	14.27
274.96	20.62
275.177	20.81
275.393	14.55
275.609	15.81
275.826	-1.49
276.042	1.17
276.259	-12.27
276.475	-20.7
276.691	-5
276.908	-8.27
277.124	-13.76
277.34	-5.87
277.557	-11.57
277.773	-11.39
277.989	3.83
278.205	26.06
278.422	31.94
278.638	33.4
278.854	36.27
279.07	43.89
279.286	8.22
279.503	7.25
279.719	6.45
279.935	2.55
280.151	-31.46
280.367	-17.1
280.583	-3.05
280.799	-8.24
281.016	-27.6
281.232	-3.55
281.448	-5.11
281.664	-9.33
281.88	-9.83
282.096	10.5
282.312	-4.04
282.528	-9.23
282.744	-29.64
282.96	-9.36
283.176	-37.59
283.392	-4.52
283.608	-1.58
283.824	1.37
284.04	-5.26
284.256	22.6
284.471	-1.87
284.687	-3.43
284.903	-27.61
285.119	-16.26
285.335	-34.16
285.551	-17.93
285.767	3.2
285.982	20.98
286.198	30.66
286.414	43.55
286.63	47.32
286.846	29.71
287.061	34.72
287.277	32.24
287.493	16.51
287.709	3.11
287.924	17.68
288.14	17.22
288.356	14.21
288.571	28.25
288.787	27.72
289.003	25.94
289.218	11.34
289.434	7.5
289.65	1.79
289.865	-4.89
290.081	-7.74
290.296	0.09
290.512	-5.5
290.727	2.56
290.943	23.56
291.159	27.45
291.374	43.4
291.59	45.43
291.805	37.1
292.021	29.9
292.236	31.42
292.451	-2.03
292.667	-7.81
292.882	-12.72
293.098	-11.09
293.313	-29.46
293.529	-9.68
293.744	-20.86
293.959	-12.51
294.175	-1.14
294.39	-2.32
294.605	4.34
294.821	14.48
295.036	10.9
295.251	-0.48
295.467	-5.69
295.682	-14.49
295.897	-20.83
296.112	-16.66
296.328	-6.94
296.543	-11.95
296.758	-3.67
296.973	11.25
297.188	5.91
297.404	-9.35
297.619	30.68
297.834	19.27
298.049	6.14
298.264	14.29
298.479	32.72
298.694	11.71
298.909	8.81
299.125	2.97
299.34	4.16
299.555	-32.65
299.77	-28.51
299.985	-48.06
300.2	-42.21
300.415	-34.44
300.63	-9.21
300.845	-14.45
301.06	-5.93
301.275	-11.34
301.49	-33.97
301.704	-60.45
301.919	-32.48
302.134	-26.76
302.349	-23.27
302.564	-17.11
302.779	-14.64
302.994	-30.13
303.209	-11.46
303.423	-10.4
303.638	-24.89
303.853	-22.17
304.068	-8.4
304.283	-14.94
304.497	-2.75
304.712	-20.63
304.927	-24.13
305.142	-47.34
305.356	-69
305.571	-45.86
305.786	-11.76
306	-15.66
306.215	4.18
306.43	20.77
306.644	-12.06
306.859	-8.22
307.074	-50.16
307.288	-28.34
307.503	-9.03
307.717	4.81
307.932	-20.05
308.147	-8.46
308.361	-13.97
308.576	-39.54
308.79	-46.96
309.005	0.78
309.219	9.06
309.434	1.29
309.648	7.14
309.863	7.75
310.077	-5.5
310.292	4.54
310.506	4.37
310.72	-4.61
310.935	-33.05
311.149	-16.14
311.364	-12.89
311.578	2.64
311.792	-4.92
312.007	23.83
312.221	10.65
312.435	19.21
312.649	-12.18
312.864	-52.95
313.078	12.99
313.292	-27.87
313.507	-44.22
313.721	-22.87
313.935	0.63
314.149	-11.04
314.363	9.74
314.578	11.2
314.792	8.6
315.006	7
315.22	1.34
315.434	-7
315.648	-2.4
315.862	4.53
316.077	7.46
316.291	7.68
316.505	26.11
316.719	29.71
316.933	29.14
317.147	20.42
317.361	28.1
317.575	5.77
317.789	0.13
318.003	5.06
318.217	17.29
318.431	15.48
318.645	9.88
318.859	21.43
319.073	6.03
319.287	-9.14
319.5	-19.47
319.714	-2.36
319.928	-17.75
320.142	12.66
320.356	21
320.57	30.95
320.784	35.54
320.997	24.06
321.211	8.79
321.425	3.43
321.639	1.47
321.853	-9.68
322.066	-6.6
322.28	-12.53
322.494	-11.7
322.707	-6.49
322.921	-18.04
323.135	-25.29
323.349	-12.78
323.562	-29.85
323.776	-41.52
323.989	-27.45
324.203	-14.46
324.417	-13.36
324.63	3.11
324.844	6.06
325.057	8.84
325.271	-5.83
325.485	-11.44
325.698	-9.28
325.912	-6.21
326.125	-4.9
326.339	8.96
326.552	7.69
326.766	5.92
326.979	11.37
327.193	14.95
327.406	18.93
327.619	17.41
327.833	21.15
328.046	19.18
328.26	22.7
328.473	5.57
328.686	-0.26
328.9	-35.53
329.113	-53.93
329.326	-72.92
329.54	-95.03
329.753	-70.14
329.966	-28.7
330.179	-24.56
330.393	-17.7
330.606	0.59
330.819	-0.32
331.032	-3.09
331.246	-5.5
331.459	-28.58
331.672	-39.52
331.885	-23.62
332.098	-17.76
332.311	-1.81
332.525	11.03
332.738	7.63
332.951	-16.69
333.164	-18.48
333.377	-18.92
333.59	-6.3
333.803	13.34
334.016	27.84
334.229	22.6
334.442	10.92
334.655	7.23
334.868	-1.38
335.081	15.56
335.294	8.96
335.507	21.45
335.72	12.89
335.933	7.24
336.146	-14.93
336.359	-9.68
336.572	-30.22
336.785	-36.67
336.997	-35.52
337.21	-24.27
337.423	-10.31
337.636	-8.72
337.849	2.03
338.062	-2.06
338.274	-21.46
338.487	-16.35
338.7	-28.07
338.913	-27.6
339.125	-5.76
339.338	-1.06
339.551	-18.56
339.763	-10.72
339.976	-23.16
340.189	-33.42
340.402	-41.33
340.614	-40.12
340.827	-28.45
341.039	-5.65
341.252	-0.32
341.465	21.92
341.677	23.53
341.89	11.14
342.102	14.12
342.315	2.34
342.527	-5.35
342.74	-19.06
342.952	-0.74
343.165	-3.99
343.377	-12.2
343.59	-15.7
343.802	7.26
344.015	12.7
344.227	4.24
344.44	13.25
344.652	11.53
344.864	-17.01
345.077	-13.96
345.289	-7.32
345.502	-0.78
345.714	1.89
345.926	9.61
346.139	-28.43
346.351	-39.19
346.563	-25.17
346.775	-26.56
346.988	-31.36
347.2	-6.63
347.412	-1.71
347.624	-0.19
347.837	-15.71
348.049	-12.09
348.261	-12.47
348.473	2.3
348.685	-3.65
348.897	17.77
349.11	23.1
349.322	20.79
349.534	21.03
349.746	21.56
349.958	27.39
350.17	13.93
350.382	18.3
350.594	-2.95
350.806	4.82
351.018	-13.11
351.23	-7.99
351.442	-37.08
351.654	-8.05
351.866	-20.31
352.078	4.45
352.29	-10.3
352.502	8.65
352.714	-4.33
352.926	4.4
353.138	-0.55
353.35	18.74
353.561	0.73
353.773	20.52
353.985	8.98
354.197	-2.77
354.409	4.4
354.621	-0.32
354.832	-19.69
355.044	-22.33
355.256	-11.43
355.468	-20.18
355.679	1.32
355.891	16.58
356.103	34.64
356.314	35.03
356.526	44.11
356.738	33.83
356.949	27.66
357.161	14.01
357.373	17.03
357.584	10.17
357.796	15.04
358.008	5.88
358.219	5.55
358.431	-11.81
358.642	-31.5
358.854	-9.84
359.065	-0.92
359.277	-5.4
359.488	0.08
359.7	13.79
359.911	7.22
360.123	-3.88
360.334	14.02
360.546	11.83
360.757	7.17
360.969	-5.26
361.18	9.99
361.391	-5.63
361.603	-19.55
361.814	-3.34
362.025	-4.64
362.237	3.08
362.448	11.08
362.659	21.86
362.871	16.62
363.082	13.63
363.293	1.17
363.504	-1.27
363.716	-5.3
363.927	-5.17
364.138	-1.17
364.349	6.69
364.56	14.07
364.772	18.96
364.983	20.57
365.194	27.33
365.405	28.94
365.616	11.32
365.827	11.64
366.038	-3.21
366.25	-21.62
366.461	-36.68
366.672	-53.8
366.883	-45.76
367.094	-50.62
367.305	-9.49
367.516	-0.31
367.727	15.04
367.938	12.22
368.149	22.76
368.36	12.42
368.571	4.68
368.781	-11.27
368.992	-27.34
369.203	-27.13
369.414	-20.27
369.625	-11.16
369.836	-1.27
370.047	0.56
370.258	6.54
370.468	2.09
370.679	-7.3
370.89	-27.28
371.101	4.05
371.312	-6.3
371.522	-3.25
371.733	4.1
371.944	1.27
372.155	-36.04
372.365	-24.03
372.576	-24.53
372.787	-14.18
372.997	-0.06
373.208	0.21
373.419	-7.29
373.629	-4.88
373.84	2.32
374.05	-3.63
374.261	8.17
374.472	7.74
374.682	2.18
374.893	7.32
375.103	26.32
375.314	15.9
375.524	22.85
375.735	28.9
375.945	24.52
376.156	13.44
376.366	9.15
376.577	15.31
376.787	12.67
376.997	7.04
377.208	-4.4
377.418	-4.48
377.629	-21.39
377.839	-10.77
378.049	0.21
378.26	10.18
378.47	11.36
378.68	8.98
378.89	5.83
379.101	-7.67
379.311	-13.32
379.521	-20.32
379.732	-15.09
379.942	-27.3
380.152	-23.09
380.362	-24.73
380.572	-18.37
380.783	-20.88
380.993	-22.29
381.203	-24.45
381.413	-24.42
381.623	-15.21
381.833	0.49
382.043	6.15
382.253	8.24
382.463	2.78
382.674	-0.53
382.884	3.85
383.094	-4.4
383.304	-8.89
383.514	-2.28
383.724	4.96
383.934	-2.83
384.144	5.67
384.353	14.55
384.563	17.89
384.773	17.17
384.983	13.61
385.193	11.82
385.403	-0.44
385.613	3.36
385.823	1.96
386.033	0.15
386.242	-1.55
386.452	3.47
386.662	0.21
386.872	-2.61
387.082	-3.02
387.291	-7.07
387.501	-9.17
387.711	-10.16
387.921	-9.81
388.13	-6.19
388.34	0.14
388.55	1.38
388.759	-1.39
388.969	-1.12
389.179	-2.08
389.388	-3.53
389.598	-2.05
389.807	-0.75
390.017	-1.1
390.227	2.78
390.436	3.66
390.646	2.12
390.855	3.05
391.065	1.64
391.274	-0.74
391.484	-2.19
391.693	-3.69
391.903	-3.08
392.112	-1.91
392.322	-2.73
392.531	-3.61
392.74	-2.17
392.95	-1.53
393.159	-1.32
393.369	1.3
393.578	2.39
393.787	2.96
393.997	1.41
394.206	1.63
394.415	0.32
394.625	0.79
394.834	0.27
395.043	0.01
395.252	1.12
395.462	0.63
395.671	0.38
395.88	1.58
396.089	2.73
396.298	2.37
396.508	2.67
396.717	2.26
396.926	1.78
397.135	1.02
397.344	0.65
397.553	0.81
397.762	1.42
397.971	1.85
398.181	2.5
398.39	2.67
398.599	2.56
398.808	2.59
399.017	2.89
399.226	3.01
399.435	2.72
399.644	3.19
399.853	3.26
400.062	3.29
400.27	3.43
400.479	3.54
400.688	3.19
400.897	3.09
401.106	2.7
401.315	2.41
401.524	2.69
401.733	2.5
401.941	2.59
402.15	2.8
402.359	2.62
402.568	2.47
402.777	2.68
402.985	2.52
403.194	2.32
403.403	2.48
403.612	2.54
403.82	2.53
404.029	2.39
404.238	2.39
404.446	2.46
404.655	2.31
404.864	2.36
405.072	2.63
405.281	2.59
405.489	2.46
405.698	2.58
405.906	2.31
406.115	2.18
406.324	2.19
406.532	2.3
406.741	2.26
406.949	2.47
407.158	2.54
407.366	2.54
407.574	2.47
407.783	2.51
407.991	2.33
408.2	2.26
408.408	2.22
408.617	2.24
408.825	2.18
409.033	2.4
409.242	2.5
409.45	2.43
409.658	2.49
409.867	2.42
410.075	2.31
410.283	2.21
410.491	2.2
410.7	2.15
410.908	2.32
411.116	2.38
411.324	2.32
411.533	2.49
411.741	2.44
411.949	2.43
412.157	2.28
412.365	2.19
412.573	2.07
412.781	2.04
412.99	2.02
413.198	2.09
413.406	2.16
413.614	2.26
413.822	2.34
414.03	2.19
414.238	2.19
414.446	2.31
414.654	2.18
414.862	2.17
415.07	2.05
415.278	2.13
415.486	2.02
415.694	2.07
415.902	1.94
416.109	2.08
416.317	2
416.525	2
416.733	1.97
416.941	2.03
417.149	1.96
417.357	1.93
417.564	2
417.772	2.01
417.98	2.06
418.188	2.08
418.395	1.89
418.603	1.79
418.811	1.91
419.019	1.88
419.226	1.9
419.434	2.16
419.642	2.17
419.849	2.06
420.057	1.95
420.265	1.89
420.472	1.8
420.68	1.87
420.887	1.95
421.095	1.92
421.302	2.04
421.51	2.02
421.717	2.03
421.925	1.88
422.132	1.94
422.34	1.78
422.547	1.67
422.755	1.67
422.962	1.69
423.17	1.65
423.377	1.76
423.585	2.04
423.792	1.83
423.999	1.81
424.207	1.81
424.414	1.67
424.621	1.48
424.829	1.53
425.036	1.6
425.243	1.73
425.451	1.75
425.658	1.8
425.865	1.84
426.072	1.82
426.28	1.86
426.487	2.06
426.694	2.07
426.901	2.02
427.108	2
427.315	2.02
427.523	1.86
427.73	1.8
427.937	1.79
428.144	1.86
428.351	1.79
428.558	1.97
428.765	2.05
428.972	2.19
429.179	2.08
429.386	1.99
429.593	1.91
429.8	1.82
430.007	1.72
430.214	1.86
430.421	1.88
430.628	1.76
430.835	1.8
431.042	1.83
431.249	1.84
431.456	1.71
431.662	1.86
431.869	1.96
432.076	2.01
432.283	2.03
432.49	2.1
432.697	2.12
432.903	1.94
433.11	1.88
433.317	1.8
433.524	1.97
433.73	1.87
433.937	1.89
434.144	1.85
434.35	1.82
434.557	1.68
434.764	1.66
434.97	1.69
435.177	1.99
435.384	1.96
435.59	1.97
435.797	2.08
436.003	2.09
436.21	1.87
436.416	1.79
436.623	1.86
436.829	1.8
437.036	1.8
437.242	1.79
437.449	1.9
437.655	1.95
437.862	2.03
438.068	1.95
438.275	2.04
438.481	2.05
438.687	1.94
438.894	1.98
439.1	2.12
439.307	2.14
439.513	2.17
439.719	2.17
439.926	2.01
440.132	2.02
440.338	2.06
440.544	1.99
440.751	2.1
440.957	2.21
441.163	2.14
441.369	2.2
441.575	2.22
441.782	2.14
441.988	2.06
442.194	2.08
442.4	1.91
442.606	2.05
442.812	2.11
443.018	2.13
443.224	2.26
443.431	2.18
443.637	2.18
443.843	2.17
444.049	2.27
444.255	2.14
444.461	2.26
444.667	2.15
444.873	2.11
445.079	2.02
445.284	2.08
445.49	2.05
445.696	2.09
445.902	2.1
446.108	2.05
446.314	2.11
446.52	2.16
446.726	2.15
446.931	2.18
447.137	2.29
447.343	2.21
447.549	2.11
447.755	2.01
447.96	2.02
448.166	1.94
448.372	1.94
448.578	2.04
448.783	2.17
448.989	2.17
449.195	2.18
449.4	2.28
449.606	2.26
449.812	2.21
450.017	2.21
450.223	2.32
450.428	2.3
450.634	2.37
450.84	2.53
451.045	2.57
451.251	2.57
451.456	2.5
451.662	2.45
451.867	2.31
452.073	2.27
452.278	2.17
452.483	2.22
452.689	2.2
452.894	2.2
453.1	2.21
453.305	2.25
453.51	2.26
453.716	2.21
453.921	2.23
454.127	2.31
454.332	2.25
454.537	2.21
454.742	2.21
454.948	2.08
455.153	1.97
455.358	2.1
455.563	2.04
455.769	2
455.974	2.12
456.179	2.11
456.384	2.01
456.589	2.1
456.795	2.25
457	2.26
457.205	2.32
457.41	2.37
457.615	2.31
457.82	2.27
458.025	2.24
458.23	2.21
458.435	2.16
458.64	2.13
458.845	2.15
459.05	2.17
459.255	2.18
459.46	2.29
459.665	2.34
459.87	2.23
460.075	2.24
460.28	2.21
460.485	2.14
460.69	2.14
460.895	2.22
461.099	2.17
461.304	2.13
461.509	2.22
461.714	2.23
461.919	2.19
462.123	2.24
462.328	2.35
462.533	2.27
462.738	2.29
462.942	2.38
463.147	2.35
463.352	2.35
463.556	2.35
463.761	2.24
463.966	2.21
464.17	2.33
464.375	2.24
464.58	2.24
464.784	2.4
464.989	2.27
465.193	2.23
465.398	2.35
465.602	2.44
465.807	2.32
