Data from Ofav_PS_Phys_CX_Reflection_3.txt Node
Date: Thu Jul 29 18:21:05 EDT 2021
User: USUARIO
Spectrometer: FLMT01687
Trigger mode: 0
Integration Time (sec): 9.010000E-1
Scans to average: 2
Electric dark correction enabled: true
Nonlinearity correction enabled: false
Boxcar width: 2
XAxis mode: Wavelengths
Number of Pixels in Spectrum: 3648
>>>>>Begin Spectral Data<<<<<
179.494	272.38
179.716	263.51
179.937	244.34
180.158	-1467.8
180.38	-116.32
180.601	-974.8
180.823	-411.76
181.044	-158.38
181.265	-88.83
181.486	-511.86
181.708	165.55
181.929	501.26
182.15	7628.57
182.372	-136.94
182.593	-44.91
182.814	-28.4
183.035	-488.66
183.257	176.94
183.478	62.76
183.699	82.62
183.92	66.29
184.141	76.75
184.363	75.17
184.584	84.73
184.805	48.6
185.026	77.28
185.247	43.54
185.468	48.71
185.689	33.91
185.91	90.72
186.132	12.3
186.353	49.26
186.574	64.46
186.795	71.36
187.016	47.93
187.237	42.25
187.458	11.75
187.679	-1.21
187.9	5.92
188.121	-1.08
188.342	24.33
188.563	57.73
188.784	57.7
189.005	41.96
189.226	50.83
189.447	44.39
189.667	46.23
189.888	59.8
190.109	58.92
190.33	29.28
190.551	19.81
190.772	3.86
190.993	-5.03
191.214	19.15
191.434	36.29
191.655	44.37
191.876	33.63
192.097	11.32
192.318	34.84
192.538	31.37
192.759	52.6
192.98	64.79
193.201	64.95
193.421	51.67
193.642	44.43
193.863	3.54
194.083	-40
194.304	-7.27
194.525	10.01
194.745	12.47
194.966	19.71
195.187	22.61
195.407	-1.52
195.628	-52.67
195.848	-33.66
196.069	19.58
196.29	24.41
196.51	33.8
196.731	28.01
196.951	19.21
197.172	-23.51
197.392	-10.73
197.613	-25.52
197.833	1.03
198.054	5.06
198.274	12.29
198.495	36.66
198.715	33.06
198.936	37.01
199.156	40.12
199.377	41.74
199.597	28.41
199.817	38.22
200.038	16.26
200.258	8.97
200.479	-28.57
200.699	-25.76
200.919	-11.89
201.14	-0.91
201.36	17.98
201.58	30.32
201.801	24.75
202.021	34.71
202.241	43.44
202.461	39.62
202.682	26.78
202.902	77.98
203.122	57.2
203.342	88.98
203.563	104.51
203.783	101.75
204.003	68.86
204.223	137.61
204.443	69.96
204.663	65.26
204.884	62.74
205.104	72.57
205.324	34.37
205.544	32.87
205.764	26.96
205.984	30.17
206.204	27.55
206.424	52.63
206.644	52.35
206.864	23.47
207.084	6.98
207.304	29.64
207.525	-22.51
207.745	5.98
207.964	49.63
208.184	87.94
208.404	61.52
208.624	78.76
208.844	71.86
209.064	73.01
209.284	82.94
209.504	100.17
209.724	109.97
209.944	99.01
210.164	88.83
210.384	69.39
210.604	46.14
210.823	34.82
211.043	25.35
211.263	44.78
211.483	22.17
211.703	31.01
211.922	25.47
212.142	37.69
212.362	21.2
212.582	34.84
212.801	44.57
213.021	35.04
213.241	25.21
213.461	24.28
213.68	8.73
213.9	0.65
214.12	13.8
214.339	13.82
214.559	-4.74
214.779	38.09
214.998	14.48
215.218	4.81
215.438	27.9
215.657	45.54
215.877	30.82
216.096	34.52
216.316	19.75
216.535	-34.04
216.755	-114.54
216.974	-170.61
217.194	-111.54
217.413	-50.36
217.633	-6.07
217.852	6.9
218.072	15.05
218.291	31.25
218.511	47.6
218.73	36.86
218.95	37.54
219.169	38.59
219.389	16.36
219.608	-16.5
219.827	-21.41
220.047	2.19
220.266	-7.93
220.485	7.46
220.705	12.88
220.924	-0.82
221.143	-1.44
221.363	-14.43
221.582	-36.06
221.801	-101.02
222.021	-36.8
222.24	-49.42
222.459	-21.21
222.678	-5.21
222.897	11.11
223.117	9.14
223.336	8.8
223.555	16.84
223.774	44.77
223.993	41.46
224.213	53.28
224.432	57.68
224.651	59.34
224.87	45.17
225.089	47.85
225.308	53.7
225.527	55.53
225.746	50.64
225.965	66.96
226.184	52.21
226.404	49.02
226.623	55.93
226.842	30.11
227.061	25.99
227.28	40.71
227.499	35.54
227.718	9.17
227.936	38.62
228.155	33.98
228.374	10.48
228.593	-8.71
228.812	-10.09
229.031	-19.35
229.25	-9.62
229.469	2.48
229.688	18.23
229.907	38.22
230.125	39.54
230.344	48.67
230.563	58.87
230.782	76.01
231.001	34.1
231.22	21.06
231.438	10.87
231.657	3.38
231.876	-12.64
232.095	-29.35
232.313	-24.33
232.532	-18.61
232.751	-19.15
232.969	2.91
233.188	33.58
233.407	44.27
233.625	43.55
233.844	44.36
234.063	46.32
234.281	25.42
234.5	24.04
234.719	19.32
234.937	23.41
235.156	7.66
235.374	44.25
235.593	54.13
235.811	56.37
236.03	32.35
236.249	26.72
236.467	18.15
236.686	23.57
236.904	15.56
237.123	37.06
237.341	29.52
237.559	26.65
237.778	19.21
237.996	27.34
238.215	16.91
238.433	32.24
238.652	35.27
238.87	32.37
239.088	35.28
239.307	29.19
239.525	40.49
239.743	38.56
239.962	33.99
240.18	27.36
240.398	26.46
240.617	-9.25
240.835	-13.2
241.053	-8.46
241.271	-7.16
241.49	0.8
241.708	26.97
241.926	25.99
242.144	20.47
242.363	28.25
242.581	22.33
242.799	17.25
243.017	22.48
243.235	14.04
243.453	13.85
243.672	16.37
243.89	14.08
244.108	16.54
244.326	57.33
244.544	38.49
244.762	44.67
244.98	49.59
245.198	35.62
245.416	12.61
245.634	41.31
245.852	41.46
246.07	57.03
246.288	48.24
246.506	40.23
246.724	39.71
246.942	34.06
247.16	33.79
247.378	37.28
247.596	40.12
247.814	29.66
248.032	30.89
248.25	16.51
248.468	28.12
248.685	33.11
248.903	32.96
249.121	28.8
249.339	5.79
249.557	-8.92
249.775	-7.61
249.992	-24.52
250.21	-8.96
250.428	14.55
250.646	16.67
250.863	21.03
251.081	25.01
251.299	36.33
251.517	41.1
251.734	71.21
251.952	56.6
252.17	49.75
252.387	28.51
252.605	28.54
252.823	5.37
253.04	28.03
253.258	36.52
253.475	50.3
253.693	41.46
253.911	48.12
254.128	44.74
254.346	39.96
254.563	27.05
254.781	20.19
254.998	11.49
255.216	-3.25
255.433	14.74
255.651	8.79
255.868	25.71
256.086	35.21
256.303	51.95
256.521	47.68
256.738	48.79
256.956	44.27
257.173	48.1
257.39	34.32
257.608	29.76
257.825	48.45
258.043	42.81
258.26	27.07
258.477	21.55
258.695	2.77
258.912	-16.49
259.129	0.82
259.346	-6.9
259.564	-34.98
259.781	-5.45
259.998	4.39
260.216	19.09
260.433	21.61
260.65	36.71
260.867	54.21
261.084	55.53
261.302	14.56
261.519	1.08
261.736	12.32
261.953	-6.94
262.17	1.34
262.387	-2.13
262.604	12.42
262.822	-7.37
263.039	12.07
263.256	1.11
263.473	22.74
263.69	-7.37
263.907	17.29
264.124	8.47
264.341	36.1
264.558	43.97
264.775	61.65
264.992	72.62
265.209	57.28
265.426	49.21
265.643	47.32
265.86	48.1
266.077	43.95
266.294	50.8
266.51	30.37
266.727	30.41
266.944	30.03
267.161	15.85
267.378	8.31
267.595	47.6
267.812	51.95
268.028	32.38
268.245	39.1
268.462	54.17
268.679	29.33
268.896	13.72
269.112	36.44
269.329	33.05
269.546	32.03
269.763	33.27
269.979	41.32
270.196	38.28
270.413	25.21
270.629	8.93
270.846	14.14
271.063	13.06
271.279	18.92
271.496	16.83
271.712	18.72
271.929	24.02
272.146	34.12
272.362	20.65
272.579	50.31
272.795	75.09
273.012	51.01
273.228	30.72
273.445	38.94
273.661	24.77
273.878	-0.11
274.094	25.29
274.311	37.47
274.527	28.99
274.744	21.58
274.96	33.71
275.177	19.69
275.393	22.89
275.609	33.6
275.826	29.96
276.042	26.13
276.259	10.31
276.475	19.5
276.691	10.1
276.908	25.94
277.124	28.92
277.34	46.63
277.557	33.58
277.773	9.65
277.989	-12.24
278.205	-21.1
278.422	-30.66
278.638	-30.25
278.854	-21.05
279.07	22.34
279.286	14
279.503	38.51
279.719	38.44
279.935	46.91
280.151	26.34
280.367	36.76
280.583	22.49
280.799	25.01
281.016	28.73
281.232	42.52
281.448	34.65
281.664	48.69
281.88	34.25
282.096	30.01
282.312	9.28
282.528	11.2
282.744	15.66
282.96	20.96
283.176	16.92
283.392	30.56
283.608	18.49
283.824	4.4
284.04	-3.85
284.256	6.96
284.471	-9.73
284.687	8.91
284.903	-9.04
285.119	15.69
285.335	-5.02
285.551	7.03
285.767	15.78
285.982	24.15
286.198	30.52
286.414	49.07
286.63	55.04
286.846	38.76
287.061	31.47
287.277	27.05
287.493	15.41
287.709	10.29
287.924	23.77
288.14	26.18
288.356	33.46
288.571	36.7
288.787	23.55
289.003	27.84
289.218	29.68
289.434	16.87
289.65	27.85
289.865	48.82
290.081	27.69
290.296	26.39
290.512	27.38
290.727	9.72
290.943	-13.71
291.159	-1.29
291.374	4.31
291.59	1.29
291.805	-5.72
292.021	12.65
292.236	12.03
292.451	-14.37
292.667	-16.15
292.882	-15.34
293.098	-13.19
293.313	-19.09
293.529	15.7
293.744	5.72
293.959	9.15
294.175	7.58
294.39	-3.67
294.605	-8.29
294.821	3.43
295.036	10.36
295.251	-1.2
295.467	14.7
295.682	11.65
295.897	6.07
296.112	0.07
296.328	6.8
296.543	3.01
296.758	-2.27
296.973	0.25
297.188	11.54
297.404	5.41
297.619	15.47
297.834	0.93
298.049	12.51
298.264	8.82
298.479	23.85
298.694	8.21
298.909	19.63
299.125	14.79
299.34	21.73
299.555	-0.12
299.77	6.9
299.985	-19.09
300.2	-5.47
300.415	-3.52
300.63	23.28
300.845	15.59
301.06	36.23
301.275	36.63
301.49	33.74
301.704	9.11
301.919	11.31
302.134	9.17
302.349	3.37
302.564	3.07
302.779	12.61
302.994	17.26
303.209	22.85
303.423	25.72
303.638	16.28
303.853	-6.65
304.068	9.97
304.283	6.97
304.497	16.38
304.712	1.48
304.927	7.04
305.142	-8.21
305.356	-15.12
305.571	4.15
305.786	27.47
306	13.78
306.215	21.95
306.43	22.93
306.644	-0.13
306.859	10.45
307.074	26.54
307.288	32.32
307.503	39.55
307.717	31.64
307.932	14.36
308.147	9.11
308.361	-9.96
308.576	-18.84
308.79	-24.25
309.005	2.81
309.219	8.21
309.434	27.77
309.648	28.08
309.863	28.84
310.077	25.01
310.292	30.8
310.506	17.65
310.72	20.97
310.935	12.95
311.149	3.69
311.364	-1.87
311.578	11.51
311.792	-1.88
312.007	6.76
312.221	13.25
312.435	24.13
312.649	18.03
312.864	35.45
313.078	46.32
313.292	33.3
313.507	11.75
313.721	-0.76
313.935	23.88
314.149	18.33
314.363	16.5
314.578	16.24
314.792	27.96
315.006	30.43
315.22	25.63
315.434	17.97
315.648	26.89
315.862	19.48
316.077	-1.82
316.291	-1.7
316.505	18.06
316.719	25.05
316.933	30.09
317.147	41.08
317.361	25.26
317.575	23.11
317.789	4.53
318.003	18.52
318.217	27.06
318.431	34.16
318.645	27.7
318.859	38.15
319.073	24.77
319.287	15.86
319.5	5.48
319.714	25.2
319.928	31.87
320.142	43.73
320.356	52.58
320.57	63.09
320.784	50.38
320.997	30.56
321.211	27.56
321.425	24.03
321.639	17.16
321.853	24.33
322.066	16.8
322.28	16.3
322.494	23.76
322.707	32.23
322.921	16.59
323.135	16.9
323.349	37.15
323.562	11.48
323.776	-2.83
323.989	9.88
324.203	18.87
324.417	-20.2
324.63	-8.22
324.844	4.06
325.057	0.07
325.271	-1.23
325.485	2.26
325.698	14.07
325.912	22.56
326.125	23.14
326.339	30
326.552	44.65
326.766	41.35
326.979	35.4
327.193	41.04
327.406	30.58
327.619	18.44
327.833	19.77
328.046	15.61
328.26	23.27
328.473	23.41
328.686	21.01
328.9	14.01
329.113	25.21
329.326	-8.05
329.54	-15.86
329.753	4.3
329.966	0.95
330.179	-2.77
330.393	16.67
330.606	26.39
330.819	31.57
331.032	46.23
331.246	36.06
331.459	8.3
331.672	0.12
331.885	2.01
332.098	-7.67
332.311	25.49
332.525	39.12
332.738	27.63
332.951	12.95
333.164	24.32
333.377	1
333.59	9.51
333.803	27.7
334.016	42.57
334.229	17.07
334.442	30.12
334.655	30.29
334.868	16.81
335.081	16.46
335.294	33.74
335.507	30.96
335.72	23.1
335.933	23.22
336.146	26.56
336.359	33.42
336.572	15.24
336.785	12.89
336.997	22.58
337.21	16.86
337.423	9.87
337.636	14.01
337.849	17.99
338.062	15.75
338.274	7.95
338.487	-6.77
338.7	-3.3
338.913	15.43
339.125	12.37
339.338	5.23
339.551	19.86
339.763	18.8
339.976	0.86
340.189	-0.95
340.402	4.59
340.614	-40.63
340.827	-26.36
341.039	-3.94
341.252	-0.57
341.465	15.05
341.677	33.68
341.89	27.63
342.102	24.97
342.315	23.81
342.527	27.54
342.74	28.24
342.952	28.85
343.165	34.19
343.377	42.37
343.59	32.15
343.802	34.27
344.015	28.62
344.227	19.56
344.44	4.86
344.652	6.98
344.864	4.66
345.077	13.78
345.289	20.57
345.502	32.1
345.714	19.04
345.926	8.16
346.139	-8.08
346.351	-9.88
346.563	-1.31
346.775	2.12
346.988	5.24
347.2	12.75
347.412	2.17
347.624	4.17
347.837	-2.71
348.049	-2.35
348.261	2.43
348.473	12.45
348.685	12.04
348.897	28.1
349.11	34
349.322	34.25
349.534	34.81
349.746	28.55
349.958	25.93
350.17	8.64
350.382	16.03
350.594	16.46
350.806	35.46
351.018	18.74
351.23	14.57
351.442	-4.25
351.654	14.32
351.866	-12.19
352.078	15.15
352.29	24.47
352.502	43.99
352.714	46.74
352.926	60.87
353.138	66.14
353.35	45.8
353.561	18.53
353.773	15.51
353.985	14.08
354.197	12.41
354.409	19
354.621	20.41
354.832	12.14
355.044	6.94
355.256	18.24
355.468	18.16
355.679	28.28
355.891	31.94
356.103	32.67
356.314	29.49
356.526	29.1
356.738	30.12
356.949	31.3
357.161	42.39
357.373	40
357.584	46.96
357.796	41.71
358.008	33.2
358.219	26.16
358.431	26.82
358.642	10.31
358.854	11.88
359.065	12.93
359.277	6.25
359.488	12.6
359.7	26.36
359.911	33.08
360.123	35.21
360.334	35.57
360.546	24.3
360.757	19.79
360.969	14.21
361.18	23.17
361.391	18.55
361.603	26.99
361.814	38.94
362.025	32.58
362.237	14.56
362.448	19.82
362.659	12.42
362.871	9.15
363.082	-3.94
363.293	-1.31
363.504	-4.04
363.716	-5.93
363.927	-10.77
364.138	-1.97
364.349	17.68
364.56	17.85
364.772	21.55
364.983	21.33
365.194	21.82
365.405	17.04
365.616	12.28
365.827	14.36
366.038	3.92
366.25	-8.58
366.461	-10.52
366.672	-3.41
366.883	8.21
367.094	-1.94
367.305	20.26
367.516	19.94
367.727	16.3
367.938	9.27
368.149	18.81
368.36	10.81
368.571	16.31
368.781	3
368.992	2.05
369.203	12.27
369.414	9.45
369.625	8.52
369.836	23.45
370.047	23.94
370.258	25.24
370.468	29.67
370.679	21.32
370.89	5.01
371.101	27.84
371.312	18.48
371.522	22.36
371.733	25.82
371.944	28.07
372.155	0.76
372.365	15.38
372.576	9.36
372.787	10.98
372.997	26.75
373.208	24.75
373.419	19.77
373.629	22.56
373.84	24.36
374.05	16.94
374.261	15.69
374.472	7.3
374.682	-6.62
374.893	3.62
375.103	6.48
375.314	15.14
375.524	19.73
375.735	32.06
375.945	30.57
376.156	33.32
376.366	20.68
376.577	28.44
376.787	28.31
376.997	23.24
377.208	27.49
377.418	29.84
377.629	17.68
377.839	14.97
378.049	26.13
378.26	16.16
378.47	16.01
378.68	23.51
378.89	22.34
379.101	13.51
379.311	8.59
379.521	5.12
379.732	-4.49
379.942	-1.08
380.152	-7.82
380.362	-10.58
380.572	-10.1
380.783	0.4
380.993	6.24
381.203	13.7
381.413	24.43
381.623	29.89
381.833	29.7
382.043	20.13
382.253	20.66
382.463	19.03
382.674	15.54
382.884	13.28
383.094	1.25
383.304	-0.04
383.514	-0.11
383.724	10.65
383.934	7.46
384.144	18.34
384.353	19.33
384.563	21.88
384.773	15.71
384.983	17.52
385.193	17.15
385.403	10.61
385.613	10.36
385.823	10.81
386.033	5.9
386.242	1.74
386.452	5.76
386.662	5.45
386.872	9.2
387.082	8.33
387.291	7.23
387.501	5.82
387.711	2.85
387.921	-2.06
388.13	0.48
388.34	1.49
388.55	1.83
388.759	1.78
388.969	2.38
389.179	0.98
389.388	3.98
389.598	4.13
389.807	4.14
390.017	2.94
390.227	7.9
390.436	6.04
390.646	4.22
390.855	4.7
391.065	4.23
391.274	0.14
391.484	-0.35
391.693	-0.71
391.903	-0.76
392.112	-0.76
392.322	-0.01
392.531	-1.16
392.74	-0.48
392.95	0.86
393.159	1.83
393.369	3.67
393.578	4.68
393.787	5.02
393.997	3.18
394.206	2.93
394.415	2.74
394.625	3.01
394.834	2.64
395.043	2.78
395.252	3.98
395.462	3.02
395.671	3.7
395.88	4.33
396.089	5.25
396.298	4.33
396.508	4.43
396.717	4.15
396.926	4.42
397.135	3.57
397.344	3.72
397.553	3.83
397.762	3.99
397.971	3.82
398.181	4.5
398.39	4.25
398.599	4.31
398.808	3.87
399.017	4.56
399.226	4.26
399.435	4.34
399.644	4.81
399.853	4.79
400.062	4.44
400.27	4.9
400.479	4.96
400.688	4.5
400.897	4.5
401.106	4.55
401.315	4.02
401.524	4.03
401.733	4.02
401.941	4.22
402.15	4.07
402.359	4.02
402.568	4.09
402.777	4.05
402.985	3.86
403.194	3.63
403.403	3.78
403.612	3.76
403.82	3.68
404.029	3.69
404.238	3.78
404.446	3.85
404.655	3.68
404.864	3.82
405.072	3.71
405.281	3.74
405.489	3.64
405.698	3.73
405.906	3.67
406.115	3.62
406.324	3.59
406.532	3.68
406.741	3.72
406.949	3.78
407.158	3.86
407.366	3.79
407.574	3.64
407.783	3.59
407.991	3.36
408.2	3.32
408.408	3.2
408.617	3.32
408.825	3.34
409.033	3.49
409.242	3.63
409.45	3.81
409.658	3.79
409.867	3.81
410.075	3.78
410.283	3.71
410.491	3.56
410.7	3.53
410.908	3.59
411.116	3.72
411.324	3.66
411.533	3.84
411.741	3.85
411.949	3.68
412.157	3.49
412.365	3.34
412.573	3.24
412.781	3.22
412.99	3.32
413.198	3.4
413.406	3.53
413.614	3.44
413.822	3.48
414.03	3.38
414.238	3.3
414.446	3.4
414.654	3.36
414.862	3.25
415.07	3.11
415.278	3.13
415.486	2.88
415.694	2.98
415.902	3.04
416.109	3.22
416.317	3.15
416.525	3.25
416.733	3.28
416.941	3.21
417.149	3.16
417.357	3.17
417.564	3.26
417.772	3.11
417.98	3.28
418.188	3.22
418.395	3.14
418.603	2.97
418.811	3.15
419.019	3.1
419.226	3.26
419.434	3.35
419.642	3.44
419.849	3.29
420.057	3.1
420.265	3.04
420.472	2.97
420.68	3.06
420.887	3.08
421.095	3.15
421.302	3.09
421.51	3.1
421.717	2.98
421.925	3.15
422.132	3.25
422.34	3.04
422.547	2.9
422.755	2.98
422.962	2.92
423.17	2.8
423.377	3.07
423.585	3.29
423.792	3.21
423.999	3.1
424.207	3.16
424.414	3.07
424.621	3.09
424.829	3.12
425.036	3.19
425.243	3.2
425.451	3.07
425.658	2.97
425.865	2.9
426.072	2.87
426.28	3.04
426.487	3.28
426.694	3.22
426.901	3.16
427.108	3.16
427.315	3.05
427.523	3.06
427.73	3.14
427.937	3.19
428.144	3.07
428.351	2.95
428.558	2.96
428.765	3.11
428.972	3.3
429.179	3.4
429.386	3.41
429.593	3.33
429.8	3.27
430.007	3.22
430.214	3.38
430.421	3.55
430.628	3.47
430.835	3.43
431.042	3.24
431.249	3.21
431.456	2.98
431.662	3.17
431.869	3.28
432.076	3.55
432.283	3.57
432.49	3.66
432.697	3.78
432.903	3.64
433.11	3.57
433.317	3.5
433.524	3.7
433.73	3.62
433.937	3.69
434.144	3.68
434.35	3.83
434.557	3.65
434.764	3.53
434.97	3.46
435.177	3.64
435.384	3.49
435.59	3.53
435.797	3.65
436.003	3.67
436.21	3.48
436.416	3.55
436.623	3.53
436.829	3.51
437.036	3.52
437.242	3.59
437.449	3.67
437.655	3.86
437.862	3.87
438.068	3.99
438.275	4.08
438.481	4.02
438.687	3.93
438.894	3.96
439.1	4.03
439.307	4
439.513	4.1
439.719	4.06
439.926	4
440.132	3.93
440.338	4.06
440.544	4.01
440.751	4.07
440.957	4.2
441.163	4.24
441.369	4.19
441.575	4.24
441.782	4.28
441.988	4.28
442.194	4.24
442.4	4.22
442.606	4.3
442.812	4.31
443.018	4.39
443.224	4.49
443.431	4.47
443.637	4.37
443.843	4.42
444.049	4.44
444.255	4.46
444.461	4.57
444.667	4.59
444.873	4.46
445.079	4.39
445.284	4.38
445.49	4.24
445.696	4.27
445.902	4.33
446.108	4.34
446.314	4.32
446.52	4.47
446.726	4.52
446.931	4.53
447.137	4.56
447.343	4.61
447.549	4.48
447.755	4.36
447.96	4.5
448.166	4.58
448.372	4.54
448.578	4.76
448.783	4.87
448.989	4.94
449.195	4.79
449.4	4.87
449.606	4.77
449.812	4.71
450.017	4.63
450.223	4.74
450.428	4.75
450.634	4.76
450.84	4.97
451.045	4.94
451.251	4.97
451.456	5.02
451.662	5.01
451.867	4.85
452.073	4.87
452.278	4.85
452.483	4.85
452.689	4.94
452.894	4.99
453.1	5.06
453.305	5.05
453.51	4.97
453.716	4.97
453.921	5.03
454.127	5.03
454.332	4.92
454.537	4.96
454.742	4.92
454.948	4.85
455.153	4.83
455.358	4.98
455.563	4.95
455.769	4.93
455.974	5.07
456.179	5.01
456.384	4.96
456.589	5.06
456.795	5.08
457	5.11
457.205	5.3
457.41	5.34
457.615	5.31
457.82	5.41
458.025	5.29
458.23	5.23
458.435	5.25
458.64	5.33
458.845	5.28
459.05	5.32
459.255	5.36
459.46	5.4
459.665	5.36
459.87	5.4
460.075	5.42
460.28	5.39
460.485	5.39
460.69	5.36
460.895	5.32
461.099	5.35
461.304	5.29
461.509	5.29
461.714	5.34
461.919	5.33
462.123	5.29
462.328	5.37
462.533	5.5
462.738	5.49
462.942	5.58
463.147	5.78
463.352	5.78
463.556	5.72
463.761	5.79
463.966	5.81
464.17	5.72
464.375	5.7
464.58	5.66
464.784	5.65
464.989	5.59
465.193	5.6
465.398	5.77
465.602	5.87
465.807	5.82
466.011	5.94
466.216	5.89
466.42	5.83
466.625	6
466.829	6.16
467.034	6.25
467.238	6.38
467.443	6.27
467.647	6.03
467.851	6
468.056	5.97
468.26	5.89
468.464	6.05
468.669	6.23
