Data from Ofav_PS_Phys_313_Reflection_2.txt Node
Date: Thu Jul 29 18:24:31 EDT 2021
User: USUARIO
Spectrometer: FLMT01687
Trigger mode: 0
Integration Time (sec): 9.010000E-1
Scans to average: 2
Electric dark correction enabled: true
Nonlinearity correction enabled: false
Boxcar width: 2
XAxis mode: Wavelengths
Number of Pixels in Spectrum: 3648
>>>>>Begin Spectral Data<<<<<
179.494	93.02
179.716	80.63
179.937	45.34
180.158	74.01
180.38	52.34
180.601	-277.43
180.823	-141.28
181.044	-70.2
181.265	-126.14
181.486	-549.72
181.708	109.68
181.929	270.99
182.15	9652.38
182.372	-211.69
182.593	-13.34
182.814	-13.1
183.035	-601.72
183.257	164.26
183.478	102.49
183.699	108.7
183.92	89.73
184.141	110.53
184.363	75.78
184.584	69.14
184.805	69.36
185.026	73.65
185.247	47.31
185.468	91.08
185.689	68.9
185.91	72.64
186.132	89.22
186.353	76.43
186.574	66.68
186.795	82.92
187.016	85.35
187.237	70.43
187.458	69.42
187.679	72.26
187.9	59.92
188.121	56.5
188.342	59.62
188.563	47.02
188.784	48.56
189.005	37.78
189.226	42.61
189.447	37.86
189.667	44.43
189.888	43.86
190.109	89.4
190.33	77.54
190.551	70.68
190.772	96.01
190.993	68.32
191.214	51.12
191.434	59.1
191.655	57.13
191.876	58.56
192.097	44.85
192.318	27.6
192.538	22.74
192.759	22.04
192.98	25.98
193.201	48.68
193.421	52.7
193.642	62.04
193.863	47.04
194.083	35.57
194.304	17.55
194.525	31.17
194.745	14.83
194.966	4.23
195.187	1.14
195.407	1.91
195.628	-51.29
195.848	-5.67
196.069	49.21
196.29	40.01
196.51	37.21
196.731	58.08
196.951	70.13
197.172	57.71
197.392	65.71
197.613	78.13
197.833	59.61
198.054	44.54
198.274	50.6
198.495	42.42
198.715	29.11
198.936	43.5
199.156	59.78
199.377	56.81
199.597	55.23
199.817	63.52
200.038	78.09
200.258	61.38
200.479	80.05
200.699	54
200.919	38.13
201.14	3.61
201.36	3.55
201.58	19.24
201.801	33.16
202.021	41.25
202.241	48.84
202.461	69.61
202.682	40.97
202.902	67.55
203.122	52.08
203.342	84.15
203.563	73.89
203.783	80.81
204.003	42.39
204.223	66.22
204.443	53.84
204.663	53.03
204.884	52.69
205.104	60.15
205.324	23.42
205.544	26.5
205.764	17.29
205.984	30.72
206.204	58.33
206.424	82.46
206.644	63.06
206.864	69.9
207.084	30.26
207.304	30.02
207.525	14.85
207.745	36.23
207.964	50.55
208.184	84.18
208.404	48.51
208.624	59.01
208.844	67.73
209.064	72.04
209.284	64.44
209.504	63.74
209.724	68.46
209.944	64.37
210.164	60.93
210.384	49.21
210.604	54.88
210.823	45.7
211.043	31.25
211.263	51.73
211.483	65.42
211.703	42.47
211.922	38.69
212.142	65.33
212.362	31.96
212.582	30.86
212.801	46.51
213.021	56.69
213.241	37.45
213.461	39.17
213.68	6.75
213.9	1.28
214.12	7.42
214.339	-9.04
214.559	-10.74
214.779	14.95
214.998	36.27
215.218	14.98
215.438	43.62
215.657	28.71
215.877	44.54
216.096	14.92
216.316	3.78
216.535	-56.54
216.755	-63.25
216.974	-127.19
217.194	-47.07
217.413	0.29
217.633	48.77
217.852	48.69
218.072	49.88
218.291	50.38
218.511	60.59
218.73	30.39
218.95	39.04
219.169	37.42
219.389	25.43
219.608	9.39
219.827	21.86
220.047	24.79
220.266	16.01
220.485	34.22
220.705	16.11
220.924	-7.64
221.143	-10.19
221.363	-11.23
221.582	-59.1
221.801	-118.35
222.021	-28.84
222.24	-45.23
222.459	-25.53
222.678	8.03
222.897	20.89
223.117	25.31
223.336	50.12
223.555	47.64
223.774	83.38
223.993	62.66
224.213	65.45
224.432	65.73
224.651	76.64
224.87	55.55
225.089	57.79
225.308	32.19
225.527	29.31
225.746	22.54
225.965	37.03
226.184	15.16
226.404	41.65
226.623	43.99
226.842	42.16
227.061	20.15
227.28	38.01
227.499	68.18
227.718	76.11
227.936	34.42
228.155	38.15
228.374	3.52
228.593	-1.41
228.812	-17.6
229.031	-20.23
229.25	-1.64
229.469	23.11
229.688	24.07
229.907	40.26
230.125	38.88
230.344	48.74
230.563	52.5
230.782	47.82
231.001	17.22
231.22	22.98
231.438	10.19
231.657	22.14
231.876	37.27
232.095	57.84
232.313	44.63
232.532	44.92
232.751	22.13
232.969	16.91
233.188	23.09
233.407	26.51
233.625	41.73
233.844	49.22
234.063	37.29
234.281	29.89
234.5	37.77
234.719	37.44
234.937	47.6
235.156	50.91
235.374	46.47
235.593	57.65
235.811	72.48
236.03	53.44
236.249	64.64
236.467	74.59
236.686	78.02
236.904	71.63
237.123	84.31
237.341	44
237.559	19.15
237.778	23.2
237.996	19.53
238.215	22.89
238.433	66.08
238.652	71.75
238.87	62.47
239.088	70.56
239.307	66.39
239.525	49.53
239.743	49.59
239.962	48.81
240.18	42.3
240.398	46.85
240.617	35.53
240.835	31.41
241.053	31.52
241.271	22.29
241.49	-0.71
241.708	23.13
241.926	21.39
242.144	10.45
242.363	24.43
242.581	35.79
242.799	37.76
243.017	20.53
243.235	27.21
243.453	13.92
243.672	17.92
243.89	14.16
244.108	33.47
244.326	50.38
244.544	36
244.762	40.72
244.98	30.72
245.198	27.38
245.416	1.44
245.634	16.34
245.852	6.48
246.07	21.99
246.288	28.31
246.506	42.19
246.724	57.72
246.942	43.54
247.16	36.17
247.378	43.21
247.596	56.71
247.814	37.88
248.032	33.61
248.25	37.89
248.468	27.32
248.685	19.2
248.903	31.59
249.121	48.41
249.339	19.36
249.557	21.44
249.775	29.37
249.992	9.79
250.21	13.36
250.428	45.24
250.646	65.35
250.863	67.32
251.081	65.9
251.299	60.34
251.517	52.31
251.734	50.37
251.952	22.53
252.17	30.4
252.387	31
252.605	40.39
252.823	26.11
253.04	46.33
253.258	60.94
253.475	61.23
253.693	65.49
253.911	72.92
254.128	83.78
254.346	46.37
254.563	52.46
254.781	17.76
254.998	23.41
255.216	-10.79
255.433	30.99
255.651	28.08
255.868	40.6
256.086	52.62
256.303	69.35
256.521	79.05
256.738	70.58
256.956	72.54
257.173	50.17
257.39	37.92
257.608	24
257.825	33.83
258.043	23.84
258.26	27.14
258.477	33.33
258.695	29.28
258.912	34.65
259.129	33.57
259.346	34.59
259.564	39.79
259.781	40.89
259.998	43.09
260.216	69.57
260.433	83.5
260.65	75.82
260.867	77.85
261.084	62.95
261.302	38.22
261.519	15.06
261.736	22.93
261.953	21.14
262.17	42.5
262.387	43.54
262.604	42.79
262.822	47.21
263.039	45.14
263.256	38.99
263.473	38.69
263.69	26.75
263.907	20.31
264.124	9.96
264.341	20.32
264.558	34.14
264.775	33.07
264.992	32.42
265.209	27.08
265.426	18.95
265.643	4.64
265.86	11.21
266.077	16.13
266.294	23.66
266.51	19.97
266.727	29.92
266.944	39.83
267.161	35.19
267.378	38.93
267.595	57.54
267.812	52.94
268.028	44.95
268.245	53.12
268.462	43.91
268.679	35.1
268.896	31.13
269.112	40.27
269.329	32.97
269.546	44.98
269.763	28.5
269.979	46.63
270.196	47.74
270.413	54.45
270.629	50.99
270.846	65.67
271.063	58.37
271.279	57.44
271.496	43.16
271.712	37.07
271.929	48.03
272.146	67.22
272.362	53.75
272.579	64.86
272.795	78.58
273.012	50.89
273.228	29.56
273.445	48.56
273.661	30.1
273.878	3.99
274.094	46.56
274.311	56.13
274.527	23.51
274.744	41.92
274.96	51.1
275.177	31.71
275.393	19.03
275.609	29.93
275.826	12.18
276.042	12.78
276.259	-3.42
276.475	10.9
276.691	17.73
276.908	34.99
277.124	32.69
277.34	28.31
277.557	23.16
277.773	20.46
277.989	25.24
278.205	44.86
278.422	78.06
278.638	80.06
278.854	94.53
279.07	95.87
279.286	68.94
279.503	42.77
279.719	37.34
279.935	26.18
280.151	-2.38
280.367	16.39
280.583	47.14
280.799	33.02
281.016	54.78
281.232	43.15
281.448	29.51
281.664	40.93
281.88	57.15
282.096	48.33
282.312	55.87
282.528	75.02
282.744	51.16
282.96	46.74
283.176	21.65
283.392	26
283.608	25.08
283.824	22.08
284.04	20.21
284.256	47.82
284.471	49.25
284.687	49.42
284.903	46.61
285.119	45.37
285.335	22.13
285.551	31.24
285.767	37.48
285.982	36.02
286.198	36.72
286.414	42.92
286.63	41.32
286.846	26.52
287.061	28.28
287.277	29.15
287.493	23.53
287.709	19.56
287.924	43.27
288.14	41.37
288.356	56.64
288.571	55.91
288.787	59.91
289.003	57.57
289.218	50.25
289.434	20.72
289.65	30.46
289.865	21.68
290.081	7.83
290.296	34.02
290.512	45.09
290.727	40.57
290.943	50.24
291.159	59.28
291.374	49.14
291.59	37.48
291.805	27.4
292.021	13.52
292.236	15.42
292.451	-26.6
292.667	-15.07
292.882	-5.63
293.098	-4.76
293.313	-19.44
293.529	13.96
293.744	3.16
293.959	11.89
294.175	37.67
294.39	35.87
294.605	45.02
294.821	55.59
295.036	58.19
295.251	42.9
295.467	46.42
295.682	39.72
295.897	34.94
296.112	19.76
296.328	32.34
296.543	25.77
296.758	36.36
296.973	47.22
297.188	68.39
297.404	42.79
297.619	43.52
297.834	27.77
298.049	27.76
298.264	29.02
298.479	50.36
298.694	43.41
298.909	41.98
299.125	29.05
299.34	18.38
299.555	2.89
299.77	22.97
299.985	0.81
300.2	20.46
300.415	18.47
300.63	24.87
300.845	16.58
301.06	42.61
301.275	48.22
301.49	38.68
301.704	33.11
301.919	40.33
302.134	32.59
302.349	21.94
302.564	22.12
302.779	25.47
302.994	26.71
303.209	27.15
303.423	32.74
303.638	39.87
303.853	24.81
304.068	30.56
304.283	32.39
304.497	22.37
304.712	8.25
304.927	24.52
305.142	4.73
305.356	-3.43
305.571	38.34
305.786	40.77
306	11.8
306.215	18.1
306.43	25.5
306.644	2.58
306.859	14.27
307.074	42.73
307.288	44.81
307.503	34.55
307.717	19.99
307.932	1.7
308.147	12.54
308.361	23.74
308.576	15.41
308.79	26.93
309.005	47.2
309.219	32.84
309.434	24.1
309.648	24.06
309.863	27.97
310.077	27.29
310.292	24.48
310.506	16.77
310.72	43.74
310.935	25.88
311.149	24.42
311.364	44.84
311.578	43.3
311.792	0.88
312.007	17.46
312.221	-13.39
312.435	-22.86
312.649	1.02
312.864	72.14
313.078	96.56
313.292	75.58
313.507	42.45
313.721	41.82
313.935	13.81
314.149	-0.28
314.363	13.97
314.578	25.11
314.792	27.71
315.006	52.5
315.22	57.33
315.434	56.46
315.648	51.8
315.862	41.3
316.077	35.29
316.291	31.34
316.505	36.38
316.719	49.77
316.933	67.71
317.147	61.28
317.361	48.3
317.575	40.35
317.789	24.72
318.003	20.51
318.217	23.2
318.431	26.18
318.645	25.03
318.859	23.58
319.073	25
319.287	23.55
319.5	20.06
319.714	27.72
319.928	37.06
320.142	48.53
320.356	55.71
320.57	71.59
320.784	67.45
320.997	63.91
321.211	41.83
321.425	50.98
321.639	36.11
321.853	30.42
322.066	11.24
322.28	22.97
322.494	2.76
322.707	5.05
322.921	9.86
323.135	20.16
323.349	12.25
323.562	2.03
323.776	6.92
323.989	13.52
324.203	23.48
324.417	33.39
324.63	33.48
324.844	32.77
325.057	21.37
325.271	16.59
325.485	16.17
325.698	22.53
325.912	24.86
326.125	17.6
326.339	23.73
326.552	23.84
326.766	36.96
326.979	46.89
327.193	66.25
327.406	60.1
327.619	51.5
327.833	52.13
328.046	41.28
328.26	50.15
328.473	41.16
328.686	50.74
328.9	34.72
329.113	58.76
329.326	8.4
329.54	2.15
329.753	-7
329.966	7.92
330.179	10.1
330.393	30.67
330.606	28.5
330.819	35.3
331.032	33.33
331.246	16.29
331.459	-25.23
331.672	-16.39
331.885	-2.35
332.098	4.26
332.311	35.87
332.525	45.6
332.738	41.33
332.951	29.34
333.164	30.21
333.377	15.03
333.59	18.36
333.803	32.18
334.016	33.51
334.229	17.43
334.442	23.32
334.655	20.68
334.868	6.38
335.081	21.93
335.294	31.41
335.507	23.67
335.72	35.19
335.933	25.06
336.146	20.27
336.359	21.32
336.572	5.57
336.785	1.07
336.997	23.38
337.21	31.93
337.423	39.91
337.636	57.34
337.849	50.84
338.062	37.18
338.274	27.84
338.487	5.61
338.7	-28.67
338.913	-13.19
339.125	13.49
339.338	13.34
339.551	18.24
339.763	22.45
339.976	12.63
340.189	18.99
340.402	20.2
340.614	12.52
340.827	50.13
341.039	50.87
341.252	50.35
341.465	47.93
341.677	45.67
341.89	23.53
342.102	31.67
342.315	24.37
342.527	12.16
342.74	5.88
342.952	3
343.165	8.12
343.377	4.77
343.59	24.24
343.802	35.69
344.015	56.99
344.227	49.15
344.44	54.12
344.652	40.34
344.864	23.57
345.077	25.97
345.289	19
345.502	21.23
345.714	21.49
345.926	30.64
346.139	3.3
346.351	0.19
346.563	3.99
346.775	12.69
346.988	14.42
347.2	16.79
347.412	20.8
347.624	25
347.837	14.23
348.049	19.15
348.261	29.98
348.473	29.6
348.685	27.65
348.897	40.55
349.11	35.61
349.322	36.85
349.534	50.01
349.746	53.06
349.958	52.5
350.17	63.65
350.382	57.5
350.594	48.93
350.806	51.07
351.018	35.15
351.23	20.03
351.442	9.61
351.654	30.67
351.866	5.96
352.078	29.32
352.29	26.14
352.502	44.58
352.714	32.01
352.926	44.5
353.138	60.33
353.35	52.86
353.561	27.53
353.773	37.67
353.985	30.03
354.197	22.1
354.409	27.19
354.621	14.17
354.832	-3.07
355.044	8.53
355.256	0.54
355.468	7.57
355.679	37.83
355.891	48.5
356.103	46.2
356.314	51.69
356.526	47.94
356.738	31.56
356.949	25.15
357.161	23.34
357.373	28.57
357.584	21.98
357.796	36.58
358.008	29.95
358.219	22.82
358.431	18.77
358.642	21.38
358.854	29.46
359.065	30.28
359.277	26.82
359.488	20.52
359.7	25.03
359.911	24.19
360.123	22.09
360.334	29.14
360.546	39.05
360.757	35.57
360.969	25.97
361.18	34.93
361.391	38.07
361.603	14.84
361.814	27.92
362.025	34.74
362.237	25.32
362.448	15.87
362.659	22.84
362.871	16.12
363.082	10.85
363.293	9.38
363.504	21.13
363.716	22.3
363.927	20.89
364.138	1.25
364.349	4.39
364.56	3
364.772	-0.83
364.983	-3.88
365.194	10.87
365.405	17.88
365.616	26.24
365.827	23.69
366.038	25.29
366.25	20.08
366.461	12.3
366.672	16.33
366.883	34.19
367.094	31.7
367.305	41.84
367.516	40.51
367.727	28.19
367.938	25.76
368.149	26.97
368.36	17.4
368.571	17.99
368.781	18.18
368.992	2.29
369.203	6.48
369.414	11.65
369.625	23.38
369.836	28.5
370.047	28.26
370.258	29.68
370.468	26.87
370.679	12.8
370.89	-17.81
371.101	0.7
371.312	0.43
371.522	1.35
371.733	7.54
371.944	11.05
372.155	9.51
372.365	3.49
372.576	4.06
372.787	0.31
372.997	23.78
373.208	21.29
373.419	21.24
373.629	31.86
373.84	39.03
374.05	26.82
374.261	25.92
374.472	24.97
374.682	-1
374.893	11.39
375.103	21.37
375.314	25.77
375.524	30.67
375.735	52.46
375.945	44.28
376.156	31.27
376.366	18.03
376.577	22.74
376.787	12.71
376.997	19.11
377.208	23.07
377.418	20.77
377.629	20.22
377.839	24.5
378.049	16.97
378.26	19.97
378.47	26.31
378.68	19.81
378.89	16.76
379.101	14.46
379.311	14.01
379.521	7.37
379.732	6.59
379.942	1.58
380.152	1.06
380.362	1.32
380.572	4.66
380.783	3.67
380.993	24.14
381.203	29.25
381.413	31.56
381.623	33.17
381.833	50
382.043	28.14
382.253	20.7
382.463	17.29
382.674	16.31
382.884	1.52
383.094	-8.58
383.304	-13.37
383.514	-5.49
383.724	2.07
383.934	-1.34
384.144	8.02
384.353	19.41
384.563	19.97
384.773	14.95
384.983	12.27
385.193	18.23
385.403	8.43
385.613	11.11
385.823	5.22
386.033	11.68
386.242	4.41
386.452	8.48
386.662	4.2
386.872	10.49
387.082	7.88
387.291	5.22
387.501	3.79
387.711	4.2
387.921	6.07
388.13	7.21
388.34	12.96
388.55	10.46
388.759	10.99
388.969	7.76
389.179	5.13
389.388	0.5
389.598	2.88
389.807	1.71
390.017	3.04
390.227	8.26
390.436	9.62
390.646	10.38
390.855	11.12
391.065	8.46
391.274	4.47
391.484	1.95
391.693	1.71
391.903	1.77
392.112	3.81
392.322	4.91
392.531	5.75
392.74	3.35
392.95	4.03
393.159	4.14
393.369	5.07
393.578	5.3
393.787	6.92
393.997	4.97
394.206	3.85
394.415	4.1
394.625	3.91
394.834	2.8
395.043	2.46
395.252	3.32
395.462	2.53
395.671	3.49
395.88	4.82
396.089	5.54
396.298	5.33
396.508	4.48
396.717	3.6
396.926	3.07
397.135	2.72
397.344	2.56
397.553	3.34
397.762	3.82
397.971	3.51
398.181	3.85
398.39	3.43
398.599	3.32
398.808	3.19
399.017	3.78
399.226	3.97
399.435	4.51
399.644	5.02
399.853	5.06
400.062	5.09
400.27	4.9
400.479	4.5
400.688	3.76
400.897	3.77
401.106	3.41
401.315	3.39
401.524	3.73
401.733	3.78
401.941	3.82
402.15	3.93
402.359	3.57
402.568	3.72
402.777	3.69
402.985	3.54
403.194	3.43
403.403	3.64
403.612	3.3
403.82	3.37
404.029	3.2
404.238	3.19
404.446	3.32
404.655	3.32
404.864	3.18
405.072	3.26
405.281	3.24
405.489	2.96
405.698	3.02
405.906	3.06
406.115	3.05
406.324	2.98
406.532	3.17
406.741	3.14
406.949	3.3
407.158	3.32
407.366	3.35
407.574	3.25
407.783	3.23
407.991	2.94
408.2	2.86
408.408	2.75
408.617	2.82
408.825	2.85
409.033	3.07
409.242	3.21
409.45	3.31
409.658	3.23
409.867	3.14
410.075	2.96
410.283	2.86
410.491	2.75
410.7	2.72
410.908	2.82
411.116	2.99
411.324	2.97
411.533	3.02
411.741	3
411.949	2.91
412.157	2.76
412.365	2.65
412.573	2.69
412.781	2.7
412.99	2.76
413.198	2.85
413.406	2.94
413.614	2.93
413.822	3.09
414.03	2.98
414.238	2.93
414.446	3.01
414.654	2.87
414.862	2.78
415.07	2.74
415.278	2.68
415.486	2.61
415.694	2.79
415.902	2.69
416.109	2.78
416.317	2.82
416.525	2.72
416.733	2.63
416.941	2.75
417.149	2.7
417.357	2.64
417.564	2.5
417.772	2.36
417.98	2.29
418.188	2.27
418.395	2.11
418.603	2.36
418.811	2.53
419.019	2.58
419.226	2.73
419.434	2.83
419.642	2.68
419.849	2.73
420.057	2.5
420.265	2.37
420.472	2.36
420.68	2.46
420.887	2.43
421.095	2.57
421.302	2.71
421.51	2.76
421.717	2.74
421.925	2.68
422.132	2.73
422.34	2.48
422.547	2.35
422.755	2.4
422.962	2.46
423.17	2.37
423.377	2.52
423.585	2.74
423.792	2.63
423.999	2.47
424.207	2.5
424.414	2.33
424.621	2.29
424.829	2.5
425.036	2.71
425.243	2.77
425.451	2.79
425.658	2.76
425.865	2.51
426.072	2.31
426.28	2.33
426.487	2.49
426.694	2.41
426.901	2.4
427.108	2.32
427.315	2.43
427.523	2.49
427.73	2.53
427.937	2.55
428.144	2.59
428.351	2.3
428.558	2.37
428.765	2.37
428.972	2.43
429.179	2.49
429.386	2.62
429.593	2.53
429.8	2.55
430.007	2.7
430.214	2.8
430.421	2.73
430.628	2.59
430.835	2.57
431.042	2.49
431.249	2.55
431.456	2.52
431.662	2.73
431.869	2.86
432.076	2.94
432.283	2.95
432.49	3.04
432.697	2.84
432.903	2.66
433.11	2.56
433.317	2.49
433.524	2.57
433.73	2.56
433.937	2.5
434.144	2.49
434.35	2.53
434.557	2.42
434.764	2.48
434.97	2.55
435.177	2.59
435.384	2.44
435.59	2.49
435.797	2.56
436.003	2.62
436.21	2.56
436.416	2.51
436.623	2.51
436.829	2.57
437.036	2.55
437.242	2.63
437.449	2.82
437.655	2.97
437.862	2.97
438.068	2.91
438.275	2.91
438.481	2.85
438.687	2.66
438.894	2.63
439.1	2.62
439.307	2.67
439.513	2.73
439.719	2.74
439.926	2.64
440.132	2.7
440.338	2.71
440.544	2.7
440.751	2.59
440.957	2.68
441.163	2.68
441.369	2.68
441.575	2.62
441.782	2.78
441.988	2.73
442.194	2.7
442.4	2.61
442.606	2.81
442.812	2.83
443.018	2.89
443.224	3.04
443.431	3.01
443.637	2.91
443.843	2.84
444.049	2.86
444.255	2.8
444.461	2.92
444.667	2.77
444.873	2.72
445.079	2.63
445.284	2.57
445.49	2.47
445.696	2.5
445.902	2.63
446.108	2.56
446.314	2.61
446.52	2.73
446.726	2.84
446.931	2.76
447.137	2.86
447.343	2.88
447.549	2.77
447.755	2.71
447.96	2.87
448.166	2.84
448.372	2.81
448.578	2.95
448.783	3.01
448.989	2.91
449.195	2.91
449.4	2.92
449.606	2.83
449.812	2.78
450.017	2.82
450.223	2.9
450.428	2.93
450.634	2.98
450.84	3.15
451.045	3.11
451.251	3.12
451.456	3.11
451.662	3.06
451.867	2.93
452.073	2.91
452.278	2.92
452.483	3.06
452.689	3.13
452.894	3.08
453.1	3.07
453.305	3.01
453.51	2.89
453.716	2.75
453.921	2.89
454.127	2.97
454.332	2.83
454.537	2.82
454.742	2.96
454.948	2.83
455.153	2.81
455.358	2.95
455.563	2.97
455.769	2.78
455.974	2.78
456.179	2.67
456.384	2.56
456.589	2.59
456.795	2.7
457	2.81
457.205	2.98
457.41	3.06
457.615	3.06
457.82	3.08
458.025	2.97
458.23	2.91
458.435	2.88
458.64	2.79
458.845	2.85
459.05	2.95
459.255	3
459.46	3.13
459.665	3.24
459.87	3.15
460.075	3.08
460.28	3
460.485	2.96
460.69	2.93
460.895	2.95
461.099	2.86
461.304	2.91
461.509	2.89
461.714	2.87
461.919	2.84
462.123	2.95
462.328	3.01
462.533	2.99
462.738	3.02
462.942	3.08
463.147	3.19
463.352	3.21
463.556	3.21
463.761	3.08
463.966	3.08
464.17	3.05
464.375	2.95
464.58	2.97
464.784	3.05
464.989	2.98
465.193	2.98
465.398	3.05
465.602	3.14
465.807	3.22
466.011	3.33
466.216	3.2
466.42	3.21
466.625	3.21
466.829	3.22
467.034	3.29
467.238	3.39
467.443	3.37
467.647	3.25
467.851	3.23
468.056	3.13
468.26	3.13
468.464	3.15
468.669	3.29
468.873	3.33
