Data from Ofav_PS_Phys_358_Reflection_2.txt Node
Date: Thu Jul 29 18:25:14 EDT 2021
User: USUARIO
Spectrometer: FLMT01687
Trigger mode: 0
Integration Time (sec): 9.010000E-1
Scans to average: 2
Electric dark correction enabled: true
Nonlinearity correction enabled: false
Boxcar width: 2
XAxis mode: Wavelengths
Number of Pixels in Spectrum: 3648
>>>>>Begin Spectral Data<<<<<
179.494	330.16
179.716	391.44
179.937	297.77
180.158	-2063.28
180.38	-123.52
180.601	-719.16
180.823	-109.39
181.044	7.45
181.265	67.16
181.486	-124.29
181.708	135.03
181.929	79.78
182.15	1180.95
182.372	-100.39
182.593	-2.05
182.814	-3.99
183.035	-402.75
183.257	22.82
183.478	-11.84
183.699	24.99
183.92	12.75
184.141	17.49
184.363	19.88
184.584	34.38
184.805	22.05
185.026	31
185.247	25.64
185.468	19.17
185.689	-16.62
185.91	53.71
186.132	79.92
186.353	90.03
186.574	86.53
186.795	84.48
187.016	45.03
187.237	23.05
187.458	-4.31
187.679	-6.56
187.9	4.99
188.121	7.93
188.342	38.84
188.563	47.55
188.784	60.26
189.005	56.82
189.226	52.62
189.447	43
189.667	22.26
189.888	13.29
190.109	37.99
190.33	40.68
190.551	53.53
190.772	75.31
190.993	53.04
191.214	45.13
191.434	36.7
191.655	46.72
191.876	43.74
192.097	32.04
192.318	51.47
192.538	49.42
192.759	33.79
192.98	41.53
193.201	57.76
193.421	22.89
193.642	29.44
193.863	17.77
194.083	-10.34
194.304	-16
194.525	40.2
194.745	38.59
194.966	27.53
195.187	9.82
195.407	-30.97
195.628	-122.44
195.848	-76.95
196.069	-30.41
196.29	-19.81
196.51	0.5
196.731	12.37
196.951	5.85
197.172	-40.78
197.392	1.28
197.613	-17.11
197.833	-9.54
198.054	3.46
198.274	22.4
198.495	15.35
198.715	18.91
198.936	38.44
199.156	21.56
199.377	49.94
199.597	94.56
199.817	98.75
200.038	51.33
200.258	55
200.479	38.23
200.699	-13.54
200.919	13.11
201.14	31.54
201.36	37
201.58	34.67
201.801	41.45
202.021	52.46
202.241	58.56
202.461	53.64
202.682	45.68
202.902	60.63
203.122	28.3
203.342	31.04
203.563	34.54
203.783	31.36
204.003	-2.19
204.223	-25.8
204.443	-0.11
204.663	16.48
204.884	31.75
205.104	42.05
205.324	44.54
205.544	56.3
205.764	30.32
205.984	46.59
206.204	44.44
206.424	46.37
206.644	35.8
206.864	45.89
207.084	23.95
207.304	57.32
207.525	46.02
207.745	20.55
207.964	46.98
208.184	25.8
208.404	-11.04
208.624	11.03
208.844	5.86
209.064	-16.68
209.284	-0.36
209.504	4.92
209.724	36.62
209.944	54.56
210.164	60.48
210.384	58.58
210.604	61.7
210.823	23.22
211.043	2.83
211.263	21.77
211.483	9.88
211.703	-5.02
211.922	23.69
212.142	44.66
212.362	34.32
212.582	31.32
212.801	52.95
213.021	22.85
213.241	3.12
213.461	-3.2
213.68	-26.93
213.9	-47.51
214.12	-7.52
214.339	-6.21
214.559	-3.47
214.779	13.92
214.998	18.58
215.218	-29.39
215.438	-1.66
215.657	6.84
215.877	12.03
216.096	-4.83
216.316	21.56
216.535	-10.38
216.755	-51.75
216.974	-60.17
217.194	-52.79
217.413	-51.92
217.633	-11.23
217.852	-13.01
218.072	-7.14
218.291	-3.54
218.511	21.99
218.73	18.25
218.95	14.35
219.169	20.82
219.389	31.4
219.608	25.77
219.827	17.14
220.047	24.75
220.266	5.91
220.485	8.74
220.705	9.07
220.924	-2.14
221.143	-0.9
221.363	-12.52
221.582	-29.1
221.801	-81.02
222.021	-59.12
222.24	-51.55
222.459	-8.13
222.678	12.01
222.897	12.82
223.117	29.79
223.336	58.98
223.555	54.31
223.774	76.82
223.993	60.9
224.213	52.62
224.432	43.42
224.651	52.34
224.87	35.65
225.089	46.97
225.308	49.62
225.527	63.76
225.746	37.44
225.965	52.71
226.184	41.11
226.404	22.77
226.623	17.87
226.842	27.34
227.061	31.46
227.28	55.82
227.499	79.26
227.718	74.11
227.936	46.3
228.155	42.42
228.374	-12.79
228.593	9.44
228.812	8.18
229.031	19.39
229.25	0.95
229.469	23.99
229.688	12.63
229.907	33.44
230.125	32.96
230.344	42.2
230.563	30.04
230.782	31.04
231.001	-17.59
231.22	-12.05
231.438	1.48
231.657	8.94
231.876	16.49
232.095	15.39
232.313	14.88
232.532	4
232.751	2.26
232.969	7.5
233.188	17.04
233.407	5.96
233.625	19.36
233.844	26.24
234.063	20.67
234.281	-5.26
234.5	-1.31
234.719	17.94
234.937	-5.71
235.156	-21.85
235.374	26.82
235.593	28
235.811	-2.02
236.03	17.2
236.249	18.15
236.467	18.79
236.686	22.12
236.904	8.24
237.123	13.07
237.341	-9.3
237.559	-8.71
237.778	-14.4
237.996	27.01
238.215	39.31
238.433	55.8
238.652	55.12
238.87	49.37
239.088	46.45
239.307	29.22
239.525	22.28
239.743	19.4
239.962	23.77
240.18	21.9
240.398	26.23
240.617	23.43
240.835	2.83
241.053	17.48
241.271	12.61
241.49	7.27
241.708	20.77
241.926	32.05
242.144	10.59
242.363	9.17
242.581	2.96
242.799	-9.05
243.017	-9.66
243.235	-18.26
243.453	-3.23
243.672	0.86
243.89	-5.78
244.108	13.6
244.326	37.65
244.544	8.87
244.762	23.98
244.98	37.42
245.198	32.32
245.416	33.07
245.634	58.53
245.852	38.38
246.07	56.85
246.288	44.11
246.506	39.69
246.724	33.11
246.942	33.77
247.16	30.45
247.378	25.8
247.596	34.59
247.814	34.84
248.032	31.58
248.25	17.51
248.468	27.97
248.685	11.38
248.903	12.4
249.121	9.9
249.339	-10.39
249.557	-10.89
249.775	-3.61
249.992	-12.28
250.21	-1.3
250.428	40.95
250.646	44.53
250.863	47.19
251.081	40.43
251.299	52.59
251.517	31.23
251.734	32.14
251.952	15.91
252.17	27.79
252.387	15.54
252.605	25.58
252.823	32.74
253.04	49.68
253.258	58.23
253.475	49.78
253.693	40.55
253.911	43.7
254.128	47.9
254.346	33.29
254.563	39.34
254.781	27.6
254.998	37.58
255.216	2.62
255.433	14.39
255.651	11.36
255.868	8.48
256.086	-1.4
256.303	18.3
256.521	19.15
256.738	13.2
256.956	27.72
257.173	33.79
257.39	34.35
257.608	22.29
257.825	43.53
258.043	21.91
258.26	11.96
258.477	-4.77
258.695	-12.57
258.912	-37.37
259.129	-25.92
259.346	-34.44
259.564	-58.24
259.781	-23.94
259.998	-5.15
260.216	17.8
260.433	29.39
260.65	27.22
260.867	29.57
261.084	28.1
261.302	-5.41
261.519	-21.38
261.736	-5.89
261.953	-8.89
262.17	4.41
262.387	17.47
262.604	1.53
262.822	4.98
263.039	2.89
263.256	-17.25
263.473	-11.29
263.69	-18
263.907	-1.41
264.124	8.98
264.341	15.39
264.558	-10.87
264.775	14.77
264.992	19.07
265.209	-7.85
265.426	-11.62
265.643	6.25
265.86	-1.69
266.077	-9.78
266.294	8.28
266.51	2.87
266.727	22.37
266.944	39.21
267.161	-1.96
267.378	-6.27
267.595	15
267.812	-14.72
268.028	-50.42
268.245	9.57
268.462	-0.54
268.679	-6.74
268.896	-10.38
269.112	-2.31
269.329	-8.93
269.546	0.09
269.763	-5.63
269.979	-1.1
270.196	4.02
270.413	7.85
270.629	13.67
270.846	21.52
271.063	15.99
271.279	26.09
271.496	6.59
271.712	-3.32
271.929	-5.21
272.146	16.94
272.362	10.31
272.579	40.18
272.795	67.1
273.012	57.13
273.228	38.19
273.445	46.64
273.661	44.23
273.878	6.47
274.094	12.85
274.311	7.95
274.527	1.05
274.744	2.85
274.96	22.52
275.177	17.21
275.393	30.34
275.609	28.52
275.826	21.68
276.042	11.36
276.259	-7.95
276.475	-2.49
276.691	11.77
276.908	25.65
277.124	21.86
277.34	42.68
277.557	31.63
277.773	27.82
277.989	12.86
278.205	25.66
278.422	18.14
278.638	11.88
278.854	27.25
279.07	50.23
279.286	36.44
279.503	45.22
279.719	62.64
279.935	60.2
280.151	24.8
280.367	36.39
280.583	38.57
280.799	16.91
281.016	35.64
281.232	44.02
281.448	41.97
281.664	47.29
281.88	31.66
282.096	17.87
282.312	24.09
282.528	39.3
282.744	42.18
282.96	48.59
283.176	28.65
283.392	25.95
283.608	9.81
283.824	-5.34
284.04	2.45
284.256	12.32
284.471	15.83
284.687	23.45
284.903	34.75
285.119	32.89
285.335	28.14
285.551	29.02
285.767	34.34
285.982	26.56
286.198	20.64
286.414	18.45
286.63	22.49
286.846	18.07
287.061	14.17
287.277	23.26
287.493	27.82
287.709	12.49
287.924	25.07
288.14	32.23
288.356	33.35
288.571	23.24
288.787	23.81
289.003	14.35
289.218	-1.05
289.434	11.63
289.65	42.26
289.865	48.16
290.081	29.26
290.296	45
290.512	15.54
290.727	-3.27
290.943	8.83
291.159	13.02
291.374	26.06
291.59	29.33
291.805	24.68
292.021	16.7
292.236	24.47
292.451	-7.64
292.667	12.22
292.882	-7.08
293.098	3.54
293.313	1.28
293.529	17.67
293.744	-4.29
293.959	18.6
294.175	30.89
294.39	34.1
294.605	39.26
294.821	47.48
295.036	49.58
295.251	47.23
295.467	53
295.682	49.68
295.897	46.75
296.112	29.98
296.328	12.3
296.543	-9.16
296.758	-26.55
296.973	-26.46
297.188	-17.16
297.404	-11.4
297.619	-5.06
297.834	1.99
298.049	7.53
298.264	11.34
298.479	4.88
298.694	8.36
298.909	10.39
299.125	4.68
299.34	16.71
299.555	31.25
299.77	33.45
299.985	16.07
300.2	13.88
300.415	-10.11
300.63	15.18
300.845	-1.65
301.06	3.74
301.275	-5.45
301.49	-18.16
301.704	-56.45
301.919	-17.8
302.134	1.24
302.349	13.75
302.564	22.38
302.779	12.49
302.994	11.08
303.209	4.9
303.423	15.43
303.638	19.12
303.853	29.76
304.068	53.73
304.283	43.31
304.497	28.54
304.712	9.76
304.927	5.17
305.142	-40.4
305.356	-38.28
305.571	-22.73
305.786	10.57
306	3.57
306.215	27.04
306.43	20.12
306.644	17.07
306.859	43.14
307.074	23.55
307.288	8.59
307.503	17.22
307.717	18.82
307.932	-9.76
308.147	-8.23
308.361	0.13
308.576	-6.69
308.79	-9.22
309.005	29.26
309.219	41.92
309.434	50.05
309.648	41.86
309.863	31.84
310.077	18.09
310.292	14.79
310.506	6.12
310.72	18.28
310.935	16.15
311.149	9.46
311.364	13.29
311.578	7.55
311.792	-13.15
312.007	-15.25
312.221	-28.98
312.435	-31.63
312.649	-32.59
312.864	-210.95
313.078	-118.26
313.292	-76.81
313.507	-34.22
313.721	-19.81
313.935	26.09
314.149	27.21
314.363	29.07
314.578	16.26
314.792	27.99
315.006	21.79
315.22	15.69
315.434	13.83
315.648	11.95
315.862	8.11
316.077	7.72
316.291	3.62
316.505	18.35
316.719	33.24
316.933	28.77
317.147	29.19
317.361	23.49
317.575	-10.27
317.789	-34.75
318.003	-20.73
318.217	4.13
318.431	2.33
318.645	6.22
318.859	21.83
319.073	10.37
319.287	-20.36
319.5	-18.95
319.714	-1.89
319.928	-10.6
320.142	17.12
320.356	33.15
320.57	41.11
320.784	30.22
320.997	31.6
321.211	23.29
321.425	20.02
321.639	10.24
321.853	27.95
322.066	10.14
322.28	7.76
322.494	4.11
322.707	15.83
322.921	-6.04
323.135	-8.97
323.349	-11.7
323.562	-23.88
323.776	-25.44
323.989	-15.92
324.203	3.59
324.417	0.11
324.63	8.1
324.844	10.98
325.057	15.88
325.271	9.77
325.485	17.74
325.698	21.17
325.912	13.65
326.125	4.93
326.339	12.29
326.552	19.33
326.766	27.11
326.979	51.6
327.193	57.39
327.406	50.34
327.619	28.77
327.833	20.89
328.046	-2.86
328.26	14.01
328.473	7.78
328.686	7.03
328.9	8.72
329.113	-2.7
329.326	-19.4
329.54	-22.87
329.753	-24.28
329.966	-4.89
330.179	8.48
330.393	7.36
330.606	22.3
330.819	48.53
331.032	32.61
331.246	35.21
331.459	27.2
331.672	15.14
331.885	7.98
332.098	29.46
332.311	49.65
332.525	45.94
332.738	35.46
332.951	17.62
333.164	10.23
333.377	-25.43
333.59	-12.68
333.803	8.24
334.016	17.52
334.229	0.55
334.442	13.68
334.655	11.86
334.868	-2.35
335.081	16.99
335.294	28
335.507	32.89
335.72	33.47
335.933	22.73
336.146	9.09
336.359	9.41
336.572	-5.48
336.785	-2.76
336.997	11.28
337.21	16.24
337.423	26.77
337.636	34.13
337.849	29.69
338.062	25.77
338.274	19.75
338.487	13.9
338.7	-5.76
338.913	-8.52
339.125	13.15
339.338	8.65
339.551	10.83
339.763	-0.29
339.976	-6.29
340.189	-10.77
340.402	-1.09
340.614	-6.35
340.827	24.06
341.039	29.12
341.252	17.78
341.465	13.64
341.677	26.79
341.89	19.9
342.102	11.27
342.315	22.08
342.527	13.34
342.74	-4.64
342.952	11.74
343.165	29.65
343.377	14.01
343.59	17.82
343.802	20.16
344.015	6.58
344.227	-12.23
344.44	-3.34
344.652	2.13
344.864	-19.84
345.077	10.29
345.289	7.37
345.502	-0.3
345.714	-12.5
345.926	6.75
346.139	-29.96
346.351	-13.8
346.563	3.95
346.775	9.51
346.988	5.44
347.2	14.92
347.412	-2.6
347.624	-0.05
347.837	0.88
348.049	-3.79
348.261	6.31
348.473	21.76
348.685	13.86
348.897	21.32
349.11	26.95
349.322	14.57
349.534	19.83
349.746	24.25
349.958	12.63
350.17	9.22
350.382	24.76
350.594	7.5
350.806	31.36
351.018	26.52
351.23	39.19
351.442	13.91
351.654	30.01
351.866	-8.18
352.078	6.04
352.29	-5.71
352.502	14.15
352.714	6.96
352.926	16.22
353.138	14.9
353.35	21.08
353.561	-2.3
353.773	14.33
353.985	18.72
354.197	22.21
354.409	15.46
354.621	16.5
354.832	-4.56
355.044	1.63
355.256	15.35
355.468	8.85
355.679	32.29
355.891	40.74
356.103	35.84
356.314	27.01
356.526	31.86
356.738	22.82
356.949	15.76
357.161	15.21
357.373	20.41
357.584	16.44
357.796	22.44
358.008	16.76
358.219	16.82
358.431	12.76
358.642	13.82
358.854	17.07
359.065	22.67
359.277	20.75
359.488	18.59
359.7	24.75
359.911	17.01
360.123	12.56
360.334	23.88
360.546	26.16
360.757	16.33
360.969	29.5
361.18	37.6
361.391	20.22
361.603	16.29
361.814	23.2
362.025	1.45
362.237	6.49
362.448	12.34
362.659	2.08
362.871	0.09
363.082	11.12
363.293	1.8
363.504	-0.4
363.716	5.8
363.927	6.65
364.138	-1.16
364.349	3.26
364.56	7.67
364.772	1.19
364.983	11.95
365.194	12.09
365.405	17.46
365.616	9.64
365.827	18.64
366.038	7.81
366.25	-6.94
366.461	-28.41
366.672	-31.21
366.883	-23.2
367.094	-32.4
367.305	4.47
367.516	16.8
367.727	20.15
367.938	7.32
368.149	25.78
368.36	29.47
368.571	28.92
368.781	19.27
368.992	13.74
369.203	3.59
369.414	-10.9
369.625	-4.4
369.836	5.28
370.047	8.43
370.258	8.43
370.468	5.24
370.679	-18.28
370.89	-41.77
371.101	-28.24
371.312	-31.96
371.522	-19.75
371.733	-4.06
371.944	3.3
372.155	-18.7
372.365	-25.12
372.576	-25.63
372.787	-22.5
372.997	-10.21
373.208	7.75
373.419	7.89
373.629	17.5
373.84	31.13
374.05	17.19
374.261	22.77
374.472	33.59
374.682	16.42
374.893	11.6
375.103	33.42
375.314	24.14
375.524	19.3
375.735	28.3
375.945	27.72
376.156	15.11
376.366	2.05
376.577	4.53
376.787	1.67
376.997	7.3
377.208	0.79
377.418	14.71
377.629	11.37
377.839	20.41
378.049	9.96
378.26	27.47
378.47	32.68
378.68	31.74
378.89	24.45
379.101	28
379.311	11.98
379.521	3.82
379.732	-5.56
379.942	-8.55
380.152	-11.5
380.362	-5.24
380.572	-4.71
380.783	0.54
380.993	2.58
381.203	-0.62
381.413	-14.34
381.623	-13.34
381.833	10.42
382.043	17.42
382.253	25.64
382.463	33.61
382.674	37.52
382.884	25.47
383.094	9.92
383.304	6.85
383.514	-1.43
383.724	3.28
383.934	-0.09
384.144	7.02
384.353	11.39
384.563	19.52
384.773	14.09
384.983	13.38
385.193	13.99
385.403	0.75
385.613	1.28
385.823	-2.01
386.033	-2.53
386.242	-2.43
386.452	1.13
386.662	-2.15
386.872	-2.11
387.082	-1.44
387.291	-8.16
387.501	-4.98
387.711	-4.17
387.921	-2.54
388.13	-3.39
388.34	4.4
388.55	5.5
388.759	4.07
388.969	7.01
389.179	5.55
389.388	6.15
389.598	8.24
389.807	9.65
390.017	9.24
390.227	12.64
390.436	11.32
390.646	9.76
390.855	10.35
391.065	8.09
391.274	7.1
391.484	4.89
391.693	3.88
391.903	3.76
392.112	5.45
392.322	4.52
392.531	4.02
392.74	3.79
392.95	3.69
393.159	3.99
393.369	4.87
393.578	6.28
393.787	6.59
393.997	5.63
394.206	5.7
394.415	6.74
394.625	6.43
394.834	5.91
395.043	5.87
395.252	7.38
395.462	7.07
395.671	7.15
395.88	8.39
396.089	8.6
396.298	7.38
396.508	7.33
396.717	7.02
396.926	6.68
397.135	6.34
397.344	6.46
397.553	6.1
397.762	6.35
397.971	6.18
398.181	6.58
398.39	6.11
398.599	6.39
398.808	6.42
399.017	7.21
399.226	7.23
399.435	7.61
399.644	7.78
399.853	7.99
400.062	7.87
400.27	8.08
400.479	7.84
400.688	7.74
400.897	7.76
401.106	7.53
401.315	6.89
401.524	7.2
401.733	7.12
401.941	7.11
402.15	7.18
402.359	7.35
402.568	6.97
402.777	6.82
402.985	6.75
403.194	6.6
403.403	6.59
403.612	6.65
403.82	6.63
404.029	6.56
404.238	6.44
404.446	6.71
404.655	6.65
404.864	6.67
405.072	6.45
405.281	6.51
405.489	6.26
405.698	6.22
405.906	6.3
406.115	6.39
406.324	6.22
406.532	6.23
406.741	6.2
406.949	6.12
407.158	6.12
407.366	6.19
407.574	5.99
407.783	6.09
407.991	5.94
408.2	6.03
408.408	5.85
408.617	6.03
408.825	6.03
409.033	6.25
409.242	6.29
409.45	6.44
409.658	6.42
409.867	6.35
410.075	6.14
410.283	6.06
410.491	6.02
410.7	6.05
410.908	6.14
411.116	6.26
411.324	6.24
411.533	6.29
411.741	6.39
411.949	6.35
412.157	6.25
412.365	6.17
412.573	6.14
412.781	6.02
412.99	5.99
413.198	6.03
413.406	6.06
413.614	6.05
413.822	5.89
414.03	5.84
414.238	5.81
414.446	5.85
414.654	5.83
414.862	6.05
415.07	5.85
415.278	5.81
415.486	5.72
415.694	5.74
415.902	5.68
416.109	5.85
416.317	5.92
416.525	5.88
416.733	5.97
416.941	5.88
417.149	5.8
417.357	5.58
417.564	5.61
417.772	5.41
417.98	5.45
418.188	5.37
418.395	5.35
418.603	5.23
418.811	5.28
419.019	5.24
419.226	5.61
419.434	5.67
419.642	5.66
419.849	5.59
420.057	5.45
420.265	5.13
420.472	5.1
420.68	5.24
420.887	5.24
421.095	5.44
421.302	5.48
421.51	5.6
421.717	5.59
421.925	5.76
422.132	5.77
422.34	5.56
422.547	5.35
422.755	5.42
422.962	5.25
423.17	5.02
423.377	5.3
423.585	5.52
423.792	5.33
423.999	5.36
424.207	5.45
424.414	5.26
424.621	5.24
424.829	5.37
425.036	5.18
425.243	5.25
425.451	5.25
425.658	5.3
425.865	5.03
426.072	5.19
426.28	5.26
426.487	5.3
426.694	5.23
426.901	5.16
427.108	5.11
427.315	4.97
427.523	5.05
427.73	4.93
427.937	5.15
428.144	5.19
428.351	5.13
428.558	5.25
428.765	5.42
428.972	5.54
429.179	5.61
429.386	5.6
429.593	5.42
429.8	5.41
430.007	5.43
430.214	5.52
430.421	5.71
430.628	5.67
430.835	5.67
431.042	5.4
431.249	5.43
431.456	5.28
431.662	5.59
431.869	5.6
432.076	5.84
432.283	5.81
432.49	5.91
432.697	5.93
432.903	5.82
433.11	5.78
433.317	5.72
433.524	5.73
433.73	5.51
433.937	5.73
434.144	5.59
434.35	5.76
434.557	5.7
434.764	5.78
434.97	5.7
435.177	5.96
435.384	5.77
435.59	5.78
435.797	5.72
436.003	5.66
436.21	5.49
436.416	5.52
436.623	5.65
436.829	5.74
437.036	5.8
437.242	5.96
437.449	6.03
437.655	6.09
437.862	6.21
438.068	6.14
438.275	6.07
438.481	6.04
438.687	5.91
438.894	5.91
439.1	6.01
439.307	6.07
439.513	6.09
439.719	6.04
439.926	5.88
440.132	5.95
440.338	5.98
440.544	5.93
440.751	6.04
440.957	6.18
441.163	6.08
441.369	6.08
441.575	6.08
441.782	6.05
441.988	6.03
442.194	6.13
442.4	6.16
442.606	6.38
442.812	6.38
443.018	6.46
443.224	6.49
443.431	6.38
443.637	6.33
443.843	6.37
444.049	6.39
444.255	6.23
444.461	6.32
444.667	6.23
444.873	6.11
445.079	6.07
445.284	6.16
445.49	6.1
445.696	6.18
445.902	6.28
446.108	6.17
446.314	6.25
446.52	6.39
446.726	6.25
446.931	6.4
447.137	6.44
447.343	6.42
447.549	6.38
447.755	6.46
447.96	6.42
448.166	6.54
448.372	6.5
448.578	6.53
448.783	6.56
448.989	6.61
449.195	6.54
449.4	6.66
449.606	6.61
449.812	6.65
450.017	6.55
450.223	6.59
450.428	6.5
450.634	6.64
450.84	6.71
451.045	6.74
451.251	6.84
451.456	6.98
451.662	6.95
451.867	6.92
452.073	6.98
452.278	6.89
452.483	6.93
452.689	7.01
452.894	6.85
453.1	6.84
453.305	6.93
453.51	6.84
453.716	6.68
453.921	6.89
454.127	6.91
454.332	6.76
454.537	6.69
454.742	6.74
454.948	6.57
455.153	6.57
455.358	6.73
455.563	6.82
455.769	6.82
455.974	6.99
456.179	6.94
456.384	6.9
456.589	7
456.795	7.08
457	7.07
457.205	7.25
457.41	7.26
457.615	7.07
457.82	7.11
458.025	7.07
458.23	6.99
458.435	6.96
458.64	7.07
458.845	7.03
459.05	7.07
459.255	7.1
459.46	7.24
459.665	7.37
459.87	7.34
460.075	7.43
460.28	7.29
460.485	7.24
460.69	7.16
460.895	7.19
461.099	7.17
461.304	7.29
461.509	7.28
461.714	7.24
461.919	7.25
462.123	7.21
462.328	7.25
462.533	7.3
462.738	7.35
462.942	7.35
463.147	7.5
463.352	7.5
463.556	7.56
463.761	7.56
463.966	7.61
464.17	7.55
464.375	7.52
464.58	7.44
464.784	7.5
464.989	7.45
465.193	7.53
465.398	7.7
465.602	7.84
465.807	7.82
466.011	7.96
466.216	7.91
466.42	7.81
466.625	7.86
466.829	7.87
467.034	7.85
467.238	7.87
467.443	7.91
467.647	7.8
467.851	7.89
468.056	7.82
468.26	7.78
468.464	7.81
468.669	7.97
