Data from Ofav_PS_Phys_9AZ9_Reflection_3.txt Node
Date: Thu Jul 29 18:23:44 EDT 2021
User: USUARIO
Spectrometer: FLMT01687
Trigger mode: 0
Integration Time (sec): 9.010000E-1
Scans to average: 2
Electric dark correction enabled: true
Nonlinearity correction enabled: false
Boxcar width: 2
XAxis mode: Wavelengths
Number of Pixels in Spectrum: 3648
>>>>>Begin Spectral Data<<<<<
179.494	44.13
179.716	35.59
179.937	18.4
180.158	271.75
180.38	88.35
180.601	-383.99
180.823	-185.66
181.044	-130.19
181.265	-114.06
181.486	-833.33
181.708	139.77
181.929	380.06
182.15	13719.05
182.372	-136.55
182.593	-16.78
182.814	10.71
183.035	-119.93
183.257	107.45
183.478	57.75
183.699	60.59
183.92	38.03
184.141	62.5
184.363	38.43
184.584	55.87
184.805	48.7
185.026	71.34
185.247	42.37
185.468	43.25
185.689	44.03
185.91	75.77
186.132	95.61
186.353	84.87
186.574	75.69
186.795	83.36
187.016	61.48
187.237	33.3
187.458	14.02
187.679	24.3
187.9	-4.81
188.121	-13.26
188.342	6.76
188.563	41.85
188.784	39.2
189.005	45.78
189.226	62.99
189.447	74.51
189.667	65.1
189.888	61.83
190.109	53.94
190.33	-7.7
190.551	0.46
190.772	57.07
190.993	64.24
191.214	71.92
191.434	77.51
191.655	64.59
191.876	55.79
192.097	26.25
192.318	43.31
192.538	34.7
192.759	44.15
192.98	43.7
193.201	68.68
193.421	70.08
193.642	57.99
193.863	43.11
194.083	8.14
194.304	-6.06
194.525	-6.74
194.745	-12.59
194.966	-12.25
195.187	-20.98
195.407	-39.12
195.628	-78.27
195.848	-17.59
196.069	28.29
196.29	43.09
196.51	57.21
196.731	50.51
196.951	47.22
197.172	36.31
197.392	30.96
197.613	23.67
197.833	15.08
198.054	-1.07
198.274	10.98
198.495	15.97
198.715	5.85
198.936	22.75
199.156	43.35
199.377	40.27
199.597	54.91
199.817	78
200.038	63.96
200.258	50.31
200.479	25.06
200.699	-3.32
200.919	38.76
201.14	39.94
201.36	51.83
201.58	59.21
201.801	68.31
202.021	69.22
202.241	80.32
202.461	73.77
202.682	74.27
202.902	77.86
203.122	47.16
203.342	58.69
203.563	58.38
203.783	44.99
204.003	11.38
204.223	-21.73
204.443	-37.58
204.663	-22.28
204.884	9.12
205.104	59.56
205.324	59.06
205.544	81.58
205.764	77.44
205.984	96.04
206.204	95.1
206.424	92.26
206.644	90.03
206.864	101.97
207.084	56.74
207.304	45.63
207.525	51.75
207.745	53.34
207.964	45.75
208.184	84.89
208.404	64.75
208.624	58.26
208.844	67.78
209.064	83.78
209.284	77.43
209.504	76.25
209.724	81.3
209.944	79.04
210.164	67.11
210.384	46.93
210.604	50.22
210.823	54.79
211.043	54.51
211.263	71.18
211.483	78.03
211.703	68.21
211.922	59.33
212.142	63.82
212.362	54.05
212.582	66.48
212.801	61.37
213.021	49.85
213.241	47.65
213.461	32.53
213.68	-18.48
213.9	9.92
214.12	29.05
214.339	-3.18
214.559	0.94
214.779	26.8
214.998	5.16
215.218	-27.3
215.438	20.91
215.657	33.38
215.877	31.51
216.096	30.35
216.316	50.65
216.535	40.97
216.755	-15.13
216.974	-22.74
217.194	-15.93
217.413	-24.43
217.633	4.73
217.852	3.55
218.072	3.55
218.291	8.42
218.511	35.16
218.73	7.04
218.95	13.3
219.169	31.62
219.389	19.45
219.608	1.55
219.827	24.89
220.047	34.71
220.266	15.18
220.485	24.83
220.705	31.06
220.924	18.7
221.143	12.05
221.363	6.24
221.582	6.94
221.801	-43.88
222.021	-2.25
222.24	3.77
222.459	19.15
222.678	22.51
222.897	25.59
223.117	17.56
223.336	20.97
223.555	25.47
223.774	45.3
223.993	47.81
224.213	50.16
224.432	51.88
224.651	57.51
224.87	36.49
225.089	51.53
225.308	54.32
225.527	51.12
225.746	29.94
225.965	33.58
226.184	9.63
226.404	22.23
226.623	38.86
226.842	42.9
227.061	38.81
227.28	47.5
227.499	52.93
227.718	48.45
227.936	40.65
228.155	57
228.374	44.6
228.593	32.99
228.812	21.72
229.031	26.14
229.25	22.5
229.469	21.86
229.688	8.2
229.907	27.42
230.125	30.73
230.344	48.05
230.563	37.86
230.782	61.76
231.001	32.42
231.22	35.57
231.438	10.76
231.657	30.48
231.876	17.3
232.095	14.22
232.313	4.21
232.532	-0.19
232.751	-28.64
232.969	-15.39
233.188	-4.87
233.407	-8.05
233.625	11.3
233.844	32.92
234.063	33.37
234.281	24.22
234.5	35.4
234.719	20.17
234.937	6.71
235.156	-16
235.374	25.51
235.593	40.49
235.811	40.82
236.03	38.91
236.249	50.83
236.467	56.7
236.686	57.84
236.904	54.1
237.123	60.66
237.341	69.15
237.559	41.72
237.778	41.26
237.996	52.55
238.215	48.34
238.433	44.56
238.652	49.96
238.87	39.82
239.088	41.27
239.307	39.06
239.525	35.13
239.743	31.13
239.962	30.34
240.18	21.3
240.398	28.93
240.617	11.43
240.835	24.88
241.053	27.8
241.271	53.1
241.49	61.75
241.708	85.46
241.926	67.17
242.144	58.02
242.363	37.08
242.581	17.25
242.799	11.25
243.017	6.08
243.235	23.49
243.453	30.01
243.672	39.78
243.89	20.11
244.108	51.33
244.326	59.18
244.544	40.98
244.762	29.08
244.98	52.99
245.198	23.13
245.416	-0.19
245.634	4.93
245.852	31.73
246.07	22.03
246.288	30.53
246.506	31.86
246.724	47.17
246.942	39.42
247.16	39.93
247.378	30.97
247.596	33.64
247.814	20.12
248.032	7.8
248.25	7.66
248.468	15.26
248.685	6.05
248.903	15.73
249.121	27.52
249.339	9.29
249.557	15.05
249.775	21.7
249.992	-8.92
250.21	-6.36
250.428	25.02
250.646	31.46
250.863	41.9
251.081	55.89
251.299	66.43
251.517	55.87
251.734	58.41
251.952	55.63
252.17	61.77
252.387	42.04
252.605	43.63
252.823	37.49
253.04	47.68
253.258	54.04
253.475	64.93
253.693	61.93
253.911	64.54
254.128	73.63
254.346	49.57
254.563	52.7
254.781	27.7
254.998	30.23
255.216	-13.67
255.433	5.72
255.651	-0.17
255.868	12.04
256.086	1.21
256.303	19.5
256.521	23.09
256.738	22.06
256.956	35.34
257.173	41.2
257.39	56.12
257.608	51.37
257.825	71.99
258.043	51.15
258.26	50.03
258.477	35.03
258.695	14.49
258.912	6.61
259.129	26.33
259.346	46.42
259.564	47.74
259.781	57.71
259.998	30.1
260.216	38.94
260.433	30.84
260.65	31.32
260.867	48.4
261.084	55.11
261.302	35.15
261.519	31.86
261.736	34.05
261.953	11.04
262.17	25.92
262.387	22.98
262.604	8.29
262.822	6.36
263.039	31.28
263.256	5.27
263.473	20.34
263.69	27.02
263.907	35.93
264.124	25.56
264.341	53.3
264.558	36.6
264.775	30.89
264.992	31.72
265.209	14.36
265.426	13.56
265.643	31.36
265.86	38.88
266.077	43.23
266.294	58.94
266.51	48.7
266.727	47.3
266.944	54.97
267.161	50.03
267.378	34.76
267.595	37.66
267.812	33.91
268.028	9.27
268.245	13.09
268.462	12.21
268.679	20.42
268.896	8
269.112	17.97
269.329	16.98
269.546	22.44
269.763	14.8
269.979	25.96
270.196	27.1
270.413	22.23
270.629	22.18
270.846	21.27
271.063	25.28
271.279	28.55
271.496	21.32
271.712	14.31
271.929	28.49
272.146	30.63
272.362	19.74
272.579	35.93
272.795	51.75
273.012	44.83
273.228	51.72
273.445	79.26
273.661	65.29
273.878	39.7
274.094	56.62
274.311	42.87
274.527	17.99
274.744	34.32
274.96	45.59
275.177	32.15
275.393	23.23
275.609	22.36
275.826	10.09
276.042	19.59
276.259	2.7
276.475	7.09
276.691	17.75
276.908	22.16
277.124	8.71
277.34	23.04
277.557	23.2
277.773	13.47
277.989	4.91
278.205	15.46
278.422	6.72
278.638	22.73
278.854	34.62
279.07	59.54
279.286	29.18
279.503	34.4
279.719	33.02
279.935	25.56
280.151	-5.31
280.367	21.69
280.583	40.43
280.799	16.08
281.016	11.78
281.232	42.81
281.448	49.86
281.664	42.38
281.88	43.76
282.096	65.48
282.312	43.28
282.528	34.17
282.744	21.92
282.96	18.97
283.176	-6.07
283.392	9.09
283.608	12.06
283.824	22.58
284.04	18.81
284.256	23.27
284.471	14.93
284.687	17.85
284.903	-8.88
285.119	14.82
285.335	-0.62
285.551	11.48
285.767	15.58
285.982	30.25
286.198	27.59
286.414	50.1
286.63	52.15
286.846	46.34
287.061	40.21
287.277	46.35
287.493	31.14
287.709	20.76
287.924	28.39
288.14	44.07
288.356	47.1
288.571	49.24
288.787	54.12
289.003	53.19
289.218	29.12
289.434	24.37
289.65	29.81
289.865	31.35
290.081	39.72
290.296	52
290.512	59.19
290.727	57.02
290.943	46.62
291.159	35.74
291.374	49.96
291.59	44.68
291.805	38.02
292.021	37.87
292.236	47.08
292.451	17.31
292.667	13.88
292.882	3.63
293.098	3.81
293.313	-11.73
293.529	15.48
293.744	3.89
293.959	18.14
294.175	34.02
294.39	43.49
294.605	48.42
294.821	49.69
295.036	48.31
295.251	40.95
295.467	33.36
295.682	30.88
295.897	34.82
296.112	24.12
296.328	35.96
296.543	28.42
296.758	15.69
296.973	13.63
297.188	28.57
297.404	0.87
297.619	10.58
297.834	7.43
298.049	9.67
298.264	14.84
298.479	33.78
298.694	23.53
298.909	22.83
299.125	9.82
299.34	18.61
299.555	-15.28
299.77	-8.63
299.985	-34.82
300.2	0.48
300.415	-16.46
300.63	20.5
300.845	13.03
301.06	29.18
301.275	28.1
301.49	49.16
301.704	29.52
301.919	28.75
302.134	34.66
302.349	25.73
302.564	20.2
302.779	20.59
302.994	17.83
303.209	18.37
303.423	14.61
303.638	-6.88
303.853	-2.99
304.068	8.53
304.283	1.27
304.497	6.21
304.712	-17.28
304.927	-30.22
305.142	-49.81
305.356	-63.2
305.571	-37.67
305.786	2.48
306	-1.4
306.215	11.93
306.43	26.19
306.644	14.32
306.859	26.43
307.074	31.87
307.288	32.22
307.503	39.06
307.717	31.9
307.932	42.43
308.147	46.69
308.361	29.81
308.576	20.29
308.79	17.36
309.005	18.76
309.219	32.86
309.434	45.7
309.648	43.08
309.863	43.47
310.077	24.94
310.292	-1.03
310.506	-13.6
310.72	3.1
310.935	8.4
311.149	27.07
311.364	50.22
311.578	60.37
311.792	31.21
312.007	42.24
312.221	15.78
312.435	28.04
312.649	17.32
312.864	-118.97
313.078	-78.12
313.292	-75.94
313.507	-62.08
313.721	-41.82
313.935	21.36
314.149	21.84
314.363	37.92
314.578	23.69
314.792	32.47
315.006	46.9
315.22	41.15
315.434	38.31
315.648	35.13
315.862	24.23
316.077	20.42
316.291	16.03
316.505	28.5
316.719	40.83
316.933	48.98
317.147	36.72
317.361	20.95
317.575	11.96
317.789	2.01
318.003	10.92
318.217	18.27
318.431	22.65
318.645	6.41
318.859	11.35
319.073	-7.52
319.287	-11.95
319.5	-10.61
319.714	17.32
319.928	9.63
320.142	36.42
320.356	42.72
320.57	63.89
320.784	63.29
320.997	65.85
321.211	52.31
321.425	42.92
321.639	20.99
321.853	21.33
322.066	17.5
322.28	15.63
322.494	26.06
322.707	34.5
322.921	16.69
323.135	1.86
323.349	-7.1
323.562	-20.4
323.776	-20.98
323.989	-7.61
324.203	17.14
324.417	32.4
324.63	29.89
324.844	29.27
325.057	23.98
325.271	8.53
325.485	16.49
325.698	23.71
325.912	21.11
326.125	27.59
326.339	31.51
326.552	19.99
326.766	5.08
326.979	14.41
327.193	3.93
327.406	16.31
327.619	11.51
327.833	38.19
328.046	31.83
328.26	47.71
328.473	35.39
328.686	43.67
328.9	7.2
329.113	0.28
329.326	-27.47
329.54	-39.03
329.753	-16.97
329.966	4.33
330.179	14.55
330.393	17.06
330.606	22.35
330.819	18.65
331.032	23.3
331.246	13.67
331.459	-7.77
331.672	5.55
331.885	15.28
332.098	13.62
332.311	33.36
332.525	46.25
332.738	36.84
332.951	20.98
333.164	21.95
333.377	19.41
333.59	28.46
333.803	42.71
334.016	44.4
334.229	33.56
334.442	28.83
334.655	21.45
334.868	0.01
335.081	12.92
335.294	10.65
335.507	16.07
335.72	26.41
335.933	25.47
336.146	25.41
336.359	32.31
336.572	11.98
336.785	-2.15
336.997	1.81
337.21	6.31
337.423	5.13
337.636	15.56
337.849	11.96
338.062	10
338.274	8.26
338.487	12.94
338.7	5.48
338.913	15.94
339.125	13.06
339.338	14.75
339.551	22.14
339.763	25.58
339.976	25.45
340.189	45.98
340.402	42.08
340.614	25.58
340.827	25.33
341.039	18.64
341.252	15.13
341.465	26.69
341.677	32.68
341.89	18.67
342.102	27.47
342.315	23.89
342.527	11.46
342.74	-2.77
342.952	9.88
343.165	16.76
343.377	8.06
343.59	9.75
343.802	28.15
344.015	32.99
344.227	16.06
344.44	21.1
344.652	29.94
344.864	10.86
345.077	7.83
345.289	-2.67
345.502	-9.12
345.714	-11.63
345.926	10.41
346.139	-21.67
346.351	-9.55
346.563	-3.47
346.775	-5.32
346.988	-20.44
347.2	-7.47
347.412	3.16
347.624	10.67
347.837	5.74
348.049	8.78
348.261	21.3
348.473	14.6
348.685	19.15
348.897	32
349.11	34.07
349.322	39.54
349.534	50.7
349.746	44.29
349.958	39.68
350.17	33.3
350.382	34.97
350.594	23.59
350.806	30.21
351.018	27.58
351.23	25.61
351.442	9.83
351.654	18.96
351.866	3.5
352.078	20.09
352.29	22.8
352.502	34.03
352.714	35.24
352.926	46.44
353.138	62.64
353.35	55.44
353.561	40.93
353.773	39.82
353.985	41.16
354.197	37.92
354.409	29.63
354.621	21.02
354.832	17.71
355.044	6.11
355.256	1.68
355.468	-0.72
355.679	10.47
355.891	23.46
356.103	35.67
356.314	36.5
356.526	39.2
356.738	44.21
356.949	31.61
357.161	34.37
357.373	31.96
357.584	43.39
357.796	37.95
358.008	42.94
358.219	37.68
358.431	35.59
358.642	19.87
358.854	24.7
359.065	26.59
359.277	24.04
359.488	31.17
359.7	37.13
359.911	50.56
360.123	44.65
360.334	43.11
360.546	31.48
360.757	30.05
360.969	22.43
361.18	44.71
361.391	35.81
361.603	32.04
361.814	35.6
362.025	29.92
362.237	27.17
362.448	26.39
362.659	20.87
362.871	25.09
363.082	20.7
363.293	8.63
363.504	27.35
363.716	44.18
363.927	50.11
364.138	36.94
364.349	43.63
364.56	37.28
364.772	27.24
364.983	17.41
365.194	24.64
365.405	24.56
365.616	20.81
365.827	32.44
366.038	24.61
366.25	20.55
366.461	12.79
366.672	-7.77
366.883	-11.85
367.094	-6.73
367.305	9.84
367.516	16.34
367.727	31.11
367.938	37.94
368.149	35.9
368.36	31.13
368.571	29.25
368.781	21.29
368.992	-9.51
369.203	3.97
369.414	7.41
369.625	20.1
369.836	22.89
370.047	29.57
370.258	28.33
370.468	30.44
370.679	12.09
370.89	0.91
371.101	5.82
371.312	-7.41
371.522	-6.35
371.733	5.1
371.944	10.74
372.155	20.59
372.365	40.37
372.576	42.44
372.787	38.01
372.997	36.39
373.208	29.5
373.419	18.57
373.629	19.29
373.84	23.75
374.05	19.9
374.261	22.01
374.472	18.93
374.682	10.41
374.893	14.38
375.103	25.49
375.314	30.07
375.524	34.13
375.735	38.98
375.945	40.99
376.156	32.28
376.366	16.46
376.577	32.38
376.787	33.39
376.997	22.55
377.208	28.41
377.418	29.78
377.629	19.41
377.839	14.3
378.049	21.86
378.26	20.93
378.47	30.05
378.68	23.35
378.89	27.19
379.101	31.63
379.311	18.14
379.521	10.47
379.732	12.89
379.942	-2.15
380.152	-10.73
380.362	9.81
380.572	11.8
380.783	4.27
380.993	15.35
381.203	19.44
381.413	13.76
381.623	17.66
381.833	39.78
382.043	33.88
382.253	29.73
382.463	26.8
382.674	22.47
382.884	14.7
383.094	8.25
383.304	7.52
383.514	3.8
383.724	14.89
383.934	9.88
384.144	12.19
384.353	15.84
384.563	19.92
384.773	15.81
384.983	13.52
385.193	22.63
385.403	14.45
385.613	13.1
385.823	8.69
386.033	15.86
386.242	11.12
386.452	16.45
386.662	15.91
386.872	15.78
387.082	10.62
387.291	5.28
387.501	7.6
387.711	6.17
387.921	4.39
388.13	7.97
388.34	14.79
388.55	11.72
388.759	13.33
388.969	13.72
389.179	8.78
389.388	5.01
389.598	8.64
389.807	7.07
390.017	6.78
390.227	11.6
390.436	12.39
390.646	9.97
390.855	11.92
391.065	11.56
391.274	8.82
391.484	5.8
391.693	4.02
391.903	4.35
392.112	5.55
392.322	5.69
392.531	6.53
392.74	7.01
392.95	7.03
393.159	8.21
393.369	8.91
393.578	9.91
393.787	10.42
393.997	8.44
394.206	7.33
394.415	7.4
394.625	7.78
394.834	7.35
395.043	7.37
395.252	8.84
395.462	8.46
395.671	7.69
395.88	8.99
396.089	10.69
396.298	9.72
396.508	9.42
396.717	9.12
396.926	8.28
397.135	7.23
397.344	6.98
397.553	7.42
397.762	7.9
397.971	8.16
398.181	8.54
398.39	8.21
398.599	7.63
398.808	7.77
399.017	8.04
399.226	8.06
399.435	8.53
399.644	8.99
399.853	8.72
400.062	8.86
400.27	8.84
400.479	9.03
400.688	8.83
400.897	9.08
401.106	8.65
401.315	8.48
401.524	8.34
401.733	8.33
401.941	8.32
402.15	8.35
402.359	8.23
402.568	8.17
402.777	8.08
402.985	7.9
403.194	7.65
403.403	7.7
403.612	7.57
403.82	7.71
404.029	7.58
404.238	7.51
404.446	7.62
404.655	7.55
404.864	7.41
405.072	7.38
405.281	7.55
405.489	7.36
405.698	7.4
405.906	7.45
406.115	7.5
406.324	7.49
406.532	7.5
406.741	7.56
406.949	7.52
407.158	7.56
407.366	7.5
407.574	7.49
407.783	7.4
407.991	7.2
408.2	7.01
408.408	6.89
408.617	6.95
408.825	6.97
409.033	7.21
409.242	7.38
409.45	7.51
409.658	7.56
409.867	7.48
410.075	7.31
410.283	7.24
410.491	7.1
410.7	7.04
410.908	7.11
411.116	7.27
411.324	7.22
411.533	7.34
411.741	7.21
411.949	7.2
412.157	7.16
412.365	7.17
412.573	7.11
412.781	7.08
412.99	6.99
413.198	6.84
413.406	6.76
413.614	6.79
413.822	6.82
414.03	6.76
414.238	6.69
414.446	6.81
414.654	6.71
414.862	6.72
415.07	6.67
415.278	6.88
415.486	6.55
415.694	6.57
415.902	6.6
416.109	6.64
416.317	6.56
416.525	6.8
416.733	6.83
416.941	6.74
417.149	6.78
417.357	6.6
417.564	6.52
417.772	6.38
417.98	6.39
418.188	6.37
418.395	6.49
418.603	6.41
418.811	6.57
419.019	6.75
419.226	6.92
419.434	6.82
419.642	6.76
419.849	6.69
420.057	6.5
420.265	6.26
420.472	6.18
420.68	6.31
420.887	6.29
421.095	6.33
421.302	6.44
421.51	6.44
421.717	6.49
421.925	6.42
422.132	6.4
422.34	6.1
422.547	6.16
422.755	6.25
422.962	6.25
423.17	6.15
423.377	6.46
423.585	6.55
423.792	6.43
423.999	6.4
424.207	6.38
424.414	6.2
424.621	6.12
424.829	6.04
425.036	6.07
425.243	6.22
425.451	6.19
425.658	6.21
425.865	6.15
426.072	6.17
426.28	6.15
426.487	6.4
426.694	6.42
426.901	6.4
427.108	6.53
427.315	6.49
427.523	6.27
427.73	6.21
427.937	6.3
428.144	6.09
428.351	5.87
428.558	6.13
428.765	6.19
428.972	6.15
429.179	6.23
429.386	6.43
429.593	6.26
429.8	6.28
430.007	6.39
430.214	6.47
430.421	6.59
430.628	6.6
430.835	6.63
431.042	6.59
431.249	6.55
431.456	6.34
431.662	6.57
431.869	6.67
432.076	6.84
432.283	6.86
432.49	6.88
432.697	6.75
432.903	6.43
433.11	6.29
433.317	6.3
433.524	6.4
433.73	6.47
433.937	6.63
434.144	6.58
434.35	6.56
434.557	6.41
434.764	6.29
434.97	6.13
435.177	6.34
435.384	6.31
435.59	6.36
435.797	6.42
436.003	6.5
436.21	6.39
436.416	6.36
436.623	6.46
436.829	6.47
437.036	6.53
437.242	6.57
437.449	6.61
437.655	6.62
437.862	6.65
438.068	6.63
438.275	6.56
438.481	6.55
438.687	6.62
438.894	6.66
439.1	6.75
439.307	6.72
439.513	6.78
439.719	6.73
439.926	6.66
440.132	6.75
440.338	6.88
440.544	6.82
440.751	6.67
440.957	6.68
441.163	6.6
441.369	6.62
441.575	6.62
441.782	6.67
441.988	6.74
442.194	6.67
442.4	6.58
442.606	6.71
442.812	6.89
443.018	6.82
443.224	7.03
443.431	7.07
443.637	7.06
443.843	6.98
444.049	7
444.255	6.89
444.461	7
444.667	6.87
444.873	6.83
445.079	6.76
445.284	6.78
445.49	6.65
445.696	6.78
445.902	6.82
446.108	6.81
446.314	6.8
446.52	6.96
446.726	7
446.931	6.96
447.137	7.03
447.343	7.01
447.549	6.87
447.755	6.69
447.96	6.76
448.166	6.83
448.372	6.88
448.578	7.03
448.783	7.14
448.989	7.16
449.195	7.05
449.4	7.02
449.606	6.9
449.812	6.86
450.017	6.84
450.223	6.93
450.428	6.96
450.634	7.03
450.84	7.12
451.045	7.17
451.251	7.18
451.456	7.26
451.662	7.23
451.867	7.13
452.073	7.16
452.278	7.15
452.483	7.09
452.689	7.02
452.894	7.08
453.1	7.01
453.305	7
453.51	7.02
453.716	7
453.921	7.07
454.127	7.07
454.332	6.95
454.537	6.88
454.742	6.96
454.948	6.78
455.153	6.8
455.358	6.88
455.563	6.95
455.769	6.89
455.974	6.97
456.179	6.89
456.384	6.82
456.589	6.87
456.795	6.87
457	6.97
457.205	7.1
457.41	7.24
457.615	7.17
457.82	7.29
458.025	7.26
458.23	7.21
458.435	7.16
458.64	7.16
458.845	7.15
459.05	6.99
459.255	6.99
459.46	7.05
459.665	7.08
459.87	7.14
460.075	7.22
460.28	7.22
460.485	7.22
460.69	7.23
460.895	7.17
461.099	7.15
461.304	7.1
461.509	7.03
461.714	6.99
461.919	6.91
462.123	7.06
462.328	7.12
462.533	7.21
462.738	7.31
462.942	7.34
463.147	7.33
463.352	7.41
463.556	7.38
463.761	7.28
463.966	7.39
464.17	7.37
464.375	7.29
464.58	7.22
464.784	7.27
464.989	7.14
465.193	7.05
465.398	7.14
465.602	7.37
465.807	7.4
466.011	7.49
466.216	7.48
466.42	7.38
466.625	7.42
466.829	7.39
467.034	7.46
467.238	7.57
467.443	7.63
467.647	7.38
467.851	7.39
468.056	7.31
468.26	7.26
468.464	7.31
468.669	7.42
468.873	7.51
