Data from Ofav_PS_Phys_362_Reflection_2.txt Node
Date: Thu Jul 29 18:21:45 EDT 2021
User: USUARIO
Spectrometer: FLMT01687
Trigger mode: 0
Integration Time (sec): 9.010000E-1
Scans to average: 2
Electric dark correction enabled: true
Nonlinearity correction enabled: false
Boxcar width: 2
XAxis mode: Wavelengths
Number of Pixels in Spectrum: 3648
>>>>>Begin Spectral Data<<<<<
179.494	94.29
179.716	33.78
179.937	-23.33
180.158	177.97
180.38	115.17
180.601	-166.14
180.823	-35.6
181.044	-89.21
181.265	-53.35
181.486	-825.42
181.708	95.85
181.929	194.56
182.15	11157.14
182.372	-96.24
182.593	-39.75
182.814	-19.88
183.035	-231.96
183.257	116.22
183.478	120.38
183.699	124.95
183.92	92.56
184.141	104.76
184.363	73.34
184.584	64.23
184.805	32.5
185.026	58.87
185.247	43.49
185.468	45.97
185.689	30.52
185.91	76.37
186.132	74.54
186.353	47.94
186.574	69.67
186.795	71.92
187.016	56.27
187.237	38.3
187.458	49.17
187.679	35.94
187.9	41.39
188.121	30.66
188.342	50.97
188.563	62.51
188.784	48.08
189.005	30.8
189.226	47.81
189.447	40.96
189.667	31.23
189.888	43.95
190.109	72.4
190.33	41.8
190.551	11.61
190.772	13.34
190.993	17.34
191.214	27.73
191.434	31.5
191.655	56.41
191.876	59.34
192.097	54.52
192.318	52.88
192.538	48.25
192.759	31.1
192.98	26.68
193.201	37.71
193.421	16.46
193.642	-0.48
193.863	-11.55
194.083	-36.21
194.304	-18.17
194.525	2.92
194.745	22.21
194.966	18.94
195.187	32.75
195.407	18.81
195.628	-9.99
195.848	15.24
196.069	34.81
196.29	59.82
196.51	41.77
196.731	49.39
196.951	39.78
197.172	11.89
197.392	0.06
197.613	-1.37
197.833	-4.94
198.054	11.28
198.274	27.91
198.495	47.14
198.715	37.05
198.936	53.29
199.156	62.62
199.377	73.22
199.597	60
199.817	83.27
200.038	73.45
200.258	57.17
200.479	50.99
200.699	62.09
200.919	56.13
201.14	37.14
201.36	50.98
201.58	57.44
201.801	64.97
202.021	68.42
202.241	67.82
202.461	51.61
202.682	26.32
202.902	37.13
203.122	27.08
203.342	57.42
203.563	68.7
203.783	60.1
204.003	26.06
204.223	41.72
204.443	54.9
204.663	80.56
204.884	96.92
205.104	131.38
205.324	75.77
205.544	55.1
205.764	38.21
205.984	33.71
206.204	32.69
206.424	58.44
206.644	59.35
206.864	68.76
207.084	67.48
207.304	65.26
207.525	60.37
207.745	90.75
207.964	81.04
208.184	97.57
208.404	108.09
208.624	95.37
208.844	70.09
209.064	66.15
209.284	103.64
209.504	101.47
209.724	92
209.944	94.09
210.164	94.14
210.384	50.87
210.604	42.12
210.823	27.44
211.043	7.87
211.263	10.36
211.483	6.94
211.703	-16
211.922	26.54
212.142	52.1
212.362	57.72
212.582	54.03
212.801	66.68
213.021	35.56
213.241	19.58
213.461	7.14
213.68	-35.11
213.9	-41.89
214.12	-27.05
214.339	-13.02
214.559	-16.14
214.779	1.99
214.998	8.16
215.218	6.26
215.438	-10.83
215.657	12.89
215.877	32.69
216.096	12.73
216.316	-13.09
216.535	-16.35
216.755	-31.23
216.974	-71.81
217.194	-18.88
217.413	25.82
217.633	37.71
217.852	18.56
218.072	26.92
218.291	42.06
218.511	51.32
218.73	29.46
218.95	35.25
219.169	39.47
219.389	16.32
219.608	-2.69
219.827	-8.18
220.047	-6.45
220.266	-20.07
220.485	14.64
220.705	24.74
220.924	21.87
221.143	21.07
221.363	8.35
221.582	-28.41
221.801	-116.98
222.021	-43.77
222.24	-10.83
222.459	14.76
222.678	31.87
222.897	26.18
223.117	28.81
223.336	18.33
223.555	24.52
223.774	47.4
223.993	72.03
224.213	76.2
224.432	86.01
224.651	79.16
224.87	60.68
225.089	58.89
225.308	46.64
225.527	52.24
225.746	44.94
225.965	48.5
226.184	14.95
226.404	-4.01
226.623	3.26
226.842	9.67
227.061	-1.75
227.28	27.12
227.499	62.87
227.718	77.2
227.936	41.07
228.155	40.27
228.374	13.95
228.593	1.22
228.812	-17.09
229.031	-12.51
229.25	-6.23
229.469	10.88
229.688	16.9
229.907	52.17
230.125	42.95
230.344	53.32
230.563	74.98
230.782	64.63
231.001	19.14
231.22	43.09
231.438	49.31
231.657	29.12
231.876	45.52
232.095	42.66
232.313	32.3
232.532	22.01
232.751	15.7
232.969	5.37
233.188	7.68
233.407	21.12
233.625	24.3
233.844	43.85
234.063	51.2
234.281	62.34
234.5	69.31
234.719	70.48
234.937	51.71
235.156	39.63
235.374	61.65
235.593	52.17
235.811	58.79
236.03	62.87
236.249	61.19
236.467	58.56
236.686	66.24
236.904	55.72
237.123	54.3
237.341	42.78
237.559	30.6
237.778	24.15
237.996	35.01
238.215	38.34
238.433	55.19
238.652	55.36
238.87	54.56
239.088	52.6
239.307	49.37
239.525	39.64
239.743	44.08
239.962	49.65
240.18	56.06
240.398	54.22
240.617	47.81
240.835	40.92
241.053	53.11
241.271	47.97
241.49	53.76
241.708	60.93
241.926	49.68
242.144	27.77
242.363	28.37
242.581	14.76
242.799	9.65
243.017	32.72
243.235	33.9
243.453	31.45
243.672	29.26
243.89	30.18
244.108	11.54
244.326	27.08
244.544	18.19
244.762	13.64
244.98	7.25
245.198	9.83
245.416	10.27
245.634	12.07
245.852	33.85
246.07	46.3
246.288	47.8
246.506	30.76
246.724	24.07
246.942	25.57
247.16	32.33
247.378	22.7
247.596	17.59
247.814	17.99
248.032	9.32
248.25	1.67
248.468	6.53
248.685	12.58
248.903	14.31
249.121	26.36
249.339	11.22
249.557	26.52
249.775	38.2
249.992	38.2
250.21	35.25
250.428	57.21
250.646	53.79
250.863	52.32
251.081	49.9
251.299	51.21
251.517	37.69
251.734	41.88
251.952	33.33
252.17	37.24
252.387	30.07
252.605	39.6
252.823	20.1
253.04	36.82
253.258	28.83
253.475	39.03
253.693	38
253.911	49.82
254.128	37.05
254.346	29.86
254.563	21.69
254.781	16.57
254.998	12.75
255.216	-19.69
255.433	10.7
255.651	25.78
255.868	15.56
256.086	26.5
256.303	46.76
256.521	49.25
256.738	26.71
256.956	37.11
257.173	19.55
257.39	30.75
257.608	28.89
257.825	48.08
258.043	41.57
258.26	48.75
258.477	40.69
258.695	36.31
258.912	32.08
259.129	38.34
259.346	34.42
259.564	19.82
259.781	18.62
259.998	17.9
260.216	47.81
260.433	68.75
260.65	68.46
260.867	70.45
261.084	78.92
261.302	61.2
261.519	42.91
261.736	43.3
261.953	39.5
262.17	42.92
262.387	38.32
262.604	41.44
262.822	32.71
263.039	39.64
263.256	27.34
263.473	22.5
263.69	-10.61
263.907	3.5
264.124	11.43
264.341	13.47
264.558	10.85
264.775	41.55
264.992	41.23
265.209	29.97
265.426	35.8
265.643	34.98
265.86	33.29
266.077	18.44
266.294	24.23
266.51	15.12
266.727	23.68
266.944	19.23
267.161	25.21
267.378	25.39
267.595	44.54
267.812	42.56
268.028	20.93
268.245	21.48
268.462	6.96
268.679	11.23
268.896	-4.23
269.112	8.19
269.329	12.02
269.546	29.55
269.763	-0.41
269.979	2.89
270.196	19.14
270.413	15.11
270.629	1.81
270.846	31.84
271.063	37.26
271.279	31.75
271.496	29.34
271.712	33.88
271.929	13.3
272.146	35.07
272.362	26.83
272.579	45.37
272.795	47.17
273.012	71.01
273.228	45.2
273.445	49.98
273.661	32.88
273.878	24.33
274.094	18.11
274.311	40.58
274.527	39.32
274.744	53.56
274.96	55.37
275.177	45.67
275.393	31.72
275.609	28.18
275.826	16.84
276.042	22.85
276.259	12.6
276.475	28.35
276.691	41.11
276.908	42.78
277.124	38.86
277.34	37.64
277.557	29.57
277.773	16.24
277.989	15.52
278.205	27.43
278.422	46.31
278.638	57.42
278.854	59.34
279.07	45.27
279.286	20.14
279.503	33.8
279.719	33.19
279.935	43.1
280.151	46.03
280.367	61.82
280.583	58.69
280.799	60.09
281.016	50.42
281.232	61.87
281.448	52.67
281.664	51.85
281.88	24.44
282.096	18.61
282.312	0.05
282.528	0.27
282.744	-19.03
282.96	-2.26
283.176	6.15
283.392	24.05
283.608	16.94
283.824	22.77
284.04	29.4
284.256	38.73
284.471	22.8
284.687	19.55
284.903	13.43
285.119	25.51
285.335	4.18
285.551	20.23
285.767	31.31
285.982	28.79
286.198	21.84
286.414	20.15
286.63	19.73
286.846	7.8
287.061	6.84
287.277	12.03
287.493	17.38
287.709	9.08
287.924	31.11
288.14	29.09
288.356	38.71
288.571	31.89
288.787	25.9
289.003	10.76
289.218	-5.75
289.434	0.21
289.65	21.2
289.865	28.63
290.081	33.96
290.296	51.08
290.512	44.3
290.727	34.4
290.943	43
291.159	38.2
291.374	48.13
291.59	37.8
291.805	35.64
292.021	20.66
292.236	28.94
292.451	5.89
292.667	30.56
292.882	14.49
293.098	17.13
293.313	-2.65
293.529	8.75
293.744	-7.53
293.959	3.95
294.175	25.47
294.39	27.64
294.605	43.45
294.821	39.75
295.036	47.01
295.251	35.21
295.467	34.93
295.682	22.9
295.897	20.95
296.112	16.78
296.328	19.58
296.543	18.26
296.758	9.13
296.973	15.29
297.188	22.27
297.404	10.53
297.619	25.61
297.834	30.11
298.049	18.5
298.264	26.73
298.479	46.47
298.694	36.61
298.909	41.12
299.125	36.04
299.34	13.19
299.555	-5.77
299.77	13.59
299.985	-18.61
300.2	16.81
300.415	38.82
300.63	50.83
300.845	26.3
301.06	30.57
301.275	36.82
301.49	-2.74
301.704	-40.02
301.919	3.52
302.134	17.46
302.349	1.92
302.564	21.72
302.779	21.98
302.994	11.17
303.209	11.61
303.423	29.42
303.638	35.63
303.853	37.18
304.068	53.27
304.283	50.76
304.497	39.94
304.712	20.76
304.927	23.62
305.142	4.4
305.356	-18.14
305.571	2.75
305.786	20.66
306	-13.67
306.215	-0.12
306.43	11.71
306.644	-33.2
306.859	-41.7
307.074	28.58
307.288	28.54
307.503	40.32
307.717	54.53
307.932	41.7
308.147	41.29
308.361	16.16
308.576	-5.67
308.79	-26.89
309.005	14.02
309.219	11.82
309.434	37.92
309.648	45.23
309.863	54.28
310.077	39.72
310.292	37.74
310.506	32.49
310.72	45.07
310.935	42.15
311.149	51.05
311.364	59.5
311.578	50.43
311.792	33.21
312.007	58.71
312.221	28.96
312.435	27.84
312.649	39.86
312.864	46.99
313.078	13.28
313.292	28.89
313.507	33.87
313.721	27.07
313.935	23.02
314.149	29.28
314.363	34.77
314.578	35.98
314.792	40.37
315.006	66.04
315.22	52.24
315.434	52.34
315.648	47.64
315.862	45.91
316.077	27.45
316.291	31.39
316.505	27.97
316.719	29.33
316.933	17.46
317.147	30.23
317.361	3.67
317.575	-3.42
317.789	-4.58
318.003	11.26
318.217	26.64
318.431	34.25
318.645	35.01
318.859	35.75
319.073	26.49
319.287	4.03
319.5	8.48
319.714	24.7
319.928	31.52
320.142	40.58
320.356	56.64
320.57	52.77
320.784	50.05
320.997	30.02
321.211	19.21
321.425	14.66
321.639	11.15
321.853	14.16
322.066	15.24
322.28	30.53
322.494	23.87
322.707	32.47
322.921	13.48
323.135	23.58
323.349	12.45
323.562	-2.68
323.776	-2.88
323.989	19.02
324.203	17.92
324.417	15.21
324.63	22.97
324.844	21.33
325.057	-2.98
325.271	-17.14
325.485	-12.21
325.698	-7.03
325.912	1.29
326.125	12.66
326.339	19.03
326.552	28.36
326.766	27.96
326.979	27.35
327.193	29.91
327.406	40.11
327.619	26.47
327.833	19.88
328.046	21.35
328.26	33.38
328.473	24.93
328.686	24.97
328.9	38.27
329.113	16.26
329.326	-8.61
329.54	12.54
329.753	8.2
329.966	-2.72
330.179	4.15
330.393	10.26
330.606	1.44
330.819	14.21
331.032	30.07
331.246	38.23
331.459	30.8
331.672	23.8
331.885	18.28
332.098	9.57
332.311	37.2
332.525	43.75
332.738	44.42
332.951	24.3
333.164	12.47
333.377	-14.82
333.59	-2.52
333.803	15.23
334.016	33.42
334.229	37.91
334.442	40.1
334.655	47.67
334.868	49.73
335.081	54.63
335.294	58.37
335.507	57.06
335.72	47.65
335.933	30.22
336.146	33.33
336.359	26.77
336.572	14.24
336.785	10.5
336.997	30.27
337.21	16.5
337.423	31.22
337.636	40.37
337.849	37.96
338.062	31.08
338.274	29.67
338.487	10.06
338.7	1.88
338.913	5.36
339.125	12.19
339.338	18.43
339.551	23.84
339.763	22.12
339.976	10.5
340.189	20.26
340.402	16.79
340.614	8.5
340.827	16.23
341.039	17.52
341.252	13.34
341.465	22.04
341.677	29.72
341.89	25.01
342.102	31.12
342.315	26.42
342.527	27.27
342.74	21.98
342.952	33.33
343.165	36.25
343.377	33.74
343.59	16.47
343.802	35.73
344.015	37.66
344.227	32.43
344.44	31.44
344.652	41.07
344.864	33.14
345.077	27.99
345.289	44.5
345.502	51.46
345.714	50.17
345.926	44.87
346.139	19.09
346.351	4.84
346.563	18
346.775	11.8
346.988	0.39
347.2	9.05
347.412	8.57
347.624	5.77
347.837	2.98
348.049	7.84
348.261	16.63
348.473	27.88
348.685	39.07
348.897	47.94
349.11	38.53
349.322	41.98
349.534	40.99
349.746	14.05
349.958	14.49
350.17	13.87
350.382	24.85
350.594	20.56
350.806	53.72
351.018	43.29
351.23	46.86
351.442	24.96
351.654	36.99
351.866	13.48
352.078	25.71
352.29	21.74
352.502	33.91
352.714	20.47
352.926	25.25
353.138	32.05
353.35	22.47
353.561	7.34
353.773	20.47
353.985	6.87
354.197	9.36
354.409	18.59
354.621	23.27
354.832	19.66
355.044	31
355.256	24.31
355.468	20.6
355.679	17.78
355.891	17.01
356.103	18.4
356.314	17.3
356.526	14.39
356.738	23.08
356.949	28.71
357.161	33.86
357.373	26.09
357.584	27.84
357.796	16.66
358.008	5.48
358.219	-12.74
358.431	-7.36
358.642	-7.08
358.854	-8.61
359.065	0.32
359.277	4.53
359.488	10.37
359.7	16.14
359.911	25.19
360.123	23.56
360.334	32.54
360.546	30.76
360.757	33.42
360.969	33.33
361.18	37.83
361.391	35.35
361.603	16.22
361.814	20.64
362.025	20.76
362.237	12.96
362.448	9.66
362.659	19.69
362.871	8.98
363.082	2.57
363.293	1.12
363.504	5.03
363.716	-1.81
363.927	4.51
364.138	-2.96
364.349	1.82
364.56	7.09
364.772	7.7
364.983	13.95
365.194	16.41
365.405	12.57
365.616	3.54
365.827	9.64
366.038	4.25
366.25	1.8
366.461	3.93
366.672	3.55
366.883	5.19
367.094	-0.36
367.305	14.38
367.516	33.21
367.727	40.76
367.938	45.2
368.149	45.64
368.36	44.74
368.571	26.02
368.781	8
368.992	-10.8
369.203	-6.45
369.414	-6.86
369.625	6.38
369.836	12.08
370.047	17.44
370.258	16.12
370.468	15.04
370.679	5.47
370.89	-1.76
371.101	2.87
371.312	-6.64
371.522	-9.51
371.733	-2.12
371.944	-4.82
372.155	-0.6
372.365	6.31
372.576	-2.36
372.787	-1.4
372.997	6.71
373.208	15.75
373.419	20.72
373.629	34.45
373.84	38.28
374.05	35.88
374.261	30.25
374.472	22.52
374.682	12.66
374.893	20.11
375.103	31.82
375.314	32.01
375.524	35.26
375.735	41.86
375.945	34.07
376.156	36.94
376.366	25.68
376.577	40.96
376.787	40.02
376.997	35.87
377.208	20.88
377.418	24.57
377.629	7.6
377.839	9.52
378.049	19.78
378.26	20.25
378.47	26.35
378.68	41.66
378.89	39.82
379.101	29.74
379.311	25.43
379.521	17.76
379.732	8.69
379.942	3.66
380.152	6.83
380.362	4.75
380.572	2.25
380.783	-1.58
380.993	1.1
381.203	11.94
381.413	13.64
381.623	19.04
381.833	30.75
382.043	32.4
382.253	12.63
382.463	18.93
382.674	15.76
382.884	7.33
383.094	2.28
383.304	6.19
383.514	5.5
383.724	12.96
383.934	10.31
384.144	13.67
384.353	17.7
384.563	16
384.773	15.21
384.983	13.53
385.193	17.25
385.403	10.12
385.613	11.58
385.823	9.38
386.033	16.49
386.242	8.9
386.452	12.68
386.662	8.43
386.872	8.64
387.082	3.22
387.291	0.01
387.501	3.03
387.711	5.03
387.921	3.95
388.13	5.47
388.34	8.8
388.55	7.34
388.759	6.81
388.969	5.74
389.179	4.22
389.388	4.04
389.598	2.82
389.807	1.26
390.017	1.1
390.227	4.02
390.436	2.54
390.646	1.18
390.855	2.64
391.065	3.23
391.274	-0.21
391.484	-0.77
391.693	0.03
391.903	2.86
392.112	4
392.322	5.12
392.531	4.98
392.74	5.03
392.95	1.89
393.159	1.64
393.369	3.84
393.578	4.86
393.787	4.5
393.997	3.66
394.206	3.01
394.415	2.52
394.625	2.37
394.834	2.31
395.043	2.5
395.252	3.96
395.462	3.19
395.671	3.5
395.88	5.03
396.089	6.75
396.298	6.68
396.508	6.59
396.717	6.42
396.926	5.4
397.135	3.88
397.344	3.29
397.553	3.89
397.762	4.25
397.971	4.56
398.181	5.57
398.39	5.32
398.599	5.12
398.808	4.77
399.017	5.15
399.226	4.92
399.435	5.17
399.644	5.37
399.853	5.39
400.062	5.34
400.27	5.71
400.479	5.48
400.688	5.23
400.897	5.24
401.106	4.82
401.315	4.36
401.524	4.35
401.733	4.23
401.941	4.38
402.15	4.57
402.359	4.36
402.568	4.48
402.777	4.34
402.985	4.2
403.194	4.11
403.403	4.32
403.612	4.18
403.82	4.3
404.029	4.25
404.238	4.04
404.446	4.21
404.655	4.15
404.864	4.13
405.072	4.05
405.281	4.26
405.489	3.87
405.698	4.03
405.906	3.99
406.115	4.1
406.324	3.98
406.532	4.07
406.741	4.09
406.949	4.19
407.158	4.08
407.366	4.03
407.574	3.94
407.783	3.87
407.991	3.6
408.2	3.69
408.408	3.71
408.617	3.81
408.825	3.83
409.033	4.11
409.242	4.14
409.45	4.16
409.658	4.27
409.867	4.24
410.075	4.08
410.283	3.96
410.491	3.93
410.7	3.91
410.908	3.95
411.116	4.02
411.324	4.03
411.533	4.05
411.741	4
411.949	3.99
412.157	3.83
412.365	3.74
412.573	3.71
412.781	3.65
412.99	3.53
413.198	3.52
413.406	3.61
413.614	3.71
413.822	3.73
414.03	3.81
414.238	3.88
414.446	4.03
414.654	3.88
414.862	3.85
415.07	3.68
415.278	3.79
415.486	3.48
415.694	3.67
415.902	3.67
416.109	3.73
416.317	3.66
416.525	3.82
416.733	3.67
416.941	3.75
417.149	3.87
417.357	3.79
417.564	3.66
417.772	3.61
417.98	3.53
418.188	3.38
418.395	3.33
418.603	3.44
418.811	3.42
419.019	3.39
419.226	3.56
419.434	3.64
419.642	3.54
419.849	3.54
420.057	3.43
420.265	3.27
420.472	3.3
420.68	3.42
420.887	3.55
421.095	3.65
421.302	3.69
421.51	3.59
421.717	3.51
421.925	3.49
422.132	3.41
422.34	3.21
422.547	3.03
422.755	3.15
422.962	3.11
423.17	3.04
423.377	3.19
423.585	3.5
423.792	3.37
423.999	3.11
424.207	3.12
424.414	3.16
424.621	3.08
424.829	3.09
425.036	3.36
425.243	3.49
425.451	3.37
425.658	3.33
425.865	3.32
426.072	3.3
426.28	3.43
426.487	3.5
426.694	3.43
426.901	3.31
427.108	3.16
427.315	3.17
427.523	3.13
427.73	3.26
427.937	3.34
428.144	3.48
428.351	3.37
428.558	3.31
428.765	3.19
428.972	3.23
429.179	2.97
429.386	2.9
429.593	2.94
429.8	3.08
430.007	3.08
430.214	3.46
430.421	3.5
430.628	3.47
430.835	3.45
431.042	3.41
431.249	3.27
431.456	3.25
431.662	3.48
431.869	3.49
432.076	3.53
432.283	3.59
432.49	3.53
432.697	3.37
432.903	3.13
433.11	3.12
433.317	2.92
433.524	3.05
433.73	3.04
433.937	3.17
434.144	3.13
434.35	3.26
434.557	3.19
434.764	3.08
434.97	3.07
435.177	3.24
435.384	3.05
435.59	3.08
435.797	3.26
436.003	3.2
436.21	3.01
436.416	3.13
436.623	3.11
436.829	3.08
437.036	3.22
437.242	3.34
437.449	3.4
437.655	3.5
437.862	3.57
438.068	3.43
438.275	3.4
438.481	3.4
438.687	3.2
438.894	3.22
439.1	3.29
439.307	3.24
439.513	3.16
439.719	3.2
439.926	3.02
440.132	3.07
440.338	3.21
440.544	3.18
440.751	3.2
440.957	3.41
441.163	3.34
441.369	3.25
441.575	3.32
441.782	3.36
441.988	3.28
442.194	3.32
442.4	3.31
442.606	3.39
442.812	3.37
443.018	3.4
443.224	3.5
443.431	3.47
443.637	3.32
443.843	3.29
444.049	3.25
444.255	3.16
444.461	3.22
444.667	3.32
444.873	3.3
445.079	3.26
445.284	3.25
445.49	3.22
445.696	3.22
445.902	3.17
446.108	3.16
446.314	3.14
446.52	3.22
446.726	3.16
446.931	3.24
447.137	3.25
447.343	3.3
447.549	3.1
447.755	3.09
447.96	3.1
448.166	3.07
448.372	3.05
448.578	3.22
448.783	3.33
448.989	3.39
449.195	3.38
449.4	3.46
449.606	3.4
449.812	3.38
450.017	3.31
450.223	3.32
450.428	3.21
450.634	3.26
450.84	3.3
451.045	3.3
451.251	3.38
451.456	3.51
451.662	3.45
451.867	3.33
452.073	3.32
452.278	3.25
452.483	3.25
452.689	3.27
452.894	3.32
453.1	3.37
453.305	3.36
453.51	3.32
453.716	3.29
453.921	3.28
454.127	3.35
454.332	3.3
454.537	3.24
454.742	3.25
454.948	3.18
455.153	3.13
455.358	3.31
455.563	3.41
455.769	3.3
455.974	3.44
456.179	3.35
456.384	3.17
456.589	3.1
456.795	3.16
457	3.14
457.205	3.25
457.41	3.33
457.615	3.31
457.82	3.32
458.025	3.29
458.23	3.18
458.435	3.08
458.64	3.13
458.845	3.2
459.05	3.24
459.255	3.29
459.46	3.39
459.665	3.35
459.87	3.3
460.075	3.17
460.28	3.08
460.485	3.05
460.69	2.98
460.895	2.91
461.099	3.06
461.304	3.08
461.509	3.06
461.714	3.11
461.919	3.15
462.123	3
462.328	3.11
462.533	3.12
462.738	3.21
462.942	3.17
463.147	3.3
463.352	3.28
463.556	3.33
463.761	3.18
463.966	3.24
464.17	3.25
464.375	3.15
464.58	3.12
464.784	3.28
464.989	3.24
465.193	3.22
465.398	3.41
465.602	3.48
465.807	3.39
466.011	3.54
466.216	3.43
466.42	3.37
466.625	3.37
466.829	3.44
467.034	3.37
467.238	3.53
467.443	3.4
467.647	3.28
467.851	3.22
468.056	3.14
468.26	3.13
468.464	3.15
468.669	3.28
468.873	3.26
469.077	3.27
