Data from Ofav_PS_Phys_2HS2_Reflection_1.txt Node
Date: Thu Jul 29 18:16:01 EDT 2021
User: USUARIO
Spectrometer: FLMT01687
Trigger mode: 0
Integration Time (sec): 9.010000E-1
Scans to average: 2
Electric dark correction enabled: true
Nonlinearity correction enabled: false
Boxcar width: 2
XAxis mode: Wavelengths
Number of Pixels in Spectrum: 3648
>>>>>Begin Spectral Data<<<<<
179.494	-50.79
179.716	-199.1
179.937	-123.48
180.158	675.71
180.38	112.8
180.601	-375.85
180.823	-215.89
181.044	-115.86
181.265	-106.53
181.486	-680.23
181.708	135.03
181.929	275.59
182.15	7580.95
182.372	-153.1
182.593	-47.23
182.814	0.2
183.035	-283.16
183.257	104.26
183.478	59.6
183.699	42.01
183.92	48.01
184.141	58.49
184.363	47.42
184.584	25.83
184.805	30.79
185.026	34.91
185.247	21.54
185.468	11.53
185.689	67.34
185.91	132.49
186.132	158.89
186.353	83.19
186.574	109.54
186.795	94.55
187.016	73.97
187.237	70.59
187.458	94.96
187.679	80.56
187.9	85.48
188.121	103.06
188.342	81.76
188.563	73.38
188.784	53.57
189.005	37.73
189.226	52.08
189.447	73.01
189.667	68.81
189.888	78.31
190.109	97.07
190.33	136.63
190.551	42.03
190.772	67.22
190.993	58.97
191.214	79.47
191.434	65.69
191.655	67.78
191.876	62.49
192.097	59.05
192.318	63.75
192.538	64.5
192.759	75.03
192.98	75.23
193.201	76.21
193.421	68.58
193.642	55.41
193.863	53.77
194.083	56.62
194.304	67.51
194.525	59.95
194.745	85.4
194.966	56.56
195.187	43.96
195.407	25.82
195.628	-0.94
195.848	18.56
196.069	102.79
196.29	109.68
196.51	111.59
196.731	92.83
196.951	81.41
197.172	24.1
197.392	18.22
197.613	16.05
197.833	-3.05
198.054	-6.38
198.274	40.76
198.495	48.53
198.715	44.75
198.936	59.23
199.156	79.53
199.377	77.95
199.597	85.67
199.817	83.4
200.038	96.64
200.258	88.1
200.479	56.59
200.699	51.8
200.919	53.02
201.14	53.83
201.36	55.31
201.58	75.51
201.801	80.12
202.021	104.78
202.241	109.97
202.461	132.05
202.682	142.44
202.902	154.43
203.122	138.3
203.342	157.3
203.563	151.96
203.783	124.67
204.003	102.07
204.223	138.17
204.443	87.86
204.663	81.59
204.884	81.52
205.104	75.52
205.324	47.25
205.544	47.17
205.764	45.63
205.984	68.57
206.204	80.32
206.424	90
206.644	85.84
206.864	95.31
207.084	61.67
207.304	71.27
207.525	50.11
207.745	71.68
207.964	46.72
208.184	28.07
208.404	-9.16
208.624	27.97
208.844	36.48
209.064	60.82
209.284	60.87
209.504	59.6
209.724	67.13
209.944	64.7
210.164	52.54
210.384	49.52
210.604	47.07
210.823	31.41
211.043	22.71
211.263	38.28
211.483	29.32
211.703	32.28
211.922	27.77
212.142	43.12
212.362	31.42
212.582	42.12
212.801	34.37
213.021	32.01
213.241	15.48
213.461	16.19
213.68	7.73
213.9	34.31
214.12	33.03
214.339	23.76
214.559	39.38
214.779	33.36
214.998	20.41
215.218	35.29
215.438	53.52
215.657	49.95
215.877	70.41
216.096	68.74
216.316	84.17
216.535	123.1
216.755	107.04
216.974	36.98
217.194	21.86
217.413	36.26
217.633	46.98
217.852	36.88
218.072	48.72
218.291	72.06
218.511	64.84
218.73	46.37
218.95	56.93
219.169	52.42
219.389	37.72
219.608	29.19
219.827	23.87
220.047	26.37
220.266	15.79
220.485	29.32
220.705	27.84
220.924	11.61
221.143	7.57
221.363	28.99
221.582	13.22
221.801	30.26
222.021	96.76
222.24	76.28
222.459	78.08
222.678	62.31
222.897	43.43
223.117	43.72
223.336	38.25
223.555	30.86
223.774	65.25
223.993	61.75
224.213	68.87
224.432	67.93
224.651	72.38
224.87	50.43
225.089	65.24
225.308	42.26
225.527	43.92
225.746	15.37
225.965	29.66
226.184	9.5
226.404	57.96
226.623	80.8
226.842	84.75
227.061	87.05
227.28	84.15
227.499	84.36
227.718	62.83
227.936	29.62
228.155	22.75
228.374	49.2
228.593	24.07
228.812	16.86
229.031	47.98
229.25	64.54
229.469	50.97
229.688	60.16
229.907	69.33
230.125	45.74
230.344	47.98
230.563	55.92
230.782	63.45
231.001	41.45
231.22	91.61
231.438	93.43
231.657	62.08
231.876	49.6
232.095	54.45
232.313	48.6
232.532	28.2
232.751	31.18
232.969	45.9
233.188	71.43
233.407	66.81
233.625	64.47
233.844	69.81
234.063	83.18
234.281	47.22
234.5	40.41
234.719	53.03
234.937	53.15
235.156	42.98
235.374	69.77
235.593	65.23
235.811	52.56
236.03	23.23
236.249	31.99
236.467	29.67
236.686	41.01
236.904	49.41
237.123	71.82
237.341	56.61
237.559	33
237.778	30.53
237.996	29.34
238.215	40.03
238.433	65.86
238.652	70.18
238.87	60.78
239.088	64.29
239.307	55.37
239.525	38.2
239.743	43.16
239.962	42.92
240.18	41.75
240.398	44.29
240.617	48.84
240.835	43.89
241.053	47.97
241.271	46.66
241.49	45.36
241.708	37.68
241.926	42.76
242.144	37.75
242.363	28.27
242.581	7.81
242.799	20.35
243.017	14.6
243.235	6.75
243.453	20.23
243.672	43.77
243.89	30.26
244.108	46.1
244.326	78.31
244.544	73.85
244.762	64.01
244.98	65.54
245.198	55.67
245.416	50.17
245.634	41.9
245.852	48.52
246.07	68.63
246.288	59.77
246.506	54.2
246.724	62.87
246.942	57.07
247.16	48.37
247.378	42.03
247.596	45.73
247.814	25.54
248.032	22.97
248.25	15.07
248.468	21.32
248.685	24.72
248.903	36.42
249.121	42.78
249.339	39.11
249.557	49.26
249.775	35.57
249.992	36.98
250.21	32.05
250.428	55.24
250.646	49.29
250.863	56.71
251.081	55.49
251.299	64.73
251.517	59.33
251.734	65.79
251.952	61.01
252.17	42.45
252.387	26.75
252.605	13.4
252.823	14.11
253.04	31.58
253.258	52.18
253.475	60.44
253.693	56.74
253.911	63.84
254.128	67.29
254.346	63.28
254.563	68.13
254.781	68.49
254.998	47.22
255.216	20.56
255.433	26.38
255.651	15.16
255.868	9.18
256.086	23.28
256.303	38.36
256.521	33.51
256.738	22.45
256.956	37.76
257.173	29.29
257.39	29.23
257.608	35.96
257.825	51.62
258.043	41.3
258.26	46.51
258.477	48.37
258.695	26.56
258.912	28.01
259.129	26.93
259.346	4.18
259.564	-27.38
259.781	15.21
259.998	28.65
260.216	45.26
260.433	76.74
260.65	84.98
260.867	84.17
261.084	87.39
261.302	89.98
261.519	56.41
261.736	31.91
261.953	15.35
262.17	21.74
262.387	11.51
262.604	11.74
262.822	3.11
263.039	21.31
263.256	9.03
263.473	15.42
263.69	13.54
263.907	24.47
264.124	16.17
264.341	17.62
264.558	25.27
264.775	18.18
264.992	37.66
265.209	28.27
265.426	50.32
265.643	53.94
265.86	54.97
266.077	50.37
266.294	55.76
266.51	39.92
266.727	33.98
266.944	49.39
267.161	48.69
267.378	30.33
267.595	33.57
267.812	27.24
268.028	-15.99
268.245	-20
268.462	-9.51
268.679	-5.95
268.896	-3.96
269.112	12.78
269.329	12.88
269.546	28.7
269.763	31.33
269.979	37
270.196	36.58
270.413	36.44
270.629	18.38
270.846	19.28
271.063	4.55
271.279	27.27
271.496	27.52
271.712	34.13
271.929	38.69
272.146	67.57
272.362	62.41
272.579	68.2
272.795	73.12
273.012	75.41
273.228	57.31
273.445	41.53
273.661	42.48
273.878	35.81
274.094	39.15
274.311	66
274.527	71.27
274.744	67.81
274.96	74.65
275.177	63.26
275.393	46
275.609	49.21
275.826	37.77
276.042	20.3
276.259	21.1
276.475	37.53
276.691	30.83
276.908	35.41
277.124	43.44
277.34	36.88
277.557	13.6
277.773	24.7
277.989	22.45
278.205	31.43
278.422	39.07
278.638	39.88
278.854	54.58
279.07	66.52
279.286	55.37
279.503	61.09
279.719	72.63
279.935	53.32
280.151	44.93
280.367	51.78
280.583	64.32
280.799	61.12
281.016	71.14
281.232	67.61
281.448	57.26
281.664	49.61
281.88	45.95
282.096	50.05
282.312	39.96
282.528	61.92
282.744	57.97
282.96	58.07
283.176	38.39
283.392	38.86
283.608	26.54
283.824	25.72
284.04	20.16
284.256	46.24
284.471	56.01
284.687	61
284.903	61.47
285.119	44.53
285.335	24
285.551	35.03
285.767	43.96
285.982	35.77
286.198	40.2
286.414	38.56
286.63	32.91
286.846	29.33
287.061	35.05
287.277	43.98
287.493	53.06
287.709	47.79
287.924	46.64
288.14	38.92
288.356	37.77
288.571	42.85
288.787	39.36
289.003	32.86
289.218	24.91
289.434	10.15
289.65	10.44
289.865	28.53
290.081	16.65
290.296	47.21
290.512	46.91
290.727	43.35
290.943	40.53
291.159	44.8
291.374	28.18
291.59	39.75
291.805	17.33
292.021	-0.21
292.236	14.78
292.451	8.36
292.667	16.58
292.882	32.41
293.098	46.83
293.313	47.36
293.529	51.47
293.744	33.94
293.959	44.01
294.175	43.46
294.39	35.97
294.605	24.45
294.821	38.46
295.036	41.13
295.251	35.55
295.467	33.44
295.682	41.97
295.897	31.83
296.112	24.06
296.328	30.9
296.543	31.13
296.758	25.66
296.973	31.43
297.188	33.46
297.404	25.56
297.619	26.25
297.834	20.11
298.049	26.85
298.264	18.52
298.479	29.78
298.694	33.56
298.909	43.65
299.125	24.79
299.34	58.35
299.555	54.81
299.77	54.54
299.985	7.15
300.2	16.68
300.415	-4.49
300.63	7.56
300.845	5.98
301.06	8
301.275	38.2
301.49	32.76
301.704	-1.44
301.919	4.42
302.134	33.1
302.349	10.92
302.564	26.57
302.779	29.53
302.994	23.64
303.209	20.13
303.423	36.26
303.638	19.77
303.853	24.24
304.068	46.96
304.283	50.83
304.497	36.76
304.712	15.37
304.927	34.45
305.142	19.71
305.356	-14.4
305.571	10.92
305.786	29.19
306	-4.94
306.215	-2.01
306.43	18.62
306.644	9.79
306.859	46.81
307.074	86.63
307.288	78.68
307.503	86.97
307.717	70.71
307.932	53.19
308.147	47.44
308.361	48.05
308.576	17.34
308.79	24.06
309.005	48.86
309.219	52.37
309.434	63.81
309.648	75.1
309.863	66.38
310.077	53.19
310.292	53.53
310.506	43.95
310.72	50.42
310.935	35.52
311.149	43.57
311.364	39.64
311.578	27.85
311.792	12.49
312.007	19.9
312.221	5.65
312.435	-9.73
312.649	9.52
312.864	9.54
313.078	25.32
313.292	4.56
313.507	31.43
313.721	27.19
313.935	15.97
314.149	26.55
314.363	43.2
314.578	41.96
314.792	41.54
315.006	41.38
315.22	32.52
315.434	31.59
315.648	38.54
315.862	39.04
316.077	38.14
316.291	34.57
316.505	35.93
316.719	46.21
316.933	54.51
317.147	77.26
317.361	88.11
317.575	95.64
317.789	79.66
318.003	65.2
318.217	60.34
318.431	47.87
318.645	40.51
318.859	33.04
319.073	18.22
319.287	-9.12
319.5	6.86
319.714	26.91
319.928	36.24
320.142	51.15
320.356	64.3
320.57	58.97
320.784	55.16
320.997	40.15
321.211	29.19
321.425	33.95
321.639	30.38
321.853	19.6
322.066	12.26
322.28	22.63
322.494	18.52
322.707	29.65
322.921	29.41
323.135	47.19
323.349	44.9
323.562	31.25
323.776	32.8
323.989	37.91
324.203	42.69
324.417	38.8
324.63	42.8
324.844	41.47
325.057	31.24
325.271	17.13
325.485	22.26
325.698	24.13
325.912	24.96
326.125	26.28
326.339	22.42
326.552	16.2
326.766	17.9
326.979	17.76
327.193	24.92
327.406	31.35
327.619	30.86
327.833	37.04
328.046	42.27
328.26	51.27
328.473	36.11
328.686	42.69
328.9	28.18
329.113	10.36
329.326	-11.48
329.54	-6.33
329.753	-3.8
329.966	19.78
330.179	24.29
330.393	34.78
330.606	34.11
330.819	41.18
331.032	29.03
331.246	29.04
331.459	11.41
331.672	25.28
331.885	13.5
332.098	28.1
332.311	32.82
332.525	32.71
332.738	22.48
332.951	14.78
333.164	2.1
333.377	-0.6
333.59	7.3
333.803	32.15
334.016	41.66
334.229	45.12
334.442	47.16
334.655	49.52
334.868	33.57
335.081	39.58
335.294	39.65
335.507	46.23
335.72	48.36
335.933	43.71
336.146	30.92
336.359	38.25
336.572	14.31
336.785	3.36
336.997	14.51
337.21	36.09
337.423	41.68
337.636	51
337.849	42.47
338.062	37.6
338.274	30.34
338.487	13.48
338.7	9.48
338.913	41.8
339.125	53.79
339.338	34.98
339.551	38.26
339.763	30.86
339.976	14.31
340.189	12.9
340.402	14.84
340.614	1.13
340.827	18.2
341.039	30.85
341.252	18.24
341.465	27.52
341.677	39.53
341.89	24.93
342.102	18.66
342.315	18.43
342.527	12.01
342.74	-0.71
342.952	25.03
343.165	32.11
343.377	34.75
343.59	40.47
343.802	46.32
344.015	41.39
344.227	36.5
344.44	34.04
344.652	51.39
344.864	46.54
345.077	38.63
345.289	51.82
345.502	50.41
345.714	33.48
345.926	28.09
346.139	20.96
346.351	-3.61
346.563	13.54
346.775	14.53
346.988	6.99
347.2	0.25
347.412	17.62
347.624	10.89
347.837	8.16
348.049	9.53
348.261	22.57
348.473	16.3
348.685	24.62
348.897	27.31
349.11	33.54
349.322	36.82
349.534	45.38
349.746	35.73
349.958	42.82
350.17	35.96
350.382	33.13
350.594	20.81
350.806	47.22
351.018	42.7
351.23	41.21
351.442	47.13
351.654	51.61
351.866	29.14
352.078	34.4
352.29	34.6
352.502	46.69
352.714	43.41
352.926	41.91
353.138	53.92
353.35	54.08
353.561	25.86
353.773	40.36
353.985	48.6
354.197	31.69
354.409	30.21
354.621	24.77
354.832	4.13
355.044	-0.66
355.256	8.69
355.468	7.83
355.679	30.91
355.891	31.26
356.103	43.89
356.314	44.82
356.526	48.66
356.738	38.55
356.949	44.81
357.161	34.32
357.373	47.87
357.584	33.24
357.796	33.01
358.008	29.55
358.219	26.7
358.431	-12.52
358.642	-2.96
358.854	4.91
359.065	0.1
359.277	3.04
359.488	18.74
359.7	18.08
359.911	19.51
360.123	21.49
360.334	16.78
360.546	5.59
360.757	21.61
360.969	25.93
361.18	43.14
361.391	39.01
361.603	49.47
361.814	51.14
362.025	45.51
362.237	43.7
362.448	50.72
362.659	44.99
362.871	27.74
363.082	20.2
363.293	7.03
363.504	16.44
363.716	18.73
363.927	23.08
364.138	17.94
364.349	19.63
364.56	19.57
364.772	24.18
364.983	16.84
365.194	24.47
365.405	35.22
365.616	21.85
365.827	26.83
366.038	31.23
366.25	20.78
366.461	7.74
366.672	15.12
366.883	11.6
367.094	-1.71
367.305	25.73
367.516	30.35
367.727	35.01
367.938	36.9
368.149	43.15
368.36	30.83
368.571	36.1
368.781	39.25
368.992	28.36
369.203	34.61
369.414	48.73
369.625	42.51
369.836	40.22
370.047	34.1
370.258	27.56
370.468	22.08
370.679	16.51
370.89	-1.4
371.101	18.09
371.312	23.55
371.522	19.5
371.733	26.46
371.944	26.42
372.155	21.8
372.365	23.15
372.576	30.51
372.787	24.48
372.997	23.9
373.208	20.74
373.419	16.81
373.629	25.27
373.84	30.79
374.05	27.37
374.261	25.08
374.472	18.89
374.682	3.67
374.893	5.66
375.103	26.33
375.314	34.41
375.524	37.42
375.735	42.1
375.945	45.57
376.156	37.32
376.366	22.54
376.577	40.42
376.787	34.93
376.997	27.81
377.208	18
377.418	28.92
377.629	7.38
377.839	22.01
378.049	23.12
378.26	28.52
378.47	38.39
378.68	38.42
378.89	33.75
379.101	35.73
379.311	32.11
379.521	16.6
379.732	22.59
379.942	19.04
380.152	6.05
380.362	1.41
380.572	6.5
380.783	2.84
380.993	6.15
381.203	14.19
381.413	26.36
381.623	22.33
381.833	41.14
382.043	29.24
382.253	25
382.463	12.69
382.674	11.94
382.884	0.05
383.094	-7.38
383.304	-6.98
383.514	-2.91
383.724	8.85
383.934	7.47
384.144	17.31
384.353	23.88
384.563	33.51
384.773	25.29
384.983	26.72
385.193	25.54
385.403	13.89
385.613	10.03
385.823	12.53
386.033	10.07
386.242	5.98
386.452	11.27
386.662	10.47
386.872	7.78
387.082	3.77
387.291	2.49
387.501	4.61
387.711	4.69
387.921	3.44
388.13	5.57
388.34	7.81
388.55	6.67
388.759	5.56
388.969	6.01
389.179	3.98
389.388	6.18
389.598	7.4
389.807	7.91
390.017	7.35
390.227	13.13
390.436	12.69
390.646	11.72
390.855	11
391.065	10.28
391.274	5.98
391.484	4.53
391.693	1.5
391.903	1.45
392.112	1.69
392.322	3.55
392.531	1.17
392.74	0.85
392.95	0.68
393.159	1.8
393.369	2.34
393.578	3.41
393.787	4.57
393.997	3.3
394.206	2.56
394.415	2.64
394.625	2.69
394.834	2.01
395.043	2.18
395.252	3.64
395.462	2.36
395.671	2.56
395.88	3.66
396.089	4.61
396.298	3.81
396.508	3.01
396.717	2.76
396.926	2.75
397.135	2.21
397.344	2
397.553	2.86
397.762	3.54
397.971	3.32
398.181	3.42
398.39	3.16
398.599	2.56
398.808	2.09
399.017	2.54
399.226	2.54
399.435	2.84
399.644	3.32
399.853	3.27
400.062	3.02
400.27	3.19
400.479	2.89
400.688	2.61
400.897	2.77
401.106	2.58
401.315	2.26
401.524	2.59
401.733	2.72
401.941	2.36
402.15	2.57
402.359	2.44
402.568	2.24
402.777	2.2
402.985	2.3
403.194	2.08
403.403	2.37
403.612	2.19
403.82	2.19
404.029	2.15
404.238	1.98
404.446	1.85
404.655	1.94
404.864	1.9
405.072	1.94
405.281	1.92
405.489	1.83
405.698	1.9
405.906	1.99
406.115	1.98
406.324	1.97
406.532	2.02
406.741	1.95
406.949	1.99
407.158	1.96
407.366	2.1
407.574	1.97
407.783	2
407.991	1.77
408.2	1.67
408.408	1.67
408.617	1.82
408.825	1.88
409.033	2.01
409.242	2.19
409.45	2.23
409.658	2.24
409.867	2.04
410.075	2.02
410.283	1.97
410.491	1.8
410.7	1.8
410.908	1.89
411.116	1.8
411.324	1.75
411.533	1.9
411.741	1.89
411.949	1.91
412.157	1.87
412.365	1.73
412.573	1.62
412.781	1.57
412.99	1.57
413.198	1.67
413.406	1.88
413.614	2
413.822	2.03
414.03	1.94
414.238	1.91
414.446	1.97
414.654	1.83
414.862	1.8
415.07	1.63
415.278	1.65
415.486	1.47
415.694	1.56
415.902	1.58
416.109	1.8
416.317	1.81
416.525	1.9
416.733	1.94
416.941	1.96
417.149	1.94
417.357	1.92
417.564	1.92
417.772	1.79
417.98	1.87
418.188	1.79
418.395	1.67
418.603	1.59
418.811	1.75
419.019	1.79
419.226	1.99
419.434	2.14
419.642	2.08
419.849	1.97
420.057	1.75
420.265	1.64
420.472	1.58
420.68	1.6
420.887	1.6
421.095	1.68
421.302	1.68
421.51	1.6
421.717	1.71
421.925	1.72
422.132	1.67
422.34	1.57
422.547	1.44
422.755	1.43
422.962	1.41
423.17	1.35
423.377	1.5
423.585	1.75
423.792	1.6
423.999	1.52
424.207	1.49
424.414	1.32
424.621	1.35
424.829	1.62
425.036	1.73
425.243	1.83
425.451	1.84
425.658	1.81
425.865	1.59
426.072	1.51
426.28	1.6
426.487	1.69
426.694	1.46
426.901	1.28
427.108	1.28
427.315	1.42
427.523	1.37
427.73	1.54
427.937	1.89
428.144	1.91
428.351	1.65
428.558	1.75
428.765	1.78
428.972	1.77
429.179	1.77
429.386	1.77
429.593	1.74
429.8	1.74
430.007	1.67
430.214	1.88
430.421	1.95
430.628	1.89
430.835	1.91
431.042	1.79
431.249	1.67
431.456	1.55
431.662	1.6
431.869	1.59
432.076	1.67
432.283	1.6
432.49	1.65
432.697	1.67
432.903	1.65
433.11	1.6
433.317	1.6
433.524	1.7
433.73	1.67
433.937	1.76
434.144	1.63
434.35	1.65
434.557	1.54
434.764	1.57
434.97	1.42
435.177	1.6
435.384	1.54
435.59	1.61
435.797	1.68
436.003	1.76
436.21	1.74
436.416	1.73
436.623	1.67
436.829	1.65
437.036	1.61
437.242	1.67
437.449	1.75
437.655	1.86
437.862	1.88
438.068	1.84
438.275	1.87
438.481	1.89
438.687	1.79
438.894	1.79
439.1	1.88
439.307	1.88
439.513	1.77
439.719	1.75
439.926	1.74
440.132	1.7
440.338	1.67
440.544	1.7
440.751	1.75
440.957	1.78
441.163	1.78
441.369	1.79
441.575	1.79
441.782	1.75
441.988	1.73
442.194	1.73
442.4	1.66
442.606	1.86
442.812	1.83
443.018	1.87
443.224	2.05
443.431	2.12
443.637	2.02
443.843	2.13
444.049	2.08
444.255	1.92
444.461	1.92
444.667	1.83
444.873	1.72
445.079	1.68
445.284	1.73
445.49	1.75
445.696	1.78
445.902	1.8
446.108	1.73
446.314	1.76
446.52	1.78
446.726	1.78
446.931	1.79
447.137	1.89
447.343	1.81
447.549	1.76
447.755	1.76
447.96	1.83
448.166	1.79
448.372	1.79
448.578	1.87
448.783	2.01
448.989	2.03
449.195	2.04
449.4	2.14
449.606	2.09
449.812	1.91
450.017	1.87
450.223	1.97
450.428	1.89
450.634	1.93
450.84	2.05
451.045	2.05
451.251	2.04
451.456	2.09
451.662	2.06
451.867	2.04
452.073	2.02
452.278	1.92
452.483	1.92
452.689	1.93
452.894	1.92
453.1	1.95
453.305	2.04
453.51	2
453.716	1.99
453.921	1.99
454.127	2.1
454.332	1.93
454.537	1.9
454.742	1.91
454.948	1.73
455.153	1.67
455.358	1.79
455.563	1.85
455.769	1.76
455.974	1.88
456.179	1.73
456.384	1.72
456.589	1.72
456.795	1.8
457	1.87
457.205	2.04
457.41	2.15
457.615	2.1
457.82	2.13
458.025	2.03
458.23	1.99
458.435	1.87
458.64	1.85
458.845	1.86
459.05	1.87
459.255	1.84
459.46	1.95
459.665	2.03
459.87	1.97
460.075	2.04
460.28	2.05
460.485	1.95
460.69	2
460.895	2
461.099	1.93
461.304	1.88
461.509	1.9
461.714	1.86
461.919	1.84
462.123	1.92
462.328	2.02
462.533	2.02
462.738	2.02
462.942	2.05
463.147	2.01
463.352	1.95
463.556	1.99
463.761	1.88
463.966	1.99
464.17	2.07
464.375	2.07
464.58	2.05
464.784	2.15
464.989	2.01
465.193	2
465.398	2.04
465.602	2.12
465.807	2.11
466.011	2.16
466.216	2.08
466.42	2.07
466.625	2.08
466.829	2.09
467.034	2.11
467.238	2.18
467.443	2.13
467.647	2
467.851	2.08
468.056	2.07
468.26	2.01
468.464	2.06
468.669	2.22
468.873	2.2
