Data from Ofav_PS_Phys_356_Reflection_1.txt Node
Date: Thu Jul 29 18:17:54 EDT 2021
User: USUARIO
Spectrometer: FLMT01687
Trigger mode: 0
Integration Time (sec): 9.010000E-1
Scans to average: 2
Electric dark correction enabled: true
Nonlinearity correction enabled: false
Boxcar width: 2
XAxis mode: Wavelengths
Number of Pixels in Spectrum: 3648
>>>>>Begin Spectral Data<<<<<
179.494	121.9
179.716	32.43
179.937	-0.92
180.158	420.34
180.38	97.47
180.601	-226.77
180.823	-168.42
181.044	-109.44
181.265	-127.05
181.486	-589.83
181.708	120.57
181.929	284.52
182.15	10000
182.372	-161.88
182.593	-25.66
182.814	-28.1
183.035	-288.66
183.257	46.13
183.478	29.06
183.699	37.2
183.92	31.14
184.141	48.32
184.363	61.4
184.584	62.98
184.805	54.21
185.026	47.68
185.247	27.88
185.468	3.33
185.689	-27.13
185.91	-15.76
186.132	-17.74
186.353	26.73
186.574	55.78
186.795	58.98
187.016	50.97
187.237	38.9
187.458	37.23
187.679	42.89
187.9	59.7
188.121	41.08
188.342	51.9
188.563	34.7
188.784	24.38
189.005	22.42
189.226	47.1
189.447	46.45
189.667	68.88
189.888	78.13
190.109	95.24
190.33	126.28
190.551	105.22
190.772	87.21
190.993	44.87
191.214	15.07
191.434	6.44
191.655	12.85
191.876	-9.37
192.097	-53.62
192.318	-23.02
192.538	-0.26
192.759	4.48
192.98	25.17
193.201	46.03
193.421	58.58
193.642	35.82
193.863	22.68
194.083	17.62
194.304	12.17
194.525	21.05
194.745	36.44
194.966	16.52
195.187	20.13
195.407	11.03
195.628	-47.23
195.848	-19.74
196.069	28.66
196.29	30.33
196.51	42.89
196.731	49.34
196.951	52.61
197.172	20.07
197.392	14.91
197.613	-11.54
197.833	2.07
198.054	2.73
198.274	0.89
198.495	4.37
198.715	-2.79
198.936	-15.8
199.156	-13.42
199.377	34.26
199.597	71.5
199.817	80.12
200.038	76.44
200.258	70.5
200.479	55.06
200.699	-38.53
200.919	-11.74
201.14	-6.74
201.36	-11.84
201.58	9.36
201.801	35.3
202.021	49.61
202.241	65.22
202.461	74.3
202.682	62.42
202.902	71.56
203.122	62.3
203.342	45.4
203.563	91.25
203.783	68.88
204.003	45.41
204.223	11.61
204.443	37.29
204.663	1.21
204.884	23.01
205.104	25.42
205.324	30.65
205.544	25.4
205.764	27.07
205.984	50.03
206.204	59.21
206.424	79.65
206.644	83.75
206.864	75.21
207.084	45.73
207.304	34.07
207.525	-7.44
207.745	13.42
207.964	25.29
208.184	16.52
208.404	-11.29
208.624	25.94
208.844	27.78
209.064	38.89
209.284	29.4
209.504	31.99
209.724	40.75
209.944	41.48
210.164	38.71
210.384	41.76
210.604	62.12
210.823	52.61
211.043	38.19
211.263	54.32
211.483	59.75
211.703	34.84
211.922	38.94
212.142	33.16
212.362	3.63
212.582	15.18
212.801	21.13
213.021	-5.35
213.241	3.99
213.461	4.38
213.68	-32.83
213.9	-22.41
214.12	-7.68
214.339	-36.65
214.559	-31.52
214.779	-4.78
214.998	-27.5
215.218	-38.11
215.438	-4.36
215.657	8.21
215.877	16.32
216.096	14.71
216.316	9.66
216.535	-12.01
216.755	-26.8
216.974	-60.57
217.194	-38.4
217.413	3.54
217.633	33.44
217.852	4.7
218.072	27.93
218.291	26.68
218.511	29.58
218.73	12.59
218.95	31.69
219.169	23.48
219.389	13.91
219.608	8.55
219.827	23.19
220.047	28.37
220.266	18.41
220.485	38.63
220.705	40.57
220.924	19.14
221.143	8.82
221.363	13.49
221.582	-30.07
221.801	-110.69
222.021	-71.77
222.24	-42.71
222.459	0.28
222.678	33.65
222.897	34.53
223.117	47.04
223.336	56.6
223.555	31.19
223.774	26.21
223.993	35.7
224.213	36.22
224.432	20.62
224.651	35.87
224.87	26.16
225.089	23.81
225.308	23.13
225.527	42.48
225.746	35.56
225.965	59.23
226.184	44.31
226.404	27.33
226.623	14.26
226.842	6.8
227.061	-10.6
227.28	14.04
227.499	25.5
227.718	35.25
227.936	23.21
228.155	26.9
228.374	-6.79
228.593	3.25
228.812	-13.02
229.031	2.46
229.25	17.62
229.469	34.88
229.688	24.25
229.907	41.96
230.125	28.42
230.344	29.26
230.563	33.6
230.782	59.42
231.001	48.33
231.22	51.98
231.438	48.2
231.657	28.91
231.876	21.1
232.095	19.63
232.313	23.69
232.532	18.1
232.751	33.36
232.969	42.45
233.188	39.43
233.407	19.32
233.625	2.88
233.844	18.15
234.063	2.96
234.281	-10.61
234.5	-9.67
234.719	17.78
234.937	-15.25
235.156	-23.51
235.374	21
235.593	30.55
235.811	20.4
236.03	29.54
236.249	28.83
236.467	29.26
236.686	41.89
236.904	39.73
237.123	48.38
237.341	33.49
237.559	12.85
237.778	22.79
237.996	33.17
238.215	30.43
238.433	45.44
238.652	52.86
238.87	23.13
239.088	16.37
239.307	7.84
239.525	12.79
239.743	11.25
239.962	25.14
240.18	22.07
240.398	19.2
240.617	4.02
240.835	-12.72
241.053	0.63
241.271	6.58
241.49	24.33
241.708	48.42
241.926	53.33
242.144	33.41
242.363	40.63
242.581	24.42
242.799	12.66
243.017	19.87
243.235	23.31
243.453	24.7
243.672	36.06
243.89	24.82
244.108	37.64
244.326	50.88
244.544	30.14
244.762	8.34
244.98	13.08
245.198	0.48
245.416	4.79
245.634	-9.27
245.852	17.15
246.07	25.35
246.288	35.07
246.506	32.41
246.724	46.44
246.942	34.62
247.16	41.51
247.378	18.31
247.596	10.93
247.814	7.98
248.032	8.94
248.25	15.78
248.468	34.69
248.685	26.04
248.903	45.69
249.121	51.22
249.339	21.27
249.557	13.23
249.775	11.67
249.992	-11.99
250.21	1.44
250.428	34.54
250.646	41.73
250.863	55.73
251.081	64.58
251.299	65.76
251.517	45.25
251.734	38.38
251.952	36.12
252.17	20.34
252.387	17.41
252.605	30.14
252.823	32.81
253.04	33.39
253.258	44.25
253.475	34.76
253.693	35.63
253.911	28.54
254.128	27.8
254.346	18.63
254.563	23.28
254.781	20.06
254.998	48.17
255.216	32.31
255.433	59.53
255.651	58
255.868	44.97
256.086	37.83
256.303	46.86
256.521	36.79
256.738	27.9
256.956	41
257.173	41.18
257.39	55.23
257.608	38.02
257.825	51.01
258.043	50.28
258.26	38.83
258.477	19.95
258.695	34.3
258.912	33.91
259.129	9.86
259.346	15.3
259.564	55.96
259.781	32.67
259.998	40.72
260.216	63
260.433	71.8
260.65	54.7
260.867	56.61
261.084	41.98
261.302	24.68
261.519	5.98
261.736	13.16
261.953	7.05
262.17	21.26
262.387	20.25
262.604	11.8
262.822	0.93
263.039	18.93
263.256	4.24
263.473	15.48
263.69	30.63
263.907	53.86
264.124	40.39
264.341	62.02
264.558	52.01
264.775	32.68
264.992	17.49
265.209	15.76
265.426	5.24
265.643	10.05
265.86	14.51
266.077	23.61
266.294	23.8
266.51	13.63
266.727	24.33
266.944	15.56
267.161	6.37
267.378	6.04
267.595	28.61
267.812	10.08
268.028	-1.51
268.245	10.28
268.462	6.67
268.679	-13.73
268.896	-7.59
269.112	11.32
269.329	3.64
269.546	12.38
269.763	18.71
269.979	27
270.196	44.62
270.413	46.35
270.629	37.27
270.846	33.72
271.063	29.19
271.279	15.45
271.496	22.06
271.712	8.14
271.929	18.19
272.146	39.02
272.362	21.8
272.579	37.61
272.795	40.9
273.012	26.73
273.228	7.26
273.445	29.31
273.661	13.21
273.878	34.83
274.094	40.56
274.311	38.42
274.527	26.31
274.744	44.83
274.96	41.35
275.177	39.37
275.393	31.43
275.609	33.25
275.826	13.08
276.042	10.33
276.259	7.53
276.475	30.52
276.691	29.73
276.908	27.56
277.124	29.16
277.34	32.96
277.557	30.91
277.773	24.57
277.989	36.42
278.205	32.32
278.422	27.42
278.638	20.56
278.854	28.87
279.07	30.21
279.286	28.59
279.503	28.47
279.719	20.7
279.935	16.7
280.151	-7.89
280.367	-15.39
280.583	1.98
280.799	-1.16
281.016	-0
281.232	21.22
281.448	27.96
281.664	28.66
281.88	28.76
282.096	34.09
282.312	14.24
282.528	12.18
282.744	-8.66
282.96	-0.84
283.176	-17.53
283.392	8.47
283.608	2.51
283.824	-2.72
284.04	-3.94
284.256	13.53
284.471	4.3
284.687	32.56
284.903	50.29
285.119	43.41
285.335	19.59
285.551	18.56
285.767	12.03
285.982	16.03
286.198	14.42
286.414	24.03
286.63	41.97
286.846	42.58
287.061	45.92
287.277	45.79
287.493	45.84
287.709	29.78
287.924	26.82
288.14	17.54
288.356	34.53
288.571	35.42
288.787	36.67
289.003	35.4
289.218	22.98
289.434	12.51
289.65	16.93
289.865	3.1
290.081	-8.01
290.296	22.21
290.512	12.55
290.727	12.65
290.943	28.22
291.159	38.92
291.374	39.75
291.59	34.79
291.805	21.19
292.021	27.55
292.236	40.56
292.451	9.94
292.667	16.64
292.882	30.08
293.098	19.93
293.313	1.81
293.529	23.28
293.744	22.9
293.959	6.75
294.175	21.75
294.39	26.94
294.605	31.98
294.821	33.93
295.036	38.01
295.251	16.18
295.467	7.74
295.682	1.14
295.897	-3.66
296.112	-10.97
296.328	9.69
296.543	9.73
296.758	22.89
296.973	19.68
297.188	37.11
297.404	19.6
297.619	28.72
297.834	4.12
298.049	17.77
298.264	27.47
298.479	40.8
298.694	41.74
298.909	45.39
299.125	49.51
299.34	46.29
299.555	25.99
299.77	26.23
299.985	20.63
300.2	30.25
300.415	19.09
300.63	37.41
300.845	35.89
301.06	32.98
301.275	14.04
301.49	-5.35
301.704	-52.69
301.919	-16.1
302.134	-3.15
302.349	-7.21
302.564	9.27
302.779	19.08
302.994	4.14
303.209	13.77
303.423	25.46
303.638	23.5
303.853	23.07
304.068	23.42
304.283	9.71
304.497	12.27
304.712	-8.73
304.927	-0.95
305.142	0.59
305.356	-7.73
305.571	14.13
305.786	27.55
306	10.56
306.215	18.6
306.43	8.5
306.644	-20.53
306.859	-29.7
307.074	-11.52
307.288	-6.44
307.503	30.1
307.717	31.39
307.932	24.35
308.147	20.51
308.361	15.7
308.576	-3.53
308.79	-15.23
309.005	13.98
309.219	16.59
309.434	25.14
309.648	34.55
309.863	40.8
310.077	36.46
310.292	40.67
310.506	25.17
310.72	38.49
310.935	16.39
311.149	20.83
311.364	16.2
311.578	17.04
311.792	-6.81
312.007	18.3
312.221	1.91
312.435	8.95
312.649	21.89
312.864	-94.31
313.078	-68.5
313.292	-55.09
313.507	-32.18
313.721	-31.24
313.935	29.97
314.149	27.26
314.363	32.29
314.578	28.29
314.792	38.13
315.006	39.82
315.22	45.34
315.434	54.39
315.648	44.14
315.862	31.59
316.077	25.79
316.291	30.27
316.505	36.52
316.719	48.02
316.933	53.6
317.147	60.18
317.361	41.07
317.575	15.19
317.789	-6.41
318.003	-0.8
318.217	15.39
318.431	24.22
318.645	24.91
318.859	44.15
319.073	51.3
319.287	28.64
319.5	24.46
319.714	34.47
319.928	31.64
320.142	38.03
320.356	40.66
320.57	46.45
320.784	48.58
320.997	34.58
321.211	29.77
321.425	37.48
321.639	28.76
321.853	30.3
322.066	16.88
322.28	33.35
322.494	28.13
322.707	36.67
322.921	19.26
323.135	25.56
323.349	1.97
323.562	-5.1
323.776	-32.31
323.989	-13.07
324.203	-1.67
324.417	11.59
324.63	10.11
324.844	20.68
325.057	13.49
325.271	8.95
325.485	8.6
325.698	19.74
325.912	31.02
326.125	29.45
326.339	27.7
326.552	27.28
326.766	23.78
326.979	14.55
327.193	17.95
327.406	33.5
327.619	15.83
327.833	10.67
328.046	19.24
328.26	28.13
328.473	23.17
328.686	20.74
328.9	18.99
329.113	-5.75
329.326	-23.28
329.54	-45.29
329.753	-16.06
329.966	-1.72
330.179	8.06
330.393	17.93
330.606	23.5
330.819	25.07
331.032	22.87
331.246	25.56
331.459	-2.67
331.672	-10.14
331.885	12.72
332.098	20.59
332.311	21.75
332.525	33.89
332.738	28.75
332.951	5.24
333.164	2.61
333.377	-4.17
333.59	9.75
333.803	22.8
334.016	32.05
334.229	26.54
334.442	22.5
334.655	5.81
334.868	-1.48
335.081	10.97
335.294	13.52
335.507	22.18
335.72	44.26
335.933	40.93
336.146	34.84
336.359	47.62
336.572	39.73
336.785	18.75
336.997	27.71
337.21	35.5
337.423	32.84
337.636	28.6
337.849	29.87
338.062	15.83
338.274	4.12
338.487	-16.05
338.7	-21.6
338.913	-11.01
339.125	2.1
339.338	1.64
339.551	14.23
339.763	12.66
339.976	-5.93
340.189	-2.59
340.402	-3.27
340.614	-43.16
340.827	-20.39
341.039	1.54
341.252	6.41
341.465	15.86
341.677	36.33
341.89	25.55
342.102	20.07
342.315	13.07
342.527	13.74
342.74	4.58
342.952	15.48
343.165	22.54
343.377	19.52
343.59	8.62
343.802	13.88
344.015	17.53
344.227	9.03
344.44	23.48
344.652	29.59
344.864	18.64
345.077	22.08
345.289	23.98
345.502	3.88
345.714	-3.75
345.926	16.14
346.139	-22.14
346.351	-10.61
346.563	5.05
346.775	7.53
346.988	-11.17
347.2	2.6
347.412	1.5
347.624	4.65
347.837	5.57
348.049	13.64
348.261	15.42
348.473	12.08
348.685	7.93
348.897	21.5
349.11	23.27
349.322	25.68
349.534	32.98
349.746	29.97
349.958	28.1
350.17	14.55
350.382	18.85
350.594	7.02
350.806	25.62
351.018	8.42
351.23	2.69
351.442	-18.69
351.654	2.66
351.866	-27.04
352.078	3.53
352.29	5.93
352.502	22.77
352.714	14.79
352.926	18.99
353.138	3.4
353.35	1.27
353.561	-5.47
353.773	12.56
353.985	25.95
354.197	33.85
354.409	34.06
354.621	22.58
354.832	3.06
355.044	5.95
355.256	-1.8
355.468	0.73
355.679	18.85
355.891	29.57
356.103	30.01
356.314	31.6
356.526	27.88
356.738	20.35
356.949	15.07
357.161	16.45
357.373	22
357.584	27.8
357.796	31.22
358.008	29.08
358.219	23.35
358.431	-1.26
358.642	1.35
358.854	6.45
359.065	21.15
359.277	17.28
359.488	38.01
359.7	33.72
359.911	34.34
360.123	15.44
360.334	20.55
360.546	9.06
360.757	3.35
360.969	-5.36
361.18	22.05
361.391	8.17
361.603	13.87
361.814	41.36
362.025	40.83
362.237	28.86
362.448	35.39
362.659	30.55
362.871	17.62
363.082	12.21
363.293	8.93
363.504	11.52
363.716	6.77
363.927	-4.31
364.138	-20.36
364.349	-13.9
364.56	-10.2
364.772	-8.62
364.983	-3.09
365.194	15.63
365.405	20.37
365.616	8.1
365.827	17.04
366.038	15.34
366.25	-1.47
366.461	-17.61
366.672	-19.85
366.883	-10.68
367.094	-10.84
367.305	17
367.516	37.73
367.727	42.24
367.938	37.93
368.149	27.55
368.36	28.28
368.571	21.12
368.781	-6.33
368.992	-14.78
369.203	-3.17
369.414	-20.53
369.625	-2.91
369.836	18.39
370.047	15.53
370.258	20.49
370.468	26.38
370.679	6.77
370.89	-7.48
371.101	21.25
371.312	15.44
371.522	25.31
371.733	35.92
371.944	48.76
372.155	43.96
372.365	47.54
372.576	39.65
372.787	31.26
372.997	30.01
373.208	8.05
373.419	-1.13
373.629	8.57
373.84	17.44
374.05	12.37
374.261	24.89
374.472	21.95
374.682	6.69
374.893	4.4
375.103	22.71
375.314	36.91
375.524	41.9
375.735	52.67
375.945	56.29
376.156	44.43
376.366	16.2
376.577	26.27
376.787	21.89
376.997	20.01
377.208	8.95
377.418	21.86
377.629	10.04
377.839	15.89
378.049	20.01
378.26	30.44
378.47	31.67
378.68	36.82
378.89	24.24
379.101	22.09
379.311	17.29
379.521	12.67
379.732	9.42
379.942	9.76
380.152	6.33
380.362	11.73
380.572	12.26
380.783	-0
380.993	0.24
381.203	9.71
381.413	-3.54
381.623	-7.83
381.833	11.96
382.043	21.11
382.253	18.04
382.463	20.44
382.674	19.18
382.884	15.45
383.094	4.69
383.304	4.66
383.514	1.69
383.724	12.69
383.934	5.39
384.144	7.96
384.353	12.61
384.563	19.29
384.773	12.41
384.983	18.67
385.193	23.57
385.403	14.38
385.613	15.35
385.823	19.87
386.033	17.96
386.242	14.24
386.452	15.36
386.662	11.64
386.872	8.46
387.082	3.15
387.291	-0.42
387.501	-0.1
387.711	-1.14
387.921	-0.62
388.13	3.67
388.34	6.39
388.55	7.82
388.759	10.12
388.969	7.17
389.179	4.89
389.388	4.6
389.598	4.24
389.807	2.39
390.017	3.56
390.227	9
390.436	9.6
390.646	7.79
390.855	8.05
391.065	7.79
391.274	6.18
391.484	5.57
391.693	6.2
391.903	6.32
392.112	6.85
392.322	4.6
392.531	3.64
392.74	1.52
392.95	2.45
393.159	2.9
393.369	5.24
393.578	5.73
393.787	7.84
393.997	6.27
394.206	5.81
394.415	6.01
394.625	5.93
394.834	6.05
395.043	5.99
395.252	7.32
395.462	5.89
395.671	5.93
395.88	7.2
396.089	8.13
396.298	7.03
396.508	7.06
396.717	7.25
396.926	6.23
397.135	5.52
397.344	5.72
397.553	6.29
397.762	7.02
397.971	6.99
398.181	7.69
398.39	7.36
398.599	7.42
398.808	7.16
399.017	7.89
399.226	7.68
399.435	7.98
399.644	8.35
399.853	8.06
400.062	7.94
400.27	8.05
400.479	8.14
400.688	7.77
400.897	7.93
401.106	7.6
401.315	7.57
401.524	7.59
401.733	7.56
401.941	7.82
402.15	7.9
402.359	7.75
402.568	7.69
402.777	7.56
402.985	7.22
403.194	7.04
403.403	7.15
403.612	7.15
403.82	7.22
404.029	7.15
404.238	7.06
404.446	6.97
404.655	6.69
404.864	6.59
405.072	6.49
405.281	6.56
405.489	6.51
405.698	6.65
405.906	6.66
406.115	6.79
406.324	6.46
406.532	6.51
406.741	6.59
406.949	6.63
407.158	6.64
407.366	6.88
407.574	6.75
407.783	6.73
407.991	6.57
408.2	6.44
408.408	6.29
408.617	6.27
408.825	6.3
409.033	6.47
409.242	6.6
409.45	6.68
409.658	6.77
409.867	6.64
410.075	6.57
410.283	6.39
410.491	6.3
410.7	6.26
410.908	6.22
411.116	6.21
411.324	6.28
411.533	6.41
411.741	6.5
411.949	6.51
412.157	6.45
412.365	6.31
412.573	6.21
412.781	6.02
412.99	6.02
413.198	5.94
413.406	6.02
413.614	6.1
413.822	6.17
414.03	6.15
414.238	6.22
414.446	6.37
414.654	6.38
414.862	6.4
415.07	6.34
415.278	6.3
415.486	6.13
415.694	6.13
415.902	6.06
416.109	6.06
416.317	6.16
416.525	6.29
416.733	6.26
416.941	6.42
417.149	6.38
417.357	6.24
417.564	6.03
417.772	5.93
417.98	5.73
418.188	5.77
418.395	5.69
418.603	5.76
418.811	5.85
419.019	6.09
419.226	6.2
419.434	6.29
419.642	6.12
419.849	5.89
420.057	5.74
420.265	5.63
420.472	5.62
420.68	5.73
420.887	5.96
421.095	6.06
421.302	6.04
421.51	6.1
421.717	6.1
421.925	6.08
422.132	5.81
422.34	5.63
422.547	5.43
422.755	5.54
422.962	5.47
423.17	5.41
423.377	5.65
423.585	5.88
423.792	5.8
423.999	5.86
424.207	5.95
424.414	5.71
424.621	5.71
424.829	5.88
425.036	5.85
425.243	5.93
425.451	6.09
425.658	5.98
425.865	5.66
426.072	5.51
426.28	5.53
426.487	5.51
426.694	5.42
426.901	5.32
427.108	5.33
427.315	5.29
427.523	5.34
427.73	5.33
427.937	5.44
428.144	5.5
428.351	5.34
428.558	5.32
428.765	5.47
428.972	5.62
429.179	5.49
429.386	5.64
429.593	5.62
429.8	5.63
430.007	5.61
430.214	5.69
430.421	5.8
430.628	5.67
430.835	5.58
431.042	5.59
431.249	5.78
431.456	5.56
431.662	5.82
431.869	6
432.076	5.93
432.283	5.91
432.49	5.98
432.697	5.85
432.903	5.6
433.11	5.54
433.317	5.33
433.524	5.48
433.73	5.47
433.937	5.52
434.144	5.52
434.35	5.65
434.557	5.43
434.764	5.38
434.97	5.42
435.177	5.6
435.384	5.54
435.59	5.56
435.797	5.68
436.003	5.6
436.21	5.39
436.416	5.35
436.623	5.36
436.829	5.32
437.036	5.31
437.242	5.47
437.449	5.46
437.655	5.51
437.862	5.54
438.068	5.61
438.275	5.48
438.481	5.5
438.687	5.49
438.894	5.46
439.1	5.44
439.307	5.48
439.513	5.52
439.719	5.44
439.926	5.47
440.132	5.5
440.338	5.54
440.544	5.5
440.751	5.53
440.957	5.54
441.163	5.68
441.369	5.72
441.575	5.67
441.782	5.69
441.988	5.68
442.194	5.54
442.4	5.45
442.606	5.51
442.812	5.5
443.018	5.49
443.224	5.54
443.431	5.52
443.637	5.59
443.843	5.53
444.049	5.47
444.255	5.38
444.461	5.38
444.667	5.32
444.873	5.35
445.079	5.36
445.284	5.38
445.49	5.43
445.696	5.44
445.902	5.46
446.108	5.39
446.314	5.53
446.52	5.49
446.726	5.5
446.931	5.51
447.137	5.58
447.343	5.48
447.549	5.43
447.755	5.31
447.96	5.41
448.166	5.31
448.372	5.35
448.578	5.49
448.783	5.66
448.989	5.58
449.195	5.59
449.4	5.58
449.606	5.5
449.812	5.43
450.017	5.4
450.223	5.46
450.428	5.43
450.634	5.46
450.84	5.51
451.045	5.51
451.251	5.52
451.456	5.57
451.662	5.51
451.867	5.52
452.073	5.58
452.278	5.51
452.483	5.47
452.689	5.52
452.894	5.42
453.1	5.36
453.305	5.44
453.51	5.41
453.716	5.39
453.921	5.55
454.127	5.64
454.332	5.51
454.537	5.49
454.742	5.47
454.948	5.3
455.153	5.25
455.358	5.37
455.563	5.44
455.769	5.39
455.974	5.48
456.179	5.4
456.384	5.35
456.589	5.34
456.795	5.38
457	5.38
457.205	5.46
457.41	5.52
457.615	5.5
457.82	5.55
458.025	5.58
458.23	5.57
458.435	5.58
458.64	5.59
458.845	5.52
459.05	5.52
459.255	5.53
459.46	5.45
459.665	5.44
459.87	5.38
460.075	5.33
460.28	5.26
460.485	5.25
460.69	5.26
460.895	5.3
461.099	5.28
461.304	5.28
461.509	5.26
461.714	5.26
461.919	5.24
462.123	5.21
462.328	5.3
462.533	5.35
462.738	5.32
462.942	5.31
463.147	5.4
463.352	5.4
463.556	5.42
463.761	5.32
463.966	5.43
464.17	5.41
464.375	5.34
464.58	5.28
464.784	5.44
464.989	5.34
465.193	5.31
465.398	5.44
465.602	5.46
465.807	5.43
466.011	5.6
466.216	5.57
466.42	5.48
466.625	5.64
466.829	5.8
467.034	5.8
467.238	5.8
467.443	5.79
467.647	5.62
467.851	5.45
468.056	5.32
468.26	5.32
468.464	5.35
468.669	5.44
468.873	5.46
469.077	5.49
