Data from Ofav_PS_Phys_9GT46_Reflection_1.txt Node
Date: Thu Jul 29 18:25:44 EDT 2021
User: USUARIO
Spectrometer: FLMT01687
Trigger mode: 0
Integration Time (sec): 9.010000E-1
Scans to average: 2
Electric dark correction enabled: true
Nonlinearity correction enabled: false
Boxcar width: 2
XAxis mode: Wavelengths
Number of Pixels in Spectrum: 3648
>>>>>Begin Spectral Data<<<<<
179.494	452.06
179.716	475.23
179.937	308.85
180.158	-1419.21
180.38	-41.69
180.601	-580.58
180.823	-249.33
181.044	-115.09
181.265	-86.68
181.486	-937.85
181.708	90.38
181.929	228.73
182.15	6666.67
182.372	-106.98
182.593	-48.35
182.814	-82.91
183.035	-1124.4
183.257	233.27
183.478	103.2
183.699	81.52
183.92	57.85
184.141	39.45
184.363	31
184.584	62.9
184.805	51.3
185.026	73.6
185.247	64.54
185.468	52.76
185.689	-6.36
185.91	-3.22
186.132	-6.49
186.353	7.67
186.574	45.38
186.795	61.53
187.016	45.87
187.237	10.73
187.458	18.39
187.679	18.25
187.9	22.4
188.121	25.53
188.342	49.07
188.563	55.84
188.784	54.66
189.005	43.66
189.226	55.33
189.447	55.32
189.667	50.9
189.888	35.76
190.109	39.92
190.33	-43.27
190.551	-23.15
190.772	-4.17
190.993	1.46
191.214	-17.38
191.434	-1.01
191.655	2.27
191.876	-25.85
192.097	-83.15
192.318	-10.54
192.538	16.59
192.759	46.26
192.98	44.65
193.201	48.82
193.421	17.97
193.642	-7.75
193.863	-32.7
194.083	-76.95
194.304	-68.75
194.525	-8.92
194.745	-21.96
194.966	-20.37
195.187	-19.06
195.407	-26.56
195.628	-91.76
195.848	-46.28
196.069	-19.51
196.29	3.54
196.51	12.11
196.731	13.76
196.951	-9.89
197.172	-54.8
197.392	-44.57
197.613	-77.39
197.833	-74.78
198.054	-36.18
198.274	-16.68
198.495	5.32
198.715	4.48
198.936	11.27
199.156	6.31
199.377	21.39
199.597	15.33
199.817	25.38
200.038	22.98
200.258	19.63
200.479	-14.74
200.699	-48.73
200.919	-7.14
201.14	-15.38
201.36	-1.41
201.58	15.77
201.801	30.1
202.021	25.78
202.241	39.65
202.461	26.78
202.682	11.7
202.902	26.42
203.122	31.33
203.342	30.38
203.563	37.37
203.783	32.92
204.003	23.2
204.223	2.26
204.443	18.7
204.663	39.09
204.884	61.98
205.104	64.25
205.324	54.91
205.544	57.64
205.764	47.85
205.984	70.37
206.204	70.81
206.424	68.95
206.644	61.64
206.864	59.57
207.084	-2.18
207.304	18.15
207.525	-28.4
207.745	-6.65
207.964	-8.16
208.184	7.67
208.404	-42.65
208.624	13.41
208.844	-8.03
209.064	-1.99
209.284	-7.64
209.504	-3.71
209.724	13.37
209.944	32.41
210.164	25.34
210.384	37.79
210.604	40.75
210.823	15.88
211.043	8.19
211.263	44.98
211.483	7.27
211.703	6.34
211.922	0.6
212.142	24.03
212.362	-12.19
212.582	5.51
212.801	15.96
213.021	14.07
213.241	-3.45
213.461	4.72
213.68	-7.9
213.9	-4.78
214.12	12.16
214.339	-33.26
214.559	-29.48
214.779	-4.25
214.998	-25.79
215.218	-41.71
215.438	7.69
215.657	-2.65
215.877	9.15
216.096	-6.41
216.316	-14.44
216.535	-31.74
216.755	-66.41
216.974	-73.36
217.194	-28.62
217.413	8.26
217.633	24.44
217.852	5.18
218.072	-8.23
218.291	-6.75
218.511	14.64
218.73	1.74
218.95	20.11
219.169	29.1
219.389	21.12
219.608	-7.24
219.827	10.04
220.047	13.57
220.266	-4.49
220.485	15.34
220.705	18.72
220.924	-15.75
221.143	-25.32
221.363	-36.81
221.582	-69.55
221.801	-128.45
222.021	-52.72
222.24	-16.63
222.459	11.83
222.678	27.74
222.897	19.35
223.117	26.35
223.336	36.03
223.555	41.59
223.774	12.48
223.993	7.21
224.213	8.98
224.432	-0.07
224.651	11.9
224.87	24.27
225.089	43.08
225.308	37.29
225.527	22.35
225.746	-4.74
225.965	3.7
226.184	-5.99
226.404	-4.21
226.623	28.44
226.842	19.14
227.061	-14.57
227.28	-21.02
227.499	-6.16
227.718	-27.89
227.936	15.47
228.155	28.83
228.374	12.6
228.593	19.66
228.812	16.42
229.031	9.28
229.25	13.91
229.469	20.87
229.688	11.99
229.907	30.75
230.125	31.81
230.344	48.34
230.563	51.44
230.782	67.05
231.001	27.87
231.22	19.92
231.438	30.56
231.657	30.92
231.876	25.04
232.095	33.77
232.313	30.74
232.532	2.58
232.751	-17.55
232.969	7.75
233.188	8.61
233.407	19.51
233.625	32.55
233.844	18.76
234.063	-11.45
234.281	-37.62
234.5	-40.92
234.719	-24.03
234.937	-5.44
235.156	-21.13
235.374	40.75
235.593	46.71
235.811	43.74
236.03	31.55
236.249	35.48
236.467	14.04
236.686	0.44
236.904	-0.21
237.123	14.46
237.341	0.57
237.559	6.88
237.778	25.97
237.996	32.03
238.215	37.35
238.433	41.43
238.652	42.21
238.87	20.08
239.088	18.94
239.307	-8.08
239.525	5.81
239.743	7.46
239.962	16.18
240.18	14.32
240.398	24.84
240.617	4.77
240.835	-1.41
241.053	-1.53
241.271	2.04
241.49	4.74
241.708	32.16
241.926	28.35
242.144	21.97
242.363	18.4
242.581	8.64
242.799	-3.74
243.017	-8.81
243.235	-9.75
243.453	-8.53
243.672	-0.62
243.89	-16.41
244.108	2.51
244.326	15.26
244.544	8.4
244.762	3.26
244.98	12.35
245.198	13.5
245.416	-2.57
245.634	-11.27
245.852	-14.12
246.07	9.04
246.288	5.48
246.506	5.59
246.724	19.48
246.942	32.66
247.16	23.89
247.378	7.11
247.596	10.66
247.814	-4.04
248.032	-19.1
248.25	-15.34
248.468	-9.34
248.685	-2.28
248.903	-0.96
249.121	-4.85
249.339	-24.71
249.557	-18.31
249.775	-17.58
249.992	-31.24
250.21	-8.3
250.428	29.55
250.646	19.56
250.863	17.77
251.081	30.22
251.299	24.87
251.517	9.84
251.734	26.68
251.952	16.79
252.17	23.58
252.387	23.35
252.605	9.55
252.823	-14.45
253.04	17.6
253.258	19.31
253.475	17.78
253.693	18.15
253.911	47.35
254.128	41.64
254.346	4.04
254.563	-3.34
254.781	-10.75
254.998	-23.06
255.216	-56.61
255.433	-5.01
255.651	-7.13
255.868	-16.96
256.086	-1.4
256.303	16.43
256.521	14.47
256.738	10.89
256.956	29.18
257.173	8.95
257.39	23.23
257.608	23.29
257.825	35.11
258.043	12.98
258.26	10.15
258.477	-7.21
258.695	-39.36
258.912	-50.18
259.129	-44.94
259.346	-26.42
259.564	-66.49
259.781	-36.89
259.998	-25.64
260.216	8.59
260.433	17.51
260.65	10.43
260.867	21.2
261.084	17.78
261.302	-13.64
261.519	-23.54
261.736	7.46
261.953	4.33
262.17	20.13
262.387	31.08
262.604	7.16
262.822	2.92
263.039	4.46
263.256	-3.3
263.473	8.45
263.69	4.46
263.907	6.78
264.124	31.73
264.341	42.84
264.558	20.64
264.775	33.42
264.992	38.39
265.209	19.24
265.426	27.93
265.643	29.5
265.86	31.43
266.077	25.56
266.294	39.37
266.51	19.27
266.727	23.87
266.944	28.6
267.161	-7.22
267.378	-34.8
267.595	-20.63
267.812	-35.79
268.028	-76.03
268.245	-5.64
268.462	4.98
268.679	7
268.896	24.66
269.112	33.3
269.329	25
269.546	40.18
269.763	38.27
269.979	31.6
270.196	37.83
270.413	37.41
270.629	26.81
270.846	24.4
271.063	40.57
271.279	41.14
271.496	35.12
271.712	25.27
271.929	28.21
272.146	17.54
272.362	26.92
272.579	50.71
272.795	47.65
273.012	44.95
273.228	40.14
273.445	33.52
273.661	5.57
273.878	3.94
274.094	8.39
274.311	6.47
274.527	17.91
274.744	37.62
274.96	47.42
275.177	43.08
275.393	51.86
275.609	40.38
275.826	21.86
276.042	4.42
276.259	-12.61
276.475	-19.07
276.691	4.71
276.908	10.94
277.124	17.99
277.34	23.3
277.557	7.86
277.773	-3.38
277.989	-12.01
278.205	-7.69
278.422	-30.63
278.638	-19.64
278.854	-26.3
279.07	4.64
279.286	-28.65
279.503	-3.01
279.719	-7.14
279.935	-10.04
280.151	-43.28
280.367	-9.99
280.583	16.58
280.799	22.96
281.016	13.9
281.232	29.57
281.448	19.39
281.664	12.58
281.88	-7.73
282.096	11.47
282.312	-0.96
282.528	-2.9
282.744	1.95
282.96	19.52
283.176	-16.88
283.392	9.01
283.608	15.34
283.824	8.91
284.04	2.45
284.256	27.38
284.471	1.68
284.687	-3.17
284.903	-0.61
285.119	4.67
285.335	-11.36
285.551	10.33
285.767	5.05
285.982	8.6
286.198	6.85
286.414	19.12
286.63	26.99
286.846	32.57
287.061	23.14
287.277	38.52
287.493	37.11
287.709	15.67
287.924	35.99
288.14	36.51
288.356	33.77
288.571	30.6
288.787	24.52
289.003	-5.04
289.218	-13.12
289.434	-4.83
289.65	5.7
289.865	20.78
290.081	17.67
290.296	23.26
290.512	3.33
290.727	-20.26
290.943	-25.9
291.159	-8.26
291.374	3.4
291.59	3.07
291.805	-0.05
292.021	6.87
292.236	1.46
292.451	-32.05
292.667	-22.06
292.882	-2.67
293.098	10.76
293.313	6.47
293.529	23.68
293.744	8.92
293.959	-3.26
294.175	2.09
294.39	3.69
294.605	5.23
294.821	28.09
295.036	34.53
295.251	15.57
295.467	13.6
295.682	7.81
295.897	-7.95
296.112	-16.65
296.328	-2.55
296.543	2.11
296.758	-2.72
296.973	-1.86
297.188	19.1
297.404	8.88
297.619	11.24
297.834	6.72
298.049	18.23
298.264	15.09
298.479	25.28
298.694	25.42
298.909	29.43
299.125	23.43
299.34	14.89
299.555	-9.55
299.77	11.81
299.985	-23.79
300.2	-13.11
300.415	-21.16
300.63	-5.64
300.845	-41.8
301.06	-24.98
301.275	-44.5
301.49	-37.77
301.704	-54.79
301.919	0.34
302.134	10.87
302.349	20.33
302.564	35.39
302.779	37.84
302.994	32.07
303.209	29.49
303.423	37.5
303.638	23
303.853	4.68
304.068	7.1
304.283	12.63
304.497	8.72
304.712	-10.49
304.927	2.01
305.142	-16.08
305.356	-29.18
305.571	-12.19
305.786	17.19
306	0.74
306.215	7.78
306.43	7.28
306.644	-20.88
306.859	-52.55
307.074	-30.73
307.288	-12.22
307.503	10.3
307.717	11.98
307.932	17.44
308.147	13.54
308.361	3.36
308.576	-13.3
308.79	-31.95
309.005	-19.15
309.219	-24.61
309.434	-11.27
309.648	-15.12
309.863	-0.68
310.077	-1.24
310.292	0.99
310.506	-18.89
310.72	11.74
310.935	0.68
311.149	7.82
311.364	35.72
311.578	42.17
311.792	11.95
312.007	33.42
312.221	13.29
312.435	-0.31
312.649	-8.62
312.864	-104.28
313.078	-40.98
313.292	-9.48
313.507	19.52
313.721	31.13
313.935	34.99
314.149	17.16
314.363	19.84
314.578	7.75
314.792	29.72
315.006	42.18
315.22	46.23
315.434	37.97
315.648	45.83
315.862	32.23
316.077	16.98
316.291	29.14
316.505	35.53
316.719	31.64
316.933	27.22
317.147	34.22
317.361	2.35
317.575	-4.41
317.789	-22.16
318.003	-5.66
318.217	8.96
318.431	19.44
318.645	25.54
318.859	40.68
319.073	38.58
319.287	32.2
319.5	16.65
319.714	21.86
319.928	15.61
320.142	32.95
320.356	33.3
320.57	35.39
320.784	30.22
320.997	10.93
321.211	-1.39
321.425	-2.55
321.639	-3.1
321.853	2.65
322.066	6.03
322.28	15.12
322.494	16.58
322.707	28.28
322.921	15.32
323.135	17.09
323.349	12.21
323.562	1.98
323.776	-17.04
323.989	-1.3
324.203	21.17
324.417	11.19
324.63	8.55
324.844	18.64
325.057	13.59
325.271	-1.06
325.485	2.72
325.698	5.21
325.912	7.78
326.125	5.25
326.339	5.96
326.552	-3.18
326.766	-1.89
326.979	6.63
327.193	10.23
327.406	16.25
327.619	19.96
327.833	27.87
328.046	28.07
328.26	31.7
328.473	30.79
328.686	31.77
328.9	36.52
329.113	12.19
329.326	-20.14
329.54	-55.95
329.753	-43.59
329.966	-21.45
330.179	-17.91
330.393	-4.64
330.606	7.02
330.819	13.74
331.032	4.09
331.246	9.79
331.459	-20.98
331.672	-19.67
331.885	-17.03
332.098	-5.7
332.311	9
332.525	16.46
332.738	10.16
332.951	-18.47
333.164	-21.69
333.377	-36.85
333.59	-7.56
333.803	13.49
334.016	32.94
334.229	19.33
334.442	17.79
334.655	19.75
334.868	6.01
335.081	21.9
335.294	38.14
335.507	51.95
335.72	44.86
335.933	43.45
336.146	46.56
336.359	38.85
336.572	20.53
336.785	23.19
336.997	14.33
337.21	0.43
337.423	3.87
337.636	22.25
337.849	17.74
338.062	23.31
338.274	32.5
338.487	28.49
338.7	-15.77
338.913	2.1
339.125	4.15
339.338	5.38
339.551	-4.05
339.763	7.41
339.976	-8.79
340.189	-5.76
340.402	-1.09
340.614	7.88
340.827	10.94
341.039	0.32
341.252	-2.59
341.465	4.27
341.677	10.39
341.89	-3.78
342.102	7.34
342.315	5.99
342.527	6.83
342.74	13.7
342.952	30.38
343.165	41.97
343.377	41.31
343.59	27.23
343.802	24.13
344.015	24.72
344.227	8.26
344.44	2.94
344.652	13.56
344.864	-15.28
345.077	-11.2
345.289	-11.02
345.502	-19.72
345.714	-30.65
345.926	-14.76
346.139	-52.09
346.351	-44.79
346.563	-16.27
346.775	-2.09
346.988	-14.67
347.2	1.93
347.412	-20.57
347.624	-22.46
347.837	-46.82
348.049	-36.92
348.261	-36.08
348.473	-25.98
348.685	-24.12
348.897	-2.09
349.11	-1.6
349.322	-4.49
349.534	19.96
349.746	28.43
349.958	17.93
350.17	15.95
350.382	17.02
350.594	-4.92
350.806	-0.51
351.018	-9.3
351.23	-4.6
351.442	-21.96
351.654	1.51
351.866	-30.25
352.078	5.8
352.29	1.71
352.502	11.61
352.714	3.61
352.926	32.34
353.138	25.34
353.35	35.47
353.561	34.77
353.773	41.87
353.985	43.99
354.197	38.01
354.409	30.72
354.621	17.68
354.832	-4.56
355.044	-9.66
355.256	-7.12
355.468	-13.32
355.679	12.89
355.891	20.52
356.103	18.12
356.314	22.12
356.526	26.05
356.738	22.42
356.949	14.91
357.161	25.56
357.373	14.8
357.584	10.33
357.796	7.5
358.008	17.46
358.219	9.32
358.431	6.26
358.642	12.27
358.854	13.02
359.065	3.81
359.277	-4.96
359.488	7.09
359.7	9.39
359.911	14.51
360.123	24.47
360.334	25.5
360.546	16.24
360.757	9.5
360.969	-12.07
361.18	-7.4
361.391	-1.53
361.603	5.72
361.814	20.24
362.025	22.3
362.237	15.5
362.448	5.21
362.659	-4.83
362.871	-7.5
363.082	-1.24
363.293	0.87
363.504	16.44
363.716	18.73
363.927	21.81
364.138	1.21
364.349	4.36
364.56	1.39
364.772	-8.53
364.983	-14.74
365.194	-10.17
365.405	-10.88
365.616	-4.27
365.827	8.26
366.038	2.19
366.25	-0.78
366.461	-14.23
366.672	-15.83
366.883	-14.3
367.094	4.43
367.305	20.68
367.516	38.2
367.727	28.28
367.938	18.12
368.149	9.8
368.36	11.57
368.571	-15.07
368.781	-32.53
368.992	-27.98
369.203	-18.1
369.414	-25.35
369.625	15.81
369.836	32.87
370.047	29.73
370.258	33.93
370.468	31.11
370.679	2.38
370.89	-22.78
371.101	-15.49
371.312	-33
371.522	-22.94
371.733	-8.84
371.944	2.12
372.155	1.66
372.365	-0.8
372.576	-21.92
372.787	-17.53
372.997	-20.66
373.208	-0.17
373.419	2.36
373.629	27.01
373.84	34.73
374.05	31.42
374.261	22.19
374.472	20.08
374.682	-4.87
374.893	7.68
375.103	20.23
375.314	19.33
375.524	29.19
375.735	51.1
375.945	43.81
376.156	33.01
376.366	29.42
376.577	31.27
376.787	4.97
376.997	3.38
377.208	4.29
377.418	3.04
377.629	-0.05
377.839	17.58
378.049	19.17
378.26	11.72
378.47	25.81
378.68	13.45
378.89	10.98
379.101	14.2
379.311	16.51
379.521	4.92
379.732	14.36
379.942	10.41
380.152	-4.34
380.362	0.56
380.572	-3.19
380.783	-17.07
380.993	-23.11
381.203	-7.09
381.413	-13.93
381.623	-12.59
381.833	10.1
382.043	8.6
382.253	5.03
382.463	3.67
382.674	3.66
382.884	5.76
383.094	-1.24
383.304	-2.64
383.514	3.77
383.724	14.54
383.934	5.72
384.144	10.82
384.353	15.04
384.563	13.03
384.773	8.88
384.983	13.14
385.193	20.79
385.403	9.84
385.613	9.75
385.823	4.18
386.033	0.21
386.242	-6.9
386.452	-2.71
386.662	0.56
386.872	8
387.082	8.18
387.291	2.96
387.501	5.87
387.711	5.97
387.921	0.69
388.13	0.57
388.34	7.57
388.55	8.34
388.759	4.68
388.969	7.64
389.179	9.58
389.388	10.41
389.598	9.89
389.807	11.12
390.017	9.21
390.227	10.37
390.436	9.07
390.646	8.85
390.855	8.76
391.065	8.91
391.274	6.65
391.484	5.26
391.693	1.45
391.903	1.86
392.112	1.84
392.322	2
392.531	1.82
392.74	2.19
392.95	1.42
393.159	2.35
393.369	3.79
393.578	4.85
393.787	6.71
393.997	5.1
394.206	5.73
394.415	5.8
394.625	4.64
394.834	4.27
395.043	4.72
395.252	4.59
395.462	3.93
395.671	5.58
395.88	6.06
396.089	7.66
396.298	7.67
396.508	6.95
396.717	5.99
396.926	5.67
397.135	4.85
397.344	4.35
397.553	5.55
397.762	6.45
397.971	6.31
398.181	6.8
398.39	6.56
398.599	5.84
398.808	5.22
399.017	5.92
399.226	5.5
399.435	5.73
399.644	6.19
399.853	6.08
400.062	6.1
400.27	6.3
400.479	6.23
400.688	5.96
400.897	6.34
401.106	5.75
401.315	5.55
401.524	5.84
401.733	5.79
401.941	5.71
402.15	6.01
402.359	5.79
402.568	5.87
402.777	5.76
402.985	5.64
403.194	5.36
403.403	5.57
403.612	5.32
403.82	5.39
404.029	5.18
404.238	5.36
404.446	5.41
404.655	5.23
404.864	5.33
405.072	5.54
405.281	5.59
405.489	5.51
405.698	5.63
405.906	5.44
406.115	5.43
406.324	5.21
406.532	5.17
406.741	5.23
406.949	5.36
407.158	5.26
407.366	5.25
407.574	5.15
407.783	5.15
407.991	4.94
408.2	4.96
408.408	4.96
408.617	5.07
408.825	5.01
409.033	5.21
409.242	5.24
409.45	5.28
409.658	5.27
409.867	5.23
410.075	5.12
410.283	4.97
410.491	4.84
410.7	4.76
410.908	4.78
411.116	4.94
411.324	5.03
411.533	5.16
411.741	5.21
411.949	5.23
412.157	5
412.365	4.83
412.573	4.66
412.781	4.63
412.99	4.56
413.198	4.57
413.406	4.76
413.614	4.86
413.822	4.91
414.03	4.83
414.238	4.92
414.446	5.07
414.654	5.05
414.862	5.03
415.07	4.94
415.278	4.91
415.486	4.57
415.694	4.62
415.902	4.54
416.109	4.65
416.317	4.7
416.525	4.67
416.733	4.69
416.941	4.68
417.149	4.66
417.357	4.43
417.564	4.49
417.772	4.37
417.98	4.49
418.188	4.4
418.395	4.46
418.603	4.56
418.811	4.59
419.019	4.54
419.226	4.86
419.434	4.87
419.642	4.71
419.849	4.68
420.057	4.63
420.265	4.3
420.472	4.42
420.68	4.41
420.887	4.42
421.095	4.51
421.302	4.6
421.51	4.38
421.717	4.34
421.925	4.52
422.132	4.43
422.34	4.24
422.547	4.24
422.755	4.37
422.962	4.1
423.17	4.06
423.377	4.26
423.585	4.48
423.792	4.53
423.999	4.77
424.207	4.74
424.414	4.7
424.621	4.59
424.829	4.44
425.036	4.34
425.243	4.35
425.451	4.26
425.658	4.21
425.865	4.15
426.072	4.12
426.28	4.28
426.487	4.45
426.694	4.42
426.901	4.45
427.108	4.36
427.315	4.33
427.523	4.09
427.73	4.14
427.937	4.16
428.144	4.17
428.351	4.14
428.558	4.41
428.765	4.44
428.972	4.51
429.179	4.56
429.386	4.48
429.593	4.29
429.8	4.27
430.007	4.36
430.214	4.45
430.421	4.53
430.628	4.58
430.835	4.64
431.042	4.6
431.249	4.72
431.456	4.62
431.662	4.79
431.869	4.87
432.076	4.86
432.283	4.74
432.49	4.78
432.697	4.66
432.903	4.54
433.11	4.54
433.317	4.55
433.524	4.69
433.73	4.61
433.937	4.67
434.144	4.55
434.35	4.52
434.557	4.48
434.764	4.48
434.97	4.34
435.177	4.63
435.384	4.62
435.59	4.62
435.797	4.74
436.003	4.89
436.21	4.76
436.416	4.79
436.623	4.75
436.829	4.78
437.036	4.74
437.242	4.93
437.449	5.01
437.655	5.15
437.862	5.28
438.068	5.39
438.275	5.35
438.481	5.32
438.687	5.2
438.894	5.2
439.1	5.15
439.307	5.09
439.513	5.17
439.719	5.16
439.926	5.06
440.132	5.15
440.338	5.13
440.544	5.14
440.751	5.21
440.957	5.35
441.163	5.23
441.369	5.39
441.575	5.32
441.782	5.3
441.988	5.23
442.194	5.26
442.4	5.09
442.606	5.23
442.812	5.29
443.018	5.33
443.224	5.49
443.431	5.54
443.637	5.39
443.843	5.37
444.049	5.33
444.255	5.17
444.461	5.25
444.667	5.2
444.873	5.26
445.079	5.25
445.284	5.37
445.49	5.3
445.696	5.39
445.902	5.3
446.108	5.3
446.314	5.24
446.52	5.29
446.726	5.27
446.931	5.36
447.137	5.37
447.343	5.39
447.549	5.31
447.755	5.36
447.96	5.37
448.166	5.33
448.372	5.38
448.578	5.51
448.783	5.62
448.989	5.63
449.195	5.61
449.4	5.55
449.606	5.52
449.812	5.49
450.017	5.39
450.223	5.47
450.428	5.47
450.634	5.52
450.84	5.53
451.045	5.58
451.251	5.63
451.456	5.75
451.662	5.7
451.867	5.71
452.073	5.87
452.278	5.84
452.483	5.81
452.689	5.9
452.894	5.85
453.1	5.74
453.305	5.77
453.51	5.75
453.716	5.7
453.921	5.66
454.127	5.7
454.332	5.56
454.537	5.56
454.742	5.65
454.948	5.66
455.153	5.65
455.358	5.76
455.563	5.76
455.769	5.6
455.974	5.65
456.179	5.55
456.384	5.52
456.589	5.53
456.795	5.56
457	5.65
457.205	5.86
457.41	5.9
457.615	5.87
457.82	5.91
458.025	5.83
458.23	5.74
458.435	5.83
458.64	5.83
458.845	5.9
459.05	5.89
459.255	5.9
459.46	5.81
459.665	5.99
459.87	6
460.075	6.06
460.28	6.05
460.485	6.04
460.69	6.01
460.895	5.91
461.099	5.87
461.304	5.78
461.509	5.83
461.714	5.69
461.919	5.8
462.123	5.79
462.328	5.97
462.533	5.98
462.738	6.05
462.942	5.95
463.147	6.12
463.352	6.04
463.556	6.07
463.761	6.01
463.966	6.19
464.17	6.17
464.375	6.16
464.58	6.11
464.784	6.19
464.989	6.06
465.193	5.97
465.398	6.11
465.602	6.3
465.807	6.28
466.011	6.33
466.216	6.28
466.42	6.21
466.625	6.22
466.829	6.25
467.034	6.36
467.238	6.4
467.443	6.39
467.647	6.26
467.851	6.36
