Data from Ofav_PS_Phys_313_Reflection_3.txt Node
Date: Thu Jul 29 18:24:40 EDT 2021
User: USUARIO
Spectrometer: FLMT01687
Trigger mode: 0
Integration Time (sec): 9.010000E-1
Scans to average: 2
Electric dark correction enabled: true
Nonlinearity correction enabled: false
Boxcar width: 2
XAxis mode: Wavelengths
Number of Pixels in Spectrum: 3648
>>>>>Begin Spectral Data<<<<<
179.494	341.9
179.716	400
179.937	287.07
180.158	-1720.34
180.38	-127.59
180.601	-900
180.823	-314.24
181.044	-102.31
181.265	-18.61
181.486	-249.15
181.708	144.34
181.929	432.22
182.15	8300
182.372	-127.29
182.593	-24.69
182.814	2.84
183.035	-277.32
183.257	80.9
183.478	10.6
183.699	35.83
183.92	52.72
184.141	59.85
184.363	52.62
184.584	53.06
184.805	39.81
185.026	37.37
185.247	44.79
185.468	37.99
185.689	78.55
185.91	130.75
186.132	144.35
186.353	45.45
186.574	70.26
186.795	63.66
187.016	53.54
187.237	43.71
187.458	68.98
187.679	73.7
187.9	67.01
188.121	62.16
188.342	59.45
188.563	57.49
188.784	57.65
189.005	44.88
189.226	42.79
189.447	60.07
189.667	55.87
189.888	50.9
190.109	61.1
190.33	49.56
190.551	10.33
190.772	11.5
190.993	1.87
191.214	-2.16
191.434	26.2
191.655	42.62
191.876	19.74
192.097	-34.46
192.318	18.5
192.538	38.45
192.759	33.33
192.98	43.94
193.201	65.1
193.421	49.74
193.642	31.51
193.863	15.1
194.083	1.5
194.304	-3.97
194.525	10.98
194.745	5.68
194.966	8.08
195.187	22.83
195.407	14.68
195.628	-26.14
195.848	-3.44
196.069	27.55
196.29	18.27
196.51	21.22
196.731	36.95
196.951	55.25
197.172	1.72
197.392	17.67
197.613	29.49
197.833	2.44
198.054	-27.82
198.274	-8.51
198.495	-12.03
198.715	-41.99
198.936	-17.95
199.156	-10.3
199.377	20.73
199.597	8.21
199.817	40.29
200.038	38.15
200.258	44.03
200.479	5.94
200.699	11.41
200.919	12.99
201.14	1.1
201.36	3.18
201.58	18.22
201.801	33.57
202.021	64.67
202.241	80.14
202.461	90.82
202.682	109.79
202.902	99
203.122	68.99
203.342	66.36
203.563	66.22
203.783	54.39
204.003	23.38
204.223	-0.36
204.443	29.72
204.663	44.08
204.884	48.76
205.104	67.66
205.324	60.9
205.544	58.22
205.764	37.55
205.984	54.57
206.204	48.46
206.424	56.05
206.644	45.21
206.864	59.44
207.084	38.98
207.304	47.55
207.525	27.63
207.745	49.77
207.964	59.78
208.184	71.34
208.404	43.37
208.624	53.01
208.844	48.55
209.064	47.65
209.284	59.68
209.504	67.44
209.724	70.45
209.944	64.62
210.164	64.96
210.384	36.29
210.604	33.27
210.823	19.03
211.043	13.01
211.263	28.23
211.483	22.35
211.703	-2.9
211.922	8.66
212.142	19.71
212.362	-5.75
212.582	25.85
212.801	47.76
213.021	31.55
213.241	15.79
213.461	3.6
213.68	-45.8
213.9	-42.93
214.12	-27.77
214.339	-24.07
214.559	-24.41
214.779	-11.39
214.998	-48.67
215.218	-48.03
215.438	-8.96
215.657	6.22
215.877	18.29
216.096	39.67
216.316	47.77
216.535	27.25
216.755	16.81
216.974	-6.45
217.194	-17.58
217.413	-10.22
217.633	14.18
217.852	-16.95
218.072	3.59
218.291	10.44
218.511	33.39
218.73	8.38
218.95	25.65
219.169	19.98
219.389	4.15
219.608	-11.42
219.827	-11.73
220.047	-3.85
220.266	1.41
220.485	24.54
220.705	24.22
220.924	11.85
221.143	-2.67
221.363	-16.35
221.582	-39.59
221.801	-151.54
222.021	-61.6
222.24	-28.6
222.459	-36.24
222.678	-17.51
222.897	-12.27
223.117	-10.45
223.336	-1.95
223.555	1.81
223.774	-10.47
223.993	4.85
224.213	23.27
224.432	31.9
224.651	47.16
224.87	42.67
225.089	43.77
225.308	27.79
225.527	9.11
225.746	-4.84
225.965	3.28
226.184	-0.23
226.404	-13.24
226.623	10.88
226.842	5.45
227.061	-7.18
227.28	13.08
227.499	65.1
227.718	51.35
227.936	68.99
228.155	60.23
228.374	20.15
228.593	4.7
228.812	18.94
229.031	7.46
229.25	6.94
229.469	20.97
229.688	18.35
229.907	38.61
230.125	40.37
230.344	65.06
230.563	64.53
230.782	75.69
231.001	10.52
231.22	16.21
231.438	-8.32
231.657	4.37
231.876	2.23
232.095	19.69
232.313	16.45
232.532	21.61
232.751	19.87
232.969	15.48
233.188	6.05
233.407	-4.83
233.625	-8.58
233.844	-6.98
234.063	5.74
234.281	10.4
234.5	8.24
234.719	18.55
234.937	9.7
235.156	-36.6
235.374	-9.62
235.593	-6.06
235.811	-26.12
236.03	4.21
236.249	22.61
236.467	23.02
236.686	26.16
236.904	24.13
237.123	27.69
237.341	20.02
237.559	15.85
237.778	26.53
237.996	32.5
238.215	28.32
238.433	32.02
238.652	37.53
238.87	23.92
239.088	19.53
239.307	24.27
239.525	26.44
239.743	26.02
239.962	32.62
240.18	31.9
240.398	27.44
240.617	9.21
240.835	-11.13
241.053	1.31
241.271	24.49
241.49	27.6
241.708	46.51
241.926	55.52
242.144	32.91
242.363	17.04
242.581	4.89
242.799	-0.97
243.017	6.78
243.235	12.8
243.453	4.63
243.672	27.79
243.89	9.5
244.108	5.6
244.326	14.67
244.544	8.77
244.762	-8.76
244.98	-5.4
245.198	-2.56
245.416	-23.5
245.634	-12.75
245.852	17.22
246.07	49.42
246.288	60.08
246.506	67.5
246.724	63.16
246.942	36.1
247.16	31.09
247.378	7.03
247.596	24.19
247.814	18.32
248.032	22.07
248.25	21.84
248.468	33.51
248.685	15.28
248.903	20.09
249.121	15.79
249.339	-2.9
249.557	-3.16
249.775	15.48
249.992	7.68
250.21	10.55
250.428	35.94
250.646	23.68
250.863	20.81
251.081	33.67
251.299	43.5
251.517	30.27
251.734	52.43
251.952	31.58
252.17	32.66
252.387	20.46
252.605	21.43
252.823	-7.04
253.04	22.69
253.258	29.9
253.475	39.77
253.693	35.2
253.911	46.18
254.128	52.33
254.346	17.56
254.563	0.87
254.781	-14.16
254.998	15.38
255.216	-23.72
255.433	-7.56
255.651	0.41
255.868	8.58
256.086	3.93
256.303	16.66
256.521	35.86
256.738	31.48
256.956	34.06
257.173	22.88
257.39	30.22
257.608	9.05
257.825	24.97
258.043	12.57
258.26	20.44
258.477	11.46
258.695	3.62
258.912	-0.33
259.129	17.67
259.346	15.11
259.564	20.18
259.781	20.38
259.998	15.24
260.216	19.79
260.433	17.78
260.65	21.66
260.867	34.94
261.084	30.65
261.302	15.18
261.519	13.23
261.736	15.28
261.953	7.11
262.17	13.62
262.387	13.48
262.604	6.21
262.822	-3.13
263.039	10.29
263.256	-0.15
263.473	2.76
263.69	8.45
263.907	24.62
264.124	28.61
264.341	62.48
264.558	75.21
264.775	70.23
264.992	65.65
265.209	33.51
265.426	-0.32
265.643	8.89
265.86	9.48
266.077	10.3
266.294	25.92
266.51	20.01
266.727	19.85
266.944	31.15
267.161	20.59
267.378	21.19
267.595	47.22
267.812	32.84
268.028	11.03
268.245	31.76
268.462	30.65
268.679	24.57
268.896	25.74
269.112	27.95
269.329	21.17
269.546	18.59
269.763	7.88
269.979	7.99
270.196	20.23
270.413	19.75
270.629	20.65
270.846	36.16
271.063	39.82
271.279	26.8
271.496	13.55
271.712	16.33
271.929	18.44
272.146	42.07
272.362	38.45
272.579	62.29
272.795	62.21
273.012	39.95
273.228	15.8
273.445	29.19
273.661	1.41
273.878	-9.02
274.094	19.89
274.311	23.91
274.527	17.09
274.744	38.62
274.96	42.85
275.177	38.85
275.393	42.16
275.609	58.81
275.826	58.02
276.042	47.67
276.259	31.24
276.475	48.16
276.691	31.42
276.908	21.1
277.124	28.72
277.34	28.7
277.557	3.42
277.773	-12.63
277.989	-18.55
278.205	-16.42
278.422	-26.53
278.638	-25.99
278.854	-20.44
279.07	21.21
279.286	-2.27
279.503	21.04
279.719	40.86
279.935	33.77
280.151	11.69
280.367	31.44
280.583	34.13
280.799	5.41
281.016	3.38
281.232	6.08
281.448	4.04
281.664	-0.49
281.88	-2.92
282.096	8.84
282.312	4.73
282.528	17.02
282.744	34.44
282.96	45.13
283.176	54.84
283.392	67.62
283.608	56.92
283.824	37.33
284.04	43.36
284.256	45.97
284.471	32.41
284.687	26.92
284.903	23.9
285.119	18.2
285.335	13.26
285.551	20.37
285.767	19.99
285.982	23.9
286.198	23.97
286.414	23.39
286.63	25.39
286.846	26.82
287.061	16.12
287.277	19.11
287.493	17.54
287.709	1.55
287.924	2.59
288.14	15.97
288.356	8.74
288.571	11.5
288.787	18.07
289.003	11.2
289.218	4.01
289.434	12.55
289.65	38.13
289.865	41.2
290.081	36.69
290.296	39.27
290.512	47.18
290.727	27.61
290.943	24.93
291.159	34.55
291.374	28.92
291.59	21.29
291.805	17.84
292.021	20.98
292.236	14.42
292.451	-5.56
292.667	1.44
292.882	0.65
293.098	1.76
293.313	12.25
293.529	32.18
293.744	20.83
293.959	22.08
294.175	38.49
294.39	34.44
294.605	31.43
294.821	33.69
295.036	38.96
295.251	19.45
295.467	12.7
295.682	22.76
295.897	22.56
296.112	5.67
296.328	5.2
296.543	1.58
296.758	-16.42
296.973	-5.7
297.188	11.16
297.404	1.07
297.619	4.68
297.834	1.7
298.049	3.15
298.264	-0.59
298.479	27.05
298.694	22.65
298.909	36.03
299.125	31.98
299.34	45.53
299.555	20.46
299.77	18.46
299.985	-4.67
300.2	-12.27
300.415	-13.41
300.63	1.23
300.845	-4.43
301.06	2.97
301.275	15.63
301.49	4.9
301.704	16.32
301.919	31.43
302.134	31.54
302.349	22.78
302.564	28.15
302.779	22.79
302.994	24.85
303.209	34.74
303.423	40.63
303.638	38.65
303.853	27.15
304.068	24.63
304.283	15.85
304.497	14.32
304.712	-7.91
304.927	-3.13
305.142	-20.12
305.356	-32.01
305.571	-29.11
305.786	17.12
306	1.77
306.215	10.16
306.43	25.55
306.644	51.53
306.859	34.56
307.074	48.9
307.288	53.81
307.503	66.75
307.717	39.73
307.932	32
308.147	38.15
308.361	23
308.576	3.58
308.79	7.09
309.005	32.59
309.219	37.04
309.434	41.66
309.648	37.37
309.863	53.65
310.077	34.8
310.292	19.78
310.506	6.37
310.72	-0.14
310.935	-23.61
311.149	-1.76
311.364	9.66
311.578	28.86
311.792	19.95
312.007	22.93
312.221	15.1
312.435	15.13
312.649	14.23
312.864	-104.55
313.078	-53.9
313.292	-52.84
313.507	-20.84
313.721	-45.41
313.935	17
314.149	23.85
314.363	26.85
314.578	20.39
314.792	45.88
315.006	56.88
315.22	45.54
315.434	46.51
315.648	39.72
315.862	24.59
316.077	9.55
316.291	7.5
316.505	19.52
316.719	15.57
316.933	1.4
317.147	14.95
317.361	12.73
317.575	-17.09
317.789	-23.8
318.003	7.41
318.217	15.81
318.431	16.09
318.645	22.35
318.859	30.35
319.073	30.98
319.287	17.44
319.5	5.78
319.714	16.43
319.928	12.14
320.142	15.87
320.356	26.36
320.57	30.48
320.784	24.25
320.997	20.06
321.211	16.39
321.425	8.12
321.639	7.95
321.853	5.94
322.066	3.53
322.28	-1.61
322.494	9.87
322.707	26.03
322.921	24.81
323.135	21.06
323.349	26.83
323.562	9.23
323.776	6.98
323.989	25.09
324.203	47.48
324.417	50.32
324.63	52.7
324.844	41.1
325.057	16.97
325.271	-1.41
325.485	0.91
325.698	-1.93
325.912	5.06
326.125	6.74
326.339	9.06
326.552	10.03
326.766	9.55
326.979	14.43
327.193	29.42
327.406	35.03
327.619	16.61
327.833	11.94
328.046	8.03
328.26	4.68
328.473	1.6
328.686	16.6
328.9	20.44
329.113	8.95
329.326	19.63
329.54	-16.75
329.753	-18.56
329.966	2.8
330.179	8.42
330.393	3.15
330.606	22.25
330.819	40.73
331.032	30.9
331.246	22.37
331.459	7.43
331.672	2.13
331.885	-12.24
332.098	5.68
332.311	29.73
332.525	34.3
332.738	37.79
332.951	21.3
333.164	23.36
333.377	10.56
333.59	20.34
333.803	17.58
334.016	25.11
334.229	11.52
334.442	13.34
334.655	2.42
334.868	4.31
335.081	21.97
335.294	36.09
335.507	49.3
335.72	59.04
335.933	50.94
336.146	36.74
336.359	15.66
336.572	-10.33
336.785	-22.67
336.997	-17.77
337.21	3.11
337.423	9.83
337.636	22.63
337.849	24.9
338.062	20.02
338.274	9.47
338.487	12.14
338.7	-8.13
338.913	-18.23
339.125	-0.71
339.338	1.04
339.551	2.36
339.763	12.44
339.976	15.18
340.189	6.09
340.402	-3.42
340.614	-1.63
340.827	9.9
341.039	14.07
341.252	15.17
341.465	18.07
341.677	24.43
341.89	2.76
342.102	0.04
342.315	10.34
342.527	6.42
342.74	-7.49
342.952	2.09
343.165	6.19
343.377	-11.02
343.59	-5.38
343.802	5.98
344.015	28.59
344.227	32.71
344.44	45.2
344.652	47.12
344.864	41.13
345.077	40.3
345.289	25.06
345.502	17.42
345.714	8.93
345.926	3.63
346.139	-29.39
346.351	-16.59
346.563	-1
346.775	4.27
346.988	-3.22
347.2	9.97
347.412	7.08
347.624	12.88
347.837	11.19
348.049	22.78
348.261	15.12
348.473	13.15
348.685	23.51
348.897	19.77
349.11	24.14
349.322	22.4
349.534	34.5
349.746	15.69
349.958	34.08
350.17	18.42
350.382	37.41
350.594	22.72
350.806	39.08
351.018	19.52
351.23	23.45
351.442	-16.38
351.654	-0.59
351.866	-36.79
352.078	-4.96
352.29	-10.21
352.502	4.85
352.714	10.71
352.926	34.98
353.138	40.44
353.35	33.9
353.561	19.49
353.773	5.03
353.985	-10.54
354.197	-14.86
354.409	-4.93
354.621	-16.9
354.832	-20.39
355.044	-10.33
355.256	-5.65
355.468	-1.71
355.679	29.34
355.891	32.6
356.103	31.12
356.314	35.54
356.526	37.21
356.738	36.01
356.949	33.7
357.161	26.97
357.373	28.34
357.584	27.53
357.796	27.4
358.008	29.3
358.219	22.54
358.431	6.91
358.642	1.01
358.854	0.41
359.065	6.18
359.277	16.89
359.488	16.49
359.7	17.9
359.911	15.41
360.123	4.85
360.334	9
360.546	12.03
360.757	8.93
360.969	6.05
361.18	36.18
361.391	37.64
361.603	20.35
361.814	40.62
362.025	35.03
362.237	13.09
362.448	7.66
362.659	19.16
362.871	12.64
363.082	10.46
363.293	5.12
363.504	11.22
363.716	10.2
363.927	5.78
364.138	-0.91
364.349	4.71
364.56	6.57
364.772	-2.98
364.983	-8.09
365.194	-1.72
365.405	8.39
365.616	4.14
365.827	15.53
366.038	11.98
366.25	-7.15
366.461	-28.63
366.672	-35.57
366.883	-28.03
367.094	-26.14
367.305	4.95
367.516	21.81
367.727	16.04
367.938	15.25
368.149	20.52
368.36	23.37
368.571	19.53
368.781	19.85
368.992	1.52
369.203	-5.18
369.414	-1.44
369.625	7.17
369.836	18.11
370.047	26.8
370.258	44.97
370.468	36.24
370.679	24.31
370.89	11.7
371.101	16.05
371.312	-5.9
371.522	-12.39
371.733	4.51
371.944	2.22
372.155	-20.95
372.365	-13.77
372.576	-15.89
372.787	-22.08
372.997	-15.42
373.208	-1.92
373.419	-2.52
373.629	17.84
373.84	25.91
374.05	33.1
374.261	27.12
374.472	25.01
374.682	11.79
374.893	15.83
375.103	23.18
375.314	27.31
375.524	26.59
375.735	40.22
375.945	36.82
376.156	23.13
376.366	8.01
376.577	8.94
376.787	3.7
376.997	-5.67
377.208	-13.4
377.418	-9.08
377.629	-2.17
377.839	2.99
378.049	11.22
378.26	21.19
378.47	29.14
378.68	24.07
378.89	19.38
379.101	20.21
379.311	15.42
379.521	16.77
379.732	5.98
379.942	0.6
380.152	-0.33
380.362	2.33
380.572	-3.94
380.783	4.52
380.993	-2.94
381.203	-4.71
381.413	-6.5
381.623	-3.08
381.833	9.19
382.043	19.63
382.253	12.35
382.463	10.56
382.674	14.12
382.884	14.1
383.094	-0.38
383.304	-0.53
383.514	-1.6
383.724	7.72
383.934	0.16
384.144	9.75
384.353	15.67
384.563	22.37
384.773	21.33
384.983	15.84
385.193	15.84
385.403	8.39
385.613	5.83
385.823	-2.71
386.033	4.01
386.242	2.78
386.452	6.03
386.662	7.74
386.872	7.71
387.082	5.74
387.291	-1.97
387.501	0.11
387.711	-2.13
387.921	-3.45
388.13	-2.12
388.34	5.23
388.55	4.54
388.759	2.57
388.969	4
389.179	3.11
389.388	1.43
389.598	3.44
389.807	3.65
390.017	3.05
390.227	6.92
390.436	8.26
390.646	5.34
390.855	5.63
391.065	6.14
391.274	3.74
391.484	1.43
391.693	1.59
391.903	1.84
392.112	1.03
392.322	-1.45
392.531	-0.97
392.74	-1.23
392.95	-0.65
393.159	0.39
393.369	3.46
393.578	3.4
393.787	5.43
393.997	4.32
394.206	4.23
394.415	3.77
394.625	4.16
394.834	1.94
395.043	1.96
395.252	3.36
395.462	1.84
395.671	1.95
395.88	3.91
396.089	5.12
396.298	3.99
396.508	4.87
396.717	4.67
396.926	4.41
397.135	3.23
397.344	3.06
397.553	3.2
397.762	3.48
397.971	3.25
398.181	4.01
398.39	3.8
398.599	3.78
398.808	3.77
399.017	4.17
399.226	4.22
399.435	4.32
399.644	4.72
399.853	4.57
400.062	4.73
400.27	4.76
400.479	5.04
400.688	4.58
400.897	4.6
401.106	4.07
401.315	3.68
401.524	3.78
401.733	3.79
401.941	3.96
402.15	4.12
402.359	4.19
402.568	4.16
402.777	4.02
402.985	3.79
403.194	3.63
403.403	3.6
403.612	3.42
403.82	3.41
404.029	3.33
404.238	3.24
404.446	3.26
404.655	3.25
404.864	3.43
405.072	3.51
405.281	3.77
405.489	3.74
405.698	3.77
405.906	3.65
406.115	3.62
406.324	3.49
406.532	3.42
406.741	3.46
406.949	3.44
407.158	3.6
407.366	3.57
407.574	3.49
407.783	3.38
407.991	3.32
408.2	3.2
408.408	3.06
408.617	3.28
408.825	3.35
409.033	3.53
409.242	3.65
409.45	3.81
409.658	3.72
409.867	3.68
410.075	3.66
410.283	3.54
410.491	3.41
410.7	3.36
410.908	3.48
411.116	3.44
411.324	3.45
411.533	3.51
411.741	3.6
411.949	3.42
412.157	3.25
412.365	3.11
412.573	3.1
412.781	3.01
412.99	3.09
413.198	3.19
413.406	3.26
413.614	3.35
413.822	3.47
414.03	3.46
414.238	3.46
414.446	3.5
414.654	3.39
414.862	3.26
415.07	3.02
415.278	3.06
415.486	2.88
415.694	3.05
415.902	3
416.109	3.19
416.317	3.17
416.525	3.26
416.733	3.12
416.941	3.18
417.149	3.11
417.357	2.9
417.564	3
417.772	2.87
417.98	2.99
418.188	2.93
418.395	2.95
418.603	2.88
418.811	3
419.019	2.92
419.226	3.2
419.434	3.22
419.642	3.19
419.849	3.13
420.057	3.06
420.265	2.69
420.472	2.8
420.68	2.94
420.887	3.02
421.095	3.01
421.302	3.3
421.51	3.36
421.717	3.22
421.925	3.22
422.132	3.29
422.34	2.92
422.547	2.74
422.755	2.84
422.962	2.82
423.17	2.71
423.377	3.01
423.585	3.15
423.792	3.18
423.999	3.14
424.207	3.11
424.414	2.94
424.621	2.97
424.829	2.85
425.036	2.85
425.243	2.9
425.451	2.98
425.658	2.85
425.865	2.88
426.072	2.86
426.28	2.91
426.487	2.99
426.694	3.09
426.901	2.82
427.108	2.77
427.315	2.78
427.523	2.71
427.73	2.68
427.937	2.97
428.144	2.98
428.351	2.96
428.558	2.98
428.765	3.01
428.972	2.92
429.179	2.96
429.386	3.03
429.593	3.11
429.8	2.98
430.007	3.09
430.214	3.26
430.421	3.16
430.628	3.07
430.835	3.1
431.042	2.9
431.249	2.85
431.456	2.85
431.662	2.96
431.869	3.1
432.076	3.22
432.283	3.09
432.49	3.11
432.697	3.02
432.903	2.89
433.11	2.81
433.317	2.89
433.524	3.04
433.73	3.06
433.937	3.1
434.144	3.13
434.35	3.18
434.557	3.08
434.764	3.1
434.97	3.02
435.177	3.29
435.384	3.11
435.59	3.13
435.797	3.23
436.003	3.3
436.21	3.07
436.416	3.08
436.623	2.99
436.829	2.97
437.036	2.99
437.242	3.09
437.449	3.25
437.655	3.42
437.862	3.46
438.068	3.41
438.275	3.4
438.481	3.28
438.687	3.13
438.894	3.12
439.1	3.17
439.307	3.24
439.513	3.23
439.719	3.23
439.926	3.08
440.132	3.14
440.338	3.05
440.544	3.09
440.751	3.06
440.957	3.21
441.163	3.15
441.369	3.18
441.575	3.17
441.782	3.25
441.988	3.17
442.194	3.19
442.4	3.22
442.606	3.3
442.812	3.36
443.018	3.39
443.224	3.47
443.431	3.4
443.637	3.38
443.843	3.4
444.049	3.46
444.255	3.35
444.461	3.44
444.667	3.32
444.873	3.17
445.079	3.02
445.284	3.05
445.49	3.01
445.696	3.08
445.902	3.15
446.108	3.2
446.314	3.26
446.52	3.31
446.726	3.39
446.931	3.45
447.137	3.53
447.343	3.48
447.549	3.44
447.755	3.36
447.96	3.47
448.166	3.54
448.372	3.55
448.578	3.64
448.783	3.75
448.989	3.76
449.195	3.62
449.4	3.64
449.606	3.54
449.812	3.46
450.017	3.35
450.223	3.4
450.428	3.35
450.634	3.36
450.84	3.5
451.045	3.47
451.251	3.48
451.456	3.66
451.662	3.72
451.867	3.58
452.073	3.64
452.278	3.62
452.483	3.59
452.689	3.59
452.894	3.68
453.1	3.68
453.305	3.72
453.51	3.63
453.716	3.57
453.921	3.6
454.127	3.7
454.332	3.57
454.537	3.6
454.742	3.63
454.948	3.55
455.153	3.5
455.358	3.65
455.563	3.68
455.769	3.61
455.974	3.67
456.179	3.53
456.384	3.47
456.589	3.49
456.795	3.59
457	3.52
457.205	3.62
457.41	3.62
457.615	3.56
457.82	3.59
458.025	3.54
458.23	3.55
458.435	3.58
458.64	3.57
458.845	3.61
459.05	3.69
459.255	3.73
459.46	3.85
459.665	3.92
459.87	3.84
460.075	3.84
460.28	3.7
460.485	3.64
460.69	3.58
460.895	3.54
461.099	3.6
461.304	3.67
461.509	3.64
461.714	3.7
461.919	3.73
462.123	3.71
462.328	3.78
462.533	3.84
462.738	3.83
462.942	3.84
463.147	3.83
463.352	3.8
463.556	3.82
463.761	3.71
463.966	3.73
464.17	3.79
464.375	3.77
464.58	3.66
464.784	3.81
464.989	3.73
465.193	3.75
465.398	3.9
465.602	4.09
465.807	4.14
466.011	4.33
466.216	4.21
466.42	4.13
466.625	4.11
466.829	4.09
467.034	4.11
467.238	4.25
467.443	4.18
467.647	4.01
467.851	4
468.056	3.96
468.26	3.92
468.464	3.96
468.669	4.14
468.873	4.16
469.077	4.13
469.282	4.11
469.486	4.11
