Data from Ofav_PS_Phys_352_Reflection_1.txt Node
Date: Thu Jul 29 18:18:43 EDT 2021
User: USUARIO
Spectrometer: FLMT01687
Trigger mode: 0
Integration Time (sec): 9.010000E-1
Scans to average: 2
Electric dark correction enabled: true
Nonlinearity correction enabled: false
Boxcar width: 2
XAxis mode: Wavelengths
Number of Pixels in Spectrum: 3648
>>>>>Begin Spectral Data<<<<<
179.494	114.29
179.716	120.27
179.937	121.94
180.158	-711.86
180.38	-0
180.601	-601.57
180.823	-147.37
181.044	-53.95
181.265	-34.74
181.486	-379.66
181.708	152.47
181.929	254.39
182.15	5771.43
182.372	-119.53
182.593	8.93
182.814	22.12
183.035	-218.56
183.257	88.65
183.478	32.69
183.699	73.54
183.92	81.51
184.141	91.28
184.363	89.45
184.584	99.58
184.805	66.87
185.026	59.01
185.247	65.26
185.468	98.75
185.689	79.93
185.91	123
186.132	82.4
186.353	36.36
186.574	53.63
186.795	57.37
187.016	40.48
187.237	33.71
187.458	1.58
187.679	-6.47
187.9	-4.35
188.121	-2.78
188.342	39.93
188.563	72.87
188.784	57.25
189.005	59.47
189.226	61.76
189.447	59.13
189.667	41.5
189.888	64.21
190.109	59.73
190.33	1.41
190.551	-5.96
190.772	31.65
190.993	13.15
191.214	26.44
191.434	38.47
191.655	42.59
191.876	43.59
192.097	40.12
192.318	40.21
192.538	30.97
192.759	46.04
192.98	37.23
193.201	50.59
193.421	59.05
193.642	64.52
193.863	43.94
194.083	22.2
194.304	16.23
194.525	-3.12
194.745	-3.64
194.966	-5.19
195.187	-6.13
195.407	-14.33
195.628	-44.8
195.848	-19.38
196.069	32.69
196.29	34.87
196.51	42.89
196.731	54.64
196.951	56.22
197.172	17.59
197.392	28.68
197.613	11.25
197.833	2.95
198.054	-4.1
198.274	3.55
198.495	8.49
198.715	-9.37
198.936	9.15
199.156	27.46
199.377	37.8
199.597	64.93
199.817	87.18
200.038	79.22
200.258	62.92
200.479	71.32
200.699	25.97
200.919	14.97
201.14	-3.11
201.36	3.35
201.58	10.44
201.801	20.75
202.021	44.19
202.241	60.75
202.461	59.49
202.682	39.89
202.902	47.33
203.122	32.8
203.342	18.23
203.563	21.93
203.783	31.45
204.003	17.03
204.223	-16.44
204.443	3.51
204.663	15.07
204.884	33.18
205.104	15.12
205.324	28.17
205.544	32.76
205.764	35.5
205.984	66.18
206.204	82.33
206.424	71.84
206.644	73.69
206.864	53.15
207.084	1.78
207.304	20.39
207.525	52.09
207.745	57.3
207.964	60.79
208.184	84.53
208.404	18.06
208.624	13.24
208.844	-5.67
209.064	20.67
209.284	14.03
209.504	57.86
209.724	56.75
209.944	66.82
210.164	53.4
210.384	72.32
210.604	76.39
210.823	81.08
211.043	94.25
211.263	90.93
211.483	86.31
211.703	56.33
211.922	53.65
212.142	47.61
212.362	60.81
212.582	51.29
212.801	56.24
213.021	37.23
213.241	37.87
213.461	21.68
213.68	-2.87
213.9	-4.17
214.12	7.2
214.339	-19.49
214.559	-32.44
214.779	-12.11
214.998	-22
215.218	-18.09
215.438	19.02
215.657	26.94
215.877	42.82
216.096	57.05
216.316	70.23
216.535	60.51
216.755	72.82
216.974	-3
217.194	6.47
217.413	44.09
217.633	58.7
217.852	39.33
218.072	50.44
218.291	33.11
218.511	38.73
218.73	17.33
218.95	26.57
219.169	29.77
219.389	26.87
219.608	-0.68
219.827	16.27
220.047	14.75
220.266	8.35
220.485	24.34
220.705	33.56
220.924	13.61
221.143	14.75
221.363	15.15
221.582	-11.71
221.801	-46.27
222.021	0.46
222.24	-5.3
222.459	24.95
222.678	35.3
222.897	34.53
223.117	45.41
223.336	38.77
223.555	19.96
223.774	24.51
223.993	16.87
224.213	5.57
224.432	29.4
224.651	50.81
224.87	34.32
225.089	32.2
225.308	38.03
225.527	43.77
225.746	28.45
225.965	32.68
226.184	44.31
226.404	11.27
226.623	32.45
226.842	17.81
227.061	23.53
227.28	27.31
227.499	70.12
227.718	47.94
227.936	44.61
228.155	58.71
228.374	47.53
228.593	39.7
228.812	27.78
229.031	31.55
229.25	28.35
229.469	31.39
229.688	22.96
229.907	40.83
230.125	36.6
230.344	48.4
230.563	40.07
230.782	41.16
231.001	32.4
231.22	36.74
231.438	19.38
231.657	30.64
231.876	35.65
232.095	33.63
232.313	33.17
232.532	36.4
232.751	31.27
232.969	41.69
233.188	49.76
233.407	56.52
233.625	39.11
233.844	46.06
234.063	28.91
234.281	-8.97
234.5	-40.82
234.719	-34.38
234.937	-49.23
235.156	-66.61
235.374	-5.19
235.593	15.08
235.811	35.84
236.03	37.03
236.249	31.16
236.467	26.2
236.686	31.05
236.904	14.2
237.123	30.93
237.341	7.09
237.559	5.69
237.778	9.77
237.996	24.74
238.215	14.32
238.433	54.24
238.652	52.55
238.87	47.32
239.088	56.65
239.307	47.76
239.525	41.1
239.743	40.71
239.962	35.12
240.18	24.16
240.398	33.72
240.617	10.78
240.835	2.7
241.053	13.16
241.271	13.86
241.49	4.36
241.708	15.84
241.926	32.7
242.144	16.15
242.363	22.99
242.581	16.06
242.799	15.72
243.017	3.87
243.235	14.12
243.453	6.7
243.672	15.35
243.89	14.57
244.108	29.72
244.326	52.83
244.544	44.03
244.762	40.98
244.98	45.56
245.198	23.35
245.416	21.47
245.634	34.63
245.852	52.5
246.07	53.36
246.288	64.78
246.506	63.31
246.724	76.2
246.942	55.68
247.16	56.23
247.378	41.15
247.596	18.77
247.814	2.16
248.032	3.48
248.25	16.1
248.468	25.58
248.685	28.11
248.903	37.92
249.121	21.92
249.339	-9.9
249.557	-1.6
249.775	15.42
249.992	10.25
250.21	35.62
250.428	51.38
250.646	50.31
250.863	45.52
251.081	46.17
251.299	53.79
251.517	58.15
251.734	69.85
251.952	60.21
252.17	45.63
252.387	40.42
252.605	47.03
252.823	20.46
253.04	37.07
253.258	36.07
253.475	30.16
253.693	20.38
253.911	40.27
254.128	37.98
254.346	24.97
254.563	32.67
254.781	16.76
254.998	7.22
255.216	-10.77
255.433	23.4
255.651	10.51
255.868	14.99
256.086	20.64
256.303	34.97
256.521	42.28
256.738	41.46
256.956	47.11
257.173	42.68
257.39	32.29
257.608	16.67
257.825	37.31
258.043	32.78
258.26	35.38
258.477	28.17
258.695	22.69
258.912	8.29
259.129	12.45
259.346	1
259.564	5.74
259.781	13.25
259.998	5.85
260.216	20.12
260.433	42.19
260.65	33.24
260.867	53.51
261.084	65.06
261.302	56.48
261.519	30.4
261.736	48.52
261.953	38.35
262.17	38.95
262.387	35.73
262.604	26.07
262.822	3.36
263.039	-6.43
263.256	-25.67
263.473	-26.32
263.69	-23.37
263.907	-3.17
264.124	8.59
264.341	20.34
264.558	22.04
264.775	12.03
264.992	17.31
265.209	14.87
265.426	12.28
265.643	26.7
265.86	35.44
266.077	31.48
266.294	34.6
266.51	28.32
266.727	26.79
266.944	35.33
267.161	27.72
267.378	25.51
267.595	21.75
267.812	2.38
268.028	-14.42
268.245	-4.71
268.462	-5.06
268.679	15.5
268.896	25.11
269.112	16.75
269.329	12.66
269.546	13.28
269.763	5.28
269.979	17.4
270.196	30.37
270.413	33.03
270.629	39.82
270.846	32.92
271.063	31.75
271.279	39.03
271.496	27.77
271.712	14.65
271.929	29.26
272.146	38.42
272.362	25.12
272.579	61.12
272.795	81.2
273.012	61.72
273.228	51.88
273.445	49.77
273.661	17.68
273.878	6.12
274.094	13.15
274.311	19
274.527	14.08
274.744	31.41
274.96	34.8
275.177	28.66
275.393	24.91
275.609	28.15
275.826	23.86
276.042	23.74
276.259	32.63
276.475	17.99
276.691	26.78
276.908	18.58
277.124	16.75
277.34	7.12
277.557	12.88
277.773	12.68
277.989	16.05
278.205	9.68
278.422	11.09
278.638	-3.13
278.854	-6.83
279.07	16.82
279.286	5.99
279.503	22.25
279.719	36.05
279.935	48.47
280.151	33.74
280.367	45.97
280.583	52.5
280.799	47.24
281.016	46.59
281.232	51.94
281.448	51.93
281.664	56.25
281.88	56.3
282.096	53.46
282.312	45.61
282.528	45.89
282.744	27.75
282.96	40.86
283.176	13.63
283.392	31.87
283.608	35.8
283.824	43.22
284.04	29.53
284.256	40.78
284.471	20.21
284.687	13.07
284.903	-7.86
285.119	27.63
285.335	14.81
285.551	26.48
285.767	32.97
285.982	39.22
286.198	30.59
286.414	29.16
286.63	28.45
286.846	28.08
287.061	26.13
287.277	23.44
287.493	32.06
287.709	35.3
287.924	28.52
288.14	20.49
288.356	36.53
288.571	30.52
288.787	22.19
289.003	18.8
289.218	18.52
289.434	5.27
289.65	14.9
289.865	26.17
290.081	20.79
290.296	32.77
290.512	36.46
290.727	35.87
290.943	26.95
291.159	39.38
291.374	34.18
291.59	24.5
291.805	10.03
292.021	15.63
292.236	15.13
292.451	-18.15
292.667	-23.58
292.882	-1.6
293.098	-2.85
293.313	-3.84
293.529	29.14
293.744	36.28
293.959	27.37
294.175	36.92
294.39	29.08
294.605	32.86
294.821	35.27
295.036	37.48
295.251	28.84
295.467	18.29
295.682	11.15
295.897	4.39
296.112	-2.02
296.328	-2.34
296.543	8.65
296.758	9.88
296.973	17.22
297.188	32.66
297.404	15.81
297.619	39.28
297.834	32.73
298.049	39.67
298.264	35.9
298.479	51.07
298.694	30.89
298.909	39.52
299.125	26.7
299.34	38
299.555	45.9
299.77	55.17
299.985	10.31
300.2	26.53
300.415	10.85
300.63	22.18
300.845	20.19
301.06	49.58
301.275	46.97
301.49	31.83
301.704	-21.21
301.919	7.95
302.134	-0.93
302.349	-5.49
302.564	1.5
302.779	13.63
302.994	-10.82
303.209	-4.04
303.423	5.87
303.638	0.65
303.853	-13.79
304.068	14.13
304.283	7.51
304.497	2.97
304.712	-14.8
304.927	-10.92
305.142	-37.96
305.356	-33.2
305.571	-14.81
305.786	10.62
306	9.61
306.215	36.39
306.43	31.85
306.644	48.08
306.859	63.79
307.074	41.55
307.288	22.04
307.503	41.28
307.717	24.89
307.932	12.17
308.147	9.42
308.361	23.55
308.576	-1.98
308.79	5.16
309.005	35.96
309.219	44.63
309.434	34.65
309.648	48.63
309.863	44.7
310.077	28.66
310.292	25.08
310.506	24.54
310.72	13.62
310.935	2.05
311.149	12.46
311.364	17.45
311.578	12.14
311.792	1.43
312.007	17.47
312.221	16.48
312.435	27.31
312.649	29.39
312.864	65.04
313.078	72.01
313.292	39.24
313.507	54.38
313.721	58.83
313.935	46.8
314.149	45.78
314.363	52.47
314.578	38.25
314.792	49.94
315.006	49.46
315.22	40.05
315.434	39.4
315.648	38.58
315.862	29.58
316.077	34.18
316.291	33.93
316.505	44.7
316.719	57.94
316.933	83.99
317.147	81.97
317.361	65.83
317.575	49.7
317.789	36.66
318.003	15.71
318.217	12.91
318.431	18.69
318.645	20.55
318.859	23.33
319.073	18.92
319.287	3.44
319.5	6.58
319.714	24.51
319.928	26.68
320.142	27.97
320.356	36.56
320.57	36.87
320.784	33.3
320.997	27.81
321.211	31.51
321.425	36.36
321.639	35.85
321.853	30.82
322.066	25.69
322.28	20.28
322.494	18.57
322.707	16.28
322.921	11.01
323.135	-2.02
323.349	1.66
323.562	-17.01
323.776	-8.76
323.989	-3.42
324.203	13.04
324.417	4.77
324.63	23.99
324.844	31.56
325.057	21.24
325.271	13.86
325.485	17.21
325.698	13.82
325.912	4.05
326.125	3.74
326.339	17.73
326.552	27.58
326.766	25.47
326.979	20.93
327.193	31.33
327.406	36.49
327.619	27.03
327.833	35.85
328.046	46.17
328.26	46.1
328.473	36.32
328.686	47.84
328.9	37.98
329.113	10.45
329.326	-9.66
329.54	-50.98
329.753	-45.61
329.966	-22.6
330.179	-14.86
330.393	-12.75
330.606	4.49
330.819	9.98
331.032	-5.24
331.246	2.64
331.459	-11.07
331.672	-6.69
331.885	2.76
332.098	12.04
332.311	34.93
332.525	44.6
332.738	36.83
332.951	10.03
333.164	26.08
333.377	4.89
333.59	11.51
333.803	29.57
334.016	38.08
334.229	13.12
334.442	24.15
334.655	31.56
334.868	14.43
335.081	33.04
335.294	51.58
335.507	54.44
335.72	41.67
335.933	38.76
336.146	44.29
336.359	36.5
336.572	7.82
336.785	9.01
336.997	18.17
337.21	-3.39
337.423	-4.22
337.636	22.15
337.849	23.06
338.062	21.67
338.274	44.53
338.487	45.86
338.7	22.51
338.913	19.26
339.125	22.8
339.338	15.37
339.551	18.63
339.763	20.11
339.976	23.72
340.189	22.81
340.402	5.31
340.614	-5.06
340.827	13.59
341.039	12.87
341.252	7.33
341.465	33.89
341.677	37.41
341.89	24.97
342.102	24.44
342.315	29.41
342.527	15.06
342.74	6.71
342.952	23.02
343.165	24.88
343.377	16.1
343.59	18.03
343.802	25.53
344.015	16.55
344.227	-0.57
344.44	10.17
344.652	31.95
344.864	36.9
345.077	51.2
345.289	72.97
345.502	52.08
345.714	30.98
345.926	9.5
346.139	-31.43
346.351	-15.6
346.563	17.08
346.775	8.15
346.988	15.13
347.2	20.62
347.412	-5.24
347.624	-4.92
347.837	-8.52
348.049	-9.91
348.261	5.53
348.473	32.41
348.685	29.46
348.897	28.45
349.11	36.94
349.322	38.26
349.534	23.52
349.746	23.85
349.958	32.28
350.17	18.55
350.382	28.19
350.594	24.83
350.806	29.58
351.018	24.76
351.23	26.78
351.442	3.02
351.654	28.02
351.866	9.79
352.078	25.68
352.29	20.22
352.502	20.09
352.714	18.6
352.926	31.11
353.138	31.08
353.35	32.15
353.561	41.32
353.773	34.81
353.985	39.95
354.197	26.93
354.409	30
354.621	20.22
354.832	17.37
355.044	15.1
355.256	24
355.468	28
355.679	41.97
355.891	25.99
356.103	20.01
356.314	11.62
356.526	4.44
356.738	-0.9
356.949	-1.82
357.161	6.24
357.373	9.39
357.584	1.37
357.796	1.85
358.008	6.66
358.219	-0.51
358.431	8.85
358.642	21.59
358.854	20.08
359.065	14.01
359.277	0.84
359.488	-1.89
359.7	9.19
359.911	18.96
360.123	15.59
360.334	25.41
360.546	13.47
360.757	3.87
360.969	0.65
361.18	32.85
361.391	36.13
361.603	33.68
361.814	42.61
362.025	38.97
362.237	19.07
362.448	23.01
362.659	25.91
362.871	20.06
363.082	16.67
363.293	24.32
363.504	29.57
363.716	28.16
363.927	27.12
364.138	23.67
364.349	19.95
364.56	16.87
364.772	22.58
364.983	20.75
365.194	22.13
365.405	21.42
365.616	15.48
365.827	16.49
366.038	24.01
366.25	13.2
366.461	8.1
366.672	14.6
366.883	24.91
367.094	13.3
367.305	31.48
367.516	40.77
367.727	34.58
367.938	37.93
368.149	43.76
368.36	44.09
368.571	43.32
368.781	46.12
368.992	31.87
369.203	16.62
369.414	10.02
369.625	2.38
369.836	15.94
370.047	19.01
370.258	27.49
370.468	26.78
370.679	26.46
370.89	2.09
371.101	14.88
371.312	11.58
371.522	9.09
371.733	14.95
371.944	21.45
372.155	1.3
372.365	-6.82
372.576	-4.08
372.787	-7.05
372.997	-9.25
373.208	-10.26
373.419	-5.38
373.629	2.28
373.84	15.86
374.05	16.77
374.261	31.49
374.472	24.55
374.682	3.47
374.893	9.15
375.103	18.83
375.314	6.2
375.524	11.89
375.735	23.83
375.945	17.52
376.156	10.39
376.366	2.21
376.577	3.05
376.787	6.6
376.997	3.8
377.208	-0.28
377.418	5.9
377.629	9.36
377.839	11.7
378.049	12.37
378.26	14.11
378.47	22.13
378.68	19.35
378.89	15.55
379.101	23.77
379.311	27.3
379.521	19.94
379.732	11.15
379.942	6.59
380.152	1.67
380.362	-1.09
380.572	-3.85
380.783	4.26
380.993	14.87
381.203	7.29
381.413	-1.91
381.623	0.75
381.833	10.56
382.043	8.82
382.253	10.31
382.463	13.12
382.674	14.92
382.884	12.18
383.094	3.15
383.304	4.51
383.514	6.82
383.724	18.9
383.934	12.89
384.144	16.41
384.353	15.24
384.563	16.42
384.773	11.56
384.983	13.99
385.193	16.59
385.403	13.49
385.613	17.72
385.823	11.24
386.033	8.95
386.242	5.82
386.452	7.16
386.662	1.96
386.872	6.15
387.082	7.94
387.291	2.92
387.501	4.77
387.711	3.38
387.921	1.55
388.13	1.96
388.34	4.14
388.55	6.23
388.759	7.29
388.969	7.88
389.179	5.46
389.388	5.38
389.598	5.08
389.807	5.08
390.017	3.1
390.227	8.56
390.436	9.75
390.646	7.59
390.855	8.61
391.065	9.55
391.274	6.76
391.484	5.82
391.693	3.79
391.903	2.25
392.112	1.83
392.322	0.98
392.531	1.22
392.74	1.46
392.95	2.1
393.159	3.36
393.369	5.36
393.578	4.95
393.787	5.58
393.997	5.86
394.206	5.65
394.415	4.34
394.625	3.8
394.834	2.97
395.043	1.93
395.252	2.6
395.462	2.62
395.671	3.48
395.88	5.29
396.089	6.32
396.298	5.32
396.508	5.07
396.717	5
396.926	4.04
397.135	2.89
397.344	3.08
397.553	3.58
397.762	3.8
397.971	4.12
398.181	4.84
398.39	4.53
398.599	3.85
398.808	3.56
399.017	3.6
399.226	3.24
399.435	3.41
399.644	4.24
399.853	4.42
400.062	4.56
400.27	4.9
400.479	5.01
400.688	4.48
400.897	4.6
401.106	4.4
401.315	4.21
401.524	4.31
401.733	4.44
401.941	4.34
402.15	4.62
402.359	4.47
402.568	4.31
402.777	4.19
402.985	4.1
403.194	3.73
403.403	3.73
403.612	3.72
403.82	3.79
404.029	3.71
404.238	3.52
404.446	3.61
404.655	3.46
404.864	3.43
405.072	3.42
405.281	3.67
405.489	3.62
405.698	3.65
405.906	3.55
406.115	3.57
406.324	3.53
406.532	3.53
406.741	3.56
406.949	3.67
407.158	3.62
407.366	3.63
407.574	3.61
407.783	3.52
407.991	3.27
408.2	3.34
408.408	3.17
408.617	3.31
408.825	3.35
409.033	3.56
409.242	3.63
409.45	3.68
409.658	3.6
409.867	3.6
410.075	3.52
410.283	3.44
410.491	3.45
410.7	3.39
410.908	3.47
411.116	3.56
411.324	3.55
411.533	3.54
411.741	3.6
411.949	3.48
412.157	3.29
412.365	3.22
412.573	3.25
412.781	3.22
412.99	3.3
413.198	3.41
413.406	3.49
413.614	3.56
413.822	3.58
414.03	3.51
414.238	3.37
414.446	3.53
414.654	3.48
414.862	3.37
415.07	3.13
415.278	3.22
415.486	2.87
415.694	2.93
415.902	2.95
416.109	3.18
416.317	3.2
416.525	3.34
416.733	3.26
416.941	3.4
417.149	3.28
417.357	3.13
417.564	3.08
417.772	2.98
417.98	2.88
418.188	2.93
418.395	2.96
418.603	2.93
418.811	2.99
419.019	3.05
419.226	3.23
419.434	3.22
419.642	3.21
419.849	3.16
420.057	2.98
420.265	2.87
420.472	2.92
420.68	2.94
420.887	2.95
421.095	2.97
421.302	2.93
421.51	2.87
421.717	2.95
421.925	3.03
422.132	2.99
422.34	2.98
422.547	2.82
422.755	2.92
422.962	2.89
423.17	2.89
423.377	3.02
423.585	3.31
423.792	3.15
423.999	3.14
424.207	3.14
424.414	2.88
424.621	2.75
424.829	2.85
425.036	2.83
425.243	2.91
425.451	2.97
425.658	3
425.865	2.84
426.072	2.85
426.28	2.98
426.487	3.19
426.694	3.1
426.901	2.93
427.108	2.9
427.315	2.78
427.523	2.55
427.73	2.65
427.937	2.78
428.144	2.72
428.351	2.77
428.558	2.86
428.765	2.96
428.972	3.03
429.179	3.16
429.386	3.01
429.593	3.08
429.8	3.02
430.007	3.03
430.214	3.21
430.421	3.36
430.628	3.24
430.835	3.24
431.042	3.23
431.249	3.19
431.456	3.02
431.662	3.29
431.869	3.45
432.076	3.49
432.283	3.46
432.49	3.55
432.697	3.36
432.903	3.05
433.11	2.99
433.317	2.88
433.524	3.05
433.73	3.12
433.937	3.29
434.144	3.26
434.35	3.37
434.557	3.15
434.764	3.02
434.97	2.99
435.177	3.12
435.384	3.04
435.59	3.15
435.797	3.18
436.003	3.28
436.21	3.26
436.416	3.29
436.623	3.29
436.829	3.46
437.036	3.38
437.242	3.35
437.449	3.39
437.655	3.46
437.862	3.57
438.068	3.5
438.275	3.52
438.481	3.5
438.687	3.41
438.894	3.39
439.1	3.47
439.307	3.54
439.513	3.59
439.719	3.58
439.926	3.44
440.132	3.57
440.338	3.69
440.544	3.64
440.751	3.6
440.957	3.63
441.163	3.56
441.369	3.46
441.575	3.48
441.782	3.66
441.988	3.76
442.194	3.71
442.4	3.7
442.606	3.81
442.812	3.77
443.018	3.74
443.224	3.88
443.431	3.89
443.637	3.86
443.843	3.9
444.049	3.97
444.255	3.85
444.461	3.89
444.667	3.74
444.873	3.62
445.079	3.54
445.284	3.62
445.49	3.56
445.696	3.73
445.902	3.78
446.108	3.79
446.314	3.81
446.52	3.82
446.726	3.79
446.931	3.82
447.137	3.75
447.343	3.75
447.549	3.72
447.755	3.74
447.96	3.75
448.166	3.78
448.372	3.76
448.578	3.95
448.783	3.97
448.989	4
449.195	3.96
449.4	3.96
449.606	3.84
449.812	3.78
450.017	3.69
450.223	3.82
450.428	3.84
450.634	3.93
450.84	3.95
451.045	4.06
451.251	4.08
451.456	4.1
451.662	4.06
451.867	4.03
452.073	3.99
452.278	3.94
452.483	3.97
452.689	3.98
452.894	3.96
453.1	3.99
453.305	4
453.51	4
453.716	3.94
453.921	4.06
454.127	4.16
454.332	4.05
454.537	4.02
454.742	4.06
454.948	3.92
455.153	3.88
455.358	4.01
455.563	4.05
455.769	3.88
455.974	4.05
456.179	3.94
456.384	3.84
456.589	3.94
456.795	4.16
457	4.17
457.205	4.31
457.41	4.42
457.615	4.28
457.82	4.21
458.025	4.13
458.23	4.11
458.435	4.06
458.64	4.06
458.845	4.09
459.05	4.11
459.255	4.17
459.46	4.15
459.665	4.17
459.87	4.1
460.075	4.18
460.28	4.07
460.485	4.16
460.69	4.21
460.895	4.29
461.099	4.29
461.304	4.35
461.509	4.22
461.714	4.24
461.919	4.22
462.123	4.12
462.328	4.14
462.533	4.36
462.738	4.32
462.942	4.36
463.147	4.47
463.352	4.52
463.556	4.45
463.761	4.44
463.966	4.43
464.17	4.46
464.375	4.35
464.58	4.26
464.784	4.28
464.989	4.27
465.193	4.2
465.398	4.28
465.602	4.41
465.807	4.44
466.011	4.5
466.216	4.49
466.42	4.43
466.625	4.63
466.829	4.72
467.034	4.81
467.238	4.88
467.443	4.93
467.647	4.64
467.851	4.53
468.056	4.46
468.26	4.37
468.464	4.39
468.669	4.53
468.873	4.48
469.077	4.48
469.282	4.54
