Data from Ofav_PS_Phys_CX_Reflection_2.txt Node
Date: Thu Jul 29 18:20:54 EDT 2021
User: USUARIO
Spectrometer: FLMT01687
Trigger mode: 0
Integration Time (sec): 9.010000E-1
Scans to average: 2
Electric dark correction enabled: true
Nonlinearity correction enabled: false
Boxcar width: 2
XAxis mode: Wavelengths
Number of Pixels in Spectrum: 3648
>>>>>Begin Spectral Data<<<<<
179.494	248.25
179.716	281.98
179.937	211.39
180.158	-1022.6
180.38	-48.58
180.601	-601.05
180.823	-200.41
181.044	-86.96
181.265	-63.36
181.486	-724.29
181.708	117.49
181.929	263.04
182.15	7838.1
182.372	-87.69
182.593	-34.12
182.814	46.54
183.035	151.89
183.257	31.11
183.478	15.81
183.699	33.79
183.92	48.35
184.141	52.76
184.363	12.17
184.584	8.83
184.805	16.26
185.026	19.57
185.247	0.68
185.468	10.36
185.689	20.96
185.91	13.81
186.132	3.53
186.353	11.24
186.574	44.11
186.795	34.66
187.016	17.86
187.237	1.33
187.458	-9.2
187.679	-31.78
187.9	-11.32
188.121	-36.09
188.342	-12.44
188.563	15.26
188.784	25.13
189.005	14.11
189.226	27.98
189.447	19.15
189.667	17.73
189.888	2.99
190.109	-7.37
190.33	-99.35
190.551	-57.01
190.772	-42.99
190.993	-25.75
191.214	-15.77
191.434	5.72
191.655	14.43
191.876	-1.37
192.097	-42.44
192.318	-5.47
192.538	-11.07
192.759	5.81
192.98	20.63
193.201	20.38
193.421	-13.79
193.642	-29.21
193.863	-47.86
194.083	-94.39
194.304	-59.79
194.525	-25.17
194.745	-21.26
194.966	-27.1
195.187	-40.8
195.407	-77.14
195.628	-159.37
195.848	-115.54
196.069	-85.1
196.29	-39.98
196.51	-13.65
196.731	14.56
196.951	13.97
197.172	-10.4
197.392	0.72
197.613	-2.26
197.833	1.82
198.054	8.25
198.274	16.04
198.495	33.74
198.715	8.91
198.936	1.71
199.156	-11.85
199.377	-8.93
199.597	-59.84
199.817	-23.59
200.038	-17.74
200.258	-34.58
200.479	-100.45
200.699	-110.92
200.919	-34.58
201.14	-44.55
201.36	1.15
201.58	30.44
201.801	35.33
202.021	31.09
202.241	37.21
202.461	16.77
202.682	-27.64
202.902	13.16
203.122	-14.01
203.342	21.93
203.563	28.35
203.783	32.01
204.003	-4.43
204.223	-39.1
204.443	-43.93
204.663	-38.83
204.884	-2.63
205.104	-5.42
205.324	26.4
205.544	20.98
205.764	16.45
205.984	22.92
206.204	32.67
206.424	29.99
206.644	15.82
206.864	12.17
207.084	-25.19
207.304	-0.76
207.525	-44.22
207.745	-12.99
207.964	12.15
208.184	31.15
208.404	-22.89
208.624	5.07
208.844	-10.73
209.064	2.76
209.284	-9.67
209.504	7.53
209.724	31.61
209.944	55.97
210.164	43.51
210.384	44.99
210.604	38.68
210.823	27.64
211.043	4.95
211.263	37.67
211.483	23.04
211.703	23.02
211.922	-0.42
212.142	28.18
212.362	-14.74
212.582	3.74
212.801	6.33
213.021	-2.26
213.241	-34.25
213.461	-49.37
213.68	-84.65
213.9	-94.29
214.12	-75.3
214.339	-109.33
214.559	-90.84
214.779	-62.74
214.998	-62.63
215.218	-58.45
215.438	-0.88
215.657	-15.35
215.877	-9.19
216.096	-15.81
216.316	-42.09
216.535	-79.12
216.755	-83.86
216.974	-81.46
217.194	-78.89
217.413	-39.53
217.633	9.45
217.852	-5.82
218.072	-15.95
218.291	1.77
218.511	35.17
218.73	0.19
218.95	5.79
219.169	16.9
219.389	12.04
219.608	-18.1
219.827	-17.92
220.047	-13.27
220.266	-33.55
220.485	-27.61
220.705	-13.32
220.924	-30.78
221.143	-35.41
221.363	-57.05
221.582	-71.55
221.801	-208.98
222.021	-155.35
222.24	-106.57
222.459	-66.2
222.678	-28.14
222.897	-24.05
223.117	-2.14
223.336	-10.88
223.555	-28.16
223.774	-51.69
223.993	-20.47
224.213	-0.43
224.432	28.01
224.651	47.68
224.87	38.96
225.089	36.87
225.308	32.06
225.527	18.15
225.746	-13.69
225.965	-20.37
226.184	-43.02
226.404	-80.56
226.623	-38.07
226.842	-15.9
227.061	-30.98
227.28	-28.8
227.499	-18.11
227.718	-57.27
227.936	-101.48
228.155	-59.53
228.374	-62.24
228.593	-61.95
228.812	-53.57
229.031	-32
229.25	-8.47
229.469	6.09
229.688	13.52
229.907	26.02
230.125	15.96
230.344	-1.41
230.563	-16.64
230.782	-12.3
231.001	-54.82
231.22	-33.11
231.438	-17.77
231.657	4.88
231.876	1.67
232.095	15.28
232.313	8.78
232.532	0.64
232.751	-19.24
232.969	-13.1
233.188	-26.06
233.407	-40.9
233.625	-16.76
233.844	-21.29
234.063	-22.19
234.281	-51.35
234.5	-70.4
234.719	-52.84
234.937	-59.09
235.156	-97.89
235.374	-19.31
235.593	2.7
235.811	-44.89
236.03	-31.79
236.249	0.17
236.467	-9.93
236.686	-11.96
236.904	-4.76
237.123	-0.14
237.341	-34.96
237.559	-34.93
237.778	-20.58
237.996	-10.73
238.215	-9.1
238.433	10.27
238.652	20.77
238.87	13.09
239.088	20
239.307	10.49
239.525	2.74
239.743	4.05
239.962	0.69
240.18	4.46
240.398	9.37
240.617	-8.5
240.835	-22.33
241.053	-38.82
241.271	-51.4
241.49	-62.61
241.708	-40.91
241.926	-64.01
242.144	-40.54
242.363	-34.13
242.581	-34.6
242.799	-21.61
243.017	-9.74
243.235	-5.59
243.453	0.03
243.672	9.09
243.89	-4.69
244.108	9.15
244.326	-14.57
244.544	-33.86
244.762	-40.46
244.98	-45.09
245.198	-57.14
245.416	-49.78
245.634	-49.85
245.852	-47
246.07	-7.75
246.288	-0.76
246.506	11.9
246.724	3.8
246.942	11.35
247.16	6.77
247.378	-1.67
247.596	-12.76
247.814	2.69
248.032	-0.47
248.25	-5.99
248.468	-1.37
248.685	12.09
248.903	23.33
249.121	27.14
249.339	19.62
249.557	38.73
249.775	44.64
249.992	8.54
250.21	-6.14
250.428	20.62
250.646	-3.78
250.863	-16.07
251.081	-19.71
251.299	0.52
251.517	-17.82
251.734	-3.24
251.952	-17.48
252.17	14.14
252.387	-3.17
252.605	-6.16
252.823	-30.95
253.04	9.73
253.258	-2.99
253.475	-1.81
253.693	3.29
253.911	12.23
254.128	-3.1
254.346	-15.8
254.563	-14.05
254.781	-37.29
254.998	-18.35
255.216	-51.56
255.433	-8.72
255.651	-12.29
255.868	-18.1
256.086	-15.53
256.303	4.18
256.521	-10.46
256.738	-18.78
256.956	-2.74
257.173	-4.47
257.39	2.15
257.608	17.54
257.825	42.78
258.043	50.65
258.26	38.2
258.477	17.08
258.695	0.57
258.912	-21.64
259.129	-46.23
259.346	-35.32
259.564	-60.93
259.781	-44.1
259.998	-18.05
260.216	-1.47
260.433	16.39
260.65	12.45
260.867	9.18
261.084	7.03
261.302	-12.41
261.519	-36.11
261.736	-18.21
261.953	-18.26
262.17	-11.94
262.387	-12.39
262.604	-23.4
262.822	-24.23
263.039	-10.39
263.256	-30.28
263.473	-6.74
263.69	-10.85
263.907	0.57
264.124	-10.41
264.341	22.4
264.558	9.29
264.775	-0.37
264.992	12.24
265.209	6.76
265.426	-6.47
265.643	-2.07
265.86	12.61
266.077	6.96
266.294	13.42
266.51	3.46
266.727	14.51
266.944	13.26
267.161	5.6
267.378	9.93
267.595	24.45
267.812	-8.03
268.028	-33.1
268.245	-33.82
268.462	-60
268.679	-64.9
268.896	-30.92
269.112	-8.27
269.329	-4.42
269.546	1.83
269.763	-0.58
269.979	0.17
270.196	0.5
270.413	-5.38
270.629	-6.05
270.846	4.02
271.063	-7.14
271.279	-16.41
271.496	-27.93
271.712	-28.01
271.929	-15.79
272.146	-3.97
272.362	-0.38
272.579	35.39
272.795	60.58
273.012	42.29
273.228	35.09
273.445	39.91
273.661	21.79
273.878	-6.51
274.094	14.52
274.311	-1.23
274.527	-2.56
274.744	14.82
274.96	33.52
275.177	11.29
275.393	16.32
275.609	3.75
275.826	-12.52
276.042	-21.71
276.259	-25.25
276.475	-25.84
276.691	15.14
276.908	8.7
277.124	-2.23
277.34	1.85
277.557	-11.26
277.773	-45.6
277.989	-31.1
278.205	-6.76
278.422	-9.59
278.638	1.21
278.854	23.4
279.07	26.99
279.286	3.9
279.503	20.41
279.719	17.83
279.935	3.63
280.151	-27
280.367	-21.43
280.583	-23.54
280.799	-26.26
281.016	-5.95
281.232	4.05
281.448	9.41
281.664	20.68
281.88	-1.89
282.096	-0.29
282.312	-5.02
282.528	-10.19
282.744	-16
282.96	6.56
283.176	-17.24
283.392	-5.21
283.608	2.37
283.824	-21.74
284.04	-39.52
284.256	-15.59
284.471	-29.02
284.687	-16.84
284.903	11.31
285.119	48.97
285.335	6.08
285.551	10.8
285.767	7.66
285.982	-0.66
286.198	-13.77
286.414	0.29
286.63	6.97
286.846	3.52
287.061	-3.53
287.277	13.24
287.493	6.84
287.709	-8.34
287.924	1.87
288.14	17.7
288.356	11.73
288.571	18.06
288.787	19.95
289.003	16.33
289.218	-6.59
289.434	-9.68
289.65	-6.07
289.865	-3.42
290.081	-11.56
290.296	-9.27
290.512	-17.1
290.727	-20.54
290.943	-14.56
291.159	-6.82
291.374	9.96
291.59	15.18
291.805	5.11
292.021	-0.62
292.236	2.14
292.451	-24.6
292.667	-35.03
292.882	-31.04
293.098	-20.66
293.313	-35.65
293.529	-8.84
293.744	-10.89
293.959	-9.03
294.175	2.48
294.39	18.16
294.605	18.95
294.821	29.91
295.036	31.43
295.251	12.12
295.467	-18.27
295.682	-19.13
295.897	-29.96
296.112	-37.94
296.328	-22.64
296.543	-20.66
296.758	-26
296.973	-27.69
297.188	-21.35
297.404	-40.88
297.619	-30.72
297.834	-21.38
298.049	-22.39
298.264	-18.55
298.479	6.5
298.694	8.55
298.909	3.15
299.125	-5.55
299.34	-3
299.555	-24
299.77	-32.68
299.985	-58.49
300.2	-25.79
300.415	-32.71
300.63	-15.55
300.845	-26.88
301.06	-23.29
301.275	-35.69
301.49	-28.47
301.704	-76.5
301.919	-30.94
302.134	-9.05
302.349	-15.65
302.564	-7.45
302.779	-2.29
302.994	-4.74
303.209	-22.55
303.423	-3.35
303.638	-21.1
303.853	-17.51
304.068	-2.29
304.283	4.41
304.497	5.01
304.712	-18.05
304.927	-11.85
305.142	-40.9
305.356	-56.13
305.571	-49.32
305.786	-19.67
306	-33.85
306.215	-10.91
306.43	-0.64
306.644	-19.45
306.859	-2.87
307.074	4.9
307.288	-4.66
307.503	-1.39
307.717	-0.46
307.932	-15.18
308.147	-16.92
308.361	-22.71
308.576	-17.15
308.79	-32.3
309.005	8.72
309.219	4.34
309.434	8.35
309.648	8.54
309.863	22.38
310.077	4.1
310.292	-8.29
310.506	-18.34
310.72	-23.03
310.935	-29.78
311.149	-17.19
311.364	-8.69
311.578	-14.11
311.792	-43.54
312.007	-48.02
312.221	-76.38
312.435	-46.11
312.649	-44.15
312.864	-42.17
313.078	-34.61
313.292	-21.18
313.507	-2.52
313.721	15.52
313.935	-3.4
314.149	3.99
314.363	-4.59
314.578	-13.55
314.792	-10.06
315.006	5.97
315.22	-2.47
315.434	12.51
315.648	17.45
315.862	8.95
316.077	3.65
316.291	-6.36
316.505	11.61
316.719	6.59
316.933	2.94
317.147	-12.64
317.361	-10.84
317.575	-27.74
317.789	-43.7
318.003	-14.72
318.217	10.19
318.431	11.47
318.645	-1.75
318.859	8.85
319.073	-20.17
319.287	-47.46
319.5	-42.65
319.714	-22.95
319.928	-33.63
320.142	-0.42
320.356	19.18
320.57	12.17
320.784	4.35
320.997	3.72
321.211	-4.54
321.425	-7.08
321.639	-10.4
321.853	-9.74
322.066	-13.35
322.28	-11.99
322.494	-13.14
322.707	8.1
322.921	2.13
323.135	-1.99
323.349	-15.71
323.562	-38.76
323.776	-41.59
323.989	-30.78
324.203	-21.35
324.417	-22.3
324.63	-12.35
324.844	-15.45
325.057	-6
325.271	-8.49
325.485	-4.93
325.698	0.85
325.912	-8.36
326.125	-17.43
326.339	-27.99
326.552	-22.79
326.766	-9.79
326.979	-4.13
327.193	-0.63
327.406	10.49
327.619	8.39
327.833	-10.65
328.046	-3.23
328.26	-2.3
328.473	-4.2
328.686	-11.43
328.9	-2.28
329.113	-19.81
329.326	-33.89
329.54	-50.67
329.753	-28.35
329.966	-7.22
330.179	-5.98
330.393	3.58
330.606	13.38
330.819	17.22
331.032	2.37
331.246	5.9
331.459	-10.42
331.672	-19.33
331.885	-10.99
332.098	1
332.311	22.42
332.525	22.07
332.738	15.79
332.951	2.27
333.164	-3.66
333.377	-28.97
333.59	-5.89
333.803	11.63
334.016	7.13
334.229	19.41
334.442	30.07
334.655	24.14
334.868	23.64
335.081	39.91
335.294	24.93
335.507	19.62
335.72	25.9
335.933	10.38
336.146	-4.77
336.359	-5.98
336.572	-12.9
336.785	-17.09
336.997	-6.45
337.21	5.51
337.423	8.61
337.636	11.61
337.849	-0.53
338.062	-11.65
338.274	-36.26
338.487	-38.11
338.7	-74.55
338.913	-40.46
339.125	-12.27
339.338	1.78
339.551	-5.54
339.763	9.33
339.976	-12.15
340.189	-15.35
340.402	-25.29
340.614	-20.45
340.827	-25.27
341.039	-8.99
341.252	-21.26
341.465	-20.7
341.677	0.16
341.89	-2.85
342.102	-1.03
342.315	3.04
342.527	13.88
342.74	7.89
342.952	8.38
343.165	6.43
343.377	-5.03
343.59	-22.63
343.802	-5.43
344.015	8.23
344.227	0.02
344.44	9
344.652	20.04
344.864	26.09
345.077	12.54
345.289	8.3
345.502	21.51
345.714	8.72
345.926	-1.23
346.139	-23.87
346.351	-26.8
346.563	-36.57
346.775	-25.22
346.988	-48.1
347.2	-29.6
347.412	-25.73
347.624	-13.1
347.837	-29.09
348.049	-19.79
348.261	-19.75
348.473	-4.84
348.685	-9.4
348.897	1.25
349.11	6.62
349.322	10.57
349.534	13
349.746	13
349.958	4.84
350.17	-1.42
350.382	1.8
350.594	-6.45
350.806	2.01
351.018	10.92
351.23	12.15
351.442	0.41
351.654	24.45
351.866	16.12
352.078	24.6
352.29	20.38
352.502	25.6
352.714	8.11
352.926	8.48
353.138	-8.13
353.35	0.04
353.561	-8.88
353.773	1.39
353.985	6.35
354.197	9.95
354.409	13.88
354.621	4.22
354.832	-13.64
355.044	-18.12
355.256	-17.87
355.468	-25.35
355.679	-7.13
355.891	10.99
356.103	22.85
356.314	22.5
356.526	19.45
356.738	22.37
356.949	18.49
357.161	18.46
357.373	19.36
357.584	15.15
357.796	13.79
358.008	0.38
358.219	-14.97
358.431	-18.39
358.642	-31.58
358.854	-37.74
359.065	-24.41
359.277	-20.21
359.488	-12.5
359.7	13.48
359.911	21.72
360.123	23.83
360.334	16.71
360.546	8.96
360.757	-7.84
360.969	-28.56
361.18	-9.87
361.391	0.03
361.603	-4.26
361.814	20.94
362.025	28.57
362.237	26.4
362.448	21.53
362.659	20.88
362.871	13.85
363.082	9.4
363.293	4.49
363.504	14.12
363.716	7.11
363.927	-2.69
364.138	-18.28
364.349	-15.8
364.56	-21.03
364.772	-17.63
364.983	-19.06
365.194	-9.98
365.405	-12.78
365.616	-22.36
365.827	-17.02
366.038	-20.13
366.25	-40.9
366.461	-48.75
366.672	-44.93
366.883	-31.41
367.094	-26.77
367.305	8.79
367.516	17.87
367.727	14.87
367.938	7.02
368.149	1.29
368.36	-4.18
368.571	-4.99
368.781	-22.22
368.992	-34.8
369.203	-27.36
369.414	-29.87
369.625	-27.99
369.836	-8.97
370.047	-6.75
370.258	2.32
370.468	-6.58
370.679	-26.92
370.89	-53.06
371.101	-42.48
371.312	-61.72
371.522	-41.05
371.733	-19.86
371.944	-15.72
372.155	-6.24
372.365	8.14
372.576	-5.9
372.787	-9.11
372.997	-4.67
373.208	-7.9
373.419	-4.09
373.629	18.64
373.84	32.31
374.05	32.4
374.261	30.24
374.472	13.64
374.682	-18.92
374.893	-24.57
375.103	-17.04
375.314	-15.6
375.524	-14.43
375.735	2.47
375.945	-5.27
376.156	-7.17
376.366	-29.19
376.577	-4.79
376.787	-12.09
376.997	-7.58
377.208	-19.42
377.418	-3.33
377.629	-21.17
377.839	-5.15
378.049	-14.06
378.26	-4.09
378.47	-4.06
378.68	-2.33
378.89	-13.57
379.101	-7.83
379.311	-16.85
379.521	-23.67
379.732	-26.5
379.942	-28.37
380.152	-40.57
380.362	-33
380.572	-29.74
380.783	-24.15
380.993	-26.98
381.203	-4.61
381.413	-6.1
381.623	-1.1
381.833	11.77
382.043	17.75
382.253	3.24
382.463	4.04
382.674	7.64
382.884	-0.6
383.094	-3.38
383.304	1.59
383.514	4.16
383.724	9.85
383.934	3.16
384.144	3.26
384.353	6.82
384.563	9.44
384.773	3.64
384.983	7.18
385.193	8.57
385.403	-0.88
385.613	0.74
385.823	-4.19
386.033	-3.53
386.242	-5.58
386.452	-4.12
386.662	-5.7
386.872	1.27
387.082	-1.57
387.291	-3.7
387.501	1.37
387.711	-0.4
387.921	-4.96
388.13	-4.75
388.34	-2.2
388.55	-4.3
388.759	-4.31
388.969	1.37
389.179	-1.67
389.388	-3.78
389.598	-1.16
389.807	-2.56
390.017	-6.37
390.227	0.79
390.436	2.1
390.646	0.35
390.855	2.97
391.065	2.78
391.274	-0.95
391.484	-0.94
391.693	-2.12
391.903	-2.97
392.112	-1.38
392.322	-1.87
392.531	-2.8
392.74	-2.79
392.95	-2.03
393.159	-1.52
393.369	-0.22
393.578	0.42
393.787	2.13
393.997	1.36
394.206	0.72
394.415	1.73
394.625	2.04
394.834	1
395.043	0.83
395.252	2.48
395.462	2.13
395.671	1.89
395.88	3.74
396.089	4.68
396.298	3.71
396.508	3.14
396.717	2.79
396.926	2.08
397.135	1.61
397.344	1.59
397.553	2.32
397.762	3.04
397.971	3.29
398.181	3.6
398.39	3.42
398.599	2.96
398.808	2.5
399.017	2.82
399.226	2.59
399.435	2.99
399.644	3.65
399.853	4.19
400.062	4.09
400.27	4.43
400.479	4.34
400.688	3.84
400.897	3.57
401.106	3.38
401.315	3.15
401.524	3.43
401.733	3.56
401.941	3.95
402.15	4.21
402.359	4.19
402.568	4.19
402.777	4.27
402.985	4
403.194	3.8
403.403	3.65
403.612	3.33
403.82	3.24
404.029	3.17
404.238	3.07
404.446	3.32
404.655	3.47
404.864	3.44
405.072	3.51
405.281	3.63
405.489	3.38
405.698	3.24
405.906	3.21
406.115	3.14
406.324	3.07
406.532	3.12
406.741	3.24
406.949	3.36
407.158	3.31
407.366	3.17
407.574	3.16
407.783	3.1
407.991	2.91
408.2	2.98
408.408	2.98
408.617	3.15
408.825	3.13
409.033	3.27
409.242	3.32
409.45	3.4
409.658	3.32
409.867	3.29
410.075	3.2
410.283	3.05
410.491	3
410.7	2.97
410.908	3.08
411.116	3.14
411.324	3.13
411.533	3.18
411.741	3.16
411.949	3.13
412.157	3.13
412.365	3.07
412.573	2.94
412.781	2.94
412.99	2.88
413.198	2.86
413.406	2.86
413.614	2.9
413.822	2.92
414.03	2.93
414.238	2.9
414.446	3.11
414.654	3.08
414.862	3.1
415.07	2.88
415.278	3
415.486	2.81
415.694	2.97
415.902	3.07
416.109	3.17
416.317	2.99
416.525	3.11
416.733	3.01
416.941	2.92
417.149	2.9
417.357	2.85
417.564	2.75
417.772	2.67
417.98	2.62
418.188	2.52
418.395	2.48
418.603	2.42
418.811	2.56
419.019	2.54
419.226	2.84
419.434	2.88
419.642	2.92
419.849	2.77
420.057	2.57
420.265	2.32
420.472	2.31
420.68	2.4
420.887	2.43
421.095	2.57
421.302	2.64
421.51	2.56
421.717	2.44
421.925	2.5
422.132	2.55
422.34	2.32
422.547	2.26
422.755	2.45
422.962	2.4
423.17	2.29
423.377	2.51
423.585	2.82
423.792	2.61
423.999	2.62
424.207	2.67
424.414	2.57
424.621	2.51
424.829	2.57
425.036	2.56
425.243	2.6
425.451	2.69
425.658	2.63
425.865	2.54
426.072	2.57
426.28	2.57
426.487	2.54
426.694	2.54
426.901	2.44
427.108	2.32
427.315	2.43
427.523	2.44
427.73	2.38
427.937	2.58
428.144	2.63
428.351	2.51
428.558	2.57
428.765	2.63
428.972	2.69
429.179	2.78
429.386	2.84
429.593	2.8
429.8	2.79
430.007	2.76
430.214	2.91
430.421	3.04
430.628	2.96
430.835	3.08
431.042	3.1
431.249	3.08
431.456	2.86
431.662	3.11
431.869	3.17
432.076	3.21
432.283	3.21
432.49	3.27
432.697	3.16
432.903	2.96
433.11	2.97
433.317	2.86
433.524	2.99
433.73	2.92
433.937	2.96
434.144	2.91
434.35	2.98
434.557	2.96
434.764	2.99
434.97	3.06
435.177	3.31
435.384	3.3
435.59	3.33
435.797	3.42
436.003	3.43
436.21	3.2
436.416	3.17
436.623	3.17
436.829	3.2
437.036	3.28
437.242	3.49
437.449	3.59
437.655	3.67
437.862	3.85
438.068	3.68
438.275	3.71
438.481	3.75
438.687	3.75
438.894	3.73
439.1	3.92
439.307	3.94
439.513	3.96
439.719	3.83
439.926	3.64
440.132	3.66
440.338	3.71
440.544	3.64
440.751	3.78
440.957	3.94
441.163	3.97
441.369	3.88
441.575	3.99
441.782	3.98
441.988	3.98
442.194	3.89
442.4	3.84
442.606	3.97
442.812	4.06
443.018	4.06
443.224	4.21
443.431	4.25
443.637	4.21
443.843	4.23
444.049	4.29
444.255	4.26
444.461	4.35
444.667	4.27
444.873	4.16
445.079	4.11
445.284	4.15
445.49	4.04
445.696	4.08
445.902	4.27
446.108	4.24
446.314	4.23
446.52	4.32
446.726	4.33
446.931	4.21
447.137	4.3
447.343	4.24
447.549	4.32
447.755	4.33
447.96	4.43
448.166	4.4
448.372	4.45
448.578	4.47
448.783	4.6
448.989	4.59
449.195	4.56
449.4	4.64
449.606	4.56
449.812	4.35
450.017	4.31
450.223	4.42
450.428	4.39
450.634	4.46
450.84	4.71
451.045	4.79
451.251	4.83
451.456	4.9
451.662	4.88
451.867	4.72
452.073	4.74
452.278	4.76
452.483	4.66
452.689	4.73
452.894	4.77
453.1	4.76
453.305	4.76
453.51	4.83
453.716	4.79
453.921	4.77
454.127	4.79
454.332	4.71
454.537	4.8
454.742	4.86
454.948	4.8
455.153	4.8
455.358	4.92
455.563	4.86
455.769	4.71
455.974	4.8
456.179	4.74
456.384	4.64
456.589	4.7
456.795	4.81
457	4.92
457.205	5.09
457.41	5.16
457.615	5.13
457.82	5.2
458.025	5.17
458.23	5.11
458.435	5.08
458.64	5.03
458.845	5.05
459.05	5.09
459.255	5.16
459.46	5.32
459.665	5.47
459.87	5.48
460.075	5.47
460.28	5.4
460.485	5.31
460.69	5.21
460.895	5.17
461.099	5.16
461.304	5.16
461.509	5.15
461.714	5.25
461.919	5.24
462.123	5.33
462.328	5.39
462.533	5.52
462.738	5.48
462.942	5.55
463.147	5.52
463.352	5.6
463.556	5.6
463.761	5.51
463.966	5.52
464.17	5.63
464.375	5.58
464.58	5.56
