Data from Ofav_PS_Phys_356_Reflection_3.txt Node
Date: Thu Jul 29 18:18:18 EDT 2021
User: USUARIO
Spectrometer: FLMT01687
Trigger mode: 0
Integration Time (sec): 9.010000E-1
Scans to average: 2
Electric dark correction enabled: true
Nonlinearity correction enabled: false
Boxcar width: 2
XAxis mode: Wavelengths
Number of Pixels in Spectrum: 3648
>>>>>Begin Spectral Data<<<<<
179.494	-1.59
179.716	5.86
179.937	13.78
180.158	88.7
180.38	55.25
180.601	-368.24
180.823	-188.13
181.044	-82.4
181.265	-101.16
181.486	-880.79
181.708	81.07
181.929	339.89
182.15	11033.33
182.372	-128.08
182.593	-30.17
182.814	23.87
183.035	65.64
183.257	23.84
183.478	62.19
183.699	51.65
183.92	38.49
184.141	51.76
184.363	35.14
184.584	31.39
184.805	33.36
185.026	66.26
185.247	35.89
185.468	38.93
185.689	18.73
185.91	52.9
186.132	32.09
186.353	71.2
186.574	81.34
186.795	77.72
187.016	57.91
187.237	35.03
187.458	21.14
187.679	7.57
187.9	11.86
188.121	4.97
188.342	14.24
188.563	28.55
188.784	22.77
189.005	21.69
189.226	36.25
189.447	37.71
189.667	13.08
189.888	14.2
190.109	13.26
190.33	-65.55
190.551	-16.58
190.772	20.27
190.993	28.91
191.214	22.5
191.434	29.58
191.655	37.02
191.876	39.86
192.097	-11.88
192.318	12
192.538	16.17
192.759	-3.81
192.98	18.53
193.201	41.1
193.421	29.08
193.642	29.28
193.863	20.72
194.083	-35.92
194.304	-14.17
194.525	-4.14
194.745	-26.61
194.966	-18.15
195.187	-15.73
195.407	-53.73
195.628	-115.81
195.848	-62
196.069	-25.4
196.29	19.43
196.51	36.36
196.731	57.66
196.951	54.44
197.172	17.89
197.392	9.05
197.613	19.35
197.833	-2.04
198.054	-5.45
198.274	-0.86
198.495	19.83
198.715	-18.72
198.936	6.95
199.156	33.59
199.377	32.65
199.597	-0.74
199.817	52.83
200.038	39.22
200.258	15.43
200.479	-0.38
200.699	-21.33
200.919	-10.25
201.14	-6.2
201.36	11.86
201.58	31.32
201.801	40.81
202.021	62.13
202.241	56.31
202.461	69.39
202.682	68.36
202.902	64.74
203.122	31.17
203.342	52.06
203.563	52.73
203.783	46.55
204.003	32.29
204.223	39.22
204.443	52.93
204.663	73.27
204.884	84.57
205.104	114.59
205.324	94.22
205.544	91.61
205.764	66.35
205.984	71.81
206.204	78.03
206.424	69.47
206.644	49.24
206.864	67.16
207.084	45.16
207.304	55.82
207.525	41.71
207.745	47.54
207.964	36.88
208.184	41.16
208.404	25.24
208.624	49
208.844	62.96
209.064	63.92
209.284	81.48
209.504	63.09
209.724	78.52
209.944	67.78
210.164	69.89
210.384	50.48
210.604	41.19
210.823	19.64
211.043	34.19
211.263	40.24
211.483	36.53
211.703	38.07
211.922	22.43
212.142	23.92
212.362	23.52
212.582	25.99
212.801	31.03
213.021	50.04
213.241	48.45
213.461	29.41
213.68	4.71
213.9	22.17
214.12	6.74
214.339	-28.19
214.559	-34.25
214.779	8.95
214.998	-32.6
215.218	-24.99
215.438	-28.66
215.657	-22.56
215.877	-20.72
216.096	-14.24
216.316	-41.53
216.535	-17.76
216.755	2.06
216.974	12.64
217.194	5.21
217.413	40.57
217.633	45.35
217.852	22.92
218.072	17.92
218.291	22.75
218.511	42.15
218.73	27.97
218.95	39.71
219.169	48.8
219.389	41.74
219.608	12.5
219.827	10.67
220.047	17.52
220.266	12.8
220.485	25.45
220.705	27.76
220.924	35.9
221.143	20.19
221.363	4.79
221.582	-14.88
221.801	-45.63
222.021	-84.53
222.24	-22.73
222.459	-6.91
222.678	16.66
222.897	26.33
223.117	41.26
223.336	27.21
223.555	50.93
223.774	64.37
223.993	45
224.213	42.74
224.432	50.25
224.651	37.64
224.87	15.25
225.089	25.92
225.308	29.14
225.527	33.44
225.746	24.05
225.965	61.88
226.184	23.57
226.404	3.1
226.623	11.82
226.842	4
227.061	1.06
227.28	8.7
227.499	9.91
227.718	-10.77
227.936	22.51
228.155	-8.07
228.374	-3.52
228.593	2.34
228.812	-8.88
229.031	-37.69
229.25	-13.76
229.469	-15.22
229.688	-17.33
229.907	8.21
230.125	14.22
230.344	13.2
230.563	17.44
230.782	44.01
231.001	18.83
231.22	30.5
231.438	32.77
231.657	24.94
231.876	32.76
232.095	28.22
232.313	12.59
232.532	-4.46
232.751	-10.14
232.969	-18.17
233.188	-5.96
233.407	8.39
233.625	12.02
233.844	41.31
234.063	30.41
234.281	3.01
234.5	15.14
234.719	25.86
234.937	-6.67
235.156	-11.37
235.374	34.24
235.593	18.92
235.811	24.28
236.03	24.77
236.249	25.2
236.467	17.32
236.686	2.81
236.904	7.19
237.123	11.76
237.341	-6.21
237.559	3.6
237.778	31.27
237.996	34.62
238.215	33.12
238.433	43.3
238.652	47.19
238.87	44.02
239.088	34.73
239.307	24.24
239.525	30.91
239.743	13.49
239.962	11.58
240.18	8.5
240.398	13.52
240.617	-11.73
240.835	-7.5
241.053	9.83
241.271	33.84
241.49	42.93
241.708	46.83
241.926	42.06
242.144	19.66
242.363	12.15
242.581	-7.18
242.799	-7.95
243.017	12.98
243.235	13.29
243.453	1.25
243.672	14.25
243.89	-0.77
244.108	-1.77
244.326	2.21
244.544	-10.81
244.762	-19.75
244.98	1.54
245.198	-5.46
245.416	-9.78
245.634	12.29
245.852	5.48
246.07	24.03
246.288	22.8
246.506	43.92
246.724	34.62
246.942	35.59
247.16	44.89
247.378	38.52
247.596	22.09
247.814	23.78
248.032	24.2
248.25	11.24
248.468	21.57
248.685	22.4
248.903	33.06
249.121	34.5
249.339	20.03
249.557	12.65
249.775	11.48
249.992	-15.68
250.21	-15.42
250.428	16.86
250.646	24.98
250.863	47.09
251.081	56.73
251.299	77.59
251.517	57.99
251.734	51.86
251.952	22.13
252.17	17.24
252.387	7.42
252.605	21.18
252.823	23.31
253.04	37.53
253.258	43.55
253.475	44.15
253.693	46.53
253.911	48.37
254.128	63.26
254.346	60.94
254.563	59.44
254.781	48.78
254.998	47.97
255.216	10.56
255.433	23.98
255.651	17.78
255.868	16.92
256.086	27.68
256.303	39.42
256.521	49.23
256.738	55.35
256.956	67.04
257.173	66.54
257.39	72.18
257.608	49.7
257.825	39.14
258.043	15.63
258.26	-3.94
258.477	-12.63
258.695	-25.17
258.912	-14.68
259.129	-14.78
259.346	-2.24
259.564	15.81
259.781	32.11
259.998	21.05
260.216	49.85
260.433	53.39
260.65	42.13
260.867	53.37
261.084	71.72
261.302	42.04
261.519	25.15
261.736	37.44
261.953	14.78
262.17	11.27
262.387	20.09
262.604	5.47
262.822	0.58
263.039	13.04
263.256	-18.38
263.473	-8.31
263.69	4.33
263.907	8.73
264.124	20.68
264.341	66.92
264.558	68.12
264.775	82.82
264.992	69.63
265.209	43.93
265.426	17.17
265.643	15.01
265.86	14.93
266.077	25.49
266.294	37.73
266.51	36
266.727	43.88
266.944	26.04
267.161	11.8
267.378	13.27
267.595	17.25
267.812	-4.75
268.028	4.11
268.245	7.52
268.462	-2.51
268.679	25.32
268.896	11.11
269.112	14.05
269.329	23.03
269.546	32.62
269.763	30.19
269.979	62.7
270.196	70.62
270.413	60.08
270.629	67.11
270.846	46.2
271.063	31.6
271.279	38.85
271.496	34.44
271.712	20.64
271.929	27.1
272.146	40.24
272.362	33.44
272.579	69.41
272.795	72.8
273.012	59.97
273.228	36.49
273.445	28.14
273.661	-1.34
273.878	-17.08
274.094	-10.9
274.311	16.69
274.527	11.5
274.744	27.46
274.96	44.42
275.177	46.2
275.393	41.09
275.609	49.27
275.826	44.03
276.042	25.45
276.259	19.2
276.475	12.14
276.691	15.78
276.908	15.96
277.124	17.41
277.34	7.47
277.557	8.54
277.773	-5.64
277.989	-18.39
278.205	-6.78
278.422	2.74
278.638	-4.29
278.854	9.05
279.07	43.62
279.286	13.54
279.503	25.53
279.719	29.98
279.935	26.37
280.151	-6.3
280.367	11.56
280.583	28.15
280.799	37.95
281.016	44.61
281.232	52.69
281.448	39.96
281.664	42.56
281.88	18.32
282.096	8.02
282.312	-5.93
282.528	11.33
282.744	-23.91
282.96	4.44
283.176	-0.71
283.392	29.27
283.608	25.94
283.824	23.86
284.04	11.65
284.256	29.74
284.471	-2.76
284.687	-1.88
284.903	1.33
285.119	17.18
285.335	-2.22
285.551	10.93
285.767	6.94
285.982	12.63
286.198	21.32
286.414	40.11
286.63	36.32
286.846	40
287.061	43.15
287.277	38.72
287.493	29.28
287.709	35.98
287.924	38.32
288.14	36.97
288.356	36.69
288.571	45.12
288.787	45.46
289.003	47.9
289.218	43.5
289.434	41.48
289.65	39.96
289.865	38.41
290.081	17.23
290.296	29.32
290.512	30.03
290.727	29.09
290.943	24.9
291.159	37.87
291.374	43.2
291.59	26.81
291.805	5.52
292.021	3.72
292.236	12.27
292.451	-39.53
292.667	-11.67
292.882	-10.01
293.098	8.94
293.313	6.34
293.529	31.26
293.744	22.91
293.959	37.86
294.175	36.17
294.39	25.49
294.605	25.09
294.821	23.98
295.036	20.73
295.251	21.82
295.467	26.46
295.682	26.88
295.897	25.9
296.112	30.18
296.328	20.02
296.543	12.21
296.758	12.56
296.973	12.15
297.188	9.08
297.404	3.62
297.619	13.35
297.834	-5.54
298.049	-2.4
298.264	5.79
298.479	23.37
298.694	24.05
298.909	28.31
299.125	17.59
299.34	21.64
299.555	1.23
299.77	-25.13
299.985	-47.08
300.2	-18.83
300.415	-15.25
300.63	9.66
300.845	7.65
301.06	10.56
301.275	32.44
301.49	22.43
301.704	10.96
301.919	11.22
302.134	34.11
302.349	18.36
302.564	25.28
302.779	15.55
302.994	24.51
303.209	33.79
303.423	30.1
303.638	16.19
303.853	8.8
304.068	13.56
304.283	-2.02
304.497	1.09
304.712	-21.96
304.927	-14.07
305.142	-19.76
305.356	-23.4
305.571	4.95
305.786	24.02
306	5.21
306.215	3.77
306.43	1.18
306.644	-44.94
306.859	-78.06
307.074	-48.8
307.288	-24.99
307.503	8.35
307.717	29.29
307.932	21.7
308.147	26.39
308.361	26.99
308.576	9.27
308.79	-25.76
309.005	29.5
309.219	36.85
309.434	45.53
309.648	46.35
309.863	69.26
310.077	42.57
310.292	27.92
310.506	15.37
310.72	21.99
310.935	18.27
311.149	25.93
311.364	34.02
311.578	34.99
311.792	25.65
312.007	26.02
312.221	20.32
312.435	24.03
312.649	15.03
312.864	-10.35
313.078	32.09
313.292	20.55
313.507	19.01
313.721	7.3
313.935	8.36
314.149	-3.3
314.363	-1
314.578	1.74
314.792	25.53
315.006	39.52
315.22	40.99
315.434	36.22
315.648	33.27
315.862	19.21
316.077	10.15
316.291	9.78
316.505	15.82
316.719	24.82
316.933	24.59
317.147	39.14
317.361	26.19
317.575	23.02
317.789	12.83
318.003	18.29
318.217	20.36
318.431	22.12
318.645	21.11
318.859	19.38
319.073	5.46
319.287	-9.05
319.5	-16.18
319.714	-8.57
319.928	0.94
320.142	31.38
320.356	35.7
320.57	52.03
320.784	64.73
320.997	56.15
321.211	51.1
321.425	49.47
321.639	44.47
321.853	35.07
322.066	34.37
322.28	32.76
322.494	32.02
322.707	42.02
322.921	38.05
323.135	20.02
323.349	11.82
323.562	2.4
323.776	-14.77
323.989	1.57
324.203	23.66
324.417	29.84
324.63	27.93
324.844	30.81
325.057	10.2
325.271	1.89
325.485	2.05
325.698	29.47
325.912	29.91
326.125	37.57
326.339	40.38
326.552	37.73
326.766	18.73
326.979	13.22
327.193	8.34
327.406	-0.59
327.619	-8.95
327.833	6.72
328.046	12.44
328.26	41.19
328.473	54.34
328.686	64.95
328.9	51.67
329.113	41.04
329.326	14.88
329.54	5.99
329.753	10.96
329.966	26.41
330.179	42.37
330.393	23.58
330.606	18.76
330.819	25.22
331.032	12.27
331.246	-8.21
331.459	-12.28
331.672	3.48
331.885	2.35
332.098	21.19
332.311	44.48
332.525	52.29
332.738	49.7
332.951	37
333.164	26.25
333.377	15.24
333.59	5.45
333.803	18.11
334.016	21.2
334.229	26.85
334.442	30.89
334.655	41.69
334.868	35.93
335.081	55.13
335.294	50.34
335.507	52.14
335.72	45.43
335.933	30.58
336.146	9.46
336.359	14.58
336.572	-2.54
336.785	-3.59
336.997	14.41
337.21	28.57
337.423	25.47
337.636	26.71
337.849	18.49
338.062	-2.45
338.274	-27.84
338.487	-21.04
338.7	-32.5
338.913	-11.19
339.125	25.36
339.338	31.38
339.551	30.55
339.763	42.83
339.976	33.57
340.189	20.58
340.402	32.07
340.614	13.52
340.827	23.69
341.039	35.16
341.252	36.2
341.465	18.04
341.677	16.55
341.89	-7.74
342.102	-3.61
342.315	-4.39
342.527	-11.92
342.74	3.62
342.952	11.39
343.165	6.05
343.377	9.29
343.59	30.65
343.802	23.69
344.015	30.04
344.227	22.08
344.44	24.98
344.652	17.33
344.864	16.75
345.077	13.5
345.289	17.8
345.502	21.26
345.714	2.19
345.926	0.19
346.139	-11.94
346.351	4.59
346.563	7.86
346.775	11.15
346.988	2.42
347.2	2.46
347.412	-15.41
347.624	-4.23
347.837	-6.65
348.049	-9.57
348.261	-0.66
348.473	8.41
348.685	-7.46
348.897	8.59
349.11	16.44
349.322	12.85
349.534	26.37
349.746	39.22
349.958	26.03
350.17	20.75
350.382	32.07
350.594	12.25
350.806	10.08
351.018	23.13
351.23	30.5
351.442	19.27
351.654	32.42
351.866	10.96
352.078	15.95
352.29	5.13
352.502	17.96
352.714	16.94
352.926	33.84
353.138	28.83
353.35	27.94
353.561	21.49
353.773	21.05
353.985	24.94
354.197	26.34
354.409	35.73
354.621	14.98
354.832	5.48
355.044	-4.71
355.256	8.2
355.468	-12.97
355.679	6.89
355.891	24.73
356.103	40.35
356.314	36.72
356.526	51.13
356.738	51.72
356.949	43.28
357.161	33.58
357.373	34.34
357.584	24.91
357.796	21.84
358.008	22.44
358.219	14.5
358.431	-5.94
358.642	-5.57
358.854	-21.36
359.065	-1.27
359.277	-9.68
359.488	13.12
359.7	17.5
359.911	42.22
360.123	44.22
360.334	48.34
360.546	25.97
360.757	16.38
360.969	8.62
361.18	20.26
361.391	30.09
361.603	20.98
361.814	42.46
362.025	31.53
362.237	13.85
362.448	8.76
362.659	10.9
362.871	8.55
363.082	6.26
363.293	-5.84
363.504	-2.74
363.716	10.63
363.927	-0.78
364.138	-8.03
364.349	6.2
364.56	4.98
364.772	5.9
364.983	6.97
365.194	9.89
365.405	19.34
365.616	15.73
365.827	21.19
366.038	6.57
366.25	1.04
366.461	-5.91
366.672	-2.12
366.883	-13.03
367.094	1.86
367.305	9.18
367.516	3.05
367.727	7.78
367.938	13.39
368.149	18.3
368.36	25.7
368.571	29.52
368.781	10.73
368.992	3.13
369.203	7.93
369.414	15.29
369.625	27.23
369.836	34.75
370.047	31.06
370.258	32.31
370.468	22.73
370.679	2.55
370.89	-14.94
371.101	12.06
371.312	-0.88
371.522	2.44
371.733	18.82
371.944	16.94
372.155	4.57
372.365	14.94
372.576	17.25
372.787	18.13
372.997	26.99
373.208	8.59
373.419	7.8
373.629	9.12
373.84	9.35
374.05	10.65
374.261	15.75
374.472	4.88
374.682	-20.05
374.893	-10.21
375.103	-5.42
375.314	-2.99
375.524	8.01
375.735	22.3
375.945	23.14
376.156	27.09
376.366	21.12
376.577	27.68
376.787	30.58
376.997	22.04
377.208	9.67
377.418	12.75
377.629	5.24
377.839	18
378.049	21.47
378.26	19.87
378.47	18.64
378.68	21.12
378.89	9.19
379.101	11.34
379.311	7.91
379.521	5.85
379.732	11.38
379.942	10.8
380.152	8.49
380.362	9.2
380.572	9.7
380.783	2.77
380.993	4.17
381.203	3.13
381.413	1.1
381.623	9.33
381.833	17.26
382.043	7.51
382.253	13.53
382.463	19.8
382.674	17.8
382.884	15.84
383.094	14.16
383.304	11.08
383.514	8.52
383.724	12.43
383.934	9.53
384.144	13.17
384.353	18.23
384.563	20.92
384.773	17.74
384.983	13.4
385.193	21.52
385.403	11.77
385.613	9.37
385.823	8.35
386.033	9.98
386.242	6.77
386.452	6.88
386.662	9.4
386.872	12.15
387.082	13.2
387.291	7.42
387.501	5.16
387.711	5.39
387.921	-0.17
388.13	-3.33
388.34	1.47
388.55	5.63
388.759	3.25
388.969	5.25
389.179	4.14
389.388	2.54
389.598	2.46
389.807	3.46
390.017	4.71
390.227	9.4
390.436	10.79
390.646	8.72
390.855	8.12
391.065	6.46
391.274	5.38
391.484	3.47
391.693	2.31
391.903	3.67
392.112	5.45
392.322	5.48
392.531	4.35
392.74	2.53
392.95	1.68
393.159	1.63
393.369	2.37
393.578	2.93
393.787	6.64
393.997	6.21
394.206	5.59
394.415	5.37
394.625	6.41
394.834	4.3
395.043	3.64
395.252	4.61
395.462	3.89
395.671	3.06
395.88	4.5
396.089	5.07
396.298	4.46
396.508	4.78
396.717	4.76
396.926	5
397.135	4.48
397.344	4.3
397.553	4.51
397.762	4.75
397.971	4.68
398.181	5.51
398.39	5.18
398.599	4.91
398.808	5.23
399.017	5.78
399.226	5.66
399.435	6.35
399.644	6.79
399.853	6.68
400.062	6.53
400.27	6.88
400.479	6.62
400.688	6.1
400.897	6.18
401.106	5.96
401.315	5.52
401.524	5.93
401.733	6.18
401.941	6.32
402.15	6.3
402.359	6.29
402.568	6.16
402.777	5.89
402.985	5.66
403.194	5.62
403.403	5.66
403.612	5.45
403.82	5.67
404.029	5.55
404.238	5.36
404.446	5.47
404.655	5.43
404.864	5.42
405.072	5.38
405.281	5.46
405.489	5.33
405.698	5.43
405.906	5.4
406.115	5.55
406.324	5.45
406.532	5.48
406.741	5.47
406.949	5.48
407.158	5.46
407.366	5.52
407.574	5.44
407.783	5.36
407.991	5.15
408.2	5.04
408.408	5.03
408.617	5.05
408.825	4.98
409.033	5.1
409.242	5.29
409.45	5.32
409.658	5.35
409.867	5.36
410.075	5.39
410.283	5.27
410.491	5.18
410.7	5.15
410.908	5.25
411.116	5.19
411.324	5.13
411.533	5.16
411.741	5.25
411.949	5.28
412.157	5.24
412.365	5.2
412.573	5.13
412.781	4.95
412.99	4.82
413.198	4.88
413.406	4.85
413.614	4.94
413.822	5.07
414.03	5.17
414.238	5.13
414.446	5.23
414.654	5.13
414.862	5.01
415.07	4.74
415.278	4.77
415.486	4.68
415.694	4.81
415.902	4.82
416.109	5.05
416.317	4.99
416.525	4.99
416.733	4.89
416.941	5
417.149	4.92
417.357	4.88
417.564	4.9
417.772	4.81
417.98	4.67
418.188	4.63
418.395	4.56
418.603	4.45
418.811	4.57
419.019	4.62
419.226	4.75
419.434	4.77
419.642	4.9
419.849	4.82
420.057	4.65
420.265	4.46
420.472	4.42
420.68	4.44
420.887	4.58
421.095	4.73
421.302	4.73
421.51	4.86
421.717	4.83
421.925	4.79
422.132	4.77
422.34	4.73
422.547	4.58
422.755	4.6
422.962	4.58
423.17	4.37
423.377	4.47
423.585	4.67
423.792	4.59
423.999	4.42
424.207	4.44
424.414	4.35
424.621	4.21
424.829	4.37
425.036	4.43
425.243	4.6
425.451	4.61
425.658	4.63
425.865	4.47
426.072	4.35
426.28	4.57
426.487	4.66
426.694	4.53
426.901	4.49
427.108	4.53
427.315	4.38
427.523	4.3
427.73	4.38
427.937	4.44
428.144	4.42
428.351	4.25
428.558	4.38
428.765	4.48
428.972	4.55
429.179	4.59
429.386	4.66
429.593	4.56
429.8	4.46
430.007	4.46
430.214	4.67
430.421	4.67
430.628	4.63
430.835	4.69
431.042	4.55
431.249	4.49
431.456	4.46
431.662	4.56
431.869	4.71
432.076	4.77
432.283	4.64
432.49	4.54
432.697	4.53
432.903	4.29
433.11	4.22
433.317	4.21
433.524	4.27
433.73	4.14
433.937	4.23
434.144	4.24
434.35	4.33
434.557	4.31
434.764	4.36
434.97	4.28
435.177	4.45
435.384	4.37
435.59	4.45
435.797	4.54
436.003	4.6
436.21	4.53
436.416	4.47
436.623	4.5
436.829	4.45
437.036	4.41
437.242	4.43
437.449	4.55
437.655	4.69
437.862	4.75
438.068	4.7
438.275	4.69
438.481	4.64
438.687	4.46
438.894	4.36
439.1	4.45
439.307	4.5
439.513	4.5
439.719	4.43
439.926	4.33
440.132	4.38
440.338	4.36
440.544	4.28
440.751	4.32
440.957	4.53
441.163	4.47
441.369	4.46
441.575	4.57
441.782	4.59
441.988	4.49
442.194	4.49
442.4	4.43
442.606	4.51
442.812	4.55
443.018	4.52
443.224	4.61
443.431	4.55
443.637	4.63
443.843	4.58
444.049	4.62
444.255	4.51
444.461	4.51
444.667	4.43
444.873	4.45
445.079	4.43
445.284	4.4
445.49	4.47
445.696	4.46
445.902	4.46
446.108	4.34
446.314	4.41
446.52	4.46
446.726	4.36
446.931	4.35
447.137	4.45
447.343	4.43
447.549	4.37
447.755	4.36
447.96	4.46
448.166	4.51
448.372	4.52
448.578	4.57
448.783	4.66
448.989	4.73
449.195	4.64
449.4	4.69
449.606	4.7
449.812	4.67
450.017	4.56
450.223	4.57
450.428	4.53
450.634	4.51
450.84	4.56
451.045	4.48
451.251	4.54
451.456	4.52
451.662	4.47
451.867	4.48
452.073	4.6
452.278	4.65
452.483	4.66
452.689	4.62
452.894	4.52
453.1	4.49
453.305	4.47
453.51	4.54
453.716	4.62
453.921	4.66
454.127	4.65
454.332	4.52
454.537	4.46
454.742	4.35
454.948	4.29
455.153	4.36
455.358	4.44
455.563	4.48
455.769	4.54
455.974	4.58
456.179	4.44
456.384	4.39
456.589	4.27
456.795	4.31
457	4.27
457.205	4.37
457.41	4.37
457.615	4.34
457.82	4.4
458.025	4.39
458.23	4.32
458.435	4.33
458.64	4.34
458.845	4.29
459.05	4.32
459.255	4.37
459.46	4.42
459.665	4.48
459.87	4.41
460.075	4.46
460.28	4.36
460.485	4.37
460.69	4.4
460.895	4.41
461.099	4.36
461.304	4.4
461.509	4.39
461.714	4.26
461.919	4.23
462.123	4.2
462.328	4.2
462.533	4.23
462.738	4.28
462.942	4.31
463.147	4.42
463.352	4.45
463.556	4.43
463.761	4.43
463.966	4.48
464.17	4.5
464.375	4.43
464.58	4.3
464.784	4.33
464.989	4.22
465.193	4.15
465.398	4.22
465.602	4.4
465.807	4.48
466.011	4.58
466.216	4.5
466.42	4.5
466.625	4.47
466.829	4.54
467.034	4.61
467.238	4.72
467.443	4.69
467.647	4.53
467.851	4.36
468.056	4.29
468.26	4.32
468.464	4.44
468.669	4.52
468.873	4.57
