Data from Ofav_PS_Phys_CX_Reflection_1.txt Node
Date: Thu Jul 29 18:20:44 EDT 2021
User: USUARIO
Spectrometer: FLMT01687
Trigger mode: 0
Integration Time (sec): 9.010000E-1
Scans to average: 2
Electric dark correction enabled: true
Nonlinearity correction enabled: false
Boxcar width: 2
XAxis mode: Wavelengths
Number of Pixels in Spectrum: 3648
>>>>>Begin Spectral Data<<<<<
179.494	287.94
179.716	303.15
179.937	180.99
180.158	-711.3
180.38	-75.33
180.601	-730.45
180.823	-168.32
181.044	-146.37
181.265	-101.16
181.486	-243.5
181.708	160.18
181.929	257.88
182.15	11147.62
182.372	-127.14
182.593	-40.77
182.814	-50.27
183.035	-585.91
183.257	103.84
183.478	65.42
183.699	68.08
183.92	54.05
184.141	56.15
184.363	69
184.584	71.56
184.805	39.43
185.026	39.29
185.247	38.48
185.468	23.64
185.689	0.76
185.91	72.72
186.132	93.32
186.353	69.96
186.574	81.54
186.795	83.96
187.016	74.27
187.237	58.58
187.458	60.75
187.679	66.37
187.9	65.28
188.121	64.89
188.342	70.14
188.563	61.51
188.784	45.34
189.005	41.33
189.226	47.79
189.447	46.46
189.667	47.62
189.888	65.04
190.109	85.26
190.33	131.98
190.551	120.16
190.772	110.43
190.993	57.02
191.214	55.36
191.434	33.74
191.655	31.14
191.876	15.02
192.097	38.17
192.318	30.72
192.538	54.29
192.759	57.58
192.98	67.62
193.201	66.21
193.421	55.79
193.642	55.8
193.863	24.69
194.083	7.08
194.304	13.55
194.525	36.41
194.745	26.93
194.966	34.24
195.187	28.62
195.407	11.6
195.628	-22.17
195.848	-6.67
196.069	42.42
196.29	59.77
196.51	60.49
196.731	67.57
196.951	54.95
197.172	52.26
197.392	53.32
197.613	64.91
197.833	40.17
198.054	71.11
198.274	58.94
198.495	35.01
198.715	21.81
198.936	53.52
199.156	70.51
199.377	86.49
199.597	139.55
199.817	119.75
200.038	101.48
200.258	81.64
200.479	68.02
200.699	37.73
200.919	41.7
201.14	33.98
201.36	40.44
201.58	49.14
201.801	52.7
202.021	70.05
202.241	78.62
202.461	94.06
202.682	108.99
202.902	110.93
203.122	96.23
203.342	129.61
203.563	111.44
203.783	76.69
204.003	61.56
204.223	44.05
204.443	42.42
204.663	79
204.884	93.13
205.104	89.17
205.324	70.78
205.544	67.76
205.764	38.62
205.984	59.92
206.204	82.57
206.424	95.95
206.644	93.84
206.864	98.24
207.084	60.6
207.304	55.02
207.525	43.94
207.745	53.7
207.964	72.38
208.184	67.72
208.404	52.34
208.624	67.53
208.844	77.7
209.064	72.08
209.284	108.18
209.504	85.1
209.724	89.19
209.944	77.54
210.164	62.15
210.384	35.02
210.604	33.6
210.823	6.06
211.043	1.14
211.263	31.47
211.483	18.75
211.703	20.53
211.922	36.92
212.142	44.16
212.362	23.04
212.582	48.77
212.801	61.54
213.021	48.89
213.241	48.65
213.461	46.92
213.68	1.06
213.9	7.06
214.12	26.17
214.339	19.81
214.559	0.03
214.779	46.24
214.998	22.4
215.218	9.27
215.438	18.73
215.657	42.61
215.877	32.09
216.096	34.43
216.316	29.87
216.535	15.61
216.755	-4.51
216.974	1.85
217.194	1.33
217.413	19.66
217.633	38.91
217.852	39.35
218.072	33.11
218.291	52.65
218.511	71.19
218.73	58.86
218.95	60.36
219.169	67.98
219.389	59.44
219.608	32.68
219.827	27.32
220.047	23.2
220.266	10.58
220.485	12.26
220.705	17.19
220.924	9.73
221.143	9
221.363	5.21
221.582	1.62
221.801	-4.64
222.021	40.72
222.24	35.88
222.459	52.41
222.678	46.84
222.897	45.19
223.117	32.76
223.336	27.21
223.555	34.21
223.774	52.11
223.993	62.71
224.213	69.43
224.432	74.54
224.651	74.56
224.87	48.34
225.089	49.73
225.308	60.83
225.527	67.73
225.746	55.45
225.965	76.46
226.184	77.49
226.404	43.75
226.623	78.69
226.842	60.24
227.061	70.87
227.28	74.56
227.499	112.22
227.718	104.39
227.936	96.86
228.155	97.49
228.374	69.69
228.593	49.93
228.812	21.29
229.031	31.81
229.25	20.47
229.469	33.06
229.688	32.45
229.907	61.05
230.125	58
230.344	61.23
230.563	78.43
230.782	90.57
231.001	48.36
231.22	70.82
231.438	65.77
231.657	45.36
231.876	39.12
232.095	52.86
232.313	28.44
232.532	22.59
232.751	16.18
232.969	30.85
233.188	28.03
233.407	27.42
233.625	46.57
233.844	49.48
234.063	36.34
234.281	16.61
234.5	21.19
234.719	30.84
234.937	12.06
235.156	13.56
235.374	49.58
235.593	55.58
235.811	46.61
236.03	53.89
236.249	50.69
236.467	49.96
236.686	54.72
236.904	51.55
237.123	45.46
237.341	31.58
237.559	26.14
237.778	26.28
237.996	38.56
238.215	46.19
238.433	50.49
238.652	58.41
238.87	44.32
239.088	36.69
239.307	29.12
239.525	31.59
239.743	15.16
239.962	20.9
240.18	20.77
240.398	36.51
240.617	36.04
240.835	50.91
241.053	69.36
241.271	74.24
241.49	58.54
241.708	56.27
241.926	44.01
242.144	16.35
242.363	20.09
242.581	7.21
242.799	6.76
243.017	8.27
243.235	29.11
243.453	34.6
243.672	25.91
243.89	16.56
244.108	39.64
244.326	36.05
244.544	25.45
244.762	42.19
244.98	37.51
245.198	43.14
245.416	27.11
245.634	22.93
245.852	30.69
246.07	50.05
246.288	46.77
246.506	58.61
246.724	66.89
246.942	59.21
247.16	65.11
247.378	43.05
247.596	28.28
247.814	18.29
248.032	19.06
248.25	10.42
248.468	27.7
248.685	34.95
248.903	50.04
249.121	41.67
249.339	30.14
249.557	16.06
249.775	18.99
249.992	-24.4
250.21	2.9
250.428	24.68
250.646	11.45
250.863	25.28
251.081	49.37
251.299	55.77
251.517	51.8
251.734	77.87
251.952	62.85
252.17	58.65
252.387	61.05
252.605	65.44
252.823	45.79
253.04	47.09
253.258	57.41
253.475	47.46
253.693	43.89
253.911	45.04
254.128	58.36
254.346	47.71
254.563	48.82
254.781	27.96
254.998	42.71
255.216	9.22
255.433	21.89
255.651	3.1
255.868	4.02
256.086	13.92
256.303	28.1
256.521	26.15
256.738	25.6
256.956	33.75
257.173	25.02
257.39	45.89
257.608	47.2
257.825	69.02
258.043	57.33
258.26	56.12
258.477	27.57
258.695	6.8
258.912	-16.75
259.129	-8.67
259.346	-7
259.564	-8.94
259.781	4.73
259.998	26.37
260.216	32.74
260.433	34.62
260.65	31.8
260.867	41.73
261.084	43.04
261.302	37.82
261.519	34.01
261.736	23.9
261.953	17.43
262.17	25.2
262.387	22.81
262.604	23.79
262.822	40.52
263.039	41.53
263.256	46.1
263.473	66.01
263.69	58.78
263.907	55.2
264.124	66.65
264.341	68.14
264.558	50.27
264.775	45.73
264.992	61.97
265.209	41.8
265.426	38.84
265.643	50.71
265.86	42.71
266.077	41.62
266.294	47.62
266.51	35.47
266.727	32.54
266.944	47.41
267.161	45.89
267.378	45.17
267.595	57.73
267.812	58.28
268.028	38.75
268.245	34.08
268.462	29.69
268.679	12.96
268.896	11.5
269.112	18.27
269.329	19.67
269.546	28.63
269.763	33.81
269.979	30.46
270.196	43.22
270.413	40.77
270.629	44.94
270.846	44.44
271.063	42.52
271.279	46.57
271.496	37.87
271.712	33.48
271.929	40.95
272.146	65.65
272.362	46.51
272.579	48.35
272.795	64.98
273.012	55.25
273.228	36.14
273.445	65.29
273.661	68.98
273.878	50.89
274.094	68.88
274.311	84.45
274.527	50.41
274.744	56.13
274.96	63.94
275.177	42.86
275.393	39.53
275.609	29.4
275.826	8.68
276.042	3.25
276.259	-1.06
276.475	-4.63
276.691	36.97
276.908	56.07
277.124	51.24
277.34	54.84
277.557	44.99
277.773	10.55
277.989	-0.38
278.205	5.78
278.422	9.86
278.638	16.85
278.854	38.15
279.07	55.74
279.286	49.46
279.503	61
279.719	64
279.935	70.91
280.151	53.3
280.367	65.43
280.583	52.72
280.799	36.55
281.016	27.08
281.232	39.7
281.448	30.06
281.664	43.98
281.88	43.24
282.096	51.71
282.312	38.23
282.528	35.04
282.744	24.46
282.96	28.66
283.176	5.38
283.392	24.42
283.608	18.42
283.824	12.18
284.04	20.95
284.256	45.75
284.471	43.74
284.687	48.98
284.903	57.39
285.119	41.46
285.335	13.39
285.551	16.39
285.767	32.56
285.982	27.29
286.198	33.23
286.414	39.97
286.63	49.19
286.846	41.03
287.061	50.11
287.277	44.99
287.493	50.19
287.709	38.66
287.924	55.63
288.14	58.67
288.356	57.81
288.571	49.13
288.787	51.86
289.003	42.47
289.218	41.35
289.434	45.1
289.65	53.84
289.865	48.92
290.081	52.68
290.296	51.37
290.512	49.7
290.727	50.79
290.943	54.87
291.159	50.34
291.374	52.88
291.59	51.04
291.805	39.15
292.021	39.48
292.236	33.91
292.451	25.09
292.667	33.89
292.882	40.32
293.098	50.7
293.313	51.97
293.529	47.48
293.744	27.32
293.959	41.95
294.175	34.33
294.39	30.69
294.605	28.62
294.821	40.4
295.036	28.12
295.251	25.06
295.467	25.48
295.682	21.31
295.897	15.08
296.112	21.52
296.328	24.08
296.543	18.38
296.758	25.57
296.973	37.41
297.188	27.38
297.404	8.09
297.619	24.1
297.834	28.84
298.049	13.12
298.264	35.6
298.479	52.77
298.694	48.99
298.909	41.09
299.125	51.05
299.34	61.46
299.555	58.55
299.77	80.62
299.985	54.1
300.2	53.07
300.415	23.52
300.63	44.03
300.845	47.35
301.06	48.93
301.275	60.52
301.49	67.49
301.704	36.81
301.919	29.36
302.134	45.04
302.349	22.12
302.564	22.59
302.779	29.99
302.994	21.8
303.209	17.64
303.423	39.89
303.638	31.5
303.853	22.59
304.068	24.01
304.283	18.64
304.497	16.05
304.712	-1.39
304.927	-0.94
305.142	-7.89
305.356	-6.58
305.571	6.3
305.786	23.1
306	20.81
306.215	39.02
306.43	50.37
306.644	50.44
306.859	67.86
307.074	67.65
307.288	38.16
307.503	15.88
307.717	13.84
307.932	13.71
308.147	5.25
308.361	-4.01
308.576	-9.46
308.79	-7.71
309.005	23.19
309.219	19.92
309.434	36.36
309.648	44.55
309.863	41.28
310.077	24.26
310.292	32.52
310.506	26.76
310.72	26.16
310.935	4.11
311.149	18.87
311.364	11.94
311.578	-3.07
311.792	-7.87
312.007	8.55
312.221	-7.62
312.435	-14.34
312.649	-1.86
312.864	-25.96
313.078	-2.6
313.292	0.03
313.507	40.25
313.721	36.72
313.935	28.75
314.149	36.53
314.363	39.94
314.578	24.41
314.792	21.12
315.006	23.78
315.22	28.68
315.434	26.65
315.648	39.33
315.862	43.66
316.077	44.08
316.291	47.52
316.505	52.62
316.719	56.84
316.933	59.62
317.147	69.32
317.361	52.16
317.575	41.47
317.789	10.18
318.003	17.01
318.217	16.97
318.431	16.86
318.645	33.36
318.859	52.99
319.073	43.14
319.287	33
319.5	28.53
319.714	32.18
319.928	30.41
320.142	54.91
320.356	58.66
320.57	60.6
320.784	49.17
320.997	36.37
321.211	25.76
321.425	25.65
321.639	19.05
321.853	23.51
322.066	22.36
322.28	19.84
322.494	26.48
322.707	41.34
322.921	23.32
323.135	26.75
323.349	15.15
323.562	0.86
323.776	-8.75
323.989	5.3
324.203	18.81
324.417	30.01
324.63	25.21
324.844	27.44
325.057	20.11
325.271	7.95
325.485	14.74
325.698	23.21
325.912	19.71
326.125	16.53
326.339	20.75
326.552	20.88
326.766	20.88
326.979	27.92
327.193	42.28
327.406	40.98
327.619	30.92
327.833	37.37
328.046	41.6
328.26	45.25
328.473	40.72
328.686	58.41
328.9	57.92
329.113	11.78
329.326	-11.37
329.54	-23.3
329.753	-30
329.966	-21.55
330.179	-4.25
330.393	2.38
330.606	6.82
330.819	11.04
331.032	15.58
331.246	15.88
331.459	-3.06
331.672	7.86
331.885	16.55
332.098	5.65
332.311	28.28
332.525	44.23
332.738	34.99
332.951	18.58
333.164	15.66
333.377	17.23
333.59	13.28
333.803	26.26
334.016	33.53
334.229	38.03
334.442	28.14
334.655	28.89
334.868	27.57
335.081	35.38
335.294	37.44
335.507	38.94
335.72	50.48
335.933	40.69
336.146	40.59
336.359	55.59
336.572	32.08
336.785	3.8
336.997	16.39
337.21	14.21
337.423	10.56
337.636	41.82
337.849	55.31
338.062	51.95
338.274	50.24
338.487	44.83
338.7	18.67
338.913	13.19
339.125	25.81
339.338	33.65
339.551	24.6
339.763	19.12
339.976	17.49
340.189	28.18
340.402	20.23
340.614	27.99
340.827	48.99
341.039	49.37
341.252	31.62
341.465	44.72
341.677	42.03
341.89	32.16
342.102	35.62
342.315	31.8
342.527	17.49
342.74	13.6
342.952	19.2
343.165	18.74
343.377	15.43
343.59	20.44
343.802	23.31
344.015	28.94
344.227	20.36
344.44	19.6
344.652	25.91
344.864	22.08
345.077	34.41
345.289	27.1
345.502	33.14
345.714	21.53
345.926	21.71
346.139	-0.42
346.351	14.58
346.563	5.77
346.775	17.73
346.988	19.95
347.2	21.7
347.412	25.47
347.624	37.73
347.837	12.4
348.049	17.72
348.261	25.65
348.473	25.79
348.685	31.71
348.897	61.39
349.11	53.26
349.322	47.42
349.534	51.79
349.746	48.02
349.958	33.41
350.17	33.85
350.382	36.74
350.594	25.03
350.806	40.88
351.018	42.94
351.23	42.62
351.442	24.18
351.654	23.03
351.866	5.99
352.078	22.89
352.29	16.32
352.502	43.8
352.714	50.95
352.926	52.67
353.138	50.84
353.35	48.67
353.561	24.52
353.773	26.65
353.985	22.21
354.197	23.63
354.409	32.17
354.621	19.96
354.832	15.13
355.044	12.67
355.256	14.44
355.468	13.28
355.679	33.45
355.891	40.55
356.103	45.78
356.314	42.58
356.526	45.64
356.738	39.2
356.949	41.21
357.161	45.65
357.373	43.3
357.584	36.67
357.796	53.06
358.008	34.53
358.219	34.1
358.431	24.76
358.642	33.75
358.854	24.89
359.065	36.6
359.277	23.19
359.488	47.19
359.7	40.4
359.911	37.8
360.123	30.05
360.334	35.26
360.546	19.84
360.757	22.31
360.969	27.95
361.18	37.51
361.391	33.2
361.603	38.64
361.814	39.19
362.025	37.62
362.237	33.96
362.448	31.15
362.659	29.64
362.871	19.67
363.082	14.3
363.293	3.86
363.504	15.83
363.716	11.4
363.927	28.25
364.138	5.06
364.349	15.97
364.56	20.28
364.772	18.49
364.983	22.57
365.194	44.77
365.405	42.84
365.616	32.43
365.827	38.99
366.038	17.93
366.25	-0.13
366.461	8.74
366.672	13.06
366.883	19.59
367.094	24.77
367.305	37.08
367.516	31.41
367.727	29.72
367.938	28.12
368.149	34.05
368.36	35.21
368.571	43.73
368.781	39.48
368.992	24.82
369.203	24.86
369.414	25.64
369.625	25.65
369.836	27.59
370.047	20.71
370.258	21.33
370.468	9.34
370.679	-7.48
370.89	-30.19
371.101	-3.11
371.312	1.94
371.522	29.27
371.733	34.23
371.944	54.81
372.155	65.85
372.365	45.34
372.576	30.21
372.787	32.88
372.997	24.26
373.208	13.65
373.419	18.15
373.629	15.68
373.84	18.57
374.05	25.68
374.261	42.15
374.472	32.02
374.682	28.36
374.893	35.06
375.103	32.24
375.314	26.43
375.524	27.24
375.735	32.23
375.945	25.35
376.156	26.54
376.366	10.44
376.577	24.52
376.787	14.68
376.997	4.95
377.208	-0.41
377.418	-4.28
377.629	-12.79
377.839	5.8
378.049	12.12
378.26	9.65
378.47	22.72
378.68	23.58
378.89	15.93
379.101	28.27
379.311	35
379.521	28.21
379.732	29.45
379.942	29.42
380.152	20.66
380.362	14.89
380.572	19.62
380.783	10.83
380.993	12.97
381.203	14.81
381.413	8.86
381.623	15.54
381.833	35.26
382.043	35.38
382.253	33.78
382.463	31.47
382.674	27.31
382.884	22.08
383.094	15.94
383.304	10.29
383.514	11.61
383.724	21.76
383.934	15.55
384.144	21.63
384.353	28.98
384.563	33.47
384.773	23.25
384.983	25.5
385.193	21.7
385.403	13.08
385.613	14.62
385.823	16.98
386.033	17.45
386.242	17.36
386.452	19.38
386.662	15.05
386.872	12.48
387.082	8.15
387.291	4.86
387.501	6.62
387.711	6.99
387.921	7
388.13	4.42
388.34	5.89
388.55	3.74
388.759	0.35
388.969	-2.36
389.179	1.39
389.388	3.32
389.598	4.66
389.807	6.33
390.017	7.16
390.227	7.86
390.436	6.68
390.646	6.64
390.855	7.95
391.065	7.86
391.274	4.63
391.484	3.21
391.693	0.87
391.903	1.36
392.112	2.65
392.322	4.8
392.531	5.82
392.74	5.98
392.95	4.16
393.159	3.98
393.369	3.58
393.578	3.09
393.787	4.73
393.997	3.56
394.206	2.71
394.415	3.28
394.625	3.76
394.834	3.46
395.043	4.26
395.252	5.75
395.462	5.38
395.671	5.62
395.88	6.59
396.089	7.15
396.298	6.63
396.508	5.88
396.717	5
396.926	4.35
397.135	3.68
397.344	3.72
397.553	3.95
397.762	4.63
397.971	4.15
398.181	4.48
398.39	3.73
398.599	4.06
398.808	3.75
399.017	4.45
399.226	4.48
399.435	4.61
399.644	4.91
399.853	4.9
400.062	4.63
400.27	4.95
400.479	5.11
400.688	4.77
400.897	4.85
401.106	4.64
401.315	4.2
401.524	4.3
401.733	4.26
401.941	4.43
402.15	4.47
402.359	4.39
402.568	4.43
402.777	4.29
402.985	4.19
403.194	4
403.403	3.92
403.612	3.86
403.82	3.87
404.029	3.71
404.238	3.75
404.446	3.94
404.655	3.85
404.864	3.82
405.072	3.66
405.281	3.73
405.489	3.46
405.698	3.5
405.906	3.44
406.115	3.42
406.324	3.33
406.532	3.49
406.741	3.43
406.949	3.5
407.158	3.68
407.366	3.69
407.574	3.62
407.783	3.6
407.991	3.42
408.2	3.32
408.408	3.27
408.617	3.36
408.825	3.37
409.033	3.53
409.242	3.57
409.45	3.62
409.658	3.68
409.867	3.55
410.075	3.52
410.283	3.36
410.491	3.25
410.7	3.14
410.908	3.29
411.116	3.34
411.324	3.35
411.533	3.48
411.741	3.44
411.949	3.39
412.157	3.35
412.365	3.33
412.573	3.21
412.781	3.2
412.99	3.17
413.198	3.11
413.406	3.16
413.614	3.2
413.822	3.23
414.03	3.23
414.238	3.17
414.446	3.34
414.654	3.28
414.862	3.37
415.07	3.19
415.278	3.31
415.486	3.09
415.694	3.17
415.902	3.05
416.109	3.12
416.317	3.12
416.525	3.18
416.733	3.28
416.941	3.24
417.149	3.26
417.357	3.18
417.564	3.14
417.772	3
417.98	3.15
418.188	3.04
418.395	2.89
418.603	2.88
418.811	2.85
419.019	2.78
419.226	3.04
419.434	3.06
419.642	3.05
419.849	2.97
420.057	2.9
420.265	2.79
420.472	2.84
420.68	2.87
420.887	3
421.095	3.09
421.302	3.11
421.51	3.06
421.717	3.07
421.925	3.12
422.132	2.96
422.34	2.76
422.547	2.67
422.755	2.75
422.962	2.7
423.17	2.67
423.377	2.81
423.585	3.25
423.792	3.21
423.999	3.15
424.207	3.22
424.414	3.19
424.621	2.88
424.829	2.73
425.036	2.79
425.243	2.99
425.451	2.97
425.658	3.09
425.865	3.19
426.072	3.08
426.28	3.03
426.487	3.07
426.694	3.14
426.901	2.93
427.108	2.81
427.315	2.86
427.523	2.8
427.73	2.77
427.937	2.86
428.144	2.95
428.351	2.71
428.558	2.82
428.765	2.84
428.972	3.03
429.179	3
429.386	3.16
429.593	3.18
429.8	3.09
430.007	3.11
430.214	3.4
430.421	3.44
430.628	3.4
430.835	3.45
431.042	3.4
431.249	3.41
431.456	3.19
431.662	3.3
431.869	3.37
432.076	3.39
432.283	3.32
432.49	3.38
432.697	3.36
432.903	3.22
433.11	3.22
433.317	3.13
433.524	3.3
433.73	3.27
433.937	3.33
434.144	3.28
434.35	3.31
434.557	3.26
434.764	3.21
434.97	3.21
435.177	3.25
435.384	3.24
435.59	3.19
435.797	3.35
436.003	3.37
436.21	3.31
436.416	3.31
436.623	3.35
436.829	3.26
437.036	3.33
437.242	3.48
437.449	3.61
437.655	3.66
437.862	3.75
438.068	3.7
438.275	3.67
438.481	3.7
438.687	3.58
438.894	3.48
439.1	3.46
439.307	3.44
439.513	3.38
439.719	3.47
439.926	3.45
440.132	3.52
440.338	3.5
440.544	3.41
440.751	3.33
440.957	3.44
441.163	3.45
441.369	3.58
441.575	3.63
441.782	3.62
441.988	3.61
442.194	3.55
442.4	3.48
442.606	3.66
442.812	3.79
443.018	3.81
443.224	3.95
443.431	3.87
443.637	3.74
443.843	3.74
444.049	3.76
444.255	3.69
444.461	3.9
444.667	3.84
444.873	3.73
445.079	3.66
445.284	3.73
445.49	3.59
445.696	3.66
445.902	3.71
446.108	3.62
446.314	3.61
446.52	3.7
446.726	3.77
446.931	3.8
447.137	3.96
447.343	3.96
447.549	3.86
447.755	3.87
447.96	3.96
448.166	3.88
448.372	3.79
448.578	3.97
448.783	3.95
448.989	3.94
449.195	3.94
449.4	4.02
449.606	3.9
449.812	3.85
450.017	3.83
450.223	3.88
450.428	3.82
450.634	3.85
450.84	3.94
451.045	3.86
451.251	3.86
451.456	3.94
451.662	3.89
451.867	3.85
452.073	3.95
452.278	3.97
452.483	3.96
452.689	4
452.894	4.05
453.1	3.99
453.305	3.99
453.51	3.98
453.716	3.93
453.921	3.93
454.127	3.98
454.332	3.89
454.537	3.87
454.742	3.99
454.948	3.9
455.153	3.93
455.358	3.98
455.563	4.12
455.769	4.06
455.974	4.14
456.179	4.06
456.384	4.07
456.589	4.04
456.795	4.06
457	4.08
457.205	4.24
457.41	4.26
457.615	4.18
457.82	4.23
458.025	4.17
458.23	4.14
458.435	4.2
458.64	4.22
458.845	4.21
459.05	4.23
459.255	4.31
459.46	4.36
459.665	4.54
459.87	4.47
460.075	4.47
460.28	4.31
460.485	4.28
460.69	4.12
460.895	4.13
461.099	4.14
461.304	4.09
461.509	4.05
461.714	4.12
461.919	4.17
462.123	4.19
462.328	4.42
462.533	4.45
462.738	4.51
462.942	4.51
463.147	4.61
463.352	4.61
463.556	4.59
463.761	4.48
463.966	4.58
464.17	4.55
464.375	4.38
464.58	4.33
464.784	4.44
464.989	4.33
465.193	4.32
465.398	4.54
465.602	4.72
465.807	4.73
466.011	4.87
466.216	4.86
466.42	4.68
466.625	4.72
466.829	4.71
467.034	4.68
467.238	4.73
467.443	4.77
467.647	4.61
467.851	4.58
468.056	4.49
468.26	4.52
468.464	4.6
