Data from Ofav_PS_Phys_9JQ431_Reflection_2.txt Node
Date: Thu Jul 29 18:20:13 EDT 2021
User: USUARIO
Spectrometer: FLMT01687
Trigger mode: 0
Integration Time (sec): 9.010000E-1
Scans to average: 2
Electric dark correction enabled: true
Nonlinearity correction enabled: false
Boxcar width: 2
XAxis mode: Wavelengths
Number of Pixels in Spectrum: 3648
>>>>>Begin Spectral Data<<<<<
179.494	274.92
179.716	346.85
179.937	229.87
180.158	-1009.04
180.38	-43.98
180.601	-544.36
180.823	-108.77
181.044	-84.65
181.265	-104.05
181.486	-1076.84
181.708	68.37
181.929	164.3
182.15	9666.67
182.372	-167.69
182.593	-57
182.814	-37.77
183.035	-384.19
183.257	39.04
183.478	7.33
183.699	55.42
183.92	36.21
184.141	33.72
184.363	29.86
184.584	31.89
184.805	25.17
185.026	46.15
185.247	34.61
185.468	36.63
185.689	37.46
185.91	74.29
186.132	77.92
186.353	70.6
186.574	68.88
186.795	72.71
187.016	44.92
187.237	25.75
187.458	18.53
187.679	12.99
187.9	15.27
188.121	13.02
188.342	31.73
188.563	42.25
188.784	54.21
189.005	46.35
189.226	54.04
189.447	61.13
189.667	53.33
189.888	47.67
190.109	77.54
190.33	95.36
190.551	36.71
190.772	42.01
190.993	19.13
191.214	10.17
191.434	3.63
191.655	29.29
191.876	27.92
192.097	56.47
192.318	52.55
192.538	69.93
192.759	83.19
192.98	62.02
193.201	69.46
193.421	58.15
193.642	64.57
193.863	5.43
194.083	-9.46
194.304	-34.43
194.525	-0.74
194.745	-13.41
194.966	5.23
195.187	21.06
195.407	6.66
195.628	-31.42
195.848	-8.75
196.069	33.57
196.29	10.06
196.51	19.41
196.731	34.16
196.951	25.57
197.172	-6.55
197.392	21.04
197.613	4.09
197.833	-0.25
198.054	7.43
198.274	9.52
198.495	10.33
198.715	17.77
198.936	25.83
199.156	28.12
199.377	40.83
199.597	39.87
199.817	58.38
200.038	55.92
200.258	54.62
200.479	67.64
200.699	53.26
200.919	50.82
201.14	35.56
201.36	34.43
201.58	37.28
201.801	33.38
202.021	39.01
202.241	46.56
202.461	46.38
202.682	64.7
202.902	94.13
203.122	67.86
203.342	80.59
203.563	78.93
203.783	75.68
204.003	52.03
204.223	78.44
204.443	49.77
204.663	63.95
204.884	38.31
205.104	28.05
205.324	14.01
205.544	24.1
205.764	11.8
205.984	33.46
206.204	48.23
206.424	47.35
206.644	47.09
206.864	41.39
207.084	11.93
207.304	30.9
207.525	14.95
207.745	8.4
207.964	33.13
208.184	47.34
208.404	1.19
208.624	33.13
208.844	28.11
209.064	28.05
209.284	19.73
209.504	29.99
209.724	51.02
209.944	61.79
210.164	60.38
210.384	49.96
210.604	47.71
210.823	42.08
211.043	32.42
211.263	51.08
211.483	64.06
211.703	57.36
211.922	51.65
212.142	57.86
212.362	44.86
212.582	26.18
212.801	34.11
213.021	31.73
213.241	18.37
213.461	11.29
213.68	15.42
213.9	30.27
214.12	36.03
214.339	47.47
214.559	68.6
214.779	91.85
214.998	47.72
215.218	2.37
215.438	32.16
215.657	4.92
215.877	4.26
216.096	19.73
216.316	36.04
216.535	-0.37
216.755	-9.52
216.974	-46.68
217.194	-62.5
217.413	-29.87
217.633	15.89
217.852	-2.59
218.072	20.38
218.291	12.39
218.511	21.72
218.73	2.32
218.95	5.15
219.169	14.45
219.389	21.2
219.608	8.92
219.827	16.67
220.047	32.13
220.266	17.58
220.485	38.5
220.705	33.59
220.924	16.47
221.143	-0.65
221.363	-1
221.582	-19.65
221.801	-57.88
222.021	-7.24
222.24	41.21
222.459	48.83
222.678	45.76
222.897	43.33
223.117	45.62
223.336	31.68
223.555	22.75
223.774	48.4
223.993	59.92
224.213	57.61
224.432	59.66
224.651	80.03
224.87	61.9
225.089	75.35
225.308	83.63
225.527	98.36
225.746	73.86
225.965	69.78
226.184	37.54
226.404	-1.99
226.623	23.4
226.842	34.95
227.061	33.66
227.28	53.9
227.499	95.67
227.718	95.03
227.936	57.36
228.155	65.41
228.374	25.73
228.593	21.86
228.812	23.69
229.031	27.89
229.25	12.19
229.469	27.2
229.688	17.69
229.907	28.99
230.125	27.44
230.344	29.65
230.563	20.45
230.782	32.2
231.001	2.39
231.22	-19.97
231.438	-12.53
231.657	1.76
231.876	2.94
232.095	-2.89
232.313	6.04
232.532	-1.59
232.751	-6.99
232.969	-11.08
233.188	-5.67
233.407	-24.18
233.625	-1.16
233.844	18.64
234.063	24.75
234.281	16.63
234.5	26.96
234.719	33
234.937	37.77
235.156	47.08
235.374	62.1
235.593	79.08
235.811	91.84
236.03	48.5
236.249	44.15
236.467	43.69
236.686	44.54
236.904	36.72
237.123	48.93
237.341	31.81
237.559	15.83
237.778	14.14
237.996	29.61
238.215	27.41
238.433	45.11
238.652	60.11
238.87	52.3
239.088	39.65
239.307	19.38
239.525	6.96
239.743	-0.53
239.962	-1.97
240.18	-2.07
240.398	15.3
240.617	7.59
240.835	-6.52
241.053	-9.36
241.271	-0.9
241.49	-4.09
241.708	30.83
241.926	34.68
242.144	27.02
242.363	38.72
242.581	34.83
242.799	8.41
243.017	11.14
243.235	19.08
243.453	10.62
243.672	15.01
243.89	22.68
244.108	54.71
244.326	66.99
244.544	45.71
244.762	51.5
244.98	43.85
245.198	11.24
245.416	12.96
245.634	25.68
245.852	15.12
246.07	31.83
246.288	59.47
246.506	57.31
246.724	67.44
246.942	63.05
247.16	58.92
247.378	17.4
247.596	13.65
247.814	13.16
248.032	3.67
248.25	4.42
248.468	5.46
248.685	-0.77
248.903	-7.19
249.121	-13.12
249.339	-1.02
249.557	13.67
249.775	24.21
249.992	11.59
250.21	30.91
250.428	33.21
250.646	27.28
250.863	37.93
251.081	47.2
251.299	51.52
251.517	53.94
251.734	72.97
251.952	63.97
252.17	39.61
252.387	24.65
252.605	7.95
252.823	4.89
253.04	30.77
253.258	40.54
253.475	53.55
253.693	55.88
253.911	48.06
254.128	25.09
254.346	21.27
254.563	12.29
254.781	-17.23
254.998	-17.48
255.216	-32.49
255.433	-23.55
255.651	-29.87
255.868	-31.87
256.086	-8.5
256.303	1.74
256.521	6.64
256.738	9.27
256.956	24.31
257.173	23.7
257.39	22.44
257.608	24.7
257.825	34.7
258.043	15.3
258.26	4.14
258.477	7.94
258.695	-8.37
258.912	-22.01
259.129	-1.61
259.346	-11.75
259.564	-20.75
259.781	-10.55
259.998	6.17
260.216	21.85
260.433	37.05
260.65	31.98
260.867	51.36
261.084	50.93
261.302	31.17
261.519	41.93
261.736	42.72
261.953	20.97
262.17	23.79
262.387	23
262.604	-1.38
262.822	-11.17
263.039	1.24
263.256	-12.5
263.473	-12.74
263.69	-6.77
263.907	6.12
264.124	-5.53
264.341	8.78
264.558	20.97
264.775	25.7
264.992	24.81
265.209	13.66
265.426	11.05
265.643	14.57
265.86	5.22
266.077	11.76
266.294	32.8
266.51	28.6
266.727	34.6
266.944	38.7
267.161	31.25
267.378	25.04
267.595	41.68
267.812	34.85
268.028	30.59
268.245	21.03
268.462	9.01
268.679	-4.48
268.896	2.37
269.112	11.34
269.329	22.37
269.546	31.99
269.763	40.92
269.979	36.02
270.196	54.66
270.413	60.87
270.629	64.97
270.846	51.33
271.063	48.68
271.279	27.37
271.496	7.83
271.712	-2.5
271.929	-4.32
272.146	23.24
272.362	23.08
272.579	58.71
272.795	76.83
273.012	80.03
273.228	52.97
273.445	63.94
273.661	43.16
273.878	17.77
274.094	22.54
274.311	33.39
274.527	22.26
274.744	14.36
274.96	22.59
275.177	17
275.393	10.59
275.609	13.27
275.826	12.4
276.042	1.1
276.259	-16.46
276.475	-13.1
276.691	10.87
276.908	21.24
277.124	32.73
277.34	35.14
277.557	39.06
277.773	10.17
277.989	0.62
278.205	2.5
278.422	0.66
278.638	8.45
278.854	50.73
279.07	68.05
279.286	53.73
279.503	61.17
279.719	50.26
279.935	29.83
280.151	15.62
280.367	29.81
280.583	51.54
280.799	52.63
281.016	62.6
281.232	55.81
281.448	49.88
281.664	38.3
281.88	32.45
282.096	33.32
282.312	32.12
282.528	33.75
282.744	-1.74
282.96	5.3
283.176	-28.44
283.392	-15.3
283.608	1.03
283.824	22.92
284.04	20.61
284.256	37.95
284.471	28.6
284.687	16.68
284.903	8.95
285.119	5.56
285.335	-2.52
285.551	6.16
285.767	14.31
285.982	15.14
286.198	19.45
286.414	20.41
286.63	29.25
286.846	28.1
287.061	28.94
287.277	35.32
287.493	39.21
287.709	32.98
287.924	39.19
288.14	40.87
288.356	46.4
288.571	40.34
288.787	25.06
289.003	14.57
289.218	8.63
289.434	6.44
289.65	24.91
289.865	36.02
290.081	21.84
290.296	22.87
290.512	5.96
290.727	-9.97
290.943	4.47
291.159	9.76
291.374	13.8
291.59	20.6
291.805	5.39
292.021	4.22
292.236	7.59
292.451	9.11
292.667	14.5
292.882	31.31
293.098	33.06
293.313	44.31
293.529	46.59
293.744	48.99
293.959	47.3
294.175	48.13
294.39	45.37
294.605	41.83
294.821	38.93
295.036	38.03
295.251	38.01
295.467	30.84
295.682	15.31
295.897	20.65
296.112	22.69
296.328	32.54
296.543	27.51
296.758	38.6
296.973	27.25
297.188	43.47
297.404	13.95
297.619	37.09
297.834	28.44
298.049	32.28
298.264	29.37
298.479	49.27
298.694	41.38
298.909	43.06
299.125	32.47
299.34	21.26
299.555	6.6
299.77	27.63
299.985	23.18
300.2	39.6
300.415	34.79
300.63	33.04
300.845	-3.55
301.06	-10.51
301.275	5.4
301.49	-6.83
301.704	-37.72
301.919	2.48
302.134	22.08
302.349	3.48
302.564	16.17
302.779	28.37
302.994	25.16
303.209	26.83
303.423	25.49
303.638	16.86
303.853	-0.46
304.068	20.35
304.283	16.15
304.497	26.45
304.712	10.62
304.927	26.46
305.142	8.14
305.356	-8.6
305.571	-12.53
305.786	19.73
306	-8.48
306.215	3.45
306.43	26.54
306.644	17.46
306.859	34.52
307.074	63.13
307.288	48.59
307.503	34.81
307.717	35.49
307.932	19.43
308.147	14.48
308.361	5.67
308.576	-7.46
308.79	-3.24
309.005	25.76
309.219	31.55
309.434	41.3
309.648	49.8
309.863	55.2
310.077	24.11
310.292	15.31
310.506	5.57
310.72	7.29
310.935	6.18
311.149	26.1
311.364	38.3
311.578	47.33
311.792	36.78
312.007	30.2
312.221	6.97
312.435	14.64
312.649	-7.89
312.864	-114.36
313.078	-50.86
313.292	-40.26
313.507	-8.64
313.721	4.6
313.935	15.35
314.149	21.85
314.363	29.57
314.578	13.45
314.792	48.39
315.006	66.99
315.22	55.19
315.434	42.76
315.648	44.53
315.862	25.92
316.077	16.67
316.291	13.05
316.505	33
316.719	37.8
316.933	47.64
317.147	36.73
317.361	27.21
317.575	18.92
317.789	-3.94
318.003	-7.35
318.217	9.8
318.431	5.68
318.645	-3.52
318.859	6.88
319.073	-7.99
319.287	-17.19
319.5	-3.01
319.714	16.26
319.928	18.79
320.142	40.42
320.356	39.66
320.57	40.04
320.784	34.19
320.997	17.88
321.211	17.19
321.425	14.65
321.639	9.47
321.853	15.56
322.066	13.86
322.28	1.68
322.494	13.19
322.707	26.71
322.921	17.51
323.135	25.42
323.349	14.25
323.562	-8.31
323.776	-11.84
323.989	-1.69
324.203	20.03
324.417	34.11
324.63	31.11
324.844	26.84
325.057	13.08
325.271	-11.38
325.485	-14.27
325.698	-2.11
325.912	2.82
326.125	5.95
326.339	18.07
326.552	23.13
326.766	18.74
326.979	22.44
327.193	30.71
327.406	35.91
327.619	23.17
327.833	28.49
328.046	35.69
328.26	43.37
328.473	25.08
328.686	38.78
328.9	21.12
329.113	-5.44
329.326	-36.86
329.54	-45.24
329.753	-54.64
329.966	-18.08
330.179	-12.77
330.393	-1.16
330.606	11.45
330.819	24.44
331.032	9.81
331.246	6.93
331.459	-20.88
331.672	-19.1
331.885	-26.89
332.098	-17.06
332.311	2.25
332.525	17.66
332.738	18.97
332.951	18.89
333.164	19.97
333.377	18.15
333.59	20.16
333.803	20.61
334.016	17.19
334.229	15.23
334.442	17.04
334.655	19.38
334.868	9.21
335.081	29.32
335.294	40.83
335.507	41.26
335.72	43.63
335.933	27.4
336.146	21.4
336.359	13.24
336.572	-6.04
336.785	-22.32
336.997	13.53
337.21	10.51
337.423	14.04
337.636	23.49
337.849	22.81
338.062	9.4
338.274	6.31
338.487	2.74
338.7	-14.97
338.913	20.48
339.125	28.07
339.338	30.26
339.551	34.96
339.763	55
339.976	33.11
340.189	41.67
340.402	33.93
340.614	27.53
340.827	20.89
341.039	52.84
341.252	51.78
341.465	46.18
341.677	41.09
341.89	19.97
342.102	6.21
342.315	14.47
342.527	17.5
342.74	17.71
342.952	28.8
343.165	37.35
343.377	22.81
343.59	20.45
343.802	28.53
344.015	28.22
344.227	15.22
344.44	20.06
344.652	29.28
344.864	25.33
345.077	36.96
345.289	30.63
345.502	26.08
345.714	10.1
345.926	0.75
346.139	-23.65
346.351	-17.02
346.563	-0.49
346.775	2.06
346.988	-6.85
347.2	-3.33
347.412	-4.02
347.624	0.16
347.837	-12.67
348.049	-13.45
348.261	-12.71
348.473	11.66
348.685	9.45
348.897	29.15
349.11	39.36
349.322	43.24
349.534	32.33
349.746	22.54
349.958	22.83
350.17	17.67
350.382	32.57
350.594	25.58
350.806	45.93
351.018	30.24
351.23	17.04
351.442	-2.99
351.654	13.8
351.866	-6.77
352.078	13.89
352.29	8.25
352.502	20.91
352.714	18.33
352.926	22.52
353.138	27.49
353.35	46.15
353.561	13.81
353.773	29.84
353.985	39.47
354.197	42.9
354.409	38.53
354.621	48.86
354.832	36.38
355.044	26.1
355.256	27.22
355.468	18.69
355.679	29.61
355.891	33.86
356.103	42.75
356.314	33.58
356.526	46.49
356.738	42.91
356.949	39.28
357.161	37.83
357.373	40.37
357.584	41.26
357.796	38.13
358.008	35.77
358.219	21.33
358.431	0.39
358.642	-12.11
358.854	-18.21
359.065	-2.83
359.277	-5.74
359.488	9.78
359.7	15.88
359.911	19.33
360.123	14.48
360.334	26.43
360.546	19
360.757	17.68
360.969	16.27
361.18	35.57
361.391	34.19
361.603	49.88
361.814	49.5
362.025	47.43
362.237	39.85
362.448	33.53
362.659	22.61
362.871	22.66
363.082	23.69
363.293	14.65
363.504	24.78
363.716	25.57
363.927	22.04
364.138	6.97
364.349	9.38
364.56	16.89
364.772	14.39
364.983	19.87
365.194	35.16
365.405	35.67
365.616	21.55
365.827	29.72
366.038	33.52
366.25	23.49
366.461	27.45
366.672	42.27
366.883	40.96
367.094	18.65
367.305	35.89
367.516	36.24
367.727	30.31
367.938	28.13
368.149	25.37
368.36	12
368.571	17.48
368.781	14.32
368.992	1.34
369.203	22.98
369.414	30.42
369.625	16.67
369.836	18
370.047	21.91
370.258	19.04
370.468	16.55
370.679	15.6
370.89	-3.86
371.101	-1.39
371.312	-8.73
371.522	-0.13
371.733	-5.06
371.944	2.21
372.155	5.02
372.365	1.14
372.576	-4.97
372.787	11.09
372.997	21.85
373.208	21.33
373.419	33.32
373.629	38.99
373.84	36.7
374.05	38.3
374.261	40.54
374.472	23.92
374.682	12.52
374.893	16.41
375.103	18.96
375.314	22.8
375.524	35.14
375.735	46.96
375.945	47.39
376.156	43.68
376.366	29.35
376.577	34.03
376.787	24.48
376.997	20.66
377.208	25.49
377.418	26.84
377.629	24.24
377.839	28.97
378.049	27.66
378.26	20.82
378.47	26.8
378.68	23.71
378.89	23.41
379.101	26.82
379.311	27
379.521	25.58
379.732	19.5
379.942	11.6
380.152	16.49
380.362	16.71
380.572	13.68
380.783	16.71
380.993	24.05
381.203	22.68
381.413	16.22
381.623	19.41
381.833	33.43
382.043	22.72
382.253	16.49
382.463	20.69
382.674	15.43
382.884	11.35
383.094	10.77
383.304	11.56
383.514	8.73
383.724	17.3
383.934	11.5
384.144	13.67
384.353	18.83
384.563	24.48
384.773	22.41
384.983	23.01
385.193	27.04
385.403	18.85
385.613	18.52
385.823	16.41
386.033	17.69
386.242	13.89
386.452	15.83
386.662	15.17
386.872	14.79
387.082	13.94
387.291	13.79
387.501	12.66
387.711	12.7
387.921	11.97
388.13	11.23
388.34	12.08
388.55	12.93
388.759	11.88
388.969	13.76
389.179	11.99
389.388	11.61
389.598	13.56
389.807	12.7
390.017	13.42
390.227	20.33
390.436	22.35
390.646	20.15
390.855	17.73
391.065	16.32
391.274	11.26
391.484	8.59
391.693	7.27
391.903	9.87
392.112	10.93
392.322	11.47
392.531	11.93
392.74	13.07
392.95	14.28
393.159	14.24
393.369	15.34
393.578	15.63
393.787	16.78
393.997	15.31
394.206	14.96
394.415	14.78
394.625	14.34
394.834	13.2
395.043	13.56
395.252	13.85
395.462	13.7
395.671	14.69
395.88	16.27
396.089	16.63
396.298	17.63
396.508	17.22
396.717	16.43
396.926	15.73
397.135	14.93
397.344	13.72
397.553	14.52
397.762	15.13
397.971	14.89
398.181	15.4
398.39	15.66
398.599	15.34
398.808	15.44
399.017	15.87
399.226	15.92
399.435	16.13
399.644	16.29
399.853	15.84
400.062	15.79
400.27	15.93
400.479	15.85
400.688	15.74
400.897	16.17
401.106	16.14
401.315	15.79
401.524	15.91
401.733	15.54
401.941	15.26
402.15	15.34
402.359	15.3
402.568	15.2
402.777	15.21
402.985	15.19
403.194	14.75
403.403	14.57
403.612	14.33
403.82	14.4
404.029	14.14
404.238	14.32
404.446	14.41
404.655	14.38
404.864	14.24
405.072	14.3
405.281	14.16
405.489	14.18
405.698	14.1
405.906	14.17
406.115	14.08
406.324	14.07
406.532	14.06
406.741	14.23
406.949	14.04
407.158	14.13
407.366	13.97
407.574	13.87
407.783	13.74
407.991	13.67
408.2	13.44
408.408	13.43
408.617	13.47
408.825	13.37
409.033	13.51
409.242	13.57
409.45	13.53
409.658	13.39
409.867	13.36
410.075	13.12
410.283	13.07
410.491	13
410.7	13.09
410.908	13.15
411.116	13.4
411.324	13.41
411.533	13.54
411.741	13.58
411.949	13.59
412.157	13.39
412.365	13.38
412.573	13.3
412.781	13.15
412.99	13.04
413.198	13.07
413.406	13.13
413.614	13.12
413.822	13.07
414.03	13.03
414.238	12.93
414.446	12.92
414.654	12.87
414.862	12.83
415.07	12.52
415.278	12.51
415.486	12.35
415.694	12.34
415.902	12.23
416.109	12.41
416.317	12.38
416.525	12.38
416.733	12.23
416.941	12.33
417.149	12.41
417.357	12.42
417.564	12.33
417.772	12.38
417.98	12.42
418.188	12.28
418.395	12.16
418.603	12.13
418.811	12.13
419.019	12.05
419.226	12.35
419.434	12.35
419.642	12.42
419.849	12.5
420.057	12.47
420.265	12.14
420.472	12.09
420.68	12.09
420.887	12.02
421.095	11.86
421.302	11.95
421.51	12.05
421.717	11.95
421.925	11.91
422.132	11.98
422.34	11.71
422.547	11.56
422.755	11.63
422.962	11.62
423.17	11.66
423.377	11.88
423.585	11.96
423.792	11.84
423.999	11.73
424.207	11.72
424.414	11.68
424.621	11.68
424.829	11.75
425.036	11.88
425.243	11.73
425.451	11.64
425.658	11.64
425.865	11.48
426.072	11.26
426.28	11.56
426.487	11.66
426.694	11.71
426.901	11.64
427.108	11.69
427.315	11.32
427.523	11.32
427.73	11.29
427.937	11.63
428.144	11.71
428.351	11.89
428.558	11.82
428.765	11.79
428.972	11.59
429.179	11.53
429.386	11.55
429.593	11.59
429.8	11.78
430.007	11.89
430.214	12.02
430.421	11.99
430.628	11.95
430.835	11.73
431.042	11.66
431.249	11.54
431.456	11.44
431.662	11.63
431.869	11.81
432.076	11.94
432.283	12.14
432.49	12.22
432.697	12.13
432.903	11.93
433.11	11.82
433.317	11.66
433.524	11.73
433.73	11.65
433.937	11.68
434.144	11.6
434.35	11.68
434.557	11.65
434.764	11.62
434.97	11.48
435.177	11.6
435.384	11.41
435.59	11.46
435.797	11.53
436.003	11.56
436.21	11.46
436.416	11.58
436.623	11.51
436.829	11.54
437.036	11.54
437.242	11.62
437.449	11.57
437.655	11.6
437.862	11.59
438.068	11.66
438.275	11.52
438.481	11.41
438.687	11.31
438.894	11.22
439.1	11.13
439.307	11.21
439.513	11.19
439.719	11.14
439.926	11.11
440.132	11.2
440.338	11.38
440.544	11.48
440.751	11.65
440.957	11.78
441.163	11.72
441.369	11.61
441.575	11.58
441.782	11.39
441.988	11.28
442.194	11.38
442.4	11.42
442.606	11.44
442.812	11.55
443.018	11.54
443.224	11.56
443.431	11.45
443.637	11.45
443.843	11.41
444.049	11.48
444.255	11.34
444.461	11.35
444.667	11.24
444.873	11.08
445.079	11.01
445.284	11.15
445.49	11.09
445.696	11.16
445.902	11.2
446.108	11.11
446.314	10.96
446.52	10.99
446.726	11.08
446.931	11.17
447.137	11.26
447.343	11.32
447.549	11.4
447.755	11.2
447.96	11.32
448.166	11.34
448.372	11.29
448.578	11.3
448.783	11.41
448.989	11.45
449.195	11.29
449.4	11.28
449.606	11.26
449.812	11.26
450.017	11.07
450.223	11.18
450.428	11.28
450.634	11.27
450.84	11.3
451.045	11.34
451.251	11.34
451.456	11.32
451.662	11.29
451.867	11.24
452.073	11.16
452.278	11.2
452.483	11.17
452.689	11.21
452.894	11.26
453.1	11.32
453.305	11.25
453.51	11.2
453.716	11.14
453.921	11.14
454.127	11.22
454.332	11.21
454.537	11.15
454.742	11.15
454.948	10.98
455.153	10.89
455.358	11.05
455.563	11.12
455.769	11.12
455.974	11.26
456.179	11.23
456.384	11.02
456.589	11.12
456.795	11.05
457	11.05
457.205	11.22
457.41	11.37
457.615	11.29
457.82	11.39
458.025	11.32
458.23	11.28
458.435	11.19
458.64	11.14
458.845	11.1
459.05	11.06
459.255	10.96
459.46	11.01
459.665	11.13
459.87	11.06
460.075	11.14
460.28	11.07
460.485	11.06
460.69	10.93
460.895	11.03
461.099	11.03
461.304	11.04
461.509	11.04
461.714	11.13
461.919	11.09
462.123	11.17
462.328	11.21
462.533	11.28
462.738	11.26
462.942	11.29
463.147	11.34
