Data from Ofav_PS_Phys_0HS3_Reflection_1.txt Node
Date: Thu Jul 29 18:17:15 EDT 2021
User: USUARIO
Spectrometer: FLMT01687
Trigger mode: 0
Integration Time (sec): 9.010000E-1
Scans to average: 2
Electric dark correction enabled: true
Nonlinearity correction enabled: false
Boxcar width: 2
XAxis mode: Wavelengths
Number of Pixels in Spectrum: 3648
>>>>>Begin Spectral Data<<<<<
179.494	25.71
179.716	16.22
179.937	75.52
180.158	-364.41
180.38	39.77
180.601	-503.15
180.823	-124.77
181.044	-4.43
181.265	-38.46
181.486	-852.54
181.708	83.73
181.929	166.11
182.15	6757.14
182.372	-77.41
182.593	-7.95
182.814	-12.11
183.035	-145.36
183.257	-1.98
183.478	17.05
183.699	20.84
183.92	21.35
184.141	29.1
184.363	35.69
184.584	56.86
184.805	48.55
185.026	53
185.247	47.16
185.468	52.29
185.689	12.92
185.91	87.04
186.132	61.37
186.353	50.74
186.574	61.48
186.795	71.31
187.016	49.55
187.237	47.38
187.458	49.97
187.679	48.08
187.9	45.74
188.121	33.75
188.342	41.48
188.563	38.02
188.784	28.22
189.005	23.58
189.226	28.94
189.447	23.63
189.667	6.16
189.888	12.37
190.109	10.73
190.33	-45.68
190.551	-17.78
190.772	14.44
190.993	-8.19
191.214	2.04
191.434	15.21
191.655	24.97
191.876	17.16
192.097	27.9
192.318	29.85
192.538	30.24
192.759	30.14
192.98	23.76
193.201	25.15
193.421	1.46
193.642	-0.21
193.863	-1.35
194.083	-5.55
194.304	2.11
194.525	40.09
194.745	22.21
194.966	22.01
195.187	25.16
195.407	27.64
195.628	-23.31
195.848	35.68
196.069	55.8
196.29	48.29
196.51	21.82
196.731	26.11
196.951	-11.28
197.172	-34.57
197.392	-33.15
197.613	-45.49
197.833	-53.36
198.054	-26.18
198.274	-18.28
198.495	20.9
198.715	18.05
198.936	69.37
199.156	109
199.377	93.34
199.597	86.28
199.817	73.45
200.038	22.31
200.258	1.33
200.479	-40.35
200.699	-69.01
200.919	0.07
201.14	14.32
201.36	21.5
201.58	37.29
201.801	55.92
202.021	57.37
202.241	54.43
202.461	48.87
202.682	31.49
202.902	31.15
203.122	-1.59
203.342	24.61
203.563	23.08
203.783	25.02
204.003	10.23
204.223	4.96
204.443	-5.98
204.663	16.96
204.884	23.34
205.104	28.4
205.324	38.37
205.544	24.79
205.764	1.16
205.984	10.38
206.204	9.35
206.424	5.05
206.644	26.17
206.864	52.6
207.084	46.7
207.304	60.97
207.525	65.58
207.745	36.72
207.964	19.44
208.184	16.6
208.404	6.87
208.624	29.19
208.844	59.6
209.064	53.09
209.284	49.43
209.504	28.19
209.724	30.13
209.944	29.52
210.164	40.55
210.384	29.19
210.604	45.73
210.823	43.61
211.043	14.35
211.263	22.73
211.483	9.07
211.703	-4.39
211.922	-8.09
212.142	29.93
212.362	11.45
212.582	49.3
212.801	56.11
213.021	25.82
213.241	8.22
213.461	17.56
213.68	-36.68
213.9	-28.34
214.12	10.86
214.339	-13.89
214.559	-12.78
214.779	7.73
214.998	-22.64
215.218	-25.7
215.438	-4.91
215.657	-19.95
215.877	0.82
216.096	-7.41
216.316	-37.97
216.535	-70.19
216.755	-55.5
216.974	-102.4
217.194	-86.62
217.413	-19.87
217.633	12.45
217.852	-8.73
218.072	15.53
218.291	43.3
218.511	38.41
218.73	23.58
218.95	32.85
219.169	32.11
219.389	17.58
219.608	15.95
219.827	10.89
220.047	14.47
220.266	-5.07
220.485	14.49
220.705	2.28
220.924	-10.28
221.143	-20.98
221.363	-21.95
221.582	-54.49
221.801	-46.12
222.021	17.94
222.24	24.4
222.459	40.26
222.678	47.78
222.897	37.94
223.117	30.26
223.336	23.23
223.555	20.77
223.774	-14.89
223.993	-12.02
224.213	18.4
224.432	41.7
224.651	45.93
224.87	59.75
225.089	69.67
225.308	71.65
225.527	69.06
225.746	60.15
225.965	64.26
226.184	27.65
226.404	-15.63
226.623	4.73
226.842	-4.86
227.061	-20.88
227.28	6.19
227.499	58.09
227.718	34.43
227.936	34.9
228.155	28.13
228.374	8.93
228.593	-18.75
228.812	-22.3
229.031	-5.85
229.25	3.29
229.469	6.65
229.688	14.97
229.907	40.87
230.125	33.48
230.344	58.19
230.563	73.24
230.782	72.09
231.001	35.86
231.22	29.65
231.438	-4.91
231.657	-7.23
231.876	-9.23
232.095	-26.06
232.313	-13.26
232.532	-19.47
232.751	-32.25
232.969	-30.51
233.188	-0.75
233.407	-6.56
233.625	15.42
233.844	39.99
234.063	48.24
234.281	52.01
234.5	45.73
234.719	34.91
234.937	3.01
235.156	-25.2
235.374	-3.48
235.593	9.4
235.811	0.9
236.03	23.97
236.249	40.37
236.467	42.17
236.686	38.48
236.904	34.82
237.123	42.72
237.341	28.61
237.559	26.38
237.778	47.8
237.996	52.22
238.215	43.89
238.433	64.53
238.652	57.05
238.87	43.9
239.088	43.76
239.307	35.08
239.525	34.06
239.743	33.38
239.962	34.89
240.18	30.07
240.398	31.61
240.617	9.37
240.835	-0.34
241.053	12.17
241.271	1.94
241.49	14.52
241.708	31.2
241.926	38.98
242.144	30.7
242.363	41.64
242.581	38.02
242.799	41.3
243.017	20.59
243.235	11.1
243.453	13.45
243.672	12.07
243.89	2.02
244.108	27.79
244.326	47.29
244.544	5.47
244.762	1.73
244.98	7.47
245.198	11.97
245.416	-11.2
245.634	1.16
245.852	-3.05
246.07	9.84
246.288	6.98
246.506	17.95
246.724	31.6
246.942	43.12
247.16	32.68
247.378	22.13
247.596	29.96
247.814	18.16
248.032	12.96
248.25	16.63
248.468	16.69
248.685	15.44
248.903	22.44
249.121	26.56
249.339	15.43
249.557	21.9
249.775	28.82
249.992	25.99
250.21	22.08
250.428	51.77
250.646	46.93
250.863	43.31
251.081	30.32
251.299	38.91
251.517	29.03
251.734	43.52
251.952	30.93
252.17	43.84
252.387	29.46
252.605	38.32
252.823	15.24
253.04	29.61
253.258	38.43
253.475	44.37
253.693	35.2
253.911	35.24
254.128	47.04
254.346	43.46
254.563	50.08
254.781	38.16
254.998	48.22
255.216	4.99
255.433	5.56
255.651	2.4
255.868	-7.1
256.086	0.49
256.303	8.06
256.521	11.66
256.738	12.99
256.956	29.84
257.173	33.39
257.39	48.74
257.608	25.72
257.825	40.32
258.043	25.61
258.26	9.58
258.477	-3.46
258.695	2.9
258.912	-12.95
259.129	-17.56
259.346	-9.22
259.564	-2.06
259.781	15.08
259.998	17.37
260.216	37.09
260.433	42.57
260.65	38.93
260.867	36.33
261.084	43.24
261.302	28.29
261.519	24.24
261.736	29.95
261.953	9.31
262.17	10.05
262.387	27.78
262.604	6.03
262.822	-3.87
263.039	12.55
263.256	-2.98
263.473	-13.3
263.69	-10.61
263.907	-13.66
264.124	-9
264.341	-16.42
264.558	-36.97
264.775	-26.42
264.992	-7.43
265.209	-15.18
265.426	1.85
265.643	13.69
265.86	16.18
266.077	14.97
266.294	17.07
266.51	-1.03
266.727	7.55
266.944	11.23
267.161	10.23
267.378	12.8
267.595	41.36
267.812	33.58
268.028	11.46
268.245	10.77
268.462	9.03
268.679	17.12
268.896	-3.84
269.112	5.17
269.329	1.11
269.546	10.47
269.763	3.06
269.979	18.04
270.196	31.04
270.413	28.63
270.629	19.67
270.846	13.46
271.063	7.21
271.279	0.45
271.496	1
271.712	0.77
271.929	4.79
272.146	33.87
272.362	34.92
272.579	51.01
272.795	57.19
273.012	55.68
273.228	25.54
273.445	30.38
273.661	29.97
273.878	26.02
274.094	34.6
274.311	50.92
274.527	45.62
274.744	55.55
274.96	58.72
275.177	45.11
275.393	41.77
275.609	45.84
275.826	15.6
276.042	10.52
276.259	10.62
276.475	17.84
276.691	12.53
276.908	20.48
277.124	19.05
277.34	27.04
277.557	15.11
277.773	6.48
277.989	11.21
278.205	14.26
278.422	-4.34
278.638	6.12
278.854	28.93
279.07	38.22
279.286	20.71
279.503	34.42
279.719	22.33
279.935	0.7
280.151	-29.16
280.367	-7.04
280.583	3.22
280.799	7.04
281.016	12.7
281.232	33.7
281.448	37.56
281.664	43.3
281.88	35.95
282.096	39.58
282.312	16.99
282.528	3.75
282.744	-21.32
282.96	-4.79
283.176	2.01
283.392	41.6
283.608	45.55
283.824	43.58
284.04	34.77
284.256	39.3
284.471	22.05
284.687	18.36
284.903	8.71
285.119	12.09
285.335	4.5
285.551	9.59
285.767	11.64
285.982	18.44
286.198	19.08
286.414	10.56
286.63	14.71
286.846	17.76
287.061	11.64
287.277	28.52
287.493	33.64
287.709	28.31
287.924	32.81
288.14	37.26
288.356	32.43
288.571	36.56
288.787	28.98
289.003	2.09
289.218	-22.94
289.434	-28.75
289.65	-23.83
289.865	-24.41
290.081	-26.71
290.296	-8.31
290.512	-3.52
290.727	-0.33
290.943	16.53
291.159	22.84
291.374	35.81
291.59	35.63
291.805	17.7
292.021	14.7
292.236	26.07
292.451	2.22
292.667	6.39
292.882	17.89
293.098	14.48
293.313	32.35
293.529	37.59
293.744	29.81
293.959	33.27
294.175	42.47
294.39	24.17
294.605	31.57
294.821	38.81
295.036	39.1
295.251	45.2
295.467	47.73
295.682	43.34
295.897	27.97
296.112	22.56
296.328	10.82
296.543	-0.73
296.758	-9.84
296.973	-4.72
297.188	-14.84
297.404	-22.48
297.619	-4.59
297.834	-11.48
298.049	2.98
298.264	28.6
298.479	35.35
298.694	25.62
298.909	23.9
299.125	28.43
299.34	22.28
299.555	30.42
299.77	50.1
299.985	33.52
300.2	14.72
300.415	1.05
300.63	1.06
300.845	-7.35
301.06	9.03
301.275	17.42
301.49	-0.7
301.704	-25.1
301.919	-13.4
302.134	-11.07
302.349	-13.76
302.564	-6.69
302.779	10.66
302.994	7.67
303.209	14.55
303.423	19.45
303.638	3.07
303.853	-25.77
304.068	-6.14
304.283	0.67
304.497	0.71
304.712	1.29
304.927	8.9
305.142	-7.46
305.356	-18.14
305.571	0.95
305.786	26.36
306	7.29
306.215	21.58
306.43	34.72
306.644	21.38
306.859	19.52
307.074	42.53
307.288	37.46
307.503	15.1
307.717	24.77
307.932	14.5
308.147	2.77
308.361	-12.83
308.576	-24.19
308.79	-46.1
309.005	-10.86
309.219	9.33
309.434	13.63
309.648	26.57
309.863	34.9
310.077	7.16
310.292	-0.85
310.506	-8.67
310.72	-10.49
310.935	-35.35
311.149	-9.96
311.364	-15.98
311.578	-12.82
311.792	-25.41
312.007	-7.64
312.221	-14.03
312.435	-19.72
312.649	-9.74
312.864	-127.97
313.078	-50.82
313.292	-46.71
313.507	-21.16
313.721	-32.68
313.935	5.23
314.149	5.19
314.363	5.8
314.578	8.84
314.792	19.57
315.006	27.34
315.22	27.15
315.434	29.17
315.648	31.19
315.862	24.37
316.077	19.06
316.291	6.41
316.505	6.71
316.719	7.88
316.933	15.53
317.147	16.44
317.361	12.53
317.575	9.17
317.789	0.06
318.003	6.29
318.217	28.07
318.431	27.67
318.645	26.17
318.859	35.75
319.073	18
319.287	6.39
319.5	7.97
319.714	19.95
319.928	19.12
320.142	32.59
320.356	20.8
320.57	24.04
320.784	19.35
320.997	0.67
321.211	2.85
321.425	2.4
321.639	-0.1
321.853	-0.61
322.066	1.71
322.28	-1.16
322.494	15.55
322.707	31.37
322.921	24.48
323.135	28.29
323.349	35.3
323.562	25.22
323.776	16.11
323.989	30.07
324.203	43.69
324.417	22.88
324.63	20.86
324.844	26.24
325.057	15.25
325.271	-6.17
325.485	7.91
325.698	6.13
325.912	10.23
326.125	4.25
326.339	-1.86
326.552	-3.24
326.766	-2.11
326.979	-12.88
327.193	-19.71
327.406	-7.74
327.619	-15.04
327.833	-9
328.046	-0.55
328.26	23.38
328.473	21.64
328.686	17.51
328.9	24.15
329.113	6.86
329.326	-6.63
329.54	-26.24
329.753	4.25
329.966	6.43
330.179	7.78
330.393	15.89
330.606	16.73
330.819	18.02
331.032	10.09
331.246	12.23
331.459	-24.35
331.672	-18.16
331.885	-31.96
332.098	-23.65
332.311	-16.47
332.525	1.67
332.738	4.01
332.951	-13.74
333.164	-6.1
333.377	-11.19
333.59	-7.79
333.803	14.4
334.016	21.35
334.229	-3.99
334.442	10.46
334.655	14.92
334.868	3.65
335.081	28.04
335.294	44.23
335.507	43.86
335.72	48.17
335.933	32.91
336.146	33.8
336.359	37.59
336.572	39.93
336.785	30.15
336.997	29.37
337.21	18.76
337.423	12.39
337.636	-0.55
337.849	-5.11
338.062	-8.57
338.274	-26.43
338.487	-34.97
338.7	-74.76
338.913	-45.55
339.125	-19.76
339.338	-17.73
339.551	-16.14
339.763	3.88
339.976	-12.91
340.189	-17.24
340.402	-12.81
340.614	-26.46
340.827	-12.13
341.039	-1.49
341.252	7.61
341.465	10.68
341.677	22.13
341.89	5.2
342.102	3.81
342.315	6.94
342.527	13.41
342.74	16.41
342.952	18.81
343.165	28.98
343.377	14.64
343.59	9.77
343.802	13.67
344.015	19.15
344.227	2.19
344.44	6.47
344.652	5.09
344.864	-13.46
345.077	1.61
345.289	0.67
345.502	-9.54
345.714	-19.49
345.926	-3.72
346.139	-24.52
346.351	-11.39
346.563	29.15
346.775	30.46
346.988	11.04
347.2	10.88
347.412	15.16
347.624	2.22
347.837	3.76
348.049	0.85
348.261	-1.63
348.473	-2.76
348.685	-4
348.897	-4.05
349.11	8.07
349.322	6.64
349.534	3.55
349.746	0.48
349.958	8.55
350.17	12.6
350.382	12.12
350.594	-1.03
350.806	5.99
351.018	-8.21
351.23	-10.74
351.442	6.65
351.654	25.56
351.866	2.7
352.078	24
352.29	15.13
352.502	16.77
352.714	13.15
352.926	28.76
353.138	29.78
353.35	42.78
353.561	15.04
353.773	22.44
353.985	25.48
354.197	25.01
354.409	26.98
354.621	17.76
354.832	-5.27
355.044	-14.91
355.256	-7.6
355.468	-22.42
355.679	4.58
355.891	24.05
356.103	30.47
356.314	36.41
356.526	43.75
356.738	28.49
356.949	23
357.161	26.97
357.373	13.63
357.584	4.62
357.796	21.53
358.008	12.31
358.219	8.56
358.431	-5.19
358.642	-0.53
358.854	-8.8
359.065	8.32
359.277	0.04
359.488	7.75
359.7	7.83
359.911	17.68
360.123	10.95
360.334	14.11
360.546	8.97
360.757	9.06
360.969	-4.83
361.18	12.04
361.391	2.98
361.603	-7.55
361.814	-1.37
362.025	4.37
362.237	0.95
362.448	12.16
362.659	21.42
362.871	22.81
363.082	27.87
363.293	19.89
363.504	31.67
363.716	23.89
363.927	19.03
364.138	0.83
364.349	-4.09
364.56	-2.84
364.772	-10.91
364.983	-18.66
365.194	-6.35
365.405	7.22
365.616	-10.01
365.827	0.79
366.038	0.97
366.25	-12.58
366.461	-31.9
366.672	-21.56
366.883	-17.94
367.094	-25.73
367.305	2.96
367.516	27.26
367.727	22.31
367.938	21.63
368.149	38
368.36	38.31
368.571	26.02
368.781	10.27
368.992	13.68
369.203	10.96
369.414	8.09
369.625	14.97
369.836	25.67
370.047	16.45
370.258	20.51
370.468	19.5
370.679	11.27
370.89	7.36
371.101	30.92
371.312	29.87
371.522	23.23
371.733	21.46
371.944	13.62
372.155	-0.81
372.365	-27.22
372.576	-13.29
372.787	-8.46
372.997	-3.6
373.208	5.49
373.419	10.1
373.629	10.61
373.84	15.89
374.05	12.06
374.261	7.67
374.472	11.27
374.682	-10.62
374.893	0.62
375.103	11.22
375.314	10.08
375.524	10.81
375.735	28.66
375.945	22.06
376.156	18.82
376.366	7.27
376.577	20.43
376.787	19.23
376.997	18.65
377.208	15.29
377.418	21.35
377.629	11.59
377.839	9.39
378.049	1.88
378.26	13.08
378.47	20.17
378.68	16.8
378.89	13.38
379.101	22.34
379.311	15.84
379.521	10.71
379.732	7.93
379.942	9.79
380.152	2.42
380.362	0.64
380.572	-8.61
380.783	-4.69
380.993	-2.71
381.203	11.59
381.413	13.51
381.623	23.14
381.833	33.55
382.043	33.99
382.253	20.91
382.463	15.23
382.674	13.55
382.884	4.81
383.094	-7.18
383.304	-4.17
383.514	1.42
383.724	10.89
383.934	7.65
384.144	14.84
384.353	17.7
384.563	23.61
384.773	23.2
384.983	23.25
385.193	23.82
385.403	18.02
385.613	14.12
385.823	5.58
386.033	6.17
386.242	2.07
386.452	5.34
386.662	4.8
386.872	8.97
387.082	7.48
387.291	5.81
387.501	3.13
387.711	-1.18
387.921	-3.27
388.13	-0.7
388.34	0.98
388.55	1.97
388.759	1.92
388.969	3.48
389.179	3.47
389.388	2.68
389.598	2.6
389.807	4.72
390.017	4.72
390.227	8.41
390.436	9.11
390.646	9.19
390.855	8.98
391.065	7.97
391.274	4.95
391.484	5.17
391.693	2.7
391.903	2.57
392.112	3.8
392.322	3.68
392.531	3
392.74	5.04
392.95	6.49
393.159	6.85
393.369	8.53
393.578	8.87
393.787	9.32
393.997	7.57
394.206	7.31
394.415	6.89
394.625	6.65
394.834	5.57
395.043	5.42
395.252	6.35
395.462	6.38
395.671	6.7
395.88	7.9
396.089	9.02
396.298	7.62
396.508	7.05
396.717	6.85
396.926	6.69
397.135	6.03
397.344	6.84
397.553	7.38
397.762	7.83
397.971	7.88
398.181	8.72
398.39	7.95
398.599	7.53
398.808	7.43
399.017	7.96
399.226	7.69
399.435	8.3
399.644	8.97
399.853	8.96
400.062	8.9
400.27	9.02
400.479	8.87
400.688	8.42
400.897	8.51
401.106	8.07
401.315	7.91
401.524	8.12
401.733	7.9
401.941	7.88
402.15	8.03
402.359	7.72
402.568	7.56
402.777	7.68
402.985	7.56
403.194	7.32
403.403	7.5
403.612	7.39
403.82	7.35
404.029	7.35
404.238	7.28
404.446	7.36
404.655	7.29
404.864	7.45
405.072	7.4
405.281	7.62
405.489	7.55
405.698	7.57
405.906	7.36
406.115	7.35
406.324	7.19
406.532	7.17
406.741	7.12
406.949	7.22
407.158	7.19
407.366	7.09
407.574	7.01
407.783	7.15
407.991	7.09
408.2	7.01
408.408	7.08
408.617	7.08
408.825	6.98
409.033	7.02
409.242	7.22
409.45	7.18
409.658	7.18
409.867	7.1
410.075	7.05
410.283	6.87
410.491	6.91
410.7	6.95
410.908	7.15
411.116	7.09
411.324	7.1
411.533	7.08
411.741	7.02
411.949	6.96
412.157	7.04
412.365	6.88
412.573	6.86
412.781	6.81
412.99	6.67
413.198	6.53
413.406	6.68
413.614	6.72
413.822	6.83
414.03	6.85
414.238	6.86
414.446	6.97
414.654	6.88
414.862	6.83
415.07	6.67
415.278	6.65
415.486	6.52
415.694	6.6
415.902	6.5
416.109	6.53
416.317	6.54
416.525	6.51
416.733	6.4
416.941	6.46
417.149	6.57
417.357	6.6
417.564	6.54
417.772	6.44
417.98	6.53
418.188	6.53
418.395	6.37
418.603	6.3
418.811	6.43
419.019	6.41
419.226	6.4
419.434	6.44
419.642	6.5
419.849	6.51
420.057	6.28
420.265	6.23
420.472	6.18
420.68	6.2
420.887	6.13
421.095	6.31
421.302	6.3
421.51	6.3
421.717	6.47
421.925	6.44
422.132	6.42
422.34	6.32
422.547	6.22
422.755	6.03
422.962	6.13
423.17	6.08
423.377	6.17
423.585	6.42
423.792	6.4
423.999	6.31
424.207	6.33
424.414	6.2
424.621	6.16
424.829	6.26
425.036	6.26
425.243	6.17
425.451	6.25
425.658	6.22
425.865	6.05
426.072	6.18
426.28	6.24
426.487	6.31
426.694	6.27
426.901	6.2
427.108	6.1
427.315	6.12
427.523	6.14
427.73	6.11
427.937	6.27
428.144	6.19
428.351	6.05
428.558	6.16
428.765	6.29
428.972	6.43
429.179	6.48
429.386	6.54
429.593	6.38
429.8	6.35
430.007	6.28
430.214	6.39
430.421	6.39
430.628	6.47
430.835	6.51
431.042	6.53
431.249	6.56
431.456	6.64
431.662	6.78
431.869	6.88
432.076	6.91
432.283	6.94
432.49	7.02
432.697	7.03
432.903	6.78
433.11	6.66
433.317	6.55
433.524	6.47
433.73	6.42
433.937	6.49
434.144	6.53
434.35	6.64
434.557	6.72
434.764	6.65
434.97	6.71
435.177	6.85
435.384	6.83
435.59	6.79
435.797	6.88
436.003	6.85
436.21	6.83
436.416	6.75
436.623	6.81
436.829	6.78
437.036	6.89
437.242	6.97
437.449	7.03
437.655	7.04
437.862	7.09
438.068	7.03
438.275	6.92
438.481	6.98
438.687	6.93
438.894	7.01
439.1	7.13
439.307	7.31
439.513	7.28
439.719	7.25
439.926	7.07
440.132	7.11
440.338	7.08
440.544	7.11
440.751	7.05
440.957	7.21
441.163	7.15
441.369	7.07
441.575	7.13
441.782	7.23
441.988	7.15
442.194	7.03
442.4	6.99
442.606	6.98
442.812	6.99
443.018	7.01
443.224	7.2
443.431	7.17
443.637	7.18
443.843	7.17
444.049	7.23
444.255	7.11
444.461	7.2
444.667	7.12
444.873	7.1
445.079	7.12
445.284	7.23
445.49	7.21
445.696	7.31
445.902	7.41
446.108	7.36
446.314	7.34
446.52	7.38
446.726	7.43
446.931	7.41
447.137	7.47
447.343	7.51
447.549	7.49
447.755	7.34
447.96	7.47
448.166	7.42
448.372	7.48
448.578	7.61
448.783	7.79
448.989	7.82
449.195	7.72
449.4	7.71
449.606	7.58
449.812	7.6
450.017	7.52
450.223	7.64
450.428	7.57
450.634	7.67
450.84	7.6
451.045	7.51
451.251	7.57
451.456	7.74
451.662	7.67
451.867	7.7
452.073	7.76
452.278	7.73
452.483	7.64
452.689	7.64
452.894	7.59
453.1	7.69
453.305	7.74
453.51	7.75
453.716	7.73
453.921	7.76
454.127	7.68
454.332	7.51
454.537	7.46
454.742	7.62
454.948	7.51
455.153	7.61
455.358	7.8
455.563	7.81
455.769	7.54
455.974	7.68
456.179	7.5
456.384	7.46
456.589	7.44
456.795	7.6
457	7.68
457.205	7.93
457.41	7.97
457.615	8.03
457.82	8.09
458.025	7.95
458.23	7.86
458.435	7.8
458.64	7.82
458.845	7.82
459.05	7.86
459.255	7.82
459.46	7.87
459.665	7.9
459.87	7.95
460.075	8
460.28	8.03
460.485	8.12
460.69	8.09
460.895	8.06
461.099	8.06
461.304	8.03
461.509	7.99
461.714	7.98
461.919	7.94
462.123	7.95
462.328	7.97
462.533	8.01
462.738	8.16
462.942	8.12
463.147	8.15
463.352	8.26
463.556	8.22
463.761	8.11
463.966	8.3
464.17	8.4
464.375	8.26
464.58	8.26
464.784	8.34
464.989	8.2
465.193	8.1
465.398	8.29
465.602	8.36
465.807	8.26
466.011	8.38
466.216	8.42
466.42	8.31
466.625	8.4
466.829	8.49
467.034	8.51
467.238	8.47
467.443	8.48
467.647	8.25
467.851	8.25
468.056	8.24
468.26	8.3
468.464	8.39
468.669	8.58
468.873	8.55
