Data from Ofav_PS_Phys_9GT46_Reflection_3.txt Node
Date: Thu Jul 29 18:26:04 EDT 2021
User: USUARIO
Spectrometer: FLMT01687
Trigger mode: 0
Integration Time (sec): 9.010000E-1
Scans to average: 2
Electric dark correction enabled: true
Nonlinearity correction enabled: false
Boxcar width: 2
XAxis mode: Wavelengths
Number of Pixels in Spectrum: 3648
>>>>>Begin Spectral Data<<<<<
179.494	383.17
179.716	490.99
179.937	326.94
180.158	-1884.18
180.38	-136.02
180.601	-818.64
180.823	-240.14
181.044	-175.66
181.265	-92.22
181.486	-880.79
181.708	79.16
181.929	229.43
182.15	11776.19
182.372	-173.25
182.593	-69.78
182.814	-67.02
183.035	-689
183.257	87.99
183.478	29.1
183.699	23.38
183.92	16.05
184.141	9.78
184.363	16.19
184.584	24.26
184.805	30.51
185.026	53.17
185.247	39.13
185.468	18.65
185.689	7.73
185.91	24.44
186.132	-7.39
186.353	18.05
186.574	55.79
186.795	47.93
187.016	46.58
187.237	22.92
187.458	17.45
187.679	2.18
187.9	6.06
188.121	-15.11
188.342	12.5
188.563	42.43
188.784	49.13
189.005	38.55
189.226	44.12
189.447	52.54
189.667	36.04
189.888	21.43
190.109	29.41
190.33	-54.26
190.551	-59.18
190.772	-35.66
190.993	-12.1
191.214	-22.46
191.434	7.97
191.655	15.65
191.876	1.43
192.097	-48.43
192.318	6.78
192.538	14.32
192.759	32.32
192.98	28.51
193.201	38.44
193.421	29.31
193.642	34.2
193.863	10.8
194.083	-7.37
194.304	-7.41
194.525	6
194.745	-14.83
194.966	-12.02
195.187	10.53
195.407	30.62
195.628	-24.99
195.848	-1.38
196.069	54.93
196.29	34.29
196.51	14.32
196.731	50.97
196.951	34.58
197.172	12.39
197.392	13.12
197.613	-1.42
197.833	-17.39
198.054	-3.8
198.274	-9.45
198.495	-10.78
198.715	-18.22
198.936	-10.51
199.156	0.94
199.377	8.45
199.597	23.22
199.817	45.15
200.038	59.23
200.258	31.35
200.479	18.8
200.699	-39.34
200.919	-20.81
201.14	-49.49
201.36	-35.27
201.58	-12.04
201.801	11.54
202.021	11.9
202.241	20.2
202.461	35.94
202.682	-2.92
202.902	13.14
203.122	12.98
203.342	30.19
203.563	32.57
203.783	48.88
204.003	33.18
204.223	8.26
204.443	10.23
204.663	2.44
204.884	10.19
205.104	-1.9
205.324	21.2
205.544	33.22
205.764	26.86
205.984	57.45
206.204	44.97
206.424	36.48
206.644	9.81
206.864	14.01
207.084	-17.2
207.304	22.02
207.525	31.66
207.745	28.68
207.964	41.45
208.184	32.74
208.404	-26.31
208.624	-11.36
208.844	-6.78
209.064	-17.65
209.284	-19.4
209.504	8.41
209.724	15.59
209.944	31.55
210.164	36.15
210.384	41.06
210.604	46.79
210.823	25.03
211.043	5.16
211.263	23.56
211.483	-1.88
211.703	-23.94
211.922	9.07
212.142	31.24
212.362	24.25
212.582	34.6
212.801	36.83
213.021	8.04
213.241	-6.16
213.461	-16.03
213.68	-46.1
213.9	-28.9
214.12	-3.58
214.339	-24.7
214.559	-23.85
214.779	19.79
214.998	4.06
215.218	-19.22
215.438	30.89
215.657	19.01
215.877	13.46
216.096	9.07
216.316	-7.58
216.535	-56.92
216.755	-62.16
216.974	-131.88
217.194	-71.16
217.413	4.21
217.633	30.73
217.852	4.72
218.072	33.11
218.291	45.23
218.511	42.51
218.73	22.57
218.95	31.71
219.169	29.78
219.389	12.81
219.608	-8.37
219.827	-4.85
220.047	11.69
220.266	9.05
220.485	22.16
220.705	18.78
220.924	-2.53
221.143	-6.77
221.363	-29.87
221.582	-48.68
221.801	-93.66
222.021	-23.28
222.24	-31.77
222.459	-6.08
222.678	-4.56
222.897	-17.34
223.117	-5.59
223.336	2.92
223.555	-3.47
223.774	13.99
223.993	34.6
224.213	36.93
224.432	25.13
224.651	28.15
224.87	18.64
225.089	19.18
225.308	11.49
225.527	16.41
225.746	-18.13
225.965	-27.11
226.184	-31.58
226.404	-43.01
226.623	-9.81
226.842	28.84
227.061	28.21
227.28	43.42
227.499	65.05
227.718	45.63
227.936	28.68
228.155	33.57
228.374	0.32
228.593	-17.62
228.812	-36.01
229.031	-41.14
229.25	-27.12
229.469	-2.74
229.688	7.4
229.907	32.93
230.125	32.3
230.344	33.78
230.563	47.81
230.782	55.58
231.001	20.4
231.22	13.77
231.438	13.91
231.657	-7.43
231.876	-7.08
232.095	1.27
232.313	3.48
232.532	0.02
232.751	2.89
232.969	4.06
233.188	-0.52
233.407	-12.95
233.625	5.3
233.844	-13.14
234.063	-37.53
234.281	-36.14
234.5	-34.14
234.719	-22.98
234.937	1.09
235.156	20.33
235.374	30.46
235.593	44.88
235.811	48.82
236.03	34.13
236.249	30.15
236.467	34.18
236.686	36.97
236.904	26.98
237.123	35.61
237.341	23.42
237.559	16.66
237.778	30.19
237.996	35.87
238.215	45.12
238.433	58.93
238.652	50.11
238.87	35.61
239.088	35.54
239.307	19.01
239.525	24.92
239.743	25.71
239.962	18.1
240.18	24.56
240.398	35
240.617	18.99
240.835	11.78
241.053	26.75
241.271	18.81
241.49	10.81
241.708	16.75
241.926	29.02
242.144	24.98
242.363	23.97
242.581	-2.83
242.799	-12.03
243.017	-11.94
243.235	-25.68
243.453	-30.69
243.672	-7.94
243.89	-4.91
244.108	14.88
244.326	35.08
244.544	19.33
244.762	15.51
244.98	22.47
245.198	9.07
245.416	-30
245.634	-22.06
245.852	-11.15
246.07	3.13
246.288	1.21
246.506	33.55
246.724	29.24
246.942	30.49
247.16	21.3
247.378	-1.12
247.596	11.36
247.814	22.12
248.032	21.88
248.25	21.97
248.468	29.8
248.685	25.42
248.903	24.76
249.121	15.76
249.339	3.18
249.557	7.23
249.775	4.39
249.992	-17.86
250.21	-9.25
250.428	21.45
250.646	11.64
250.863	10.05
251.081	13.9
251.299	22.81
251.517	0.19
251.734	31.85
251.952	15.78
252.17	16.69
252.387	9.22
252.605	18.62
252.823	-16.59
253.04	3.25
253.258	11.92
253.475	-2.56
253.693	6.24
253.911	21.1
254.128	22.14
254.346	13.24
254.563	21.66
254.781	10.94
254.998	-7.21
255.216	-18.15
255.433	-7.02
255.651	-2.7
255.868	-11.66
256.086	-0.59
256.303	7.89
256.521	15.83
256.738	9.11
256.956	15.72
257.173	9.18
257.39	12.54
257.608	-1.49
257.825	19.49
258.043	15.46
258.26	26.34
258.477	4.89
258.695	-4.63
258.912	-20.14
259.129	-19.95
259.346	-37.35
259.564	-42.3
259.781	-19.4
259.998	-16.74
260.216	22.96
260.433	36.86
260.65	38.74
260.867	34.29
261.084	30.8
261.302	-11.77
261.519	-20.81
261.736	-8.07
261.953	-3.29
262.17	5.02
262.387	5.29
262.604	-7.21
262.822	-11.37
263.039	-7.45
263.256	-13.32
263.473	-1.14
263.69	-4.75
263.907	3.98
264.124	-6.25
264.341	10.39
264.558	-5.05
264.775	25.28
264.992	29.17
265.209	26.58
265.426	33.06
265.643	49.36
265.86	34.5
266.077	31.89
266.294	45.02
266.51	20.52
266.727	21.88
266.944	30.11
267.161	-18.78
267.378	-27.18
267.595	-19.89
267.812	-35.17
268.028	-62.6
268.245	-9.19
268.462	-23.9
268.679	-9.6
268.896	-17.31
269.112	-16.28
269.329	-9.14
269.546	8.13
269.763	1.67
269.979	14.56
270.196	34.92
270.413	35.36
270.629	31.01
270.846	40.92
271.063	37.4
271.279	11.31
271.496	3.63
271.712	3.81
271.929	14.85
272.146	28.43
272.362	29.08
272.579	43.65
272.795	47.13
273.012	28.71
273.228	1.43
273.445	24.22
273.661	13.23
273.878	3.39
274.094	25.65
274.311	28.3
274.527	14.65
274.744	33.41
274.96	35.83
275.177	10.31
275.393	20.23
275.609	25.81
275.826	7.44
276.042	6.95
276.259	1.27
276.475	-2
276.691	4.61
276.908	11.01
277.124	13.71
277.34	18.73
277.557	3.78
277.773	-1.93
277.989	-6.64
278.205	-27.77
278.422	-47.71
278.638	-45.02
278.854	-46.92
279.07	-25.67
279.286	-28.76
279.503	8.41
279.719	18.54
279.935	12.62
280.151	-19.72
280.367	-13.96
280.583	-4.34
280.799	-2.77
281.016	10.67
281.232	31.84
281.448	36.66
281.664	45.59
281.88	27.38
282.096	30.27
282.312	15.52
282.528	2.41
282.744	-37.41
282.96	-12.2
283.176	-26.27
283.392	4.45
283.608	3.69
283.824	5.78
284.04	-5.89
284.256	-5.51
284.471	-26.26
284.687	2.4
284.903	13.12
285.119	35.34
285.335	30.12
285.551	37.68
285.767	41.75
285.982	41.84
286.198	29.72
286.414	24.31
286.63	27.95
286.846	20.46
287.061	14.55
287.277	37.63
287.493	44.3
287.709	42.17
287.924	38.18
288.14	33.62
288.356	26.27
288.571	20.95
288.787	7.01
289.003	-5.42
289.218	-17.18
289.434	-16.93
289.65	-10.65
289.865	6.04
290.081	8.02
290.296	14.51
290.512	10.19
290.727	5.49
290.943	2.71
291.159	8.68
291.374	22.93
291.59	13.41
291.805	-2.53
292.021	10.16
292.236	17.87
292.451	-31.96
292.667	-33.47
292.882	-11.01
293.098	-9.86
293.313	-27.31
293.529	10.23
293.744	17.45
293.959	17.78
294.175	21.46
294.39	29.62
294.605	35.07
294.821	40.94
295.036	42.64
295.251	34.2
295.467	29
295.682	30.74
295.897	29.99
296.112	24.84
296.328	19.4
296.543	6.96
296.758	-7.51
296.973	-16.22
297.188	-7.17
297.404	-15.11
297.619	-8.69
297.834	-11.51
298.049	-14.13
298.264	-3.58
298.479	13.38
298.694	10.74
298.909	22.7
299.125	35
299.34	39.83
299.555	28.19
299.77	44.65
299.985	-1.09
300.2	-6.5
300.415	-24.9
300.63	-11.84
300.845	-22.86
301.06	-19.5
301.275	-5.59
301.49	-7.11
301.704	-20.19
301.919	1.44
302.134	30.4
302.349	8.17
302.564	18.55
302.779	16.09
302.994	7.97
303.209	-7.88
303.423	7.67
303.638	8
303.853	20.59
304.068	25.95
304.283	25.69
304.497	26.17
304.712	7.34
304.927	1.91
305.142	-16
305.356	-35.46
305.571	-17.03
305.786	1.4
306	-12.91
306.215	5.56
306.43	14.69
306.644	-17.39
306.859	-40.3
307.074	-23.93
307.288	-39.36
307.503	-15.84
307.717	2.94
307.932	4.39
308.147	-9.82
308.361	-5.02
308.576	-20.48
308.79	-38.18
309.005	-3.56
309.219	22.25
309.434	34.49
309.648	35.71
309.863	51.75
310.077	42.57
310.292	29.99
310.506	14.89
310.72	27.25
310.935	14.17
311.149	14.94
311.364	11.59
311.578	6.9
311.792	-10.56
312.007	-24.11
312.221	-62.55
312.435	-45.89
312.649	-35.42
312.864	-263.36
313.078	-145.3
313.292	-96.46
313.507	-61.12
313.721	-25.45
313.935	17.39
314.149	19.33
314.363	18.89
314.578	12.57
314.792	15.45
315.006	34.38
315.22	23.23
315.434	26.23
315.648	17.32
315.862	3.69
316.077	-12.13
316.291	-7.86
316.505	0.83
316.719	11.7
316.933	26.72
317.147	33.18
317.361	20.15
317.575	15.86
317.789	-5.72
318.003	1.3
318.217	14.75
318.431	16.73
318.645	13.49
318.859	26.63
319.073	8.83
319.287	2.91
319.5	4.74
319.714	12.42
319.928	2.49
320.142	28.57
320.356	39.79
320.57	42.88
320.784	38.07
320.997	35.99
321.211	29.38
321.425	18.12
321.639	16.13
321.853	21.58
322.066	16.89
322.28	10.08
322.494	12.2
322.707	18.9
322.921	-7.76
323.135	-8.9
323.349	13.48
323.562	-3.56
323.776	-2.18
323.989	26.93
324.203	39.72
324.417	21.83
324.63	25.66
324.844	29.58
325.057	19.67
325.271	6.65
325.485	2.49
325.698	7.25
325.912	2.11
326.125	-4.66
326.339	-8.85
326.552	-6.7
326.766	-1.06
326.979	8.18
327.193	9.81
327.406	22.59
327.619	23.45
327.833	25.6
328.046	26.21
328.26	42.78
328.473	28.66
328.686	25.48
328.9	1.64
329.113	-16.7
329.326	-46.3
329.54	-43.1
329.753	-24.41
329.966	-1.02
330.179	-1.57
330.393	10.83
330.606	13.49
330.819	26.4
331.032	20.68
331.246	21.46
331.459	0.63
331.672	-7.13
331.885	-20.97
332.098	0.02
332.311	18.43
332.525	26.59
332.738	22.54
332.951	13.79
333.164	4
333.377	-15.03
333.59	0.01
333.803	19.77
334.016	18.11
334.229	7.17
334.442	11.13
334.655	11.48
334.868	7.39
335.081	32.02
335.294	42.45
335.507	42.34
335.72	41.81
335.933	36.47
336.146	20.45
336.359	23.59
336.572	14.53
336.785	9.21
336.997	15.31
337.21	26.48
337.423	21.1
337.636	22.89
337.849	19.88
338.062	4.16
338.274	-17.25
338.487	-31.04
338.7	-33.64
338.913	-30.25
339.125	-15.59
339.338	-4.78
339.551	5.83
339.763	9.32
339.976	0.01
340.189	7.62
340.402	-10.4
340.614	-37.11
340.827	-31.15
341.039	-4.59
341.252	-10.51
341.465	8.49
341.677	20.07
341.89	4.17
342.102	1.67
342.315	7.68
342.527	1.34
342.74	-0.81
342.952	10.7
343.165	17.01
343.377	14.07
343.59	23.63
343.802	35.09
344.015	32.62
344.227	17.07
344.44	16.61
344.652	13.47
344.864	-23
345.077	0.02
345.289	-12.8
345.502	-19.86
345.714	-29.39
345.926	-15.05
346.139	-46.91
346.351	-27.86
346.563	-4.69
346.775	1.27
346.988	-1.19
347.2	-4.87
347.412	-4.78
347.624	1.51
347.837	-0.45
348.049	8.46
348.261	20.79
348.473	29.04
348.685	15.41
348.897	20.29
349.11	30
349.322	31.79
349.534	38.4
349.746	35.64
349.958	48.51
350.17	15.66
350.382	26.92
350.594	12.25
350.806	32.49
351.018	19.66
351.23	39.26
351.442	27.2
351.654	29.92
351.866	-4.13
352.078	15.59
352.29	7.83
352.502	18.89
352.714	16.18
352.926	24.42
353.138	23.16
353.35	16.73
353.561	6.7
353.773	12.88
353.985	23.06
354.197	10.69
354.409	16.41
354.621	-0.51
354.832	-14.14
355.044	-12.19
355.256	2.51
355.468	-5.09
355.679	12.67
355.891	28.08
356.103	31.43
356.314	35.63
356.526	37.61
356.738	33.08
356.949	21.77
357.161	16.99
357.373	7.58
357.584	5.97
357.796	9.58
358.008	5.1
358.219	10.24
358.431	-6.67
358.642	-15.79
358.854	-18.04
359.065	-6.56
359.277	-13.05
359.488	2.2
359.7	9.45
359.911	15.75
360.123	11.21
360.334	19.94
360.546	7.72
360.757	5.17
360.969	4.56
361.18	21.46
361.391	11.62
361.603	12.4
361.814	30.6
362.025	24.34
362.237	18.03
362.448	25.14
362.659	28.31
362.871	14.24
363.082	7.46
363.293	-4.76
363.504	-9.27
363.716	-13.68
363.927	-21.21
364.138	-37.38
364.349	-20.22
364.56	-15.55
364.772	-15.04
364.983	-6.56
365.194	10.39
365.405	13.98
365.616	2.67
365.827	7
366.038	1.3
366.25	-14.51
366.461	-29.75
366.672	-18.48
366.883	-16.39
367.094	-19.83
367.305	2.8
367.516	12.8
367.727	6.62
367.938	6.64
368.149	16.1
368.36	18.41
368.571	27.9
368.781	28.43
368.992	33.52
369.203	41.17
369.414	36.65
369.625	19.83
369.836	19.42
370.047	13.84
370.258	7.64
370.468	9.85
370.679	-7.48
370.89	-27.05
371.101	-22.8
371.312	-24.03
371.522	-31.51
371.733	-15.09
371.944	-7.36
372.155	-25.97
372.365	-25.04
372.576	-19.44
372.787	-2.55
372.997	-1.81
373.208	5.73
373.419	1.71
373.629	12.73
373.84	13.74
374.05	14.81
374.261	17.61
374.472	17.96
374.682	-3.46
374.893	7.97
375.103	13.86
375.314	21.51
375.524	23.57
375.735	37.65
375.945	22.7
376.156	16.04
376.366	5.29
376.577	15.25
376.787	6.37
376.997	15.96
377.208	20.58
377.418	15.83
377.629	6.07
377.839	16.64
378.049	14.49
378.26	16.35
378.47	25.4
378.68	32.61
378.89	30.25
379.101	26.03
379.311	10.55
379.521	-6.93
379.732	-15.69
379.942	-23.49
380.152	-21.36
380.362	-14.63
380.572	2.46
380.783	-3.79
380.993	-3.2
381.203	-6.7
381.413	-9.65
381.623	-11.05
381.833	15.21
382.043	16.15
382.253	13.07
382.463	19.16
382.674	21.32
382.884	8.46
383.094	0.25
383.304	1.11
383.514	-6.18
383.724	2.98
383.934	-2.38
384.144	6.74
384.353	10.94
384.563	16.18
384.773	9.45
384.983	15.77
385.193	16.07
385.403	8.56
385.613	10.73
385.823	4.72
386.033	4.34
386.242	1.42
386.452	0.41
386.662	-5.36
386.872	0.5
387.082	0.27
387.291	-6.78
387.501	-5.98
387.711	-3.06
387.921	-6.82
388.13	-9.63
388.34	-4.53
388.55	-3.02
388.759	-0.99
388.969	2.04
389.179	3.75
389.388	4.61
389.598	7.67
389.807	4.56
390.017	3.68
390.227	7.97
390.436	6.6
390.646	3.87
390.855	5.27
391.065	5.01
391.274	1.23
391.484	2.42
391.693	1.94
391.903	2.19
392.112	1.68
392.322	2.72
392.531	1.28
392.74	3.05
392.95	2.18
393.159	3.95
393.369	4.69
393.578	5.62
393.787	6.02
393.997	6.74
394.206	5.4
394.415	5.22
394.625	5.86
394.834	4.88
395.043	3.81
395.252	4.38
395.462	3.96
395.671	4.28
395.88	5.11
396.089	5.13
396.298	5.56
396.508	4.82
396.717	3.87
396.926	3.7
397.135	3.67
397.344	3.31
397.553	3.84
397.762	4.23
397.971	4.06
398.181	4.63
398.39	4.35
398.599	4.51
398.808	4.5
399.017	4.7
399.226	4.76
399.435	5.35
399.644	5.77
399.853	6.19
400.062	6.4
400.27	6.47
400.479	6.29
400.688	5.84
400.897	5.52
401.106	5.27
401.315	4.85
401.524	4.78
401.733	4.66
401.941	4.82
402.15	4.94
402.359	4.94
402.568	4.95
402.777	5.14
402.985	5.07
403.194	4.91
403.403	5.02
403.612	4.79
403.82	4.69
404.029	4.54
404.238	4.43
404.446	4.57
404.655	4.71
404.864	4.71
405.072	4.53
405.281	4.56
405.489	4.32
405.698	4.28
405.906	4.22
406.115	4.31
406.324	4.31
406.532	4.32
406.741	4.3
406.949	4.35
407.158	4.39
407.366	4.33
407.574	4.18
407.783	4.2
407.991	4.07
408.2	3.95
408.408	3.88
408.617	4
408.825	4.02
409.033	4.11
409.242	4.26
409.45	4.33
409.658	4.42
409.867	4.36
410.075	4.31
410.283	4.16
410.491	4.07
410.7	4.02
410.908	4.1
411.116	4.13
411.324	4.22
411.533	4.35
411.741	4.29
411.949	4.24
412.157	4.19
412.365	4.02
412.573	3.82
412.781	3.85
412.99	3.82
413.198	3.87
413.406	3.93
413.614	4.15
413.822	4.16
414.03	4.08
414.238	3.98
414.446	4.16
414.654	4.04
414.862	3.99
415.07	3.97
415.278	4.07
415.486	3.81
415.694	3.88
415.902	3.83
416.109	3.85
416.317	3.87
416.525	3.86
416.733	3.82
416.941	3.8
417.149	3.75
417.357	3.56
417.564	3.63
417.772	3.42
417.98	3.55
418.188	3.54
418.395	3.59
418.603	3.51
418.811	3.72
419.019	3.65
419.226	3.94
419.434	3.94
419.642	3.98
419.849	3.92
420.057	3.9
420.265	3.58
420.472	3.5
420.68	3.51
420.887	3.46
421.095	3.47
421.302	3.68
421.51	3.83
421.717	3.79
421.925	3.89
422.132	3.92
422.34	3.66
422.547	3.43
422.755	3.5
422.962	3.46
423.17	3.34
423.377	3.53
423.585	3.73
423.792	3.75
423.999	3.71
424.207	3.78
424.414	3.59
424.621	3.51
424.829	3.29
425.036	3.36
425.243	3.37
425.451	3.4
425.658	3.33
425.865	3.46
426.072	3.32
426.28	3.34
426.487	3.37
426.694	3.36
426.901	3.22
427.108	3.18
427.315	3.09
427.523	3.2
427.73	3.38
427.937	3.48
428.144	3.55
428.351	3.63
428.558	3.69
428.765	3.74
428.972	3.92
429.179	4.08
429.386	4
429.593	3.83
429.8	3.77
430.007	3.73
430.214	3.7
430.421	3.77
430.628	3.9
430.835	3.84
431.042	3.78
431.249	3.74
431.456	3.7
431.662	3.78
431.869	3.92
432.076	3.93
432.283	4.06
432.49	4.04
432.697	3.94
432.903	3.65
433.11	3.65
433.317	3.49
433.524	3.63
433.73	3.54
433.937	3.83
434.144	3.8
434.35	3.83
434.557	3.72
434.764	3.8
434.97	3.68
435.177	3.86
435.384	3.89
435.59	3.99
435.797	4.04
436.003	4.22
436.21	4.11
436.416	4.05
436.623	3.93
436.829	3.91
437.036	3.76
437.242	3.84
437.449	3.96
437.655	4.23
437.862	4.32
438.068	4.33
438.275	4.27
438.481	4.18
438.687	4.03
438.894	4.06
439.1	4.03
439.307	3.99
439.513	4.18
439.719	4.16
439.926	4.02
440.132	4.07
440.338	4.18
440.544	3.97
440.751	3.9
440.957	4.01
441.163	4.11
441.369	4.16
441.575	4.22
441.782	4.32
441.988	4.26
442.194	4.17
442.4	4.08
442.606	4.23
442.812	4.25
443.018	4.3
443.224	4.36
443.431	4.31
443.637	4.33
443.843	4.32
444.049	4.31
444.255	4.3
444.461	4.35
444.667	4.22
444.873	4.16
445.079	4.2
445.284	4.26
445.49	4.21
445.696	4.27
445.902	4.3
446.108	4.23
446.314	4.22
446.52	4.33
446.726	4.29
446.931	4.31
447.137	4.41
447.343	4.33
447.549	4.23
447.755	4.2
447.96	4.35
448.166	4.34
448.372	4.35
448.578	4.45
448.783	4.52
448.989	4.45
449.195	4.35
449.4	4.36
449.606	4.3
449.812	4.32
450.017	4.32
450.223	4.34
450.428	4.33
450.634	4.47
450.84	4.5
451.045	4.4
451.251	4.52
451.456	4.53
451.662	4.47
451.867	4.42
452.073	4.55
452.278	4.4
452.483	4.55
452.689	4.55
452.894	4.54
453.1	4.56
453.305	4.68
453.51	4.55
453.716	4.56
453.921	4.6
454.127	4.53
454.332	4.4
454.537	4.43
454.742	4.45
454.948	4.37
455.153	4.44
455.358	4.6
455.563	4.74
455.769	4.55
455.974	4.69
456.179	4.57
456.384	4.49
456.589	4.43
456.795	4.58
457	4.53
457.205	4.69
457.41	4.74
457.615	4.64
457.82	4.64
458.025	4.62
458.23	4.5
458.435	4.44
458.64	4.49
458.845	4.49
459.05	4.47
459.255	4.48
459.46	4.54
459.665	4.64
459.87	4.58
460.075	4.66
460.28	4.65
460.485	4.67
460.69	4.61
460.895	4.62
461.099	4.62
461.304	4.57
461.509	4.58
461.714	4.57
461.919	4.64
462.123	4.59
462.328	4.7
462.533	4.72
462.738	4.69
462.942	4.62
463.147	4.82
463.352	4.87
463.556	4.91
463.761	4.79
463.966	4.92
464.17	4.84
464.375	4.77
464.58	4.65
464.784	4.85
464.989	4.8
465.193	4.78
465.398	4.89
465.602	5.13
465.807	5.08
466.011	5.15
466.216	5.09
466.42	5.03
466.625	4.99
466.829	5.11
467.034	5.14
467.238	5.14
467.443	5.14
467.647	4.97
