Data from Ofav_PS_Phys_358_Reflection_1.txt Node
Date: Thu Jul 29 18:25:05 EDT 2021
User: USUARIO
Spectrometer: FLMT01687
Trigger mode: 0
Integration Time (sec): 9.010000E-1
Scans to average: 2
Electric dark correction enabled: true
Nonlinearity correction enabled: false
Boxcar width: 2
XAxis mode: Wavelengths
Number of Pixels in Spectrum: 3648
>>>>>Begin Spectral Data<<<<<
179.494	123.17
179.716	108.56
179.937	55.12
180.158	-167.23
180.38	62.84
180.601	-301.31
180.823	-127.14
181.044	-79.9
181.265	-21.51
181.486	-268.93
181.708	149.49
181.929	353.7
182.15	7961.9
182.372	-113.25
182.593	13.2
182.814	36.27
183.035	-166.32
183.257	104.02
183.478	75.21
183.699	82
183.92	67.16
184.141	75.74
184.363	75.64
184.584	43.81
184.805	40.72
185.026	53.61
185.247	42
185.468	44.33
185.689	83.72
185.91	169.42
186.132	227.37
186.353	146.18
186.574	121.18
186.795	117.63
187.016	70.13
187.237	41.35
187.458	32.3
187.679	26.79
187.9	37.54
188.121	78.25
188.342	67.46
188.563	68.11
188.784	65.43
189.005	46.94
189.226	51.35
189.447	66.52
189.667	63.47
189.888	69.65
190.109	113.42
190.33	138.51
190.551	62.76
190.772	78.87
190.993	63.27
191.214	33.44
191.434	39.29
191.655	51.15
191.876	44.37
192.097	46.61
192.318	53.82
192.538	65.74
192.759	54.14
192.98	57.06
193.201	65.49
193.421	62.18
193.642	55.87
193.863	48.29
194.083	33.25
194.304	-9.69
194.525	21.66
194.745	-2.43
194.966	2.91
195.187	16.44
195.407	43.65
195.628	10.63
195.848	69.9
196.069	108.71
196.29	69.24
196.51	63.84
196.731	80.54
196.951	74.1
197.172	71.02
197.392	83.64
197.613	85.17
197.833	52.05
198.054	33.72
198.274	41.25
198.495	31.73
198.715	21.11
198.936	54.42
199.156	49.53
199.377	55.56
199.597	72.01
199.817	86.67
200.038	72.37
200.258	77.91
200.479	85.64
200.699	64.22
200.919	38.25
201.14	15.9
201.36	37.82
201.58	44.14
201.801	45.82
202.021	64.89
202.241	94.81
202.461	110.58
202.682	121.64
202.902	122.69
203.122	111.19
203.342	120.08
203.563	107.28
203.783	92.61
204.003	77.77
204.223	109.47
204.443	70.54
204.663	85.41
204.884	95.61
205.104	110.49
205.324	85.26
205.544	93.67
205.764	78.39
205.984	74.78
206.204	82.84
206.424	76.47
206.644	68.07
206.864	93.03
207.084	75.53
207.304	91.84
207.525	89.8
207.745	123.78
207.964	76.75
208.184	81.73
208.404	57.32
208.624	79.51
208.844	64.45
209.064	82.76
209.284	86.4
209.504	90.38
209.724	111
209.944	96.73
210.164	80.26
210.384	70.43
210.604	63.09
210.823	37.59
211.043	44.74
211.263	77.07
211.483	90.18
211.703	68.52
211.922	88.13
212.142	89.32
212.362	61.86
212.582	54.72
212.801	61.41
213.021	34.81
213.241	23.19
213.461	42.17
213.68	17.29
213.9	6.08
214.12	21.44
214.339	3.59
214.559	-32.64
214.779	17.32
214.998	37.89
215.218	29
215.438	52.17
215.657	67.05
215.877	52.49
216.096	46.71
216.316	58.91
216.535	96.26
216.755	110.41
216.974	118.94
217.194	106.72
217.413	84.42
217.633	75.38
217.852	64.07
218.072	71.41
218.291	52.21
218.511	59.41
218.73	36.02
218.95	31.75
219.169	17.39
219.389	16.33
219.608	3.82
219.827	6.42
220.047	19.02
220.266	24.6
220.485	33.82
220.705	33.21
220.924	22.78
221.143	16.17
221.363	2.56
221.582	-14.55
221.801	-85.31
222.021	-30.02
222.24	-5.82
222.459	9.79
222.678	28.59
222.897	41.87
223.117	49.63
223.336	55.34
223.555	63.46
223.774	85.22
223.993	68.4
224.213	45.12
224.432	50.09
224.651	53.51
224.87	46.07
225.089	55.31
225.308	70.64
225.527	71.45
225.746	72.43
225.965	93.75
226.184	72.61
226.404	93.03
226.623	92.03
226.842	94.98
227.061	89.81
227.28	110.87
227.499	124.73
227.718	169.37
227.936	108.19
228.155	85.42
228.374	49.4
228.593	33.74
228.812	13.09
229.031	12.16
229.25	27.21
229.469	32.74
229.688	19.64
229.907	43.71
230.125	37.22
230.344	33.83
230.563	41.65
230.782	72.11
231.001	26.74
231.22	37.14
231.438	37.81
231.657	39.17
231.876	35.71
232.095	35.37
232.313	37.78
232.532	33.42
232.751	15.98
232.969	28.13
233.188	45.77
233.407	47.97
233.625	55.27
233.844	77.9
234.063	63.33
234.281	73.78
234.5	75.69
234.719	80.22
234.937	73.4
235.156	96.29
235.374	83.85
235.593	90.18
235.811	80.59
236.03	53.74
236.249	52.03
236.467	44.94
236.686	43.92
236.904	39.94
237.123	49.47
237.341	29.49
237.559	12.5
237.778	6.37
237.996	21.75
238.215	21.89
238.433	37.06
238.652	58.75
238.87	56.38
239.088	59.65
239.307	52
239.525	46.46
239.743	33.95
239.962	29.97
240.18	29.82
240.398	39.32
240.617	32.7
240.835	35.53
241.053	30.98
241.271	21.69
241.49	25.78
241.708	37.44
241.926	48.73
242.144	44.67
242.363	48.29
242.581	47.23
242.799	60.3
243.017	38.79
243.235	49.4
243.453	52.99
243.672	38.9
243.89	20.75
244.108	37.91
244.326	61.19
244.544	34.69
244.762	55.83
244.98	64.16
245.198	75.36
245.416	43.63
245.634	70.17
245.852	71.3
246.07	62.78
246.288	51.38
246.506	65.44
246.724	87.02
246.942	76.32
247.16	80.06
247.378	75
247.596	73.71
247.814	31.46
248.032	20.1
248.25	25.76
248.468	26.87
248.685	20.7
248.903	51.35
249.121	56.27
249.339	28.93
249.557	44.98
249.775	50.51
249.992	20.13
250.21	28.89
250.428	75.94
250.646	77.62
250.863	78.98
251.081	70.49
251.299	82.38
251.517	55.21
251.734	64.09
251.952	65.1
252.17	90.76
252.387	80.51
252.605	87.94
252.823	55.36
253.04	60.95
253.258	58.17
253.475	67.37
253.693	67.11
253.911	76.15
254.128	80.34
254.346	46.08
254.563	34.17
254.781	19.89
254.998	39.26
255.216	5.68
255.433	47.61
255.651	54.25
255.868	37.36
256.086	24.87
256.303	51.21
256.521	47.81
256.738	41.05
256.956	59.66
257.173	58.25
257.39	53.87
257.608	56.25
257.825	68.57
258.043	45.87
258.26	41.19
258.477	30.2
258.695	17.57
258.912	13.06
259.129	33.2
259.346	48.74
259.564	70.79
259.781	63.38
259.998	50.92
260.216	71.34
260.433	71.52
260.65	62.66
260.867	73.72
261.084	68.44
261.302	54.1
261.519	55.38
261.736	45.2
261.953	32.25
262.17	53.3
262.387	47.02
262.604	29.12
262.822	26.75
263.039	36.53
263.256	29.98
263.473	32.58
263.69	44.55
263.907	72.96
264.124	90.85
264.341	73.89
264.558	82.28
264.775	77.86
264.992	83.34
265.209	45.21
265.426	55.68
265.643	58.99
265.86	55.19
266.077	41.39
266.294	54.29
266.51	48.47
266.727	55.8
266.944	66.35
267.161	21.56
267.378	19.86
267.595	38.53
267.812	13.8
268.028	-19.72
268.245	57.06
268.462	54.13
268.679	34.79
268.896	32.38
269.112	42.3
269.329	29.4
269.546	33.56
269.763	28.87
269.979	33.5
270.196	39.97
270.413	43.91
270.629	38.32
270.846	36.01
271.063	40.18
271.279	40.09
271.496	25.74
271.712	34.43
271.929	60.57
272.146	79.51
272.362	63.8
272.579	83.37
272.795	83.27
273.012	49.01
273.228	25.73
273.445	44.03
273.661	22.79
273.878	4.71
274.094	26.37
274.311	38.28
274.527	33.78
274.744	45.19
274.96	50.43
275.177	41.65
275.393	27.82
275.609	18.12
275.826	0.24
276.042	4.06
276.259	-10.52
276.475	-9.23
276.691	16.65
276.908	19.1
277.124	22.93
277.34	44.11
277.557	47.02
277.773	36.54
277.989	40.59
278.205	37.12
278.422	19.12
278.638	23.56
278.854	21.45
279.07	51.62
279.286	19.19
279.503	36.3
279.719	37.69
279.935	29.2
280.151	0.46
280.367	29.64
280.583	20.87
280.799	15.44
281.016	39.79
281.232	61.15
281.448	59.11
281.664	61.83
281.88	55.31
282.096	48.07
282.312	17.55
282.528	9.64
282.744	29.11
282.96	39.25
283.176	41.71
283.392	66.63
283.608	64.3
283.824	55.28
284.04	56.97
284.256	63.52
284.471	58.71
284.687	62.35
284.903	40.95
285.119	56.31
285.335	43.7
285.551	48.49
285.767	51.27
285.982	52.55
286.198	40.28
286.414	51.48
286.63	53.6
286.846	58.66
287.061	51.54
287.277	68.19
287.493	52.24
287.709	57.27
287.924	51.41
288.14	64.99
288.356	58.13
288.571	61.41
288.787	47.62
289.003	49.99
289.218	38.75
289.434	34.11
289.65	41.7
289.865	41.04
290.081	32.95
290.296	44.79
290.512	42.79
290.727	24.41
290.943	36.36
291.159	36.54
291.374	36.22
291.59	36.19
291.805	37.21
292.021	47.9
292.236	38.95
292.451	-1.22
292.667	5.02
292.882	15.91
293.098	1.58
293.313	5.95
293.529	41.96
293.744	34.58
293.959	29.2
294.175	48
294.39	55.13
294.605	55.05
294.821	54.57
295.036	56.13
295.251	48.02
295.467	42.4
295.682	40.06
295.897	42.9
296.112	38.3
296.328	38.97
296.543	36.49
296.758	42.86
296.973	41.88
297.188	55.81
297.404	44.58
297.619	55.83
297.834	38.57
298.049	39.38
298.264	33.29
298.479	54.22
298.694	37.91
298.909	54.43
299.125	52.11
299.34	71.21
299.555	53.75
299.77	62.56
299.985	26.02
300.2	37.08
300.415	17.75
300.63	32.39
300.845	43.82
301.06	47.64
301.275	79.73
301.49	62.47
301.704	28.28
301.919	20.65
302.134	26.56
302.349	7.11
302.564	23.38
302.779	30.85
302.994	44.43
303.209	46.5
303.423	49.9
303.638	55.06
303.853	68.8
304.068	43.03
304.283	44.67
304.497	49.12
304.712	35.58
304.927	37.88
305.142	26.56
305.356	21.22
305.571	33.05
305.786	36.22
306	21.79
306.215	38.41
306.43	44.41
306.644	23.48
306.859	29.09
307.074	40.43
307.288	40.7
307.503	50.09
307.717	47.39
307.932	36.58
308.147	38.79
308.361	30.46
308.576	34.01
308.79	23.28
309.005	54.08
309.219	48.67
309.434	59.67
309.648	39.84
309.863	50.23
310.077	41.77
310.292	46.21
310.506	37.09
310.72	56.35
310.935	57.63
311.149	59.42
311.364	66.46
311.578	74.55
311.792	55.28
312.007	44.38
312.221	28.26
312.435	17.27
312.649	21.54
312.864	-8.89
313.078	25.17
313.292	6.24
313.507	4.93
313.721	30.12
313.935	26.59
314.149	23.99
314.363	29.89
314.578	39.46
314.792	24
315.006	41.32
315.22	48.36
315.434	57.9
315.648	50.86
315.862	50.16
316.077	47.37
316.291	46.87
316.505	50.61
316.719	59.44
316.933	54.64
317.147	38.81
317.361	26.84
317.575	16.35
317.789	13.99
318.003	22.34
318.217	41.52
318.431	49.67
318.645	48.77
318.859	58.96
319.073	51.2
319.287	32.32
319.5	10.52
319.714	22.88
319.928	13.7
320.142	45.33
320.356	62.5
320.57	76.65
320.784	64.91
320.997	48.65
321.211	31.56
321.425	18.99
321.639	13.66
321.853	14.94
322.066	-6.79
322.28	-5.66
322.494	3.09
322.707	15.51
322.921	15.27
323.135	31.83
323.349	25.48
323.562	12.99
323.776	9.01
323.989	13.59
324.203	24
324.417	38.4
324.63	39.13
324.844	30.84
325.057	30.91
325.271	29.64
325.485	36.94
325.698	47.28
325.912	53.14
326.125	41.35
326.339	41.52
326.552	24.2
326.766	32.27
326.979	39.68
327.193	52.77
327.406	62.4
327.619	51.26
327.833	39.18
328.046	30.53
328.26	43.4
328.473	24.63
328.686	27.71
328.9	29.03
329.113	7.66
329.326	-24.44
329.54	-49.81
329.753	-16.44
329.966	-2.53
330.179	4.32
330.393	1.38
330.606	14.17
330.819	26.96
331.032	22.09
331.246	23.41
331.459	4.99
331.672	18.06
331.885	11.52
332.098	20.27
332.311	32.61
332.525	50.94
332.738	46.95
332.951	32.55
333.164	30.74
333.377	37.94
333.59	42.72
333.803	52.96
334.016	55.56
334.229	60.28
334.442	48.21
334.655	48.43
334.868	41.06
335.081	47.41
335.294	46.86
335.507	59.25
335.72	63.19
335.933	56.07
336.146	66.64
336.359	61.48
336.572	31.96
336.785	24.03
336.997	29.93
337.21	21.19
337.423	46.6
337.636	60.63
337.849	57.15
338.062	51.38
338.274	68.14
338.487	43.43
338.7	30.09
338.913	24.83
339.125	33.2
339.338	20.2
339.551	21.65
339.763	35.16
339.976	31.27
340.189	31.5
340.402	29.06
340.614	15.27
340.827	13.67
341.039	33.48
341.252	33.73
341.465	40.08
341.677	42.88
341.89	36.79
342.102	32.79
342.315	38.24
342.527	37.76
342.74	46.88
342.952	44.86
343.165	56.22
343.377	48.49
343.59	56.54
343.802	46.9
344.015	46.5
344.227	23.27
344.44	34.89
344.652	35.53
344.864	39.63
345.077	43.45
345.289	54.64
345.502	54.22
345.714	27.5
345.926	26.77
346.139	12.69
346.351	19.41
346.563	15.05
346.775	16.05
346.988	14.67
347.2	16.55
347.412	14.73
347.624	30.11
347.837	31.64
348.049	32.86
348.261	55.02
348.473	49.7
348.685	44.16
348.897	51.63
349.11	41.3
349.322	27.62
349.534	33.71
349.746	25.1
349.958	17.4
350.17	30.26
350.382	34.21
350.594	23.45
350.806	25.82
351.018	22.67
351.23	15.89
351.442	17.81
351.654	37.78
351.866	13.83
352.078	31.8
352.29	26.74
352.502	26.43
352.714	21.55
352.926	42.97
353.138	57.25
353.35	48.3
353.561	45.84
353.773	38.19
353.985	40.86
354.197	28.78
354.409	32.96
354.621	18.16
354.832	2.31
355.044	-3.46
355.256	9.34
355.468	20.76
355.679	43.25
355.891	42.89
356.103	56.79
356.314	54.45
356.526	46.09
356.738	42.73
356.949	50.6
357.161	45.28
357.373	50.06
357.584	60.84
357.796	70.22
358.008	70.84
358.219	56.98
358.431	47.92
358.642	48.26
358.854	36.17
359.065	39.2
359.277	32.92
359.488	28.01
359.7	23.82
359.911	30.32
360.123	24.56
360.334	42.4
360.546	44
360.757	32.91
360.969	36.76
361.18	41.44
361.391	35.53
361.603	29.11
361.814	53.43
362.025	36.03
362.237	39.35
362.448	34.8
362.659	33.26
362.871	32.17
363.082	49.77
363.293	47.3
363.504	44.92
363.716	41.61
363.927	42.33
364.138	16.31
364.349	11.33
364.56	29.46
364.772	36.72
364.983	23.5
365.194	44.31
365.405	46.14
365.616	34.03
365.827	29.96
366.038	29.67
366.25	24.25
366.461	19.53
366.672	15.25
366.883	21.02
367.094	10.5
367.305	9.74
367.516	20.43
367.727	22.2
367.938	20.91
368.149	25.62
368.36	23.88
368.571	18.05
368.781	13.53
368.992	5.48
369.203	15.41
369.414	18.12
369.625	28.98
369.836	32.12
370.047	28.7
370.258	31.81
370.468	27.73
370.679	5.48
370.89	-6.98
371.101	9.68
371.312	3.02
371.522	14.3
371.733	34.12
371.944	38.26
372.155	31.69
372.365	17.2
372.576	4.88
372.787	5.02
372.997	14.75
373.208	15.37
373.419	24.56
373.629	35.53
373.84	35.93
374.05	25.48
374.261	40.21
374.472	30.31
374.682	18.49
374.893	19.76
375.103	31.94
375.314	28.06
375.524	40.05
375.735	47.69
375.945	45.64
376.156	35.18
376.366	22.62
376.577	27.36
376.787	22.91
376.997	20.18
377.208	20.05
377.418	27.13
377.629	24.95
377.839	26.53
378.049	32.29
378.26	31.42
378.47	32.88
378.68	32.17
378.89	28.32
379.101	25.61
379.311	29.97
379.521	27.58
379.732	28.29
379.942	28.88
380.152	28.33
380.362	30.16
380.572	30.97
380.783	16.27
380.993	22.76
381.203	36.12
381.413	32.98
381.623	27.13
381.833	43.26
382.043	40.94
382.253	34.54
382.463	34.71
382.674	39.05
382.884	28.42
383.094	12.48
383.304	12.36
383.514	8.96
383.724	16.27
383.934	12.98
384.144	24.64
384.353	28.94
384.563	32.55
384.773	26.17
384.983	32.21
385.193	32.73
385.403	21.95
385.613	24.12
385.823	21.25
386.033	19.29
386.242	14.73
386.452	15.84
386.662	11.49
386.872	18.48
387.082	16.47
387.291	12.18
387.501	12.43
387.711	13.44
387.921	5.91
388.13	4.14
388.34	8.99
388.55	9.68
388.759	9.71
388.969	10.73
389.179	13.1
389.388	10.27
389.598	10.36
389.807	7.66
390.017	9.61
390.227	13.2
390.436	13.18
390.646	12.74
390.855	15.21
391.065	12.58
391.274	7.05
391.484	6.54
391.693	5.89
391.903	4.99
392.112	6.17
392.322	7.66
392.531	7.23
392.74	5.71
392.95	5.02
393.159	6.29
393.369	8.04
393.578	8.37
393.787	9.81
393.997	9.14
394.206	8.34
394.415	7.7
394.625	8.02
394.834	6.34
395.043	6.44
395.252	7.31
395.462	6.75
395.671	7.14
395.88	9.18
396.089	9.78
396.298	9.13
396.508	8.9
396.717	8.36
396.926	7.84
397.135	7.2
397.344	6.8
397.553	7.07
397.762	7.59
397.971	7.17
398.181	7.26
398.39	6.7
398.599	6.8
398.808	6.61
399.017	7.36
399.226	7.79
399.435	8.31
399.644	8.44
399.853	8.53
400.062	8.34
400.27	8.46
400.479	8.38
400.688	8.13
400.897	7.88
401.106	7.58
401.315	6.99
401.524	7.11
401.733	7.01
401.941	6.95
402.15	7.12
402.359	7.06
402.568	6.94
402.777	6.83
402.985	6.93
403.194	6.66
403.403	6.72
403.612	6.63
403.82	6.84
404.029	6.69
404.238	6.62
404.446	6.68
404.655	6.58
404.864	6.41
405.072	6.36
405.281	6.4
405.489	6.21
405.698	6.28
405.906	6.22
406.115	6.21
406.324	6.12
406.532	6.17
406.741	6.15
406.949	6.17
407.158	6.08
407.366	6.14
407.574	6.01
407.783	5.98
407.991	5.81
408.2	5.9
408.408	5.93
408.617	5.98
408.825	5.9
409.033	6.12
409.242	6.16
409.45	6.05
409.658	6.1
409.867	6.05
410.075	5.91
410.283	5.76
410.491	5.7
410.7	5.74
410.908	5.89
411.116	5.91
411.324	5.9
411.533	5.95
411.741	5.93
411.949	5.94
412.157	5.77
412.365	5.7
412.573	5.57
412.781	5.51
412.99	5.34
413.198	5.37
413.406	5.48
413.614	5.59
413.822	5.58
414.03	5.6
414.238	5.65
414.446	5.6
414.654	5.59
414.862	5.54
415.07	5.36
415.278	5.24
415.486	5.21
415.694	5.22
415.902	5.17
416.109	5.24
416.317	5.32
416.525	5.3
416.733	5.35
416.941	5.42
417.149	5.42
417.357	5.31
417.564	5.3
417.772	5.14
417.98	5.14
418.188	5.17
418.395	5.19
418.603	4.98
418.811	5.12
419.019	5.18
419.226	5.39
419.434	5.43
419.642	5.49
419.849	5.37
420.057	5.24
420.265	4.96
420.472	5.01
420.68	5.12
420.887	5.08
421.095	5.05
421.302	5.17
421.51	5.26
421.717	5.23
421.925	5.29
422.132	5.3
422.34	4.99
422.547	4.75
422.755	4.88
422.962	4.96
423.17	4.78
423.377	5.09
423.585	5.24
423.792	5.1
423.999	4.95
424.207	5.17
424.414	4.97
424.621	4.95
424.829	4.96
425.036	4.94
425.243	5.01
425.451	5.12
425.658	5.07
425.865	5.03
426.072	5
426.28	5.06
426.487	5.05
426.694	5.04
426.901	4.89
427.108	5.04
427.315	4.94
427.523	4.92
427.73	4.96
427.937	5.19
428.144	5.03
428.351	4.89
428.558	4.98
428.765	4.98
428.972	4.95
429.179	4.98
429.386	5.03
429.593	5.08
429.8	5.1
430.007	5.19
430.214	5.26
430.421	5.34
430.628	5.29
430.835	5.16
431.042	5.08
431.249	5.2
431.456	5.1
431.662	5.24
431.869	5.48
432.076	5.55
432.283	5.47
432.49	5.5
432.697	5.4
432.903	5.22
433.11	5.08
433.317	5.01
433.524	5.12
433.73	5.05
433.937	5.14
434.144	5.26
434.35	5.52
434.557	5.43
434.764	5.46
434.97	5.43
435.177	5.49
435.384	5.23
435.59	5.19
435.797	5.15
436.003	5.19
436.21	5.14
436.416	5.21
436.623	5.31
436.829	5.37
437.036	5.39
437.242	5.52
437.449	5.61
437.655	5.6
437.862	5.74
438.068	5.75
438.275	5.71
438.481	5.64
438.687	5.59
438.894	5.54
439.1	5.55
439.307	5.51
439.513	5.54
439.719	5.5
439.926	5.5
440.132	5.57
440.338	5.53
440.544	5.48
440.751	5.48
440.957	5.51
441.163	5.54
441.369	5.71
441.575	5.74
441.782	5.78
441.988	5.73
442.194	5.72
442.4	5.63
442.606	5.85
442.812	5.95
443.018	6.02
443.224	6.03
443.431	6.03
443.637	5.82
443.843	5.81
444.049	5.81
444.255	5.83
444.461	5.9
444.667	5.85
444.873	5.76
445.079	5.7
445.284	5.61
445.49	5.51
445.696	5.59
445.902	5.64
446.108	5.58
446.314	5.65
446.52	5.75
446.726	5.8
446.931	5.89
447.137	5.99
447.343	5.98
447.549	6
447.755	5.93
447.96	6
448.166	6.06
448.372	6.02
448.578	5.97
448.783	6.08
448.989	6.08
449.195	5.95
449.4	6
449.606	6.1
449.812	6.05
450.017	5.95
450.223	5.95
450.428	5.93
450.634	5.86
450.84	5.95
451.045	5.91
451.251	6.03
451.456	6.13
451.662	6.11
451.867	6.11
452.073	6.17
452.278	6.12
452.483	6
452.689	6.14
452.894	6.1
453.1	6.17
453.305	6.27
453.51	6.33
453.716	6.25
453.921	6.3
454.127	6.31
454.332	6.14
454.537	6.19
454.742	6.28
454.948	6.16
455.153	6.09
455.358	6.2
455.563	6.11
455.769	5.92
455.974	6.07
456.179	6.01
456.384	5.99
456.589	6.21
456.795	6.3
457	6.33
457.205	6.55
457.41	6.53
457.615	6.41
457.82	6.55
458.025	6.47
458.23	6.32
458.435	6.36
458.64	6.32
458.845	6.23
459.05	6.28
459.255	6.36
459.46	6.5
459.665	6.69
459.87	6.75
460.075	6.67
460.28	6.64
460.485	6.67
460.69	6.51
460.895	6.38
461.099	6.46
461.304	6.52
461.509	6.43
461.714	6.47
461.919	6.54
462.123	6.53
462.328	6.49
462.533	6.56
462.738	6.61
462.942	6.54
463.147	6.58
463.352	6.65
463.556	6.68
463.761	6.62
463.966	6.82
464.17	6.87
464.375	6.83
464.58	6.77
464.784	6.86
464.989	6.74
465.193	6.78
465.398	6.83
465.602	6.9
465.807	6.9
466.011	7.05
466.216	7.01
466.42	7.03
466.625	7.17
466.829	7.28
467.034	7.27
467.238	7.27
467.443	7.26
467.647	7.04
467.851	6.99
468.056	6.91
