Data from Ofav_PS_Phys_356_Reflection_2.txt Node
Date: Thu Jul 29 18:18:05 EDT 2021
User: USUARIO
Spectrometer: FLMT01687
Trigger mode: 0
Integration Time (sec): 9.010000E-1
Scans to average: 2
Electric dark correction enabled: true
Nonlinearity correction enabled: false
Boxcar width: 2
XAxis mode: Wavelengths
Number of Pixels in Spectrum: 3648
>>>>>Begin Spectral Data<<<<<
179.494	-57.78
179.716	-103.6
179.937	-26.64
180.158	514.12
180.38	145.13
180.601	-280.84
180.823	-185.96
181.044	-67.95
181.265	-71.63
181.486	-1140.11
181.708	84.74
181.929	223.99
182.15	9076.19
182.372	-89.25
182.593	-4.93
182.814	49.73
183.035	-230.24
183.257	15.02
183.478	-0.07
183.699	46.38
183.92	57.43
184.141	50.23
184.363	52.77
184.584	71.74
184.805	42.24
185.026	58.98
185.247	50.1
185.468	70.44
185.689	67.77
185.91	103.6
186.132	72.58
186.353	68.95
186.574	64.13
186.795	59.96
187.016	60.16
187.237	38.43
187.458	32.96
187.679	35.02
187.9	25.34
188.121	1.18
188.342	20.17
188.563	31
188.784	28.86
189.005	22.57
189.226	32.28
189.447	39.09
189.667	17.03
189.888	24.84
190.109	59.35
190.33	55.61
190.551	21.65
190.772	41.15
190.993	20.85
191.214	-4.24
191.434	26.31
191.655	37.91
191.876	51.75
192.097	39.26
192.318	59.2
192.538	30.93
192.759	36.72
192.98	26.8
193.201	41.24
193.421	48.7
193.642	55.73
193.863	27.45
194.083	5.23
194.304	6.37
194.525	-4.98
194.745	-10.98
194.966	1.14
195.187	5.79
195.407	-14.38
195.628	-29.13
195.848	9.1
196.069	68.55
196.29	67.58
196.51	83.35
196.731	65.44
196.951	47.93
197.172	7.65
197.392	-0.49
197.613	-2.93
197.833	-34.29
198.054	-10.44
198.274	-7.45
198.495	4.84
198.715	-32.47
198.936	18.53
199.156	23.44
199.377	17.36
199.597	8.44
199.817	42.93
200.038	34.14
200.258	20.93
200.479	12.03
200.699	-8.45
200.919	12.28
201.14	-2.89
201.36	2.2
201.58	15.08
201.801	24.98
202.021	39.57
202.241	44.57
202.461	49.85
202.682	38.35
202.902	48.99
203.122	11.26
203.342	10.88
203.563	19.75
203.783	37.38
204.003	15.48
204.223	23.14
204.443	9.83
204.663	3.27
204.884	4.5
205.104	-0.38
205.324	1.54
205.544	28.71
205.764	31.24
205.984	49.77
206.204	73.87
206.424	99.8
206.644	75.01
206.864	74.54
207.084	39.15
207.304	37.78
207.525	5.89
207.745	15.9
207.964	15.83
208.184	21.65
208.404	0.69
208.624	17.16
208.844	48.43
209.064	51.08
209.284	74.67
209.504	66.89
209.724	79.54
209.944	71.67
210.164	79.77
210.384	60.39
210.604	62.09
210.823	55.81
211.043	39.05
211.263	37.27
211.483	18.45
211.703	3.91
211.922	-2.3
212.142	10.96
212.362	10.62
212.582	41.47
212.801	41.22
213.021	36.05
213.241	28.67
213.461	14.56
213.68	-30.27
213.9	6.21
214.12	21.56
214.339	5.77
214.559	-10.15
214.779	12.38
214.998	-37.09
215.218	-45.11
215.438	2.44
215.657	32.03
215.877	45.48
216.096	61.76
216.316	56.43
216.535	83.13
216.755	28.74
216.974	-19.89
217.194	-50.13
217.413	-22.58
217.633	-3.26
217.852	-2.1
218.072	24.9
218.291	26.64
218.511	46.05
218.73	32.34
218.95	39.35
219.169	35.57
219.389	30.16
219.608	15.53
219.827	-4.33
220.047	7.76
220.266	-7.7
220.485	9.71
220.705	1.3
220.924	-7.05
221.143	-8.17
221.363	-14.56
221.582	-45.82
221.801	-61.01
222.021	0.38
222.24	-6.6
222.459	3.28
222.678	23.56
222.897	21.62
223.117	20.77
223.336	14.22
223.555	-8.53
223.774	-10.27
223.993	-16.07
224.213	-14.2
224.432	0.99
224.651	34.96
224.87	24.75
225.089	27.53
225.308	24.13
225.527	21.1
225.746	-16.23
225.965	-5.88
226.184	-25.46
226.404	-33.87
226.623	13.73
226.842	38.16
227.061	19.35
227.28	64.28
227.499	114.69
227.718	89.7
227.936	66.3
228.155	61.56
228.374	20.62
228.593	5.77
228.812	-0.25
229.031	-0.29
229.25	8.27
229.469	23.83
229.688	22.78
229.907	43.35
230.125	27.25
230.344	39.16
230.563	24.85
230.782	36.74
231.001	15.63
231.22	41.47
231.438	29.82
231.657	29.22
231.876	26.53
232.095	18.35
232.313	6.71
232.532	8.1
232.751	2.3
232.969	2.23
233.188	2.4
233.407	13.22
233.625	12.44
233.844	30.14
234.063	21.21
234.281	1.86
234.5	-31.8
234.719	-25.65
234.937	-46.6
235.156	-56.69
235.374	3.5
235.593	32.24
235.811	30.55
236.03	17.65
236.249	20.22
236.467	10.55
236.686	8.68
236.904	18.16
237.123	31.76
237.341	33.03
237.559	35.98
237.778	42.94
237.996	49.28
238.215	62.07
238.433	65.17
238.652	63.59
238.87	51.35
239.088	44.67
239.307	20.89
239.525	20.39
239.743	20.96
239.962	32.97
240.18	29.62
240.398	31.18
240.617	14.13
240.835	-3.5
241.053	-5.88
241.271	-10.84
241.49	12.81
241.708	24.36
241.926	33.64
242.144	17.41
242.363	21.83
242.581	8
242.799	11.2
243.017	18.5
243.235	22.94
243.453	21.32
243.672	18.65
243.89	7.45
244.108	9.08
244.326	21.38
244.544	3.26
244.762	13.78
244.98	29.39
245.198	16.64
245.416	-10.04
245.634	4.59
245.852	18.41
246.07	15.97
246.288	26.51
246.506	36.71
246.724	39.59
246.942	23.43
247.16	29.77
247.378	11.86
247.596	6.57
247.814	-1.19
248.032	-2.84
248.25	-7.84
248.468	-4.76
248.685	-3.36
248.903	2.32
249.121	3.35
249.339	-6.78
249.557	6.78
249.775	15.18
249.992	5.63
250.21	-0.45
250.428	24.13
250.646	10.07
250.863	14.51
251.081	26.57
251.299	43.27
251.517	36.91
251.734	63.09
251.952	63.67
252.17	42.11
252.387	32.98
252.605	39.09
252.823	24.27
253.04	42.64
253.258	50.08
253.475	41.53
253.693	44.31
253.911	42.15
254.128	35.01
254.346	53.07
254.563	70.21
254.781	52.78
254.998	53.38
255.216	41.02
255.433	27.93
255.651	12.66
255.868	14.09
256.086	5.81
256.303	2.99
256.521	-4.87
256.738	-6.04
256.956	-5.4
257.173	3.31
257.39	26.44
257.608	29.32
257.825	51.97
258.043	43.04
258.26	20.38
258.477	-0.48
258.695	-12.18
258.912	-20.57
259.129	-14.6
259.346	7.98
259.564	1.73
259.781	7.31
259.998	3.95
260.216	20.84
260.433	18.22
260.65	19.66
260.867	25.72
261.084	20.43
261.302	8.63
261.519	14.8
261.736	22.54
261.953	10.1
262.17	31.59
262.387	28.39
262.604	28.68
262.822	13.59
263.039	13.52
263.256	2.39
263.473	12.55
263.69	-18.42
263.907	7.61
264.124	12.5
264.341	13.79
264.558	9.44
264.775	22.62
264.992	20.74
265.209	22.81
265.426	26.52
265.643	37.32
265.86	51.57
266.077	56.93
266.294	58.25
266.51	42.98
266.727	37.56
266.944	38.22
267.161	21.16
267.378	15.25
267.595	36.11
267.812	34.97
268.028	1.04
268.245	22.25
268.462	34.23
268.679	29.59
268.896	18.46
269.112	21.85
269.329	21.79
269.546	22.28
269.763	16.27
269.979	21.87
270.196	35.67
270.413	27.97
270.629	32.14
270.846	32.57
271.063	39.75
271.279	45.93
271.496	33.82
271.712	27.65
271.929	23.3
272.146	29.58
272.362	20.52
272.579	48.86
272.795	48.49
273.012	47.93
273.228	33.61
273.445	35.42
273.661	22.7
273.878	10.1
274.094	30.05
274.311	32.05
274.527	20.53
274.744	35.05
274.96	43.81
275.177	31.84
275.393	33.37
275.609	22.33
275.826	-9.57
276.042	-9.58
276.259	-14.37
276.475	-27.93
276.691	12.13
276.908	19.18
277.124	21.24
277.34	16.54
277.557	13.04
277.773	2.5
277.989	-1.6
278.205	-8.27
278.422	-5.27
278.638	-9.82
278.854	-19.21
279.07	13.18
279.286	9.43
279.503	5.73
279.719	22.7
279.935	29.44
280.151	-11.08
280.367	1.38
280.583	29.49
280.799	13.46
281.016	0.41
281.232	20.82
281.448	5.18
281.664	-7.51
281.88	-16.06
282.096	-2.59
282.312	-18.78
282.528	-9.39
282.744	-2.59
282.96	23.98
283.176	-6.86
283.392	24.98
283.608	5.16
283.824	-4.51
284.04	-9.16
284.256	16.74
284.471	-12.68
284.687	-6.93
284.903	-14.97
285.119	7.07
285.335	2.68
285.551	20.45
285.767	37.19
285.982	41.24
286.198	26.3
286.414	22.39
286.63	23.92
286.846	20.94
287.061	9.25
287.277	24.65
287.493	19.8
287.709	-0.03
287.924	2.1
288.14	5.07
288.356	6.97
288.571	19.36
288.787	21.46
289.003	27.15
289.218	20.81
289.434	7.54
289.65	-0.54
289.865	14.44
290.081	1.68
290.296	16.83
290.512	16.76
290.727	37.34
290.943	23.44
291.159	36.61
291.374	38.53
291.59	28.4
291.805	4.78
292.021	7.87
292.236	1.49
292.451	-25.54
292.667	-5.18
292.882	-6.85
293.098	-10.85
293.313	-9.3
293.529	10.64
293.744	4.9
293.959	6.72
294.175	28.32
294.39	25.05
294.605	21.1
294.821	26.64
295.036	35.61
295.251	18.41
295.467	22.77
295.682	13.55
295.897	5.83
296.112	7.05
296.328	21.23
296.543	9.39
296.758	15.03
296.973	21.62
297.188	33.15
297.404	10.8
297.619	21.83
297.834	23.64
298.049	24.29
298.264	26.97
298.479	44.3
298.694	32.93
298.909	34.41
299.125	21.26
299.34	16.54
299.555	-20.2
299.77	-3.29
299.985	-22.07
300.2	-13.07
300.415	-5.86
300.63	14.36
300.845	-6.99
301.06	2.88
301.275	13.49
301.49	-12.01
301.704	-24.58
301.919	11.99
302.134	18.68
302.349	10.32
302.564	23.75
302.779	31.05
302.994	26.53
303.209	36.32
303.423	45.19
303.638	46.76
303.853	27.29
304.068	32.29
304.283	17.35
304.497	18.85
304.712	-8.28
304.927	6.46
305.142	-12.49
305.356	-24.14
305.571	-3.4
305.786	26.75
306	2.81
306.215	21.52
306.43	29.15
306.644	9.31
306.859	13.14
307.074	45.44
307.288	21.75
307.503	44.09
307.717	32.02
307.932	17.28
308.147	7.5
308.361	8.82
308.576	-13.48
308.79	-7.77
309.005	9.86
309.219	-0.86
309.434	10.5
309.648	13.4
309.863	21.39
310.077	16.76
310.292	43.91
310.506	28.62
310.72	26.84
310.935	24.75
311.149	19.49
311.364	12.79
311.578	2.51
311.792	-6.31
312.007	-7.52
312.221	2.11
312.435	-13.46
312.649	-4
312.864	-199.78
313.078	-107.65
313.292	-118.87
313.507	-82.76
313.721	-67.37
313.935	14.76
314.149	-4.12
314.363	7.18
314.578	10.66
314.792	23.13
315.006	22.13
315.22	37.68
315.434	35.36
315.648	29.78
315.862	25.88
316.077	30.53
316.291	24.82
316.505	28.05
316.719	31.03
316.933	33.83
317.147	32.76
317.361	25.13
317.575	11.25
317.789	-6.22
318.003	-3.71
318.217	7.28
318.431	18.27
318.645	21.48
318.859	38.73
319.073	33
319.287	14.11
319.5	3.35
319.714	17.44
319.928	6.8
320.142	25.13
320.356	32.59
320.57	35.99
320.784	21.45
320.997	13.76
321.211	13.66
321.425	18.92
321.639	6.65
321.853	17.44
322.066	12.29
322.28	3.13
322.494	6.35
322.707	22.42
322.921	8.71
323.135	14.6
323.349	10.11
323.562	-17.72
323.776	-25.77
323.989	-12.47
324.203	-0.33
324.417	-7.87
324.63	9.33
324.844	10.39
325.057	12.46
325.271	-7.24
325.485	-6.88
325.698	-0.19
325.912	9.2
326.125	-3.92
326.339	7.89
326.552	13.99
326.766	15.78
326.979	18.82
327.193	32.94
327.406	26.44
327.619	27
327.833	23.38
328.046	22.02
328.26	19.4
328.473	26.9
328.686	32.17
328.9	29.61
329.113	25.3
329.326	27.2
329.54	1.04
329.753	0.66
329.966	20.67
330.179	18.15
330.393	15.39
330.606	20.01
330.819	13.37
331.032	-1.26
331.246	5.26
331.459	-29.97
331.672	-25.63
331.885	-6.39
332.098	1.13
332.311	7.28
332.525	24.04
332.738	20.91
332.951	1.02
333.164	-16.14
333.377	-38.45
333.59	-24.32
333.803	1.77
334.016	8.43
334.229	18.16
334.442	29.62
334.655	36.3
334.868	20.14
335.081	42.44
335.294	39.29
335.507	36.86
335.72	35.05
335.933	29.91
336.146	14.53
336.359	24.91
336.572	3.8
336.785	8.98
336.997	19.22
337.21	20.79
337.423	20.46
337.636	34.45
337.849	24.99
338.062	22.1
338.274	18.6
338.487	11.22
338.7	-5.27
338.913	-0.82
339.125	9.72
339.338	12.45
339.551	15.64
339.763	16.24
339.976	12.15
340.189	16.9
340.402	24.47
340.614	21.18
340.827	36.28
341.039	42.41
341.252	25.15
341.465	14.39
341.677	16.38
341.89	16.19
342.102	4.8
342.315	17.57
342.527	17.7
342.74	14.38
342.952	19.44
343.165	25.85
343.377	25.22
343.59	24.7
343.802	27.37
344.015	23.27
344.227	6.14
344.44	-7.8
344.652	-5.58
344.864	3.2
345.077	10.32
345.289	36.76
345.502	35.83
345.714	23.84
345.926	18.26
346.139	-3.36
346.351	-8.36
346.563	15.13
346.775	23.81
346.988	4.61
347.2	4.56
347.412	9.56
347.624	6.54
347.837	-5.76
348.049	4.68
348.261	19.58
348.473	18.98
348.685	19.56
348.897	22.03
349.11	23.13
349.322	22.22
349.534	29.99
349.746	30.84
349.958	37.07
350.17	38.9
350.382	36.7
350.594	32.36
350.806	39.62
351.018	24.57
351.23	22.04
351.442	18.28
351.654	18.29
351.866	-5.17
352.078	15.8
352.29	10.63
352.502	21.54
352.714	21.48
352.926	30.13
353.138	39.89
353.35	46.08
353.561	24.47
353.773	27.22
353.985	22.17
354.197	24.04
354.409	26.93
354.621	11.27
354.832	-3.24
355.044	9.89
355.256	-4.05
355.468	-8.48
355.679	13.05
355.891	16.04
356.103	13.79
356.314	22.14
356.526	20.47
356.738	15.92
356.949	5.33
357.161	-7.19
357.373	-13.61
357.584	-20.8
357.796	-9.26
358.008	-8.26
358.219	-2.07
358.431	11.53
358.642	1.12
358.854	-5.37
359.065	5.69
359.277	6.44
359.488	6.67
359.7	19.23
359.911	19.89
360.123	22.08
360.334	20.41
360.546	6.84
360.757	-2.73
360.969	-12.21
361.18	4.62
361.391	28.74
361.603	28.04
361.814	52.72
362.025	50.12
362.237	35.24
362.448	18.86
362.659	14.06
362.871	2.69
363.082	0.12
363.293	-5.41
363.504	-3.29
363.716	7.05
363.927	-5.45
364.138	-12.81
364.349	-6.21
364.56	0.11
364.772	-4.13
364.983	9.39
365.194	14.36
365.405	16.82
365.616	3.73
365.827	10.14
366.038	-2.48
366.25	-16.01
366.461	-24.8
366.672	-22.61
366.883	-15.85
367.094	-9.65
367.305	17.78
367.516	35.69
367.727	33.87
367.938	26.61
368.149	30.66
368.36	25.79
368.571	10.67
368.781	-4.25
368.992	-1.18
369.203	-5.25
369.414	-5.45
369.625	3.94
369.836	16.94
370.047	11.63
370.258	18.17
370.468	14.39
370.679	8.44
370.89	3.86
371.101	25.2
371.312	20.9
371.522	33.47
371.733	38.2
371.944	31.14
372.155	26.39
372.365	17.47
372.576	-0.96
372.787	0.13
372.997	8.61
373.208	12.19
373.419	4.37
373.629	13.1
373.84	11.46
374.05	7.03
374.261	-8.93
374.472	-9.86
374.682	-30.97
374.893	-21.4
375.103	-9.32
375.314	3.3
375.524	13.54
375.735	29.44
375.945	29.62
376.156	24.19
376.366	11.27
376.577	12.29
376.787	3.04
376.997	0.11
377.208	-18.63
377.418	-7.4
377.629	-5.8
377.839	14.39
378.049	15.51
378.26	34.19
378.47	28.63
378.68	30
378.89	10.14
379.101	8.62
379.311	-2.86
379.521	-3.21
379.732	-10.3
379.942	-6.72
380.152	-7.42
380.362	-2.2
380.572	-0.02
380.783	5.16
380.993	2.83
381.203	10.85
381.413	12.5
381.623	17
381.833	19.81
382.043	20.25
382.253	17.74
382.463	16.88
382.674	16.14
382.884	15.44
383.094	11.39
383.304	12.8
383.514	10.68
383.724	21.42
383.934	15.05
384.144	20.45
384.353	20.9
384.563	21.59
384.773	14.7
384.983	17.01
385.193	14.24
385.403	3.38
385.613	8.46
385.823	3.17
386.033	1.53
386.242	-1.36
386.452	2.05
386.662	-2.43
386.872	1.97
387.082	1.04
387.291	0.57
387.501	-0.2
387.711	1.96
387.921	-1.2
388.13	-1.8
388.34	5.02
388.55	7.06
388.759	5.72
388.969	6.32
389.179	8.02
389.388	3.95
389.598	5.72
389.807	3.14
390.017	3.73
390.227	8.48
390.436	8.92
390.646	7.24
390.855	11.17
391.065	9.84
391.274	5.46
391.484	4.76
391.693	4.03
391.903	2.97
392.112	4.22
392.322	5.57
392.531	4.75
392.74	4.87
392.95	4.21
393.159	4.19
393.369	4.52
393.578	4.35
393.787	6.03
393.997	5.78
394.206	6.25
394.415	6.21
394.625	6.8
394.834	5.36
395.043	5.01
395.252	5.63
395.462	5.76
395.671	5.38
395.88	6.96
396.089	7.85
396.298	7.42
396.508	6.83
396.717	7.37
396.926	5.91
397.135	5.44
397.344	5.5
397.553	5.8
397.762	6.07
397.971	6.84
398.181	7.16
398.39	6.51
398.599	6.44
398.808	6
399.017	6.07
399.226	6.08
399.435	6.58
399.644	6.87
399.853	6.8
400.062	7.04
400.27	7.22
400.479	7.15
400.688	7.11
400.897	7.37
401.106	6.97
401.315	6.84
401.524	6.83
401.733	6.83
401.941	6.82
402.15	7
402.359	6.81
402.568	6.91
402.777	6.82
402.985	6.73
403.194	6.6
403.403	6.62
403.612	6.34
403.82	6.24
404.029	6.24
404.238	6.03
404.446	6.12
404.655	5.99
404.864	6.02
405.072	5.86
405.281	5.91
405.489	5.72
405.698	5.81
405.906	5.74
406.115	5.87
406.324	5.95
406.532	6.03
406.741	6.2
406.949	6.21
407.158	6.21
407.366	6.14
407.574	6.03
407.783	5.88
407.991	5.85
408.2	5.75
408.408	5.68
408.617	5.74
408.825	5.82
409.033	5.9
409.242	5.99
409.45	6.03
409.658	6.24
409.867	6.09
410.075	5.98
410.283	5.81
410.491	5.86
410.7	5.68
410.908	5.72
411.116	5.85
411.324	5.99
411.533	5.94
411.741	6
411.949	5.92
412.157	5.7
412.365	5.54
412.573	5.49
412.781	5.42
412.99	5.47
413.198	5.39
413.406	5.52
413.614	5.54
413.822	5.42
414.03	5.35
414.238	5.46
414.446	5.65
414.654	5.63
414.862	5.63
415.07	5.53
415.278	5.65
415.486	5.31
415.694	5.4
415.902	5.47
416.109	5.4
416.317	5.38
416.525	5.4
416.733	5.34
416.941	5.37
417.149	5.54
417.357	5.27
417.564	5.44
417.772	5.28
417.98	5.36
418.188	5.38
418.395	5.56
418.603	5.31
418.811	5.47
419.019	5.43
419.226	5.58
419.434	5.53
419.642	5.52
419.849	5.43
420.057	5.32
420.265	5.11
420.472	5.16
420.68	5.28
420.887	5.36
421.095	5.52
421.302	5.55
421.51	5.5
421.717	5.41
421.925	5.38
422.132	5.29
422.34	5.13
422.547	4.93
422.755	5
422.962	5.01
423.17	4.81
423.377	5.02
423.585	5.29
423.792	5.14
423.999	5.14
424.207	5.09
424.414	4.97
424.621	4.92
424.829	5.12
425.036	5.09
425.243	5.22
425.451	5.27
425.658	5.25
425.865	5.07
426.072	4.94
426.28	4.92
426.487	5.15
426.694	5.02
426.901	5.01
427.108	4.99
427.315	5.16
427.523	4.98
427.73	4.94
427.937	4.93
428.144	5.04
428.351	4.93
428.558	4.91
428.765	5.18
428.972	5.4
429.179	5.29
429.386	5.25
429.593	5.23
429.8	5.01
430.007	4.89
430.214	4.93
430.421	4.89
430.628	4.82
430.835	4.89
431.042	4.7
431.249	4.87
431.456	4.76
431.662	4.95
431.869	5.01
432.076	5.26
432.283	5.2
432.49	5.36
432.697	5.23
432.903	5.02
433.11	4.86
433.317	4.74
433.524	4.73
433.73	4.73
433.937	4.79
434.144	4.85
434.35	4.96
434.557	4.87
434.764	4.76
434.97	4.75
435.177	4.8
435.384	4.72
435.59	4.71
435.797	4.82
436.003	4.82
436.21	4.66
436.416	4.66
436.623	4.77
436.829	4.83
437.036	4.9
437.242	5.12
437.449	5.19
437.655	5.24
437.862	5.27
438.068	5.16
438.275	5.06
438.481	5.07
438.687	5
438.894	5.02
439.1	5.14
439.307	5.16
439.513	5.09
439.719	5.04
439.926	4.92
440.132	4.95
440.338	4.96
440.544	4.94
440.751	4.91
440.957	4.95
441.163	4.91
441.369	4.98
441.575	4.93
441.782	4.97
441.988	4.97
442.194	4.88
442.4	4.82
442.606	4.96
442.812	4.95
443.018	4.9
443.224	5.06
443.431	4.97
443.637	5
443.843	5.07
444.049	5.15
444.255	5.07
444.461	5.26
444.667	5.11
444.873	5.02
445.079	5.01
445.284	5.08
445.49	4.9
445.696	4.99
445.902	4.95
446.108	4.85
446.314	4.81
446.52	4.86
446.726	4.89
446.931	4.91
447.137	4.91
447.343	4.95
447.549	4.9
447.755	4.8
447.96	4.96
448.166	4.94
448.372	4.88
448.578	4.98
448.783	5.15
448.989	5.08
449.195	4.96
449.4	4.96
449.606	4.88
449.812	4.83
450.017	4.8
450.223	5.02
450.428	5.07
450.634	5.09
450.84	5.12
451.045	5.07
451.251	5.06
451.456	5.13
451.662	5.06
451.867	5
452.073	5.13
452.278	4.99
452.483	4.99
452.689	5.13
452.894	5.19
453.1	5.19
453.305	5.32
453.51	5.16
453.716	5.12
453.921	5.08
454.127	5.08
454.332	5
454.537	5
454.742	5.05
454.948	5.02
455.153	5.03
455.358	5.13
455.563	5.11
455.769	5.03
455.974	5.05
456.179	4.91
456.384	4.87
456.589	4.97
456.795	4.92
457	4.97
457.205	5.11
457.41	5.14
457.615	5.05
457.82	5.15
458.025	5.07
458.23	5.1
458.435	5.07
458.64	5.12
458.845	5.17
459.05	5.2
459.255	5.14
459.46	5.18
459.665	5.23
459.87	5.05
460.075	5.11
460.28	5.09
460.485	5.1
460.69	5.05
460.895	5.04
461.099	5.06
461.304	5.05
461.509	4.99
461.714	5.01
461.919	5.05
462.123	4.91
462.328	4.94
462.533	4.98
462.738	5.08
462.942	5.1
463.147	5.28
463.352	5.33
463.556	5.38
463.761	5.22
463.966	5.18
464.17	5.09
464.375	5.04
464.58	4.93
464.784	4.99
464.989	5.06
465.193	5.07
465.398	5.12
465.602	5.24
465.807	5.21
466.011	5.29
466.216	5.33
466.42	5.34
466.625	5.37
466.829	5.45
467.034	5.42
467.238	5.35
467.443	5.25
467.647	5.03
467.851	5.07
468.056	5.01
468.26	5.08
468.464	5.12
468.669	5.29
468.873	5.3
469.077	5.33
469.282	5.32
