Data from Ofav_PS_Phys_313_Reflection_1.txt Node
Date: Thu Jul 29 18:24:22 EDT 2021
User: USUARIO
Spectrometer: FLMT01687
Trigger mode: 0
Integration Time (sec): 9.010000E-1
Scans to average: 2
Electric dark correction enabled: true
Nonlinearity correction enabled: false
Boxcar width: 2
XAxis mode: Wavelengths
Number of Pixels in Spectrum: 3648
>>>>>Begin Spectral Data<<<<<
179.494	236.19
179.716	217.57
179.937	146.88
180.158	-379.66
180.38	76.32
180.601	-135.43
180.823	9.91
181.044	49.33
181.265	45.66
181.486	-196.61
181.708	85.49
181.929	71.97
182.15	1771.43
182.372	4.71
182.593	49.65
182.814	1.79
183.035	-527.84
183.257	51.89
183.478	47.23
183.699	59.12
183.92	38.47
184.141	31.97
184.363	55.34
184.584	53.95
184.805	51.54
185.026	94.58
185.247	95.73
185.468	94.76
185.689	80.66
185.91	110.29
186.132	74.96
186.353	67.44
186.574	94.78
186.795	123
187.016	109.07
187.237	94.87
187.458	92.41
187.679	90.63
187.9	70.33
188.121	92.97
188.342	65.38
188.563	67.66
188.784	35.03
189.005	19.27
189.226	22.53
189.447	32.34
189.667	7.58
189.888	13.65
190.109	25.18
190.33	-7.05
190.551	-2.56
190.772	33.12
190.993	31.98
191.214	31.87
191.434	40.74
191.655	35.62
191.876	29.76
192.097	5.16
192.318	38.99
192.538	21.18
192.759	21.74
192.98	29.33
193.201	41.46
193.421	25.78
193.642	29.8
193.863	23.81
194.083	-20.09
194.304	-10.48
194.525	7.8
194.745	20.46
194.966	11.56
195.187	37.35
195.407	30.05
195.628	-19.37
195.848	-16.92
196.069	43.19
196.29	48.22
196.51	32.17
196.731	62.25
196.951	60.35
197.172	43.16
197.392	29.59
197.613	40.09
197.833	0.59
198.054	-5.47
198.274	-27.83
198.495	-11.32
198.715	-25.33
198.936	-32.99
199.156	-29.9
199.377	9.79
199.597	-0.77
199.817	-8.6
200.038	25.57
200.258	48.01
200.479	24.61
200.699	6.7
200.919	46.37
201.14	33.96
201.36	19.21
201.58	23.57
201.801	36.01
202.021	47.73
202.241	49.92
202.461	61.69
202.682	57.25
202.902	60.73
203.122	42.73
203.342	70.26
203.563	68.61
203.783	57.96
204.003	34.65
204.223	53.2
204.443	48.13
204.663	59.08
204.884	76.52
205.104	73.37
205.324	42.14
205.544	42.34
205.764	19.97
205.984	19.29
206.204	51.43
206.424	63.59
206.644	60.91
206.864	56.88
207.084	39.2
207.304	47.75
207.525	52.09
207.745	57.3
207.964	65.64
208.184	83.24
208.404	55.32
208.624	60.89
208.844	60.1
209.064	71.24
209.284	88.47
209.504	88.94
209.724	103.25
209.944	92.16
210.164	87.94
210.384	66.81
210.604	53.09
210.823	30.4
211.043	29.93
211.263	53.46
211.483	54.06
211.703	59.54
211.922	62.25
212.142	69.78
212.362	58.87
212.582	58.37
212.801	58.29
213.021	39.52
213.241	29.3
213.461	20.01
213.68	7.04
213.9	22.67
214.12	42.71
214.339	44.22
214.559	48.97
214.779	83.82
214.998	67.83
215.218	53.13
215.438	34.61
215.657	35.41
215.877	21.89
216.096	18.34
216.316	24.29
216.535	27.14
216.755	13.15
216.974	-1.2
217.194	37.11
217.413	53.74
217.633	74.8
217.852	62.8
218.072	53.97
218.291	44.97
218.511	60.24
218.73	35.96
218.95	48.98
219.169	54.16
219.389	35.24
219.608	-0.51
219.827	-9.91
220.047	-3.57
220.266	-16.36
220.485	10.84
220.705	20.88
220.924	20.64
221.143	13.73
221.363	20.55
221.582	-3.46
221.801	-46.27
222.021	-9.6
222.24	-12.78
222.459	-8.32
222.678	10.97
222.897	19.79
223.117	25.69
223.336	50.36
223.555	67.12
223.774	104.17
223.993	104.29
224.213	110.27
224.432	85.55
224.651	72.09
224.87	47.56
225.089	40.28
225.308	34.95
225.527	44.42
225.746	38.26
225.965	57.18
226.184	39.97
226.404	-3.07
226.623	22.13
226.842	41.24
227.061	27.41
227.28	54.88
227.499	101.67
227.718	107.64
227.936	54.4
228.155	48.01
228.374	36.31
228.593	26
228.812	21.05
229.031	26.62
229.25	36.25
229.469	29.55
229.688	26.33
229.907	50.87
230.125	45.35
230.344	63.02
230.563	67.45
230.782	85.92
231.001	33.18
231.22	44.51
231.438	38.77
231.657	44.48
231.876	31.47
232.095	38.64
232.313	38.45
232.532	25.83
232.751	23.19
232.969	31.08
233.188	44.6
233.407	20.19
233.625	19.44
233.844	21.55
234.063	10.62
234.281	-17.95
234.5	-10.88
234.719	4.51
234.937	-5.62
235.156	-10.33
235.374	25.25
235.593	32.46
235.811	41.35
236.03	39.11
236.249	42.52
236.467	32.48
236.686	31.54
236.904	26.01
237.123	27.99
237.341	23.62
237.559	23.17
237.778	37.76
237.996	39.26
238.215	51.72
238.433	53.88
238.652	61.01
238.87	52.12
239.088	53.87
239.307	30.85
239.525	30.21
239.743	29.87
239.962	24.88
240.18	33.69
240.398	44.33
240.617	25.89
240.835	10.6
241.053	18.38
241.271	-11.27
241.49	-21.57
241.708	11.93
241.926	5.84
242.144	-2.94
242.363	6.96
242.581	3.01
242.799	-13.27
243.017	2.53
243.235	8.51
243.453	8.47
243.672	6.29
243.89	4.14
244.108	9.11
244.326	32.87
244.544	24.48
244.762	28.59
244.98	44.03
245.198	50.03
245.416	17.93
245.634	41.72
245.852	56.92
246.07	40.69
246.288	37.84
246.506	46.16
246.724	40.88
246.942	34.78
247.16	42.57
247.378	30.2
247.596	38.16
247.814	30.58
248.032	29.48
248.25	27.49
248.468	36.62
248.685	30.33
248.903	27.81
249.121	20.13
249.339	9.48
249.557	16.04
249.775	15.22
249.992	13.08
250.21	15.65
250.428	46.45
250.646	56.6
250.863	62.48
251.081	61.56
251.299	71.83
251.517	56.74
251.734	47.48
251.952	19.92
252.17	15.39
252.387	7.8
252.605	2.57
252.823	10.53
253.04	27.95
253.258	36.43
253.475	42.85
253.693	51.19
253.911	48.51
254.128	72.05
254.346	66.33
254.563	71.87
254.781	54.1
254.998	45.54
255.216	8.52
255.433	27.2
255.651	21.57
255.868	13.77
256.086	19.29
256.303	31.24
256.521	27.27
256.738	22.04
256.956	32.42
257.173	44.35
257.39	43.93
257.608	36.02
257.825	49.69
258.043	38.61
258.26	27.81
258.477	16.6
258.695	17.69
258.912	0.57
259.129	15.74
259.346	-2.01
259.564	8.97
259.781	-8.24
259.998	0.53
260.216	25.2
260.433	39.09
260.65	34.37
260.867	42.81
261.084	46.35
261.302	21.79
261.519	5.75
261.736	12.98
261.953	20.06
262.17	21.8
262.387	20.25
262.604	11.45
262.822	19.04
263.039	15.11
263.256	14.15
263.473	37.54
263.69	52.18
263.907	68.65
264.124	50.38
264.341	50.43
264.558	32.84
264.775	22.86
264.992	8.93
265.209	17.53
265.426	12.1
265.643	23.1
265.86	35.03
266.077	47.88
266.294	54.89
266.51	53.19
266.727	57.53
266.944	63.4
267.161	43.01
267.378	29.54
267.595	35.8
267.812	21.26
268.028	-0.65
268.245	12
268.462	8.51
268.679	2.35
268.896	2.92
269.112	22.93
269.329	25.18
269.546	29.78
269.763	33.95
269.979	37.8
270.196	42.74
270.413	38.05
270.629	35.51
270.846	30.04
271.063	38.92
271.279	28.13
271.496	20.16
271.712	26.41
271.929	25.31
272.146	35.82
272.362	24.49
272.579	46.64
272.795	49.92
273.012	59.36
273.228	32.76
273.445	51.64
273.661	38.27
273.878	16.68
274.094	19.83
274.311	37.15
274.527	25.38
274.744	30.04
274.96	48.05
275.177	50.92
275.393	38.73
275.609	29.67
275.826	39.77
276.042	23.28
276.259	2.51
276.475	16.57
276.691	39.1
276.908	33.6
277.124	44.78
277.34	51.35
277.557	39.62
277.773	28.47
277.989	9.99
278.205	5.76
278.422	7.33
278.638	10.57
278.854	15.87
279.07	54.09
279.286	44.42
279.503	43.87
279.719	54.14
279.935	51.25
280.151	20.52
280.367	27.75
280.583	41.01
280.799	24.2
281.016	36.16
281.232	48.47
281.448	59.23
281.664	53.94
281.88	48.8
282.096	48.66
282.312	36.23
282.528	20.45
282.744	19.61
282.96	26.54
283.176	-7.06
283.392	27.63
283.608	36.14
283.824	22.73
284.04	17.54
284.256	33.92
284.471	-12.89
284.687	-16.4
284.903	-11
285.119	34.14
285.335	37.28
285.551	63.87
285.767	69.9
285.982	59.56
286.198	50.27
286.414	49.95
286.63	52.4
286.846	46.98
287.061	54.74
287.277	50.43
287.493	33.6
287.709	-2.84
287.924	12.63
288.14	11.25
288.356	18.27
288.571	28.85
288.787	33.58
289.003	40.84
289.218	44.15
289.434	32.41
289.65	49.09
289.865	48.56
290.081	17.9
290.296	24.58
290.512	32.73
290.727	16.61
290.943	26.79
291.159	35.58
291.374	39.62
291.59	30.86
291.805	24.87
292.021	32.7
292.236	42.98
292.451	27.01
292.667	29.52
292.882	35.09
293.098	18.79
293.313	3.16
293.529	24.78
293.744	8.1
293.959	1.42
294.175	24.51
294.39	25.61
294.605	30.07
294.821	44.97
295.036	45.66
295.251	29.12
295.467	26.03
295.682	16.15
295.897	2.49
296.112	7.65
296.328	10.16
296.543	9.57
296.758	9.41
296.973	21.98
297.188	30.61
297.404	17.19
297.619	14.64
297.834	-5.76
298.049	-1.21
298.264	-1.56
298.479	22.37
298.694	23.52
298.909	34.04
299.125	30.08
299.34	21.22
299.555	4.86
299.77	20.01
299.985	-18.95
300.2	-16.99
300.415	9.04
300.63	30.81
300.845	23.78
301.06	31.41
301.275	33.95
301.49	14.51
301.704	-40.1
301.919	-18.54
302.134	-5.19
302.349	-2.67
302.564	-3.14
302.779	11.58
302.994	18.93
303.209	27.72
303.423	31.15
303.638	18.33
303.853	7.77
304.068	3.68
304.283	10.18
304.497	15.37
304.712	5.77
304.927	10.61
305.142	9.29
305.356	1.82
305.571	19.52
305.786	30.32
306	18.12
306.215	23.34
306.43	29.51
306.644	19.75
306.859	60.49
307.074	53.37
307.288	45.57
307.503	31.11
307.717	23.1
307.932	1.52
308.147	1.67
308.361	-6.84
308.576	5.29
308.79	0.47
309.005	12.27
309.219	16.09
309.434	36.35
309.648	39.95
309.863	44.86
310.077	54.43
310.292	48.98
310.506	38.62
310.72	31.77
310.935	24.22
311.149	29.52
311.364	34
311.578	42.41
311.792	17.39
312.007	32.03
312.221	15.76
312.435	7.06
312.649	-6.25
312.864	-20.16
313.078	-30.74
313.292	-33.84
313.507	15.45
313.721	26.08
313.935	24.5
314.149	33.61
314.363	37.48
314.578	26.85
314.792	27.25
315.006	36.29
315.22	27.89
315.434	16.65
315.648	13.11
315.862	18.76
316.077	13.52
316.291	17.1
316.505	37.75
316.719	49.78
316.933	42.57
317.147	56.82
317.361	48.72
317.575	58.38
317.789	36.66
318.003	33.35
318.217	23.61
318.431	17.11
318.645	11.3
318.859	23.99
319.073	17.31
319.287	7.79
319.5	19.74
319.714	36.15
319.928	43.89
320.142	51.94
320.356	55.87
320.57	51.59
320.784	39.21
320.997	18.63
321.211	16.76
321.425	14.91
321.639	9.45
321.853	3.6
322.066	8.67
322.28	4.36
322.494	12.89
322.707	34.49
322.921	34.97
323.135	37.33
323.349	58.87
323.562	46.45
323.776	29.21
323.989	19.29
324.203	23.49
324.417	-6.48
324.63	-6.34
324.844	-9.5
325.057	-1.72
325.271	-5.2
325.485	1.6
325.698	15.8
325.912	17.6
326.125	21.35
326.339	23.11
326.552	26.39
326.766	24.24
326.979	36.36
327.193	47.82
327.406	46.21
327.619	43.45
327.833	41.19
328.046	43.36
328.26	45.96
328.473	36.32
328.686	30.38
328.9	34.28
329.113	9.93
329.326	2.48
329.54	0.27
329.753	2.79
329.966	15.52
330.179	38.4
330.393	32.31
330.606	40.32
330.819	55.92
331.032	44.37
331.246	28.94
331.459	19.89
331.672	9.45
331.885	1.27
332.098	-0.97
332.311	26.68
332.525	28.22
332.738	24.11
332.951	22.76
333.164	20.1
333.377	18.49
333.59	35.32
333.803	50.57
334.016	39.56
334.229	41.3
334.442	37.32
334.655	31.26
334.868	27.88
335.081	46.21
335.294	57.34
335.507	50.77
335.72	57.72
335.933	50.53
336.146	34.84
336.359	34.1
336.572	18.67
336.785	13.7
336.997	13.86
337.21	14.52
337.423	23.95
337.636	29.92
337.849	20.7
338.062	6.15
338.274	-0.59
338.487	-15.22
338.7	-8.87
338.913	-4.32
339.125	22.2
339.338	27.09
339.551	24.72
339.763	21.35
339.976	7.49
340.189	14
340.402	22.46
340.614	15.19
340.827	33.27
341.039	45.13
341.252	32.51
341.465	28.66
341.677	33.62
341.89	12.49
342.102	24.29
342.315	12.69
342.527	6.39
342.74	-7.37
342.952	10.55
343.165	8.87
343.377	13.78
343.59	13.24
343.802	29.38
344.015	39.47
344.227	32.82
344.44	36.79
344.652	51.95
344.864	42.99
345.077	31.27
345.289	41.55
345.502	38.61
345.714	29.4
345.926	37.83
346.139	11.29
346.351	8.94
346.563	9.59
346.775	2.51
346.988	-9.8
347.2	0.92
347.412	-8.99
347.624	9.57
347.837	-8.52
348.049	-13.32
348.261	-1.01
348.473	15.76
348.685	5.83
348.897	31.85
349.11	41.38
349.322	38.26
349.534	37.45
349.746	50.09
349.958	39.82
350.17	28.92
350.382	30.45
350.594	30.59
350.806	28.06
351.018	22.78
351.23	21.56
351.442	14.54
351.654	10.96
351.866	-0.17
352.078	17.77
352.29	19.82
352.502	24.77
352.714	28.67
352.926	19.47
353.138	10.89
353.35	-1.48
353.561	-19.44
353.773	-0.91
353.985	4.44
354.197	8.57
354.409	10.04
354.621	8.8
354.832	6.76
355.044	11.74
355.256	20.81
355.468	37.77
355.679	54.9
355.891	42.51
356.103	39.68
356.314	34.97
356.526	30.53
356.738	27.76
356.949	30.51
357.161	40.6
357.373	37.83
357.584	36.81
357.796	41.8
358.008	37.67
358.219	26.25
358.431	24.2
358.642	12.92
358.854	-5.34
359.065	-5.29
359.277	-11.38
359.488	7.14
359.7	16.36
359.911	31.12
360.123	35.28
360.334	41.61
360.546	24.24
360.757	26.55
360.969	19.33
361.18	31.05
361.391	13.73
361.603	1.16
361.814	29.18
362.025	21.22
362.237	12.8
362.448	16.88
362.659	16.07
362.871	-10.44
363.082	-1.94
363.293	0.62
363.504	12.2
363.716	27.55
363.927	20.1
364.138	-3.79
364.349	-7.84
364.56	-11.77
364.772	-16.7
364.983	1.55
365.194	18.63
365.405	34.87
365.616	36.17
365.827	25.01
366.038	12.65
366.25	-0.29
366.461	-6.23
366.672	-7.59
366.883	19.97
367.094	20.87
367.305	40.65
367.516	27.98
367.727	24.6
367.938	19.76
368.149	17.83
368.36	4.69
368.571	11.64
368.781	-5.03
368.992	-18.73
369.203	-2.53
369.414	2.3
369.625	9.91
369.836	24.42
370.047	23.19
370.258	23.31
370.468	14.61
370.679	4.23
370.89	-22.28
371.101	-1.28
371.312	-6.38
371.522	-1.36
371.733	-0.62
371.944	10.89
372.155	2.17
372.365	-2.58
372.576	6.11
372.787	11.06
372.997	11.82
373.208	18.06
373.419	27.63
373.629	36.96
373.84	43.66
374.05	41.98
374.261	43.42
374.472	34.93
374.682	18.69
374.893	16.63
375.103	27.36
375.314	19.04
375.524	23.34
375.735	28.33
375.945	29.96
376.156	26.53
376.366	31.79
376.577	32.37
376.787	33.63
376.997	30.9
377.208	16.23
377.418	4.69
377.629	-3.58
377.839	-0.74
378.049	-3.69
378.26	14.58
378.47	25.04
378.68	29.08
378.89	34.16
379.101	46.09
379.311	32.25
379.521	20.16
379.732	24.03
379.942	14.65
380.152	1.43
380.362	3.14
380.572	10.27
380.783	-1.38
380.993	11.18
381.203	12.95
381.413	20.82
381.623	27.46
381.833	44.19
382.043	36.41
382.253	26.32
382.463	18.19
382.674	15.17
382.884	3.35
383.094	-14.47
383.304	-10.75
383.514	-4.99
383.724	4.4
383.934	3.5
384.144	15.8
384.353	24.2
384.563	26.16
384.773	20.04
384.983	24.78
385.193	25.97
385.403	14.86
385.613	15.69
385.823	14.42
386.033	8.72
386.242	9.35
386.452	11.58
386.662	8.7
386.872	9.18
387.082	9.14
387.291	2.24
387.501	4.38
387.711	3.88
387.921	-0.13
388.13	1.29
388.34	5.69
388.55	5.06
388.759	3.09
388.969	4.4
389.179	2.25
389.388	2.27
389.598	4.56
389.807	4.83
390.017	5.43
390.227	11.49
390.436	11.1
390.646	7.96
390.855	9.03
391.065	9.07
391.274	4.36
391.484	2.35
391.693	-0.62
391.903	-1.1
392.112	-0.84
392.322	-0.64
392.531	-0.25
392.74	2.03
392.95	4.55
393.159	4.76
393.369	5.92
393.578	6.13
393.787	6.53
393.997	4.41
394.206	4.5
394.415	4.5
394.625	4.88
394.834	3.86
395.043	3.51
395.252	4.17
395.462	3.78
395.671	4.41
395.88	6.21
396.089	6.78
396.298	6.08
396.508	5.4
396.717	4.41
396.926	3.33
397.135	2.76
397.344	2.57
397.553	3.3
397.762	3.53
397.971	4.02
398.181	5.04
398.39	4.64
398.599	4.27
398.808	4.32
399.017	4.36
399.226	3.95
399.435	4.42
399.644	4.79
399.853	4.7
400.062	4.84
400.27	4.9
400.479	4.83
400.688	4.47
400.897	4.54
401.106	4.29
401.315	4.19
401.524	4.29
401.733	4.08
401.941	4.34
402.15	4.46
402.359	4.3
402.568	4.44
402.777	4.63
402.985	4.39
403.194	4.09
403.403	4.23
403.612	4.03
403.82	4.24
404.029	4.13
404.238	4.09
404.446	4.02
404.655	3.94
404.864	3.82
405.072	3.75
405.281	3.82
405.489	3.65
405.698	3.65
405.906	3.57
406.115	3.63
406.324	3.64
406.532	3.9
406.741	3.89
406.949	3.92
407.158	3.94
407.366	3.88
407.574	3.55
407.783	3.61
407.991	3.47
408.2	3.4
408.408	3.38
408.617	3.55
408.825	3.42
409.033	3.56
409.242	3.7
409.45	3.68
409.658	3.74
409.867	3.82
410.075	3.77
410.283	3.69
410.491	3.5
410.7	3.41
410.908	3.39
411.116	3.45
411.324	3.36
411.533	3.44
411.741	3.47
411.949	3.49
412.157	3.28
412.365	3.19
412.573	3.32
412.781	3.27
412.99	3.28
413.198	3.34
413.406	3.48
413.614	3.45
413.822	3.47
414.03	3.36
414.238	3.44
414.446	3.55
414.654	3.47
414.862	3.42
415.07	3.28
415.278	3.29
415.486	3.01
415.694	3.18
415.902	3.17
416.109	3.38
416.317	3.37
416.525	3.43
416.733	3.37
416.941	3.44
417.149	3.38
417.357	3.26
417.564	3.33
417.772	3.23
417.98	3.25
418.188	3.25
418.395	3.29
418.603	3.14
418.811	3.18
419.019	3.06
419.226	3.26
419.434	3.23
419.642	3.23
419.849	3.25
420.057	3.15
420.265	2.95
420.472	2.86
420.68	3
420.887	3.05
421.095	3.15
421.302	3.22
421.51	3.38
421.717	3.35
421.925	3.27
422.132	3.34
422.34	3.03
422.547	2.99
422.755	2.96
422.962	3.05
423.17	2.91
423.377	3.13
423.585	3.08
423.792	3
423.999	2.88
424.207	2.88
424.414	2.84
424.621	3.02
424.829	3.25
425.036	3.16
425.243	3.17
425.451	3.06
425.658	2.87
425.865	2.81
426.072	2.88
426.28	3.04
426.487	3.14
426.694	3.14
426.901	2.96
427.108	2.95
427.315	3.05
427.523	2.99
427.73	2.88
427.937	2.86
428.144	2.86
428.351	2.64
428.558	2.79
428.765	2.96
428.972	3.18
429.179	3.05
429.386	3.08
429.593	2.87
429.8	2.86
430.007	2.72
430.214	2.98
430.421	3.06
430.628	3.1
430.835	3.2
431.042	3.24
431.249	3.29
431.456	3.2
431.662	3.36
431.869	3.29
432.076	3.24
432.283	3.18
432.49	3.17
432.697	3.15
432.903	3.03
433.11	3.16
433.317	3.11
433.524	3.28
433.73	3.2
433.937	3.34
434.144	3.14
434.35	3.2
434.557	3.06
434.764	3.06
434.97	2.92
435.177	3.2
435.384	3.05
435.59	3.08
435.797	3.16
436.003	3.25
436.21	3.07
436.416	3.11
436.623	3.13
436.829	3.15
437.036	3.14
437.242	3.23
437.449	3.19
437.655	3.35
437.862	3.41
438.068	3.25
438.275	3.22
438.481	3.32
438.687	3.14
438.894	3
439.1	3.16
439.307	3.17
439.513	3.17
439.719	3.13
439.926	3.08
440.132	3.07
440.338	3.16
440.544	3.17
440.751	3.2
440.957	3.36
441.163	3.43
441.369	3.43
441.575	3.34
441.782	3.3
441.988	3.33
442.194	3.23
442.4	3.12
442.606	3.3
442.812	3.43
443.018	3.39
443.224	3.5
443.431	3.54
443.637	3.53
443.843	3.52
444.049	3.58
444.255	3.52
444.461	3.5
444.667	3.4
444.873	3.26
445.079	3.18
445.284	3.17
445.49	3.15
445.696	3.22
445.902	3.28
446.108	3.26
446.314	3.32
446.52	3.44
446.726	3.45
446.931	3.4
447.137	3.43
447.343	3.31
447.549	3.16
447.755	3.09
447.96	3.2
448.166	3.15
448.372	3.3
448.578	3.39
448.783	3.48
448.989	3.58
449.195	3.55
449.4	3.5
449.606	3.44
449.812	3.41
450.017	3.3
450.223	3.39
450.428	3.4
450.634	3.48
450.84	3.56
451.045	3.6
451.251	3.62
451.456	3.66
451.662	3.62
451.867	3.54
452.073	3.52
452.278	3.46
452.483	3.51
452.689	3.52
452.894	3.57
453.1	3.53
453.305	3.62
453.51	3.5
453.716	3.53
453.921	3.53
454.127	3.67
454.332	3.55
454.537	3.57
454.742	3.59
454.948	3.47
455.153	3.42
455.358	3.53
455.563	3.56
455.769	3.41
455.974	3.52
456.179	3.45
456.384	3.31
456.589	3.32
456.795	3.37
457	3.45
457.205	3.59
457.41	3.74
457.615	3.67
457.82	3.74
458.025	3.58
458.23	3.48
458.435	3.38
458.64	3.39
458.845	3.4
459.05	3.47
459.255	3.48
459.46	3.57
459.665	3.67
459.87	3.61
460.075	3.63
460.28	3.61
460.485	3.54
460.69	3.48
460.895	3.55
461.099	3.5
461.304	3.51
461.509	3.59
461.714	3.61
461.919	3.6
462.123	3.58
462.328	3.54
462.533	3.5
462.738	3.51
462.942	3.42
463.147	3.61
463.352	3.65
463.556	3.67
463.761	3.68
463.966	3.74
464.17	3.76
464.375	3.77
464.58	3.75
464.784	3.8
464.989	3.79
465.193	3.66
465.398	3.76
465.602	3.81
465.807	3.83
466.011	3.84
466.216	3.82
466.42	3.82
466.625	3.83
466.829	3.85
467.034	3.98
467.238	3.97
467.443	3.86
467.647	3.78
467.851	3.74
468.056	3.62
468.26	3.74
468.464	3.81
468.669	3.93
