Data from Ofav_PS_Phys_9AZ9_Reflection_2.txt Node
Date: Thu Jul 29 18:23:33 EDT 2021
User: USUARIO
Spectrometer: FLMT01687
Trigger mode: 0
Integration Time (sec): 9.010000E-1
Scans to average: 2
Electric dark correction enabled: true
Nonlinearity correction enabled: false
Boxcar width: 2
XAxis mode: Wavelengths
Number of Pixels in Spectrum: 3648
>>>>>Begin Spectral Data<<<<<
179.494	262.22
179.716	189.64
179.937	133.18
180.158	-265.54
180.38	11.8
180.601	-224.15
180.823	-135.19
181.044	-61.79
181.265	-64.68
181.486	-184.18
181.708	116.64
181.929	247.42
182.15	8904.76
182.372	-102.43
182.593	-4.37
182.814	37.77
183.035	50.17
183.257	8.53
183.478	21.33
183.699	41.48
183.92	52.62
184.141	77.81
184.363	69.45
184.584	90.51
184.805	90.74
185.026	113.69
185.247	108.88
185.468	159.55
185.689	139.63
185.91	158.49
186.132	166.43
186.353	92.88
186.574	89.29
186.795	99.82
187.016	95.19
187.237	74.95
187.458	72.04
187.679	68.46
187.9	44.91
188.121	54
188.342	55.11
188.563	65.32
188.784	53.97
189.005	54.99
189.226	47.48
189.447	49.99
189.667	46.52
189.888	68.99
190.109	84.53
190.33	84.54
190.551	51.9
190.772	58.45
190.993	23.68
191.214	27.38
191.434	55.11
191.655	47.36
191.876	60.89
192.097	48.39
192.318	60.73
192.538	35.69
192.759	54.3
192.98	43.02
193.201	60.07
193.421	44.01
193.642	24.83
193.863	7.61
194.083	-31.07
194.304	-36.57
194.525	-19.54
194.745	5.28
194.966	11.05
195.187	21.54
195.407	19.53
195.628	-17.83
195.848	7.34
196.069	70.97
196.29	71.22
196.51	74.11
196.731	75.58
196.951	50.51
197.172	14.52
197.392	16.22
197.613	6.58
197.833	1.72
198.054	3.24
198.274	11.5
198.495	23.88
198.715	16.68
198.936	30.17
199.156	56.09
199.377	56.79
199.597	35.49
199.817	62.57
200.038	71.11
200.258	65.91
200.479	39.14
200.699	17.52
200.919	15.8
201.14	-5.75
201.36	12.69
201.58	35.06
201.801	48.93
202.021	55.2
202.241	76.65
202.461	76.72
202.682	87.84
202.902	95.46
203.122	95.61
203.342	103.34
203.563	82.35
203.783	69.35
204.003	68.06
204.223	98.59
204.443	73.25
204.663	94.9
204.884	112.33
205.104	128.67
205.324	82.67
205.544	62.58
205.764	61.64
205.984	50.89
206.204	38.43
206.424	35.56
206.644	70.93
206.864	59.31
207.084	27.57
207.304	59.78
207.525	75.1
207.745	42.37
207.964	48.91
208.184	69.58
208.404	25.9
208.624	28.28
208.844	38.22
209.064	62.5
209.284	78.71
209.504	72.57
209.724	79.54
209.944	76.74
210.164	54.95
210.384	52.57
210.604	59.02
210.823	52.36
211.043	41.06
211.263	58.59
211.483	30.07
211.703	17.25
211.922	17.17
212.142	28.69
212.362	8.68
212.582	33.54
212.801	40.87
213.021	38.15
213.241	30.86
213.461	18.73
213.68	-7.08
213.9	-8.38
214.12	-0.52
214.339	-13.43
214.559	21.98
214.779	43.29
214.998	22.67
215.218	42.28
215.438	58.87
215.657	43.32
215.877	55.08
216.096	72.63
216.316	52.33
216.535	28.85
216.755	8.01
216.974	-6.7
217.194	-12.59
217.413	36.63
217.633	76.24
217.852	63.05
218.072	38.73
218.291	44.18
218.511	46.23
218.73	22.2
218.95	30.23
219.169	41.09
219.389	33
219.608	10.4
219.827	32.69
220.047	29.97
220.266	28.6
220.485	41.12
220.705	43.85
220.924	19.26
221.143	25.91
221.363	19.69
221.582	-3.77
221.801	-13.57
222.021	56.15
222.24	35.8
222.459	46.52
222.678	60.14
222.897	56.71
223.117	44.47
223.336	67.71
223.555	77.31
223.774	94.24
223.993	93.56
224.213	105.36
224.432	86.34
224.651	85.42
224.87	63.23
225.089	65.87
225.308	50.34
225.527	42.66
225.746	11.73
225.965	38.46
226.184	32.79
226.404	21.8
226.623	61.67
226.842	67.68
227.061	55.81
227.28	60.2
227.499	104.81
227.718	114.61
227.936	114.9
228.155	109.28
228.374	83.49
228.593	46.86
228.812	29.91
229.031	19.43
229.25	13.54
229.469	30.44
229.688	28.56
229.907	39.82
230.125	26.24
230.344	22.72
230.563	13.15
230.782	51.66
231.001	19.55
231.22	32.51
231.438	34.01
231.657	33.55
231.876	15.8
232.095	22.52
232.313	51.18
232.532	57.11
232.751	55.72
232.969	58.58
233.188	55.97
233.407	-9.28
233.625	-4.6
233.844	-4.8
234.063	0.45
234.281	-17.72
234.5	17.49
234.719	53.55
234.937	66.31
235.156	75.81
235.374	87.28
235.593	84.17
235.811	61.15
236.03	43.44
236.249	30.85
236.467	39.5
236.686	27.73
236.904	16.41
237.123	29
237.341	25.94
237.559	18.71
237.778	43.81
237.996	52.68
238.215	50.98
238.433	65.71
238.652	60.21
238.87	31.97
239.088	35.5
239.307	30.3
239.525	25.43
239.743	21.1
239.962	38.29
240.18	32.5
240.398	34.84
240.617	28.6
240.835	36.59
241.053	39.23
241.271	58.92
241.49	64.45
241.708	67.62
241.926	60.5
242.144	46.41
242.363	32.83
242.581	22.22
242.799	11.4
243.017	21.36
243.235	28.39
243.453	31.91
243.672	37.14
243.89	22.03
244.108	32.66
244.326	42.08
244.544	42.81
244.762	44.51
244.98	62.96
245.198	48.8
245.416	21.85
245.634	19.04
245.852	26.21
246.07	35.09
246.288	45.14
246.506	49.52
246.724	45.33
246.942	28.53
247.16	35.45
247.378	16.39
247.596	21.83
247.814	30.72
248.032	37.57
248.25	29.58
248.468	42.55
248.685	33.64
248.903	51.44
249.121	51.19
249.339	35.98
249.557	27.84
249.775	45.61
249.992	25.25
250.21	34.76
250.428	55.78
250.646	69.14
250.863	61.59
251.081	62.71
251.299	73.94
251.517	71.38
251.734	80.01
251.952	83.6
252.17	74.18
252.387	61.2
252.605	71.37
252.823	31.76
253.04	41.9
253.258	41.02
253.475	33.07
253.693	32.65
253.911	45.47
254.128	31.29
254.346	15.06
254.563	29.16
254.781	-0.04
254.998	9.82
255.216	17.46
255.433	41.05
255.651	35.13
255.868	33.78
256.086	38.11
256.303	25.92
256.521	27.08
256.738	20.63
256.956	25.28
257.173	14.14
257.39	34.02
257.608	27.48
257.825	47.85
258.043	48.71
258.26	34.86
258.477	23.12
258.695	23.37
258.912	13.35
259.129	11.24
259.346	40.33
259.564	56.98
259.781	41.45
259.998	7.41
260.216	26.48
260.433	27.52
260.65	24.34
260.867	21.38
261.084	42.65
261.302	19.75
261.519	19.59
261.736	20.28
261.953	47.13
262.17	52.14
262.387	54.76
262.604	31.32
262.822	33.57
263.039	33.67
263.256	-6.7
263.473	-0.81
263.69	15.84
263.907	30.85
264.124	15.52
264.341	44.09
264.558	53.3
264.775	44.48
264.992	30.04
265.209	13.78
265.426	14.78
265.643	12.87
265.86	15.17
266.077	22.79
266.294	43.3
266.51	33.98
266.727	42.89
266.944	52.47
267.161	51.11
267.378	43.45
267.595	51.33
267.812	34.6
268.028	15.46
268.245	25.46
268.462	12.15
268.679	20.17
268.896	32.67
269.112	38
269.329	30.41
269.546	44.84
269.763	40.56
269.979	34.32
270.196	43.97
270.413	44.39
270.629	41.16
270.846	49.83
271.063	56.99
271.279	51.28
271.496	37.63
271.712	16.43
271.929	17.96
272.146	17.98
272.362	13.87
272.579	43.41
272.795	70.14
273.012	44.98
273.228	43.35
273.445	58.26
273.661	48.92
273.878	32.89
274.094	53
274.311	57.59
274.527	39.62
274.744	41.15
274.96	49.48
275.177	49.51
275.393	33.11
275.609	32.54
275.826	34.44
276.042	18.16
276.259	1.94
276.475	17.35
276.691	28.39
276.908	22.43
277.124	19.79
277.34	29.62
277.557	10.07
277.773	3.67
277.989	13.09
278.205	37.23
278.422	38.06
278.638	57.92
278.854	72.47
279.07	67.63
279.286	61.58
279.503	58.01
279.719	67.15
279.935	57.44
280.151	39.24
280.367	43.92
280.583	44.35
280.799	23.46
281.016	43.89
281.232	58.86
281.448	55.55
281.664	62.1
281.88	44.94
282.096	30.87
282.312	20.34
282.528	9.32
282.744	-29.32
282.96	3.97
283.176	11.65
283.392	28.21
283.608	38.62
283.824	55.2
284.04	44
284.256	45.89
284.471	32.05
284.687	19.21
284.903	-14.45
285.119	35.49
285.335	26.74
285.551	23.86
285.767	24.31
285.982	28.97
286.198	10.26
286.414	11.32
286.63	9.89
286.846	13.44
287.061	17.14
287.277	29.42
287.493	19.64
287.709	27.91
287.924	28.07
288.14	35.33
288.356	41.79
288.571	42.98
288.787	43.77
289.003	47.72
289.218	30.23
289.434	19.39
289.65	22.15
289.865	18.91
290.081	9.86
290.296	30.38
290.512	37.78
290.727	50.94
290.943	58.63
291.159	63.98
291.374	63.44
291.59	51.82
291.805	28.52
292.021	16.73
292.236	21.77
292.451	8.82
292.667	6.9
292.882	23.22
293.098	39.27
293.313	34.97
293.529	39.33
293.744	36.08
293.959	38.35
294.175	36.74
294.39	37.46
294.605	36.94
294.821	31.89
295.036	34.95
295.251	28.12
295.467	19.25
295.682	15.41
295.897	19.13
296.112	13.26
296.328	25.61
296.543	25.6
296.758	22.87
296.973	27.2
297.188	43.07
297.404	17.85
297.619	20.16
297.834	-5.18
298.049	5.66
298.264	-0.49
298.479	20.66
298.694	13.68
298.909	30.37
299.125	29.88
299.34	55.15
299.555	33.48
299.77	51.61
299.985	13.05
300.2	21.14
300.415	-4.05
300.63	18.59
300.845	10.28
301.06	10.06
301.275	5.57
301.49	-10.99
301.704	-36.84
301.919	-4.72
302.134	22.39
302.349	9.38
302.564	27.79
302.779	27.23
302.994	28.44
303.209	37.23
303.423	54.8
303.638	35.97
303.853	20.77
304.068	28.22
304.283	32.22
304.497	31.93
304.712	35.03
304.927	51.89
305.142	39.12
305.356	22.25
305.571	18.81
305.786	35.06
306	17.78
306.215	32.61
306.43	35.15
306.644	34.78
306.859	60.43
307.074	79.4
307.288	64.85
307.503	62.6
307.717	55.28
307.932	18.99
308.147	12.73
308.361	13.05
308.576	-0.26
308.79	-1.68
309.005	26.56
309.219	20.05
309.434	27.49
309.648	34.85
309.863	38.74
310.077	38.97
310.292	45.24
310.506	31.16
310.72	32.29
310.935	22.14
311.149	23.92
311.364	24.18
311.578	24.98
311.792	5.71
312.007	8.49
312.221	-9.59
312.435	-12.99
312.649	-19
312.864	-186.12
313.078	-115.11
313.292	-130.39
313.507	-85.97
313.721	-63.13
313.935	3.95
314.149	10.56
314.363	29.96
314.578	6.9
314.792	9.58
315.006	14.26
315.22	5.58
315.434	11.49
315.648	29.53
315.862	20.08
316.077	18.63
316.291	21.97
316.505	34.19
316.719	32.95
316.933	57.06
317.147	66.67
317.361	67
317.575	51.84
317.789	37.51
318.003	36.53
318.217	31.8
318.431	35.65
318.645	40.26
318.859	46.63
319.073	32.52
319.287	26.43
319.5	11.78
319.714	24.49
319.928	27.12
320.142	53.99
320.356	67.69
320.57	71.57
320.784	64.41
320.997	48.72
321.211	28.41
321.425	23.38
321.639	12.76
321.853	9.48
322.066	7.27
322.28	14.24
322.494	15.08
322.707	37.2
322.921	43.68
323.135	62.52
323.349	63.69
323.562	51.52
323.776	52
323.989	34.67
324.203	28.93
324.417	23.83
324.63	22.31
324.844	15.91
325.057	27.53
325.271	25.24
325.485	15.29
325.698	32.55
325.912	28.2
326.125	18.98
326.339	20.08
326.552	26.96
326.766	27.13
326.979	50.14
327.193	61.01
327.406	61.73
327.619	58.8
327.833	64.29
328.046	44.96
328.26	35.06
328.473	29.09
328.686	26.35
328.9	-13.7
329.113	-29.31
329.326	-28.28
329.54	-39.1
329.753	-17.03
329.966	17.57
330.179	31.27
330.393	42.81
330.606	41.58
330.819	44.35
331.032	37.46
331.246	27.59
331.459	7.35
331.672	-9.72
331.885	-4.27
332.098	-2.56
332.311	24.27
332.525	35.13
332.738	36.81
332.951	26.78
333.164	22.53
333.377	11.57
333.59	12.12
333.803	22.22
334.016	27.33
334.229	22.93
334.442	21.66
334.655	24.84
334.868	25.06
335.081	31.09
335.294	24.14
335.507	25.7
335.72	37.77
335.933	30.04
336.146	24.6
336.359	53.9
336.572	47.04
336.785	28.81
336.997	39.56
337.21	41.93
337.423	26.19
337.636	24.18
337.849	20.12
338.062	5.97
338.274	-14.16
338.487	-20.25
338.7	-26.64
338.913	-0.62
339.125	20.97
339.338	29.71
339.551	33.62
339.763	31.25
339.976	15.42
340.189	13.97
340.402	-0.85
340.614	-6.07
340.827	18
341.039	29.54
341.252	37.28
341.465	43.23
341.677	40.1
341.89	29.25
342.102	29.7
342.315	31.9
342.527	33.73
342.74	36.32
342.952	26.56
343.165	28.93
343.377	18.67
343.59	10.82
343.802	21.3
344.015	37.25
344.227	30.65
344.44	31.53
344.652	43.35
344.864	32.68
345.077	29.47
345.289	23.32
345.502	25.32
345.714	17.14
345.926	18.8
346.139	7.49
346.351	18.89
346.563	17.4
346.775	19.1
346.988	13.89
347.2	21.81
347.412	26.03
347.624	34.28
347.837	17.01
348.049	22.71
348.261	9.52
348.473	2.63
348.685	1.47
348.897	19.98
349.11	14.85
349.322	24
349.534	24.99
349.746	15.93
349.958	12.18
350.17	15.25
350.382	18.18
350.594	21.02
350.806	32.61
351.018	24.57
351.23	35
351.442	14.88
351.654	23.93
351.866	-7
352.078	9.84
352.29	-5.55
352.502	25.42
352.714	16.6
352.926	35.87
353.138	53.28
353.35	48.83
353.561	15.16
353.773	31.91
353.985	21.48
354.197	12.16
354.409	17.01
354.621	-2.38
354.832	-23.51
355.044	-14.51
355.256	-3.91
355.468	-2.5
355.679	25.71
355.891	37.87
356.103	43.04
356.314	40.06
356.526	41.92
356.738	37.37
356.949	40.7
357.161	48.93
357.373	58.68
357.584	66.11
357.796	83.56
358.008	64.97
358.219	47.86
358.431	44.21
358.642	32.35
358.854	21.16
359.065	25.7
359.277	22.03
359.488	18.32
359.7	24.39
359.911	27.76
360.123	16.98
360.334	20.78
360.546	25.32
360.757	22.41
360.969	18.97
361.18	36.57
361.391	33.32
361.603	23.25
361.814	31.03
362.025	24.43
362.237	19.96
362.448	19.74
362.659	17.12
362.871	14.21
363.082	21.41
363.293	8.9
363.504	14.24
363.716	7.67
363.927	4.12
364.138	-13.91
364.349	6.17
364.56	9.79
364.772	12.7
364.983	14.42
365.194	20.86
365.405	23.09
365.616	10.02
365.827	29.68
366.038	18.84
366.25	17.72
366.461	4.34
366.672	22.16
366.883	-3.79
367.094	10.2
367.305	20.04
367.516	32.27
367.727	34.21
367.938	41.46
368.149	36.45
368.36	34.68
368.571	29.08
368.781	19.46
368.992	1.94
369.203	12.95
369.414	16.4
369.625	19.54
369.836	24.61
370.047	24.77
370.258	20.26
370.468	19.05
370.679	10.25
370.89	-2.87
371.101	12.59
371.312	20.16
371.522	18.32
371.733	22.63
371.944	31.14
372.155	10.58
372.365	-5.93
372.576	-3
372.787	5.26
372.997	8.92
373.208	15.05
373.419	22.93
373.629	33.19
373.84	33.29
374.05	16.29
374.261	29.5
374.472	29.18
374.682	16.32
374.893	20.3
375.103	40.75
375.314	27.05
375.524	27.54
375.735	33.53
375.945	31.71
376.156	21.53
376.366	21.95
376.577	29.65
376.787	24.31
376.997	21.25
377.208	20.54
377.418	17.81
377.629	18.69
377.839	25.23
378.049	23.93
378.26	27.02
378.47	36.66
378.68	29.53
378.89	23.49
379.101	26.11
379.311	14.32
379.521	4.72
379.732	11.78
379.942	14.97
380.152	2.37
380.362	12.2
380.572	11.65
380.783	3.66
380.993	0.69
381.203	16.63
381.413	30.33
381.623	36.76
381.833	43.85
382.043	41.93
382.253	37.62
382.463	25.82
382.674	22.78
382.884	19.4
383.094	8.15
383.304	8.76
383.514	7.8
383.724	20.9
383.934	14.21
384.144	22.65
384.353	26.82
384.563	31.89
384.773	21.42
384.983	21.04
385.193	23.5
385.403	8.01
385.613	9.36
385.823	8.9
386.033	6.38
386.242	0.64
386.452	7.9
386.662	0.97
386.872	5.38
387.082	10.03
387.291	6.26
387.501	5.59
387.711	7.71
387.921	4.16
388.13	5.62
388.34	9.4
388.55	10.76
388.759	8.93
388.969	9.79
389.179	5.31
389.388	2.13
389.598	3.39
389.807	5.96
390.017	5.17
390.227	9.91
390.436	11.92
390.646	9.59
390.855	10.49
391.065	9.29
391.274	6.48
391.484	4.03
391.693	4.94
391.903	3.07
392.112	4.82
392.322	5.42
392.531	6.9
392.74	4.5
392.95	5.36
393.159	5.51
393.369	5.69
393.578	5.76
393.787	7.44
393.997	6.59
394.206	6.42
394.415	6.86
394.625	7.08
394.834	7.54
395.043	7.35
395.252	8
395.462	7.07
395.671	6.57
395.88	6.99
396.089	7.38
396.298	7.52
396.508	7.24
396.717	7.02
396.926	6.55
397.135	6.74
397.344	6.23
397.553	7.23
397.762	8.04
397.971	7.93
398.181	8.23
398.39	8
398.599	7.49
398.808	7.26
399.017	7.64
399.226	7.26
399.435	7.32
399.644	7.88
399.853	8.02
400.062	8.11
400.27	8.32
400.479	8.31
400.688	7.82
400.897	7.77
401.106	7.25
401.315	7.05
401.524	7.15
401.733	7.27
401.941	7.4
402.15	7.66
402.359	7.39
402.568	7.11
402.777	6.83
402.985	6.6
403.194	6.33
403.403	6.51
403.612	6.43
403.82	6.62
404.029	6.4
404.238	6.28
404.446	6.44
404.655	6.57
404.864	6.47
405.072	6.57
405.281	6.76
405.489	6.54
405.698	6.48
405.906	6.36
406.115	6.36
406.324	6.26
406.532	6.19
406.741	6.19
406.949	6.35
407.158	6.3
407.366	6.25
407.574	6.21
407.783	6.23
407.991	6.02
408.2	5.97
408.408	5.91
408.617	6.02
408.825	6.06
409.033	6.26
409.242	6.36
409.45	6.48
409.658	6.53
409.867	6.51
410.075	6.41
410.283	6.35
410.491	6.25
410.7	6.17
410.908	6.02
411.116	6.01
411.324	6.05
411.533	6.19
411.741	6.16
411.949	6.31
412.157	6.15
412.365	5.95
412.573	5.85
412.781	5.82
412.99	5.86
413.198	5.82
413.406	5.95
413.614	5.92
413.822	5.97
414.03	5.8
414.238	5.94
414.446	6.09
414.654	6.02
414.862	5.87
415.07	5.71
415.278	5.76
415.486	5.58
415.694	5.67
415.902	5.76
416.109	5.88
416.317	5.88
416.525	5.8
416.733	5.81
416.941	5.83
417.149	5.83
417.357	5.61
417.564	5.56
417.772	5.31
417.98	5.35
418.188	5.3
418.395	5.37
418.603	5.45
418.811	5.64
419.019	5.64
419.226	5.86
419.434	5.92
419.642	5.8
419.849	5.72
420.057	5.59
420.265	5.36
420.472	5.18
420.68	5.23
420.887	5.27
421.095	5.35
421.302	5.41
421.51	5.51
421.717	5.63
421.925	5.74
422.132	5.61
422.34	5.47
422.547	5.39
422.755	5.31
422.962	5.2
423.17	5.21
423.377	5.38
423.585	5.63
423.792	5.63
423.999	5.56
424.207	5.48
424.414	5.29
424.621	5.1
424.829	5.1
425.036	5.17
425.243	5.24
425.451	5.46
425.658	5.42
425.865	5.41
426.072	5.39
426.28	5.45
426.487	5.41
426.694	5.41
426.901	5.22
427.108	5.33
427.315	5.38
427.523	5.44
427.73	5.46
427.937	5.63
428.144	5.49
428.351	5.44
428.558	5.35
428.765	5.47
428.972	5.62
429.179	5.62
429.386	5.63
429.593	5.59
429.8	5.55
430.007	5.4
430.214	5.56
430.421	5.59
430.628	5.6
430.835	5.65
431.042	5.66
431.249	5.69
431.456	5.57
431.662	5.7
431.869	5.78
432.076	5.87
432.283	5.94
432.49	5.95
432.697	5.94
432.903	5.65
433.11	5.45
433.317	5.31
433.524	5.43
433.73	5.38
433.937	5.48
434.144	5.47
434.35	5.38
434.557	5.33
434.764	5.35
434.97	5.38
435.177	5.59
435.384	5.61
435.59	5.6
435.797	5.59
436.003	5.53
436.21	5.46
436.416	5.48
436.623	5.5
436.829	5.47
437.036	5.54
437.242	5.7
437.449	5.7
437.655	5.81
437.862	5.88
438.068	5.85
438.275	5.79
438.481	5.83
438.687	5.77
438.894	5.8
439.1	5.85
439.307	5.85
439.513	5.8
439.719	5.74
439.926	5.6
440.132	5.6
440.338	5.49
440.544	5.43
440.751	5.45
440.957	5.5
441.163	5.51
441.369	5.73
441.575	5.88
441.782	5.89
441.988	6.05
442.194	5.98
442.4	5.81
442.606	5.84
442.812	5.91
443.018	5.84
443.224	6
443.431	5.92
443.637	5.89
443.843	5.89
444.049	5.91
444.255	5.8
444.461	5.95
444.667	5.91
444.873	5.84
445.079	5.72
445.284	5.73
445.49	5.71
445.696	5.7
445.902	5.72
446.108	5.8
446.314	5.78
446.52	5.79
446.726	5.74
446.931	5.81
447.137	5.76
447.343	5.75
447.549	5.75
447.755	5.82
447.96	5.85
448.166	5.84
448.372	5.87
448.578	5.88
448.783	5.96
448.989	5.9
449.195	5.88
449.4	5.94
449.606	5.9
449.812	5.88
450.017	5.91
450.223	6.02
450.428	5.95
450.634	6
450.84	6.09
451.045	6.12
451.251	6.13
451.456	6.24
451.662	6.28
451.867	6.22
452.073	6.19
452.278	6.17
452.483	6.22
452.689	6.26
452.894	6.23
453.1	6.23
453.305	6.23
453.51	6.15
453.716	6.04
453.921	6.06
454.127	6.16
454.332	6.06
454.537	6.02
454.742	6.13
454.948	6.04
455.153	5.97
455.358	6.11
455.563	6.13
455.769	6.01
455.974	6.05
456.179	5.95
456.384	5.86
456.589	5.92
456.795	6.06
457	6.21
457.205	6.36
457.41	6.48
457.615	6.39
457.82	6.36
458.025	6.23
458.23	6.23
458.435	6.16
458.64	6.21
458.845	6.22
459.05	6.27
459.255	6.25
459.46	6.31
459.665	6.33
459.87	6.24
460.075	6.21
460.28	6.11
460.485	6.1
460.69	6.08
460.895	6.14
461.099	6.06
461.304	6.13
461.509	6.24
461.714	6.29
461.919	6.26
462.123	6.35
462.328	6.35
462.533	6.3
462.738	6.21
462.942	6.19
463.147	6.28
463.352	6.41
463.556	6.39
463.761	6.33
463.966	6.42
464.17	6.43
464.375	6.38
464.58	6.27
464.784	6.4
464.989	6.28
465.193	6.25
465.398	6.28
465.602	6.51
465.807	6.56
466.011	6.69
466.216	6.52
466.42	6.47
466.625	6.42
466.829	6.43
467.034	6.43
467.238	6.57
467.443	6.53
467.647	6.32
467.851	6.29
468.056	6.32
468.26	6.33
468.464	6.4
