Data from Ofav_PS_Phys_9GT46_Reflection_2.txt Node
Date: Thu Jul 29 18:25:55 EDT 2021
User: USUARIO
Spectrometer: FLMT01687
Trigger mode: 0
Integration Time (sec): 9.010000E-1
Scans to average: 2
Electric dark correction enabled: true
Nonlinearity correction enabled: false
Boxcar width: 2
XAxis mode: Wavelengths
Number of Pixels in Spectrum: 3648
>>>>>Begin Spectral Data<<<<<
179.494	117.78
179.716	161.71
179.937	105.85
180.158	-681.92
180.38	-16.17
180.601	-433.33
180.823	-161.71
181.044	-136.87
181.265	-90.9
181.486	-525.99
181.708	61.51
181.929	315.34
182.15	14252.38
182.372	-178.27
182.593	-23.66
182.814	-32.54
183.035	-26.46
183.257	20.48
183.478	6.22
183.699	20.31
183.92	12.69
184.141	25.97
184.363	5.92
184.584	16.5
184.805	19.16
185.026	40.14
185.247	27.53
185.468	18.43
185.689	4.55
185.91	11.39
186.132	-18.07
186.353	0.44
186.574	46.11
186.795	51.22
187.016	35.54
187.237	0.74
187.458	-12.56
187.679	-19.04
187.9	-17.06
188.121	-25.2
188.342	21.31
188.563	31.69
188.784	40.71
189.005	39.54
189.226	50.41
189.447	56.53
189.667	53.38
189.888	28.47
190.109	24.67
190.33	-78.72
190.551	-81.19
190.772	-45.11
190.993	-31.61
191.214	-39.67
191.434	1.22
191.655	24.84
191.876	18.84
192.097	-10.56
192.318	38.81
192.538	32.94
192.759	25.71
192.98	28.79
193.201	49.15
193.421	31.26
193.642	28.28
193.863	21.66
194.083	-12.19
194.304	-2.9
194.525	8.95
194.745	12.17
194.966	2.93
195.187	12.08
195.407	8.66
195.628	-33.33
195.848	-17.83
196.069	29.23
196.29	31.97
196.51	20.08
196.731	36.75
196.951	29.25
197.172	-1.53
197.392	5.06
197.613	-11.13
197.833	-8.73
198.054	-4.26
198.274	15.82
198.495	20.94
198.715	13.28
198.936	26.73
199.156	25.76
199.377	25.67
199.597	38.81
199.817	55.69
200.038	42.65
200.258	24.87
200.479	-28.61
200.699	-88.62
200.919	-35.97
201.14	-48.11
201.36	-21.35
201.58	11.41
201.801	32
202.021	47.4
202.241	54.68
202.461	52.2
202.682	34.87
202.902	62.27
203.122	21.62
203.342	26.98
203.563	36.22
203.783	68.46
204.003	31.49
204.223	53.41
204.443	40.29
204.663	61.32
204.884	60.31
205.104	72.86
205.324	51.92
205.544	81.43
205.764	54.45
205.984	48.78
206.204	59.3
206.424	64.33
206.644	32.74
206.864	32.76
207.084	28.63
207.304	24.26
207.525	26.57
207.745	38.23
207.964	53.37
208.184	42.56
208.404	24.24
208.624	32.14
208.844	54.55
209.064	48.52
209.284	40.84
209.504	40.48
209.724	34.44
209.944	16.97
210.164	14.97
210.384	26.02
210.604	26.98
210.823	16.69
211.043	22.2
211.263	38.75
211.483	25.94
211.703	27.03
211.922	34.05
212.142	51.74
212.362	34.99
212.582	30.27
212.801	21.89
213.021	6.57
213.241	-10.08
213.461	-26.39
213.68	-57.48
213.9	-42.11
214.12	-11.9
214.339	-37.7
214.559	-3.24
214.779	27.22
214.998	17.38
215.218	-24.86
215.438	26.01
215.657	24.22
215.877	44.82
216.096	41.29
216.316	55.13
216.535	39.34
216.755	12.85
216.974	-31.53
217.194	-14.92
217.413	10.11
217.633	30.32
217.852	15.97
218.072	-3.14
218.291	8.26
218.511	36.47
218.73	11.67
218.95	23.6
219.169	35.2
219.389	36.26
219.608	10.16
219.827	21.96
220.047	11.74
220.266	12.34
220.485	8.07
220.705	14.86
220.924	2.6
221.143	18.38
221.363	-12.16
221.582	-4.41
221.801	-14.4
222.021	18.93
222.24	-9.85
222.459	25.34
222.678	30.99
222.897	11.84
223.117	12.2
223.336	33.74
223.555	26.8
223.774	16.48
223.993	37.22
224.213	43.74
224.432	38.88
224.651	56.69
224.87	52.85
225.089	60.11
225.308	75.1
225.527	87.64
225.746	49.89
225.965	36.59
226.184	14.07
226.404	-25.82
226.623	-25.71
226.842	-10.21
227.061	0.37
227.28	14.4
227.499	16.71
227.718	-5.91
227.936	15.38
228.155	6.48
228.374	-5.78
228.593	4.97
228.812	8.12
229.031	-5.07
229.25	9.4
229.469	7.79
229.688	3.44
229.907	20.55
230.125	25.32
230.344	26.26
230.563	30.97
230.782	41.01
231.001	6.64
231.22	-13.92
231.438	0.63
231.657	3.71
231.876	9.72
232.095	9.07
232.313	17.21
232.532	-4.39
232.751	15.22
232.969	20.32
233.188	43.35
233.407	54.63
233.625	62.25
233.844	39.8
234.063	38.89
234.281	20.51
234.5	-2.29
234.719	3.18
234.937	14.56
235.156	-4.84
235.374	29.12
235.593	41.51
235.811	45.33
236.03	31.91
236.249	33.99
236.467	33.15
236.686	37.52
236.904	23.84
237.123	24.78
237.341	8.46
237.559	-0.97
237.778	-15.1
237.996	22.84
238.215	27.82
238.433	44.8
238.652	51.39
238.87	37.91
239.088	26.27
239.307	11.4
239.525	0.06
239.743	-11.47
239.962	10.7
240.18	13.11
240.398	15.84
240.617	10.04
240.835	6.63
241.053	4.26
241.271	-0.84
241.49	12.72
241.708	31.76
241.926	41.15
242.144	34.77
242.363	29.21
242.581	29.35
242.799	37.25
243.017	36.11
243.235	36.31
243.453	34.13
243.672	24.3
243.89	-3.27
244.108	1.47
244.326	14.22
244.544	2.22
244.762	1.77
244.98	15.79
245.198	10.11
245.416	-2.83
245.634	7.2
245.852	18.56
246.07	23.66
246.288	21.28
246.506	16.28
246.724	19.62
246.942	20.81
247.16	21.36
247.378	25
247.596	32.89
247.814	35.63
248.032	31.87
248.25	43.83
248.468	56.31
248.685	50.88
248.903	45.22
249.121	41.74
249.339	11.04
249.557	-13.95
249.775	-14.09
249.992	-20.62
250.21	-16.59
250.428	13
250.646	10.94
250.863	10.11
251.081	8.94
251.299	24.83
251.517	25
251.734	33.73
251.952	31.18
252.17	34.34
252.387	29.1
252.605	39
252.823	43.43
253.04	52.73
253.258	58.89
253.475	42.01
253.693	40.36
253.911	42.56
254.128	43.55
254.346	35.85
254.563	53.79
254.781	27.79
254.998	28.77
255.216	12.66
255.433	30.51
255.651	26.36
255.868	35.8
256.086	33.56
256.303	32.31
256.521	37.18
256.738	33.2
256.956	28.56
257.173	14.41
257.39	20.54
257.608	18.24
257.825	24.01
258.043	16.37
258.26	27.71
258.477	18.79
258.695	-0.1
258.912	8.37
259.129	18.65
259.346	-11.68
259.564	-19.58
259.781	-9.59
259.998	-19.32
260.216	-7.26
260.433	8.68
260.65	-1.06
260.867	23.33
261.084	5.32
261.302	-18.36
261.519	-31.26
261.736	0.27
261.953	-32.97
262.17	-3.68
262.387	-3.16
262.604	-6.8
262.822	-19.89
263.039	-1.14
263.256	-12.04
263.473	1.24
263.69	3.72
263.907	19.12
264.124	7.06
264.341	9.64
264.558	15.08
264.775	11.71
264.992	-4.66
265.209	-13.56
265.426	-14.73
265.643	-8.19
265.86	-1.04
266.077	4.86
266.294	11.63
266.51	8.66
266.727	11.95
266.944	10.82
267.161	-34.02
267.378	-33
267.595	-22.01
267.812	-29.97
268.028	-61.23
268.245	15.73
268.462	19.65
268.679	1.26
268.896	-13.54
269.112	-7.63
269.329	-17.18
269.546	-12.84
269.763	-10.35
269.979	-3.69
270.196	23.55
270.413	38.13
270.629	25.78
270.846	27.55
271.063	27.05
271.279	7.81
271.496	-14.57
271.712	-3
271.929	2.65
272.146	21.69
272.362	17.52
272.579	50.48
272.795	51.81
273.012	34.87
273.228	10.52
273.445	21.72
273.661	-9.05
273.878	-30.73
274.094	5
274.311	8.95
274.527	8.97
274.744	27.36
274.96	25.11
275.177	3.12
275.393	12.84
275.609	30.14
275.826	16.16
276.042	26.27
276.259	21.77
276.475	22.12
276.691	12.88
276.908	26.55
277.124	22.14
277.34	30.05
277.557	19.89
277.773	-2.06
277.989	-12.25
278.205	-3
278.422	-22.94
278.638	-11.86
278.854	8.25
279.07	31.74
279.286	5.87
279.503	19.2
279.719	22.35
279.935	15.46
280.151	-12.74
280.367	13.05
280.583	34.36
280.799	23.37
281.016	27.82
281.232	45.44
281.448	50.09
281.664	52.05
281.88	43.65
282.096	49.21
282.312	39.19
282.528	20.97
282.744	3.67
282.96	24.31
283.176	17.87
283.392	23.48
283.608	36.87
283.824	39.92
284.04	45.71
284.256	67.16
284.471	75.66
284.687	71.88
284.903	62.98
285.119	54.15
285.335	10.74
285.551	6.47
285.767	-1.78
285.982	5.16
286.198	-6.72
286.414	8.29
286.63	28.89
286.846	29.95
287.061	23.72
287.277	22.68
287.493	16.32
287.709	2.08
287.924	13.82
288.14	25.23
288.356	38.45
288.571	27.45
288.787	20.1
289.003	8.58
289.218	-6.21
289.434	-6.68
289.65	29.52
289.865	36.06
290.081	28.53
290.296	33.62
290.512	30.76
290.727	3.48
290.943	2.76
291.159	1.28
291.374	20.59
291.59	19.41
291.805	16.45
292.021	28.42
292.236	45.47
292.451	5.92
292.667	-3.29
292.882	-8.94
293.098	-6.95
293.313	-12.78
293.529	26.05
293.744	27.37
293.959	22.11
294.175	24.27
294.39	23.53
294.605	11.65
294.821	17.29
295.036	21.83
295.251	14.97
295.467	1.61
295.682	9.21
295.897	6.35
296.112	10.02
296.328	11.94
296.543	17.05
296.758	3.99
296.973	18.93
297.188	25.55
297.404	1.96
297.619	18.05
297.834	33.02
298.049	16.63
298.264	16.3
298.479	41.42
298.694	24.74
298.909	23.92
299.125	22.21
299.34	30.2
299.555	15.64
299.77	43.11
299.985	18.79
300.2	13.36
300.415	4.7
300.63	17.17
300.845	1.44
301.06	5.93
301.275	34.06
301.49	23.02
301.704	-7.48
301.919	12.51
302.134	17.12
302.349	4.77
302.564	4.7
302.779	17.64
302.994	13.27
303.209	24.67
303.423	26.24
303.638	21.01
303.853	10.89
304.068	15.95
304.283	13.37
304.497	13.81
304.712	4.12
304.927	4.02
305.142	-15.74
305.356	-48.11
305.571	-33.78
305.786	0.53
306	-14.11
306.215	4.64
306.43	24.91
306.644	18.82
306.859	19.95
307.074	34.39
307.288	4.56
307.503	14.52
307.717	10.97
307.932	-4.68
308.147	-7.03
308.361	7.73
308.576	-12.47
308.79	-6.7
309.005	22.23
309.219	21.8
309.434	25.21
309.648	31.83
309.863	27.58
310.077	5.16
310.292	10.75
310.506	4.66
310.72	8.43
310.935	0.64
311.149	13.19
311.364	27.49
311.578	29.8
311.792	-0.64
312.007	11.74
312.221	11.32
312.435	-7.44
312.649	-7.63
312.864	21.73
313.078	29.6
313.292	2.31
313.507	22.98
313.721	30.45
313.935	19.49
314.149	9.19
314.363	18.22
314.578	10.31
314.792	4.79
315.006	10.34
315.22	14.87
315.434	10.05
315.648	18.48
315.862	16.68
316.077	8.06
316.291	13.22
316.505	28.4
316.719	32.72
316.933	35.49
317.147	35.85
317.361	17.6
317.575	4
317.789	-15.59
318.003	-2.02
318.217	22.23
318.431	26.25
318.645	39.25
318.859	51.98
319.073	41.43
319.287	27.81
319.5	27.23
319.714	27.03
319.928	23.33
320.142	48.3
320.356	69.24
320.57	67.23
320.784	52.53
320.997	38.84
321.211	42.03
321.425	21.24
321.639	10.62
321.853	17.52
322.066	12.07
322.28	-1.59
322.494	12.39
322.707	34.27
322.921	16.58
323.135	16.21
323.349	14.44
323.562	-14.22
323.776	-48.67
323.989	-22.49
324.203	-4.33
324.417	-14.59
324.63	-13.97
324.844	2.36
325.057	-1.52
325.271	-12.35
325.485	-1.11
325.698	12.08
325.912	15.85
326.125	15.96
326.339	18.74
326.552	14.23
326.766	14.64
326.979	30.79
327.193	36.13
327.406	38.79
327.619	42.62
327.833	50.28
328.046	38.98
328.26	44.71
328.473	28.09
328.686	29.91
328.9	13.3
329.113	-7.99
329.326	-24.66
329.54	-17.24
329.753	-39.23
329.966	-19.07
330.179	1.17
330.393	0.06
330.606	7.63
330.819	16.86
331.032	13.7
331.246	8.29
331.459	-16.11
331.672	-21.81
331.885	-12.21
332.098	-10.02
332.311	6.42
332.525	22.98
332.738	27.08
332.951	17.58
333.164	18.78
333.377	-3.37
333.59	2.14
333.803	8.9
334.016	25.8
334.229	13.03
334.442	28.32
334.655	38.02
334.868	27.13
335.081	36.84
335.294	52.38
335.507	55.18
335.72	49.1
335.933	50.84
336.146	30.88
336.359	24.1
336.572	-8.55
336.785	-17.77
336.997	-23.14
337.21	-7.03
337.423	-4.76
337.636	17.52
337.849	15.06
338.062	16.2
338.274	6.36
338.487	3.84
338.7	-16.51
338.913	12.27
339.125	20.76
339.338	19.33
339.551	18.17
339.763	18.54
339.976	-2.28
340.189	-5.8
340.402	-17.88
340.614	-30.52
340.827	3.85
341.039	3.34
341.252	-7
341.465	23.87
341.677	37.87
341.89	19.58
342.102	35.22
342.315	26.19
342.527	21.5
342.74	4.16
342.952	7.87
343.165	16.81
343.377	24.89
343.59	12.83
343.802	22.86
344.015	25.79
344.227	-3.95
344.44	-1.58
344.652	-3.63
344.864	-20.46
345.077	-15.75
345.289	0.91
345.502	-5.39
345.714	8.96
345.926	28.4
346.139	29.31
346.351	20.47
346.563	30.92
346.775	23.74
346.988	19.84
347.2	7.7
347.412	17.13
347.624	23.15
347.837	23.91
348.049	13.87
348.261	29.4
348.473	21.87
348.685	17.71
348.897	15.03
349.11	22.48
349.322	22.68
349.534	33.85
349.746	19.44
349.958	15.16
350.17	6.99
350.382	5.87
350.594	-5.68
350.806	19.89
351.018	17.73
351.23	20.79
351.442	23.3
351.654	35.29
351.866	7.2
352.078	20.62
352.29	11.92
352.502	23.62
352.714	8.15
352.926	14.75
353.138	27.32
353.35	21.88
353.561	-6.19
353.773	18.38
353.985	14.07
354.197	24.13
354.409	25.35
354.621	15.81
354.832	4.25
355.044	13.18
355.256	-11.6
355.468	-2.27
355.679	9.28
355.891	12.18
356.103	15.38
356.314	20.68
356.526	23.49
356.738	25.5
356.949	20.59
357.161	19.03
357.373	28.64
357.584	18.39
357.796	25.58
358.008	19
358.219	3.31
358.431	-8.77
358.642	-7.44
358.854	-14.48
359.065	12.06
359.277	18.04
359.488	20.45
359.7	20.81
359.911	32.96
360.123	13.38
360.334	17.12
360.546	11.44
360.757	9.72
360.969	-1.72
361.18	26.01
361.391	45.67
361.603	38.2
361.814	52.35
362.025	48.45
362.237	38.58
362.448	26.44
362.659	27.16
362.871	24.86
363.082	27.9
363.293	11.3
363.504	3.17
363.716	11.91
363.927	0.23
364.138	-26.92
364.349	-9.44
364.56	-6.22
364.772	-22.11
364.983	-11.03
365.194	9.43
365.405	8.02
365.616	3.44
365.827	22.54
366.038	18.09
366.25	-2.87
366.461	-3.05
366.672	-1.28
366.883	-0.71
367.094	-17.1
367.305	5.1
367.516	11.96
367.727	17.69
367.938	14.66
368.149	23.32
368.36	27.47
368.571	28.21
368.781	21.99
368.992	9.27
369.203	21.75
369.414	17.32
369.625	17.63
369.836	21.19
370.047	21.24
370.258	13.84
370.468	10.49
370.679	-6.84
370.89	-19.38
371.101	-3.06
371.312	-8.7
371.522	-4.79
371.733	-7.95
371.944	-8.14
372.155	-22
372.365	-27.19
372.576	-30.49
372.787	-0.09
372.997	14.61
373.208	16.81
373.419	23.86
373.629	35.94
373.84	42.69
374.05	26.41
374.261	12.9
374.472	8.91
374.682	3.27
374.893	1.36
375.103	15.78
375.314	31.5
375.524	31.17
375.735	30.21
375.945	21.64
376.156	18.84
376.366	6.92
376.577	22.1
376.787	20.6
376.997	20.57
377.208	3.7
377.418	-0.08
377.629	-16.18
377.839	-13.75
378.049	-19.56
378.26	-0.42
378.47	9.6
378.68	19.75
378.89	21.97
379.101	35.82
379.311	24.71
379.521	19.88
379.732	5.67
379.942	4.59
380.152	-8.43
380.362	-9.02
380.572	-13.02
380.783	-12.61
380.993	-17.2
381.203	-17.53
381.413	-20.36
381.623	-13.37
381.833	9.53
382.043	10.64
382.253	9.06
382.463	8.08
382.674	22.5
382.884	18.15
383.094	9.41
383.304	7.86
383.514	7.13
383.724	3.46
383.934	-4.03
384.144	5.72
384.353	8.81
384.563	13.51
384.773	9.05
384.983	13.36
385.193	20.43
385.403	15.06
385.613	17.75
385.823	16.37
386.033	13.25
386.242	4.44
386.452	4.04
386.662	-4.18
386.872	-4.15
387.082	-4.81
387.291	-8.9
387.501	-1.83
387.711	1.85
387.921	0.42
388.13	5.06
388.34	10.97
388.55	8.44
388.759	7.35
388.969	12.22
389.179	8.43
389.388	5.5
389.598	4.48
389.807	5.64
390.017	1.97
390.227	6.87
390.436	8.55
390.646	11
390.855	11.97
391.065	10.93
391.274	6.6
391.484	2.38
391.693	0.46
391.903	0.4
392.112	1.24
392.322	3.43
392.531	5.26
392.74	5.18
392.95	4.92
393.159	5.12
393.369	6.19
393.578	6.49
393.787	6.89
393.997	4.56
394.206	4.57
394.415	3.94
394.625	3.98
394.834	3.21
395.043	4.01
395.252	5.59
395.462	5.29
395.671	6.05
395.88	7.62
396.089	8.94
396.298	8.15
396.508	7.21
396.717	6.71
396.926	6.12
397.135	4.9
397.344	4.59
397.553	5.56
397.762	5.8
397.971	5.86
398.181	6.97
398.39	6.97
398.599	6.83
398.808	6.86
399.017	7.28
399.226	6.9
399.435	7.22
399.644	7.44
399.853	7.55
400.062	7.62
400.27	7.76
400.479	7.49
400.688	7.01
400.897	6.83
401.106	6.66
401.315	6.35
401.524	6.66
401.733	6.65
401.941	6.94
402.15	6.79
402.359	6.72
402.568	6.75
402.777	6.97
402.985	6.75
403.194	6.69
403.403	6.76
403.612	6.52
403.82	6.39
404.029	6.15
404.238	6.17
404.446	6.15
404.655	5.96
404.864	5.95
405.072	5.92
405.281	5.98
405.489	5.97
405.698	6.17
405.906	6.13
406.115	6.22
406.324	5.96
406.532	5.94
406.741	5.85
406.949	5.96
407.158	5.95
407.366	6
407.574	5.88
407.783	5.88
407.991	5.69
408.2	5.61
408.408	5.62
408.617	5.67
408.825	5.67
409.033	5.83
409.242	5.98
409.45	5.93
409.658	6.12
409.867	6.22
410.075	6.12
410.283	6.09
410.491	6.02
410.7	5.82
410.908	5.7
411.116	5.77
411.324	5.72
411.533	5.79
411.741	5.85
411.949	5.93
412.157	5.72
412.365	5.53
412.573	5.5
412.781	5.5
412.99	5.49
413.198	5.49
413.406	5.58
413.614	5.67
413.822	5.63
414.03	5.58
414.238	5.64
414.446	5.77
414.654	5.62
414.862	5.58
415.07	5.4
415.278	5.38
415.486	5.12
415.694	5.19
415.902	5.1
416.109	5.13
416.317	5.12
416.525	5.13
416.733	5.13
416.941	5.22
417.149	5.11
417.357	4.88
417.564	4.85
417.772	4.73
417.98	4.85
418.188	5.01
418.395	5.19
418.603	5.29
418.811	5.31
419.019	5.19
419.226	5.53
419.434	5.66
419.642	5.68
419.849	5.65
420.057	5.66
420.265	5.22
420.472	5
420.68	4.95
420.887	5.11
421.095	5.08
421.302	5.14
421.51	5.12
421.717	5.12
421.925	4.93
422.132	4.81
422.34	4.71
422.547	4.77
422.755	4.89
422.962	4.88
423.17	4.81
423.377	4.88
423.585	4.92
423.792	4.98
423.999	5.05
424.207	5.14
424.414	5.23
424.621	5.33
424.829	5.05
425.036	5.08
425.243	5.15
425.451	4.94
425.658	4.75
425.865	4.88
426.072	4.84
426.28	4.96
426.487	5.11
426.694	5.05
426.901	4.87
427.108	4.84
427.315	4.85
427.523	4.81
427.73	4.96
427.937	5.16
428.144	5.08
428.351	4.94
428.558	4.98
428.765	4.99
428.972	4.99
429.179	5.05
429.386	5.13
429.593	5.16
429.8	5.13
430.007	5.22
430.214	5.47
430.421	5.48
430.628	5.39
430.835	5.5
431.042	5.49
431.249	5.41
431.456	5.28
431.662	5.66
431.869	5.73
432.076	5.76
432.283	5.84
432.49	5.8
432.697	5.63
432.903	5.44
433.11	5.39
433.317	5.22
433.524	5.46
433.73	5.39
433.937	5.39
434.144	5.4
434.35	5.42
434.557	5.27
434.764	5.2
434.97	5.25
435.177	5.32
435.384	5.22
435.59	5.36
435.797	5.44
436.003	5.48
436.21	5.48
436.416	5.63
436.623	5.6
436.829	5.69
437.036	5.72
437.242	5.84
437.449	5.84
437.655	5.92
437.862	5.96
438.068	5.9
438.275	5.84
438.481	5.86
438.687	5.79
438.894	5.86
439.1	5.9
439.307	5.88
439.513	5.89
439.719	5.93
439.926	5.83
440.132	5.98
440.338	6.12
440.544	6.07
440.751	6.03
440.957	6.15
441.163	6.03
441.369	5.99
441.575	6.06
441.782	6.08
441.988	6.01
442.194	5.96
442.4	5.95
442.606	6.1
442.812	6.14
443.018	6.12
443.224	6.3
443.431	6.23
443.637	6.12
443.843	6.14
444.049	6.23
444.255	6.07
444.461	6.06
444.667	6.07
444.873	5.98
445.079	5.88
445.284	6.03
445.49	6.05
445.696	6.02
445.902	6.09
446.108	6.1
446.314	6.05
446.52	6.15
446.726	6.12
446.931	6.18
447.137	6.26
447.343	6.2
447.549	6.17
447.755	6.12
447.96	6.15
448.166	6.11
448.372	6.09
448.578	6.23
448.783	6.4
448.989	6.42
449.195	6.39
449.4	6.5
449.606	6.34
449.812	6.31
450.017	6.32
450.223	6.35
450.428	6.37
450.634	6.5
450.84	6.63
451.045	6.54
451.251	6.51
451.456	6.53
451.662	6.38
451.867	6.27
452.073	6.32
452.278	6.31
452.483	6.38
452.689	6.51
452.894	6.49
453.1	6.5
453.305	6.54
453.51	6.44
453.716	6.42
453.921	6.52
454.127	6.59
454.332	6.53
454.537	6.51
454.742	6.55
454.948	6.51
455.153	6.46
455.358	6.59
455.563	6.69
455.769	6.57
455.974	6.48
456.179	6.38
456.384	6.31
456.589	6.32
456.795	6.42
457	6.56
457.205	6.82
457.41	6.86
457.615	6.77
457.82	6.83
458.025	6.81
458.23	6.66
458.435	6.66
458.64	6.64
458.845	6.67
459.05	6.62
459.255	6.65
459.46	6.8
459.665	6.94
459.87	6.88
460.075	6.86
460.28	6.85
460.485	6.74
460.69	6.68
460.895	6.6
461.099	6.67
461.304	6.63
461.509	6.6
461.714	6.53
461.919	6.62
462.123	6.66
462.328	6.73
462.533	6.66
462.738	6.72
462.942	6.68
463.147	6.79
463.352	6.83
463.556	6.94
463.761	6.95
463.966	7.08
464.17	7.05
464.375	6.93
464.58	6.98
464.784	6.98
464.989	6.91
465.193	6.87
465.398	6.99
465.602	7.1
465.807	7.22
466.011	7.27
466.216	7.23
466.42	7.26
466.625	7.32
466.829	7.31
467.034	7.34
467.238	7.36
467.443	7.35
467.647	7.16
467.851	7.13
468.056	7.14
468.26	7.09
