Data from Ofav_PS_Phys_362_Reflection_1.txt Node
Date: Thu Jul 29 18:21:32 EDT 2021
User: USUARIO
Spectrometer: FLMT01687
Trigger mode: 0
Integration Time (sec): 9.010000E-1
Scans to average: 2
Electric dark correction enabled: true
Nonlinearity correction enabled: false
Boxcar width: 2
XAxis mode: Wavelengths
Number of Pixels in Spectrum: 3648
>>>>>Begin Spectral Data<<<<<
179.494	-81.9
179.716	-97.3
179.937	-77.14
180.158	288.14
180.38	-29.89
180.601	-766.93
180.823	-284.21
181.044	-206.17
181.265	-169.23
181.486	-403.39
181.708	168.1
181.929	449.37
182.15	19171.43
182.372	-254.59
182.593	-73.92
182.814	-24.81
183.035	-703.09
183.257	120
183.478	51.46
183.699	70.8
183.92	66.97
184.141	50.64
184.363	60.01
184.584	71.66
184.805	50.02
185.026	59.31
185.247	45.27
185.468	23.77
185.689	1.65
185.91	24.65
186.132	-12.3
186.353	12.28
186.574	43
186.795	54.05
187.016	44.15
187.237	25.61
187.458	24.69
187.679	22.52
187.9	27.43
188.121	35.68
188.342	46.79
188.563	63.33
188.784	56.98
189.005	59.19
189.226	49.34
189.447	74.41
189.667	72.14
189.888	82.81
190.109	91.53
190.33	148.5
190.551	72.63
190.772	39.93
190.993	43.46
191.214	33.72
191.434	31.36
191.655	41.11
191.876	51.67
192.097	18.07
192.318	18.57
192.538	55.2
192.759	38.53
192.98	46.91
193.201	67.62
193.421	63.85
193.642	39.78
193.863	39.55
194.083	4.41
194.304	20.46
194.525	64.07
194.745	63.77
194.966	50.62
195.187	71.63
195.407	45.9
195.628	13.12
195.848	37.89
196.069	62.76
196.29	67.48
196.51	71.03
196.731	57.98
196.951	57.64
197.172	52.92
197.392	43.25
197.613	35.9
197.833	32.03
198.054	-5.88
198.274	-13.18
198.495	-13.5
198.715	-27.99
198.936	-20.1
199.156	12.97
199.377	42.01
199.597	61.26
199.817	71.68
200.038	105.21
200.258	104.74
200.479	109.07
200.699	56.75
200.919	72.34
201.14	29.94
201.36	34.95
201.58	32.66
201.801	61.46
202.021	70.77
202.241	75.52
202.461	85.13
202.682	84.76
202.902	65.15
203.122	53.07
203.342	86.33
203.563	90.72
203.783	100.19
204.003	102.91
204.223	148.25
204.443	86.85
204.663	73.7
204.884	75.85
205.104	85.44
205.324	40
205.544	34.43
205.764	25.62
205.984	34.89
206.204	36.41
206.424	43.08
206.644	32.22
206.864	40.56
207.084	4.01
207.304	9.52
207.525	31.81
207.745	100.27
207.964	80.03
208.184	94.09
208.404	91.63
208.624	76.37
208.844	42.95
209.064	44.46
209.284	89.68
209.504	95.18
209.724	97.39
209.944	99.58
210.164	82.28
210.384	59.8
210.604	48.67
210.823	30.94
211.043	7.48
211.263	57.84
211.483	39
211.703	40.4
211.922	44.03
212.142	45.2
212.362	24.83
212.582	45.3
212.801	47.29
213.021	41.34
213.241	59.09
213.461	39.71
213.68	6.38
213.9	19.67
214.12	32.99
214.339	9.16
214.559	5.05
214.779	31.71
214.998	2.38
215.218	-43.31
215.438	-30.4
215.657	-4.49
215.877	9.7
216.096	-0.79
216.316	10.1
216.535	-3.78
216.755	-13.4
216.974	-38.68
217.194	14.89
217.413	28.16
217.633	48.17
217.852	33.31
218.072	35.66
218.291	3.58
218.511	30.39
218.73	15.77
218.95	26.65
219.169	41.2
219.389	41.8
219.608	32.06
219.827	41.98
220.047	39.97
220.266	21.9
220.485	35.73
220.705	20.94
220.924	2.32
221.143	-1.1
221.363	-21.48
221.582	-22.22
221.801	-44.22
222.021	7.54
222.24	-0.78
222.459	32.29
222.678	29.72
222.897	31.64
223.117	32.84
223.336	34.65
223.555	32.56
223.774	32.51
223.993	43.99
224.213	48.17
224.432	53.19
224.651	57.23
224.87	45.17
225.089	44.7
225.308	45.65
225.527	47.76
225.746	40.34
225.965	38.37
226.184	22.77
226.404	-1.2
226.623	14.38
226.842	5.51
227.061	7.89
227.28	25.91
227.499	52.75
227.718	62.75
227.936	45.15
228.155	56.83
228.374	21.99
228.593	28.67
228.812	6.19
229.031	21.32
229.25	11.44
229.469	30.56
229.688	22.72
229.907	41.75
230.125	39.4
230.344	58.78
230.563	58.62
230.782	60.32
231.001	49.51
231.22	33.31
231.438	28.95
231.657	19.3
231.876	31.92
232.095	37.28
232.313	45.1
232.532	37.52
232.751	50.16
232.969	43.59
233.188	42.01
233.407	29.56
233.625	38.75
233.844	64.32
234.063	60.9
234.281	53.7
234.5	33.41
234.719	24.3
234.937	-12.98
235.156	-30.81
235.374	6.96
235.593	27.78
235.811	27.43
236.03	33.18
236.249	41.86
236.467	37
236.686	39.67
236.904	32.15
237.123	33.78
237.341	13.85
237.559	11.27
237.778	30.06
237.996	36.84
238.215	42.51
238.433	55.77
238.652	55.7
238.87	40.48
239.088	50.35
239.307	39.13
239.525	24.7
239.743	14.66
239.962	26.67
240.18	23.05
240.398	29.74
240.617	25.01
240.835	24.96
241.053	25.38
241.271	6.93
241.49	4.02
241.708	25.9
241.926	19.37
242.144	4.86
242.363	21.29
242.581	22.84
242.799	19.7
243.017	38.99
243.235	37.35
243.453	36.08
243.672	48.36
243.89	35.16
244.108	42.3
244.326	62.2
244.544	42.26
244.762	29.9
244.98	41.09
245.198	47.53
245.416	24.7
245.634	36.13
245.852	40.94
246.07	47.03
246.288	42.69
246.506	53.04
246.724	59.79
246.942	44.12
247.16	52.77
247.378	22.75
247.596	30.43
247.814	25.18
248.032	31.22
248.25	27.25
248.468	41.61
248.685	41.37
248.903	53.18
249.121	58.89
249.339	39.28
249.557	50.03
249.775	49.71
249.992	17.77
250.21	16.98
250.428	46.53
250.646	48.31
250.863	44.05
251.081	58.64
251.299	61.25
251.517	48.7
251.734	56.48
251.952	52.87
252.17	46.27
252.387	49.32
252.605	43.08
252.823	32.71
253.04	38.76
253.258	35.1
253.475	23.45
253.693	27.15
253.911	32.58
254.128	37.49
254.346	34
254.563	51.56
254.781	37.21
254.998	29.45
255.216	0.11
255.433	21.59
255.651	10.42
255.868	21.35
256.086	20.56
256.303	33.32
256.521	44.13
256.738	35.38
256.956	38.17
257.173	36.93
257.39	55.67
257.608	34.43
257.825	50.93
258.043	34.23
258.26	32.5
258.477	8.3
258.695	2.41
258.912	-8.38
259.129	13.98
259.346	15.17
259.564	32.47
259.781	13.39
259.998	14.77
260.216	32.44
260.433	32.46
260.65	38.64
260.867	52.66
261.084	63.75
261.302	45.91
261.519	53.02
261.736	46.17
261.953	44.85
262.17	46.72
262.387	41.43
262.604	26.16
262.822	-2.71
263.039	8.42
263.256	-8.59
263.473	20.8
263.69	27.57
263.907	76.7
264.124	79.98
264.341	84.7
264.558	60.28
264.775	62.26
264.992	45.1
265.209	25.23
265.426	31.33
265.643	40.57
265.86	35.24
266.077	38.21
266.294	40
266.51	17
266.727	25.49
266.944	25.52
267.161	8.52
267.378	12.17
267.595	41.74
267.812	16.22
268.028	6.56
268.245	13.18
268.462	12.54
268.679	-6.18
268.896	4.77
269.112	15.77
269.329	31.3
269.546	38.35
269.763	48.96
269.979	57.67
270.196	75.85
270.413	67.7
270.629	68.37
270.846	67.2
271.063	59.5
271.279	63.89
271.496	64.19
271.712	53.1
271.929	49.93
272.146	62.73
272.362	40.17
272.579	64.79
272.795	64.46
273.012	45.9
273.228	37.1
273.445	44.57
273.661	23.8
273.878	21.42
274.094	32.42
274.311	35.15
274.527	34
274.744	45.37
274.96	40.84
275.177	35.83
275.393	37.5
275.609	41.6
275.826	29.96
276.042	40.31
276.259	23.4
276.475	19.91
276.691	25.22
276.908	7.36
277.124	-9.42
277.34	21.78
277.557	16.54
277.773	-6.73
277.989	13.41
278.205	28.72
278.422	-1.57
278.638	-7.93
278.854	2.98
279.07	20.53
279.286	4.93
279.503	29.79
279.719	39.88
279.935	46.42
280.151	27.53
280.367	37.77
280.583	49.03
280.799	33.39
281.016	26.29
281.232	45.82
281.448	52.71
281.664	47.8
281.88	42.27
282.096	54.98
282.312	49.66
282.528	41.65
282.744	35.77
282.96	58.87
283.176	42.48
283.392	40.85
283.608	41.07
283.824	43.94
284.04	22.1
284.256	33.83
284.471	32.72
284.687	18.89
284.903	-2.23
285.119	32.46
285.335	7.57
285.551	20.13
285.767	34.45
285.982	32.57
286.198	18.49
286.414	26.39
286.63	20.79
286.846	18.05
287.061	13.07
287.277	33.87
287.493	35.08
287.709	26.68
287.924	29.02
288.14	36.63
288.356	29.9
288.571	36.48
288.787	28.77
289.003	31.36
289.218	23.23
289.434	24.6
289.65	22.26
289.865	51.05
290.081	37.07
290.296	42.77
290.512	31.28
290.727	21.61
290.943	18.31
291.159	30.63
291.374	50.94
291.59	54.62
291.805	49.81
292.021	46.15
292.236	36.4
292.451	-11.99
292.667	-10
292.882	-13.53
293.098	-9.21
293.313	-13.44
293.529	13.29
293.744	14.35
293.959	27.45
294.175	34.7
294.39	22.61
294.605	21.64
294.821	25.24
295.036	20.52
295.251	8.93
295.467	17.24
295.682	23.08
295.897	13.82
296.112	14.07
296.328	25.56
296.543	9.03
296.758	6.51
296.973	5
297.188	2.31
297.404	-16.07
297.619	17.69
297.834	-1.96
298.049	16.65
298.264	23.02
298.479	39.32
298.694	27.59
298.909	35.41
299.125	23.91
299.34	45.78
299.555	23.44
299.77	25.29
299.985	-4.04
300.2	5.7
300.415	-8.94
300.63	26.49
300.845	30.62
301.06	39.82
301.275	58.58
301.49	57.92
301.704	31.98
301.919	33.52
302.134	57.16
302.349	35.2
302.564	42.24
302.779	55.54
302.994	60.36
303.209	61.4
303.423	84.47
303.638	97.36
303.853	94.67
304.068	77.5
304.283	66.14
304.497	46.04
304.712	23.45
304.927	25.56
305.142	22.44
305.356	1.02
305.571	16.49
305.786	29.47
306	1.97
306.215	0.08
306.43	9.42
306.644	-13.39
306.859	-21.81
307.074	18.65
307.288	20.19
307.503	33.86
307.717	45.95
307.932	44.79
308.147	31.5
308.361	23.25
308.576	14.66
308.79	-19.33
309.005	17.13
309.219	24.14
309.434	32.19
309.648	16.78
309.863	29.62
310.077	13.82
310.292	7.64
310.506	5.62
310.72	21.33
310.935	41.08
311.149	46
311.364	60.79
311.578	67.69
311.792	47.06
312.007	22.57
312.221	4.18
312.435	14.71
312.649	6.57
312.864	26.99
313.078	29.2
313.292	41.22
313.507	43.28
313.721	36.54
313.935	15.94
314.149	22.96
314.363	8.58
314.578	11.48
314.792	26.7
315.006	46.65
315.22	49.16
315.434	54.87
315.648	57.19
315.862	45.16
316.077	35.74
316.291	27.76
316.505	35.09
316.719	34.97
316.933	42.09
317.147	64.37
317.361	68.55
317.575	52.85
317.789	33.46
318.003	26.37
318.217	26.41
318.431	28.63
318.645	28.51
318.859	38.81
319.073	33.11
319.287	11.33
319.5	9.03
319.714	28.88
319.928	18.22
320.142	28.04
320.356	40.29
320.57	34.37
320.784	26.45
320.997	23.41
321.211	20.45
321.425	12.61
321.639	7.02
321.853	17.14
322.066	16.04
322.28	13.74
322.494	22.93
322.707	35.79
322.921	23.39
323.135	25.81
323.349	22.78
323.562	10.46
323.776	11.05
323.989	25.59
324.203	27.66
324.417	32.64
324.63	24.82
324.844	22.9
325.057	11.84
325.271	4.11
325.485	-0.07
325.698	19.33
325.912	23.68
326.125	18.15
326.339	13.38
326.552	28.4
326.766	20.94
326.979	16.99
327.193	25.38
327.406	36.41
327.619	28.14
327.833	26.48
328.046	33.22
328.26	42.12
328.473	30.45
328.686	45.75
328.9	52.46
329.113	41.93
329.326	10.28
329.54	6.1
329.753	-5.47
329.966	19.58
330.179	21.73
330.393	37.72
330.606	48.6
330.819	49.69
331.032	41.13
331.246	45.61
331.459	25.32
331.672	16.95
331.885	16.64
332.098	28.07
332.311	32.95
332.525	39.5
332.738	32.13
332.951	23.89
333.164	23.71
333.377	14.23
333.59	16.22
333.803	41.93
334.016	49.55
334.229	35.71
334.442	43.02
334.655	42.5
334.868	25.67
335.081	29.36
335.294	35.37
335.507	27.56
335.72	33.06
335.933	28.85
336.146	32.6
336.359	32.22
336.572	18.11
336.785	20.28
336.997	21.86
337.21	16.22
337.423	20.11
337.636	31.32
337.849	33.14
338.062	43.57
338.274	64.25
338.487	56.38
338.7	47.87
338.913	36.46
339.125	21.52
339.338	5.48
339.551	13.26
339.763	16.07
339.976	5.07
340.189	21.68
340.402	31.34
340.614	15.55
340.827	36.44
341.039	55.78
341.252	61.25
341.465	53.99
341.677	54.29
341.89	39.11
342.102	35.99
342.315	28.34
342.527	27.9
342.74	26.77
342.952	44.88
343.165	46.26
343.377	42.92
343.59	31.19
343.802	28.57
344.015	26.54
344.227	14.98
344.44	19.96
344.652	32.7
344.864	38.52
345.077	38.98
345.289	29.25
345.502	24.1
345.714	24.57
345.926	23.4
346.139	16.71
346.351	24.44
346.563	27.97
346.775	16.7
346.988	15.56
347.2	11.99
347.412	16.55
347.624	26.72
347.837	21.6
348.049	21.19
348.261	12.99
348.473	11.27
348.685	2.02
348.897	19.39
349.11	17.33
349.322	28.41
349.534	38.59
349.746	44.06
349.958	39.9
350.17	35.02
350.382	26.5
350.594	11.97
350.806	19.44
351.018	19.23
351.23	31.24
351.442	26.9
351.654	24.5
351.866	-1.08
352.078	16.73
352.29	8.97
352.502	15.33
352.714	18.83
352.926	29.92
353.138	22.35
353.35	14.49
353.561	4.56
353.773	26.86
353.985	31.67
354.197	27.75
354.409	41.25
354.621	43.39
354.832	26.78
355.044	24.48
355.256	27.12
355.468	22.53
355.679	35.16
355.891	39.56
356.103	37.89
356.314	44.91
356.526	41.14
356.738	40.34
356.949	48.31
357.161	60.56
357.373	52.61
357.584	46.2
357.796	62.02
358.008	45.99
358.219	34.17
358.431	28.62
358.642	45.98
358.854	16.12
359.065	24.08
359.277	10.47
359.488	25.56
359.7	19.82
359.911	21.28
360.123	20.62
360.334	35.94
360.546	25.04
360.757	32.68
360.969	39.87
361.18	39.07
361.391	32.61
361.603	35.25
361.814	37.22
362.025	26.87
362.237	16
362.448	20.82
362.659	10.96
362.871	5.08
363.082	5.43
363.293	16.54
363.504	17.28
363.716	27.01
363.927	16.51
364.138	2.76
364.349	8.88
364.56	5.95
364.772	-5.27
364.983	-0.71
365.194	16.19
365.405	11.17
365.616	8.04
365.827	11.96
366.038	13.06
366.25	4.62
366.461	10.21
366.672	15.28
366.883	27.78
367.094	15.86
367.305	23.31
367.516	23.11
367.727	25.01
367.938	23.38
368.149	30.62
368.36	28.96
368.571	25.65
368.781	18.27
368.992	5.67
369.203	19.87
369.414	23.9
369.625	35.08
369.836	31.01
370.047	36.97
370.258	32.35
370.468	36.27
370.679	17.82
370.89	18.62
371.101	36.77
371.312	24.12
371.522	11.6
371.733	19.65
371.944	16.17
372.155	-4.01
372.365	8.01
372.576	17.88
372.787	24.29
372.997	30.39
373.208	31.24
373.419	32.52
373.629	35.82
373.84	38.65
374.05	30.36
374.261	30.62
374.472	25.03
374.682	3.65
374.893	1.13
375.103	15.9
375.314	13
375.524	18.06
375.735	44.34
375.945	45.22
376.156	44.16
376.366	34.31
376.577	36.76
376.787	8.87
376.997	8.8
377.208	-1.75
377.418	7.44
377.629	12.73
377.839	29.75
378.049	31
378.26	35.56
378.47	37.79
378.68	33.6
378.89	24.3
379.101	26.41
379.311	15.02
379.521	10.63
379.732	5.14
379.942	4.94
380.152	0.06
380.362	7.2
380.572	8
380.783	6.96
380.993	10.65
381.203	19.02
381.413	13.13
381.623	10.87
381.833	30.56
382.043	31.76
382.253	20.84
382.463	23.62
382.674	22.26
382.884	9.1
383.094	-4.49
383.304	-2.81
383.514	1.37
383.724	14.53
383.934	10.61
384.144	15.65
384.353	23.87
384.563	23.01
384.773	16.44
384.983	22.5
385.193	26.88
385.403	18.51
385.613	17.81
385.823	16.55
386.033	11.03
386.242	6.8
386.452	5.07
386.662	4.93
386.872	5.3
387.082	9.75
387.291	9.94
387.501	14.92
387.711	10.98
387.921	7.73
388.13	3.32
388.34	4.78
388.55	2.44
388.759	1.97
388.969	2.75
389.179	4.01
389.388	3.44
389.598	4.64
389.807	7.57
390.017	6.31
390.227	10.34
390.436	9.22
390.646	6.99
390.855	7.22
391.065	7.59
391.274	4.48
391.484	3.37
391.693	2.89
391.903	2.77
392.112	2.75
392.322	2.84
392.531	4.07
392.74	4.26
392.95	4.43
393.159	7.02
393.369	8.11
393.578	8.25
393.787	8.76
393.997	7.5
394.206	6.78
394.415	6.5
394.625	6.38
394.834	6.15
395.043	5.96
395.252	6.3
395.462	5.56
395.671	5.31
395.88	6.49
396.089	7.16
396.298	6.83
396.508	6.61
396.717	6.67
396.926	5.37
397.135	5.08
397.344	4.55
397.553	5.36
397.762	5.16
397.971	5.81
398.181	6.25
398.39	5.83
398.599	5.28
398.808	5.52
399.017	5.86
399.226	5.87
399.435	6.21
399.644	6.44
399.853	6.38
400.062	6.12
400.27	6.07
400.479	6.23
400.688	6.05
400.897	6.06
401.106	5.86
401.315	5.45
401.524	5.5
401.733	5.53
401.941	5.65
402.15	5.67
402.359	5.74
402.568	5.54
402.777	5.45
402.985	5.34
403.194	5.04
403.403	5.07
403.612	5.04
403.82	5
404.029	4.82
404.238	4.94
404.446	4.91
404.655	4.89
404.864	4.99
405.072	5.03
405.281	5.04
405.489	4.92
405.698	4.94
405.906	4.82
406.115	4.87
406.324	4.73
406.532	4.84
406.741	4.78
406.949	4.8
407.158	4.89
407.366	4.88
407.574	4.79
407.783	4.72
407.991	4.54
408.2	4.39
408.408	4.32
408.617	4.4
408.825	4.48
409.033	4.66
409.242	4.75
409.45	4.92
409.658	4.95
409.867	4.93
410.075	4.81
410.283	4.67
410.491	4.48
410.7	4.43
410.908	4.45
411.116	4.58
411.324	4.52
411.533	4.57
411.741	4.62
411.949	4.63
412.157	4.5
412.365	4.51
412.573	4.55
412.781	4.51
412.99	4.5
413.198	4.56
413.406	4.67
413.614	4.74
413.822	4.71
414.03	4.7
414.238	4.68
414.446	4.62
414.654	4.44
414.862	4.43
415.07	4.16
415.278	4.21
415.486	4.13
415.694	4.24
415.902	4.16
416.109	4.34
416.317	4.36
416.525	4.29
416.733	4.36
416.941	4.3
417.149	4.35
417.357	4.13
417.564	4.28
417.772	4.13
417.98	4.15
418.188	4.04
418.395	4.05
418.603	3.84
418.811	3.97
419.019	4.09
419.226	4.37
419.434	4.41
419.642	4.45
419.849	4.22
420.057	4.13
420.265	3.83
420.472	3.81
420.68	3.95
420.887	4.04
421.095	4.15
421.302	4.22
421.51	4.4
421.717	4.29
421.925	4.37
422.132	4.31
422.34	4.13
422.547	3.79
422.755	3.99
422.962	4.01
423.17	3.98
423.377	4.16
423.585	4.32
423.792	4.23
423.999	4.08
424.207	3.95
424.414	3.91
424.621	4.01
424.829	3.94
425.036	3.97
425.243	4.1
425.451	4.04
425.658	3.94
425.865	3.91
426.072	3.89
426.28	3.83
426.487	3.89
426.694	3.87
426.901	3.83
427.108	3.82
427.315	3.94
427.523	4.02
427.73	3.88
427.937	3.97
428.144	4.04
428.351	3.97
428.558	4.07
428.765	4.25
428.972	4.23
429.179	4.12
429.386	4.06
429.593	3.92
429.8	3.89
430.007	3.86
430.214	4.02
430.421	4.09
430.628	3.97
430.835	3.92
431.042	3.85
431.249	3.81
431.456	3.8
431.662	3.99
431.869	4.26
432.076	4.35
432.283	4.41
432.49	4.4
432.697	4.33
432.903	4.02
433.11	4.03
433.317	3.91
433.524	3.95
433.73	3.86
433.937	3.95
434.144	3.86
434.35	3.82
434.557	3.75
434.764	3.75
434.97	3.74
435.177	3.85
435.384	3.82
435.59	3.89
435.797	3.85
436.003	3.86
436.21	3.7
436.416	3.81
436.623	3.78
436.829	3.89
437.036	3.87
437.242	4.01
437.449	4.04
437.655	4.13
437.862	4.15
438.068	4.01
438.275	4.1
438.481	4.09
438.687	3.98
438.894	3.96
439.1	4.14
439.307	3.97
439.513	3.88
439.719	3.83
439.926	3.85
440.132	3.81
440.338	3.89
440.544	3.86
440.751	3.83
440.957	3.85
441.163	3.8
441.369	3.83
441.575	3.91
441.782	3.91
441.988	3.92
442.194	3.95
442.4	3.88
442.606	3.93
442.812	4.1
443.018	4.08
443.224	4.12
443.431	4.15
443.637	4.15
443.843	4.09
444.049	4.07
444.255	3.96
444.461	4.04
444.667	3.84
444.873	3.74
445.079	3.8
445.284	3.87
445.49	3.76
445.696	3.87
445.902	3.94
446.108	3.72
446.314	3.77
446.52	3.88
446.726	3.88
446.931	3.9
447.137	4.08
447.343	4.06
447.549	3.9
447.755	3.91
447.96	4.02
448.166	4
448.372	3.97
448.578	4.15
448.783	4.18
448.989	4.12
449.195	4.05
449.4	4.08
449.606	4
449.812	3.99
450.017	3.88
450.223	3.94
450.428	3.87
450.634	3.92
450.84	3.97
451.045	3.95
451.251	3.91
451.456	4.02
451.662	4.04
451.867	3.98
452.073	4.09
452.278	4.12
452.483	4.16
452.689	4.17
452.894	4.1
453.1	4.08
453.305	4.12
453.51	4.03
453.716	4.04
453.921	4.07
454.127	4.11
454.332	3.95
454.537	3.91
454.742	3.9
454.948	3.76
455.153	3.71
455.358	3.83
455.563	3.9
455.769	3.78
455.974	3.95
456.179	3.82
456.384	3.83
456.589	3.73
456.795	3.75
457	3.83
457.205	4
457.41	4.05
457.615	4.09
457.82	4.07
458.025	3.94
458.23	3.86
458.435	3.79
458.64	3.78
458.845	3.91
459.05	3.99
459.255	3.92
459.46	3.96
459.665	4.12
459.87	4.03
460.075	4.08
460.28	4.09
460.485	4.06
460.69	3.93
460.895	3.86
461.099	3.8
461.304	3.83
461.509	3.78
461.714	3.75
461.919	3.76
462.123	3.76
462.328	3.79
462.533	3.89
462.738	3.92
462.942	3.93
463.147	4.02
463.352	4.1
463.556	4.06
463.761	4.02
463.966	4.1
464.17	4.11
464.375	4.04
464.58	4.03
464.784	4.08
464.989	3.99
465.193	3.91
465.398	3.97
465.602	4.12
465.807	4.19
466.011	4.23
466.216	4.19
466.42	4.16
466.625	4.15
466.829	4.1
467.034	4.17
467.238	4.24
467.443	4.15
467.647	3.98
467.851	3.95
468.056	3.87
468.26	3.82
468.464	3.89
468.669	4.01
468.873	4.01
469.077	4
469.282	4.02
