Data from Ofav_PS_Phys_0HS3_Reflection_3.txt Node
Date: Thu Jul 29 18:17:34 EDT 2021
User: USUARIO
Spectrometer: FLMT01687
Trigger mode: 0
Integration Time (sec): 9.010000E-1
Scans to average: 2
Electric dark correction enabled: true
Nonlinearity correction enabled: false
Boxcar width: 2
XAxis mode: Wavelengths
Number of Pixels in Spectrum: 3648
>>>>>Begin Spectral Data<<<<<
179.494	9.84
179.716	-42.79
179.937	-49.04
180.158	671.75
180.38	130.65
180.601	-210.76
180.823	-95.25
181.044	-52.34
181.265	-87.26
181.486	-1043.5
181.708	112.33
181.929	296.37
182.15	7147.62
182.372	-102.67
182.593	-39.1
182.814	-0.05
183.035	-227.15
183.257	92.31
183.478	48.87
183.699	50.49
183.92	45.35
184.141	47.61
184.363	39.69
184.584	50.41
184.805	38
185.026	54.93
185.247	44.32
185.468	43.92
185.689	56.49
185.91	113.38
186.132	111.06
186.353	65.29
186.574	77.83
186.795	66.05
187.016	54.55
187.237	31.57
187.458	30.12
187.679	39.94
187.9	45.22
188.121	42.96
188.342	75.38
188.563	72.31
188.784	55.46
189.005	52.45
189.226	70.46
189.447	59.15
189.667	62.58
189.888	63.97
190.109	87.84
190.33	35.33
190.551	39.23
190.772	72.52
190.993	50.83
191.214	34.86
191.434	41.51
191.655	41.05
191.876	12.44
192.097	12.74
192.318	40.85
192.538	38.41
192.759	39.67
192.98	54.1
193.201	52.32
193.421	52.74
193.642	48.42
193.863	57.85
194.083	51.13
194.304	23.36
194.525	17.44
194.745	32.82
194.966	17.01
195.187	8.78
195.407	34.76
195.628	-16.11
195.848	14.83
196.069	54.93
196.29	63.41
196.51	48.57
196.731	73.56
196.951	57.27
197.172	14.04
197.392	16.51
197.613	20.5
197.833	-5.88
198.054	-8.45
198.274	8.31
198.495	19.06
198.715	11.17
198.936	30.79
199.156	44.88
199.377	68.55
199.597	41.38
199.817	44.23
200.038	39.5
200.258	20.24
200.479	-24.57
200.699	-22.16
200.919	37.3
201.14	30.09
201.36	58.09
201.58	70.55
201.801	72.74
202.021	56.92
202.241	66.51
202.461	58.14
202.682	-2.19
202.902	42.5
203.122	27.59
203.342	47.42
203.563	42.47
203.783	71.76
204.003	60.97
204.223	85.65
204.443	34.77
204.663	15.7
204.884	43.1
205.104	51.52
205.324	41.48
205.544	37.9
205.764	48.38
205.984	39.95
206.204	32
206.424	36.48
206.644	42.71
206.864	46.02
207.084	3.59
207.304	30.87
207.525	29.05
207.745	43.91
207.964	36.88
208.184	62.21
208.404	9.06
208.624	32.05
208.844	20.43
209.064	22.86
209.284	43.72
209.504	45.17
209.724	57.83
209.944	76.22
210.164	65.33
210.384	48.7
210.604	49.32
210.823	32.58
211.043	13.64
211.263	47.29
211.483	35.11
211.703	49.68
211.922	39.18
212.142	45.7
212.362	23.52
212.582	37.47
212.801	34.27
213.021	32.67
213.241	29.91
213.461	26.91
213.68	19.04
213.9	14.88
214.12	19.7
214.339	-6.38
214.559	1.25
214.779	8.63
214.998	-3.27
215.218	6.96
215.438	22.47
215.657	34.15
215.877	25.36
216.096	29.22
216.316	2.37
216.535	-0.41
216.755	-79.35
216.974	-83.91
217.194	-47.86
217.413	-10.27
217.633	6.71
217.852	30.25
218.072	10.6
218.291	-1.21
218.511	33.18
218.73	24.86
218.95	28.18
219.169	45.12
219.389	48.06
219.608	26.69
219.827	27.32
220.047	22.55
220.266	16.03
220.485	29.7
220.705	21.02
220.924	7.19
221.143	9.17
221.363	-5.79
221.582	-30.58
221.801	-80.19
222.021	-22.36
222.24	-37.39
222.459	-12.17
222.678	9.34
222.897	13.45
223.117	17.2
223.336	28.32
223.555	25.97
223.774	15.69
223.993	8.46
224.213	20.68
224.432	30.03
224.651	42.04
224.87	32.03
225.089	43.59
225.308	43.53
225.527	38.19
225.746	16.94
225.965	35.62
226.184	-3.07
226.404	-26.62
226.623	0.51
226.842	-6.54
227.061	-30.49
227.28	8.19
227.499	23.29
227.718	-10.77
227.936	23.24
228.155	46.01
228.374	-2.63
228.593	-1.37
228.812	-1.72
229.031	1.5
229.25	-4.03
229.469	15.8
229.688	11.9
229.907	23.04
230.125	7.19
230.344	14.1
230.563	22.17
230.782	2.85
231.001	-8.34
231.22	16.75
231.438	15.48
231.657	6.07
231.876	19.11
232.095	19.03
232.313	-1.81
232.532	5.3
232.751	3.41
232.969	10.89
233.188	26.4
233.407	41.26
233.625	26.41
233.844	29.97
234.063	16.08
234.281	-20.37
234.5	-25.07
234.719	-20.37
234.937	-16.83
235.156	-11.72
235.374	42.73
235.593	48.13
235.811	46.06
236.03	36.63
236.249	33.07
236.467	26.36
236.686	32.54
236.904	37.19
237.123	33.53
237.341	14.19
237.559	7.81
237.778	8.7
237.996	20.1
238.215	32.77
238.433	51.03
238.652	44.27
238.87	31.71
239.088	32.76
239.307	17.79
239.525	20.97
239.743	26.83
239.962	29.41
240.18	21.95
240.398	34.11
240.617	21.4
240.835	19.29
241.053	20.49
241.271	16.46
241.49	7.13
241.708	33.3
241.926	15.39
242.144	-6.04
242.363	6
242.581	-18.22
242.799	-36.12
243.017	-10.26
243.235	-2.2
243.453	-3.69
243.672	6.12
243.89	-6.48
244.108	-2.16
244.326	27.29
244.544	18.38
244.762	29.08
244.98	23.78
245.198	20.98
245.416	12.32
245.634	13.93
245.852	6
246.07	39.6
246.288	39.24
246.506	35.81
246.724	38.38
246.942	44.21
247.16	50.92
247.378	48.15
247.596	41.48
247.814	39.73
248.032	34.96
248.25	15.47
248.468	9.3
248.685	12.88
248.903	11.75
249.121	25.53
249.339	16.03
249.557	16.86
249.775	25.86
249.992	15.5
250.21	9.08
250.428	33.53
250.646	47.28
250.863	50.56
251.081	46.52
251.299	44.95
251.517	48.62
251.734	54.95
251.952	34.17
252.17	34.46
252.387	34.63
252.605	27.6
252.823	3.86
253.04	31.64
253.258	33.6
253.475	27.79
253.693	26.31
253.911	38.7
254.128	48.18
254.346	49.2
254.563	65.56
254.781	61.99
254.998	54.53
255.216	20.21
255.433	34.63
255.651	29.56
255.868	27.9
256.086	31.26
256.303	37.85
256.521	40.19
256.738	18.97
256.956	26.77
257.173	25.69
257.39	40.6
257.608	30.03
257.825	57.3
258.043	47.2
258.26	39.01
258.477	20.26
258.695	0.73
258.912	-7.52
259.129	-1.39
259.346	6.54
259.564	-21.85
259.781	40.05
259.998	41.01
260.216	46.09
260.433	61.83
260.65	69.56
260.867	57.09
261.084	44.44
261.302	50.27
261.519	27.07
261.736	18.26
261.953	8.39
262.17	24.31
262.387	16.86
262.604	-2.1
262.822	4.12
263.039	19.47
263.256	20.03
263.473	18.21
263.69	29.06
263.907	42.79
264.124	37.86
264.341	31.33
264.558	37.26
264.775	37.91
264.992	34.46
265.209	15.95
265.426	12.66
265.643	19.51
265.86	10.41
266.077	11.48
266.294	28.63
266.51	33.36
266.727	38.96
266.944	71.84
267.161	77.59
267.378	64.64
267.595	74.13
267.812	57.55
268.028	13.36
268.245	7.09
268.462	24.63
268.679	14.93
268.896	0.79
269.112	17.06
269.329	21.28
269.546	19.48
269.763	23.55
269.979	40.21
270.196	42.6
270.413	31.31
270.629	45.73
270.846	40.13
271.063	34.67
271.279	48.56
271.496	43.76
271.712	36.02
271.929	38.38
272.146	45.44
272.362	27.42
272.579	55.68
272.795	48.94
273.012	25.37
273.228	16.66
273.445	25.75
273.661	-1.54
273.878	-11.17
274.094	22.08
274.311	25.35
274.527	25.21
274.744	44.69
274.96	48.65
275.177	38.55
275.393	39.92
275.609	36.44
275.826	19.1
276.042	11.27
276.259	-2.14
276.475	-1.8
276.691	14.14
276.908	18.91
277.124	28.37
277.34	37.61
277.557	34.89
277.773	14.84
277.989	20.57
278.205	27.19
278.422	17.6
278.638	21.16
278.854	51.37
279.07	63.52
279.286	44.05
279.503	56.49
279.719	54.3
279.935	36.36
280.151	15.41
280.367	26.55
280.583	21.02
280.799	24.68
281.016	53.04
281.232	53.06
281.448	47.95
281.664	58.94
281.88	45.68
282.096	41.63
282.312	30.48
282.528	31.99
282.744	25.23
282.96	45.73
283.176	23.64
283.392	48.02
283.608	39.83
283.824	47.39
284.04	36.7
284.256	39.08
284.471	21.5
284.687	39.24
284.903	2.12
285.119	14.03
285.335	17.38
285.551	34.54
285.767	42.04
285.982	48.32
286.198	37.74
286.414	30.93
286.63	25.89
286.846	12.56
287.061	0.17
287.277	9.28
287.493	19.53
287.709	17.25
287.924	31.65
288.14	33.22
288.356	45.96
288.571	36.55
288.787	25.88
289.003	7.94
289.218	4.97
289.434	6.76
289.65	26.08
289.865	38.41
290.081	29.16
290.296	39.71
290.512	31.72
290.727	21.72
290.943	13.49
291.159	18.71
291.374	29.03
291.59	36.42
291.805	31.8
292.021	31.27
292.236	36.33
292.451	-1.93
292.667	-4.74
292.882	-2.19
293.098	11.79
293.313	13.12
293.529	32.91
293.744	17.1
293.959	12.28
294.175	28.2
294.39	21.22
294.605	22.89
294.821	20.61
295.036	26.54
295.251	2.12
295.467	11.41
295.682	17.45
295.897	27.36
296.112	22.68
296.328	32.06
296.543	26.41
296.758	11.93
296.973	19.04
297.188	17.63
297.404	-4.28
297.619	1.87
297.834	-2.45
298.049	-2.57
298.264	6.1
298.479	30.96
298.694	22.5
298.909	21.14
299.125	4.91
299.34	15.78
299.555	17.99
299.77	40.86
299.985	25.67
300.2	43.53
300.415	27.34
300.63	28.96
300.845	17.29
301.06	13.93
301.275	0.28
301.49	-9.14
301.704	-33.78
301.919	-5.89
302.134	9.28
302.349	9.26
302.564	6.29
302.779	2.06
302.994	-0.62
303.209	-9.71
303.423	9.98
303.638	22.88
303.853	27.11
304.068	24.59
304.283	33.67
304.497	28.19
304.712	7.03
304.927	12.99
305.142	4.76
305.356	7.3
305.571	16.4
305.786	26.64
306	14.66
306.215	30.04
306.43	22.52
306.644	-10.11
306.859	39.99
307.074	40.06
307.288	27.27
307.503	40.28
307.717	56.95
307.932	36.54
308.147	33.93
308.361	17.53
308.576	18.09
308.79	4.24
309.005	30.35
309.219	40.83
309.434	44.69
309.648	42.58
309.863	34.71
310.077	8.15
310.292	-0.58
310.506	-11.7
310.72	-10.52
310.935	-1.85
311.149	4.11
311.364	12.65
311.578	16.33
311.792	-7.52
312.007	-6.64
312.221	-3.32
312.435	-6.34
312.649	7.73
312.864	-121.57
313.078	-36.85
313.292	-52.18
313.507	-35.05
313.721	-2.4
313.935	31.62
314.149	26.74
314.363	28.12
314.578	32.49
314.792	33.73
315.006	46.1
315.22	26.97
315.434	36.78
315.648	35.74
315.862	23.68
316.077	12.28
316.291	20.78
316.505	23.18
316.719	15.7
316.933	4.85
317.147	11.19
317.361	2.03
317.575	10
317.789	1.34
318.003	20.37
318.217	28.83
318.431	27.78
318.645	18.66
318.859	28.74
319.073	19.57
319.287	10.71
319.5	18.07
319.714	34.48
319.928	26.85
320.142	40.86
320.356	51.05
320.57	39.45
320.784	33.45
320.997	33.82
321.211	28.57
321.425	17.71
321.639	15.16
321.853	-0.12
322.066	-21.12
322.28	-19.51
322.494	-5.39
322.707	13.7
322.921	25.27
323.135	40.7
323.349	34.06
323.562	21.45
323.776	20.46
323.989	23.82
324.203	34.27
324.417	46.03
324.63	46.03
324.844	44.13
325.057	36.9
325.271	23.11
325.485	12.12
325.698	20.91
325.912	25.16
326.125	25.26
326.339	33.1
326.552	35.64
326.766	32.08
326.979	21.39
327.193	15.19
327.406	23.34
327.619	3.15
327.833	8.5
328.046	21.03
328.26	30.02
328.473	7.06
328.686	27.48
328.9	28.04
329.113	-0.76
329.326	-7.16
329.54	-4.59
329.753	11.19
329.966	-3.09
330.179	3.81
330.393	7.57
330.606	18.89
330.819	16.29
331.032	17.79
331.246	19.7
331.459	7.81
331.672	-2.75
331.885	7.86
332.098	22.94
332.311	25.42
332.525	26.47
332.738	25.85
332.951	20.53
333.164	17.2
333.377	7.99
333.59	5.93
333.803	31.1
334.016	24.01
334.229	12.39
334.442	20.32
334.655	29.79
334.868	16.09
335.081	34.86
335.294	43.08
335.507	48.05
335.72	52.68
335.933	33.53
336.146	14.72
336.359	16.23
336.572	-3.5
336.785	-18.55
336.997	-3.4
337.21	13.24
337.423	25.93
337.636	40.79
337.849	40.44
338.062	40.58
338.274	23.75
338.487	1.68
338.7	-28.63
338.913	-20.23
339.125	-15.29
339.338	1.02
339.551	1.56
339.763	3.86
339.976	-10.76
340.189	7.96
340.402	6.55
340.614	-5.53
340.827	11.5
341.039	31.89
341.252	20.85
341.465	33.36
341.677	44.47
341.89	36.9
342.102	35.62
342.315	34.69
342.527	19.78
342.74	4.76
342.952	13.71
343.165	18.49
343.377	24.44
343.59	26.66
343.802	38.06
344.015	31.76
344.227	18.93
344.44	5.69
344.652	6.74
344.864	-22.62
345.077	-5.85
345.289	8.91
345.502	13.73
345.714	6.92
345.926	36.41
346.139	29.02
346.351	13.95
346.563	12.04
346.775	14.13
346.988	-0.16
347.2	-3.04
347.412	0.01
347.624	18.73
347.837	19.68
348.049	25.84
348.261	32.19
348.473	39.5
348.685	23.79
348.897	28.86
349.11	30.47
349.322	39.16
349.534	41.38
349.746	51.75
349.958	59.11
350.17	51.31
350.382	44.15
350.594	32.58
350.806	30.21
351.018	9.42
351.23	7.26
351.442	-7.16
351.654	8.31
351.866	-11.6
352.078	8.89
352.29	5
352.502	23.85
352.714	16.79
352.926	36.39
353.138	45.85
353.35	52.69
353.561	27.76
353.773	34.97
353.985	14.7
354.197	16.11
354.409	11.7
354.621	7.49
354.832	-0.47
355.044	23.19
355.256	15
355.468	22.32
355.679	41.29
355.891	35.93
356.103	34.47
356.314	47.04
356.526	54.3
356.738	40.7
356.949	41.21
357.161	33.05
357.373	22.71
357.584	7.04
357.796	0.18
358.008	1.42
358.219	2.06
358.431	-1.79
358.642	-14.25
358.854	-1.64
359.065	4.58
359.277	-1.96
359.488	-3.34
359.7	10.45
359.911	17.18
360.123	14.32
360.334	27.04
360.546	27.44
360.757	24.37
360.969	16.25
361.18	18.91
361.391	16.36
361.603	4.14
361.814	18.43
362.025	30.91
362.237	38.93
362.448	29.64
362.659	39.2
362.871	37.29
363.082	26.51
363.293	16.17
363.504	24.08
363.716	17.1
363.927	8.15
364.138	-1.41
364.349	7.17
364.56	21.59
364.772	26.15
364.983	30.56
365.194	28.14
365.405	25.74
365.616	8.48
365.827	15.41
366.038	-2.1
366.25	-6.74
366.461	-11.99
366.672	-15.94
366.883	-8.68
367.094	4.52
367.305	24.32
367.516	25.59
367.727	28.32
367.938	22.23
368.149	25.71
368.36	13.1
368.571	13.68
368.781	11.38
368.992	2.97
369.203	-2.04
369.414	8.72
369.625	7.68
369.836	10.94
370.047	12.85
370.258	22.38
370.468	15.33
370.679	9.92
370.89	-3.13
371.101	6.95
371.312	-2.81
371.522	-6.5
371.733	-6.77
371.944	-7.36
372.155	-27.92
372.365	-22.28
372.576	-8.32
372.787	-7.2
372.997	11.68
373.208	5.86
373.419	10.36
373.629	20.77
373.84	32.75
374.05	15.51
374.261	27.22
374.472	26.72
374.682	1.87
374.893	11.53
375.103	24.71
375.314	24.61
375.524	21.57
375.735	44.29
375.945	36.8
376.156	30.4
376.366	17.93
376.577	31.67
376.787	18.72
376.997	19
377.208	16.52
377.418	25.62
377.629	15.01
377.839	24.77
378.049	29.63
378.26	37.74
378.47	38.55
378.68	38.71
378.89	29.52
379.101	35.11
379.311	33.53
379.521	30.3
379.732	26.1
379.942	27.71
380.152	14.57
380.362	-1.08
380.572	4.8
380.783	0.47
380.993	1.68
381.203	4.98
381.413	17.84
381.623	13.31
381.833	21.67
382.043	23.37
382.253	23.2
382.463	22.22
382.674	24.19
382.884	21.4
383.094	16.91
383.304	11.39
383.514	5.7
383.724	16.12
383.934	15.2
384.144	18.69
384.353	30.89
384.563	33.53
384.773	24.1
384.983	23.54
385.193	28.73
385.403	17.3
385.613	21
385.823	18.34
386.033	18.37
386.242	12.01
386.452	14.16
386.662	12.4
386.872	13.08
387.082	13.25
387.291	9.24
387.501	8.96
387.711	7.22
387.921	4.52
388.13	2.63
388.34	4.84
388.55	2.04
388.759	2.03
388.969	4.18
389.179	2.68
389.388	4.06
389.598	7.09
389.807	8.2
390.017	7.64
390.227	12.63
390.436	10.04
390.646	8.08
390.855	7.07
391.065	7.16
391.274	5.19
391.484	5.4
391.693	4.24
391.903	4.47
392.112	3.12
392.322	2.93
392.531	2.84
392.74	2.98
392.95	4.07
393.159	6.77
393.369	7.34
393.578	7.72
393.787	9.35
393.997	7.9
394.206	6.91
394.415	6.9
394.625	7.41
394.834	6.4
395.043	6.1
395.252	7.38
395.462	6.8
395.671	6.2
395.88	7.82
396.089	9.29
396.298	8.49
396.508	8.29
396.717	8.5
396.926	7.5
397.135	6.34
397.344	6.07
397.553	6.88
397.762	7.19
397.971	7.67
398.181	8.76
398.39	8.82
398.599	8.11
398.808	8.17
399.017	8.36
399.226	7.9
399.435	7.76
399.644	8.13
399.853	8.27
400.062	8.57
400.27	8.7
400.479	8.82
400.688	8.86
400.897	8.75
401.106	8.27
401.315	8.05
401.524	8.15
401.733	8.15
401.941	8.42
402.15	8.67
402.359	8.65
402.568	8.63
402.777	8.67
402.985	8.41
403.194	8.09
403.403	7.97
403.612	7.91
403.82	7.67
404.029	7.58
404.238	7.58
404.446	7.75
404.655	7.57
404.864	7.57
405.072	7.43
405.281	7.41
405.489	7.28
405.698	7.31
405.906	7.33
406.115	7.44
406.324	7.43
406.532	7.41
406.741	7.52
406.949	7.52
407.158	7.51
407.366	7.51
407.574	7.46
407.783	7.44
407.991	7.3
408.2	7.11
408.408	7.01
408.617	7.23
408.825	7.06
409.033	7.27
409.242	7.46
409.45	7.45
409.658	7.28
409.867	7.33
410.075	7.26
410.283	7.18
410.491	7.2
410.7	7.21
410.908	7.24
411.116	7.19
411.324	7.2
411.533	7.29
411.741	7.29
411.949	7.25
412.157	7.1
412.365	6.83
412.573	6.76
412.781	6.67
412.99	6.63
413.198	6.71
413.406	6.85
413.614	6.79
413.822	6.82
414.03	6.81
414.238	6.81
414.446	6.96
414.654	6.9
414.862	6.92
415.07	6.78
415.278	6.68
415.486	6.46
415.694	6.59
415.902	6.46
416.109	6.55
416.317	6.63
416.525	6.71
416.733	6.63
416.941	6.72
417.149	6.57
417.357	6.48
417.564	6.55
417.772	6.49
417.98	6.63
418.188	6.85
418.395	6.81
418.603	6.64
418.811	6.7
419.019	6.66
419.226	6.79
419.434	6.77
419.642	6.92
419.849	6.75
420.057	6.66
420.265	6.26
420.472	6.29
420.68	6.14
420.887	6.21
421.095	6.15
421.302	6.26
421.51	6.25
421.717	6.14
421.925	6.22
422.132	6.12
422.34	6.03
422.547	6.06
422.755	6.28
422.962	6.19
423.17	6.3
423.377	6.48
423.585	6.6
423.792	6.62
423.999	6.51
424.207	6.37
424.414	6.21
424.621	5.99
424.829	5.85
425.036	5.96
425.243	6.18
425.451	6.28
425.658	6.4
425.865	6.38
426.072	6.37
426.28	6.27
426.487	6.34
426.694	6.22
426.901	6.18
427.108	6.09
427.315	6.15
427.523	6.02
427.73	6.07
427.937	6.18
428.144	6.15
428.351	6.06
428.558	6.25
428.765	6.51
428.972	6.47
429.179	6.59
429.386	6.74
429.593	6.63
429.8	6.54
430.007	6.64
430.214	6.74
430.421	6.68
430.628	6.61
430.835	6.53
431.042	6.48
431.249	6.67
431.456	6.64
431.662	6.81
431.869	7.02
432.076	7.12
432.283	6.99
432.49	6.97
432.697	6.88
432.903	6.59
433.11	6.55
433.317	6.51
433.524	6.59
433.73	6.64
433.937	6.79
434.144	6.83
434.35	6.79
434.557	6.72
434.764	6.7
434.97	6.74
435.177	6.88
435.384	6.83
435.59	6.86
435.797	6.89
436.003	6.78
436.21	6.63
436.416	6.66
436.623	6.69
436.829	6.76
437.036	6.83
437.242	6.9
437.449	7.03
437.655	7.12
437.862	7.17
438.068	7.19
438.275	7.13
438.481	7.01
438.687	6.92
438.894	6.9
439.1	6.95
439.307	7.04
439.513	7.15
439.719	7.12
439.926	7.06
440.132	7.01
440.338	7.03
440.544	6.96
440.751	7.02
440.957	7.1
441.163	7.19
441.369	7.19
441.575	7.16
441.782	7.13
441.988	7.09
442.194	7
442.4	6.94
442.606	7.12
442.812	7.21
443.018	7.27
443.224	7.45
443.431	7.46
443.637	7.46
443.843	7.45
444.049	7.47
444.255	7.3
444.461	7.34
444.667	7.26
444.873	7.15
445.079	7.09
445.284	7.11
445.49	7.07
445.696	7.07
445.902	7.22
446.108	7.16
446.314	7.24
446.52	7.4
446.726	7.36
446.931	7.4
447.137	7.4
447.343	7.33
447.549	7.18
447.755	7.2
447.96	7.18
448.166	7.24
448.372	7.28
448.578	7.43
448.783	7.53
448.989	7.56
449.195	7.42
449.4	7.46
449.606	7.39
449.812	7.26
450.017	7.14
450.223	7.32
450.428	7.32
450.634	7.39
450.84	7.53
451.045	7.58
451.251	7.6
451.456	7.7
451.662	7.52
451.867	7.42
452.073	7.49
452.278	7.45
452.483	7.39
452.689	7.49
452.894	7.62
453.1	7.57
453.305	7.67
453.51	7.69
453.716	7.67
453.921	7.63
454.127	7.66
454.332	7.47
454.537	7.34
454.742	7.34
454.948	7.2
455.153	7.18
455.358	7.26
455.563	7.39
455.769	7.35
455.974	7.49
456.179	7.46
456.384	7.35
456.589	7.36
456.795	7.4
457	7.37
457.205	7.37
457.41	7.51
457.615	7.44
457.82	7.52
458.025	7.55
458.23	7.63
458.435	7.58
458.64	7.59
458.845	7.58
459.05	7.6
459.255	7.64
459.46	7.73
459.665	7.83
459.87	7.72
460.075	7.62
460.28	7.53
460.485	7.56
460.69	7.53
460.895	7.63
461.099	7.71
461.304	7.66
461.509	7.7
461.714	7.7
461.919	7.68
462.123	7.7
462.328	7.89
462.533	7.8
462.738	7.7
462.942	7.65
463.147	7.71
463.352	7.69
463.556	7.65
463.761	7.75
463.966	7.82
464.17	7.81
464.375	7.75
464.58	7.84
464.784	7.9
464.989	7.92
465.193	7.95
465.398	7.99
465.602	8.06
465.807	8.03
466.011	8.07
466.216	7.96
466.42	7.97
466.625	8.01
466.829	8.04
467.034	8.19
467.238	8.36
467.443	8.28
467.647	8.14
467.851	7.99
468.056	7.73
468.26	7.66
468.464	7.69
468.669	7.71
468.873	7.82
469.077	7.9
