Data from Ofav_SP_Phys_9DW32_Reflection_2.txt Node
Date: Thu Aug 05 17:51:38 EDT 2021
User: Adam
Spectrometer: FLMT01687
Trigger mode: 0
Integration Time (sec): 8.000000E-1
Scans to average: 2
Electric dark correction enabled: true
Nonlinearity correction enabled: false
Boxcar width: 2
XAxis mode: Wavelengths
Number of Pixels in Spectrum: 3648
>>>>>Begin Spectral Data<<<<<
179.494	665.56
179.716	758.03
179.937	609.58
180.158	737.38
180.38	2006.41
180.601	-882.19
180.823	-245.38
181.044	-183.24
181.265	-35.49
181.486	123.3
181.708	-783.89
181.929	-346.26
182.15	-834.29
182.372	6.53
182.593	-22.16
182.814	-106.72
183.035	26.98
183.257	-176.51
183.478	762.03
183.699	-668.69
183.92	-218.53
184.141	1347.09
184.363	-1027.03
184.584	265.59
184.805	118.29
185.026	111.07
185.247	113.67
185.468	110.76
185.689	102.8
185.91	100.26
186.132	52.32
186.353	30.8
186.574	-26.7
186.795	-52.49
187.016	-52.66
187.237	-22.38
187.458	-149.68
187.679	38.01
187.9	98.28
188.121	79.4
188.342	101.71
188.563	79.7
188.784	111.02
189.005	80.58
189.226	77.18
189.447	83.48
189.667	157.37
189.888	180.73
190.109	129.4
190.33	135.8
190.551	103.58
190.772	99.53
190.993	82.06
191.214	76.93
191.434	69.19
191.655	65.27
191.876	78.47
192.097	58.42
192.318	78.78
192.538	134.5
192.759	183.94
192.98	136.47
193.201	342.69
193.421	152.55
193.642	90.86
193.863	43.28
194.083	50.63
194.304	68.53
194.525	83.72
194.745	57.85
194.966	54.55
195.187	76.62
195.407	57.19
195.628	27.98
195.848	77.85
196.069	80.23
196.29	45.89
196.51	80.12
196.731	68.81
196.951	91.18
197.172	95.33
197.392	118.9
197.613	108.71
197.833	160.19
198.054	147.82
198.274	145.19
198.495	127.82
198.715	124.23
198.936	77.14
199.156	48.81
199.377	54.7
199.597	61.18
199.817	70.81
200.038	67.82
200.258	76.98
200.479	82.38
200.699	72.48
200.919	38.3
201.14	6.84
201.36	-2.82
201.58	26.4
201.801	-70.08
202.021	-27.22
202.241	75.27
202.461	66.32
202.682	16.63
202.902	106.17
203.122	258.82
203.342	196.73
203.563	117.97
203.783	151.17
204.003	122.21
204.223	96.57
204.443	84.53
204.663	95.05
204.884	72.28
205.104	29.17
205.324	55.76
205.544	46.29
205.764	19.7
205.984	4.44
206.204	38.24
206.424	21.04
206.644	-3.72
206.864	12.38
207.084	27.11
207.304	45.02
207.525	1.68
207.745	69.72
207.964	38.7
208.184	36.54
208.404	-26.42
208.624	-11.38
208.844	-13.43
209.064	36.82
209.284	-1.68
209.504	5.72
209.724	13.83
209.944	-15.59
210.164	-32.57
210.384	26.98
210.604	60.2
210.823	64.88
211.043	71.84
211.263	82.61
211.483	56.43
211.703	47.98
211.922	47.88
212.142	64.3
212.362	36.31
212.582	81.79
212.801	93.67
213.021	60.52
213.241	17.16
213.461	-13.01
213.68	8.14
213.9	-23.01
214.12	0.13
214.339	27.3
214.559	77.92
214.779	49.13
214.998	110.97
215.218	64.47
215.438	123.34
215.657	213.84
215.877	272.09
216.096	205.63
216.316	262.38
216.535	138.13
216.755	9.85
216.974	55.78
217.194	88.52
217.413	39.6
217.633	68.8
217.852	79.67
218.072	77.96
218.291	74
218.511	91.45
218.73	57.75
218.95	43.53
219.169	9.95
219.389	57.89
219.608	36.98
219.827	66.76
220.047	54.77
220.266	57.85
220.485	26.27
220.705	63.4
220.924	86.28
221.143	60.13
221.363	28.81
221.582	50.19
221.801	-34.25
222.021	-3.8
222.24	53.28
222.459	146.17
222.678	92.13
222.897	123.33
223.117	94.33
223.336	63.01
223.555	28.62
223.774	2.57
223.993	-1.02
224.213	20.56
224.432	21.98
224.651	27.5
224.87	24.12
225.089	36.95
225.308	26.52
225.527	28.58
225.746	19.21
225.965	23.73
226.184	26.13
226.404	32.92
226.623	-21.93
226.842	-8.75
227.061	19.24
227.28	25.15
227.499	35.05
227.718	55.27
227.936	67.36
228.155	73.34
228.374	44.04
228.593	37.62
228.812	48.06
229.031	38.05
229.25	19.2
229.469	32.23
229.688	35.06
229.907	16.62
230.125	13.27
230.344	24.92
230.563	17.14
230.782	32.09
231.001	67.02
231.22	62.49
231.438	88.49
231.657	74.24
231.876	62.8
232.095	53.46
232.313	45.45
232.532	13.26
232.751	18.53
232.969	30.7
233.188	37.56
233.407	18.24
233.625	36.04
233.844	8.97
234.063	30.97
234.281	40.99
234.5	93.62
234.719	160.9
234.937	138.54
235.156	77.25
235.374	61.82
235.593	57.35
235.811	26
236.03	41.48
236.249	68.15
236.467	90.15
236.686	84.44
236.904	83.23
237.123	97.08
237.341	72.45
237.559	49.4
237.778	66.46
237.996	64.27
238.215	77.51
238.433	67.73
238.652	72.12
238.87	28.26
239.088	22.78
239.307	9.09
239.525	-7
239.743	-27.14
239.962	-12.49
240.18	-28.33
240.398	-26.37
240.617	10.96
240.835	51.29
241.053	51.19
241.271	50.15
241.49	29.99
241.708	10.94
241.926	28.62
242.144	-2.85
242.363	12.81
242.581	121.96
242.799	98.18
243.017	63.71
243.235	38.86
243.453	31.22
243.672	25.73
243.89	48.94
244.108	100.89
244.326	118.48
244.544	134.29
244.762	96.59
244.98	124.52
245.198	82.49
245.416	86.31
245.634	79.9
245.852	100.97
246.07	64.59
246.288	65.68
246.506	58.99
246.724	61.57
246.942	41.83
247.16	53.92
247.378	47.1
247.596	17.67
247.814	-4.75
248.032	-18.92
248.25	-41.92
248.468	-10.41
248.685	10.4
248.903	8.06
249.121	15.94
249.339	43.89
249.557	32.58
249.775	16.01
249.992	-16.26
250.21	36.33
250.428	18.99
250.646	25.26
250.863	46.15
251.081	90.24
251.299	36.5
251.517	61.34
251.734	47.04
251.952	39.68
252.17	42.56
252.387	50.01
252.605	38.02
252.823	40.8
253.04	30.49
253.258	37.4
253.475	47.88
253.693	64.83
253.911	87.19
254.128	84.37
254.346	76.94
254.563	75.19
254.781	56.67
254.998	38.42
255.216	33.38
255.433	19.51
255.651	7.32
255.868	-12.36
256.086	4.4
256.303	-12.91
256.521	-32.45
256.738	-46.49
256.956	-67.16
257.173	18.57
257.39	91.92
257.608	88.03
257.825	66.9
258.043	57.87
258.26	55.04
258.477	29.11
258.695	42.23
258.912	52.64
259.129	64.71
259.346	60.19
259.564	70.69
259.781	77.61
259.998	69.65
260.216	87.8
260.433	79.53
260.65	82.4
260.867	65.08
261.084	62.23
261.302	31.04
261.519	61.19
261.736	86.53
261.953	78.14
262.17	75.67
262.387	119.26
262.604	112.26
262.822	92.42
263.039	90.53
263.256	135.51
263.473	79.57
263.69	84.17
263.907	81.96
264.124	90.11
264.341	44.56
264.558	48.8
264.775	42
264.992	41.02
265.209	29.46
265.426	37.29
265.643	17.34
265.86	4.15
266.077	5.34
266.294	4.91
266.51	-1.58
266.727	21.41
266.944	71.44
267.161	40.02
267.378	55.76
267.595	59.48
267.812	45.97
268.028	18.52
268.245	26.81
268.462	15.86
268.679	21.48
268.896	53.65
269.112	31.95
269.329	71.1
269.546	67.17
269.763	58.78
269.979	41.16
270.196	67.97
270.413	55.26
270.629	57.02
270.846	50.76
271.063	49.5
271.279	24.55
271.496	-30.26
271.712	-79.69
271.929	-54.32
272.146	-24.81
272.362	-3.59
272.579	4
272.795	15.43
273.012	26.28
273.228	9.27
273.445	-10.85
273.661	14.44
273.878	10.46
274.094	9.63
274.311	32.98
274.527	35.51
274.744	39.58
274.96	37.93
275.177	37.93
275.393	31.94
275.609	41.67
275.826	39.03
276.042	59.64
276.259	56.97
276.475	43.27
276.691	31.51
276.908	27.39
277.124	33.81
277.34	43.1
277.557	33.97
277.773	39.52
277.989	25.96
278.205	43.31
278.422	63.96
278.638	68.6
278.854	89.46
279.07	87.16
279.286	62.37
279.503	58.97
279.719	49.71
279.935	44.87
280.151	77.31
280.367	96.56
280.583	58.4
280.799	79.22
281.016	70.43
281.232	68.11
281.448	35.52
281.664	70.43
281.88	59.71
282.096	87.4
282.312	72.73
282.528	93.02
282.744	86.41
282.96	85.76
283.176	79.21
283.392	85.76
283.608	77.56
283.824	72.51
284.04	50.23
284.256	51.89
284.471	31.05
284.687	42.66
284.903	40.29
285.119	44.07
285.335	30.05
285.551	29.33
285.767	22.92
285.982	13.88
286.198	62.48
286.414	18.38
286.63	64.75
286.846	79.05
287.061	60.26
287.277	58.75
287.493	111.95
287.709	77.27
287.924	61.65
288.14	83.28
288.356	79.03
288.571	75.76
288.787	76.14
289.003	93.2
289.218	65.78
289.434	38.94
289.65	5.93
289.865	9.67
290.081	10.69
290.296	28.12
290.512	32.15
290.727	40.97
290.943	42.12
291.159	47.61
291.374	53.92
291.59	46.28
291.805	43.32
292.021	70.81
292.236	81.4
292.451	56.56
292.667	87.35
292.882	28.48
293.098	1.47
293.313	22.28
293.529	48.13
293.744	33.89
293.959	38.98
294.175	53.08
294.39	30.25
294.605	12.17
294.821	20.88
295.036	35.49
295.251	36.77
295.467	43.68
295.682	40.88
295.897	51.99
296.112	44.87
296.328	39.87
296.543	32.21
296.758	35.18
296.973	29.84
297.188	41.9
297.404	40.9
297.619	38.31
297.834	27.94
298.049	8.2
298.264	-8.23
298.479	-34.05
298.694	5.94
298.909	36.3
299.125	39.89
299.34	56.22
299.555	66.52
299.77	64.05
299.985	64.67
300.2	71.41
300.415	63.22
300.63	49.92
300.845	46.1
301.06	65.88
301.275	58.22
301.49	62.15
301.704	79.13
301.919	65.96
302.134	39.94
302.349	47.01
302.564	29.39
302.779	35.9
302.994	30.69
303.209	39.75
303.423	23.17
303.638	34.76
303.853	43.73
304.068	58.68
304.283	69.33
304.497	77.8
304.712	100.46
304.927	92.06
305.142	63.73
305.356	34.35
305.571	64.8
305.786	56.42
306	67.28
306.215	71.56
306.43	91.28
306.644	59.69
306.859	52.16
307.074	45.24
307.288	53.29
307.503	48.84
307.717	64.01
307.932	66.71
308.147	65.73
308.361	67.38
308.576	68.98
308.79	73.79
309.005	82.46
309.219	53.76
309.434	36.59
309.648	-2.62
309.863	-23.3
310.077	-56.59
310.292	-25.79
310.506	-17.99
310.72	6.63
310.935	18.22
311.149	24.98
311.364	54.85
311.578	73.48
311.792	85.05
312.007	71.35
312.221	55.07
312.435	74.24
312.649	55.69
312.864	-9.96
313.078	7.93
313.292	51.28
313.507	30.44
313.721	41.39
313.935	109.72
314.149	117.28
314.363	99.51
314.578	74.94
314.792	63.31
315.006	61.63
315.22	59.18
315.434	-5
315.648	0.62
315.862	41.13
316.077	5.35
316.291	17.73
316.505	93.14
316.719	69.23
316.933	55.42
317.147	60
317.361	38.2
317.575	31.91
317.789	59.86
318.003	57.51
318.217	72.04
318.431	115.38
318.645	114.3
318.859	99.94
319.073	90.24
319.287	74.34
319.5	60.47
319.714	30.46
319.928	57.32
320.142	88.35
320.356	74.08
320.57	73.21
320.784	92.64
320.997	85.11
321.211	59.06
321.425	36.4
321.639	-19.67
321.853	-41.11
322.066	-30.11
322.28	-47.01
322.494	-28.47
322.707	3.62
322.921	23.85
323.135	29.91
323.349	50.4
323.562	55.96
323.776	64.03
323.989	49.5
324.203	28.19
324.417	26.98
324.63	21.7
324.844	2.82
325.057	2.56
325.271	-16.13
325.485	-1.6
325.698	10.48
325.912	3.79
326.125	32.74
326.339	57.42
326.552	30.23
326.766	25.58
326.979	54.37
327.193	54.45
327.406	60.55
327.619	96.92
327.833	74.67
328.046	81.07
328.26	73.74
328.473	31.51
328.686	-2.01
328.9	27.41
329.113	6.11
329.326	-1.16
329.54	4.33
329.753	35.61
329.966	29.45
330.179	32.9
330.393	69.72
330.606	86.44
330.819	60.37
331.032	82.09
331.246	141.37
331.459	88.95
331.672	86.71
331.885	93.63
332.098	91.85
332.311	64.24
332.525	70.77
332.738	61.39
332.951	46.62
333.164	41.51
333.377	35.71
333.59	34.63
333.803	32.28
334.016	31.58
334.229	14.02
334.442	27.92
334.655	34.48
334.868	53.53
335.081	54.78
335.294	55.4
335.507	57.17
335.72	57.45
335.933	42.4
336.146	40.5
336.359	43.35
336.572	41.61
336.785	25.78
336.997	39.42
337.21	57.22
337.423	80.1
337.636	87.72
337.849	106.82
338.062	73.75
338.274	50.44
338.487	24.41
338.7	25.96
338.913	25.04
339.125	55.36
339.338	69.22
339.551	71.66
339.763	80.89
339.976	70.79
340.189	61.44
340.402	34.35
340.614	31.51
340.827	28.49
341.039	32.37
341.252	26.91
341.465	38.19
341.677	40.85
341.89	14.3
342.102	21.54
342.315	-5.78
342.527	5.39
342.74	0.08
342.952	10.79
343.165	32.2
343.377	73.53
343.59	39.5
343.802	67.12
344.015	46.95
344.227	19.4
344.44	20.62
344.652	47.41
344.864	50.58
345.077	69.88
345.289	64.68
345.502	59.37
345.714	44.65
345.926	35.91
346.139	31.53
346.351	38.48
346.563	21.96
346.775	20.73
346.988	0.76
347.2	-15.47
347.412	-10.52
347.624	44.3
347.837	55.85
348.049	46.57
348.261	41.57
348.473	33.47
348.685	40.66
348.897	45.96
349.11	46.19
349.322	44.75
349.534	41.6
349.746	36.87
349.958	24.88
350.17	43.91
350.382	66.84
350.594	74.5
350.806	60.64
351.018	64.57
351.23	54
351.442	58.26
351.654	62.89
351.866	71.95
352.078	65.53
352.29	72.61
352.502	53.36
352.714	34.92
352.926	28.9
353.138	21.83
353.35	22.95
353.561	18.02
353.773	16.44
353.985	17.84
354.197	38.24
354.409	34.71
354.621	30.2
354.832	40.02
355.044	27.05
355.256	26.85
355.468	33.02
355.679	53.7
355.891	67.68
356.103	67.56
356.314	66.04
356.526	70.96
356.738	62.06
356.949	27.82
357.161	41.82
357.373	33.75
357.584	43.37
357.796	55.03
358.008	61.9
358.219	53.1
358.431	101.36
358.642	85.42
358.854	67.36
359.065	88.36
359.277	85.71
359.488	57.3
359.7	55.17
359.911	46.34
360.123	40.84
360.334	33.77
360.546	48.88
360.757	51.63
360.969	59.77
361.18	62.61
361.391	76.05
361.603	64.4
361.814	62.2
362.025	85.66
362.237	70.6
362.448	60.78
362.659	53.18
362.871	41.76
363.082	17.94
363.293	6.19
363.504	11.91
363.716	40.15
363.927	55.59
364.138	48.89
364.349	41.51
364.56	44.44
364.772	26.6
364.983	11.63
365.194	28.05
365.405	37.21
365.616	29.92
365.827	35.51
366.038	49.79
366.25	52.87
366.461	44.6
366.672	56.6
366.883	49.81
367.094	42.74
367.305	38.01
367.516	56.91
367.727	45.56
367.938	51.03
368.149	33.36
368.36	41.36
368.571	21.24
368.781	27.11
368.992	10.91
369.203	27.7
369.414	27.97
369.625	35.39
369.836	31.28
370.047	30.3
370.258	38.64
370.468	40.61
370.679	40.49
370.89	47.07
371.101	57.71
371.312	58.28
371.522	58.73
371.733	50.78
371.944	57.08
372.155	54.88
372.365	37.08
372.576	46.34
372.787	50.82
372.997	47.23
373.208	42.9
373.419	68.6
373.629	43.75
373.84	56.13
374.05	48.26
374.261	48.89
374.472	32.51
374.682	22.76
374.893	8.94
375.103	10.58
375.314	8.19
375.524	22.22
375.735	36.36
375.945	51.65
376.156	50.33
376.366	52.72
376.577	60.37
376.787	60.37
376.997	53.75
377.208	58.45
377.418	58.71
377.629	45.67
377.839	55.42
378.049	52.22
378.26	36.38
378.47	42.4
378.68	53.12
378.89	46.61
379.101	39.03
379.311	49.62
379.521	42.5
379.732	40.16
379.942	31.65
380.152	45.73
380.362	40.17
380.572	40.04
380.783	31.98
380.993	35.57
381.203	33.27
381.413	38.99
381.623	41.37
381.833	47.17
382.043	45.12
382.253	48.54
382.463	50.09
382.674	46.67
382.884	41.54
383.094	32.14
383.304	20.46
383.514	17.63
383.724	9.85
383.934	10.61
384.144	18.76
384.353	20.78
384.563	24.26
384.773	31.84
384.983	25.55
385.193	27.6
385.403	26.67
385.613	29.56
385.823	26.39
386.033	25.21
386.242	23.14
386.452	18.26
386.662	12.26
386.872	12.28
387.082	15.91
387.291	2.76
387.501	5.93
387.711	7.68
387.921	5.81
388.13	5.01
388.34	15.34
388.55	11.88
388.759	8.53
388.969	8.97
389.179	9.42
389.388	13.93
389.598	16.39
389.807	17.45
390.017	18.12
390.227	17.7
390.436	10.49
390.646	8.9
390.855	8.4
391.065	9.47
391.274	10.24
391.484	12.45
391.693	11.57
391.903	12.51
392.112	13.11
392.322	10.87
392.531	11.1
392.74	11.29
392.95	8.47
393.159	5.98
393.369	8.22
393.578	8.61
393.787	9.38
393.997	10.23
394.206	9.94
394.415	10.07
394.625	10.06
394.834	9.09
395.043	8.19
395.252	9.12
395.462	9.39
395.671	8.81
395.88	10.99
396.089	11.64
396.298	11.73
396.508	10.71
396.717	11.29
396.926	9.95
397.135	9.63
397.344	9.02
397.553	9.3
397.762	8.75
397.971	8.18
398.181	8.07
398.39	7.9
398.599	7.88
398.808	7.57
399.017	7.61
399.226	7.66
399.435	8.26
399.644	8.31
399.853	8.61
400.062	8.82
400.27	9.28
400.479	9.03
400.688	8.8
400.897	9.01
401.106	8.85
401.315	8.21
401.524	8.17
401.733	8.35
401.941	8.2
402.15	8.09
402.359	8.3
402.568	8.21
402.777	8.02
402.985	7.88
403.194	7.85
403.403	7.96
403.612	7.95
403.82	7.9
404.029	7.92
404.238	7.95
404.446	7.87
404.655	7.84
404.864	7.68
405.072	7.5
405.281	7.47
405.489	7.53
405.698	7.6
405.906	7.62
406.115	7.54
406.324	7.66
406.532	7.37
406.741	7.19
406.949	7.09
407.158	7.22
407.366	7.17
407.574	7.31
407.783	7.12
407.991	7.09
408.2	6.95
408.408	6.87
408.617	6.86
408.825	7.09
409.033	7.21
409.242	7.3
409.45	7.15
409.658	6.94
409.867	6.97
410.075	7.04
410.283	7.02
410.491	7.12
410.7	7.4
410.908	7.32
411.116	7.14
411.324	7.09
411.533	6.95
411.741	6.74
411.949	6.7
412.157	6.81
412.365	6.98
412.573	6.97
412.781	7.11
412.99	7.19
413.198	7.34
413.406	7.26
413.614	7.24
413.822	7.18
414.03	7.03
414.238	6.84
414.446	6.96
414.654	7.14
414.862	7.12
415.07	7.15
415.278	7.1
415.486	6.75
415.694	6.58
415.902	6.54
416.109	6.56
416.317	6.62
416.525	6.69
416.733	6.7
416.941	6.86
417.149	6.83
417.357	6.75
417.564	6.62
417.772	6.58
417.98	6.37
418.188	6.34
418.395	6.3
418.603	6.48
418.811	6.5
419.019	6.5
419.226	6.57
419.434	6.73
419.642	6.72
419.849	6.85
420.057	6.82
420.265	6.9
420.472	6.66
420.68	6.6
420.887	6.46
421.095	6.49
421.302	6.3
421.51	6.36
421.717	6.29
421.925	6.37
422.132	6.36
422.34	6.55
422.547	6.51
422.755	6.43
422.962	6.5
423.17	6.58
423.377	6.45
423.585	6.54
423.792	6.6
423.999	6.45
424.207	6.27
424.414	5.99
424.621	6.04
424.829	6.08
425.036	6.19
425.243	6.35
425.451	6.65
425.658	6.68
425.865	6.64
426.072	6.45
426.28	6.24
426.487	6.16
426.694	6
426.901	6.01
427.108	6.1
427.315	6.37
427.523	6.32
427.73	6.38
427.937	6.41
428.144	6.56
428.351	6.5
428.558	6.57
428.765	6.4
428.972	6.31
429.179	6.23
429.386	6.08
429.593	6.02
429.8	6.14
430.007	6.19
430.214	6.13
430.421	6.23
430.628	6.18
430.835	6.25
431.042	6.23
431.249	6.38
431.456	6.31
431.662	6.64
431.869	6.7
432.076	6.8
432.283	6.84
432.49	6.78
432.697	6.59
432.903	6.35
433.11	6.2
433.317	6.02
433.524	6.28
433.73	6.25
433.937	6.33
434.144	6.42
434.35	6.54
434.557	6.45
434.764	6.33
434.97	6.38
435.177	6.57
435.384	6.33
435.59	6.2
435.797	6.43
436.003	6.46
436.21	6.19
436.416	6.08
436.623	6.03
436.829	5.99
437.036	5.78
437.242	5.91
437.449	6.19
437.655	6.42
437.862	6.4
438.068	6.75
438.275	6.8
438.481	6.83
438.687	6.71
438.894	6.86
439.1	6.72
439.307	6.66
439.513	6.73
439.719	6.77
439.926	6.66
440.132	6.74
440.338	6.86
440.544	6.77
440.751	6.89
440.957	6.87
441.163	6.77
441.369	6.68
441.575	6.63
441.782	6.69
441.988	6.64
442.194	6.59
442.4	6.56
442.606	6.66
442.812	6.5
443.018	6.46
443.224	6.57
443.431	6.6
443.637	6.52
443.843	6.4
444.049	6.36
444.255	6.37
444.461	6.39
444.667	6.4
444.873	6.47
445.079	6.59
445.284	6.63
445.49	6.7
445.696	6.84
445.902	6.92
446.108	6.87
446.314	6.76
446.52	6.74
446.726	6.7
446.931	6.64
447.137	6.67
447.343	6.7
447.549	6.68
447.755	6.72
447.96	6.78
448.166	6.87
448.372	6.83
448.578	6.77
448.783	6.81
448.989	6.75
449.195	6.71
449.4	6.83
449.606	6.94
449.812	7.03
450.017	7.23
450.223	7.18
450.428	7.19
450.634	7.15
450.84	6.94
451.045	6.78
451.251	6.9
451.456	6.95
451.662	6.97
451.867	7.08
452.073	7.18
452.278	7.06
452.483	6.98
452.689	7.08
452.894	7.09
453.1	7.03
453.305	7.04
453.51	7.08
453.716	7.04
453.921	6.98
454.127	7.03
454.332	7.11
454.537	7.24
454.742	7.17
454.948	7.16
455.153	7.15
455.358	7.09
455.563	7.06
455.769	6.98
455.974	7.02
456.179	6.98
456.384	6.87
456.589	6.87
456.795	6.99
457	7.05
457.205	7.03
457.41	7.16
457.615	7.21
457.82	7.2
458.025	7.17
458.23	7.19
458.435	7.15
458.64	7.03
458.845	7.14
459.05	7.08
459.255	7.14
459.46	7.27
459.665	7.37
459.87	7.27
460.075	7.37
460.28	7.37
460.485	7.35
460.69	7.35
460.895	7.3
461.099	7.25
461.304	7.35
461.509	7.38
461.714	7.34
461.919	7.44
462.123	7.48
462.328	7.34
462.533	7.36
462.738	7.43
462.942	7.55
463.147	7.69
463.352	7.8
463.556	7.82
463.761	7.67
463.966	7.51
464.17	7.37
464.375	7.41
464.58	7.42
464.784	7.53
464.989	7.64
465.193	7.61
465.398	7.76
465.602	7.94
465.807	8.09
466.011	8.11
466.216	8.24
466.42	8.14
466.625	8.04
466.829	8.01
