Data from Ofav_SP_Phys_2AZ7_Reflection_2.txt Node
Date: Thu Aug 05 17:44:36 EDT 2021
User: Adam
Spectrometer: FLMT01687
Trigger mode: 0
Integration Time (sec): 8.000000E-1
Scans to average: 2
Electric dark correction enabled: true
Nonlinearity correction enabled: false
Boxcar width: 2
XAxis mode: Wavelengths
Number of Pixels in Spectrum: 3648
>>>>>Begin Spectral Data<<<<<
179.494	300.83
179.716	332.88
179.937	288.63
180.158	341.47
180.38	948.28
180.601	-446.97
180.823	-293.11
181.044	-105.03
181.265	-73.38
181.486	-9.37
181.708	-238.93
181.929	-268.71
182.15	-556.73
182.372	-15.05
182.593	-32.29
182.814	-271.02
183.035	-53.24
183.257	52.67
183.478	136.95
183.699	438.91
183.92	188.88
184.141	-733.63
184.363	832.43
184.584	-79.11
184.805	97.17
185.026	52.14
185.247	62.37
185.468	77.57
185.689	80.83
185.91	32
186.132	-5.79
186.353	-1.52
186.574	-96.07
186.795	-97.91
187.016	-108.35
187.237	-62.3
187.458	-336.52
187.679	-57.44
187.9	-27.22
188.121	22.78
188.342	8.51
188.563	10.66
188.784	-3.57
189.005	-49.36
189.226	-48.24
189.447	-29.08
189.667	-57.03
189.888	-77.1
190.109	25.74
190.33	50.83
190.551	72.41
190.772	73.87
190.993	48.18
191.214	31.11
191.434	38.15
191.655	18.6
191.876	25.18
192.097	24.5
192.318	17.72
192.538	2.27
192.759	15.96
192.98	-5.6
193.201	-45.73
193.421	26.57
193.642	12.86
193.863	-1.05
194.083	16.95
194.304	24.54
194.525	4.17
194.745	11.15
194.966	36.48
195.187	49.85
195.407	42.61
195.628	36.56
195.848	22.97
196.069	14.63
196.29	-13.84
196.51	21.33
196.731	20.26
196.951	28.67
197.172	33.6
197.392	23.89
197.613	7.81
197.833	51.82
198.054	-8.77
198.274	-28.46
198.495	-17.44
198.715	16.33
198.936	-46.24
199.156	12.66
199.377	-3.57
199.597	7.68
199.817	-14.31
200.038	-5.85
200.258	14.6
200.479	21.72
200.699	26.56
200.919	28.35
201.14	25.55
201.36	-0.86
201.58	12.44
201.801	-68.93
202.021	-53.99
202.241	-5.06
202.461	-12.81
202.682	-9.44
202.902	6.9
203.122	53.57
203.342	81.62
203.563	27.58
203.783	20.09
204.003	56.31
204.223	33.8
204.443	23.01
204.663	44.94
204.884	51.66
205.104	33.85
205.324	60.57
205.544	53.35
205.764	28.93
205.984	17.88
206.204	27.53
206.424	-0.75
206.644	-24.02
206.864	-22.72
207.084	-49.48
207.304	-28.06
207.525	-73.69
207.745	-8.94
207.964	-4.01
208.184	20.97
208.404	-37.55
208.624	-32.02
208.844	-81.24
209.064	-29.22
209.284	-2.64
209.504	5.05
209.724	8.32
209.944	-4.19
210.164	-19.59
210.384	-1.53
210.604	4.75
210.823	28.5
211.043	34.1
211.263	40.16
211.483	32.34
211.703	51.5
211.922	56.16
212.142	66.09
212.362	37.16
212.582	68.02
212.801	62.85
213.021	35.02
213.241	6.84
213.461	-9.06
213.68	-10.29
213.9	-25.4
214.12	-42.4
214.339	2.11
214.559	36.25
214.779	21.04
214.998	22.46
215.218	43.84
215.438	50.67
215.657	80.57
215.877	39.64
216.096	-4.61
216.316	-1.45
216.535	-50.63
216.755	-110.13
216.974	-69.1
217.194	119.84
217.413	63.89
217.633	73.33
217.852	64.43
218.072	49.97
218.291	37.57
218.511	64.07
218.73	41.16
218.95	67.59
219.169	56.13
219.389	53.03
219.608	-2.21
219.827	11.28
220.047	8.22
220.266	10.67
220.485	-7.21
220.705	-1.21
220.924	-33.38
221.143	-35.66
221.363	-31.68
221.582	-61.04
221.801	-82.69
222.021	-17.61
222.24	-13.47
222.459	-42.99
222.678	6.61
222.897	-17.99
223.117	-38.24
223.336	-45.31
223.555	-14.95
223.774	-38.28
223.993	0.26
224.213	10.97
224.432	35.15
224.651	24.24
224.87	16.46
225.089	8.88
225.308	-11.27
225.527	-22.15
225.746	-54.19
225.965	-2.21
226.184	14.05
226.404	26.72
226.623	11.88
226.842	24.36
227.061	26.54
227.28	17.46
227.499	4.68
227.718	6.06
227.936	12.2
228.155	0.19
228.374	0.15
228.593	21.45
228.812	26.8
229.031	11.63
229.25	6.98
229.469	18.37
229.688	19.43
229.907	4.85
230.125	-5.54
230.344	6.8
230.563	11.18
230.782	-52.23
231.001	24.58
231.22	96
231.438	74.49
231.657	48.9
231.876	50.68
232.095	34.43
232.313	-2.45
232.532	-22.64
232.751	-20.37
232.969	-9.16
233.188	-27.89
233.407	-38.36
233.625	-17.48
233.844	-61.5
234.063	-50.34
234.281	-6.02
234.5	14.84
234.719	7.41
234.937	-12.13
235.156	4.93
235.374	-12.44
235.593	-51.77
235.811	-54.41
236.03	-21.51
236.249	-20.23
236.467	-46.25
236.686	-30.74
236.904	-8.29
237.123	-9.27
237.341	6.96
237.559	9.39
237.778	-3.76
237.996	15.69
238.215	18.19
238.433	20.4
238.652	22.36
238.87	24.76
239.088	6.4
239.307	21.93
239.525	11.84
239.743	20.44
239.962	53.3
240.18	62.85
240.398	27.15
240.617	41.25
240.835	29.49
241.053	6.4
241.271	-0.94
241.49	21.9
241.708	-20.41
241.926	-7.53
242.144	-27.3
242.363	-17.61
242.581	-20.66
242.799	7.65
243.017	16.36
243.235	-7.81
243.453	6.68
243.672	-6.15
243.89	-20.94
244.108	-64.45
244.326	-11.05
244.544	-30.24
244.762	-1.96
244.98	22.79
245.198	53.12
245.416	37.39
245.634	47.21
245.852	48.72
246.07	45.32
246.288	11.34
246.506	-5.98
246.724	-10.43
246.942	-24.63
247.16	-48.99
247.378	-92.02
247.596	-36.25
247.814	-20.63
248.032	-14.78
248.25	-24.64
248.468	-2.53
248.685	1.96
248.903	17.38
249.121	33.84
249.339	42.32
249.557	28.44
249.775	43.36
249.992	17.11
250.21	23.97
250.428	-0.46
250.646	15.64
250.863	17.28
251.081	24.67
251.299	9.58
251.517	50.11
251.734	59.26
251.952	54.54
252.17	46.52
252.387	20.96
252.605	5.79
252.823	-11.22
253.04	-13.27
253.258	4.04
253.475	23.66
253.693	10.65
253.911	31.54
254.128	40.46
254.346	36.55
254.563	35.83
254.781	49.15
254.998	40.81
255.216	15.61
255.433	-8.73
255.651	-35.2
255.868	-62.79
256.086	-54.87
256.303	-7.47
256.521	-21.86
256.738	-64.48
256.956	-116.66
257.173	-2.61
257.39	26.45
257.608	20.55
257.825	25.46
258.043	26.47
258.26	13.43
258.477	-1.19
258.695	17.22
258.912	36.21
259.129	52.4
259.346	56.69
259.564	47.43
259.781	44.14
259.998	31.15
260.216	32.14
260.433	42.09
260.65	29.62
260.867	-11.48
261.084	-0.11
261.302	-17.31
261.519	-37.01
261.736	1.58
261.953	25.54
262.17	19.07
262.387	53.19
262.604	51.51
262.822	31.22
263.039	-4.61
263.256	55.09
263.473	3.3
263.69	24.35
263.907	42.82
264.124	43.46
264.341	-3.41
264.558	-1.17
264.775	-28.44
264.992	-20.55
265.209	8.88
265.426	11.93
265.643	-0.86
265.86	-1.81
266.077	-6.26
266.294	-36.42
266.51	-38.04
266.727	-7.11
266.944	9.33
267.161	1.57
267.378	-0.69
267.595	20.16
267.812	-20.05
268.028	-20.12
268.245	7.39
268.462	6.69
268.679	2.62
268.896	45.25
269.112	40.29
269.329	48.23
269.546	51.34
269.763	50.86
269.979	57.63
270.196	73.57
270.413	62.63
270.629	70.9
270.846	74.81
271.063	43.47
271.279	19.5
271.496	-32.18
271.712	-70.88
271.929	-97.93
272.146	-48.81
272.362	-62.9
272.579	-36.85
272.795	-31.03
273.012	-8.98
273.228	-29.57
273.445	-1.19
273.661	9.65
273.878	4.86
274.094	6.77
274.311	0.15
274.527	-9.58
274.744	-11.2
274.96	8.23
275.177	8.05
275.393	11.69
275.609	-0.07
275.826	-5.88
276.042	-12.92
276.259	-9.92
276.475	7.05
276.691	0.27
276.908	2.22
277.124	21.04
277.34	13.17
277.557	-17.53
277.773	-15.25
277.989	6.21
278.205	-6.83
278.422	3.25
278.638	56.61
278.854	76.49
279.07	51.29
279.286	46.47
279.503	40.37
279.719	-1.3
279.935	-10.06
280.151	21.01
280.367	26.63
280.583	28.3
280.799	33.49
281.016	10.07
281.232	13.93
281.448	2.47
281.664	15.12
281.88	19.22
282.096	58.95
282.312	21.04
282.528	31.41
282.744	36.1
282.96	40.12
283.176	26.06
283.392	33.83
283.608	27.49
283.824	15.13
284.04	-6.09
284.256	7.24
284.471	10.98
284.687	20.7
284.903	23.27
285.119	30.51
285.335	14.66
285.551	5.02
285.767	5.85
285.982	15.37
286.198	-0.19
286.414	-7.89
286.63	-26.09
286.846	-32.13
287.061	-16.35
287.277	9.14
287.493	19.19
287.709	41.8
287.924	43.99
288.14	43.41
288.356	45.02
288.571	44.53
288.787	38.63
289.003	24.59
289.218	17.99
289.434	-20.47
289.65	-21.25
289.865	-8.8
290.081	5.86
290.296	4.62
290.512	4.6
290.727	3.5
290.943	7.34
291.159	9.26
291.374	22.36
291.59	17.29
291.805	18.88
292.021	36.14
292.236	12.14
292.451	-20.99
292.667	-24.72
292.882	-27.04
293.098	-42.84
293.313	-8.54
293.529	-20.33
293.744	-3.07
293.959	-11.38
294.175	10.53
294.39	-7.02
294.605	-18.53
294.821	-17.48
295.036	-5.63
295.251	-6.09
295.467	19.73
295.682	31.29
295.897	42.14
296.112	35.93
296.328	30.17
296.543	15.34
296.758	20.86
296.973	7.64
297.188	38.54
297.404	34.37
297.619	30.62
297.834	14.76
298.049	-8.84
298.264	-43.84
298.479	-65.09
298.694	-58.76
298.909	-22.72
299.125	20.85
299.34	23.29
299.555	29.81
299.77	45.98
299.985	45.96
300.2	36.34
300.415	35.63
300.63	23.06
300.845	3.4
301.06	-8.88
301.275	-28.8
301.49	-26.86
301.704	-75.52
301.919	-6.36
302.134	12.26
302.349	17.09
302.564	14.24
302.779	12.27
302.994	2.86
303.209	14.26
303.423	1.18
303.638	6.03
303.853	33.15
304.068	24.05
304.283	19.19
304.497	15.6
304.712	-4.79
304.927	-11.34
305.142	-23.95
305.356	-25.52
305.571	2.82
305.786	13.85
306	14.57
306.215	29.53
306.43	32.35
306.644	39.53
306.859	36
307.074	24.38
307.288	2.77
307.503	5.94
307.717	-15.95
307.932	-22.22
308.147	-17.52
308.361	1.18
308.576	-5.19
308.79	-11.52
309.005	12.56
309.219	1.91
309.434	-38.7
309.648	-67.3
309.863	-53.08
310.077	-91.91
310.292	-88.51
310.506	-43.53
310.72	-8.44
310.935	-4.55
311.149	16.47
311.364	42.45
311.578	42.18
311.792	56.79
312.007	51.76
312.221	24.76
312.435	34.96
312.649	33.52
312.864	8.32
313.078	24.32
313.292	46.24
313.507	43.55
313.721	45.9
313.935	42.6
314.149	12.57
314.363	2.32
314.578	14.31
314.792	-6.44
315.006	-21.34
315.22	2.09
315.434	-31.14
315.648	-119.74
315.862	-101.04
316.077	-66.93
316.291	-80.89
316.505	-29.5
316.719	1.13
316.933	19.23
317.147	10.92
317.361	21.67
317.575	17.09
317.789	9.67
318.003	-12.26
318.217	15.87
318.431	21.33
318.645	24.66
318.859	16.01
319.073	-0.73
319.287	-18.74
319.5	-18.86
319.714	-1.26
319.928	14.35
320.142	27.78
320.356	27.07
320.57	15.8
320.784	-3.14
320.997	-41
321.211	-18.64
321.425	-41.72
321.639	-46.53
321.853	-47.48
322.066	-23.3
322.28	-24.52
322.494	-27
322.707	-15.83
322.921	-6.16
323.135	0.78
323.349	4.06
323.562	12.18
323.776	32.88
323.989	11.48
324.203	-0.65
324.417	10.17
324.63	4.27
324.844	-11.89
325.057	11.85
325.271	-17.3
325.485	-23.18
325.698	-26.29
325.912	-38.53
326.125	-25.29
326.339	10.05
326.552	13.7
326.766	3.14
326.979	32.77
327.193	33.42
327.406	11.04
327.619	-5.04
327.833	-3.13
328.046	-18.52
328.26	-49.7
328.473	-73.81
328.686	-57.74
328.9	-43.24
329.113	-30.92
329.326	-23.3
329.54	19.27
329.753	36.1
329.966	41.06
330.179	39.6
330.393	48.38
330.606	31.25
330.819	12.89
331.032	7.9
331.246	41.86
331.459	18.08
331.672	31.48
331.885	39.05
332.098	36.11
332.311	16.56
332.525	8.92
332.738	-0.58
332.951	3.87
333.164	5.15
333.377	13.18
333.59	23.25
333.803	9.19
334.016	-5.45
334.229	9.72
334.442	-5.83
334.655	16.3
334.868	34.1
335.081	43.14
335.294	34.26
335.507	45.21
335.72	51.26
335.933	45.84
336.146	52.6
336.359	53.63
336.572	56.17
336.785	41.5
336.997	49.23
337.21	60.08
337.423	62.1
337.636	68.19
337.849	65.62
338.062	25.07
338.274	-28.54
338.487	-34.05
338.7	-32.19
338.913	-39.84
339.125	2.96
339.338	6.02
339.551	15.36
339.763	26.74
339.976	35.49
340.189	28.7
340.402	31.95
340.614	18.45
340.827	20.3
341.039	0.98
341.252	-1.13
341.465	-4.46
341.677	-6.05
341.89	-21.34
342.102	13.23
342.315	-10.31
342.527	21.65
342.74	16.34
342.952	20.9
343.165	-0.1
343.377	50.57
343.59	29.52
343.802	35.79
344.015	9.92
344.227	0.58
344.44	-3.13
344.652	10.91
344.864	17.19
345.077	31.57
345.289	15.96
345.502	11.03
345.714	3.03
345.926	-2.71
346.139	-1.14
346.351	20.12
346.563	8.83
346.775	10.05
346.988	-15.88
347.2	-18.3
347.412	-32.01
347.624	-4.01
347.837	-0.09
348.049	27.26
348.261	16.21
348.473	26.91
348.685	23.66
348.897	30.34
349.11	32.92
349.322	37.45
349.534	12.12
349.746	20.1
349.958	-4.68
350.17	0.85
350.382	0.66
350.594	-14.91
350.806	-20.19
351.018	10.8
351.23	17.54
351.442	18.1
351.654	14.89
351.866	19.42
352.078	6.87
352.29	-17.2
352.502	-5.45
352.714	-16.68
352.926	4.45
353.138	7.68
353.35	19.47
353.561	8.73
353.773	24.83
353.985	8.37
354.197	13.42
354.409	2.54
354.621	4.32
354.832	12.54
355.044	10.61
355.256	10.77
355.468	25.36
355.679	43.06
355.891	47.47
356.103	37.03
356.314	34.18
356.526	23.91
356.738	-0.64
356.949	-41.23
357.161	-2.32
357.373	-3.81
357.584	1.89
357.796	20.44
358.008	30.04
358.219	21.99
358.431	27.73
358.642	25.19
358.854	37.27
359.065	46.68
359.277	45.18
359.488	24.04
359.7	36.2
359.911	21.05
360.123	14.8
360.334	5.9
360.546	10.7
360.757	-0.75
360.969	5.16
361.18	-2.18
361.391	1.43
361.603	21.62
361.814	11.17
362.025	12.73
362.237	32.72
362.448	34.96
362.659	32.55
362.871	26.53
363.082	7.81
363.293	-28.38
363.504	-50.44
363.716	-54.17
363.927	-33.89
364.138	-33.7
364.349	-24.5
364.56	-9.69
364.772	-0.06
364.983	5.82
365.194	5.07
365.405	12.84
365.616	7.23
365.827	3.43
366.038	14.79
366.25	23.64
366.461	20.05
366.672	23.75
366.883	16.63
367.094	8.1
367.305	6.81
367.516	14.84
367.727	18.4
367.938	24.07
368.149	18.59
368.36	-2.75
368.571	-24.76
368.781	-69.01
368.992	-85.85
369.203	-43.75
369.414	-22.64
369.625	-19.61
369.836	-12.55
370.047	-2.91
370.258	-7.77
370.468	-0.19
370.679	6.72
370.89	13.56
371.101	-0.56
371.312	4.09
371.522	-5.2
371.733	-10.72
371.944	-14.05
372.155	5.86
372.365	0.47
372.576	10.09
372.787	5.11
372.997	3.95
373.208	2.54
373.419	5.43
373.629	9.13
373.84	11.63
374.05	17.41
374.261	21.58
374.472	17.51
374.682	1.94
374.893	9.96
375.103	2.86
375.314	5.77
375.524	2.16
375.735	10.01
375.945	22.15
376.156	27.22
376.366	22.28
376.577	27.46
376.787	18.59
376.997	2.71
377.208	2.05
377.418	8.15
377.629	11.18
377.839	27.29
378.049	38.32
378.26	39.37
378.47	36.42
378.68	31.53
378.89	20.33
379.101	7.28
379.311	7.5
379.521	11.45
379.732	21.37
379.942	28.24
380.152	28.06
380.362	27.3
380.572	18.93
380.783	4.43
380.993	4.95
381.203	12.43
381.413	13.6
381.623	16.39
381.833	27.21
382.043	26.8
382.253	26.24
382.463	30.27
382.674	31.78
382.884	31.04
383.094	25.29
383.304	23.36
383.514	25.53
383.724	24.79
383.934	25.11
384.144	21.52
384.353	18.41
384.563	12.42
384.773	13.66
384.983	8.05
385.193	7.14
385.403	10.95
385.613	10.25
385.823	7.91
386.033	-2.51
386.242	3.8
386.452	1.91
386.662	6.52
386.872	8.67
387.082	18.35
387.291	12.77
387.501	10.47
387.711	7.77
387.921	7.38
388.13	4.94
388.34	8.67
388.55	7.94
388.759	5.37
388.969	1.37
389.179	1.13
389.388	2.22
389.598	5.18
389.807	8.28
390.017	12.06
390.227	11.98
390.436	9.87
390.646	6.92
390.855	4.11
391.065	3.23
391.274	3.97
391.484	7.74
391.693	8.92
391.903	10.09
392.112	11.34
392.322	9.51
392.531	6.14
392.74	5.89
392.95	4.92
393.159	3.51
393.369	4.96
393.578	6.84
393.787	6.67
393.997	7.06
394.206	6.15
394.415	5.73
394.625	5.81
394.834	5.77
395.043	6.16
395.252	7.93
395.462	7.87
395.671	7.66
395.88	8.18
396.089	7.69
396.298	7.27
396.508	7.37
396.717	6.3
396.926	5.8
397.135	5.41
397.344	5.03
397.553	5.23
397.762	6.14
397.971	6.25
398.181	6.7
398.39	6.82
398.599	6.68
398.808	6.28
399.017	6.35
399.226	6.49
399.435	6.84
399.644	7.13
399.853	7.36
400.062	7.14
400.27	7.09
400.479	6.89
400.688	6.76
400.897	6.68
401.106	6.57
401.315	6.26
401.524	6.18
401.733	5.9
401.941	5.87
402.15	6.05
402.359	6.16
402.568	6.09
402.777	6.46
402.985	6.56
403.194	6.48
403.403	6.56
403.612	6.58
403.82	6.27
404.029	6.03
404.238	6.27
404.446	6.19
404.655	6.19
404.864	6.27
405.072	6.25
405.281	6.12
405.489	6.37
405.698	6.46
405.906	6.4
406.115	6.23
406.324	6.1
406.532	5.86
406.741	5.69
406.949	5.65
407.158	5.97
407.366	5.97
407.574	6.09
407.783	6.1
407.991	6.05
408.2	5.94
408.408	6.04
408.617	6.05
408.825	6.14
409.033	6.14
409.242	6.13
409.45	5.98
409.658	5.81
409.867	5.75
410.075	5.77
410.283	5.82
410.491	5.95
410.7	6.08
410.908	6.07
411.116	6.18
411.324	6.1
411.533	5.94
411.741	5.9
411.949	5.93
412.157	5.8
412.365	5.91
412.573	6.02
412.781	6.04
412.99	5.99
413.198	6.13
413.406	6.15
413.614	6.13
413.822	6.1
414.03	6.15
414.238	5.95
414.446	5.88
414.654	5.91
414.862	5.87
415.07	5.85
415.278	5.94
415.486	5.83
415.694	5.94
415.902	5.78
416.109	5.65
416.317	5.63
416.525	5.7
416.733	5.48
416.941	5.76
417.149	5.87
417.357	5.89
417.564	5.79
417.772	5.75
417.98	5.56
418.188	5.48
418.395	5.35
418.603	5.4
418.811	5.24
419.019	5.45
419.226	5.4
419.434	5.57
419.642	5.58
419.849	5.91
420.057	5.67
420.265	5.75
420.472	5.4
420.68	5.24
420.887	5.04
421.095	5.14
421.302	5.04
421.51	5.24
421.717	5.42
421.925	5.56
422.132	5.56
422.34	5.58
422.547	5.66
422.755	5.64
422.962	5.61
423.17	5.56
423.377	5.33
423.585	5.3
423.792	5
423.999	4.89
424.207	4.72
424.414	4.65
424.621	4.67
424.829	4.8
425.036	4.8
425.243	5
425.451	5.43
425.658	5.39
425.865	5.35
426.072	5.32
426.28	5.21
426.487	4.97
426.694	4.94
426.901	5.12
427.108	5.33
427.315	5.33
427.523	5.47
427.73	5.56
427.937	5.5
428.144	5.34
428.351	5.58
428.558	5.48
428.765	5.26
428.972	5.32
429.179	5.36
429.386	5.09
429.593	5.19
429.8	5.33
430.007	5.11
430.214	4.98
430.421	5.19
430.628	5.06
430.835	5.14
431.042	5.22
431.249	5.3
431.456	5.22
431.662	5.41
431.869	5.35
432.076	5.41
432.283	5.5
432.49	5.5
432.697	5.48
432.903	5.45
433.11	5.37
433.317	5.25
433.524	5.31
433.73	5.39
433.937	5.32
434.144	5.38
434.35	5.42
434.557	5.3
434.764	5.13
434.97	5.09
435.177	5.12
435.384	4.96
435.59	4.97
435.797	5.03
436.003	5.15
436.21	5.06
436.416	5.17
436.623	5.14
436.829	5.04
437.036	4.97
437.242	4.96
437.449	5.02
437.655	5.13
437.862	5.21
438.068	5.41
438.275	5.54
438.481	5.53
438.687	5.46
438.894	5.49
439.1	5.32
439.307	5.31
439.513	5.3
439.719	5.3
439.926	5.23
440.132	5.32
440.338	5.34
440.544	5.29
440.751	5.36
440.957	5.33
441.163	5.24
441.369	5.16
441.575	5.17
441.782	5.21
441.988	5.21
442.194	5.16
442.4	5.19
442.606	5.22
442.812	5.14
443.018	5.12
443.224	5.2
443.431	5.18
443.637	5.08
443.843	5.1
444.049	5.09
444.255	5.1
444.461	5.05
444.667	5.09
444.873	5.04
445.079	4.97
445.284	5.04
445.49	5.07
445.696	5.16
445.902	5.23
446.108	5.31
446.314	5.08
446.52	5.09
446.726	5.06
446.931	5.03
447.137	5.1
447.343	5.17
447.549	5.21
447.755	5.28
447.96	5.25
448.166	5.19
448.372	5.27
448.578	5.29
448.783	5.33
448.989	5.26
449.195	5.3
449.4	5.32
449.606	5.3
449.812	5.17
450.017	5.28
450.223	5.25
450.428	5.26
450.634	5.26
450.84	5.28
451.045	5.24
451.251	5.26
451.456	5.3
451.662	5.29
451.867	5.3
452.073	5.34
452.278	5.37
452.483	5.27
452.689	5.28
452.894	5.3
453.1	5.22
453.305	5.15
453.51	5.19
453.716	5.22
453.921	5.3
454.127	5.43
454.332	5.45
454.537	5.53
454.742	5.51
454.948	5.35
455.153	5.36
455.358	5.41
455.563	5.38
455.769	5.33
455.974	5.46
456.179	5.41
456.384	5.27
456.589	5.28
456.795	5.43
457	5.39
457.205	5.44
457.41	5.53
457.615	5.56
457.82	5.48
458.025	5.41
458.23	5.37
458.435	5.29
458.64	5.15
458.845	5.27
459.05	5.29
459.255	5.25
459.46	5.35
459.665	5.49
459.87	5.37
460.075	5.49
460.28	5.58
460.485	5.58
460.69	5.5
460.895	5.49
461.099	5.45
461.304	5.46
461.509	5.44
461.714	5.61
461.919	5.62
462.123	5.64
462.328	5.6
462.533	5.64
462.738	5.53
462.942	5.57
463.147	5.59
463.352	5.69
463.556	5.7
463.761	5.66
463.966	5.69
464.17	5.67
464.375	5.66
464.58	5.64
464.784	5.76
464.989	5.78
465.193	5.69
465.398	5.73
465.602	5.87
465.807	5.94
466.011	5.97
466.216	6.07
466.42	6.09
466.625	6.17
