Data from Ofav_SP_Phys_2JQ31_Reflection_3.txt Node
Date: Thu Aug 05 17:46:24 EDT 2021
User: Adam
Spectrometer: FLMT01687
Trigger mode: 0
Integration Time (sec): 8.000000E-1
Scans to average: 2
Electric dark correction enabled: true
Nonlinearity correction enabled: false
Boxcar width: 2
XAxis mode: Wavelengths
Number of Pixels in Spectrum: 3648
>>>>>Begin Spectral Data<<<<<
179.494	428.62
179.716	490.14
179.937	365.62
180.158	419.68
180.38	1156.98
180.601	-616.05
180.823	-123.7
181.044	-146.59
181.265	-57.83
181.486	73.49
181.708	-673.83
181.929	-171.98
182.15	-542.04
182.372	-5.68
182.593	-22.39
182.814	-383.88
183.035	-194.35
183.257	-229.18
183.478	405.42
183.699	-286.93
183.92	25.77
184.141	165.02
184.363	-451.89
184.584	192.13
184.805	114.45
185.026	127.97
185.247	97.33
185.468	101.61
185.689	85.95
185.91	57.21
186.132	-4.26
186.353	14.94
186.574	19.96
186.795	58.28
187.016	91.54
187.237	92.53
187.458	59.87
187.679	36.64
187.9	69.29
188.121	89.2
188.342	108.77
188.563	98.07
188.784	104.32
189.005	60.21
189.226	76.88
189.447	65.92
189.667	86.91
189.888	304.38
190.109	237.16
190.33	170.96
190.551	176.21
190.772	192.71
190.993	144.2
191.214	108.69
191.434	92.07
191.655	76.27
191.876	81.93
192.097	58.47
192.318	68.03
192.538	93.24
192.759	114.52
192.98	78.44
193.201	74.1
193.421	61.78
193.642	85.01
193.863	50.17
194.083	50.74
194.304	71.89
194.525	67.88
194.745	74.67
194.966	83.34
195.187	94.6
195.407	108.23
195.628	91.21
195.848	68.12
196.069	42.48
196.29	35.61
196.51	47.56
196.731	43.23
196.951	60.88
197.172	92.41
197.392	103.97
197.613	110.56
197.833	141.75
198.054	123.99
198.274	84.36
198.495	80.09
198.715	76.78
198.936	120.86
199.156	109.35
199.377	88.51
199.597	73.8
199.817	41.08
200.038	20.32
200.258	28.08
200.479	28.5
200.699	23.03
200.919	32.65
201.14	9.62
201.36	-6.38
201.58	37.19
201.801	8.68
202.021	22.36
202.241	91.41
202.461	72.31
202.682	3.24
202.902	0.53
203.122	32.54
203.342	163.62
203.563	62
203.783	128.69
204.003	82.82
204.223	60.96
204.443	25.58
204.663	47.53
204.884	35.46
205.104	44.27
205.324	54.03
205.544	51.32
205.764	43.54
205.984	40.51
206.204	13.33
206.424	18.25
206.644	11.37
206.864	-3.34
207.084	-7.58
207.304	43.47
207.525	43.64
207.745	62.73
207.964	69.69
208.184	58.26
208.404	-8.98
208.624	-25.35
208.844	-86.78
209.064	-31.9
209.284	-0.84
209.504	15.83
209.724	32.96
209.944	53.57
210.164	40.22
210.384	52.54
210.604	58.76
210.823	58.05
211.043	67.87
211.263	76.38
211.483	75.28
211.703	81.54
211.922	136.53
212.142	116.49
212.362	86.51
212.582	138.79
212.801	144.47
213.021	112.5
213.241	80.13
213.461	59.72
213.68	34.8
213.9	26.04
214.12	2.92
214.339	35.62
214.559	72.28
214.779	45.37
214.998	70.78
215.218	70.72
215.438	111.28
215.657	157.33
215.877	251.74
216.096	224.64
216.316	289.98
216.535	235.54
216.755	203.78
216.974	459.59
217.194	177.05
217.413	79.2
217.633	73.82
217.852	71.98
218.072	52.19
218.291	35.51
218.511	33.12
218.73	23.87
218.95	2.7
219.169	-21.46
219.389	39.02
219.608	15.18
219.827	33.73
220.047	29.31
220.266	49.97
220.485	30.58
220.705	51.22
220.924	58.44
221.143	48.49
221.363	26.04
221.582	21.24
221.801	20.49
222.021	21.32
222.24	54
222.459	124.67
222.678	119.14
222.897	105.88
223.117	116.3
223.336	109.44
223.555	102.7
223.774	45.4
223.993	45.54
224.213	57.16
224.432	16.81
224.651	4.38
224.87	40.76
225.089	37.29
225.308	-13.74
225.527	22.86
225.746	19.34
225.965	0.69
226.184	22.95
226.404	81.15
226.623	67.62
226.842	40.74
227.061	56.22
227.28	43.2
227.499	12.09
227.718	22.27
227.936	36.51
228.155	28.75
228.374	35.09
228.593	41.35
228.812	52.85
229.031	49.43
229.25	38.6
229.469	41.51
229.688	26.37
229.907	19.21
230.125	9.25
230.344	16.15
230.563	15.59
230.782	9.17
231.001	22.28
231.22	79.85
231.438	83.56
231.657	75.13
231.876	79.14
232.095	63.64
232.313	24.93
232.532	7.77
232.751	13.08
232.969	30.02
233.188	27
233.407	31.57
233.625	70.47
233.844	25.17
234.063	22.22
234.281	31.21
234.5	43.53
234.719	-0.13
234.937	18.63
235.156	-5.14
235.374	8.23
235.593	5.19
235.811	-4.81
236.03	15.52
236.249	37.54
236.467	11.46
236.686	0.55
236.904	33.59
237.123	43.49
237.341	65.9
237.559	64.06
237.778	64.77
237.996	54.7
238.215	59.54
238.433	33.98
238.652	41.99
238.87	23.96
239.088	26.77
239.307	31.99
239.525	24.95
239.743	24.09
239.962	46.37
240.18	58.68
240.398	48.98
240.617	44.34
240.835	70.06
241.053	47.16
241.271	33.37
241.49	18.24
241.708	3.61
241.926	-1.88
242.144	-7.94
242.363	25.61
242.581	77.95
242.799	87.17
243.017	71.63
243.235	57.01
243.453	17.77
243.672	0.63
243.89	3.83
244.108	59.05
244.326	57.06
244.544	79.83
244.762	92.3
244.98	123.27
245.198	96.42
245.416	109.46
245.634	103.51
245.852	104.63
246.07	64.93
246.288	47.78
246.506	16.97
246.724	17.05
246.942	0.47
247.16	-12.45
247.378	-120.67
247.596	-20.42
247.814	-7.07
248.032	14.11
248.25	-4.46
248.468	40.42
248.685	31.94
248.903	29.58
249.121	21.88
249.339	40.2
249.557	24.21
249.775	38.23
249.992	48.7
250.21	58.99
250.428	39.73
250.646	42.76
250.863	38.52
251.081	25.21
251.299	-6.64
251.517	17.35
251.734	9.98
251.952	-20.48
252.17	1.56
252.387	11.51
252.605	19.99
252.823	35.64
253.04	37.25
253.258	32.97
253.475	46.27
253.693	34.2
253.911	54.23
254.128	69.37
254.346	74.92
254.563	73.56
254.781	68.98
254.998	63.35
255.216	65.21
255.433	27.01
255.651	7.51
255.868	-7.87
256.086	8.41
256.303	-22.76
256.521	-56.86
256.738	-82.19
256.956	-158.39
257.173	-48.92
257.39	27.73
257.608	59.66
257.825	52.46
258.043	56.97
258.26	48.87
258.477	32.55
258.695	25.63
258.912	35.06
259.129	27.01
259.346	27.59
259.564	32.45
259.781	44.31
259.998	43.52
260.216	57.79
260.433	68.27
260.65	55.12
260.867	65.6
261.084	78.64
261.302	74.99
261.519	70.12
261.736	89.49
261.953	75.57
262.17	70.4
262.387	111.42
262.604	102.59
262.822	119.1
263.039	137.5
263.256	126.56
263.473	68.91
263.69	109.74
263.907	83.55
264.124	67.36
264.341	45.3
264.558	47.78
264.775	30.98
264.992	36.55
265.209	47.4
265.426	43.02
265.643	40.84
265.86	41.13
266.077	35.88
266.294	37.52
266.51	55.24
266.727	64.16
266.944	73.01
267.161	61.95
267.378	46.58
267.595	35.01
267.812	24.17
268.028	12.77
268.245	27.71
268.462	33.29
268.679	37.79
268.896	40.12
269.112	29.8
269.329	61.85
269.546	51.17
269.763	52.13
269.979	74.77
270.196	97.69
270.413	72.65
270.629	93.12
270.846	89.29
271.063	66.14
271.279	59.76
271.496	61.22
271.712	64.43
271.929	79.61
272.146	117.73
272.362	106.59
272.579	51.53
272.795	26.7
273.012	24.39
273.228	-1.21
273.445	31.14
273.661	51.36
273.878	61.22
274.094	66
274.311	54.69
274.527	37.13
274.744	6.41
274.96	24.87
275.177	17.57
275.393	27.75
275.609	20.17
275.826	45.35
276.042	34.47
276.259	44.33
276.475	30.8
276.691	25.37
276.908	33.14
277.124	42.26
277.34	44.62
277.557	38.5
277.773	44.66
277.989	36.58
278.205	30.03
278.422	15.68
278.638	44.15
278.854	67.26
279.07	51.13
279.286	55.43
279.503	55.73
279.719	44.43
279.935	55.93
280.151	80.72
280.367	60.6
280.583	71.25
280.799	85.5
281.016	68.38
281.232	70.39
281.448	67.51
281.664	55.95
281.88	79.24
282.096	72.43
282.312	58.02
282.528	56.75
282.744	41.21
282.96	35.51
283.176	39.51
283.392	40.04
283.608	51.31
283.824	62.51
284.04	70.15
284.256	60.53
284.471	62.11
284.687	65.82
284.903	62.15
285.119	53.62
285.335	51.08
285.551	66.09
285.767	39.71
285.982	45.66
286.198	72.3
286.414	63.93
286.63	48.69
286.846	77.71
287.061	53.65
287.277	36
287.493	37.96
287.709	21.95
287.924	26.94
288.14	31.28
288.356	52.5
288.571	55.57
288.787	62.13
289.003	63.57
289.218	84.49
289.434	59.41
289.65	34.63
289.865	20.8
290.081	19.54
290.296	22.33
290.512	22.2
290.727	27.9
290.943	41.17
291.159	50.71
291.374	52.04
291.59	33.1
291.805	47.89
292.021	55.23
292.236	46.35
292.451	48.93
292.667	116.08
292.882	60.19
293.098	22.8
293.313	37.16
293.529	39.73
293.744	25.27
293.959	23.9
294.175	43.19
294.39	26.34
294.605	30.29
294.821	35.76
295.036	32.47
295.251	32.26
295.467	46.82
295.682	29.86
295.897	33.76
296.112	41.71
296.328	40.5
296.543	66.15
296.758	77.99
296.973	54.6
297.188	53.56
297.404	47.69
297.619	21.45
297.834	16.49
298.049	12.55
298.264	8.77
298.479	7.26
298.694	30.75
298.909	52.23
299.125	58.16
299.34	50.72
299.555	58.65
299.77	61.78
299.985	71.62
300.2	75.31
300.415	75.46
300.63	44.03
300.845	40.53
301.06	45.34
301.275	22.5
301.49	28.2
301.704	72.06
301.919	55.56
302.134	40.83
302.349	55.76
302.564	31.65
302.779	46.49
302.994	43.05
303.209	64.78
303.423	42.17
303.638	54.18
303.853	29.74
304.068	35.55
304.283	32.07
304.497	38.33
304.712	20.82
304.927	24.94
305.142	21.03
305.356	-17.76
305.571	10.38
305.786	39.68
306	42.67
306.215	53.81
306.43	69.73
306.644	58.91
306.859	43.08
307.074	42.62
307.288	28.84
307.503	43.9
307.717	47
307.932	48.77
308.147	55.83
308.361	62.49
308.576	60.24
308.79	59.53
309.005	55.84
309.219	26.98
309.434	-22.12
309.648	-79.08
309.863	-60.64
310.077	-73.73
310.292	-30.77
310.506	9.85
310.72	34.72
310.935	38.92
311.149	56.92
311.364	68.69
311.578	72.49
311.792	86.38
312.007	81.7
312.221	64.27
312.435	66.58
312.649	73.6
312.864	-1.01
313.078	-2.03
313.292	31.11
313.507	14.34
313.721	0.49
313.935	35.02
314.149	27.04
314.363	2.75
314.578	13.97
314.792	12.15
315.006	34.77
315.22	57.57
315.434	60.41
315.648	98.19
315.862	153.44
316.077	82.26
316.291	93.39
316.505	75.48
316.719	45.86
316.933	44.04
317.147	53.4
317.361	50.92
317.575	59.07
317.789	74.11
318.003	64.67
318.217	50.86
318.431	70.89
318.645	65.53
318.859	64.05
319.073	44.46
319.287	26.74
319.5	20.84
319.714	-3.85
319.928	21.35
320.142	28.27
320.356	49.89
320.57	38.24
320.784	54.51
320.997	41.75
321.211	55.61
321.425	28.06
321.639	15.41
321.853	25.47
322.066	32.92
322.28	23.05
322.494	33.99
322.707	36.13
322.921	30.14
323.135	20.6
323.349	35.21
323.562	31.87
323.776	41.08
323.989	24.65
324.203	35.82
324.417	34.81
324.63	22.97
324.844	9.98
325.057	27.21
325.271	-9.62
325.485	0.86
325.698	15.36
325.912	27.21
326.125	36.18
326.339	63.67
326.552	48.88
326.766	44.94
326.979	61.37
327.193	52.29
327.406	50.81
327.619	72.56
327.833	68.83
328.046	69.69
328.26	93.86
328.473	96.06
328.686	80.63
328.9	64.78
329.113	54.07
329.326	47.64
329.54	59.47
329.753	48.29
329.966	56.52
330.179	65.64
330.393	58.14
330.606	43.22
330.819	46.74
331.032	50.77
331.246	63.99
331.459	66.81
331.672	73.31
331.885	75.28
332.098	75.04
332.311	49.62
332.525	36.04
332.738	34.69
332.951	19.03
333.164	26.13
333.377	31.89
333.59	35.91
333.803	18.92
334.016	11.88
334.229	-3.18
334.442	10.74
334.655	17.56
334.868	32.89
335.081	24.42
335.294	38.39
335.507	37.64
335.72	57.35
335.933	54.8
336.146	66.38
336.359	48.3
336.572	38.41
336.785	13.54
336.997	42.48
337.21	63.62
337.423	95.83
337.636	104.17
337.849	109.56
338.062	67.42
338.274	49.96
338.487	47.91
338.7	30.31
338.913	38.07
339.125	62.28
339.338	52.3
339.551	23.93
339.763	47
339.976	50.62
340.189	44.51
340.402	43.03
340.614	55.01
340.827	76.08
341.039	62.54
341.252	55.51
341.465	51.48
341.677	41.24
341.89	5.92
342.102	17.01
342.315	5.15
342.527	37.83
342.74	44.61
342.952	51.91
343.165	69.1
343.377	82.74
343.59	31
343.802	32.74
344.015	34.79
344.227	23.58
344.44	30.46
344.652	49.41
344.864	55.06
345.077	61.67
345.289	50.06
345.502	34.55
345.714	21.84
345.926	12.05
346.139	14.4
346.351	24.5
346.563	13.27
346.775	21.41
346.988	18.48
347.2	5.26
347.412	2.63
347.624	49.51
347.837	46.38
348.049	45.35
348.261	50.99
348.473	57.78
348.685	62.11
348.897	86.28
349.11	89.38
349.322	77.27
349.534	33.55
349.746	16.5
349.958	0.59
350.17	17.77
350.382	10.56
350.594	21.13
350.806	12.66
351.018	21.79
351.23	21.81
351.442	26.76
351.654	32.35
351.866	25.75
352.078	16.24
352.29	6.14
352.502	25.62
352.714	8.79
352.926	35.1
353.138	35.93
353.35	50.68
353.561	40
353.773	43.34
353.985	35.86
354.197	32.81
354.409	17.11
354.621	22.9
354.832	34.86
355.044	42.83
355.256	49.44
355.468	55.06
355.679	52.18
355.891	57.25
356.103	53.59
356.314	61.89
356.526	45.54
356.738	47.01
356.949	21.88
357.161	26.09
357.373	7.22
357.584	44.75
357.796	46.67
358.008	43.4
358.219	46.13
358.431	58.71
358.642	31.7
358.854	36.62
359.065	48.45
359.277	49.55
359.488	59.14
359.7	64.72
359.911	66.46
360.123	61.02
360.334	60.97
360.546	44.68
360.757	33.02
360.969	38.41
361.18	37.66
361.391	26.4
361.603	49.22
361.814	49.76
362.025	54.3
362.237	57.73
362.448	48.02
362.659	36.62
362.871	28.52
363.082	11.97
363.293	0.89
363.504	7.25
363.716	25.77
363.927	45.27
364.138	52.81
364.349	46.46
364.56	54.51
364.772	46.57
364.983	38.56
365.194	49.23
365.405	46.74
365.616	45.62
365.827	52.51
366.038	60.6
366.25	57.3
366.461	55.46
366.672	52.43
366.883	56.58
367.094	56.43
367.305	51.22
367.516	57.09
367.727	72.94
367.938	63.15
368.149	52.06
368.36	58.72
368.571	46
368.781	8.76
368.992	28.69
369.203	31.32
369.414	3.34
369.625	28.99
369.836	23.13
370.047	17.73
370.258	24.23
370.468	41.5
370.679	48.54
370.89	53.35
371.101	52.36
371.312	63.76
371.522	55.87
371.733	39.85
371.944	36.79
372.155	49.61
372.365	26.05
372.576	40.24
372.787	40.81
372.997	55.14
373.208	42.95
373.419	70.88
373.629	59.8
373.84	56.18
374.05	37.16
374.261	47.12
374.472	26.82
374.682	11.02
374.893	19.27
375.103	35.43
375.314	23.22
375.524	40.96
375.735	43.84
375.945	54.36
376.156	44.84
376.366	55.25
376.577	54.84
376.787	56.09
376.997	43.68
377.208	46.78
377.418	49.87
377.629	45.82
377.839	55.98
378.049	59.33
378.26	43.34
378.47	32.41
378.68	31.91
378.89	12.43
379.101	19.01
379.311	33.13
379.521	34.16
379.732	37
379.942	47.49
380.152	49.8
380.362	51.07
380.572	57.84
380.783	44.95
380.993	45.11
381.203	39.26
381.413	39.33
381.623	37.06
381.833	50.45
382.043	48.71
382.253	37.28
382.463	34.42
382.674	36.57
382.884	32.68
383.094	25.86
383.304	28.82
383.514	29.8
383.724	20.54
383.934	17
384.144	24.09
384.353	26.05
384.563	29.63
384.773	32.78
384.983	28.75
385.193	24.58
385.403	25.63
385.613	21.98
385.823	17.38
386.033	20.69
386.242	22.7
386.452	20.92
386.662	21.94
386.872	21.96
387.082	23.4
387.291	14.4
387.501	16.38
387.711	14.69
387.921	14.2
388.13	10.76
388.34	19.38
388.55	17.73
388.759	13.2
388.969	12.43
389.179	13.61
389.388	13.36
389.598	17.57
389.807	22.43
390.017	24.92
390.227	24.11
390.436	21.1
390.646	15.07
390.855	13.19
391.065	10.63
391.274	11.38
391.484	13.57
391.693	15.58
391.903	14.81
392.112	17.38
392.322	16.5
392.531	15.63
392.74	14.18
392.95	13.1
393.159	10.91
393.369	11.86
393.578	12.55
393.787	13.41
393.997	14.03
394.206	14.1
394.415	13.63
394.625	13.7
394.834	13.47
395.043	12.44
395.252	12.9
395.462	13.18
395.671	12.32
395.88	12.71
396.089	13.61
396.298	14.05
396.508	14.05
396.717	13.46
396.926	13.03
397.135	12.82
397.344	12.4
397.553	12.04
397.762	12.13
397.971	11.43
398.181	11.05
398.39	10.74
398.599	10.71
398.808	10.82
399.017	10.94
399.226	11.48
399.435	11.31
399.644	11.27
399.853	11.23
400.062	11.27
400.27	10.89
400.479	10.84
400.688	10.77
400.897	11.07
401.106	11
401.315	10.98
401.524	10.99
401.733	10.78
401.941	10.58
402.15	10.7
402.359	10.7
402.568	10.66
402.777	10.9
402.985	10.64
403.194	10.46
403.403	10.56
403.612	10.38
403.82	10.19
404.029	10.34
404.238	10.47
404.446	10.22
404.655	10.35
404.864	10.4
405.072	10.3
405.281	10.18
405.489	10.21
405.698	10.25
405.906	10.2
406.115	10.08
406.324	10.16
406.532	10.05
406.741	9.93
406.949	9.8
407.158	9.92
407.366	9.87
407.574	10.13
407.783	10.11
407.991	10.15
408.2	9.93
408.408	9.81
408.617	9.71
408.825	9.85
409.033	9.84
409.242	9.94
409.45	9.78
409.658	9.72
409.867	9.57
410.075	9.61
410.283	9.68
410.491	9.88
410.7	9.84
410.908	9.74
411.116	9.64
411.324	9.56
411.533	9.46
411.741	9.46
411.949	9.52
412.157	9.58
412.365	9.78
412.573	9.67
412.781	9.58
412.99	9.64
413.198	9.65
413.406	9.54
413.614	9.64
413.822	9.67
414.03	9.7
414.238	9.68
414.446	9.56
414.654	9.51
414.862	9.51
415.07	9.36
415.278	9.26
415.486	9.27
415.694	9.29
415.902	9.27
416.109	9.09
416.317	9.21
416.525	9.13
416.733	9.07
416.941	9.22
417.149	9.52
417.357	9.38
417.564	9.38
417.772	9.46
417.98	9.32
418.188	9.18
418.395	9.11
418.603	9.23
418.811	9.02
419.019	9.05
419.226	9.13
419.434	9.29
419.642	9.21
419.849	9.4
420.057	9.28
420.265	9.18
420.472	8.88
420.68	8.73
420.887	8.78
421.095	8.73
421.302	8.59
421.51	8.9
421.717	8.97
421.925	8.82
422.132	8.75
422.34	8.89
422.547	8.81
422.755	8.83
422.962	9.04
423.17	9.21
423.377	9.13
423.585	9.13
423.792	9.01
423.999	8.89
424.207	8.86
424.414	8.74
424.621	8.6
424.829	8.69
425.036	8.72
425.243	8.79
425.451	9.12
425.658	9.17
425.865	9.17
426.072	8.99
426.28	8.71
426.487	8.57
426.694	8.51
426.901	8.66
427.108	8.71
427.315	8.77
427.523	8.87
427.73	9.01
427.937	8.84
428.144	8.8
428.351	9.04
428.558	8.91
428.765	8.65
428.972	8.62
429.179	8.82
429.386	8.59
429.593	8.7
429.8	8.93
430.007	8.85
430.214	8.89
430.421	9.18
430.628	9.11
430.835	9.15
431.042	9.32
431.249	9.26
431.456	9.01
431.662	9.1
431.869	9.09
432.076	9.02
432.283	9.15
432.49	9.1
432.697	9.01
432.903	8.85
433.11	8.76
433.317	8.52
433.524	8.6
433.73	8.63
433.937	8.75
434.144	9.01
434.35	9.04
434.557	9.07
434.764	9.02
434.97	8.99
435.177	9
435.384	9.01
435.59	9.01
435.797	9.18
436.003	9.21
436.21	8.93
436.416	8.75
436.623	8.61
436.829	8.39
437.036	8.27
437.242	8.37
437.449	8.59
437.655	8.76
437.862	9.09
438.068	9.3
438.275	9.37
438.481	9.41
438.687	9.33
438.894	9.32
439.1	9.03
439.307	8.95
439.513	8.83
439.719	8.94
439.926	8.85
440.132	9.16
440.338	9.34
440.544	9.38
440.751	9.36
440.957	9.29
441.163	9.18
441.369	9.05
441.575	9.07
441.782	9.13
441.988	9.12
442.194	9.03
442.4	9.05
442.606	9.18
442.812	9.04
443.018	8.97
443.224	9.03
443.431	9.07
443.637	8.91
443.843	8.92
444.049	8.89
444.255	8.96
444.461	8.91
444.667	8.95
444.873	8.93
445.079	9.07
445.284	9.08
445.49	9.15
445.696	9.29
445.902	9.4
446.108	9.3
446.314	9.24
446.52	9.27
446.726	9.24
446.931	9.25
447.137	9.25
447.343	9.38
447.549	9.38
447.755	9.32
447.96	9.25
448.166	9.36
448.372	9.2
448.578	9.17
448.783	9.3
448.989	9.26
449.195	9.28
449.4	9.39
449.606	9.48
449.812	9.34
450.017	9.42
450.223	9.4
450.428	9.47
450.634	9.5
450.84	9.6
451.045	9.56
451.251	9.55
451.456	9.55
451.662	9.53
451.867	9.55
452.073	9.74
452.278	9.7
452.483	9.67
452.689	9.6
452.894	9.58
453.1	9.52
453.305	9.62
453.51	9.71
453.716	9.77
453.921	9.78
454.127	9.86
454.332	9.78
454.537	9.74
454.742	9.67
454.948	9.65
455.153	9.64
455.358	9.79
455.563	9.85
455.769	9.87
455.974	9.83
456.179	9.83
456.384	9.73
456.589	9.67
456.795	9.74
457	9.84
457.205	9.83
457.41	9.87
457.615	10.02
457.82	10.07
458.025	10.06
458.23	10.11
458.435	10.14
458.64	9.95
458.845	10.01
459.05	10.05
459.255	10.06
459.46	10.03
459.665	10.14
459.87	10.03
460.075	9.99
460.28	9.98
460.485	10.01
460.69	9.92
460.895	9.89
461.099	9.97
461.304	10.06
461.509	10.09
461.714	10.2
461.919	10.35
462.123	10.31
462.328	10.2
462.533	10.28
462.738	10.3
462.942	10.25
463.147	10.35
463.352	10.51
463.556	10.55
463.761	10.43
463.966	10.49
464.17	10.49
464.375	10.46
464.58	10.32
464.784	10.45
464.989	10.51
465.193	10.37
465.398	10.54
