Data from Ofav_SP_Phys_2AZ2_Reflection_3.txt Node
Date: Thu Aug 05 17:53:28 EDT 2021
User: Adam
Spectrometer: FLMT01687
Trigger mode: 0
Integration Time (sec): 8.000000E-1
Scans to average: 2
Electric dark correction enabled: true
Nonlinearity correction enabled: false
Boxcar width: 2
XAxis mode: Wavelengths
Number of Pixels in Spectrum: 3648
>>>>>Begin Spectral Data<<<<<
179.494	688.85
179.716	764.8
179.937	637.78
180.158	750.67
180.38	1817.85
180.601	-772.6
180.823	-189.58
181.044	-20.11
181.265	-1.2
181.486	-56.23
181.708	169.13
181.929	-163.53
182.15	-171.43
182.372	27.25
182.593	-33.94
182.814	-260.27
183.035	-131.27
183.257	-606.41
183.478	671.19
183.699	-499.7
183.92	-194.88
184.141	1011.66
184.363	-745.95
184.584	274.87
184.805	154.97
185.026	134.09
185.247	113.28
185.468	122.03
185.689	119.33
185.91	80.81
186.132	-7.67
186.353	9.61
186.574	-90.58
186.795	-36.64
187.016	31.59
187.237	30.06
187.458	-111.48
187.679	32.21
187.9	22.8
188.121	-4.47
188.342	90.3
188.563	48.93
188.784	77.49
189.005	58.44
189.226	88.61
189.447	71.68
189.667	169.43
189.888	327.41
190.109	234.52
190.33	183.52
190.551	155.7
190.772	175.65
190.993	137.39
191.214	106.45
191.434	69.8
191.655	61.25
191.876	71.25
192.097	48.44
192.318	50.05
192.538	165.86
192.759	211.6
192.98	129.66
193.201	310.85
193.421	84.9
193.642	7.52
193.863	-84.46
194.083	-30.38
194.304	0.94
194.525	34.42
194.745	44.96
194.966	54.96
195.187	59.12
195.407	59.13
195.628	-0.71
195.848	39.04
196.069	47.3
196.29	41.21
196.51	62.64
196.731	62.67
196.951	61.76
197.172	74.73
197.392	90.36
197.613	69.97
197.833	110.33
198.054	86.42
198.274	87.55
198.495	73.59
198.715	72.25
198.936	23.33
199.156	76.66
199.377	48.18
199.597	60.42
199.817	54.94
200.038	44.57
200.258	36.3
200.479	42.11
200.699	23.93
200.919	9.08
201.14	-0
201.36	-12.52
201.58	23.23
201.801	-28.98
202.021	15.45
202.241	101.81
202.461	119.17
202.682	83.69
202.902	179.96
203.122	425.03
203.342	351.11
203.563	225.26
203.783	213.03
204.003	124.37
204.223	81.48
204.443	76.16
204.663	67.7
204.884	45.89
205.104	45.57
205.324	74.62
205.544	57.94
205.764	51.24
205.984	63.24
206.204	73.25
206.424	25.11
206.644	26.15
206.864	16.15
207.084	31.96
207.304	46.91
207.525	34.24
207.745	33.95
207.964	36.13
208.184	49.87
208.404	49.08
208.624	79.01
208.844	115.82
209.064	114.05
209.284	70.25
209.504	48.69
209.724	44.29
209.944	34.53
210.164	9.74
210.384	59.5
210.604	76.93
210.823	74.86
211.043	79.26
211.263	95.31
211.483	74.2
211.703	73.29
211.922	126.95
212.142	158.61
212.362	120.26
212.582	167.37
212.801	146.19
213.021	87.99
213.241	38.54
213.461	43.19
213.68	26.84
213.9	11.55
214.12	3.43
214.339	21.97
214.559	47.2
214.779	70.53
214.998	157.37
215.218	138.85
215.438	162.77
215.657	225.11
215.877	297.59
216.096	175.54
216.316	211.73
216.535	125.16
216.755	61.82
216.974	114.1
217.194	144.79
217.413	78.39
217.633	95.41
217.852	91.03
218.072	80.51
218.291	71.86
218.511	87.62
218.73	68.27
218.95	49.88
219.169	6.82
219.389	66.26
219.608	8.28
219.827	58.36
220.047	99.23
220.266	87.63
220.485	65.57
220.705	100.67
220.924	101.47
221.143	75.02
221.363	49.11
221.582	68.63
221.801	33.11
222.021	53.95
222.24	91.11
222.459	208.11
222.678	122.44
222.897	166.46
223.117	163.54
223.336	99.4
223.555	63.88
223.774	31.16
223.993	-3.84
224.213	34.02
224.432	57.13
224.651	74.39
224.87	99.31
225.089	107.28
225.308	112.54
225.527	80.22
225.746	81.88
225.965	95.21
226.184	83.67
226.404	84.25
226.623	64.16
226.842	60.07
227.061	36.92
227.28	28.63
227.499	12.45
227.718	50.81
227.936	38.25
228.155	42.71
228.374	43.28
228.593	63.34
228.812	61.32
229.031	82.36
229.25	100.29
229.469	91.99
229.688	81.24
229.907	68.97
230.125	63.7
230.344	47.47
230.563	47.31
230.782	34.38
231.001	8.64
231.22	13.57
231.438	39.99
231.657	25.7
231.876	26.3
232.095	41.96
232.313	50.94
232.532	48.91
232.751	61.12
232.969	58.49
233.188	76.16
233.407	60.11
233.625	64.82
233.844	68.95
234.063	44.98
234.281	40.33
234.5	43.38
234.719	48.57
234.937	9
235.156	7.56
235.374	-2.42
235.593	26.72
235.811	5.64
236.03	44.36
236.249	69.86
236.467	82.79
236.686	85.31
236.904	103.28
237.123	74.55
237.341	71.34
237.559	76.05
237.778	55.88
237.996	56.51
238.215	56.32
238.433	53.15
238.652	50.48
238.87	28.79
239.088	18.61
239.307	38.02
239.525	11.91
239.743	-7.71
239.962	34.65
240.18	29.21
240.398	20.27
240.617	5.41
240.835	74.57
241.053	39.58
241.271	54
241.49	65.99
241.708	106.57
241.926	70.41
242.144	96.43
242.363	170.49
242.581	172.43
242.799	137.19
243.017	110.55
243.235	78.98
243.453	24.65
243.672	45.18
243.89	56.36
244.108	155.88
244.326	163.52
244.544	211.54
244.762	127.03
244.98	136.37
245.198	113.96
245.416	87.53
245.634	81.84
245.852	88.82
246.07	70.44
246.288	35.23
246.506	-13.36
246.724	17.41
246.942	26.51
247.16	9.03
247.378	-16.93
247.596	33.38
247.814	12.87
248.032	-17.74
248.25	-26.73
248.468	4.32
248.685	4.25
248.903	9.46
249.121	30.59
249.339	51.34
249.557	33.81
249.775	35.35
249.992	4.51
250.21	20.72
250.428	12.49
250.646	31.64
250.863	69.5
251.081	110.34
251.299	83.05
251.517	102.88
251.734	65.02
251.952	36.33
252.17	51.57
252.387	64.76
252.605	50.91
252.823	69.84
253.04	49.75
253.258	43.2
253.475	60.05
253.693	67.71
253.911	71.72
254.128	75.49
254.346	62.66
254.563	49.19
254.781	38.91
254.998	31.82
255.216	-7.39
255.433	-30.81
255.651	-25.51
255.868	-7.23
256.086	-19.41
256.303	-4.33
256.521	41.43
256.738	14.68
256.956	-30.5
257.173	28.47
257.39	86.38
257.608	42.87
257.825	14.87
258.043	30.81
258.26	25.37
258.477	25.3
258.695	46.69
258.912	77.65
259.129	81.02
259.346	77.43
259.564	68.42
259.781	70.05
259.998	69.41
260.216	69.42
260.433	63.31
260.65	51.92
260.867	25.43
261.084	12.56
261.302	16.42
261.519	35.1
261.736	66.86
261.953	60.21
262.17	71.56
262.387	123.39
262.604	126.03
262.822	168.61
263.039	201.15
263.256	195.12
263.473	109.45
263.69	124.55
263.907	88.17
264.124	77.54
264.341	50.71
264.558	56.19
264.775	23.92
264.992	39.36
265.209	36.8
265.426	27.32
265.643	30.98
265.86	41.39
266.077	39.85
266.294	44.97
266.51	49.53
266.727	76.77
266.944	108.28
267.161	80.6
267.378	82.41
267.595	68.23
267.812	36.38
268.028	9.43
268.245	27.6
268.462	41.71
268.679	40.58
268.896	65.41
269.112	73.65
269.329	114.79
269.546	75.14
269.763	72.46
269.979	75.01
270.196	86.85
270.413	70
270.629	89.3
270.846	89.62
271.063	83.55
271.279	58.5
271.496	46.17
271.712	-47.31
271.929	-11.67
272.146	2.82
272.362	-19.2
272.579	-34.15
272.795	-6.5
273.012	0.25
273.228	2.5
273.445	26.08
273.661	74.61
273.878	77.86
274.094	86.15
274.311	60.98
274.527	41.58
274.744	45.66
274.96	44.82
275.177	31.35
275.393	43.36
275.609	64.5
275.826	43.7
276.042	58.68
276.259	66.25
276.475	62.85
276.691	55.9
276.908	69.64
277.124	71.53
277.34	81.11
277.557	66.79
277.773	72.55
277.989	84.49
278.205	86.75
278.422	45.7
278.638	76.17
278.854	88.31
279.07	68.9
279.286	37.38
279.503	58.63
279.719	71.43
279.935	70.3
280.151	100.43
280.367	121.89
280.583	92.09
280.799	85.19
281.016	88.06
281.232	110.42
281.448	123.32
281.664	107.26
281.88	149.35
282.096	108.48
282.312	83.47
282.528	79.62
282.744	91.88
282.96	90.49
283.176	91.82
283.392	80.73
283.608	78.57
283.824	80.74
284.04	78.92
284.256	78.57
284.471	81.46
284.687	95.89
284.903	77.93
285.119	84.55
285.335	80.58
285.551	74.64
285.767	38.09
285.982	33.04
286.198	-27.18
286.414	1.94
286.63	47.85
286.846	69.8
287.061	71.34
287.277	67.33
287.493	83.34
287.709	47.97
287.924	63.11
288.14	60.99
288.356	66.3
288.571	69.63
288.787	78.97
289.003	91.14
289.218	117.45
289.434	91.42
289.65	58.78
289.865	52.53
290.081	34.31
290.296	31.07
290.512	33.99
290.727	46.79
290.943	39.37
291.159	49.45
291.374	50.03
291.59	52.77
291.805	53.16
292.021	77.34
292.236	69.06
292.451	105.89
292.667	74.66
292.882	61.02
293.098	60.4
293.313	79.51
293.529	77.49
293.744	68.37
293.959	51.19
294.175	49.41
294.39	45.67
294.605	34.87
294.821	39.43
295.036	32.74
295.251	29.04
295.467	34.71
295.682	31.34
295.897	52.09
296.112	51.72
296.328	72.52
296.543	68.39
296.758	80.25
296.973	59.53
297.188	76.16
297.404	47.43
297.619	44.1
297.834	50.58
298.049	22.46
298.264	5.9
298.479	19.43
298.694	22.98
298.909	33.66
299.125	72.11
299.34	67.3
299.555	81.7
299.77	91.3
299.985	82.46
300.2	69.42
300.415	77.18
300.63	41.94
300.845	35.82
301.06	64.41
301.275	53.81
301.49	73.08
301.704	155.25
301.919	92.18
302.134	80.15
302.349	87.68
302.564	58.65
302.779	63.58
302.994	67.11
303.209	70.46
303.423	50.98
303.638	55.09
303.853	51.11
304.068	38.35
304.283	18.57
304.497	25.59
304.712	46.79
304.927	23.62
305.142	50.74
305.356	62.37
305.571	85.41
305.786	59.43
306	77.27
306.215	91.23
306.43	105.39
306.644	101.59
306.859	98.17
307.074	89.31
307.288	65.92
307.503	65.77
307.717	65.33
307.932	54.19
308.147	47.5
308.361	56.36
308.576	37.57
308.79	17.19
309.005	52.29
309.219	36.91
309.434	18.7
309.648	-10.21
309.863	-2.88
310.077	-50.09
310.292	-10.61
310.506	14.78
310.72	63.94
310.935	72.28
311.149	93.84
311.364	105.71
311.578	93.47
311.792	96.31
312.007	85.57
312.221	49.05
312.435	39.81
312.649	39.16
312.864	14.47
313.078	32.44
313.292	83.31
313.507	88.59
313.721	71.54
313.935	72.37
314.149	60.95
314.363	47.11
314.578	34.48
314.792	44.84
315.006	50.42
315.22	59.34
315.434	16.86
315.648	30.01
315.862	65.84
316.077	55.08
316.291	47.49
316.505	83.66
316.719	79.55
316.933	61.07
317.147	43.38
317.361	37.46
317.575	29.78
317.789	32.55
318.003	39.31
318.217	65.55
318.431	94.13
318.645	91.91
318.859	40.49
319.073	34.39
319.287	30.32
319.5	19.5
319.714	5.65
319.928	69.4
320.142	70.52
320.356	57.13
320.57	74.13
320.784	103.46
320.997	66.33
321.211	67.91
321.425	78.54
321.639	12.79
321.853	1.15
322.066	-5.81
322.28	-14.78
322.494	-22.53
322.707	-7.89
322.921	5.59
323.135	13.49
323.349	18.16
323.562	37.05
323.776	59.41
323.989	38.49
324.203	46.94
324.417	57.81
324.63	28.74
324.844	19.11
325.057	29.77
325.271	0.83
325.485	19.24
325.698	39.15
325.912	58.48
326.125	59.77
326.339	100.07
326.552	81.52
326.766	81.23
326.979	91.38
327.193	82.32
327.406	76.4
327.619	128.19
327.833	86.43
328.046	89.27
328.26	92.43
328.473	39
328.686	13.63
328.9	36.52
329.113	33.44
329.326	39.72
329.54	69.45
329.753	91.05
329.966	95.99
330.179	88.84
330.393	100.83
330.606	79.2
330.819	69.55
331.032	67.63
331.246	91.1
331.459	80.03
331.672	89.05
331.885	81.87
332.098	87.42
332.311	85.04
332.525	71.83
332.738	62.72
332.951	54.59
333.164	36.59
333.377	18
333.59	34.17
333.803	31.05
334.016	36.62
334.229	47.99
334.442	65.12
334.655	71.55
334.868	75.77
335.081	57.06
335.294	76.72
335.507	79.5
335.72	66.61
335.933	57.02
336.146	55.57
336.359	36.58
336.572	20.54
336.785	11.37
336.997	29.61
337.21	67.75
337.423	73.86
337.636	72.88
337.849	91.44
338.062	89.84
338.274	56.03
338.487	76.22
338.7	74.18
338.913	72.82
339.125	69.01
339.338	70.05
339.551	64.73
339.763	89.16
339.976	96.43
340.189	88.63
340.402	81.96
340.614	70.2
340.827	70.54
341.039	48.19
341.252	50.19
341.465	36.44
341.677	30.64
341.89	-16
342.102	13.94
342.315	-6.48
342.527	29.17
342.74	29.64
342.952	64.3
343.165	74.5
343.377	81.62
343.59	79.68
343.802	76.66
344.015	56.67
344.227	30.77
344.44	41.42
344.652	49.56
344.864	59.09
345.077	71.36
345.289	74.71
345.502	71.3
345.714	66.01
345.926	57.26
346.139	47.3
346.351	40.95
346.563	19.69
346.775	23.36
346.988	7.33
347.2	26.97
347.412	44.58
347.624	88.4
347.837	54.44
348.049	57.9
348.261	41.91
348.473	49.02
348.685	46.53
348.897	74.59
349.11	61.65
349.322	46.93
349.534	39.88
349.746	52.82
349.958	47.19
350.17	55.5
350.382	82.8
350.594	96.06
350.806	81.66
351.018	69.8
351.23	66.61
351.442	61.2
351.654	58.75
351.866	59.14
352.078	55.18
352.29	53.41
352.502	57.39
352.714	34.32
352.926	33.74
353.138	35.84
353.35	42.66
353.561	30.99
353.773	37.59
353.985	39.04
354.197	44.11
354.409	33.68
354.621	22.96
354.832	54.54
355.044	42.69
355.256	46.11
355.468	41.09
355.679	59.16
355.891	62.05
356.103	67.22
356.314	62.56
356.526	63.7
356.738	70.42
356.949	33.75
357.161	58.5
357.373	50.83
357.584	71.15
357.796	82.31
358.008	82.88
358.219	60.96
358.431	97.54
358.642	86.84
358.854	66.17
359.065	78.15
359.277	81.01
359.488	59.73
359.7	57.63
359.911	39.41
360.123	39.51
360.334	40.55
360.546	43.53
360.757	41.55
360.969	67.53
361.18	84.11
361.391	74.48
361.603	95.33
361.814	109.42
362.025	108.54
362.237	82.93
362.448	83.47
362.659	61.12
362.871	48.43
363.082	29.91
363.293	22.2
363.504	12.91
363.716	26.72
363.927	54.1
364.138	58.55
364.349	56.1
364.56	63.26
364.772	47.37
364.983	31.94
365.194	47.11
365.405	32.06
365.616	22.57
365.827	40.17
366.038	47.85
366.25	47.77
366.461	47.39
366.672	53.29
366.883	47.57
367.094	47.73
367.305	47.56
367.516	65.72
367.727	74.58
367.938	86.31
368.149	67.6
368.36	69.35
368.571	91.61
368.781	89.49
368.992	53.67
369.203	61.14
369.414	47.49
369.625	32.1
369.836	18.55
370.047	21.07
370.258	37.19
370.468	44.52
370.679	39.7
370.89	48.78
371.101	57.93
371.312	46.53
371.522	46
371.733	58.62
371.944	56.29
372.155	69.61
372.365	51.04
372.576	56.3
372.787	52.41
372.997	66.27
373.208	57.71
373.419	74.54
373.629	49.08
373.84	60.56
374.05	51.3
374.261	61.4
374.472	57.07
374.682	63.44
374.893	47.11
375.103	35.75
375.314	27.78
375.524	33.41
375.735	30.96
375.945	47.17
376.156	51.96
376.366	46.57
376.577	50.3
376.787	62.92
376.997	60.53
377.208	61.48
377.418	64.43
377.629	60.85
377.839	62.21
378.049	52.73
378.26	38.27
378.47	38.7
378.68	48.63
378.89	30.63
379.101	27.38
379.311	28.62
379.521	22.17
379.732	19.07
379.942	26.26
380.152	32.37
380.362	50.35
380.572	53.65
380.783	47.48
380.993	40.52
381.203	30.99
381.413	21.42
381.623	18.97
381.833	21.66
382.043	33.77
382.253	39.65
382.463	43.5
382.674	49.66
382.884	47.82
383.094	34.49
383.304	33.47
383.514	34.37
383.724	26.24
383.934	21.91
384.144	31.16
384.353	29
384.563	26.66
384.773	26.45
384.983	21.49
385.193	24.95
385.403	30.15
385.613	39.61
385.823	46.64
386.033	48.52
386.242	37.47
386.452	34.16
386.662	24.48
386.872	17.26
387.082	15.23
387.291	1.92
387.501	4.2
387.711	3.4
387.921	6.21
388.13	8.09
388.34	19.39
388.55	17.82
388.759	17.35
388.969	15.52
389.179	16.73
389.388	19.91
389.598	19.32
389.807	18.75
390.017	20.11
390.227	18.23
390.436	13.1
390.646	8.92
390.855	7.12
391.065	6.62
391.274	7.34
391.484	9.04
391.693	9.73
391.903	11.67
392.112	12.6
392.322	11.31
392.531	11.45
392.74	13.46
392.95	12.1
393.159	11.49
393.369	12.95
393.578	13.77
393.787	13.73
393.997	14
394.206	12.96
394.415	12.19
394.625	11.95
394.834	11.23
395.043	10.83
395.252	11.11
395.462	11.8
395.671	10.99
395.88	11.64
396.089	11.77
396.298	11.81
396.508	11.27
396.717	10.94
396.926	10.51
397.135	9.98
397.344	9.51
397.553	9.81
397.762	9.57
397.971	8.92
398.181	9.02
398.39	8.54
398.599	8.29
398.808	8.48
399.017	8.3
399.226	8.4
399.435	9.06
399.644	8.86
399.853	9.05
400.062	9.16
400.27	9
400.479	8.54
400.688	8.52
400.897	8.42
401.106	8.5
401.315	8.48
401.524	8.76
401.733	8.72
401.941	8.68
402.15	8.55
402.359	8.42
402.568	8.26
402.777	8.14
402.985	8.03
403.194	8.07
403.403	8.09
403.612	7.92
403.82	8.09
404.029	7.94
404.238	7.88
404.446	7.98
404.655	8.11
404.864	7.9
405.072	7.91
405.281	7.9
405.489	7.84
405.698	8
405.906	7.82
406.115	7.8
406.324	7.99
406.532	7.98
406.741	7.64
406.949	7.69
407.158	7.78
407.366	7.53
407.574	7.47
407.783	7.49
407.991	7.58
408.2	7.36
408.408	7.42
408.617	7.4
408.825	7.46
409.033	7.48
409.242	7.51
409.45	7.23
409.658	7.14
409.867	7.07
410.075	7
410.283	7.08
410.491	7.19
410.7	7.31
410.908	7.3
411.116	7.29
411.324	7.28
411.533	7.35
411.741	7.26
411.949	7.35
412.157	7.24
412.365	7.33
412.573	7.22
412.781	7.18
412.99	7.09
413.198	7.34
413.406	7.36
413.614	7.39
413.822	7.36
414.03	7.4
414.238	7.19
414.446	7.2
414.654	7.19
414.862	7.23
415.07	7.16
415.278	7.23
415.486	6.83
415.694	6.84
415.902	6.76
416.109	6.74
416.317	6.71
416.525	6.76
416.733	6.61
416.941	6.91
417.149	6.84
417.357	6.72
417.564	6.66
417.772	6.67
417.98	6.32
418.188	6.22
418.395	6.13
418.603	6.43
418.811	6.46
419.019	6.7
419.226	6.89
419.434	7.16
419.642	7.06
419.849	7.12
420.057	6.99
420.265	6.95
420.472	6.56
420.68	6.36
420.887	6.29
421.095	6.33
421.302	6.23
421.51	6.31
421.717	6.58
421.925	6.61
422.132	6.57
422.34	6.71
422.547	6.91
422.755	6.85
422.962	6.96
423.17	6.99
423.377	7.01
423.585	7.02
423.792	7
423.999	6.73
424.207	6.49
424.414	6.15
424.621	6.14
424.829	6.15
425.036	6.3
425.243	6.48
425.451	6.72
425.658	6.55
425.865	6.42
426.072	6.37
426.28	6.38
426.487	6.45
426.694	6.4
426.901	6.47
427.108	6.46
427.315	6.51
427.523	6.41
427.73	6.53
427.937	6.41
428.144	6.51
428.351	6.61
428.558	6.58
428.765	6.42
428.972	6.59
429.179	6.53
429.386	6.32
429.593	6.49
429.8	6.67
430.007	6.45
430.214	6.43
430.421	6.57
430.628	6.39
430.835	6.37
431.042	6.56
431.249	6.61
431.456	6.48
431.662	6.71
431.869	6.76
432.076	6.75
432.283	6.82
432.49	6.77
432.697	6.76
432.903	6.48
433.11	6.35
433.317	6.24
433.524	6.3
433.73	6.24
433.937	6.32
434.144	6.46
434.35	6.53
434.557	6.46
434.764	6.27
434.97	6.2
435.177	6.33
435.384	6.14
435.59	6.2
435.797	6.33
436.003	6.38
436.21	6.06
436.416	5.99
436.623	5.97
436.829	5.85
437.036	5.97
437.242	5.99
437.449	6.24
437.655	6.35
437.862	6.5
438.068	6.61
438.275	6.81
438.481	6.55
438.687	6.45
438.894	6.5
439.1	6.26
439.307	6.13
439.513	6.25
439.719	6.29
439.926	6.34
440.132	6.45
440.338	6.49
440.544	6.5
440.751	6.48
440.957	6.24
441.163	6.11
441.369	6.16
441.575	6.14
441.782	6.24
441.988	6.27
442.194	6.27
442.4	6.28
442.606	6.31
442.812	6.16
443.018	6.15
443.224	6.2
443.431	6.2
443.637	6.21
443.843	6.18
444.049	6.21
444.255	6.21
444.461	6.1
444.667	5.99
444.873	5.99
445.079	5.95
445.284	6.06
445.49	6.11
445.696	6.26
445.902	6.3
446.108	6.34
446.314	6.16
446.52	6.16
446.726	6.21
446.931	6.27
447.137	6.28
447.343	6.4
447.549	6.34
447.755	6.26
447.96	6.21
448.166	6.24
448.372	6.2
448.578	6.32
448.783	6.33
448.989	6.35
449.195	6.41
449.4	6.48
449.606	6.42
449.812	6.33
450.017	6.34
450.223	6.15
450.428	6.07
450.634	6.07
450.84	6.16
451.045	6.14
451.251	6.27
451.456	6.33
451.662	6.27
451.867	6.23
452.073	6.29
452.278	6.27
452.483	6.2
452.689	6.26
452.894	6.29
453.1	6.21
453.305	6.19
453.51	6.34
453.716	6.38
453.921	6.41
454.127	6.45
454.332	6.39
454.537	6.32
454.742	6.27
454.948	6.22
455.153	6.22
455.358	6.23
455.563	6.21
455.769	6.09
455.974	6.12
456.179	5.98
456.384	5.89
456.589	5.85
456.795	5.97
457	5.96
457.205	6.01
457.41	6.16
457.615	6.11
457.82	6.1
458.025	6.05
458.23	5.99
458.435	5.86
458.64	5.89
458.845	6.01
459.05	5.97
459.255	5.94
459.46	5.95
459.665	6.07
459.87	5.95
460.075	6.04
460.28	6.15
460.485	6.17
460.69	6.03
460.895	5.86
461.099	5.85
461.304	5.88
461.509	5.96
461.714	5.93
461.919	6.02
462.123	5.97
462.328	5.89
462.533	5.86
462.738	5.94
462.942	5.97
463.147	6.06
463.352	6.07
463.556	6.04
463.761	6.01
463.966	6
464.17	5.97
464.375	5.94
464.58	5.83
464.784	5.88
464.989	5.97
465.193	5.83
465.398	6.02
465.602	6.38
465.807	6.48
466.011	6.5
466.216	6.65
