Data from Ofav_SP_Phys_4JQ12_Reflection_1.txt Node
Date: Thu Aug 05 17:52:23 EDT 2021
User: Adam
Spectrometer: FLMT01687
Trigger mode: 0
Integration Time (sec): 8.000000E-1
Scans to average: 2
Electric dark correction enabled: true
Nonlinearity correction enabled: false
Boxcar width: 2
XAxis mode: Wavelengths
Number of Pixels in Spectrum: 3648
>>>>>Begin Spectral Data<<<<<
179.494	657.07
179.716	748.74
179.937	608.51
180.158	718.79
180.38	1753.09
180.601	-839.33
180.823	-95.63
181.044	-60.89
181.265	3.09
181.486	51.17
181.708	-640.94
181.929	-72.74
182.15	-404.49
182.372	11.43
182.593	13.02
182.814	-171.79
183.035	-145.03
183.257	-489.32
183.478	498.64
183.699	-531
183.92	-124.54
184.141	568.16
184.363	-354.05
184.584	162.97
184.805	113.25
185.026	109.18
185.247	84.76
185.468	77.55
185.689	92.32
185.91	63.05
186.132	8.99
186.353	-2.94
186.574	-60.95
186.795	-48.47
187.016	-28.2
187.237	-43.8
187.458	-201.94
187.679	-23.73
187.9	7.2
188.121	-26.45
188.342	37.1
188.563	50.42
188.784	106.42
189.005	68.12
189.226	122.26
189.447	127.2
189.667	235.71
189.888	175.09
190.109	121.65
190.33	70.3
190.551	47.44
190.772	49.55
190.993	89.79
191.214	74.14
191.434	47.9
191.655	51.37
191.876	65.45
192.097	39.96
192.318	53.3
192.538	101.24
192.759	118.38
192.98	59.18
193.201	162.52
193.421	102.07
193.642	116.03
193.863	77.54
194.083	67.45
194.304	59.91
194.525	63.02
194.745	7.73
194.966	17.07
195.187	24.4
195.407	49.07
195.628	28.06
195.848	100
196.069	63.48
196.29	48.41
196.51	30.67
196.731	27.84
196.951	44.35
197.172	50.64
197.392	59.96
197.613	51.7
197.833	96.29
198.054	84.68
198.274	72.99
198.495	62.32
198.715	41.7
198.936	-16.03
199.156	0.55
199.377	37.1
199.597	45.05
199.817	53.29
200.038	44
200.258	40.56
200.479	27.42
200.699	21.35
200.919	7.55
201.14	-45.72
201.36	-86.31
201.58	-46.24
201.801	-164.76
202.021	-135.67
202.241	-6.33
202.461	27.52
202.682	-17.93
202.902	47.45
203.122	151.06
203.342	90.76
203.563	5.18
203.783	32.57
204.003	51.49
204.223	40.25
204.443	16.71
204.663	37.17
204.884	39.27
205.104	10.56
205.324	47.7
205.544	62.35
205.764	57.48
205.984	52.26
206.204	98.88
206.424	38.18
206.644	30.48
206.864	27.32
207.084	6.95
207.304	59.74
207.525	57.7
207.745	68.98
207.964	68.21
208.184	98.2
208.404	-14.25
208.624	-13.51
208.844	-53.59
209.064	-51.62
209.284	-26.81
209.504	-6.15
209.724	24.51
209.944	22.78
210.164	35.32
210.384	58.24
210.604	28.42
210.823	33.61
211.043	31.46
211.263	28.71
211.483	16.6
211.703	53.51
211.922	50.7
212.142	68.41
212.362	54.68
212.582	47.83
212.801	24.58
213.021	55.02
213.241	33.35
213.461	-1.41
213.68	-4.14
213.9	-19.92
214.12	-77.85
214.339	-58.61
214.559	14.54
214.779	-6.85
214.998	20.65
215.218	36.07
215.438	78.49
215.657	89.69
215.877	124.42
216.096	65.67
216.316	79.45
216.535	-22.13
216.755	-134.92
216.974	-348.81
217.194	36.43
217.413	39.68
217.633	51.31
217.852	64.19
218.072	67.51
218.291	28.83
218.511	33.1
218.73	7.76
218.95	-35.05
219.169	-85.44
219.389	-20.55
219.608	-82.55
219.827	-15.34
220.047	34.64
220.266	66.06
220.485	50.9
220.705	73.23
220.924	55.75
221.143	37.37
221.363	3.69
221.582	60.43
221.801	26.05
222.021	59.95
222.24	88.18
222.459	192.62
222.678	120.88
222.897	151.69
223.117	153.94
223.336	106.4
223.555	81.58
223.774	50.28
223.993	43.97
224.213	25.88
224.432	11.49
224.651	4.92
224.87	9.77
225.089	-14.19
225.308	-52.94
225.527	14.57
225.746	-10.5
225.965	-16.32
226.184	17.98
226.404	24.78
226.623	-32.54
226.842	10.29
227.061	22.18
227.28	19.88
227.499	41.21
227.718	44.37
227.936	17.61
228.155	17.7
228.374	8.47
228.593	8.44
228.812	32.73
229.031	50.51
229.25	60.93
229.469	59.18
229.688	41.05
229.907	23.93
230.125	16.28
230.344	19.33
230.563	23.26
230.782	75.93
231.001	100.58
231.22	100.73
231.438	84.21
231.657	70.82
231.876	49.56
232.095	49.81
232.313	29.33
232.532	-0.61
232.751	13.33
232.969	27.22
233.188	18.52
233.407	1.12
233.625	31.28
233.844	4.13
234.063	12.67
234.281	21.6
234.5	43.29
234.719	93.6
234.937	57.99
235.156	48.36
235.374	55.98
235.593	60.66
235.811	10.28
236.03	42.81
236.249	40.66
236.467	33.51
236.686	39.72
236.904	45.53
237.123	24.19
237.341	49.54
237.559	30.76
237.778	14.52
237.996	19.35
238.215	29.83
238.433	26.14
238.652	48.66
238.87	31.69
239.088	21.07
239.307	13.4
239.525	-17.03
239.743	-22.42
239.962	4
240.18	-13.06
240.398	2.96
240.617	-3.25
240.835	4.6
241.053	-19.32
241.271	-40.05
241.49	-43.27
241.708	-50.55
241.926	-66.97
242.144	-66.8
242.363	-43.47
242.581	-17.47
242.799	-42.23
243.017	-44.12
243.235	-77.03
243.453	-15.84
243.672	-51.36
243.89	-38.92
244.108	13.45
244.326	32.63
244.544	-1.9
244.762	3.9
244.98	27.2
245.198	31.15
245.416	36.06
245.634	48.92
245.852	96.46
246.07	97.42
246.288	56.75
246.506	42.4
246.724	18.66
246.942	15.68
247.16	17.48
247.378	6.89
247.596	10.87
247.814	22.46
248.032	-32.29
248.25	-96.14
248.468	-45.5
248.685	-12.44
248.903	-6.4
249.121	8.23
249.339	62.55
249.557	58
249.775	40.9
249.992	1.01
250.21	36.59
250.428	20.4
250.646	30.69
250.863	51.18
251.081	87.89
251.299	63.31
251.517	93.88
251.734	85.55
251.952	58.65
252.17	93.66
252.387	76.52
252.605	53.74
252.823	48.59
253.04	50.82
253.258	41.36
253.475	58.86
253.693	55.84
253.911	75.89
254.128	71.78
254.346	53.96
254.563	57.21
254.781	54.13
254.998	36.37
255.216	35.92
255.433	26.06
255.651	-24.57
255.868	-12.73
256.086	-18.02
256.303	-36.02
256.521	-11.83
256.738	-43.36
256.956	-97.46
257.173	1.12
257.39	68.01
257.608	18.02
257.825	24.9
258.043	23.12
258.26	-4.92
258.477	-12.45
258.695	13.79
258.912	30.1
259.129	38.35
259.346	48.27
259.564	43.67
259.781	46.13
259.998	45.66
260.216	51.41
260.433	52.28
260.65	38.96
260.867	1.01
261.084	-10.33
261.302	7.15
261.519	8.21
261.736	31.69
261.953	26.67
262.17	36.16
262.387	44.74
262.604	40.96
262.822	54.02
263.039	84.53
263.256	95.17
263.473	56.16
263.69	78.45
263.907	67.07
264.124	89.64
264.341	81.76
264.558	79.59
264.775	57.59
264.992	45.4
265.209	10.07
265.426	-20.82
265.643	-12.39
265.86	-0.08
266.077	-3.76
266.294	10.82
266.51	14.77
266.727	11.79
266.944	43.75
267.161	49.48
267.378	44.51
267.595	50.71
267.812	37.23
268.028	0.32
268.245	4.67
268.462	-19.26
268.679	-44.37
268.896	-27.86
269.112	-44.27
269.329	-58.04
269.546	8.47
269.763	20.36
269.979	44.52
270.196	77.13
270.413	80.75
270.629	101.94
270.846	99.25
271.063	84.21
271.279	71.44
271.496	36.51
271.712	-74.48
271.929	-80.46
272.146	-41.6
272.362	-66.21
272.579	-41.3
272.795	-24.81
273.012	17.69
273.228	-4.57
273.445	11.5
273.661	26.09
273.878	22.64
274.094	-5.24
274.311	19.46
274.527	2.72
274.744	-8.29
274.96	7.94
275.177	13.84
275.393	-7.34
275.609	8.8
275.826	22.08
276.042	42.65
276.259	49.35
276.475	37.9
276.691	36.6
276.908	31.01
277.124	32.33
277.34	33.29
277.557	14.53
277.773	9.25
277.989	13.71
278.205	-20.63
278.422	-47.52
278.638	11.97
278.854	30.15
279.07	23.55
279.286	6.73
279.503	27.54
279.719	18.7
279.935	39.32
280.151	53.56
280.367	80.29
280.583	70.03
280.799	81.34
281.016	66
281.232	59.14
281.448	48.81
281.664	44.26
281.88	37.61
282.096	30.03
282.312	57.74
282.528	45.98
282.744	45.4
282.96	34.02
283.176	44.49
283.392	43.22
283.608	53.96
283.824	28.94
284.04	33.57
284.256	23.94
284.471	13.56
284.687	17.12
284.903	46.25
285.119	57.73
285.335	39.29
285.551	37.66
285.767	13.88
285.982	1.58
286.198	-120.29
286.414	-54.9
286.63	-33.72
286.846	2.17
287.061	11.95
287.277	48.12
287.493	89.24
287.709	68.38
287.924	49.54
288.14	55.36
288.356	52.95
288.571	49.62
288.787	47.41
289.003	70.83
289.218	74.09
289.434	57.52
289.65	31.7
289.865	50.37
290.081	19.93
290.296	19.98
290.512	8.04
290.727	13.99
290.943	2.5
291.159	18.99
291.374	25.09
291.59	39.17
291.805	49.1
292.021	77.24
292.236	57.94
292.451	33.36
292.667	33.86
292.882	-6.61
293.098	-0.39
293.313	22.34
293.529	22.98
293.744	11.62
293.959	-1.81
294.175	4.15
294.39	8.65
294.605	13.45
294.821	22.14
295.036	21.54
295.251	22.02
295.467	18.58
295.682	18.34
295.897	23.39
296.112	42.02
296.328	35.9
296.543	38.56
296.758	13.76
296.973	22.18
297.188	32.2
297.404	26.86
297.619	24.44
297.834	36.65
298.049	22.37
298.264	-6.02
298.479	-5.16
298.694	23.18
298.909	17.42
299.125	20.83
299.34	31.42
299.555	28.96
299.77	31.33
299.985	39.07
300.2	38.67
300.415	28.19
300.63	19.25
300.845	-5.08
301.06	1.29
301.275	-6.02
301.49	8.15
301.704	55.32
301.919	71.83
302.134	60.95
302.349	44.99
302.564	47.21
302.779	27.99
302.994	11.82
303.209	24.7
303.423	43.82
303.638	18.42
303.853	33.35
304.068	39.55
304.283	33.9
304.497	37.16
304.712	50.6
304.927	43.47
305.142	44.87
305.356	37.9
305.571	39.72
305.786	63.33
306	57.14
306.215	66.16
306.43	79.1
306.644	75.57
306.859	57.21
307.074	75.55
307.288	72.4
307.503	65.87
307.717	74.38
307.932	58.45
308.147	55.12
308.361	41.78
308.576	13.3
308.79	-2.37
309.005	22.82
309.219	-16.66
309.434	-43.25
309.648	-60.65
309.863	-63.19
310.077	-149.13
310.292	-74.8
310.506	-51.09
310.72	-2.13
310.935	-19.23
311.149	-13.4
311.364	-3.16
311.578	30.22
311.792	28.87
312.007	58
312.221	40.82
312.435	61.33
312.649	38.13
312.864	37.24
313.078	21.94
313.292	69.38
313.507	62.62
313.721	69.98
313.935	61.52
314.149	80.84
314.363	70.47
314.578	51.49
314.792	46.77
315.006	60.7
315.22	54.41
315.434	2.83
315.648	2.12
315.862	-24.57
316.077	-20.56
316.291	-34.86
316.505	29.58
316.719	23.11
316.933	21.54
317.147	17.56
317.361	20.97
317.575	2.81
317.789	14.08
318.003	-4.08
318.217	38.44
318.431	46.71
318.645	50.96
318.859	24.29
319.073	25.26
319.287	-17.82
319.5	-4.85
319.714	-5.52
319.928	27.3
320.142	39.35
320.356	37.84
320.57	28.89
320.784	22.33
320.997	-2.71
321.211	10.48
321.425	-12.96
321.639	-43.41
321.853	-37.83
322.066	-28
322.28	-41.87
322.494	-28.75
322.707	-3.49
322.921	16.6
323.135	14.53
323.349	49.51
323.562	62.95
323.776	76.99
323.989	58.26
324.203	72.26
324.417	37.45
324.63	14.3
324.844	-10.72
325.057	-1.62
325.271	-23.76
325.485	-5.26
325.698	3.2
325.912	15.62
326.125	23.13
326.339	49.31
326.552	39.46
326.766	42.35
326.979	50.62
327.193	55.42
327.406	48.02
327.619	62.6
327.833	45.98
328.046	64.59
328.26	59.33
328.473	30.6
328.686	29.24
328.9	33.09
329.113	-4.62
329.326	-13.77
329.54	5.92
329.753	14.63
329.966	26.26
330.179	44.18
330.393	78.59
330.606	74.17
330.819	61.89
331.032	87.75
331.246	118.53
331.459	78.98
331.672	94.33
331.885	96.74
332.098	82.32
332.311	65.88
332.525	66.14
332.738	36.24
332.951	19.37
333.164	31.32
333.377	20.58
333.59	21.42
333.803	35.59
334.016	11.37
334.229	3.25
334.442	27.75
334.655	46.91
334.868	60.81
335.081	91.18
335.294	92.45
335.507	78.11
335.72	72.08
335.933	52.75
336.146	42.6
336.359	35.82
336.572	25.03
336.785	-1.38
336.997	11.73
337.21	18.35
337.423	27.03
337.636	32.19
337.849	67.15
338.062	54.82
338.274	21.5
338.487	29.98
338.7	44.7
338.913	31.81
339.125	44.91
339.338	34.77
339.551	15.34
339.763	18.58
339.976	25.63
340.189	21.46
340.402	22.44
340.614	28.78
340.827	35.52
341.039	36.82
341.252	34.77
341.465	38.8
341.677	55.71
341.89	27.89
342.102	32.74
342.315	26.45
342.527	58.69
342.74	48.47
342.952	60.1
343.165	52.29
343.377	88.24
343.59	32.46
343.802	9.75
344.015	5.01
344.227	-2.29
344.44	-13.07
344.652	11.71
344.864	24.59
345.077	33.72
345.289	27.66
345.502	18.36
345.714	20.21
345.926	31.37
346.139	23.12
346.351	19.73
346.563	12.08
346.775	7.67
346.988	-33.54
347.2	-31.93
347.412	2.94
347.624	53.09
347.837	58.31
348.049	52.65
348.261	54.03
348.473	53.87
348.685	55.44
348.897	62.22
349.11	70.54
349.322	58.19
349.534	29.19
349.746	14.54
349.958	17.25
350.17	31.77
350.382	27.82
350.594	30.02
350.806	24.42
351.018	33.2
351.23	23.79
351.442	30.68
351.654	30.53
351.866	26.85
352.078	10.08
352.29	12.14
352.502	15.79
352.714	9.68
352.926	34.2
353.138	37.32
353.35	36.95
353.561	38.44
353.773	40.78
353.985	24.85
354.197	41.98
354.409	52.72
354.621	51.45
354.832	64.18
355.044	72.41
355.256	54.52
355.468	31.65
355.679	46.82
355.891	43.68
356.103	38.15
356.314	43.98
356.526	42.84
356.738	28.82
356.949	7.53
357.161	27.01
357.373	17.25
357.584	45.17
357.796	55.31
358.008	55.61
358.219	37.87
358.431	51.23
358.642	31.43
358.854	44.91
359.065	59.72
359.277	55.5
359.488	36.69
359.7	49.38
359.911	24.99
360.123	24.09
360.334	40.88
360.546	47.72
360.757	31.88
360.969	40.86
361.18	45.92
361.391	45.33
361.603	45.31
361.814	62.25
362.025	70.84
362.237	56.09
362.448	39.26
362.659	44.61
362.871	17.81
363.082	6.41
363.293	-5.06
363.504	-8.91
363.716	-0.97
363.927	30.26
364.138	18.76
364.349	21.22
364.56	34.1
364.772	29.41
364.983	14.92
365.194	35.96
365.405	24.58
365.616	13.61
365.827	4.99
366.038	17.25
366.25	22.43
366.461	20.42
366.672	31.48
366.883	35.49
367.094	31.81
367.305	28.32
367.516	43.94
367.727	36.7
367.938	25.41
368.149	18.25
368.36	22.97
368.571	-13.63
368.781	-30.69
368.992	-18.13
369.203	-0.81
369.414	-0.3
369.625	21.27
369.836	12.41
370.047	6.1
370.258	8.78
370.468	-5.71
370.679	-12.07
370.89	-0.3
371.101	-4.42
371.312	-11.34
371.522	9.73
371.733	24.99
371.944	23.37
372.155	50.34
372.365	33.3
372.576	38.77
372.787	27.1
372.997	42.37
373.208	33.25
373.419	50.65
373.629	21.94
373.84	40.45
374.05	22.64
374.261	25.9
374.472	29.2
374.682	30.31
374.893	17.17
375.103	10.75
375.314	21.9
375.524	26.38
375.735	31.82
375.945	50.8
376.156	68.11
376.366	66.12
376.577	60.61
376.787	63.73
376.997	57.98
377.208	56.14
377.418	40.18
377.629	41.37
377.839	50.08
378.049	45.28
378.26	33.57
378.47	37.59
378.68	41.83
378.89	32.79
379.101	21.14
379.311	15.17
379.521	16.17
379.732	11.64
379.942	3.4
380.152	11.07
380.362	16.81
380.572	18.8
380.783	13.25
380.993	23.24
381.203	23.42
381.413	16.26
381.623	16.38
381.833	25.81
382.043	25.7
382.253	32.17
382.463	47.37
382.674	42.16
382.884	31.81
383.094	22.91
383.304	15.03
383.514	5.98
383.724	3.26
383.934	16
384.144	19.44
384.353	23.72
384.563	21.79
384.773	23.74
384.983	13.02
385.193	14.22
385.403	7.51
385.613	9.57
385.823	4.16
386.033	5.22
386.242	5.9
386.452	10.87
386.662	9.52
386.872	11.21
387.082	17.82
387.291	5.8
387.501	4.68
387.711	8.72
387.921	10.6
388.13	7.58
388.34	15.58
388.55	13.61
388.759	7.13
388.969	3.73
389.179	4.35
389.388	7.11
389.598	9.11
389.807	11.18
390.017	12.89
390.227	11.68
390.436	8.48
390.646	4.03
390.855	2.43
391.065	1.8
391.274	1.5
391.484	2.67
391.693	5.22
391.903	4.93
392.112	7.14
392.322	6.45
392.531	7.31
392.74	6.51
392.95	6.18
393.159	4.66
393.369	5.95
393.578	5.23
393.787	6.02
393.997	7.72
394.206	6.92
394.415	7.03
394.625	8.06
394.834	6.59
395.043	4.63
395.252	5.49
395.462	4.84
395.671	4.46
395.88	6.19
396.089	6.95
396.298	6.75
396.508	6.74
396.717	6.27
396.926	5.41
397.135	4.56
397.344	4.14
397.553	4.13
397.762	3.91
397.971	3.91
398.181	4.37
398.39	3.79
398.599	3.95
398.808	4.18
399.017	3.79
399.226	3.69
399.435	3.95
399.644	3.89
399.853	4.1
400.062	4.1
400.27	3.97
400.479	3.97
400.688	3.85
400.897	3.49
401.106	3.56
401.315	3.42
401.524	3.55
401.733	3.37
401.941	3.5
402.15	3.3
402.359	3.19
402.568	3.04
402.777	3.33
402.985	2.95
403.194	2.93
403.403	3.11
403.612	3.19
403.82	3.07
404.029	3.17
404.238	3.3
404.446	3.12
404.655	3.08
404.864	2.95
405.072	3.01
405.281	2.74
405.489	3
405.698	3.1
405.906	3.09
406.115	2.89
406.324	3.18
406.532	2.99
406.741	2.85
406.949	2.73
407.158	2.92
407.366	2.84
407.574	2.93
407.783	2.95
407.991	3.01
408.2	2.88
408.408	2.92
408.617	2.87
408.825	2.8
409.033	2.75
409.242	2.72
409.45	2.43
409.658	2.26
409.867	2.23
410.075	2.23
410.283	2.34
410.491	2.58
410.7	2.78
410.908	2.83
411.116	2.83
411.324	2.76
411.533	2.65
411.741	2.56
411.949	2.53
412.157	2.56
412.365	2.68
412.573	2.71
412.781	2.66
412.99	2.77
413.198	2.91
413.406	2.88
413.614	2.81
413.822	2.83
414.03	2.84
414.238	2.69
414.446	2.61
414.654	2.62
414.862	2.66
415.07	2.5
415.278	2.54
415.486	2.46
415.694	2.54
415.902	2.52
416.109	2.44
416.317	2.48
416.525	2.46
416.733	2.42
416.941	2.54
417.149	2.75
417.357	2.58
417.564	2.67
417.772	2.61
417.98	2.44
418.188	2.35
418.395	2.26
418.603	2.29
418.811	2.3
419.019	2.37
419.226	2.36
419.434	2.64
419.642	2.6
419.849	2.74
420.057	2.61
420.265	2.6
420.472	2.39
420.68	2.25
420.887	2.15
421.095	2.24
421.302	2.19
421.51	2.27
421.717	2.47
421.925	2.2
422.132	2.24
422.34	2.36
422.547	2.3
422.755	2.22
422.962	2.52
423.17	2.65
423.377	2.6
423.585	2.6
423.792	2.59
423.999	2.47
424.207	2.18
424.414	1.9
424.621	1.86
424.829	1.76
425.036	1.91
425.243	2.09
425.451	2.58
425.658	2.68
425.865	2.64
426.072	2.45
426.28	2.37
426.487	2.12
426.694	2.07
426.901	2.25
427.108	2.43
427.315	2.37
427.523	2.44
427.73	2.45
427.937	2.38
428.144	2.23
428.351	2.49
428.558	2.5
428.765	2.25
428.972	2.19
429.179	2.27
429.386	2.07
429.593	2.21
429.8	2.32
430.007	2.37
430.214	2.33
430.421	2.46
430.628	2.27
430.835	2.42
431.042	2.37
431.249	2.49
431.456	2.28
431.662	2.41
431.869	2.34
432.076	2.36
432.283	2.28
432.49	2.26
432.697	2.28
432.903	2.21
433.11	2.08
433.317	1.93
433.524	2.02
433.73	1.83
433.937	1.87
434.144	2.06
434.35	2.17
434.557	2.11
434.764	2.08
434.97	2.08
435.177	2.11
435.384	1.97
435.59	1.91
435.797	2.04
436.003	2.06
436.21	1.82
436.416	1.87
436.623	1.88
436.829	1.82
437.036	1.7
437.242	1.78
437.449	1.85
437.655	1.96
437.862	2.03
438.068	2.14
438.275	2.33
438.481	2.36
438.687	2.29
438.894	2.27
439.1	2.21
439.307	2.07
439.513	2.02
439.719	2.09
439.926	2.07
440.132	2.13
440.338	2.23
440.544	2.26
440.751	2.32
440.957	2.28
441.163	2.24
441.369	2.16
441.575	2.11
441.782	2.09
441.988	2.06
442.194	1.98
442.4	1.95
442.606	2.02
442.812	1.94
443.018	1.82
443.224	1.86
443.431	1.92
443.637	1.84
443.843	1.78
444.049	1.86
444.255	2
444.461	2
444.667	1.94
444.873	1.89
445.079	1.94
445.284	1.86
445.49	1.83
445.696	1.9
445.902	1.95
446.108	1.91
446.314	1.82
446.52	1.85
446.726	1.9
446.931	1.92
447.137	1.94
447.343	1.93
447.549	1.88
447.755	1.96
447.96	2.02
448.166	2.04
448.372	2.12
448.578	2.08
448.783	2.07
448.989	1.94
449.195	1.88
449.4	1.82
449.606	1.97
449.812	1.9
450.017	2.03
450.223	2.02
450.428	2.06
450.634	1.96
450.84	1.9
451.045	1.88
451.251	1.92
451.456	2.03
451.662	2.04
451.867	2.07
452.073	2.07
452.278	2.06
452.483	1.92
452.689	1.95
452.894	1.89
453.1	1.85
453.305	1.81
453.51	1.82
453.716	1.84
453.921	1.92
454.127	1.95
454.332	1.95
454.537	2.02
454.742	2.04
454.948	2.06
455.153	2.03
455.358	2.05
455.563	1.99
455.769	1.89
455.974	1.88
456.179	1.77
456.384	1.66
456.589	1.68
456.795	1.73
457	1.65
457.205	1.74
457.41	1.9
457.615	1.83
457.82	1.88
458.025	1.87
458.23	1.83
458.435	1.79
458.64	1.71
458.845	1.67
459.05	1.63
459.255	1.74
459.46	1.71
459.665	1.88
459.87	1.77
460.075	1.78
460.28	1.72
460.485	1.77
460.69	1.67
460.895	1.57
461.099	1.61
461.304	1.62
461.509	1.62
461.714	1.69
461.919	1.81
462.123	1.79
462.328	1.73
462.533	1.63
462.738	1.66
462.942	1.64
463.147	1.77
463.352	1.82
463.556	1.86
463.761	1.75
463.966	1.82
464.17	1.73
464.375	1.78
464.58	1.73
464.784	1.77
464.989	1.82
465.193	1.72
465.398	1.79
465.602	2.01
465.807	2.11
466.011	2.08
466.216	2.19
466.42	2.14
466.625	2.04
466.829	2.02
