Data from Ofav_SP_Phys_2AZ2_Reflection_2.txt Node
Date: Thu Aug 05 17:53:22 EDT 2021
User: Adam
Spectrometer: FLMT01687
Trigger mode: 0
Integration Time (sec): 8.000000E-1
Scans to average: 2
Electric dark correction enabled: true
Nonlinearity correction enabled: false
Boxcar width: 2
XAxis mode: Wavelengths
Number of Pixels in Spectrum: 3648
>>>>>Begin Spectral Data<<<<<
179.494	622.13
179.716	714.51
179.937	606.85
180.158	757.51
180.38	1954.92
180.601	-885.13
180.823	-179.33
181.044	-78.99
181.265	9.67
181.486	19.36
181.708	-137.58
181.929	-145.3
182.15	-558.78
182.372	15.26
182.593	-31.88
182.814	-228.21
183.035	-113.86
183.257	-248.04
183.478	472.2
183.699	-233.74
183.92	-121.89
184.141	344.84
184.363	-649.19
184.584	249.55
184.805	119.88
185.026	82.24
185.247	88.79
185.468	94.06
185.689	75.85
185.91	73.93
186.132	10.27
186.353	-51.66
186.574	-157.89
186.795	-52.65
187.016	-2.38
187.237	-3.97
187.458	100.77
187.679	82.87
187.9	32.39
188.121	29.43
188.342	115.88
188.563	107.34
188.784	141.31
189.005	149.47
189.226	125.16
189.447	97.63
189.667	99.59
189.888	190.86
190.109	177.57
190.33	137.02
190.551	139.76
190.772	172.69
190.993	107.53
191.214	89.46
191.434	61.21
191.655	36.77
191.876	20.78
192.097	20.87
192.318	20.66
192.538	55.13
192.759	186.03
192.98	141.72
193.201	324.89
193.421	110.87
193.642	63.67
193.863	-32.31
194.083	9.02
194.304	41.51
194.525	46.95
194.745	40.01
194.966	52.77
195.187	51.13
195.407	13.02
195.628	40.58
195.848	70.98
196.069	65.71
196.29	67.49
196.51	98.26
196.731	59.27
196.951	56.89
197.172	54.91
197.392	60.09
197.613	28.42
197.833	70.8
198.054	85.27
198.274	81.05
198.495	102.88
198.715	116.63
198.936	56.17
199.156	46.65
199.377	36.96
199.597	58.62
199.817	53.18
200.038	58.5
200.258	57.62
200.479	75.98
200.699	48.08
200.919	40.39
201.14	20.26
201.36	30.59
201.58	40.78
201.801	-32.87
202.021	-22.91
202.241	55.46
202.461	13.17
202.682	-15.18
202.902	-7.9
203.122	84.23
203.342	152.55
203.563	112.38
203.783	156.39
204.003	110.01
204.223	83.06
204.443	60.78
204.663	42.77
204.884	33.31
205.104	35.41
205.324	48.04
205.544	44.43
205.764	61.95
205.984	64.2
206.204	49.74
206.424	43.49
206.644	37.34
206.864	18.12
207.084	-4.59
207.304	45.61
207.525	22.7
207.745	45.3
207.964	56.88
208.184	94.83
208.404	41.47
208.624	42.69
208.844	48.89
209.064	49.24
209.284	37.5
209.504	47.92
209.724	44.94
209.944	26.39
210.164	24.02
210.384	55.52
210.604	45.62
210.823	49.86
211.043	39.04
211.263	37.76
211.483	17.08
211.703	24.38
211.922	7.41
212.142	68.92
212.362	84.1
212.582	107.49
212.801	163.28
213.021	121.83
213.241	92.26
213.461	58.89
213.68	62.56
213.9	4.97
214.12	-11.39
214.339	17.16
214.559	39.89
214.779	23.66
214.998	100.22
215.218	119.34
215.438	159.39
215.657	215.99
215.877	225.01
216.096	171.71
216.316	166.32
216.535	71.75
216.755	59.13
216.974	180.82
217.194	101.06
217.413	63.72
217.633	76.64
217.852	57.4
218.072	50.66
218.291	44.79
218.511	58.19
218.73	40.99
218.95	27.21
219.169	24.76
219.389	70.08
219.608	49.71
219.827	77.04
220.047	111.44
220.266	112.99
220.485	113.08
220.705	116.04
220.924	90.85
221.143	66.24
221.363	18.84
221.582	24.19
221.801	-19.31
222.021	53.42
222.24	83.05
222.459	219.3
222.678	133.8
222.897	153.48
223.117	117.34
223.336	82.11
223.555	34.79
223.774	29.09
223.993	22.29
224.213	33.76
224.432	40.23
224.651	65.46
224.87	69.43
225.089	83.23
225.308	106.39
225.527	100.46
225.746	89.07
225.965	67.09
226.184	16.5
226.404	7.41
226.623	-34
226.842	-25.46
227.061	15.76
227.28	23.99
227.499	49.02
227.718	37.69
227.936	47
228.155	38.77
228.374	37.44
228.593	46.3
228.812	72.41
229.031	84.75
229.25	67.28
229.469	61.91
229.688	40.47
229.907	28.75
230.125	6.16
230.344	37.16
230.563	56.68
230.782	102.7
231.001	93.95
231.22	84.41
231.438	71.94
231.657	53.83
231.876	42.9
232.095	76.5
232.313	81.89
232.532	62.37
232.751	65.88
232.969	52.56
233.188	40.4
233.407	27.01
233.625	56.14
233.844	41.72
234.063	74.56
234.281	55.58
234.5	59.22
234.719	69.69
234.937	60.43
235.156	18.6
235.374	35.72
235.593	35.55
235.811	16.48
236.03	43.46
236.249	61.82
236.467	59.98
236.686	62.61
236.904	75.28
237.123	54.36
237.341	67.02
237.559	73.64
237.778	70.89
237.996	62.3
238.215	58.75
238.433	49.49
238.652	41.65
238.87	27.82
239.088	21.76
239.307	27.97
239.525	22.41
239.743	20.12
239.962	34.93
240.18	44.42
240.398	39.4
240.617	23.62
240.835	36.95
241.053	39.01
241.271	18.3
241.49	47.97
241.708	50.78
241.926	64.79
242.144	34.66
242.363	96.7
242.581	82.49
242.799	48.76
243.017	19.16
243.235	17.48
243.453	-6.75
243.672	-23.31
243.89	-21.87
244.108	-11.09
244.326	65.58
244.544	96.78
244.762	90.98
244.98	117.94
245.198	111.58
245.416	79.17
245.634	75.77
245.852	75.76
246.07	67.36
246.288	38.89
246.506	32.17
246.724	27.23
246.942	22.59
247.16	1.68
247.378	-14.27
247.596	-4.45
247.814	25.41
248.032	-12.65
248.25	-32.17
248.468	-9.85
248.685	-1.6
248.903	-8.6
249.121	18.66
249.339	38.41
249.557	35.95
249.775	25.93
249.992	-9.85
250.21	12.04
250.428	6.06
250.646	2.6
250.863	36.98
251.081	65.69
251.299	55.2
251.517	83.92
251.734	65.3
251.952	15.97
252.17	33.39
252.387	17.29
252.605	6.87
252.823	18.9
253.04	35.61
253.258	37.94
253.475	48.76
253.693	42.91
253.911	65.66
254.128	69.96
254.346	62.04
254.563	71.11
254.781	67.38
254.998	73.56
255.216	37
255.433	32.68
255.651	45.72
255.868	56.88
256.086	-7.34
256.303	-9.4
256.521	12.91
256.738	-6.44
256.956	-52.91
257.173	42.58
257.39	128.31
257.608	103.6
257.825	58.59
258.043	56.72
258.26	56.2
258.477	45.56
258.695	48.41
258.912	67.94
259.129	79.03
259.346	73.57
259.564	70.13
259.781	83.41
259.998	71.93
260.216	76.76
260.433	80.04
260.65	69.48
260.867	11.77
261.084	52.64
261.302	52.5
261.519	73.09
261.736	101.96
261.953	91.39
262.17	101.01
262.387	160.09
262.604	160.19
262.822	178.85
263.039	188.56
263.256	169.82
263.473	97.6
263.69	90.41
263.907	80.83
264.124	104.38
264.341	63.86
264.558	64.99
264.775	36.76
264.992	28
265.209	36.12
265.426	29.46
265.643	19.28
265.86	21.59
266.077	31.4
266.294	17.3
266.51	27.67
266.727	61.39
266.944	120.19
267.161	108.81
267.378	90.85
267.595	89.78
267.812	53.28
268.028	3.63
268.245	4.92
268.462	10.84
268.679	-5.64
268.896	16.76
269.112	31.49
269.329	56.08
269.546	46.29
269.763	53.16
269.979	56.6
270.196	72.03
270.413	60.63
270.629	67.75
270.846	74.16
271.063	82.55
271.279	78.49
271.496	42.54
271.712	-41.67
271.929	-61.25
272.146	-42.61
272.362	-100.62
272.579	-39.6
272.795	-13.24
273.012	4.72
273.228	-15.27
273.445	12.06
273.661	54.47
273.878	58.6
274.094	62.68
274.311	62.84
274.527	57.52
274.744	26.77
274.96	35.18
275.177	19.3
275.393	34.82
275.609	43.84
275.826	44.36
276.042	49.84
276.259	53.07
276.475	35
276.691	32.12
276.908	33.53
277.124	55.14
277.34	69.51
277.557	57.67
277.773	55.38
277.989	66.17
278.205	29.07
278.422	46.07
278.638	83.82
278.854	96.83
279.07	89.42
279.286	80.24
279.503	68.38
279.719	36.79
279.935	35.84
280.151	53.41
280.367	70.3
280.583	47.96
280.799	73.52
281.016	66.36
281.232	49.31
281.448	46.71
281.664	84.28
281.88	86.06
282.096	90.21
282.312	82.17
282.528	74.27
282.744	63.05
282.96	62.86
283.176	55.15
283.392	66.73
283.608	71.12
283.824	82.73
284.04	86.51
284.256	80.05
284.471	57
284.687	61.5
284.903	50.56
285.119	62.55
285.335	49.87
285.551	42.85
285.767	39.16
285.982	26.53
286.198	-57.72
286.414	-16.27
286.63	42.17
286.846	27.2
287.061	13.84
287.277	38.1
287.493	62.59
287.709	51.26
287.924	53.68
288.14	89.81
288.356	75.18
288.571	79.69
288.787	85.21
289.003	125.1
289.218	79.92
289.434	39.75
289.65	-2.86
289.865	9.6
290.081	-7.95
290.296	20.73
290.512	24.34
290.727	37.23
290.943	31.99
291.159	57.9
291.374	57.05
291.59	56.28
291.805	47.44
292.021	63.9
292.236	42.09
292.451	18.02
292.667	46.14
292.882	25.87
293.098	-1.63
293.313	25.91
293.529	54.43
293.744	54.04
293.959	47.37
294.175	60.66
294.39	33.38
294.605	12.12
294.821	8.42
295.036	12.79
295.251	25.4
295.467	35.21
295.682	29.05
295.897	30.17
296.112	43.22
296.328	59.34
296.543	60.81
296.758	77.56
296.973	65.94
297.188	66.27
297.404	42.24
297.619	31.79
297.834	26.96
298.049	5.79
298.264	-22.52
298.479	-55.57
298.694	-15.75
298.909	9.64
299.125	26.86
299.34	57.24
299.555	73.36
299.77	69.27
299.985	75.38
300.2	73.27
300.415	49.34
300.63	31.72
300.845	15.87
301.06	28.52
301.275	9.37
301.49	20.79
301.704	18.09
301.919	48.21
302.134	34.13
302.349	63.5
302.564	40.71
302.779	55.48
302.994	71.81
303.209	83.26
303.423	85.33
303.638	84.76
303.853	72.21
304.068	55.9
304.283	53.9
304.497	53.11
304.712	88.11
304.927	93.39
305.142	94.65
305.356	94.24
305.571	95.66
305.786	78.96
306	81.44
306.215	91.1
306.43	105.93
306.644	104.3
306.859	111.47
307.074	125.59
307.288	125.3
307.503	99.08
307.717	90.17
307.932	64.94
308.147	79.13
308.361	59
308.576	44
308.79	34.59
309.005	59.16
309.219	19.36
309.434	7.87
309.648	-6.64
309.863	28.85
310.077	-54.93
310.292	-45.92
310.506	-3.9
310.72	19.68
310.935	26.85
311.149	62.37
311.364	69.82
311.578	75.14
311.792	97.59
312.007	91.17
312.221	71.5
312.435	101.25
312.649	101.51
312.864	88.45
313.078	64.71
313.292	84.96
313.507	68.36
313.721	64.69
313.935	48.06
314.149	71.77
314.363	77.31
314.578	66.78
314.792	63.27
315.006	87.27
315.22	69.01
315.434	17.15
315.648	26.82
315.862	16.66
316.077	16.52
316.291	31.86
316.505	89.18
316.719	81.5
316.933	76.14
317.147	42.67
317.361	42.95
317.575	27.73
317.789	20.61
318.003	3.13
318.217	64.46
318.431	62.52
318.645	63.81
318.859	52.84
319.073	63.51
319.287	26.88
319.5	18.57
319.714	18.39
319.928	51.91
320.142	25.17
320.356	42.42
320.57	63.82
320.784	61.62
320.997	15.48
321.211	29.86
321.425	-3.1
321.639	-39.7
321.853	-34.04
322.066	-9.17
322.28	-1.68
322.494	-2.98
322.707	13.56
322.921	22.39
323.135	26.3
323.349	35
323.562	44.67
323.776	59.58
323.989	42.16
324.203	39.78
324.417	40.77
324.63	31.87
324.844	23.46
325.057	30.56
325.271	5
325.485	4.09
325.698	9.85
325.912	19.84
326.125	35.57
326.339	75.31
326.552	77.82
326.766	86.6
326.979	93.86
327.193	79.93
327.406	55.33
327.619	92.76
327.833	65.86
328.046	67.03
328.26	70.58
328.473	41.01
328.686	-26.97
328.9	-9.17
329.113	-9.04
329.326	-7.44
329.54	13.53
329.753	38.92
329.966	52.85
330.179	61.62
330.393	82.82
330.606	79.04
330.819	65.32
331.032	63.92
331.246	66.42
331.459	36.57
331.672	46.17
331.885	65.39
332.098	71.7
332.311	56.59
332.525	59.5
332.738	31.98
332.951	23.38
333.164	15.97
333.377	24.72
333.59	29.76
333.803	38.71
334.016	23.7
334.229	21.18
334.442	23.95
334.655	37.16
334.868	55.48
335.081	80.83
335.294	88.41
335.507	83.62
335.72	81.93
335.933	68.03
336.146	58.63
336.359	62.23
336.572	59.01
336.785	33.56
336.997	49.49
337.21	73.84
337.423	62.85
337.636	45.22
337.849	54.84
338.062	21.33
338.274	-26.71
338.487	-21.56
338.7	8.58
338.913	25.22
339.125	53.69
339.338	51.66
339.551	49.53
339.763	69.12
339.976	67.46
340.189	62.41
340.402	66.14
340.614	65.26
340.827	69
341.039	55.99
341.252	49.12
341.465	55.52
341.677	59.79
341.89	30.44
342.102	36.76
342.315	28.23
342.527	16.2
342.74	25.33
342.952	29.43
343.165	53.62
343.377	78.28
343.59	65.79
343.802	69.64
344.015	62.39
344.227	47.43
344.44	48.01
344.652	66.86
344.864	64.24
345.077	81.91
345.289	60.64
345.502	43.45
345.714	42.18
345.926	37.06
346.139	26.32
346.351	40.21
346.563	28.14
346.775	24.48
346.988	-3.87
347.2	-2.41
347.412	-27.41
347.624	12.35
347.837	20.47
348.049	49.52
348.261	46.8
348.473	67.86
348.685	78.53
348.897	115.33
349.11	111.05
349.322	103.84
349.534	73.55
349.746	75.52
349.958	22.41
350.17	33.13
350.382	44.65
350.594	49
350.806	49.39
351.018	67.67
351.23	58.1
351.442	60.53
351.654	65.39
351.866	60.64
352.078	45.2
352.29	50.14
352.502	51.36
352.714	37.05
352.926	38.75
353.138	46.67
353.35	55.64
353.561	43.18
353.773	32.52
353.985	24.39
354.197	32.87
354.409	26.41
354.621	25.25
354.832	47.89
355.044	46.33
355.256	40.82
355.468	40.09
355.679	56.5
355.891	56.47
356.103	70.21
356.314	74.71
356.526	58.01
356.738	42.88
356.949	22.91
357.161	15.44
357.373	2.38
357.584	29.61
357.796	39.01
358.008	50.75
358.219	29.47
358.431	72.6
358.642	39.06
358.854	44.02
359.065	59.31
359.277	66.91
359.488	30.15
359.7	36.13
359.911	37.96
360.123	35.64
360.334	40.94
360.546	59.06
360.757	70.96
360.969	75.49
361.18	69.11
361.391	60.07
361.603	66.05
361.814	49.43
362.025	47.61
362.237	53.03
362.448	43.64
362.659	42.12
362.871	37.14
363.082	23.6
363.293	18.96
363.504	40.7
363.716	53.9
363.927	61.78
364.138	85.92
364.349	70.58
364.56	75.17
364.772	49.41
364.983	58.8
365.194	44.43
365.405	50.53
365.616	38.59
365.827	43.15
366.038	50.62
366.25	65.87
366.461	64.01
366.672	64.31
366.883	62.45
367.094	61.38
367.305	39.9
367.516	46.42
367.727	53.09
367.938	64.41
368.149	54.13
368.36	76.08
368.571	45.53
368.781	41.94
368.992	20.32
369.203	34.96
369.414	14.29
369.625	39.65
369.836	36.76
370.047	28.97
370.258	26.82
370.468	27.01
370.679	29.31
370.89	25.09
371.101	19.15
371.312	14.86
371.522	15.21
371.733	14.24
371.944	10.77
372.155	17.16
372.365	-0.37
372.576	0.14
372.787	6.04
372.997	15.1
373.208	16.15
373.419	41.14
373.629	32.79
373.84	43.55
374.05	46.21
374.261	56.11
374.472	52.66
374.682	53.66
374.893	36
375.103	35.77
375.314	37.1
375.524	35.64
375.735	38.02
375.945	56.44
376.156	46.95
376.366	46.92
376.577	51.5
376.787	61.2
376.997	51.75
377.208	60.26
377.418	55.68
377.629	54.09
377.839	57.49
378.049	61.58
378.26	47.59
378.47	60.65
378.68	72.95
378.89	68.75
379.101	49.47
379.311	65.72
379.521	58.69
379.732	47.02
379.942	42.31
380.152	53.4
380.362	52.4
380.572	50.88
380.783	44.63
380.993	43.97
381.203	43.8
381.413	38.34
381.623	32.57
381.833	38.68
382.043	43.45
382.253	39.82
382.463	44.92
382.674	46.83
382.884	39.8
383.094	29.83
383.304	26.91
383.514	20.02
383.724	11.8
383.934	15.63
384.144	23.96
384.353	29.3
384.563	24.03
384.773	30.12
384.983	27.77
385.193	25.1
385.403	20.17
385.613	21.28
385.823	18.95
386.033	14.34
386.242	13.18
386.452	17.21
386.662	24.07
386.872	22.36
387.082	26.65
387.291	11.35
387.501	11.21
387.711	8.7
387.921	8.54
388.13	6.53
388.34	17.05
388.55	15.71
388.759	13.18
388.969	13.99
389.179	13.23
389.388	16.73
389.598	16.25
389.807	19.22
390.017	19.31
390.227	18.4
390.436	15.69
390.646	13.08
390.855	9.41
391.065	9.17
391.274	8.81
391.484	9.14
391.693	9.42
391.903	12.33
392.112	11.41
392.322	10.02
392.531	9.48
392.74	10.98
392.95	8.49
393.159	8.36
393.369	9.8
393.578	11.06
393.787	10.16
393.997	10.59
394.206	9.57
394.415	11.04
394.625	12.4
394.834	12.15
395.043	11.49
395.252	13.7
395.462	12.15
395.671	11.03
395.88	12.28
396.089	12.87
396.298	12.84
396.508	13.45
396.717	12.26
396.926	11.52
397.135	10.96
397.344	10.04
397.553	9.54
397.762	10.06
397.971	10.11
398.181	10.31
398.39	9.58
398.599	9.89
398.808	9.46
399.017	8.96
399.226	8.93
399.435	9.22
399.644	9.13
399.853	9.55
400.062	9.74
400.27	9.73
400.479	9.58
400.688	9.33
400.897	9.4
401.106	8.94
401.315	8.72
401.524	8.92
401.733	9
401.941	8.82
402.15	8.89
402.359	8.87
402.568	8.9
402.777	8.89
402.985	8.63
403.194	8.71
403.403	8.8
403.612	8.6
403.82	8.52
404.029	8.6
404.238	8.59
404.446	8.53
404.655	8.59
404.864	8.59
405.072	8.67
405.281	8.6
405.489	8.75
405.698	8.91
405.906	8.78
406.115	8.5
406.324	8.61
406.532	8.38
406.741	8.18
406.949	8.12
407.158	8.34
407.366	8.34
407.574	8.4
407.783	8.33
407.991	8.3
408.2	8.08
408.408	7.93
408.617	7.92
408.825	7.95
409.033	7.86
409.242	7.96
409.45	7.8
409.658	7.7
409.867	7.61
410.075	7.68
410.283	7.62
410.491	7.71
410.7	7.8
410.908	7.78
411.116	7.7
411.324	7.75
411.533	7.71
411.741	7.35
411.949	7.4
412.157	7.65
412.365	7.72
412.573	7.69
412.781	8.04
412.99	8.06
413.198	8.11
413.406	8.17
413.614	8.11
413.822	8.08
414.03	8.09
414.238	7.84
414.446	7.75
414.654	7.87
414.862	7.8
415.07	7.71
415.278	7.88
415.486	7.61
415.694	7.61
415.902	7.58
416.109	7.44
416.317	7.31
416.525	7.35
416.733	7.41
416.941	7.49
417.149	7.56
417.357	7.58
417.564	7.39
417.772	7.23
417.98	7.17
418.188	7.17
418.395	6.88
418.603	7.14
418.811	7.04
419.019	7.07
419.226	7.21
419.434	7.51
419.642	7.54
419.849	7.75
420.057	7.61
420.265	7.62
420.472	7.27
420.68	7.23
420.887	7.16
421.095	7.05
421.302	6.86
421.51	7.03
421.717	7.01
421.925	7.07
422.132	7.3
422.34	7.36
422.547	7.3
422.755	7.29
422.962	7.12
423.17	7.1
423.377	7.09
423.585	7.19
423.792	7.03
423.999	7.06
424.207	6.88
424.414	6.69
424.621	6.75
424.829	6.76
425.036	6.83
425.243	6.97
425.451	7.12
425.658	7.18
425.865	7.21
426.072	7.12
426.28	6.94
426.487	6.89
426.694	6.66
426.901	6.83
427.108	6.88
427.315	6.97
427.523	7.09
427.73	7.14
427.937	7.03
428.144	7.11
428.351	7.27
428.558	7.23
428.765	7.03
428.972	6.94
429.179	6.92
429.386	6.77
429.593	6.69
429.8	6.84
430.007	6.84
430.214	6.75
430.421	6.96
430.628	6.86
430.835	6.97
431.042	6.94
431.249	7.03
431.456	6.88
431.662	7.08
431.869	7.16
432.076	7.35
432.283	7.37
432.49	7.2
432.697	7.2
432.903	6.93
433.11	6.73
433.317	6.53
433.524	6.72
433.73	6.78
433.937	6.83
434.144	6.95
434.35	7.06
434.557	6.93
434.764	6.67
434.97	6.68
435.177	6.83
435.384	6.58
435.59	6.46
435.797	6.64
436.003	6.66
436.21	6.34
436.416	6.49
436.623	6.65
436.829	6.67
437.036	6.59
437.242	6.71
437.449	6.84
437.655	7.05
437.862	7.05
438.068	7.21
438.275	7.3
438.481	7.28
438.687	7.19
438.894	7.26
439.1	7.09
439.307	6.99
439.513	6.94
439.719	6.89
439.926	6.78
440.132	6.96
440.338	7.07
440.544	7.04
440.751	6.99
440.957	7
441.163	6.83
441.369	6.84
441.575	6.89
441.782	7
441.988	6.87
442.194	6.93
442.4	6.85
442.606	6.83
442.812	6.77
443.018	6.8
443.224	6.83
443.431	6.78
443.637	6.7
443.843	6.57
444.049	6.64
444.255	6.7
444.461	6.71
444.667	6.72
444.873	6.66
445.079	6.67
445.284	6.61
445.49	6.62
445.696	6.75
445.902	6.91
446.108	6.86
446.314	6.76
446.52	6.79
446.726	6.75
446.931	6.75
447.137	6.7
447.343	6.65
447.549	6.59
447.755	6.67
447.96	6.7
448.166	6.73
448.372	6.91
448.578	7.02
448.783	7.01
448.989	6.97
449.195	6.91
449.4	6.9
449.606	6.92
449.812	6.82
450.017	6.92
450.223	6.96
450.428	6.85
450.634	6.73
450.84	6.81
451.045	6.69
451.251	6.75
451.456	6.88
451.662	6.95
451.867	6.87
452.073	6.91
452.278	6.84
452.483	6.75
452.689	6.72
452.894	6.77
453.1	6.71
453.305	6.71
453.51	6.78
453.716	6.86
453.921	6.86
454.127	6.9
454.332	6.89
454.537	6.91
454.742	6.72
454.948	6.68
455.153	6.63
455.358	6.74
455.563	6.73
455.769	6.72
455.974	6.76
456.179	6.7
456.384	6.52
456.589	6.43
456.795	6.56
457	6.54
457.205	6.52
457.41	6.67
457.615	6.63
457.82	6.59
458.025	6.56
458.23	6.57
458.435	6.44
458.64	6.43
458.845	6.48
459.05	6.35
459.255	6.46
459.46	6.61
459.665	6.79
459.87	6.78
460.075	6.88
460.28	6.92
460.485	6.82
460.69	6.74
460.895	6.56
461.099	6.6
461.304	6.48
461.509	6.54
461.714	6.42
461.919	6.52
462.123	6.57
462.328	6.6
462.533	6.58
462.738	6.82
462.942	6.91
463.147	6.86
463.352	6.88
463.556	6.85
463.761	6.62
463.966	6.5
464.17	6.51
464.375	6.56
464.58	6.51
464.784	6.61
464.989	6.62
465.193	6.5
465.398	6.62
465.602	6.81
465.807	6.83
466.011	6.97
466.216	7
466.42	6.89
