Data from Ofav_SP_Phys_9EV4_Reflection_1.txt Node
Date: Thu Aug 05 17:42:07 EDT 2021
User: Adam
Spectrometer: FLMT01687
Trigger mode: 0
Integration Time (sec): 8.000000E-1
Scans to average: 2
Electric dark correction enabled: true
Nonlinearity correction enabled: false
Boxcar width: 2
XAxis mode: Wavelengths
Number of Pixels in Spectrum: 3648
>>>>>Begin Spectral Data<<<<<
179.494	187.35
179.716	199.81
179.937	180.2
180.158	266.96
180.38	588.1
180.601	-235.23
180.823	52.1
181.044	104.36
181.265	107.48
181.486	124.04
181.708	-618.79
181.929	150.1
182.15	211.43
182.372	27.4
182.593	43.25
182.814	200.77
183.035	55.97
183.257	795.02
183.478	-875.25
183.699	1226.14
183.92	271.32
184.141	-1550.67
184.363	1032.43
184.584	-81.33
184.805	12
185.026	14.7
185.247	36.11
185.468	38.26
185.689	46.01
185.91	32.75
186.132	-41.5
186.353	-52.69
186.574	-157.33
186.795	-178.79
187.016	-192.1
187.237	-75.24
187.458	-333.16
187.679	-80.36
187.9	-66.9
188.121	-89.52
188.342	-135.24
188.563	-23.54
188.784	-52.73
189.005	-107.69
189.226	-25.9
189.447	-33.75
189.667	-100.48
189.888	-112.89
190.109	-35.48
190.33	10.12
190.551	41.2
190.772	39.93
190.993	11.45
191.214	12.72
191.434	8.9
191.655	-0.41
191.876	10
192.097	24.7
192.318	29.37
192.538	20.94
192.759	1.58
192.98	-56.53
193.201	-432.71
193.421	-280.76
193.642	-100.29
193.863	-84.54
194.083	-36.94
194.304	13.09
194.525	-4.31
194.745	1.52
194.966	7.32
195.187	15.51
195.407	3.36
195.628	25.68
195.848	33.55
196.069	11.78
196.29	-6.16
196.51	17.62
196.731	21.05
196.951	33.8
197.172	58.77
197.392	53.44
197.613	36.55
197.833	72.57
198.054	13.29
198.274	21.27
198.495	34.06
198.715	22.83
198.936	-62.53
199.156	2.36
199.377	-13.43
199.597	4.52
199.817	-5.6
200.038	1.96
200.258	9.13
200.479	8.43
200.699	6.21
200.919	19.07
201.14	11.29
201.36	-17.74
201.58	0.32
201.801	-49.69
202.021	-120.12
202.241	-69.45
202.461	-62.34
202.682	-104.47
202.902	-234.24
203.122	-197
203.342	-93.74
203.563	-49.02
203.783	29.14
204.003	50.43
204.223	43.67
204.443	15.93
204.663	8.27
204.884	11.88
205.104	-2.95
205.324	22.06
205.544	14.62
205.764	22.21
205.984	-16.48
206.204	-31.83
206.424	-48.99
206.644	-38.96
206.864	-39.78
207.084	-37.35
207.304	26.56
207.525	0.92
207.745	26.76
207.964	-11.64
208.184	5.77
208.404	-76.5
208.624	-87.23
208.844	-153.67
209.064	-92.66
209.284	-59.86
209.504	-30.79
209.724	-6.6
209.944	-6.02
210.164	-29.27
210.384	-11.78
210.604	-15.07
210.823	0.36
211.043	3
211.263	11.98
211.483	-4.63
211.703	16
211.922	3.82
212.142	31.87
212.362	2.86
212.582	9.21
212.801	-42.96
213.021	-5.31
213.241	-47.12
213.461	-55.08
213.68	-34.67
213.9	-39.65
214.12	-57.95
214.339	-45.11
214.559	-5.47
214.779	-16.28
214.998	-9.83
215.218	-33.05
215.438	-34.79
215.657	-22.43
215.877	-47.03
216.096	-69.31
216.316	-13.18
216.535	10.23
216.755	-78.42
216.974	-236.13
217.194	-19.89
217.413	-16.28
217.633	-24.02
217.852	8.81
218.072	-2.46
218.291	-11.06
218.511	7.45
218.73	1.16
218.95	-23.99
219.169	-20.11
219.389	38.48
219.608	-0.48
219.827	20.66
220.047	19.26
220.266	39.05
220.485	7.05
220.705	4.69
220.924	-3.05
221.143	12.67
221.363	4.09
221.582	-17.57
221.801	-30.17
222.021	-22.85
222.24	-26.17
222.459	-82.17
222.678	-50.31
222.897	-41.02
223.117	-34.32
223.336	-43.74
223.555	-30.65
223.774	-45.58
223.993	-48.42
224.213	-57.29
224.432	-68.12
224.651	-14.59
224.87	-0.04
225.089	-4.65
225.308	29.2
225.527	18.01
225.746	-34.25
225.965	-21.59
226.184	-1.7
226.404	-7.7
226.623	-41.53
226.842	-26.57
227.061	-11.07
227.28	-33.55
227.499	-34.21
227.718	-23.03
227.936	-16.33
228.155	-21.82
228.374	-10.41
228.593	-7.14
228.812	-10.9
229.031	-2.77
229.25	-0.44
229.469	24.61
229.688	16.49
229.907	24.99
230.125	-5.04
230.344	-12.34
230.563	-42.13
230.782	-78.67
231.001	-96.3
231.22	3.24
231.438	4.31
231.657	36.89
231.876	17.23
232.095	49.35
232.313	35.29
232.532	28.6
232.751	18.13
232.969	29.49
233.188	19.3
233.407	1.19
233.625	7.06
233.844	-40.11
234.063	-44.05
234.281	-38.12
234.5	-8.17
234.719	-33.57
234.937	-60.83
235.156	-57.68
235.374	-66.61
235.593	-104.87
235.811	-86.15
236.03	-29.91
236.249	-25.56
236.467	-25.63
236.686	-18.5
236.904	-5.72
237.123	-35.75
237.341	-0.03
237.559	-9.27
237.778	-5.87
237.996	-0.73
238.215	-0.7
238.433	-11.31
238.652	-6.72
238.87	-5.59
239.088	-6.5
239.307	-3.61
239.525	-14.56
239.743	-19.52
239.962	-6.2
240.18	-56.97
240.398	-85.03
240.617	-111.44
240.835	-67.32
241.053	-68.57
241.271	-79.63
241.49	-47.99
241.708	-38.29
241.926	-33.33
242.144	-45.86
242.363	-30.72
242.581	3.14
242.799	-46.57
243.017	-43.48
243.235	-105.76
243.453	-50.58
243.672	-109.26
243.89	-85.85
244.108	-128.13
244.326	-57.97
244.544	-42.21
244.762	5.09
244.98	2.34
245.198	-8.77
245.416	-0.83
245.634	-39.81
245.852	-81.1
246.07	-47.52
246.288	-63.45
246.506	-143.65
246.724	-61.53
246.942	-67.73
247.16	-113.79
247.378	-180.47
247.596	-72.67
247.814	-76.56
248.032	-48.45
248.25	-50.24
248.468	-16.68
248.685	-7.73
248.903	-3.82
249.121	-20.63
249.339	-5.69
249.557	-18.01
249.775	5.08
249.992	2.21
250.21	48.45
250.428	36.06
250.646	53.99
250.863	46.84
251.081	48.67
251.299	3.37
251.517	41.29
251.734	29.37
251.952	-8.91
252.17	-13.84
252.387	0.49
252.605	-9.83
252.823	-11.64
253.04	-5.77
253.258	11.7
253.475	6.27
253.693	-22.95
253.911	-2.87
254.128	13.65
254.346	7.17
254.563	6.71
254.781	27.98
254.998	12.82
255.216	-5.91
255.433	-17.3
255.651	-95.6
255.868	-113.29
256.086	-100.23
256.303	-59.14
256.521	-102.25
256.738	-137.82
256.956	-224.88
257.173	-42.92
257.39	-24.69
257.608	-30.09
257.825	10.44
258.043	-0.82
258.26	-27.02
258.477	-14.65
258.695	8.53
258.912	14.81
259.129	12.84
259.346	21.8
259.564	4.57
259.781	6.48
259.998	3.2
260.216	22.34
260.433	23.92
260.65	-0.27
260.867	-95.14
261.084	-74.74
261.302	-67.86
261.519	-54.13
261.736	0.17
261.953	33.44
262.17	45.78
262.387	77.02
262.604	54.63
262.822	38.43
263.039	23.14
263.256	14.43
263.473	-26.35
263.69	2.85
263.907	4.3
264.124	-2.97
264.341	-7.6
264.558	-5.96
264.775	-15.82
264.992	-7.77
265.209	-13.61
265.426	-26.42
265.643	-12.34
265.86	-28.02
266.077	-53.18
266.294	-63.56
266.51	-56.58
266.727	-56.13
266.944	-29.77
267.161	-13.43
267.378	6.13
267.595	13.09
267.812	1.62
268.028	-13.67
268.245	-2.91
268.462	-38.59
268.679	-54.4
268.896	-23.87
269.112	-30.3
269.329	-14.99
269.546	22.85
269.763	34.61
269.979	42.91
270.196	58.41
270.413	30.68
270.629	31.89
270.846	23.17
271.063	1.74
271.279	-44.45
271.496	-80.89
271.712	-99.28
271.929	-105.15
272.146	-66.04
272.362	-81.55
272.579	-36.8
272.795	-51.27
273.012	-38.35
273.228	-55.94
273.445	-20.99
273.661	9
273.878	16.27
274.094	8.28
274.311	6.86
274.527	-8.77
274.744	-73.12
274.96	-50.5
275.177	-33.25
275.393	-28.95
275.609	-37.18
275.826	-18.33
276.042	-26.61
276.259	-36.53
276.475	-41
276.691	-19.26
276.908	-21.02
277.124	-7.74
277.34	-13.25
277.557	-34.95
277.773	-64.25
277.989	-70.71
278.205	-86.44
278.422	-41.39
278.638	7.2
278.854	26.57
279.07	22.61
279.286	18.47
279.503	18.14
279.719	-1.54
279.935	28.46
280.151	37.04
280.367	34.71
280.583	13.75
280.799	23.15
281.016	-7.59
281.232	-35.92
281.448	-44.16
281.664	-42.83
281.88	-78.53
282.096	-25.41
282.312	6.82
282.528	29.91
282.744	51.01
282.96	59.5
283.176	40.31
283.392	38.3
283.608	31.97
283.824	13.79
284.04	16.91
284.256	12.29
284.471	-9.57
284.687	-13.04
284.903	10.28
285.119	-3.51
285.335	3.28
285.551	-4.06
285.767	-14.21
285.982	-51.33
286.198	-98.07
286.414	-81.98
286.63	-56.46
286.846	-14.06
287.061	-11.41
287.277	10.27
287.493	3.46
287.709	23.95
287.924	7.4
288.14	-0.53
288.356	-4.61
288.571	6.06
288.787	6.21
289.003	-5.66
289.218	-30.73
289.434	-55.02
289.65	-42.7
289.865	-39.81
290.081	-17.8
290.296	-9.88
290.512	-2.44
290.727	0.28
290.943	2.96
291.159	0.7
291.374	9.87
291.59	1.34
291.805	5.7
292.021	10.48
292.236	-5.07
292.451	-44.22
292.667	-84.76
292.882	-57.49
293.098	-58.24
293.313	-33.85
293.529	-11.11
293.744	3.69
293.959	-20.16
294.175	-14.24
294.39	-29.82
294.605	-21.98
294.821	-17.05
295.036	-15.89
295.251	-24.5
295.467	-7.81
295.682	-10.81
295.897	-5.51
296.112	-10.47
296.328	-9.03
296.543	-5.9
296.758	-4.4
296.973	-0.48
297.188	30.03
297.404	27.97
297.619	11.51
297.834	-12
298.049	-42.81
298.264	-99.35
298.479	-135.7
298.694	-108.43
298.909	-49.54
299.125	-8.68
299.34	15.61
299.555	8.95
299.77	15.18
299.985	-0.04
300.2	-3.02
300.415	0.58
300.63	12.36
300.845	-6.98
301.06	-1.2
301.275	-16.45
301.49	-37.58
301.704	-75.89
301.919	-11.21
302.134	-9.49
302.349	-4.17
302.564	-6.81
302.779	-11.7
302.994	-9.4
303.209	-10.87
303.423	-28.13
303.638	-19.8
303.853	-9.83
304.068	-26.69
304.283	-14.92
304.497	-15.12
304.712	-28.27
304.927	-24.23
305.142	-3.89
305.356	-11.29
305.571	1.52
305.786	-1.29
306	0.84
306.215	-1.64
306.43	-3.22
306.644	8.9
306.859	18.43
307.074	17.58
307.288	24.49
307.503	27.45
307.717	2.95
307.932	3.43
308.147	-6.32
308.361	-9.75
308.576	-20.01
308.79	-2.32
309.005	10.79
309.219	-2.4
309.434	-55.24
309.648	-91.19
309.863	-127.59
310.077	-238.12
310.292	-193.32
310.506	-100.18
310.72	-57.65
310.935	-45.99
311.149	-17.3
311.364	-2.08
311.578	9.57
311.792	11.3
312.007	11.58
312.221	6.12
312.435	24.76
312.649	12.71
312.864	15.36
313.078	18.65
313.292	38.25
313.507	34.82
313.721	24.8
313.935	10.33
314.149	8.12
314.363	-9.37
314.578	-6.96
314.792	-14.43
315.006	-18.58
315.22	-9.93
315.434	-23.33
315.648	-43.48
315.862	-11.37
316.077	-9.61
316.291	-36.64
316.505	-28.8
316.719	-26.4
316.933	-15.09
317.147	-15.87
317.361	-25
317.575	-37.26
317.789	-26.39
318.003	-46.43
318.217	-6.68
318.431	10.42
318.645	22.5
318.859	-14.13
319.073	-13.26
319.287	-49.33
319.5	-29.05
319.714	-22.89
319.928	20.77
320.142	15.99
320.356	15.06
320.57	13.83
320.784	7.84
320.997	-41.27
321.211	-10.14
321.425	-3.81
321.639	-7.89
321.853	-6.94
322.066	-8.65
322.28	-30.95
322.494	-35.33
322.707	-34.42
322.921	-23.31
323.135	-9.11
323.349	8.99
323.562	5.43
323.776	22.51
323.989	-6.11
324.203	-8.37
324.417	-4.96
324.63	-5.92
324.844	-47.71
325.057	-37.3
325.271	-70.84
325.485	-61.45
325.698	-67.33
325.912	-48.11
326.125	-21.53
326.339	-5.24
326.552	-29.76
326.766	-31.11
326.979	-33.1
327.193	-18.71
327.406	-5.58
327.619	11.21
327.833	22.59
328.046	32.62
328.26	29.22
328.473	-18.56
328.686	-61.63
328.9	-75.89
329.113	-63.89
329.326	-68.88
329.54	-45.19
329.753	-40.2
329.966	-10.22
330.179	-5.98
330.393	2.6
330.606	12.46
330.819	17.36
331.032	-2.71
331.246	16.43
331.459	17.4
331.672	-1.39
331.885	14.92
332.098	14.57
332.311	7.22
332.525	3.52
332.738	23.43
332.951	13.53
333.164	32.23
333.377	22.92
333.59	23.48
333.803	-13.71
334.016	-19.33
334.229	-43.9
334.442	-35.01
334.655	-27.73
334.868	-20.13
335.081	-6.51
335.294	7.88
335.507	-0.69
335.72	17.13
335.933	19.8
336.146	21.43
336.359	13.99
336.572	14.8
336.785	-5.25
336.997	21.52
337.21	24.73
337.423	32.15
337.636	37.32
337.849	59.44
338.062	31.27
338.274	-2.32
338.487	3.18
338.7	3.47
338.913	-7.9
339.125	7.23
339.338	22.49
339.551	1.89
339.763	20.82
339.976	7.08
340.189	13.93
340.402	3.49
340.614	5.36
340.827	12.87
341.039	27.31
341.252	18.08
341.465	28.02
341.677	40.6
341.89	28.81
342.102	38.2
342.315	19.19
342.527	9.12
342.74	5.66
342.952	-5.28
343.165	-20.96
343.377	9.8
343.59	7.95
343.802	-4.49
344.015	-14.91
344.227	-21.91
344.44	-11.78
344.652	8.74
344.864	21.54
345.077	25.37
345.289	17.32
345.502	16.6
345.714	12.79
345.926	21.23
346.139	33.1
346.351	40.93
346.563	26.77
346.775	14.02
346.988	-25
347.2	-49.61
347.412	-94.37
347.624	-60.19
347.837	-32.18
348.049	-9.29
348.261	-5.53
348.473	12.35
348.685	20.27
348.897	20.57
349.11	17.41
349.322	1.66
349.534	-25.55
349.746	-24.66
349.958	-35.16
350.17	-30.05
350.382	-15.87
350.594	-11.91
350.806	-24.53
351.018	-2.45
351.23	-0.02
351.442	1.47
351.654	7.81
351.866	5.68
352.078	-6.94
352.29	-10.24
352.502	-6.57
352.714	-26.95
352.926	-2.59
353.138	-1.85
353.35	11.68
353.561	-0.31
353.773	0.54
353.985	-16.16
354.197	-13.49
354.409	-35.65
354.621	-37.01
354.832	-37.47
355.044	-50.38
355.256	-42.75
355.468	-44.58
355.679	-6
355.891	11.58
356.103	2.1
356.314	-13.25
356.526	-10.92
356.738	-39.26
356.949	-77.25
357.161	-20.91
357.373	-30.57
357.584	-20.71
357.796	-17.37
358.008	-12.95
358.219	-50.4
358.431	-19.56
358.642	-28.57
358.854	10.4
359.065	20.12
359.277	25.28
359.488	11.26
359.7	18.64
359.911	-4.57
360.123	-1.57
360.334	-5.96
360.546	-7.32
360.757	-10.62
360.969	-3.49
361.18	-19.09
361.391	-15.32
361.603	12.84
361.814	3.15
362.025	-14.14
362.237	-3.29
362.448	-8.38
362.659	-27.95
362.871	-46.62
363.082	-45.82
363.293	-58.97
363.504	-79.68
363.716	-67.06
363.927	-21.89
364.138	-23.33
364.349	-27.2
364.56	-20.8
364.772	-13.12
364.983	-37.35
365.194	-47.39
365.405	-46.63
365.616	-18.52
365.827	-36.88
366.038	-18.2
366.25	0.11
366.461	-9.42
366.672	-13.21
366.883	1.4
367.094	-5.36
367.305	3.68
367.516	23.05
367.727	24.13
367.938	6.43
368.149	7.63
368.36	-3.87
368.571	-35.28
368.781	-48.36
368.992	-30.82
369.203	-3.82
369.414	-18.56
369.625	-19.58
369.836	-32.85
370.047	-26.97
370.258	-32.58
370.468	-29.84
370.679	-14.8
370.89	-5.51
371.101	-10.17
371.312	-8.16
371.522	-1.48
371.733	-8.69
371.944	-9.9
372.155	7.07
372.365	-0.4
372.576	10.12
372.787	14.43
372.997	17.64
373.208	19.73
373.419	20.71
373.629	3.93
373.84	4.45
374.05	-0.83
374.261	-3.93
374.472	-0.86
374.682	-10.53
374.893	-1.97
375.103	-5.84
375.314	-20.24
375.524	-23.3
375.735	-8.51
375.945	-0.53
376.156	6.92
376.366	24.23
376.577	24.97
376.787	20.71
376.997	12.32
377.208	15.5
377.418	8.05
377.629	8.75
377.839	15.96
378.049	10.48
378.26	1
378.47	3.87
378.68	7.87
378.89	-11.39
379.101	-7.72
379.311	4.01
379.521	-0.7
379.732	8.84
379.942	13.29
380.152	8.53
380.362	-1.55
380.572	-0.26
380.783	-21.4
380.993	-11.19
381.203	-4.96
381.413	-5.04
381.623	0.27
381.833	5.93
382.043	10.12
382.253	14.21
382.463	20.82
382.674	14.73
382.884	8.7
383.094	-1.65
383.304	-16.47
383.514	-16.69
383.724	-16.34
383.934	-5.64
384.144	0.65
384.353	8.68
384.563	8.04
384.773	12.69
384.983	8.28
385.193	7.01
385.403	1.64
385.613	3.26
385.823	-3.02
386.033	3.11
386.242	4.07
386.452	8.56
386.662	5.69
386.872	8.35
387.082	8.08
387.291	5.28
387.501	8.12
387.711	7.78
387.921	6.41
388.13	3.38
388.34	8.83
388.55	6.59
388.759	4.53
388.969	5.77
389.179	8.47
389.388	6.27
389.598	6.33
389.807	7.44
390.017	7.26
390.227	5.47
390.436	4.21
390.646	2.96
390.855	4.37
391.065	2.81
391.274	4.15
391.484	7.17
391.693	7.47
391.903	8.21
392.112	11.03
392.322	11.41
392.531	10.18
392.74	9.66
392.95	7.33
393.159	6.33
393.369	6.89
393.578	6.44
393.787	7.35
393.997	8.62
394.206	8.19
394.415	7.38
394.625	8.4
394.834	8.73
395.043	8.53
395.252	9.28
395.462	9.33
395.671	8.52
395.88	9.21
396.089	9.5
396.298	10.19
396.508	10.73
396.717	11.09
396.926	10.58
397.135	10.64
397.344	9.82
397.553	9.59
397.762	9.92
397.971	10.06
398.181	9.72
398.39	10.02
398.599	10.02
398.808	9.96
399.017	9.39
399.226	9.96
399.435	10.14
399.644	10.41
399.853	10.28
400.062	10.51
400.27	10.42
400.479	10.2
400.688	10.21
400.897	10.47
401.106	10.24
401.315	9.95
401.524	10.1
401.733	9.8
401.941	9.55
402.15	9.74
402.359	9.84
402.568	9.61
402.777	10.04
402.985	10.01
403.194	10.05
403.403	9.98
403.612	9.93
403.82	9.61
404.029	9.53
404.238	9.61
404.446	9.71
404.655	9.83
404.864	9.77
405.072	9.79
405.281	9.77
405.489	9.64
405.698	9.6
405.906	9.6
406.115	9.59
406.324	9.47
406.532	9.52
406.741	9.43
406.949	9.34
407.158	9.39
407.366	9.48
407.574	9.47
407.783	9.54
407.991	9.72
408.2	9.6
408.408	9.46
408.617	9.46
408.825	9.34
409.033	9.11
409.242	9.2
409.45	9.18
409.658	8.92
409.867	9.01
410.075	9.09
410.283	9.13
410.491	9.22
410.7	9.57
410.908	9.48
411.116	9.51
411.324	9.47
411.533	9.39
411.741	9.19
411.949	9.2
412.157	9.21
412.365	9.32
412.573	9.26
412.781	9.23
412.99	9.22
413.198	9.21
413.406	9.08
413.614	9.12
413.822	9.21
414.03	9.27
414.238	9.21
414.446	9.28
414.654	9.32
414.862	9.19
415.07	9.09
415.278	9.15
415.486	8.94
415.694	8.96
415.902	8.9
416.109	8.96
416.317	8.88
416.525	8.91
416.733	8.78
416.941	8.91
417.149	8.82
417.357	8.83
417.564	8.72
417.772	8.79
417.98	8.71
418.188	8.72
418.395	8.56
418.603	8.69
418.811	8.46
419.019	8.5
419.226	8.39
419.434	8.5
419.642	8.38
419.849	8.59
420.057	8.47
420.265	8.7
420.472	8.58
420.68	8.56
420.887	8.41
421.095	8.4
421.302	7.97
421.51	8
421.717	8.18
421.925	8.22
422.132	8.28
422.34	8.47
422.547	8.46
422.755	8.27
422.962	8.28
423.17	8.28
423.377	8.21
423.585	8.1
423.792	8.01
423.999	7.93
424.207	7.78
424.414	7.62
424.621	7.74
424.829	7.82
425.036	7.95
425.243	8.16
425.451	8.34
425.658	8.38
425.865	8.35
426.072	8.2
426.28	8.04
426.487	8.02
426.694	8.02
426.901	7.92
427.108	7.95
427.315	8.07
427.523	7.95
427.73	7.89
427.937	8
428.144	8.04
428.351	8.11
428.558	8.3
428.765	8.2
428.972	8.29
429.179	8.22
429.386	8.13
429.593	8.24
429.8	8.31
430.007	8.08
430.214	8.07
430.421	8.22
430.628	8.1
430.835	8.13
431.042	8.19
431.249	8.18
431.456	8.05
431.662	8.23
431.869	8.21
432.076	8.24
432.283	8.4
432.49	8.35
432.697	8.19
432.903	8.14
433.11	8.08
433.317	8.03
433.524	8.14
433.73	8.22
433.937	8.44
434.144	8.48
434.35	8.45
434.557	8.47
434.764	8.41
434.97	8.22
435.177	8.37
435.384	8.32
435.59	8.25
435.797	8.39
436.003	8.43
436.21	8.3
436.416	8.23
436.623	8.22
436.829	8.16
437.036	8.08
437.242	8.09
437.449	8.35
437.655	8.49
437.862	8.59
438.068	8.81
438.275	8.86
438.481	8.72
438.687	8.5
438.894	8.47
439.1	8.3
439.307	8.32
439.513	8.26
439.719	8.37
439.926	8.32
440.132	8.37
440.338	8.53
440.544	8.62
440.751	8.66
440.957	8.72
441.163	8.75
441.369	8.68
441.575	8.6
441.782	8.53
441.988	8.4
442.194	8.34
442.4	8.24
442.606	8.34
442.812	8.4
443.018	8.43
443.224	8.5
443.431	8.53
443.637	8.38
443.843	8.32
444.049	8.36
444.255	8.38
444.461	8.38
444.667	8.59
444.873	8.64
445.079	8.62
445.284	8.65
445.49	8.63
445.696	8.58
445.902	8.61
446.108	8.61
446.314	8.5
446.52	8.48
446.726	8.46
446.931	8.44
447.137	8.43
447.343	8.51
447.549	8.56
447.755	8.69
447.96	8.73
448.166	8.84
448.372	8.87
448.578	8.89
448.783	8.91
448.989	8.9
449.195	8.87
449.4	8.85
449.606	8.88
449.812	8.83
450.017	8.89
450.223	8.93
450.428	8.96
450.634	8.88
450.84	8.86
451.045	8.8
451.251	8.71
451.456	8.7
451.662	8.78
451.867	8.68
452.073	8.74
452.278	8.76
452.483	8.77
452.689	8.83
452.894	9.03
453.1	9.01
453.305	9.06
453.51	9.03
453.716	9.03
453.921	8.91
454.127	8.96
454.332	8.87
454.537	8.95
454.742	8.81
454.948	8.83
455.153	8.82
455.358	8.95
455.563	8.92
455.769	8.98
455.974	9.15
456.179	9.12
456.384	9.12
456.589	9.18
456.795	9.22
457	9.09
457.205	9.14
457.41	9.09
457.615	9.07
457.82	9.07
458.025	9.05
458.23	9.11
458.435	9.07
458.64	9.16
458.845	9.34
459.05	9.4
459.255	9.39
459.46	9.54
459.665	9.46
459.87	9.28
460.075	9.33
460.28	9.4
460.485	9.37
460.69	9.38
460.895	9.44
461.099	9.43
461.304	9.35
461.509	9.3
461.714	9.42
461.919	9.38
462.123	9.36
462.328	9.28
462.533	9.47
462.738	9.43
462.942	9.53
463.147	9.6
