Data from Ofav_SP_Phys_9AZ10_Reflection_2.txt Node
Date: Thu Aug 05 17:49:33 EDT 2021
User: Adam
Spectrometer: FLMT01687
Trigger mode: 0
Integration Time (sec): 8.000000E-1
Scans to average: 2
Electric dark correction enabled: true
Nonlinearity correction enabled: false
Boxcar width: 2
XAxis mode: Wavelengths
Number of Pixels in Spectrum: 3648
>>>>>Begin Spectral Data<<<<<
179.494	633.28
179.716	694.39
179.937	571.17
180.158	662.36
180.38	1416.48
180.601	-586.69
180.823	-112.61
181.044	-69.5
181.265	-53.64
181.486	-92.97
181.708	46.98
181.929	-76.39
182.15	-265.31
182.372	42.44
182.593	-7.9
182.814	-133.97
183.035	-41.75
183.257	268.33
183.478	155.25
183.699	232.83
183.92	28.42
184.141	-332.74
184.363	37.84
184.584	78.91
184.805	23.72
185.026	-17.49
185.247	22.17
185.468	40.19
185.689	34.28
185.91	42.19
186.132	38.43
186.353	50.86
186.574	-1.37
186.795	19.39
187.016	-0.51
187.237	13.11
187.458	-136
187.679	23.6
187.9	-17.94
188.121	10.32
188.342	10.07
188.563	31.37
188.784	51.44
189.005	65.19
189.226	74.88
189.447	90.75
189.667	149.01
189.888	216.52
190.109	189.9
190.33	147.69
190.551	122.15
190.772	133.1
190.993	80.49
191.214	70.52
191.434	56.26
191.655	43.95
191.876	44.79
192.097	54.52
192.318	48.03
192.538	27.95
192.759	66.91
192.98	58.93
193.201	21.13
193.421	-95.08
193.642	-0.92
193.863	2.77
194.083	18.03
194.304	34.26
194.525	69.73
194.745	61.21
194.966	50.83
195.187	63.63
195.407	50.98
195.628	12.4
195.848	50.3
196.069	37.62
196.29	7.38
196.51	39.13
196.731	49.03
196.951	66.89
197.172	82.38
197.392	118.33
197.613	107.78
197.833	144.68
198.054	89.23
198.274	39.27
198.495	10.71
198.715	-2.8
198.936	-132.32
199.156	-6.16
199.377	27.08
199.597	26.94
199.817	38.52
200.038	43.27
200.258	31.5
200.479	33.47
200.699	25.84
200.919	8.16
201.14	-32.61
201.36	-36.76
201.58	-11.74
201.801	-103.07
202.021	-66.57
202.241	16.08
202.461	-5.76
202.682	-27.4
202.902	16.06
203.122	102.38
203.342	141.1
203.563	84.05
203.783	68.13
204.003	69.99
204.223	58.76
204.443	31.99
204.663	48.53
204.884	49.52
205.104	15.79
205.324	12.89
205.544	18.3
205.764	-0.18
205.984	-2.12
206.204	28.46
206.424	5.53
206.644	2.29
206.864	-11.9
207.084	-48.95
207.304	8.04
207.525	-7.97
207.745	26.48
207.964	69.45
208.184	81.39
208.404	-21.25
208.624	8.22
208.844	-15.02
209.064	-27.66
209.284	-5.7
209.504	5.25
209.724	-8.37
209.944	-19.09
210.164	-20.11
210.384	14.06
210.604	11.25
210.823	38.65
211.043	44.72
211.263	50.74
211.483	21.51
211.703	44.9
211.922	58.69
212.142	56.17
212.362	28.94
212.582	115.28
212.801	94.1
213.021	85.09
213.241	65.75
213.461	71.71
213.68	36.82
213.9	10.77
214.12	-18.22
214.339	-15.95
214.559	7.39
214.779	9.58
214.998	54.6
215.218	53
215.438	106.15
215.657	149.02
215.877	145.37
216.096	90.91
216.316	82.3
216.535	24.41
216.755	-26.67
216.974	-191.76
217.194	58.03
217.413	61.9
217.633	59.61
217.852	54.4
218.072	65.21
218.291	31.72
218.511	18.51
218.73	10.06
218.95	5.75
219.169	-31.47
219.389	32.74
219.608	7.93
219.827	25.61
220.047	25.3
220.266	52.01
220.485	35.26
220.705	44.67
220.924	48.29
221.143	45.07
221.363	30.03
221.582	46.63
221.801	10.82
222.021	24.52
222.24	14.05
222.459	30.58
222.678	19.88
222.897	53.05
223.117	27.9
223.336	45.25
223.555	39.86
223.774	2.86
223.993	-0.7
224.213	23
224.432	14.52
224.651	33.05
224.87	57.98
225.089	64.31
225.308	47.48
225.527	44.45
225.746	16.36
225.965	-5.31
226.184	7.3
226.404	25.21
226.623	10.75
226.842	18.76
227.061	48.17
227.28	39.32
227.499	64.67
227.718	42.09
227.936	24.36
228.155	7.97
228.374	5.67
228.593	-7.48
228.812	11.52
229.031	16.65
229.25	13.53
229.469	19.6
229.688	14.89
229.907	14.23
230.125	14.37
230.344	-9.31
230.563	3.9
230.782	-21.53
231.001	-61.55
231.22	-23.05
231.438	5.43
231.657	-7.45
231.876	-17.95
232.095	22.35
232.313	24.2
232.532	31.47
232.751	29.55
232.969	42.74
233.188	35.1
233.407	15.74
233.625	23.86
233.844	4.65
234.063	-22.93
234.281	6.25
234.5	40.48
234.719	47.88
234.937	43.2
235.156	49.8
235.374	7.56
235.593	-22.56
235.811	-35.36
236.03	-9.32
236.249	2.28
236.467	22.87
236.686	13.56
236.904	23.98
237.123	10.79
237.341	11.61
237.559	0.04
237.778	24.18
237.996	38.34
238.215	40.51
238.433	51.58
238.652	38.22
238.87	17.91
239.088	8.26
239.307	11.79
239.525	10.32
239.743	21.76
239.962	51.64
240.18	66.46
240.398	61.64
240.617	-1.87
240.835	32.59
241.053	17.47
241.271	10.73
241.49	35.02
241.708	46.74
241.926	-12.73
242.144	-18.93
242.363	-62.33
242.581	-35.47
242.799	-41.9
243.017	64.14
243.235	-3.18
243.453	21.62
243.672	17.38
243.89	28.78
244.108	-0.93
244.326	55.78
244.544	36.62
244.762	28.78
244.98	25.35
245.198	38.84
245.416	32.02
245.634	31.97
245.852	10.32
246.07	14.75
246.288	-21.58
246.506	-82.16
246.724	-38.31
246.942	-35.77
247.16	-54.12
247.378	-85.19
247.596	-15.77
247.814	-20.11
248.032	-21.75
248.25	-47.15
248.468	-24.63
248.685	-6.45
248.903	3.82
249.121	-4.13
249.339	12.52
249.557	28.57
249.775	18.12
249.992	-5.03
250.21	41.06
250.428	36.32
250.646	28.88
250.863	52.72
251.081	68.13
251.299	35.32
251.517	77.21
251.734	73.83
251.952	35.2
252.17	51.34
252.387	26.22
252.605	15.22
252.823	24.83
253.04	36.96
253.258	21.53
253.475	38.58
253.693	17.49
253.911	23.74
254.128	15.09
254.346	15.69
254.563	23.28
254.781	30.76
254.998	15.21
255.216	-15.04
255.433	-25.21
255.651	-63.37
255.868	-62.06
256.086	-52.73
256.303	-38.93
256.521	-38.15
256.738	-78.09
256.956	-158.8
257.173	-19.66
257.39	53.48
257.608	22.27
257.825	20.96
258.043	27.03
258.26	-1.78
258.477	-4.47
258.695	27.57
258.912	45.03
259.129	61.67
259.346	78.11
259.564	68.44
259.781	65.74
259.998	54.37
260.216	34.93
260.433	32.52
260.65	15.47
260.867	-31.24
261.084	-2.66
261.302	7.58
261.519	-14.78
261.736	25.42
261.953	26.93
262.17	16.22
262.387	52.32
262.604	64.98
262.822	79.42
263.039	88.02
263.256	109.22
263.473	54.07
263.69	100.42
263.907	63.51
264.124	57.4
264.341	37.18
264.558	35.38
264.775	-12.29
264.992	15.28
265.209	15.68
265.426	7.34
265.643	24.86
265.86	20.44
266.077	-6.83
266.294	-3.26
266.51	-1.82
266.727	-15.36
266.944	15.65
267.161	22.6
267.378	15.45
267.595	10.58
267.812	-0.67
268.028	-20.63
268.245	-15.21
268.462	-17.1
268.679	-2.66
268.896	21.11
269.112	21.62
269.329	71.59
269.546	70.39
269.763	56.84
269.979	60.11
270.196	74.19
270.413	49.34
270.629	40.16
270.846	39.23
271.063	38.25
271.279	24.84
271.496	14.78
271.712	-40.61
271.929	-22.78
272.146	-21.25
272.362	-72.96
272.579	-42.97
272.795	-23.36
273.012	-20.97
273.228	-33.05
273.445	6.28
273.661	13.25
273.878	17.1
274.094	22.31
274.311	33.4
274.527	27.51
274.744	33.98
274.96	31.45
275.177	15.83
275.393	8.07
275.609	12.05
275.826	6.49
276.042	17.31
276.259	38.69
276.475	31.46
276.691	25.29
276.908	21.67
277.124	28.69
277.34	22.95
277.557	3.49
277.773	-6.28
277.989	-5.96
278.205	-34.94
278.422	-6.66
278.638	37.01
278.854	51.61
279.07	49.57
279.286	17.17
279.503	-20.18
279.719	-34.02
279.935	-24.81
280.151	0.65
280.367	66.7
280.583	51.97
280.799	50.54
281.016	32.38
281.232	16.27
281.448	-10.57
281.664	9.78
281.88	4.81
282.096	22.84
282.312	34.91
282.528	24.37
282.744	39.1
282.96	44.45
283.176	47.48
283.392	34.1
283.608	38.96
283.824	27.67
284.04	6.72
284.256	-0.8
284.471	-2.13
284.687	15.35
284.903	23.86
285.119	22.03
285.335	13.46
285.551	1.31
285.767	-26.63
285.982	-66.02
286.198	-104.67
286.414	-46.13
286.63	-10.09
286.846	8.06
287.061	-3.53
287.277	5.37
287.493	-4.21
287.709	-8.9
287.924	10.83
288.14	35.07
288.356	44.94
288.571	46.87
288.787	51.82
289.003	48
289.218	-5.97
289.434	-34.55
289.65	-38.43
289.865	1.5
290.081	4.12
290.296	27.26
290.512	31.95
290.727	42.8
290.943	29.16
291.159	32.46
291.374	36.03
291.59	42.76
291.805	27.31
292.021	51.19
292.236	73.82
292.451	51.99
292.667	-13.44
292.882	-9.63
293.098	-29.46
293.313	-23.46
293.529	10.4
293.744	29.61
293.959	14.03
294.175	12.97
294.39	4.8
294.605	-12.48
294.821	-14.18
295.036	2.09
295.251	22.68
295.467	17.38
295.682	10.09
295.897	24.09
296.112	29.1
296.328	22.61
296.543	42.16
296.758	73.23
296.973	43.25
297.188	58.43
297.404	48.99
297.619	45.55
297.834	22.72
298.049	28.27
298.264	-9.89
298.479	-19.37
298.694	-28.07
298.909	9.95
299.125	-0.64
299.34	2.18
299.555	21.77
299.77	20.32
299.985	27.3
300.2	35.39
300.415	53.28
300.63	27.11
300.845	5.68
301.06	7.45
301.275	-16.38
301.49	-21.98
301.704	-29.71
301.919	11.68
302.134	5.17
302.349	10.37
302.564	4.8
302.779	7.81
302.994	33.39
303.209	45.33
303.423	45.81
303.638	58.91
303.853	56.89
304.068	50.07
304.283	37.68
304.497	39.95
304.712	11.81
304.927	20.86
305.142	7.18
305.356	-1.29
305.571	17.39
305.786	35.8
306	38.16
306.215	45.05
306.43	61.67
306.644	67.08
306.859	64.39
307.074	75.46
307.288	67.93
307.503	62.47
307.717	42.73
307.932	23.58
308.147	15.4
308.361	13.15
308.576	-19.95
308.79	-5.32
309.005	18.24
309.219	-5.1
309.434	-55.74
309.648	-77.32
309.863	-101.17
310.077	-160.4
310.292	-120.13
310.506	-45.79
310.72	-12.39
310.935	-7.41
311.149	6.02
311.364	1.06
311.578	16.89
311.792	31.93
312.007	23.72
312.221	19.89
312.435	44.4
312.649	41.28
312.864	27.8
313.078	41.32
313.292	68.75
313.507	64.68
313.721	57.11
313.935	49.28
314.149	49.97
314.363	24.35
314.578	25.21
314.792	20.63
315.006	8.69
315.22	1.73
315.434	-28.6
315.648	-92.27
315.862	-133.96
316.077	-53.27
316.291	-74.48
316.505	-27.73
316.719	7.29
316.933	7.03
317.147	-12.03
317.361	-13.31
317.575	-26.23
317.789	-54.66
318.003	-53.97
318.217	-13.91
318.431	16.48
318.645	37.12
318.859	49.09
319.073	35.75
319.287	60.7
319.5	35.7
319.714	21.47
319.928	42.87
320.142	53.3
320.356	40.81
320.57	37.61
320.784	22.5
320.997	-16.37
321.211	-5.13
321.425	-19.66
321.639	-46.64
321.853	-25.96
322.066	-11.96
322.28	-23.08
322.494	-33.7
322.707	4.64
322.921	16.42
323.135	19.43
323.349	33.55
323.562	46.34
323.776	50.14
323.989	24.75
324.203	26.99
324.417	26.76
324.63	26.35
324.844	3.19
325.057	9.25
325.271	-18.45
325.485	-17.36
325.698	-27.35
325.912	-11.55
326.125	1.89
326.339	29.2
326.552	7.69
326.766	7.11
326.979	10.31
327.193	12.79
327.406	3.18
327.619	19.06
327.833	27.96
328.046	38.63
328.26	50.58
328.473	9.64
328.686	6.07
328.9	10.51
329.113	-3.2
329.326	-8.64
329.54	28.6
329.753	39.78
329.966	42.33
330.179	43.6
330.393	60.87
330.606	51
330.819	38.69
331.032	49.3
331.246	66.95
331.459	35.4
331.672	26.76
331.885	43.36
332.098	36.03
332.311	21.95
332.525	16.87
332.738	3.33
332.951	-6.04
333.164	9.74
333.377	12.21
333.59	16.31
333.803	32.48
334.016	20.31
334.229	-20.6
334.442	-3.64
334.655	19.13
334.868	37.21
335.081	39.45
335.294	53.03
335.507	32.78
335.72	32.2
335.933	21.47
336.146	24.52
336.359	16
336.572	4.92
336.785	-8.17
336.997	-13.65
337.21	12.18
337.423	36.41
337.636	51.7
337.849	57.74
338.062	46.25
338.274	2.61
338.487	-0.88
338.7	-9.7
338.913	-17.3
339.125	15.77
339.338	23.26
339.551	-1.04
339.763	40.74
339.976	50.71
340.189	49.14
340.402	31.34
340.614	47.07
340.827	43.84
341.039	30.15
341.252	18.75
341.465	29.2
341.677	23.5
341.89	1.44
342.102	27.42
342.315	24.9
342.527	37.94
342.74	31.73
342.952	32.64
343.165	20.66
343.377	42.29
343.59	5.38
343.802	15.98
344.015	17.16
344.227	10.18
344.44	14.44
344.652	32.52
344.864	34.13
345.077	43.83
345.289	31.9
345.502	26.09
345.714	24.84
345.926	37.07
346.139	21.42
346.351	25.57
346.563	7.72
346.775	-6.29
346.988	-45.31
347.2	-22.8
347.412	-29.44
347.624	12.68
347.837	27.13
348.049	24.36
348.261	7.97
348.473	23.77
348.685	32.01
348.897	45.19
349.11	64.15
349.322	70.59
349.534	60.55
349.746	25.49
349.958	15.62
350.17	10.04
350.382	-1.77
350.594	-11.42
350.806	5.92
351.018	17.3
351.23	15.61
351.442	28.05
351.654	27.95
351.866	28.78
352.078	13.86
352.29	27.74
352.502	38.62
352.714	22.97
352.926	24.27
353.138	32.35
353.35	29.09
353.561	10.35
353.773	11.47
353.985	-3.27
354.197	3.43
354.409	-9.2
354.621	-15.57
354.832	12.63
355.044	3.66
355.256	17.25
355.468	20.38
355.679	33.85
355.891	39.85
356.103	42.2
356.314	38.78
356.526	37.74
356.738	48.45
356.949	27.78
357.161	41.42
357.373	26.24
357.584	37.68
357.796	47.01
358.008	25.4
358.219	15.95
358.431	25.58
358.642	13.31
358.854	20.56
359.065	41.28
359.277	51.07
359.488	32.09
359.7	30.8
359.911	6.47
360.123	3.38
360.334	-8.19
360.546	1.88
360.757	4.26
360.969	13.62
361.18	16.58
361.391	12.74
361.603	24.92
361.814	28.24
362.025	36.53
362.237	24.36
362.448	18.57
362.659	4.1
362.871	-10.21
363.082	-16.78
363.293	-34.99
363.504	-28.81
363.716	-5.88
363.927	20.77
364.138	16.04
364.349	12.74
364.56	17.21
364.772	10.17
364.983	1.66
365.194	14.27
365.405	36.48
365.616	31.49
365.827	33.56
366.038	49.62
366.25	45.66
366.461	32.6
366.672	41.21
366.883	35.18
367.094	11.14
367.305	10.85
367.516	31.94
367.727	27.76
367.938	22.79
368.149	21.51
368.36	21.16
368.571	-14.34
368.781	-3.14
368.992	1.36
369.203	31.44
369.414	44.33
369.625	48.99
369.836	41.24
370.047	39.16
370.258	27.95
370.468	20.66
370.679	21.93
370.89	16.99
371.101	10.94
371.312	18.58
371.522	26.85
371.733	35.29
371.944	37.75
372.155	39.93
372.365	13.77
372.576	24.17
372.787	19.25
372.997	26.97
373.208	31.39
373.419	61.37
373.629	27.89
373.84	32.32
374.05	26.75
374.261	22.49
374.472	16.97
374.682	18.05
374.893	18.65
375.103	13.74
375.314	21.26
375.524	19.82
375.735	24.71
375.945	33.88
376.156	35.64
376.366	35.03
376.577	42.35
376.787	40.61
376.997	24.18
377.208	24.54
377.418	29.41
377.629	25.67
377.839	43.1
378.049	42.58
378.26	41.47
378.47	40.96
378.68	52.34
378.89	36.75
379.101	31.31
379.311	35.67
379.521	30.45
379.732	20.57
379.942	18.91
380.152	34.84
380.362	21.49
380.572	25.03
380.783	16.18
380.993	19.98
381.203	17.65
381.413	25.64
381.623	29.37
381.833	40.46
382.043	45.29
382.253	41.58
382.463	49.24
382.674	52.43
382.884	40.93
383.094	28.93
383.304	28.86
383.514	17.06
383.724	4.83
383.934	7.37
384.144	11.95
384.353	8.78
384.563	12.24
384.773	20.3
384.983	18.11
385.193	16.74
385.403	18.72
385.613	21.22
385.823	9.27
386.033	16.04
386.242	16.8
386.452	15.99
386.662	17.89
386.872	21.83
387.082	19.8
387.291	9.43
387.501	9.81
387.711	7.88
387.921	7.93
388.13	7.27
388.34	16.66
388.55	14.19
388.759	9.73
388.969	9.53
389.179	9.66
389.388	8.99
389.598	10.9
389.807	13.35
390.017	13.9
390.227	11.91
390.436	8.23
390.646	6.26
390.855	3.64
391.065	1.43
391.274	3.71
391.484	7.09
391.693	7.31
391.903	9.52
392.112	9.75
392.322	7.27
392.531	6.77
392.74	6.4
392.95	4.12
393.159	4.7
393.369	4.97
393.578	4.15
393.787	5.03
393.997	5.84
394.206	6
394.415	7.89
394.625	9.41
394.834	8.21
395.043	7.91
395.252	8.38
395.462	7.98
395.671	6.8
395.88	8.96
396.089	9.12
396.298	8.4
396.508	8.26
396.717	8.61
396.926	7.18
397.135	6.46
397.344	6.74
397.553	6.63
397.762	6.4
397.971	6.17
398.181	6.29
398.39	5.97
398.599	6.22
398.808	5.99
399.017	6.01
399.226	6.38
399.435	6.58
399.644	6.59
399.853	6.84
400.062	7.17
400.27	7.13
400.479	7.18
400.688	7.03
400.897	7.3
401.106	7.01
401.315	6.96
401.524	6.76
401.733	6.48
401.941	6.14
402.15	6.09
402.359	6.09
402.568	5.97
402.777	6.06
402.985	5.93
403.194	6.09
403.403	6.06
403.612	6.16
403.82	6.23
404.029	6.3
404.238	6.33
404.446	6.34
404.655	6.43
404.864	6.41
405.072	6.37
405.281	6.15
405.489	6.1
405.698	6.17
405.906	6.16
406.115	6.07
406.324	6.22
406.532	6.1
406.741	5.88
406.949	5.76
407.158	5.95
407.366	5.81
407.574	6.02
407.783	6.05
407.991	5.89
408.2	5.71
408.408	5.65
408.617	5.53
408.825	5.55
409.033	5.65
409.242	5.62
409.45	5.43
409.658	5.41
409.867	5.37
410.075	5.33
410.283	5.47
410.491	5.62
410.7	5.7
410.908	5.68
411.116	5.81
411.324	5.8
411.533	5.8
411.741	5.61
411.949	5.61
412.157	5.6
412.365	5.61
412.573	5.52
412.781	5.61
412.99	5.69
413.198	5.79
413.406	5.76
413.614	5.81
413.822	5.79
414.03	5.79
414.238	5.59
414.446	5.51
414.654	5.55
414.862	5.45
415.07	5.31
415.278	5.4
415.486	5.2
415.694	5.31
415.902	5.29
416.109	5.29
416.317	5.21
416.525	5.37
416.733	5.12
416.941	5.29
417.149	5.32
417.357	5.25
417.564	5.1
417.772	5.1
417.98	4.92
418.188	4.74
418.395	4.66
418.603	4.85
418.811	4.85
419.019	5.07
419.226	5.26
419.434	5.55
419.642	5.58
419.849	5.69
420.057	5.49
420.265	5.43
420.472	5.07
420.68	5.03
420.887	5.1
421.095	5.03
421.302	4.85
421.51	4.97
421.717	4.89
421.925	4.77
422.132	4.74
422.34	4.96
422.547	4.95
422.755	5.04
422.962	5.17
423.17	5.41
423.377	5.29
423.585	5.31
423.792	5.18
423.999	5
424.207	4.78
424.414	4.66
424.621	4.84
424.829	4.82
425.036	5.03
425.243	5.19
425.451	5.34
425.658	5.25
425.865	5.14
426.072	4.97
426.28	4.87
426.487	5
426.694	4.84
426.901	5.02
427.108	5.1
427.315	5.08
427.523	4.82
427.73	4.84
427.937	4.82
428.144	4.82
428.351	4.99
428.558	5.2
428.765	5.07
428.972	4.99
429.179	4.95
429.386	4.8
429.593	4.88
429.8	5.04
430.007	5.04
430.214	5.16
430.421	5.26
430.628	5.06
430.835	5.28
431.042	5.32
431.249	5.27
431.456	5.27
431.662	5.38
431.869	5.4
432.076	5.48
432.283	5.48
432.49	5.42
432.697	5.44
432.903	5.13
433.11	5.01
433.317	4.9
433.524	4.92
433.73	4.89
433.937	4.9
434.144	4.99
434.35	5.13
434.557	5.07
434.764	5.06
434.97	5.13
435.177	5.24
435.384	4.94
435.59	4.93
435.797	4.99
436.003	5.01
436.21	4.75
436.416	4.86
436.623	4.89
436.829	4.82
437.036	4.76
437.242	4.93
437.449	5.1
437.655	5.21
437.862	5.4
438.068	5.65
438.275	5.7
438.481	5.64
438.687	5.42
438.894	5.42
439.1	5.17
439.307	5.21
439.513	5.24
439.719	5.38
439.926	5.28
440.132	5.38
440.338	5.33
440.544	5.34
440.751	5.38
440.957	5.35
441.163	5.32
441.369	5.29
441.575	5.19
441.782	5.22
441.988	5.23
442.194	5.13
442.4	5.07
442.606	5.14
442.812	5.11
443.018	5.12
443.224	5.12
443.431	5.24
443.637	5.2
443.843	5.2
444.049	5.21
444.255	5.3
444.461	5.17
444.667	5.22
444.873	5.18
445.079	5.13
445.284	5.3
445.49	5.37
445.696	5.37
445.902	5.43
446.108	5.53
446.314	5.34
446.52	5.34
446.726	5.42
446.931	5.28
447.137	5.22
447.343	5.22
447.549	5.18
447.755	5.15
447.96	5.2
448.166	5.25
448.372	5.26
448.578	5.36
448.783	5.39
448.989	5.39
449.195	5.45
449.4	5.51
449.606	5.56
449.812	5.5
450.017	5.72
450.223	5.62
450.428	5.56
450.634	5.49
450.84	5.51
451.045	5.37
451.251	5.52
451.456	5.67
451.662	5.77
451.867	5.71
452.073	5.77
452.278	5.6
452.483	5.56
452.689	5.45
452.894	5.57
453.1	5.6
453.305	5.59
453.51	5.56
453.716	5.65
453.921	5.64
454.127	5.65
454.332	5.72
454.537	5.78
454.742	5.79
454.948	5.61
455.153	5.58
455.358	5.58
455.563	5.57
455.769	5.41
455.974	5.57
456.179	5.45
456.384	5.29
456.589	5.3
456.795	5.38
457	5.43
457.205	5.48
457.41	5.68
457.615	5.64
457.82	5.68
458.025	5.65
458.23	5.69
458.435	5.56
458.64	5.54
458.845	5.62
459.05	5.49
459.255	5.52
459.46	5.7
459.665	5.84
459.87	5.76
460.075	5.9
460.28	5.87
460.485	5.82
460.69	5.66
460.895	5.63
461.099	5.61
461.304	5.63
461.509	5.67
461.714	5.71
461.919	5.7
462.123	5.67
462.328	5.67
462.533	5.61
462.738	5.65
462.942	5.75
463.147	5.79
463.352	5.86
463.556	5.94
463.761	5.9
463.966	5.82
464.17	5.93
464.375	5.9
464.58	5.87
464.784	5.97
464.989	6.1
465.193	5.95
465.398	6.03
465.602	6.24
465.807	6.32
466.011	6.31
466.216	6.42
466.42	6.46
466.625	6.34
466.829	6.31
