Data from Ofav_SP_Phys_6JQ16_Reflection_2.txt Node
Date: Thu Aug 05 17:54:10 EDT 2021
User: Adam
Spectrometer: FLMT01687
Trigger mode: 0
Integration Time (sec): 8.000000E-1
Scans to average: 2
Electric dark correction enabled: true
Nonlinearity correction enabled: false
Boxcar width: 2
XAxis mode: Wavelengths
Number of Pixels in Spectrum: 3648
>>>>>Begin Spectral Data<<<<<
179.494	700.17
179.716	790.14
179.937	665.03
180.158	772.4
180.38	1865.45
180.601	-773.39
180.823	-180.17
181.044	14.3
181.265	-41.08
181.486	8.38
181.708	-754.36
181.929	-268.71
182.15	-355.92
182.372	-15.05
182.593	17.21
182.814	115.93
183.035	-26.98
183.257	31.32
183.478	-107.12
183.699	70.52
183.92	38.48
184.141	-534.53
184.363	1098.38
184.584	-28.25
184.805	8.45
185.026	40.97
185.247	70.14
185.468	107.15
185.689	92.99
185.91	64.12
186.132	7.5
186.353	-19.82
186.574	-183.66
186.795	-117.84
187.016	-94.38
187.237	-64.3
187.458	-469.68
187.679	-80.44
187.9	-55.86
188.121	-5.96
188.342	55.84
188.563	81.44
188.784	150.12
189.005	141.23
189.226	121.86
189.447	97.01
189.667	183.96
189.888	179.72
190.109	178.71
190.33	129.74
190.551	79.07
190.772	88.45
190.993	96.7
191.214	64.77
191.434	41.46
191.655	45.17
191.876	38.25
192.097	12.56
192.318	7.65
192.538	-7.63
192.759	56.06
192.98	49.02
193.201	101.88
193.421	13.11
193.642	-7.18
193.863	-44.63
194.083	-11.26
194.304	-3.83
194.525	23.51
194.745	28.66
194.966	23.72
195.187	22.3
195.407	14.24
195.628	-40.67
195.848	-17.09
196.069	-0.61
196.29	11.5
196.51	57.46
196.731	63.36
196.951	80.24
197.172	86.64
197.392	87.9
197.613	47.91
197.833	58.61
198.054	6.55
198.274	-11.47
198.495	-23.2
198.715	-3.7
198.936	-81.56
199.156	16.46
199.377	39.53
199.597	45.98
199.817	60.65
200.038	50.31
200.258	62.22
200.479	46.48
200.699	31.35
200.919	3.74
201.14	2.88
201.36	-66.77
201.58	18.15
201.801	-24.72
202.021	-28.83
202.241	24.5
202.461	40.7
202.682	-70.31
202.902	-133.24
203.122	-117.65
203.342	-39.65
203.563	-23.75
203.783	29.04
204.003	53.49
204.223	24.23
204.443	-3.8
204.663	-3.25
204.884	5.77
205.104	-26.74
205.324	-2.1
205.544	6.46
205.764	5.16
205.984	-9.09
206.204	14.08
206.424	7.62
206.644	-22.11
206.864	-27.24
207.084	-39.18
207.304	21.18
207.525	-0.67
207.745	43.87
207.964	85.59
208.184	90.6
208.404	20.78
208.624	43.28
208.844	52.2
209.064	27.13
209.284	65.45
209.504	57.73
209.724	44.19
209.944	6.49
210.164	-0.12
210.384	-7.25
210.604	-8.24
210.823	7.03
211.043	9.03
211.263	29.29
211.483	14.12
211.703	42.56
211.922	34.03
212.142	57.35
212.362	13.4
212.582	44.77
212.801	31.86
213.021	32.39
213.241	17.9
213.461	5.97
213.68	-1.7
213.9	-39.42
214.12	-67.53
214.339	-39.96
214.559	-1.7
214.779	0.94
214.998	10.05
215.218	56.46
215.438	109.82
215.657	163.63
215.877	210.61
216.096	229.07
216.316	276.28
216.535	142.58
216.755	91.81
216.974	206.66
217.194	54.15
217.413	-1.63
217.633	35.26
217.852	20.64
218.072	11.64
218.291	31.83
218.511	44.6
218.73	25.99
218.95	41.23
219.169	38.65
219.389	36.1
219.608	32.15
219.827	68.95
220.047	62.29
220.266	62.65
220.485	53.19
220.705	44.81
220.924	7.54
221.143	-10.55
221.363	-43.16
221.582	-51.24
221.801	-87.42
222.021	0.46
222.24	24.46
222.459	52.56
222.678	57.56
222.897	52.89
223.117	-13.84
223.336	-9.54
223.555	4.65
223.774	-29.88
223.993	-20.85
224.213	23.69
224.432	-2.94
224.651	-3.17
224.87	4.18
225.089	2.47
225.308	-59.91
225.527	-8.37
225.746	-19.61
225.965	-35.32
226.184	-6.7
226.404	29.72
226.623	6.7
226.842	33.46
227.061	51.15
227.28	46.31
227.499	47.85
227.718	38.04
227.936	35.33
228.155	49.12
228.374	56.06
228.593	46.42
228.812	78.48
229.031	50.34
229.25	42.42
229.469	44.9
229.688	41.23
229.907	19.55
230.125	18.58
230.344	11.48
230.563	1.83
230.782	-3.11
231.001	-3.07
231.22	49.04
231.438	59.7
231.657	39.79
231.876	8.53
232.095	15.84
232.313	-5.99
232.532	-29.23
232.751	-4.04
232.969	19.06
233.188	5.48
233.407	2.62
233.625	24.43
233.844	-43.12
234.063	-40.16
234.281	-22.09
234.5	-6.4
234.719	-9.54
234.937	-4.25
235.156	-9.24
235.374	-6.8
235.593	-17.13
235.811	-27.13
236.03	11.49
236.249	9.33
236.467	15.47
236.686	38.1
236.904	50.28
237.123	-13.06
237.341	22.06
237.559	21.06
237.778	-4.93
237.996	-6.71
238.215	17.53
238.433	-13.42
238.652	-17.76
238.87	-27.67
239.088	-36.3
239.307	-23.07
239.525	-28.52
239.743	-25.85
239.962	30.46
240.18	48.44
240.398	6.5
240.617	-12.12
240.835	37.89
241.053	-0.1
241.271	-9.09
241.49	26.7
241.708	21.54
241.926	-0.99
242.144	-28.05
242.363	1.6
242.581	1.98
242.799	-28.74
243.017	-33.75
243.235	-51.93
243.453	-25.37
243.672	-44.18
243.89	-21.3
244.108	22.61
244.326	72.72
244.544	64.35
244.762	45.54
244.98	80.21
245.198	60.64
245.416	50.75
245.634	35.89
245.852	64.64
246.07	63.13
246.288	28.83
246.506	-4.31
246.724	22.49
246.942	10.06
247.16	-5.47
247.378	-26.91
247.596	4.7
247.814	-24.46
248.032	-38.35
248.25	-69.11
248.468	-34.59
248.685	-26
248.903	-19.63
249.121	-18.73
249.339	5.34
249.557	-5.11
249.775	-8.46
249.992	-27.73
250.21	2.42
250.428	-3.77
250.646	16.93
250.863	27.21
251.081	64.23
251.299	51.39
251.517	67.87
251.734	25.46
251.952	29.14
252.17	50.1
252.387	40.39
252.605	29.04
252.823	42.24
253.04	16.58
253.258	8.54
253.475	23.1
253.693	13.39
253.911	40.25
254.128	47.9
254.346	37.03
254.563	30.94
254.781	37.34
254.998	25.43
255.216	23.31
255.433	-1.64
255.651	-16.21
255.868	-60.86
256.086	-80.88
256.303	-77.27
256.521	-42.78
256.738	-62.32
256.956	-117.46
257.173	-22.95
257.39	61.96
257.608	10.53
257.825	18.85
258.043	29.65
258.26	35.17
258.477	-1.37
258.695	19.4
258.912	30.61
259.129	42.38
259.346	44.4
259.564	53.04
259.781	57.15
259.998	42.98
260.216	42.74
260.433	35.22
260.65	23.78
260.867	-44.34
261.084	0.57
261.302	4.22
261.519	-3.73
261.736	28.2
261.953	40.46
262.17	27.53
262.387	71.28
262.604	80.51
262.822	106.5
263.039	128.13
263.256	142.25
263.473	75.14
263.69	102.12
263.907	64.7
264.124	49.83
264.341	0.82
264.558	-4.24
264.775	-35.34
264.992	-8.27
265.209	4.59
265.426	14.05
265.643	12.44
265.86	16.26
266.077	-16.57
266.294	-13.55
266.51	-19.26
266.727	-7.33
266.944	15.28
267.161	18.01
267.378	-1.1
267.595	2.73
267.812	-12.21
268.028	-32.16
268.245	-12.08
268.462	-2.78
268.679	4.1
268.896	23.58
269.112	26.77
269.329	76.26
269.546	61.93
269.763	81.02
269.979	76.98
270.196	93.4
270.413	73.29
270.629	79.53
270.846	42.85
271.063	47.29
271.279	41.53
271.496	-0.7
271.712	-91.23
271.929	-67.29
272.146	-6.57
272.362	-60.55
272.579	-44.93
272.795	-17.51
273.012	2.39
273.228	-40.42
273.445	-6.54
273.661	21.01
273.878	26.86
274.094	31.98
274.311	37.89
274.527	20.71
274.744	3.81
274.96	17.62
275.177	-0.31
275.393	3.93
275.609	18.83
275.826	20.81
276.042	23.4
276.259	33.29
276.475	22.95
276.691	11.52
276.908	-0.54
277.124	23.66
277.34	26.11
277.557	-1.49
277.773	4.21
277.989	33.88
278.205	12.53
278.422	11.65
278.638	59.42
278.854	62.55
279.07	49.16
279.286	17.85
279.503	12.46
279.719	4.98
279.935	28.41
280.151	53.28
280.367	88.35
280.583	57.87
280.799	63.45
281.016	60.83
281.232	79.75
281.448	63.32
281.664	73.78
281.88	75.94
282.096	68.9
282.312	44.29
282.528	36.53
282.744	47.2
282.96	57.26
283.176	52.19
283.392	54.77
283.608	57.53
283.824	40.8
284.04	31.14
284.256	17.27
284.471	-9.82
284.687	18.81
284.903	31.72
285.119	23.38
285.335	16.13
285.551	13.5
285.767	-27.37
285.982	-63.44
286.198	-106.65
286.414	-64.57
286.63	-13.73
286.846	14.78
287.061	-4.98
287.277	0.31
287.493	9.43
287.709	-12.5
287.924	21.38
288.14	43.41
288.356	53.88
288.571	56.7
288.787	75.56
289.003	61.32
289.218	42.17
289.434	10
289.65	8.55
289.865	23.99
290.081	20.77
290.296	45.72
290.512	43.25
290.727	39.79
290.943	29.23
291.159	34.71
291.374	16.86
291.59	14.55
291.805	0.98
292.021	12.89
292.236	-12.66
292.451	14.99
292.667	9.35
292.882	-12.32
293.098	-39.26
293.313	-3.26
293.529	-3.14
293.744	6.67
293.959	13.93
294.175	41.7
294.39	18.6
294.605	12.44
294.821	15.95
295.036	24.03
295.251	21.85
295.467	28.49
295.682	24.39
295.897	31.32
296.112	29.66
296.328	23.66
296.543	40.96
296.758	22.22
296.973	30.35
297.188	41.44
297.404	33.92
297.619	19.55
297.834	27.52
298.049	15.11
298.264	17.89
298.479	18.64
298.694	35.21
298.909	59.3
299.125	51.34
299.34	40.65
299.555	36.91
299.77	47.73
299.985	51.46
300.2	55.3
300.415	35.63
300.63	22.73
300.845	-0.72
301.06	9.65
301.275	-11.25
301.49	2.67
301.704	36.86
301.919	38.56
302.134	31.58
302.349	37.98
302.564	34.76
302.779	31.57
302.994	29.78
303.209	47.75
303.423	59.86
303.638	45.56
303.853	65.09
304.068	56.37
304.283	18.18
304.497	3.95
304.712	4.88
304.927	-33
305.142	-31.91
305.356	-24.45
305.571	5.49
305.786	31.19
306	48.84
306.215	69.99
306.43	89.56
306.644	92.77
306.859	77.41
307.074	84.06
307.288	66.51
307.503	53.73
307.717	34.68
307.932	18.12
308.147	16.53
308.361	15.7
308.576	-8.68
308.79	-14.39
309.005	14.73
309.219	-17.63
309.434	-54.99
309.648	-79.48
309.863	-88.38
310.077	-169.49
310.292	-142.32
310.506	-76.4
310.72	-36.23
310.935	-15.73
311.149	6.19
311.364	10.1
311.578	10.39
311.792	42.32
312.007	22.49
312.221	5.1
312.435	26.09
312.649	40.47
312.864	15.32
313.078	27.27
313.292	57.18
313.507	54.84
313.721	48.49
313.935	39.81
314.149	41.31
314.363	33.36
314.578	25.3
314.792	7.6
315.006	32.05
315.22	33.69
315.434	0.45
315.648	-36.63
315.862	22.34
316.077	-17.49
316.291	-16.3
316.505	29.29
316.719	58.67
316.933	45.52
317.147	33.24
317.361	21.5
317.575	13.17
317.789	4.8
318.003	-7.16
318.217	56.62
318.431	88.32
318.645	78.48
318.859	59.02
319.073	47.11
319.287	-1.37
319.5	-12.21
319.714	-11.85
319.928	22.58
320.142	20.14
320.356	19.52
320.57	14.54
320.784	-3.74
320.997	-5.58
321.211	11.91
321.425	3.96
321.639	-36.21
321.853	-19.41
322.066	-23.86
322.28	-20.95
322.494	-12.19
322.707	15.59
322.921	11.15
323.135	18.53
323.349	23.15
323.562	19.96
323.776	33.83
323.989	38.43
324.203	23.21
324.417	16.62
324.63	12.06
324.844	-16.02
325.057	-21
325.271	-50.74
325.485	-33.36
325.698	-34.39
325.912	-21.46
326.125	-5.98
326.339	39.71
326.552	26.37
326.766	24.79
326.979	39.25
327.193	51.55
327.406	39.53
327.619	71.91
327.833	67.2
328.046	80.08
328.26	72.3
328.473	19.72
328.686	-22.89
328.9	-33.54
329.113	-44.72
329.326	-28.85
329.54	7.3
329.753	31.26
329.966	38
330.179	41.64
330.393	61.34
330.606	58.28
330.819	55.62
331.032	79.79
331.246	95.13
331.459	53.67
331.672	63.59
331.885	49.4
332.098	59.95
332.311	53.16
332.525	55.87
332.738	33.65
332.951	32.05
333.164	25.96
333.377	25.18
333.59	11.99
333.803	3.86
334.016	-14.97
334.229	-25.37
334.442	-17.56
334.655	8.74
334.868	7.57
335.081	13.62
335.294	18.09
335.507	25.62
335.72	27.31
335.933	36.47
336.146	35.79
336.359	33.03
336.572	25.04
336.785	19.88
336.997	25.24
337.21	67.92
337.423	76.21
337.636	67.04
337.849	90.7
338.062	79.74
338.274	49.96
338.487	42.4
338.7	53.29
338.913	39.22
339.125	36.05
339.338	30.5
339.551	-8.64
339.763	2.32
339.976	3.4
340.189	8.69
340.402	-15.36
340.614	17.14
340.827	31.02
341.039	30.95
341.252	21.28
341.465	37.39
341.677	22.76
341.89	-15.01
342.102	5.03
342.315	7.87
342.527	25.91
342.74	22.5
342.952	19.3
343.165	9.91
343.377	18.4
343.59	-61.12
343.802	-29.15
344.015	-20.66
344.227	-28.28
344.44	-16.14
344.652	28.09
344.864	30.31
345.077	44.27
345.289	43.68
345.502	48.48
345.714	30.44
345.926	41.13
346.139	33.35
346.351	26.51
346.563	1.13
346.775	-2.58
346.988	-52.07
347.2	-46.49
347.412	-52.93
347.624	9.82
347.837	19.56
348.049	33.51
348.261	23.73
348.473	35.9
348.685	48.45
348.897	65.18
349.11	71.65
349.322	67.88
349.534	44.4
349.746	24.25
349.958	25.61
350.17	37.06
350.382	34.68
350.594	32.59
350.806	33.17
351.018	41.63
351.23	33.93
351.442	30.96
351.654	33.31
351.866	29.84
352.078	16.24
352.29	6.14
352.502	24.96
352.714	15.47
352.926	22.79
353.138	15.69
353.35	33.43
353.561	24.15
353.773	32.6
353.985	16.98
354.197	30.15
354.409	8.85
354.621	1.69
354.832	17.58
355.044	28.73
355.256	26.92
355.468	46.11
355.679	58
355.891	51.52
356.103	48.07
356.314	55.19
356.526	37.49
356.738	31.13
356.949	7.55
357.161	25.15
357.373	0.72
357.584	13.85
357.796	23.41
358.008	37.52
358.219	14.33
358.431	46.09
358.642	41.21
358.854	48.02
359.065	62.15
359.277	67.58
359.488	45.92
359.7	42.02
359.911	37.02
360.123	29.78
360.334	23.96
360.546	38.44
360.757	45.04
360.969	33.5
361.18	41.32
361.391	38.46
361.603	25
361.814	2.05
362.025	25.71
362.237	17.76
362.448	16.81
362.659	19.87
362.871	19.66
363.082	1.18
363.293	-5.23
363.504	2.51
363.716	15.92
363.927	36.97
364.138	42.28
364.349	16.35
364.56	16.18
364.772	2.7
364.983	5.82
365.194	15.87
365.405	47.9
365.616	35.85
365.827	39.59
366.038	35.73
366.25	30.82
366.461	24.55
366.672	18.17
366.883	21.29
367.094	1.28
367.305	14.62
367.516	15.51
367.727	29.55
367.938	22.2
368.149	33.08
368.36	33.94
368.571	53.63
368.781	44.98
368.992	37.52
369.203	42.89
369.414	34.85
369.625	23.97
369.836	26.88
370.047	12.71
370.258	1.36
370.468	-0.33
370.679	1.46
370.89	1.21
371.101	20.25
371.312	28.5
371.522	23.09
371.733	30.57
371.944	33.7
372.155	35.28
372.365	17.01
372.576	28.5
372.787	23.71
372.997	19.3
373.208	6.93
373.419	27.36
373.629	14.51
373.84	29.22
374.05	29.9
374.261	35.26
374.472	22.53
374.682	31.32
374.893	15.24
375.103	2.31
375.314	-5.14
375.524	9.45
375.735	2.57
375.945	29.63
376.156	44.07
376.366	64.55
376.577	62.04
376.787	63.37
376.997	50.11
377.208	41.73
377.418	22.55
377.629	21.73
377.839	37.17
378.049	32.57
378.26	23.36
378.47	27.92
378.68	39.55
378.89	28.36
379.101	37.3
379.311	48.36
379.521	43.63
379.732	29.99
379.942	18.5
380.152	18.77
380.362	25.13
380.572	30.05
380.783	25.93
380.993	29.9
381.203	20.06
381.413	5.19
381.623	10.73
381.833	12.06
382.043	17.13
382.253	22.56
382.463	37.74
382.674	29.38
382.884	29.14
383.094	16.28
383.304	6.26
383.514	5.62
383.724	2.52
383.934	8.65
384.144	15.22
384.353	14.66
384.563	9.35
384.773	17.33
384.983	2.07
385.193	12.38
385.403	16.84
385.613	18.72
385.823	12.61
386.033	18.99
386.242	13.94
386.452	15.77
386.662	12.64
386.872	13.98
387.082	16.31
387.291	0.8
387.501	2.61
387.711	2.55
387.921	4.6
388.13	1.68
388.34	14.69
388.55	9.94
388.759	8.7
388.969	4.97
389.179	5.82
389.388	6.81
389.598	9.08
389.807	11.59
390.017	12.92
390.227	13.13
390.436	10.18
390.646	9.22
390.855	8.77
391.065	9.23
391.274	8.91
391.484	8.34
391.693	7.88
391.903	8.61
392.112	9.38
392.322	8.02
392.531	8.58
392.74	7.58
392.95	4.48
393.159	3.27
393.369	4.99
393.578	5.66
393.787	7
393.997	8.51
394.206	8.54
394.415	8.82
394.625	9.13
394.834	8.13
395.043	7.22
395.252	7.76
395.462	7.69
395.671	7.4
395.88	8.55
396.089	9.36
396.298	10.18
396.508	9.15
396.717	8.9
396.926	8.63
397.135	8.33
397.344	7.27
397.553	8.32
397.762	8.06
397.971	7.44
398.181	7.37
398.39	7.18
398.599	7.16
398.808	7.35
399.017	7.33
399.226	7.25
399.435	7.54
399.644	7.34
399.853	7.4
400.062	7.63
400.27	7.57
400.479	7.29
400.688	6.73
400.897	6.98
401.106	6.97
401.315	6.81
401.524	7.03
401.733	7.15
401.941	6.85
402.15	6.71
402.359	6.88
402.568	6.7
402.777	6.82
402.985	6.7
403.194	6.76
403.403	6.72
403.612	6.78
403.82	6.77
404.029	6.69
404.238	6.63
404.446	6.54
404.655	6.51
404.864	6.35
405.072	6.39
405.281	6.29
405.489	6.45
405.698	6.54
405.906	6.53
406.115	6.43
406.324	6.62
406.532	6.52
406.741	6.47
406.949	6.37
407.158	6.51
407.366	6.37
407.574	6.52
407.783	6.36
407.991	6.34
408.2	6.24
408.408	6.21
408.617	6.07
408.825	6.11
409.033	6.2
409.242	6.18
409.45	6.05
409.658	5.89
409.867	5.86
410.075	5.83
410.283	5.83
410.491	5.8
410.7	6.01
410.908	6.04
411.116	6
411.324	6.03
411.533	6.04
411.741	5.84
411.949	5.83
412.157	5.92
412.365	6.03
412.573	6.05
412.781	6.1
412.99	6.05
413.198	6.19
413.406	6.08
413.614	6.16
413.822	6.2
414.03	6.28
414.238	6
414.446	6.03
414.654	5.91
414.862	5.86
415.07	5.69
415.278	5.74
415.486	5.51
415.694	5.7
415.902	5.6
416.109	5.55
416.317	5.64
416.525	5.72
416.733	5.5
416.941	5.66
417.149	5.72
417.357	5.54
417.564	5.44
417.772	5.43
417.98	5.43
418.188	5.47
418.395	5.35
418.603	5.32
418.811	5.36
419.019	5.4
419.226	5.42
419.434	5.75
419.642	5.82
419.849	5.87
420.057	5.55
420.265	5.64
420.472	5.27
420.68	5.35
420.887	5.19
421.095	5.26
421.302	5.02
421.51	5.14
421.717	5.3
421.925	5.27
422.132	5.48
422.34	5.51
422.547	5.51
422.755	5.15
422.962	5.39
423.17	5.33
423.377	5.41
423.585	5.44
423.792	5.57
423.999	5.39
424.207	5.11
424.414	4.8
424.621	4.81
424.829	4.87
425.036	4.98
425.243	5.22
425.451	5.65
425.658	5.56
425.865	5.48
426.072	5.2
426.28	5.15
426.487	4.89
426.694	4.82
426.901	4.84
427.108	5.09
427.315	5.15
427.523	5.18
427.73	5.26
427.937	5.11
428.144	5.21
428.351	5.13
428.558	5.33
428.765	5.34
428.972	5.5
429.179	5.38
429.386	5.36
429.593	5.26
429.8	5.27
430.007	5.23
430.214	5.14
430.421	5.39
430.628	5.28
430.835	5.43
431.042	5.45
431.249	5.64
431.456	5.49
431.662	5.92
431.869	5.95
432.076	6.04
432.283	6.05
432.49	5.93
432.697	5.74
432.903	5.47
433.11	5.45
433.317	5.41
433.524	5.56
433.73	5.47
433.937	5.53
434.144	5.59
434.35	5.52
434.557	5.49
434.764	5.38
434.97	5.46
435.177	5.54
435.384	5.35
435.59	5.23
435.797	5.33
436.003	5.3
436.21	4.98
436.416	5.07
436.623	5.1
436.829	5.05
437.036	5.07
437.242	5.2
437.449	5.4
437.655	5.57
437.862	5.74
438.068	5.83
438.275	5.83
438.481	5.79
438.687	5.69
438.894	5.72
439.1	5.6
439.307	5.66
439.513	5.66
439.719	5.8
439.926	5.71
440.132	5.73
440.338	5.65
440.544	5.73
440.751	5.68
440.957	5.73
441.163	5.67
441.369	5.76
441.575	5.58
441.782	5.52
441.988	5.44
442.194	5.4
442.4	5.46
442.606	5.59
442.812	5.59
443.018	5.56
443.224	5.71
443.431	5.64
443.637	5.55
443.843	5.5
444.049	5.58
444.255	5.6
444.461	5.63
444.667	5.67
444.873	5.7
445.079	5.64
445.284	5.64
445.49	5.61
445.696	5.66
445.902	5.7
446.108	5.74
446.314	5.66
446.52	5.75
446.726	5.8
446.931	5.69
447.137	5.69
447.343	5.71
447.549	5.62
447.755	5.66
447.96	5.68
448.166	5.7
448.372	5.76
448.578	5.78
448.783	5.83
448.989	5.81
449.195	5.88
449.4	5.94
449.606	6.07
449.812	5.96
450.017	6.14
450.223	6.05
450.428	6.08
450.634	5.97
450.84	6.05
451.045	5.95
451.251	6.01
451.456	6.04
451.662	6.07
451.867	6.03
452.073	6.09
452.278	6.16
452.483	6.08
452.689	6.13
452.894	6.22
453.1	6.26
453.305	6.19
453.51	6.28
453.716	6.29
453.921	6.21
454.127	6.22
454.332	6.27
454.537	6.41
454.742	6.36
454.948	6.37
455.153	6.36
455.358	6.33
455.563	6.2
455.769	6.19
455.974	6.31
456.179	6.18
456.384	6.09
456.589	6.17
456.795	6.24
457	6.22
457.205	6.31
457.41	6.44
457.615	6.38
457.82	6.36
458.025	6.23
458.23	6.25
458.435	6.21
458.64	6.14
458.845	6.3
459.05	6.37
459.255	6.42
459.46	6.52
459.665	6.67
459.87	6.56
460.075	6.6
460.28	6.61
460.485	6.61
460.69	6.47
460.895	6.36
461.099	6.39
461.304	6.4
461.509	6.49
461.714	6.59
461.919	6.77
462.123	6.66
462.328	6.69
462.533	6.66
462.738	6.79
462.942	6.87
463.147	7.03
463.352	7.08
463.556	7.16
463.761	6.97
463.966	7
464.17	7.03
464.375	7.19
464.58	7.11
464.784	7.22
464.989	7.12
465.193	7.03
465.398	7.15
465.602	7.27
465.807	7.38
466.011	7.64
466.216	7.65
466.42	7.53
466.625	7.63
466.829	7.7
