Data from Ofav_SP_Phys_2JQ31_Reflection_1.txt Node
Date: Thu Aug 05 17:46:12 EDT 2021
User: Adam
Spectrometer: FLMT01687
Trigger mode: 0
Integration Time (sec): 8.000000E-1
Scans to average: 2
Electric dark correction enabled: true
Nonlinearity correction enabled: false
Boxcar width: 2
XAxis mode: Wavelengths
Number of Pixels in Spectrum: 3648
>>>>>Begin Spectral Data<<<<<
179.494	424.46
179.716	475.44
179.937	444.79
180.158	576.55
180.38	1468.88
180.601	-798.24
180.823	-362.86
181.044	-10.61
181.265	79.06
181.486	173.24
181.708	-1007.38
181.929	-324.95
182.15	-803.67
182.372	-8.59
182.593	65.7
182.814	131.09
183.035	92.89
183.257	695.73
183.478	-353.56
183.699	473.86
183.92	163.02
184.141	-817.49
184.363	1296.76
184.584	-117.36
184.805	8.11
185.026	17.59
185.247	37.09
185.468	67.38
185.689	70.41
185.91	70.13
186.132	50.15
186.353	66.37
186.574	24.77
186.795	31.55
187.016	21.32
187.237	41.63
187.458	-61.81
187.679	43.5
187.9	9.06
188.121	-17.83
188.342	34.92
188.563	61.02
188.784	42.42
189.005	41.89
189.226	85.53
189.447	60.06
189.667	42.84
189.888	123.28
190.109	113.35
190.33	66.97
190.551	54.59
190.772	69.17
190.993	43.69
191.214	51.2
191.434	52.61
191.655	48.08
191.876	51.57
192.097	50.47
192.318	45.69
192.538	65.65
192.759	105.85
192.98	44.47
193.201	26.19
193.421	-55.82
193.642	-17.49
193.863	-20.18
194.083	27
194.304	36.12
194.525	51.51
194.745	44.46
194.966	29.46
195.187	19.57
195.407	-8.86
195.628	-34.53
195.848	-16.94
196.069	-19.68
196.29	-23.48
196.51	17.69
196.731	32.11
196.951	42.82
197.172	64.6
197.392	65.88
197.613	43.35
197.833	78.83
198.054	46.78
198.274	25.3
198.495	20.87
198.715	62.27
198.936	-8.15
199.156	42.5
199.377	63.19
199.597	70.47
199.817	59.63
200.038	54.69
200.258	60.62
200.479	68.15
200.699	56.41
200.919	23.19
201.14	-4.03
201.36	-34.58
201.58	-30.43
201.801	-86.9
202.021	-7.02
202.241	62.85
202.461	56.47
202.682	2.15
202.902	-5.51
203.122	-56.95
203.342	20.89
203.563	11.52
203.783	74.64
204.003	52.48
204.223	41.41
204.443	19.99
204.663	1.46
204.884	0.47
205.104	-1.68
205.324	4.53
205.544	0.24
205.764	9.39
205.984	-14.54
206.204	-31.73
206.424	-32.49
206.644	-6.99
206.864	-22.58
207.084	-28.74
207.304	25.64
207.525	15.65
207.745	21.83
207.964	51.1
208.184	63.38
208.404	0.03
208.624	-7.76
208.844	-49.31
209.064	-44.24
209.284	-24.11
209.504	-21.12
209.724	1.9
209.944	2.85
210.164	-2.41
210.384	31.2
210.604	36.19
210.823	51.83
211.043	49.76
211.263	50.34
211.483	24.36
211.703	18.49
211.922	-7.73
212.142	1.71
212.362	-12.03
212.582	-2.54
212.801	13.99
213.021	45.34
213.241	38.56
213.461	50.25
213.68	57.19
213.9	59.71
214.12	26.69
214.339	57.74
214.559	53.92
214.779	38.82
214.998	73.62
215.218	66.41
215.438	80.69
215.657	131.79
215.877	152.38
216.096	74.25
216.316	129.58
216.535	22.53
216.755	-101.6
216.974	-334.55
217.194	-29.61
217.413	-21.71
217.633	9.91
217.852	25.26
218.072	15.55
218.291	8.74
218.511	14.25
218.73	5.79
218.95	28.02
219.169	25.61
219.389	42.64
219.608	74.54
219.827	46.65
220.047	32.71
220.266	44.91
220.485	31.68
220.705	27.35
220.924	9.68
221.143	3.94
221.363	10.23
221.582	-12.58
221.801	-42.96
222.021	35.9
222.24	51.96
222.459	53.98
222.678	49.93
222.897	37.74
223.117	41.13
223.336	16.6
223.555	-1.76
223.774	-32.54
223.993	-39.49
224.213	-28.46
224.432	-33.47
224.651	-7.53
224.87	15.51
225.089	28.44
225.308	-20.99
225.527	-10.39
225.746	-21.43
225.965	-57.92
226.184	-28.3
226.404	-0.8
226.623	-9.69
226.842	1.32
227.061	23.72
227.28	11.56
227.499	33.39
227.718	14.69
227.936	25.04
228.155	14.45
228.374	31.58
228.593	7.53
228.812	28.94
229.031	19.92
229.25	29.42
229.469	27.1
229.688	30.89
229.907	16.92
230.125	-6.35
230.344	-7.36
230.563	-26.11
230.782	-47.61
231.001	5.81
231.22	79.64
231.438	94.12
231.657	90.77
231.876	80.01
232.095	64.82
232.313	54.5
232.532	33.47
232.751	33.22
232.969	41.42
233.188	34.11
233.407	-4.15
233.625	33.46
233.844	22.02
234.063	28.59
234.281	25.69
234.5	57.41
234.719	10.57
234.937	-12.72
235.156	-28
235.374	-24.94
235.593	-37.26
235.811	-20.72
236.03	16.88
236.249	14.13
236.467	19.34
236.686	11.56
236.904	9.47
237.123	-37.25
237.341	15.32
237.559	-2.9
237.778	10.53
237.996	24.68
238.215	38.08
238.433	30.16
238.652	39.28
238.87	23.45
239.088	0.21
239.307	6.66
239.525	-5.03
239.743	-11.55
239.962	14.14
240.18	39.87
240.398	10.56
240.617	2.74
240.835	30.37
241.053	11.84
241.271	-16.57
241.49	15.53
241.708	-3.69
241.926	-3.24
242.144	-25.66
242.363	37.27
242.581	15.13
242.799	-21.79
243.017	-62.46
243.235	-113.8
243.453	-78.54
243.672	-115.56
243.89	-82.53
244.108	-41.97
244.326	-16.36
244.544	-36.08
244.762	-32.37
244.98	0.71
245.198	-19.82
245.416	22.04
245.634	26.14
245.852	54.17
246.07	52.14
246.288	39.38
246.506	10.47
246.724	13.08
246.942	14.69
247.16	30.82
247.378	28.05
247.596	24.81
247.814	44.19
248.032	8.89
248.25	-35.44
248.468	-26.29
248.685	-9.1
248.903	-1.24
249.121	3.92
249.339	2.85
249.557	7.15
249.775	2.45
249.992	-34.95
250.21	-19.88
250.428	-24.57
250.646	-27.32
250.863	-33.07
251.081	-13.97
251.299	1.73
251.517	50.85
251.734	67.62
251.952	34.29
252.17	20.71
252.387	3.8
252.605	-30.33
252.823	-28.19
253.04	-9.17
253.258	14.68
253.475	38.19
253.693	57.63
253.911	77
254.128	78.44
254.346	66.99
254.563	61.5
254.781	57.84
254.998	28.88
255.216	0.95
255.433	-23.7
255.651	-74.69
255.868	-63.55
256.086	-19.77
256.303	-3.04
256.521	13.71
256.738	-24.15
256.956	-50.5
257.173	20.05
257.39	58.25
257.608	20.37
257.825	17.28
258.043	12.88
258.26	-14.48
258.477	-16.1
258.695	15.73
258.912	25.24
259.129	27.91
259.346	33.48
259.564	20.95
259.781	19.69
259.998	14.72
260.216	24.12
260.433	22.85
260.65	6.33
260.867	-64.92
261.084	-16.94
261.302	-2.67
261.519	3.92
261.736	46.45
261.953	56.12
262.17	50.05
262.387	94.67
262.604	103.21
262.822	118.22
263.039	110.38
263.256	115.83
263.473	36.22
263.69	37.6
263.907	16.27
264.124	23.39
264.341	-1.32
264.558	9.02
264.775	1.75
264.992	25.04
265.209	30.79
265.426	41.24
265.643	23.65
265.86	11.87
266.077	2.54
266.294	-9.89
266.51	5.59
266.727	33.46
266.944	68.16
267.161	61.82
267.378	37.83
267.595	28.22
267.812	15.95
268.028	-12.42
268.245	15.08
268.462	17.15
268.679	-12.03
268.896	-1.95
269.112	7.89
269.329	4.83
269.546	35.02
269.763	52.36
269.979	61.94
270.196	80.43
270.413	51.08
270.629	38.85
270.846	13
271.063	10.21
271.279	-52.28
271.496	-124.31
271.712	-131.2
271.929	-71.95
272.146	-49.85
272.362	-77.68
272.579	-20.83
272.795	10.42
273.012	30.18
273.228	-6.93
273.445	22.09
273.661	33.62
273.878	9.66
274.094	-17.85
274.311	12.67
274.527	7.98
274.744	-18.24
274.96	0.29
275.177	3.5
275.393	-12.29
275.609	0.91
275.826	3.68
276.042	-3.97
276.259	24.26
276.475	37.43
276.691	22.83
276.908	39.55
277.124	51.83
277.34	34.69
277.557	0.42
277.773	-20.71
277.989	-47.78
278.205	-74.81
278.422	-72.89
278.638	-3.6
278.854	23.9
279.07	31.18
279.286	31.56
279.503	38.68
279.719	40.67
279.935	88.89
280.151	74.21
280.367	51.11
280.583	50.76
280.799	47.51
281.016	18.67
281.232	-0.91
281.448	-17.36
281.664	-38.21
281.88	-61.4
282.096	-36.56
282.312	6.63
282.528	29.72
282.744	68.6
282.96	53.28
283.176	58.22
283.392	50.94
283.608	46.76
283.824	37.33
284.04	56.64
284.256	54.14
284.471	40.75
284.687	47.86
284.903	31.96
285.119	30.89
285.335	20.25
285.551	10.62
285.767	-6.75
285.982	-22.34
286.198	-121.14
286.414	-111.39
286.63	-57.33
286.846	-40.6
287.061	-18.04
287.277	30.92
287.493	61.33
287.709	41.89
287.924	66.33
288.14	71.11
288.356	52.57
288.571	57.47
288.787	56.12
289.003	46.02
289.218	22.92
289.434	22.2
289.65	1.69
289.865	31.66
290.081	4.1
290.296	14.55
290.512	6.74
290.727	22.4
290.943	10.25
291.159	33.32
291.374	38.5
291.59	45.33
291.805	28.51
292.021	57.05
292.236	51.19
292.451	16.8
292.667	-8.48
292.882	-3.92
293.098	-34.18
293.313	-26.13
293.529	-4.46
293.744	14.18
293.959	21.3
294.175	59.18
294.39	42.91
294.605	24.22
294.821	16.83
295.036	7.22
295.251	12.43
295.467	28.4
295.682	29.48
295.897	35.35
296.112	42.26
296.328	28.72
296.543	19.78
296.758	14.99
296.973	13.91
297.188	27.51
297.404	18.99
297.619	13.29
297.834	15.93
298.049	-17.95
298.264	-33.8
298.479	-43.51
298.694	-0.66
298.909	18.69
299.125	36.42
299.34	40.95
299.555	48.28
299.77	31.82
299.985	50.41
300.2	51.34
300.415	24.78
300.63	10.25
300.845	0.45
301.06	-20.14
301.275	-13.43
301.49	9.53
301.704	8.61
301.919	46.11
302.134	44.2
302.349	52.33
302.564	39.24
302.779	46.4
302.994	33.18
303.209	30.41
303.423	11.67
303.638	18.52
303.853	10.24
304.068	5.68
304.283	3.86
304.497	8.99
304.712	-16.97
304.927	-16.85
305.142	-15.06
305.356	6.45
305.571	17.59
305.786	40.3
306	47.46
306.215	59.46
306.43	58.46
306.644	55.78
306.859	45.74
307.074	46.85
307.288	52.14
307.503	54.13
307.717	28.02
307.932	14.04
308.147	11.19
308.361	2.79
308.576	-19.96
308.79	-3.23
309.005	18.59
309.219	-10.45
309.434	-50.64
309.648	-67.92
309.863	-74.9
310.077	-140.49
310.292	-74.21
310.506	-37.97
310.72	-6.99
310.935	8.22
311.149	36.83
311.364	31.1
311.578	48.89
311.792	61.71
312.007	50.29
312.221	39.73
312.435	63.49
312.649	56.79
312.864	21.72
313.078	34.82
313.292	48.5
313.507	28.64
313.721	32.82
313.935	39.09
314.149	47.92
314.363	23.9
314.578	29.26
314.792	25.72
315.006	33.14
315.22	8.7
315.434	-0.51
315.648	-51.67
315.862	-122.74
316.077	-85.4
316.291	-74.99
316.505	-16.45
316.719	6.55
316.933	26.52
317.147	14.23
317.361	7.54
317.575	-8.87
317.789	-2.64
318.003	-1.96
318.217	31.02
318.431	45.84
318.645	45.47
318.859	26.18
319.073	13.03
319.287	-4.08
319.5	14.29
319.714	34.88
319.928	62
320.142	62.89
320.356	49.24
320.57	38.6
320.784	30.06
320.997	10.97
321.211	31.51
321.425	27.56
321.639	2.04
321.853	11.06
322.066	-17.04
322.28	-36.34
322.494	-31.66
322.707	-9.96
322.921	-2.46
323.135	23.13
323.349	26.38
323.562	27.47
323.776	21.92
323.989	-3.83
324.203	-5.41
324.417	7.41
324.63	5.9
324.844	-9.24
325.057	-11.51
325.271	-28.22
325.485	-11.82
325.698	-18.11
325.912	-4.89
326.125	8.65
326.339	30.82
326.552	5.7
326.766	22.95
326.979	39.12
327.193	50.15
327.406	25.91
327.619	46.93
327.833	10.82
328.046	30.13
328.26	23.13
328.473	18.87
328.686	13.13
328.9	39.86
329.113	27.63
329.326	13.37
329.54	28.92
329.753	41.86
329.966	44.53
330.179	42.73
330.393	71.74
330.606	73.74
330.819	56.44
331.032	69.51
331.246	86.23
331.459	52.1
331.672	77.2
331.885	70.38
332.098	66.02
332.311	48.46
332.525	41.17
332.738	29.55
332.951	29.98
333.164	31.23
333.377	28.25
333.59	22.73
333.803	-2.99
334.016	-2.18
334.229	-15.72
334.442	-11.26
334.655	20.37
334.868	33.38
335.081	19.63
335.294	27.86
335.507	34.91
335.72	36.44
335.933	28.25
336.146	39.13
336.359	37.15
336.572	33.26
336.785	18.84
336.997	27.38
337.21	52.35
337.423	71.67
337.636	76.13
337.849	75.92
338.062	55.98
338.274	-5.38
338.487	-8.48
338.7	-18.09
338.913	-17.55
339.125	3.65
339.338	30.04
339.551	7.09
339.763	30.2
339.976	28.82
340.189	28.61
340.402	4.59
340.614	18.22
340.827	25.34
341.039	19.7
341.252	24.57
341.465	38.16
341.677	33.48
341.89	15.32
342.102	20.36
342.315	-8.76
342.527	10.45
342.74	17.58
342.952	5.72
343.165	12.1
343.377	38.67
343.59	-7.97
343.802	1.19
344.015	4.3
344.227	-0.46
344.44	13.17
344.652	31.13
344.864	39.14
345.077	49.78
345.289	47.89
345.502	22.03
345.714	7.15
345.926	10.2
346.139	6.15
346.351	5.14
346.563	14.67
346.775	19.58
346.988	-14.87
347.2	10.22
347.412	55.24
347.624	52.04
347.837	43.04
348.049	48.66
348.261	25.24
348.473	16.3
348.685	33.07
348.897	63.32
349.11	58.67
349.322	54.92
349.534	73.82
349.746	54.23
349.958	26.58
350.17	41.14
350.382	41.05
350.594	14.86
350.806	-3.4
351.018	8.72
351.23	3.21
351.442	1.23
351.654	9.4
351.866	10.55
352.078	-6.29
352.29	-11.29
352.502	5.57
352.714	-12.09
352.926	16.04
353.138	32.33
353.35	35
353.561	22.09
353.773	25.59
353.985	6.8
354.197	8.3
354.409	-5.65
354.621	2.47
354.832	31.33
355.044	45.53
355.256	57.61
355.468	79.76
355.679	69.71
355.891	57.03
356.103	38.08
356.314	23.51
356.526	0.85
356.738	-5.72
356.949	-27.72
357.161	19.02
357.373	4.35
357.584	18.51
357.796	15.98
358.008	20.63
358.219	-28.54
358.431	27.85
358.642	25.3
358.854	36.19
359.065	50.29
359.277	56.59
359.488	29.19
359.7	37.68
359.911	25.36
360.123	13.7
360.334	20.35
360.546	27.21
360.757	17.96
360.969	28.64
361.18	38.32
361.391	32.52
361.603	44.21
361.814	50.06
362.025	58.33
362.237	44.19
362.448	40.11
362.659	26.42
362.871	14.07
363.082	-0.14
363.293	-5.34
363.504	6.69
363.716	27.83
363.927	47.89
364.138	34.86
364.349	26.4
364.56	7.57
364.772	-6.62
364.983	-38.63
365.194	3.95
365.405	14.55
365.616	27.92
365.827	35.99
366.038	33.75
366.25	33.67
366.461	27.7
366.672	26.25
366.883	23.28
367.094	28.62
367.305	27.01
367.516	26.97
367.727	29.74
367.938	30.77
368.149	17.5
368.36	15.38
368.571	10.59
368.781	-9.56
368.992	-15.68
369.203	8.52
369.414	-1.69
369.625	-1.96
369.836	-14.26
370.047	-13.89
370.258	-17.25
370.468	-13.56
370.679	-0.62
370.89	9.74
371.101	20.95
371.312	24.71
371.522	21.03
371.733	17.33
371.944	26.83
372.155	14.64
372.365	6.76
372.576	20.02
372.787	4.79
372.997	-0.5
373.208	4.79
373.419	10.3
373.629	-4.1
373.84	15.58
374.05	20.29
374.261	24.99
374.472	23.65
374.682	16.33
374.893	34.48
375.103	18.03
375.314	13.68
375.524	12.52
375.735	11.37
375.945	3.31
376.156	13
376.366	14.4
376.577	14.74
376.787	25.42
376.997	19.58
377.208	34.51
377.418	27.79
377.629	32.1
377.839	45.72
378.049	51.52
378.26	18.86
378.47	40.24
378.68	49.78
378.89	26.2
379.101	28.78
379.311	53.1
379.521	39.36
379.732	35.7
379.942	35.3
380.152	34.58
380.362	34.64
380.572	39.89
380.783	26.61
380.993	18.78
381.203	5.74
381.413	11.8
381.623	15.49
381.833	20
382.043	34.78
382.253	39.32
382.463	35.95
382.674	29.24
382.884	30.48
383.094	21.47
383.304	13.97
383.514	13.44
383.724	8.97
383.934	6.7
384.144	7.3
384.353	12.59
384.563	15.31
384.773	19.78
384.983	12.77
385.193	17.09
385.403	18.45
385.613	16.08
385.823	15.94
386.033	22.64
386.242	17.65
386.452	15.47
386.662	18.49
386.872	14.33
387.082	13.14
387.291	6.06
387.501	8.18
387.711	7.42
387.921	9.97
388.13	9.67
388.34	15.68
388.55	12.71
388.759	4.54
388.969	1.54
389.179	1.72
389.388	2.13
389.598	4.03
389.807	11.63
390.017	14.45
390.227	13.14
390.436	11.37
390.646	8.13
390.855	5.57
391.065	5.22
391.274	7.88
391.484	10.32
391.693	10.63
391.903	10.75
392.112	10.65
392.322	7.43
392.531	7.38
392.74	8.94
392.95	7.19
393.159	7.45
393.369	9.44
393.578	10.07
393.787	10.79
393.997	11.93
394.206	10.86
394.415	11.31
394.625	10.12
394.834	10.05
395.043	9.65
395.252	9.94
395.462	10.48
395.671	10.63
395.88	10.55
396.089	11.48
396.298	11.95
396.508	11.28
396.717	10.91
396.926	10.76
397.135	9.52
397.344	8.96
397.553	9.29
397.762	9.43
397.971	9.31
398.181	9.65
398.39	9.91
398.599	9.29
398.808	9.43
399.017	8.64
399.226	8.68
399.435	8.78
399.644	9.29
399.853	9.12
400.062	9.88
400.27	9.75
400.479	9.32
400.688	9.09
400.897	9.53
401.106	9.38
401.315	9.01
401.524	9.05
401.733	8.82
401.941	8.34
402.15	8.22
402.359	8.52
402.568	8.76
402.777	8.93
402.985	9.05
403.194	9.11
403.403	9.19
403.612	9.04
403.82	8.78
404.029	8.69
404.238	8.94
404.446	8.83
404.655	8.98
404.864	9.15
405.072	9.06
405.281	8.55
405.489	8.61
405.698	8.66
405.906	8.64
406.115	8.5
406.324	8.85
406.532	8.77
406.741	8.62
406.949	8.58
407.158	8.83
407.366	8.78
407.574	8.82
407.783	8.74
407.991	8.74
408.2	8.47
408.408	8.25
408.617	8.2
408.825	8.2
409.033	8.13
409.242	8.31
409.45	8.21
409.658	8.17
409.867	8.22
410.075	8.34
410.283	8.29
410.491	8.49
410.7	8.54
410.908	8.48
411.116	8.42
411.324	8.42
411.533	8.3
411.741	8.19
411.949	8.29
412.157	8.13
412.365	8.34
412.573	8.34
412.781	8.46
412.99	8.27
413.198	8.46
413.406	8.31
413.614	8.4
413.822	8.37
414.03	8.63
414.238	8.57
414.446	8.52
414.654	8.62
414.862	8.55
415.07	8.34
415.278	8.36
415.486	8.28
415.694	8.29
415.902	8.17
416.109	7.98
416.317	7.93
416.525	7.89
416.733	7.63
416.941	7.79
417.149	7.97
417.357	7.97
417.564	7.93
417.772	7.96
417.98	7.88
418.188	7.87
418.395	7.76
418.603	7.94
418.811	7.9
419.019	8.05
419.226	8.11
419.434	8.25
419.642	7.98
419.849	8.03
420.057	7.77
420.265	7.62
420.472	7.29
420.68	7.45
420.887	7.45
421.095	7.61
421.302	7.29
421.51	7.57
421.717	7.5
421.925	7.44
422.132	7.64
422.34	8.03
422.547	8.01
422.755	7.92
422.962	8.08
423.17	7.92
423.377	7.88
423.585	7.75
423.792	7.68
423.999	7.64
424.207	7.46
424.414	7.3
424.621	7.42
424.829	7.54
425.036	7.55
425.243	7.6
425.451	7.83
425.658	7.78
425.865	7.71
426.072	7.48
426.28	7.35
426.487	7.21
426.694	7.09
426.901	7.21
427.108	7.36
427.315	7.55
427.523	7.63
427.73	7.65
427.937	7.69
428.144	7.69
428.351	7.67
428.558	7.69
428.765	7.58
428.972	7.53
429.179	7.39
429.386	7.4
429.593	7.5
429.8	7.63
430.007	7.53
430.214	7.76
430.421	7.76
430.628	7.68
430.835	7.86
431.042	7.98
431.249	7.82
431.456	7.71
431.662	7.86
431.869	7.85
432.076	7.77
432.283	7.9
432.49	7.93
432.697	7.88
432.903	7.59
433.11	7.6
433.317	7.35
433.524	7.54
433.73	7.51
433.937	7.62
434.144	7.85
434.35	7.96
434.557	7.79
434.764	7.6
434.97	7.61
435.177	7.47
435.384	7.35
435.59	7.39
435.797	7.56
436.003	7.71
436.21	7.43
436.416	7.63
436.623	7.62
436.829	7.58
437.036	7.37
437.242	7.55
437.449	7.66
437.655	7.81
437.862	7.91
438.068	8.07
438.275	8.26
438.481	8.18
438.687	7.96
438.894	8.05
439.1	7.97
439.307	7.83
439.513	7.78
439.719	7.95
439.926	7.95
440.132	8.11
440.338	8.17
440.544	8.15
440.751	8.16
440.957	8.04
441.163	8.01
441.369	8.04
441.575	8.03
441.782	8.16
441.988	8.15
442.194	8.03
442.4	8.07
442.606	8.1
442.812	7.84
443.018	7.79
443.224	7.77
443.431	7.76
443.637	7.81
443.843	7.85
444.049	7.88
444.255	7.94
444.461	7.84
444.667	7.82
444.873	7.76
445.079	7.65
445.284	7.77
445.49	7.83
445.696	7.88
445.902	7.94
446.108	8.07
446.314	7.95
446.52	7.94
446.726	8.02
446.931	8.05
447.137	7.99
447.343	8.13
447.549	8.19
447.755	8.15
447.96	8.11
448.166	8.24
448.372	8.18
448.578	8.12
448.783	8.22
448.989	8.17
449.195	8.09
449.4	8.13
449.606	8.22
449.812	8.1
450.017	8.36
450.223	8.37
450.428	8.4
450.634	8.4
450.84	8.45
451.045	8.28
451.251	8.36
451.456	8.39
451.662	8.42
451.867	8.43
452.073	8.55
452.278	8.56
452.483	8.55
452.689	8.53
452.894	8.53
453.1	8.52
453.305	8.47
453.51	8.44
453.716	8.46
453.921	8.44
454.127	8.45
454.332	8.44
454.537	8.5
454.742	8.51
454.948	8.52
455.153	8.53
455.358	8.59
455.563	8.6
455.769	8.51
455.974	8.52
456.179	8.44
456.384	8.4
456.589	8.31
456.795	8.43
457	8.51
457.205	8.59
457.41	8.73
457.615	8.79
457.82	8.76
458.025	8.67
458.23	8.7
458.435	8.53
458.64	8.58
458.845	8.66
459.05	8.63
459.255	8.6
459.46	8.83
459.665	8.9
459.87	8.83
460.075	9.01
460.28	9.02
460.485	8.98
460.69	8.82
460.895	8.8
461.099	8.74
461.304	8.78
461.509	8.79
461.714	8.91
461.919	9.03
462.123	9
462.328	9.04
462.533	9.09
462.738	9.15
462.942	9.22
463.147	9.4
463.352	9.49
463.556	9.47
463.761	9.48
463.966	9.28
464.17	9.22
464.375	9.14
464.58	9.15
464.784	9.15
464.989	9.31
465.193	9.26
465.398	9.42
465.602	9.65
465.807	9.77
466.011	9.76
466.216	9.86
