Data from Ofav_SP_Phys_9AZ81_Reflection_2.txt Node
Date: Thu Aug 05 17:50:40 EDT 2021
User: Adam
Spectrometer: FLMT01687
Trigger mode: 0
Integration Time (sec): 8.000000E-1
Scans to average: 2
Electric dark correction enabled: true
Nonlinearity correction enabled: false
Boxcar width: 2
XAxis mode: Wavelengths
Number of Pixels in Spectrum: 3648
>>>>>Begin Spectral Data<<<<<
179.494	591.18
179.716	649.52
179.937	525.35
180.158	613.74
180.38	1371.4
180.601	-414.29
180.823	130.25
181.044	-15.31
181.265	-22.03
181.486	-21.33
181.708	67.79
181.929	-54.32
182.15	-414.29
182.372	-17.53
182.593	-0.41
182.814	-132.63
183.035	-17.05
183.257	-87.9
183.478	254.58
183.699	-297.57
183.92	4.68
184.141	250.67
184.363	-457.84
184.584	236.83
184.805	158.19
185.026	125.94
185.247	86.25
185.468	78.08
185.689	51.05
185.91	3.31
186.132	-41.12
186.353	-7.05
186.574	-74.42
186.795	13.87
187.016	58.68
187.237	85.47
187.458	158.84
187.679	103.58
187.9	89.39
188.121	91.7
188.342	113.7
188.563	85.97
188.784	136.39
189.005	141.84
189.226	146.31
189.447	120.73
189.667	175.67
189.888	325.28
190.109	195.25
190.33	158.96
190.551	154.23
190.772	166.9
190.993	103.06
191.214	89.02
191.434	65.6
191.655	49.68
191.876	65.81
192.097	55.43
192.318	57.43
192.538	77.72
192.759	85.52
192.98	21.96
193.201	82.63
193.421	48.23
193.642	55.41
193.863	11.94
194.083	8.24
194.304	24.52
194.525	43.68
194.745	32.83
194.966	52.16
195.187	57.13
195.407	39.16
195.628	9.73
195.848	40.25
196.069	39.57
196.29	57.26
196.51	68.95
196.731	57.84
196.951	69.83
197.172	77.63
197.392	79.45
197.613	71.31
197.833	88.26
198.054	67.4
198.274	54.26
198.495	23.75
198.715	31.68
198.936	-24.22
199.156	30.94
199.377	43.52
199.597	62.15
199.817	55.51
200.038	50.79
200.258	39.39
200.479	44.56
200.699	16.98
200.919	14.23
201.14	-13.06
201.36	-19.67
201.58	-23.77
201.801	-79.29
202.021	-43.88
202.241	27.33
202.461	-4.58
202.682	-13.28
202.902	69.74
203.122	106.01
203.342	96.54
203.563	88.53
203.783	101.79
204.003	73.21
204.223	71.8
204.443	34.97
204.663	59.55
204.884	43.54
205.104	17.35
205.324	15.91
205.544	39.81
205.764	17.57
205.984	10.72
206.204	47.31
206.424	41.08
206.644	41
206.864	25.06
207.084	12.99
207.304	39.78
207.525	29
207.745	58.09
207.964	60.5
208.184	123.36
208.404	60.58
208.624	55.49
208.844	40.08
209.064	95.97
209.284	66.14
209.504	65.28
209.724	61.01
209.944	58.57
210.164	37.06
210.384	68.82
210.604	59.24
210.823	68.48
211.043	61.38
211.263	58.06
211.483	14.87
211.703	25.29
211.922	14.98
212.142	67.4
212.362	52.48
212.582	116.53
212.801	119.63
213.021	70.45
213.241	36.51
213.461	32.5
213.68	21.09
213.9	21.34
214.12	40.21
214.339	53.46
214.559	63.33
214.779	52.39
214.998	100.44
215.218	90.63
215.438	120.04
215.657	177.9
215.877	208.62
216.096	108.31
216.316	80.7
216.535	47.75
216.755	-56.61
216.974	-93.98
217.194	75.28
217.413	49.78
217.633	56
217.852	60.52
218.072	58.84
218.291	33.88
218.511	71.29
218.73	53.27
218.95	60.66
219.169	19.01
219.389	66.72
219.608	-13.83
219.827	27.14
220.047	43.85
220.266	62.41
220.485	28.29
220.705	70.16
220.924	50.43
221.143	38.03
221.363	-1.41
221.582	21.56
221.801	-29.85
222.021	12.12
222.24	35.63
222.459	108.79
222.678	81.95
222.897	78.22
223.117	32.79
223.336	10.76
223.555	2.25
223.774	-21.16
223.993	-15.89
224.213	33.35
224.432	36.88
224.651	45.19
224.87	41.8
225.089	58.27
225.308	30.75
225.527	8.45
225.746	-4.54
225.965	-30.39
226.184	-35.71
226.404	-18.71
226.623	-24.12
226.842	-28.71
227.061	14.94
227.28	17.44
227.499	36.44
227.718	30.57
227.936	31.77
228.155	12.04
228.374	26.73
228.593	35.85
228.812	59.8
229.031	72.42
229.25	87.11
229.469	70.84
229.688	48.48
229.907	32.89
230.125	10.14
230.344	-9.2
230.563	-9.74
230.782	-21.82
231.001	13.59
231.22	69.18
231.438	103.7
231.657	68.95
231.876	71.54
232.095	45.3
232.313	-0.71
232.532	-7.46
232.751	5.16
232.969	34.27
233.188	51.4
233.407	74.48
233.625	94.04
233.844	105.58
234.063	66.84
234.281	28.93
234.5	25.44
234.719	-5.43
234.937	-11.41
235.156	-18.08
235.374	-2.26
235.593	20.72
235.811	0.58
236.03	24.85
236.249	43.12
236.467	47.06
236.686	26.21
236.904	29.47
237.123	3.66
237.341	16.87
237.559	-0.34
237.778	21.14
237.996	53.81
238.215	68.54
238.433	79.06
238.652	85.12
238.87	58.3
239.088	18.33
239.307	26.35
239.525	9.6
239.743	4.18
239.962	31.72
240.18	62.82
240.398	50.11
240.617	24.59
240.835	85.38
241.053	43.59
241.271	9.16
241.49	28.65
241.708	31.32
241.926	-0.12
242.144	-13.56
242.363	42.37
242.581	29.41
242.799	7.61
243.017	-12.1
243.235	-30.19
243.453	-10.3
243.672	-21.24
243.89	-0.15
244.108	41.29
244.326	80.7
244.544	63.02
244.762	34.09
244.98	55.91
245.198	47.98
245.416	35.01
245.634	35.28
245.852	46.92
246.07	35.24
246.288	6.22
246.506	-43.17
246.724	-0.93
246.942	-4.63
247.16	-28.91
247.378	-71.24
247.596	-10.47
247.814	-27.96
248.032	-22.91
248.25	-33.12
248.468	-1.11
248.685	4.17
248.903	9.79
249.121	5.45
249.339	27.93
249.557	22.87
249.775	11.22
249.992	-37.63
250.21	-10.24
250.428	-25.44
250.646	-34.74
250.863	-9.77
251.081	53.17
251.299	50.51
251.517	84.38
251.734	117.03
251.952	79.92
252.17	58.35
252.387	36.59
252.605	18.99
252.823	-3.51
253.04	31.88
253.258	38.82
253.475	66.46
253.693	81.08
253.911	108.71
254.128	76.11
254.346	77.3
254.563	71.7
254.781	63.21
254.998	37.84
255.216	28.22
255.433	5.42
255.651	4.5
255.868	-16.58
256.086	-42.48
256.303	-41.63
256.521	-49.25
256.738	-95.61
256.956	-201
257.173	-23.91
257.39	43.06
257.608	13.32
257.825	19.57
258.043	29.32
258.26	13.21
258.477	-10.01
258.695	8.65
258.912	20.54
259.129	22.65
259.346	35.34
259.564	44.52
259.781	55.97
259.998	52.65
260.216	68.18
260.433	72.71
260.65	74.27
260.867	36.22
261.084	42.97
261.302	19.8
261.519	-2.71
261.736	24.47
261.953	33.07
262.17	27.52
262.387	53.67
262.604	75.61
262.822	91.83
263.039	103.66
263.256	126.54
263.473	63.52
263.69	71.62
263.907	57.32
264.124	53.26
264.341	17.48
264.558	45.13
264.775	31.7
264.992	46.77
265.209	39.48
265.426	47.01
265.643	25.53
265.86	11.77
266.077	-21.63
266.294	-3.41
266.51	-6.28
266.727	1.23
266.944	40.04
267.161	51.6
267.378	42.04
267.595	42.53
267.812	37.47
268.028	14.56
268.245	21.77
268.462	7.12
268.679	7.52
268.896	22.77
269.112	31.39
269.329	67.43
269.546	57.65
269.763	60.42
269.979	68.85
270.196	77.3
270.413	49.09
270.629	63.54
270.846	76.78
271.063	50.33
271.279	34.61
271.496	36.51
271.712	-28.19
271.929	-41.06
272.146	42.07
272.362	20.41
272.579	-4.28
272.795	3.53
273.012	9.54
273.228	-42.39
273.445	-21.49
273.661	-2.18
273.878	2.86
274.094	7.73
274.311	35.8
274.527	31.98
274.744	52.38
274.96	38.81
275.177	20.81
275.393	13
275.609	9.47
275.826	-0.3
276.042	6.11
276.259	15.74
276.475	14.7
276.691	21.28
276.908	22.55
277.124	43.91
277.34	44.61
277.557	17.58
277.773	13.8
277.989	22.12
278.205	5.8
278.422	7.25
278.638	56.19
278.854	75.21
279.07	60.46
279.286	48.4
279.503	62.11
279.719	48
279.935	47.28
280.151	62
280.367	53.32
280.583	34.88
280.799	36.67
281.016	18.55
281.232	26.7
281.448	39.47
281.664	51.39
281.88	105.67
282.096	80.42
282.312	63.81
282.528	58.27
282.744	57.17
282.96	53.56
283.176	54.28
283.392	52.45
283.608	57.16
283.824	62.1
284.04	67.45
284.256	50.27
284.471	32.84
284.687	44.82
284.903	44.39
285.119	31.44
285.335	32.3
285.551	12.42
285.767	-18.07
285.982	-57.61
286.198	-116.89
286.414	-42.09
286.63	25.22
286.846	55.38
287.061	61.21
287.277	58.79
287.493	67.72
287.709	38.51
287.924	37.22
288.14	44.07
288.356	48.67
288.571	53.44
288.787	72.35
289.003	89.34
289.218	70.21
289.434	39.98
289.65	-21.7
289.865	0.75
290.081	8.09
290.296	16.64
290.512	26.15
290.727	46.73
290.943	26.23
291.159	25.39
291.374	22.9
291.59	11.8
291.805	5.31
292.021	39.55
292.236	33.46
292.451	36.63
292.667	48.39
292.882	53.34
293.098	-5.08
293.313	11.25
293.529	39.23
293.744	37.83
293.959	8.16
294.175	33.42
294.39	41.82
294.605	22.06
294.821	42.55
295.036	41.93
295.251	36.63
295.467	29.29
295.682	29.12
295.897	18.97
296.112	30.77
296.328	26.14
296.543	19.88
296.758	-6.37
296.973	-7.37
297.188	7.61
297.404	9.88
297.619	5.63
297.834	5.92
298.049	-16.34
298.264	-10.85
298.479	-15.55
298.694	19.75
298.909	47.68
299.125	54.27
299.34	46.42
299.555	61.97
299.77	68.79
299.985	78.01
300.2	84.67
300.415	65.74
300.63	40.88
300.845	7.94
301.06	4.54
301.275	-17.65
301.49	-12.37
301.704	-21.85
301.919	28.54
302.134	19.64
302.349	39.82
302.564	33.83
302.779	37.72
302.994	33.47
303.209	53.35
303.423	39.45
303.638	61.52
303.853	54.21
304.068	48.68
304.283	39.76
304.497	32.39
304.712	16.1
304.927	-9.96
305.142	7.57
305.356	-8.41
305.571	39.72
305.786	45.63
306	66.89
306.215	74.98
306.43	104.07
306.644	91.91
306.859	82.23
307.074	71.82
307.288	66.49
307.503	55.38
307.717	46.19
307.932	23.65
308.147	36.43
308.361	32.21
308.576	25.03
308.79	25.7
309.005	69.35
309.219	49.47
309.434	60.49
309.648	54.44
309.863	53.89
310.077	-14.81
310.292	-16.66
310.506	-14.3
310.72	7.14
310.935	17.53
311.149	41.31
311.364	51.09
311.578	50.92
311.792	71.04
312.007	71.85
312.221	57.11
312.435	66.79
312.649	72.89
312.864	39.1
313.078	23.51
313.292	58.99
313.507	61.45
313.721	48.85
313.935	49.76
314.149	58.21
314.363	38.12
314.578	29.17
314.792	34.19
315.006	37.22
315.22	29.09
315.434	1.23
315.648	-4.35
315.862	-4.99
316.077	1.99
316.291	21.65
316.505	49.61
316.719	42.7
316.933	47.62
317.147	25.3
317.361	10.02
317.575	-12.08
317.789	-0.54
318.003	-15.67
318.217	34.9
318.431	78.09
318.645	97.21
318.859	79.38
319.073	58.99
319.287	46.93
319.5	31.76
319.714	17.1
319.928	54.69
320.142	63.76
320.356	53.47
320.57	47.05
320.784	36.89
320.997	18.86
321.211	34.21
321.425	15.51
321.639	-21.86
321.853	-9.53
322.066	-24.07
322.28	-39.66
322.494	-23.86
322.707	-0.06
322.921	1.25
323.135	12.6
323.349	19.43
323.562	11.18
323.776	17.9
323.989	0.12
324.203	4.96
324.417	13
324.63	27.46
324.844	20.6
325.057	31.62
325.271	8.01
325.485	18.61
325.698	22.87
325.912	35.83
326.125	50.39
326.339	75.88
326.552	64.38
326.766	65.92
326.979	71.4
327.193	52.83
327.406	43.21
327.619	75.36
327.833	31.92
328.046	40.41
328.26	28.83
328.473	15.06
328.686	4.61
328.9	14.71
329.113	-3.76
329.326	7.21
329.54	26.44
329.753	33.98
329.966	57.02
330.179	70.73
330.393	87.8
330.606	79.99
330.819	80.76
331.032	89.62
331.246	118.27
331.459	89.73
331.672	93.79
331.885	82.94
332.098	77.13
332.311	49.96
332.525	47.25
332.738	39.02
332.951	27.93
333.164	30.97
333.377	42.11
333.59	44.13
333.803	27.01
334.016	23.83
334.229	1.7
334.442	-3.55
334.655	31.39
334.868	51.57
335.081	52.48
335.294	75.39
335.507	67.91
335.72	57.91
335.933	57.51
336.146	57.35
336.359	56.7
336.572	67.89
336.785	44.28
336.997	39.84
337.21	57.53
337.423	39.81
337.636	36.81
337.849	80.69
338.062	57.9
338.274	18.37
338.487	33.42
338.7	19.97
338.913	-8.65
339.125	22.52
339.338	25.66
339.551	11.91
339.763	35.07
339.976	47.32
340.189	45.68
340.402	47.24
340.614	50.04
340.827	49.04
341.039	28.15
341.252	11.14
341.465	15.74
341.677	27.9
341.89	3.27
342.102	24.7
342.315	26.03
342.527	39.52
342.74	8.34
342.952	16.09
343.165	-0.12
343.377	26.07
343.59	-37.45
343.802	-9.01
344.015	-11.7
344.227	-8.79
344.44	1.76
344.652	30.15
344.864	35.32
345.077	54.04
345.289	44.41
345.502	35.89
345.714	35.78
345.926	34.62
346.139	24.89
346.351	41.02
346.563	25.1
346.775	29.92
346.988	-1.7
347.2	7.92
347.412	-0.14
347.624	25.13
347.837	17.95
348.049	33.92
348.261	15.17
348.473	20.62
348.685	25.8
348.897	38.91
349.11	41.08
349.322	33.73
349.534	7.21
349.746	21.18
349.958	18.35
350.17	35.22
350.382	45.1
350.594	70.1
350.806	61.64
351.018	47.76
351.23	37.12
351.442	41.51
351.654	38.12
351.866	35.03
352.078	34.37
352.29	26.36
352.502	38.03
352.714	23.05
352.926	35.22
353.138	17.37
353.35	33.93
353.561	20.89
353.773	23.54
353.985	17.7
354.197	41.98
354.409	50.13
354.621	62.14
354.832	81.82
355.044	58.32
355.256	69.4
355.468	49.75
355.679	37.7
355.891	36.56
356.103	49.19
356.314	39.77
356.526	30.77
356.738	42.98
356.949	25.33
357.161	31.9
357.373	26.32
357.584	42.99
357.796	35.25
358.008	47.01
358.219	32.56
358.431	52.95
358.642	44.69
358.854	55.34
359.065	70.03
359.277	72.08
359.488	58.16
359.7	59.84
359.911	51.51
360.123	41.52
360.334	41.64
360.546	43.07
360.757	37.68
360.969	38.11
361.18	39.18
361.391	34.13
361.603	54.79
361.814	66.07
362.025	72.72
362.237	59.22
362.448	53.63
362.659	35.25
362.871	14.75
363.082	3.02
363.293	-21.7
363.504	-15.37
363.716	-4.03
363.927	33.93
364.138	31.32
364.349	34.13
364.56	40.71
364.772	39.18
364.983	19.21
365.194	34.98
365.405	43.96
365.616	46.14
365.827	46.56
366.038	52.88
366.25	46.51
366.461	43.21
366.672	40.18
366.883	42.09
367.094	31.51
367.305	43.67
367.516	54.53
367.727	51.56
367.938	50.39
368.149	46.22
368.36	34.5
368.571	5.16
368.781	-8.67
368.992	-12.24
369.203	4.86
369.414	-7.33
369.625	10.15
369.836	11.16
370.047	9.97
370.258	13.69
370.468	27.64
370.679	21.86
370.89	21.9
371.101	12.15
371.312	21.07
371.522	20.83
371.733	32.26
371.944	31.33
372.155	48.57
372.365	23.62
372.576	26.63
372.787	31.5
372.997	34.11
373.208	35.19
373.419	68.81
373.629	54.24
373.84	42.47
374.05	39.7
374.261	47.39
374.472	30.99
374.682	31.45
374.893	38.99
375.103	42.21
375.314	30.34
375.524	37.93
375.735	27.25
375.945	26.45
376.156	30.04
376.366	37.57
376.577	41.96
376.787	61.26
376.997	51.81
377.208	41.47
377.418	36.14
377.629	37.6
377.839	33.9
378.049	38.98
378.26	33.79
378.47	41.72
378.68	31.77
378.89	9.23
379.101	6.89
379.311	14.26
379.521	10.63
379.732	18.04
379.942	25.74
380.152	31.1
380.362	31.38
380.572	30.88
380.783	28.53
380.993	41.66
381.203	45.99
381.413	40.04
381.623	34.97
381.833	40.31
382.043	28.53
382.253	19.7
382.463	27.36
382.674	27.42
382.884	20.59
383.094	21.68
383.304	25.2
383.514	20.25
383.724	11.95
383.934	14.68
384.144	15.38
384.353	15.7
384.563	16.01
384.773	22.36
384.983	13.46
385.193	15.35
385.403	11.67
385.613	13.24
385.823	14.07
386.033	18.06
386.242	16.44
386.452	16.47
386.662	14.14
386.872	7.52
387.082	10.64
387.291	0.85
387.501	2.01
387.711	2.18
387.921	4.97
388.13	2.38
388.34	9.91
388.55	7.78
388.759	6.29
388.969	6.77
389.179	7.39
389.388	10.61
389.598	11.99
389.807	12.72
390.017	12.55
390.227	8
390.436	4
390.646	2.54
390.855	-0.7
391.065	-0.6
391.274	3.72
391.484	4.64
391.693	4.1
391.903	5.6
392.112	6.89
392.322	4.55
392.531	5.3
392.74	5.37
392.95	4.34
393.159	2.01
393.369	3.75
393.578	3.97
393.787	4.15
393.997	5.44
394.206	6.11
394.415	6.02
394.625	6.57
394.834	6.98
395.043	5.75
395.252	6.44
395.462	5.94
395.671	5.98
395.88	6.66
396.089	7.11
396.298	6.91
396.508	6.87
396.717	5.75
396.926	4.75
397.135	4.79
397.344	4.42
397.553	4.69
397.762	4.7
397.971	5.07
398.181	4.62
398.39	4.1
398.599	4.15
398.808	4.22
399.017	3.55
399.226	3.71
399.435	4.05
399.644	3.79
399.853	4.07
400.062	4.17
400.27	4.04
400.479	3.72
400.688	3.66
400.897	3.54
401.106	3.51
401.315	3.52
401.524	3.68
401.733	3.56
401.941	3.66
402.15	3.81
402.359	3.64
402.568	3.72
402.777	3.9
402.985	3.6
403.194	3.61
403.403	3.84
403.612	3.7
403.82	3.72
404.029	3.68
404.238	3.78
404.446	3.66
404.655	3.84
404.864	3.69
405.072	3.79
405.281	3.56
405.489	3.72
405.698	3.78
405.906	3.81
406.115	3.52
406.324	3.7
406.532	3.54
406.741	3.3
406.949	3.22
407.158	3.51
407.366	3.4
407.574	3.41
407.783	3.44
407.991	3.46
408.2	3.26
408.408	3.18
408.617	3.23
408.825	3.19
409.033	3.22
409.242	3.29
409.45	3.24
409.658	3.1
409.867	3.22
410.075	3.23
410.283	3.25
410.491	3.26
410.7	3.38
410.908	3.3
411.116	3.22
411.324	3.28
411.533	3.18
411.741	3.05
411.949	3.03
412.157	3.06
412.365	3.12
412.573	3.2
412.781	3.27
412.99	3.34
413.198	3.57
413.406	3.51
413.614	3.56
413.822	3.55
414.03	3.52
414.238	3.31
414.446	3.31
414.654	3.27
414.862	3.3
415.07	3.37
415.278	3.45
415.486	3.28
415.694	3.45
415.902	3.34
416.109	3.24
416.317	3.16
416.525	3.13
416.733	3.09
416.941	3.4
417.149	3.37
417.357	3.29
417.564	3.26
417.772	3.14
417.98	2.94
418.188	2.86
418.395	2.86
418.603	3.02
418.811	2.87
419.019	2.96
419.226	3.11
419.434	3.26
419.642	3.21
419.849	3.4
420.057	3.19
420.265	3.07
420.472	2.87
420.68	2.84
420.887	2.86
421.095	3.04
421.302	3.05
421.51	3.11
421.717	3.19
421.925	3.15
422.132	3.23
422.34	3.3
422.547	3.26
422.755	3.22
422.962	3.27
423.17	3.25
423.377	3.19
423.585	3.27
423.792	3.23
423.999	3.06
424.207	2.81
424.414	2.54
424.621	2.61
424.829	2.53
425.036	2.66
425.243	2.73
425.451	3.01
425.658	2.87
425.865	3.04
426.072	2.9
426.28	2.79
426.487	2.76
426.694	2.65
426.901	2.6
427.108	2.73
427.315	2.9
427.523	2.86
427.73	3.01
427.937	2.88
428.144	2.82
428.351	2.87
428.558	2.89
428.765	2.71
428.972	2.82
429.179	2.91
429.386	2.84
429.593	2.85
429.8	2.98
430.007	3
430.214	2.9
430.421	3.09
430.628	2.99
430.835	2.98
431.042	2.91
431.249	3.01
431.456	2.76
431.662	3.03
431.869	3.12
432.076	3.17
432.283	3.17
432.49	3.21
432.697	3.02
432.903	2.79
433.11	2.74
433.317	2.55
433.524	2.53
433.73	2.57
433.937	2.59
434.144	2.6
434.35	2.59
434.557	2.54
434.764	2.47
434.97	2.53
435.177	2.76
435.384	2.65
435.59	2.67
435.797	2.78
436.003	2.74
436.21	2.39
436.416	2.45
436.623	2.39
436.829	2.32
437.036	2.33
437.242	2.35
437.449	2.44
437.655	2.51
437.862	2.56
438.068	2.69
438.275	2.87
438.481	2.87
438.687	2.76
438.894	2.74
439.1	2.72
439.307	2.66
439.513	2.71
439.719	2.77
439.926	2.75
440.132	2.65
440.338	2.69
440.544	2.7
440.751	2.73
440.957	2.78
441.163	2.85
441.369	2.84
441.575	2.67
441.782	2.72
441.988	2.63
442.194	2.56
442.4	2.57
442.606	2.78
442.812	2.76
443.018	2.74
443.224	2.85
443.431	2.83
443.637	2.61
443.843	2.51
444.049	2.45
444.255	2.37
444.461	2.35
444.667	2.44
444.873	2.49
445.079	2.57
445.284	2.62
445.49	2.56
445.696	2.62
445.902	2.62
446.108	2.57
446.314	2.49
446.52	2.62
446.726	2.67
446.931	2.76
447.137	2.78
447.343	2.86
447.549	2.74
447.755	2.76
447.96	2.75
448.166	2.84
448.372	2.84
448.578	2.83
448.783	2.78
448.989	2.64
449.195	2.56
449.4	2.51
449.606	2.6
449.812	2.61
450.017	2.81
450.223	2.79
450.428	2.85
450.634	2.78
450.84	2.73
451.045	2.57
451.251	2.63
451.456	2.7
451.662	2.73
451.867	2.7
452.073	2.8
452.278	2.71
452.483	2.63
452.689	2.67
452.894	2.79
453.1	2.73
453.305	2.77
453.51	2.81
453.716	2.86
453.921	2.83
454.127	2.93
454.332	2.98
454.537	2.94
454.742	2.9
454.948	2.77
455.153	2.7
455.358	2.75
455.563	2.75
455.769	2.57
455.974	2.65
456.179	2.6
456.384	2.43
456.589	2.42
456.795	2.55
457	2.53
457.205	2.53
457.41	2.62
457.615	2.54
457.82	2.52
458.025	2.45
458.23	2.49
458.435	2.43
458.64	2.43
458.845	2.5
459.05	2.43
459.255	2.32
459.46	2.43
459.665	2.55
459.87	2.46
460.075	2.58
460.28	2.66
460.485	2.64
460.69	2.61
460.895	2.53
461.099	2.45
461.304	2.49
461.509	2.52
461.714	2.44
461.919	2.57
462.123	2.64
462.328	2.6
462.533	2.54
462.738	2.71
462.942	2.73
463.147	2.74
463.352	2.76
463.556	2.8
463.761	2.6
463.966	2.55
464.17	2.55
464.375	2.56
464.58	2.49
464.784	2.67
464.989	2.71
465.193	2.61
465.398	2.69
465.602	2.9
465.807	2.9
466.011	3
466.216	3.09
466.42	3.07
466.625	2.97
466.829	2.94
467.034	2.88
467.238	2.94
