Data from Ofav_SP_Phys_9DW32_Reflection_3.txt Node
Date: Thu Aug 05 17:51:44 EDT 2021
User: Adam
Spectrometer: FLMT01687
Trigger mode: 0
Integration Time (sec): 8.000000E-1
Scans to average: 2
Electric dark correction enabled: true
Nonlinearity correction enabled: false
Boxcar width: 2
XAxis mode: Wavelengths
Number of Pixels in Spectrum: 3648
>>>>>Begin Spectral Data<<<<<
179.494	649.42
179.716	755.51
179.937	648.36
180.158	763.13
180.38	1997.03
180.601	-996.28
180.823	-188.07
181.044	-47.26
181.265	-72.08
181.486	32.18
181.708	-432.89
181.929	74.28
182.15	-194.69
182.372	-15.97
182.593	5.83
182.814	-70.83
183.035	-65.36
183.257	77.94
183.478	-196.27
183.699	372.95
183.92	65.93
184.141	181.61
184.363	-244.86
184.584	239.46
184.805	157.13
185.026	106.85
185.247	79.43
185.468	95.29
185.689	68.06
185.91	53.78
186.132	-2.17
186.353	12.24
186.574	-80.29
186.795	-70.86
187.016	-49.97
187.237	-0.63
187.458	-71.61
187.679	-14.96
187.9	-12.33
188.121	-41.03
188.342	-25.69
188.563	11.01
188.784	28.15
189.005	15.77
189.226	101.41
189.447	85.39
189.667	99.31
189.888	287.98
190.109	177.33
190.33	131.1
190.551	117.36
190.772	109.78
190.993	74.25
191.214	69.74
191.434	39.16
191.655	13.9
191.876	37.73
192.097	32.25
192.318	20.06
192.538	-0.77
192.759	114.57
192.98	51.48
193.201	3.04
193.421	-53.06
193.642	-20.17
193.863	-144.33
194.083	-64.56
194.304	-32.88
194.525	-28.23
194.745	-2.68
194.966	40.67
195.187	34.09
195.407	26.23
195.628	-0.79
195.848	-14.68
196.069	10.71
196.29	-7.71
196.51	51.06
196.731	58.25
196.951	77.61
197.172	77.44
197.392	84.76
197.613	6.95
197.833	15.99
198.054	-24.06
198.274	-23.19
198.495	-8.09
198.715	50.34
198.936	38.31
199.156	84.86
199.377	62.03
199.597	46.91
199.817	44.43
200.038	37.73
200.258	27.76
200.479	27.03
200.699	15.76
200.919	1.85
201.14	-20.85
201.36	-64.16
201.58	-32.85
201.801	-87.56
202.021	-51.75
202.241	18.37
202.461	-4.5
202.682	-37.3
202.902	-29.66
203.122	-55.94
203.342	2.02
203.563	22.8
203.783	59.52
204.003	39.98
204.223	40.55
204.443	35.58
204.663	46.4
204.884	29.63
205.104	47.2
205.324	51.34
205.544	49.99
205.764	39.41
205.984	43.63
206.204	35.78
206.424	-12.96
206.644	-29.74
206.864	-28.18
207.084	-52.29
207.304	-5.07
207.525	8.43
207.745	17.5
207.964	29.75
208.184	35.83
208.404	-21.42
208.624	-30.88
208.844	-6.17
209.064	-4.14
209.284	21.16
209.504	2.29
209.724	27.06
209.944	-20.8
210.164	-42.51
210.384	-0.07
210.604	7.07
210.823	22.21
211.043	37.15
211.263	50.85
211.483	31.78
211.703	52.12
211.922	82.59
212.142	82.58
212.362	73.74
212.582	87.17
212.801	64.44
213.021	30.45
213.241	17.29
213.461	-5.52
213.68	6.91
213.9	-24.27
214.12	-32.09
214.339	-26.9
214.559	22.88
214.779	-13.84
214.998	28.26
215.218	36.14
215.438	38.98
215.657	61.15
215.877	114.25
216.096	102.31
216.316	65.23
216.535	45.42
216.755	-90.84
216.974	-164.03
217.194	31.61
217.413	53.2
217.633	67.91
217.852	88.6
218.072	74.21
218.291	56.42
218.511	59.6
218.73	28.14
218.95	47.35
219.169	35.7
219.389	72.9
219.608	28.46
219.827	72.43
220.047	36.47
220.266	25.08
220.485	-25.6
220.705	0.77
220.924	-25.7
221.143	-7.26
221.363	17.46
221.582	19.17
221.801	-20.32
222.021	2.16
222.24	19.82
222.459	6.3
222.678	33.88
222.897	66.89
223.117	32.86
223.336	8.19
223.555	48.95
223.774	8.67
223.993	18.71
224.213	56.07
224.432	66.91
224.651	37.4
224.87	57.86
225.089	64.45
225.308	44.01
225.527	46.47
225.746	8.65
225.965	-0.52
226.184	-25.78
226.404	-8.82
226.623	-23.74
226.842	10.08
227.061	9.91
227.28	9.27
227.499	19
227.718	7.83
227.936	7.5
228.155	21.42
228.374	24.97
228.593	23.09
228.812	30.92
229.031	43.42
229.25	37.61
229.469	52.81
229.688	46.2
229.907	46.61
230.125	18.82
230.344	37.57
230.563	30.74
230.782	62.75
231.001	85.12
231.22	95.29
231.438	65.11
231.657	28.57
231.876	-8.38
232.095	-14.67
232.313	-39.24
232.532	-35.29
232.751	2.57
232.969	11.84
233.188	20.01
233.407	13.68
233.625	56.98
233.844	33.73
234.063	61.97
234.281	69.87
234.5	72.7
234.719	104.2
234.937	66.68
235.156	36.76
235.374	25.16
235.593	13.73
235.811	-20.12
236.03	11.68
236.249	17.86
236.467	2.7
236.686	10.79
236.904	26.06
237.123	30.88
237.341	44.61
237.559	51.69
237.778	48.82
237.996	56.29
238.215	55.38
238.433	62.3
238.652	68.11
238.87	53.76
239.088	31.88
239.307	40.7
239.525	18.92
239.743	-5.33
239.962	-6.99
240.18	-44.48
240.398	-83.11
240.617	-79.76
240.835	-30.8
241.053	-15.73
241.271	-0.07
241.49	22.77
241.708	41.53
241.926	37.06
242.144	29.32
242.363	105.5
242.581	120.03
242.799	63.7
243.017	42.75
243.235	66.32
243.453	44.29
243.672	41.7
243.89	55.19
244.108	159.3
244.326	111.71
244.544	114.69
244.762	56.61
244.98	82.28
245.198	48.33
245.416	48.42
245.634	28.08
245.852	57.24
246.07	43.28
246.288	11.84
246.506	-15.97
246.724	-12.85
246.942	-17.56
247.16	-44.85
247.378	-60.07
247.596	-8
247.814	27.38
248.032	-17.04
248.25	-39.35
248.468	-29.65
248.685	-19.5
248.903	-28.44
249.121	-12.31
249.339	37.86
249.557	39.82
249.775	28.54
249.992	12.34
250.21	27.92
250.428	-15.27
250.646	-8.45
250.863	-11.38
251.081	2.09
251.299	1.07
251.517	41.26
251.734	31.67
251.952	15.58
252.17	35.51
252.387	29.35
252.605	21.48
252.823	23.83
253.04	26.17
253.258	41.2
253.475	35.35
253.693	46.84
253.911	76.13
254.128	86.35
254.346	69.65
254.563	74.42
254.781	58.55
254.998	40.83
255.216	9.78
255.433	-5.31
255.651	1.04
255.868	-1.08
256.086	-26.88
256.303	-18.4
256.521	-32.69
256.738	-66.17
256.956	-117.39
257.173	16.19
257.39	74.46
257.608	65.01
257.825	47.7
258.043	27.76
258.26	21.7
258.477	6.33
258.695	15.37
258.912	25.35
259.129	49.58
259.346	46.84
259.564	48.63
259.781	53.66
259.998	51.97
260.216	45.07
260.433	39.32
260.65	13.97
260.867	-15.75
261.084	-7.55
261.302	14.2
261.519	29.06
261.736	57.32
261.953	46.38
262.17	41.53
262.387	67.83
262.604	73.35
262.822	78.94
263.039	96
263.256	120.56
263.473	77.42
263.69	67.2
263.907	52.59
264.124	44.28
264.341	19.07
264.558	14.65
264.775	-6.97
264.992	0.85
265.209	6.15
265.426	13.13
265.643	9.88
265.86	9.67
266.077	12.54
266.294	17.21
266.51	4.49
266.727	10.06
266.944	49
267.161	56.33
267.378	58.11
267.595	69.26
267.812	66.51
268.028	23.62
268.245	26.03
268.462	16.63
268.679	13.96
268.896	34.43
269.112	54.03
269.329	71.48
269.546	48.29
269.763	45.92
269.979	36.63
270.196	47.49
270.413	40.05
270.629	69.84
270.846	54.61
271.063	36.62
271.279	26.07
271.496	7.74
271.712	-78.47
271.929	-69.19
272.146	-17.4
272.362	-57.24
272.579	-49.6
272.795	-8.13
273.012	-3.52
273.228	-7.86
273.445	-2.95
273.661	47.91
273.878	14.77
274.094	24.66
274.311	25.25
274.527	13.8
274.744	-39.55
274.96	-0.34
275.177	9.7
275.393	2.88
275.609	33.09
275.826	20.61
276.042	21.65
276.259	26.35
276.475	29.51
276.691	6.15
276.908	12.65
277.124	26.98
277.34	19.95
277.557	-4.52
277.773	21.68
277.989	38.41
278.205	42.35
278.422	31.17
278.638	40.95
278.854	39.41
279.07	35.23
279.286	-6.28
279.503	-6.21
279.719	-16.51
279.935	-0.08
280.151	30.69
280.367	66.33
280.583	41.9
280.799	61.21
281.016	63.45
281.232	64.18
281.448	75.26
281.664	78.99
281.88	67.94
282.096	71.17
282.312	67.55
282.528	65.99
282.744	55.43
282.96	63.72
283.176	37.79
283.392	35.44
283.608	38.71
283.824	64.3
284.04	57.46
284.256	59.71
284.471	52.81
284.687	51.15
284.903	39.51
285.119	63.45
285.335	44.84
285.551	32.39
285.767	10.74
285.982	-11.1
286.198	-125.29
286.414	-71.14
286.63	-20.99
286.846	0.5
287.061	10.64
287.277	31.23
287.493	71.01
287.709	39.63
287.924	38.26
288.14	43.76
288.356	48.85
288.571	51.62
288.787	68.38
289.003	85.74
289.218	111.3
289.434	92.23
289.65	49.57
289.865	19.37
290.081	14.25
290.296	3.47
290.512	-11.09
290.727	-11.16
290.943	-6
291.159	-5.56
291.374	11.51
291.59	10.45
291.805	21.67
292.021	52.8
292.236	76.51
292.451	33.42
292.667	63.51
292.882	18.58
293.098	2.14
293.313	5.22
293.529	40.92
293.744	15.54
293.959	7.43
294.175	-1.75
294.39	-11.57
294.605	-25.28
294.821	-2.85
295.036	1.39
295.251	1.96
295.467	25.58
295.682	34.61
295.897	48.09
296.112	53.29
296.328	64.44
296.543	55.31
296.758	24.42
296.973	9.42
297.188	28.13
297.404	22.15
297.619	15.14
297.834	16.66
298.049	-19.09
298.264	-35.5
298.479	-36.92
298.694	-4.54
298.909	33.3
299.125	51.36
299.34	35.95
299.555	19.17
299.77	14.19
299.985	4.52
300.2	18.26
300.415	27.6
300.63	32.49
300.845	25.13
301.06	38.41
301.275	26.62
301.49	45.48
301.704	78.41
301.919	60
302.134	49.48
302.349	63.02
302.564	39.36
302.779	35.32
302.994	44.82
303.209	42.93
303.423	12.43
303.638	-2.16
303.853	-2.61
304.068	-10.46
304.283	-20.46
304.497	-6.73
304.712	-6.34
304.927	-9.63
305.142	-12.96
305.356	-5.15
305.571	23.08
305.786	36.08
306	44.4
306.215	56.76
306.43	78.24
306.644	59.76
306.859	65.69
307.074	69.37
307.288	72
307.503	55.4
307.717	61.31
307.932	26.79
308.147	21.26
308.361	19.73
308.576	-1.88
308.79	-24.69
309.005	17.27
309.219	-0.25
309.434	-38.38
309.648	-30.74
309.863	-19.54
310.077	-98.97
310.292	-88.87
310.506	-29.33
310.72	5.59
310.935	-3.04
311.149	8.54
311.364	27.7
311.578	27.48
311.792	38.35
312.007	50.44
312.221	41.65
312.435	63.18
312.649	41.65
312.864	-4.96
313.078	-5.36
313.292	38.78
313.507	27.79
313.721	40.73
313.935	55.18
314.149	61.92
314.363	25.57
314.578	27.17
314.792	28.39
315.006	38
315.22	43.6
315.434	29.38
315.648	31.28
315.862	19.43
316.077	12.03
316.291	12.7
316.505	33.84
316.719	48.54
316.933	51.48
317.147	33.97
317.361	31.43
317.575	26.62
317.789	13.01
318.003	-2.62
318.217	49.99
318.431	73.89
318.645	81.69
318.859	71.12
319.073	43.6
319.287	-7.66
319.5	1.37
319.714	-7.6
319.928	24.25
320.142	48.26
320.356	56.01
320.57	66
320.784	69.71
320.997	43.39
321.211	49.76
321.425	38.41
321.639	-29.23
321.853	-45.62
322.066	-24.22
322.28	-36.4
322.494	-32.82
322.707	7.26
322.921	27.16
323.135	29.97
323.349	42.24
323.562	58.02
323.776	53.07
323.989	16.97
324.203	-1.79
324.417	13.6
324.63	-4.54
324.844	-27.63
325.057	-5.81
325.271	-19.16
325.485	-19.28
325.698	-4.1
325.912	12.51
326.125	32.64
326.339	64.66
326.552	61.14
326.766	50.1
326.979	57.14
327.193	42.87
327.406	21.78
327.619	23.51
327.833	12.99
328.046	25.39
328.26	15.33
328.473	-6.36
328.686	-8.19
328.9	17.3
329.113	7.5
329.326	5.51
329.54	33.31
329.753	54.2
329.966	61.8
330.179	59.18
330.393	78.63
330.606	81.04
330.819	68.95
331.032	86.73
331.246	123.46
331.459	100.52
331.672	99.51
331.885	88.15
332.098	71.97
332.311	56.71
332.525	49.34
332.738	38.18
332.951	16.19
333.164	8.45
333.377	-3.75
333.59	-4.87
333.803	-16.28
334.016	-13.49
334.229	-20.45
334.442	-4.43
334.655	19.67
334.868	37.13
335.081	50.53
335.294	68.23
335.507	60.03
335.72	63.32
335.933	56.44
336.146	56.51
336.359	58.12
336.572	55.37
336.785	18.03
336.997	19.07
337.21	23.7
337.423	34.78
337.636	55.76
337.849	106.25
338.062	85.93
338.274	58.24
338.487	24.51
338.7	19.42
338.913	-5.37
339.125	23.15
339.338	33.73
339.551	29.52
339.763	59.52
339.976	69.95
340.189	78
340.402	60.11
340.614	50.36
340.827	49.84
341.039	26.71
341.252	9.48
341.465	23.16
341.677	28.1
341.89	-10.6
342.102	22.76
342.315	14.16
342.527	32.1
342.74	38.02
342.952	45.77
343.165	38.8
343.377	42.91
343.59	2.3
343.802	11.19
344.015	2.6
344.227	-3.69
344.44	20.82
344.652	33.51
344.864	36.25
345.077	64.22
345.289	57.18
345.502	39.36
345.714	33.69
345.926	46.89
346.139	35.95
346.351	45.67
346.563	41.11
346.775	58.04
346.988	41.4
347.2	24.96
347.412	28.72
347.624	51.94
347.837	27.28
348.049	37.4
348.261	22.94
348.473	29.13
348.685	30.14
348.897	47.29
349.11	30.76
349.322	34.63
349.534	26.25
349.746	36.16
349.958	21.24
350.17	26.34
350.382	32.71
350.594	34.3
350.806	24.45
351.018	33.22
351.23	43.67
351.442	45.46
351.654	31.03
351.866	31.58
352.078	19.02
352.29	6.15
352.502	21.54
352.714	16.57
352.926	28.7
353.138	35.52
353.35	51.06
353.561	50.06
353.773	60.31
353.985	66.31
354.197	57.69
354.409	44.33
354.621	39.04
354.832	49.99
355.044	36.8
355.256	43.93
355.468	44.3
355.679	61.79
355.891	51.39
356.103	46.81
356.314	58.01
356.526	49.74
356.738	30.19
356.949	29.99
357.161	49.05
357.373	36.59
357.584	57.82
357.796	59.45
358.008	71.5
358.219	55.29
358.431	41.81
358.642	35.97
358.854	37.12
359.065	39.76
359.277	37.05
359.488	29.69
359.7	18.63
359.911	9.93
360.123	14.43
360.334	19.68
360.546	17.35
360.757	35.44
360.969	32.93
361.18	27.86
361.391	23.41
361.603	41.1
361.814	6.73
362.025	28.55
362.237	27.43
362.448	27.14
362.659	30.75
362.871	37.54
363.082	23.24
363.293	14.11
363.504	24.48
363.716	23.38
363.927	51.19
364.138	57.89
364.349	42.56
364.56	37.15
364.772	27.97
364.983	20.6
365.194	27.17
365.405	50.45
365.616	37.28
365.827	39.43
366.038	35.45
366.25	32.56
366.461	28.94
366.672	49.04
366.883	45.08
367.094	39.99
367.305	46.57
367.516	57.37
367.727	48.4
367.938	52.63
368.149	38.59
368.36	50.66
368.571	50.72
368.781	46.08
368.992	25.12
369.203	49.05
369.414	27.2
369.625	17.71
369.836	14.58
370.047	22.18
370.258	-2.42
370.468	1.52
370.679	-2.41
370.89	3.09
371.101	-2.99
371.312	20.66
371.522	16.62
371.733	32.59
371.944	28.7
372.155	44.75
372.365	19.44
372.576	33.05
372.787	34.91
372.997	51.41
373.208	52
373.419	87.69
373.629	73.27
373.84	51.72
374.05	27.9
374.261	20.34
374.472	17.64
374.682	-0.75
374.893	26.37
375.103	32.26
375.314	39.23
375.524	42.71
375.735	59.27
375.945	60.58
376.156	57.71
376.366	50.96
376.577	60.2
376.787	48.45
376.997	39.62
377.208	43.46
377.418	40.2
377.629	31.29
377.839	47.79
378.049	54.36
378.26	45.62
378.47	53.77
378.68	60.81
378.89	51.1
379.101	37.69
379.311	48.76
379.521	44.86
379.732	35.29
379.942	41.92
380.152	44.44
380.362	43.03
380.572	49.99
380.783	46.08
380.993	32.29
381.203	35.9
381.413	29.09
381.623	26.59
381.833	32.98
382.043	39.59
382.253	36.78
382.463	48.29
382.674	45.02
382.884	38.99
383.094	28.74
383.304	23.83
383.514	13.04
383.724	6.68
383.934	18.08
384.144	26.75
384.353	24.11
384.563	24.29
384.773	25.78
384.983	12.39
385.193	13.1
385.403	17.24
385.613	20.72
385.823	22.6
386.033	24.32
386.242	22.9
386.452	26.09
386.662	25.43
386.872	23.43
387.082	25.54
387.291	11.67
387.501	9.11
387.711	6.66
387.921	6.32
388.13	5.56
388.34	15.71
388.55	13.06
388.759	9.07
388.969	10.45
389.179	8.11
389.388	7.02
389.598	9.94
389.807	15.2
390.017	15.83
390.227	17.41
390.436	16.37
390.646	12
390.855	9.28
391.065	8.01
391.274	6.21
391.484	7.36
391.693	8.5
391.903	9.42
392.112	10.55
392.322	8.33
392.531	8.08
392.74	9
392.95	7.11
393.159	6.73
393.369	8.49
393.578	9.14
393.787	9.38
393.997	11.13
394.206	11.25
394.415	12.63
394.625	13.03
394.834	11.97
395.043	11.32
395.252	11.53
395.462	11.38
395.671	10.59
395.88	11.64
396.089	11.62
396.298	11.84
396.508	10.67
396.717	10.1
396.926	9.46
397.135	8.95
397.344	8.2
397.553	9.23
397.762	9.58
397.971	9.7
398.181	10.09
398.39	9.64
398.599	9.41
398.808	9.42
399.017	9.57
399.226	9.45
399.435	9.79
399.644	9.88
399.853	10.02
400.062	10.01
400.27	10.11
400.479	10.16
400.688	10.02
400.897	10.03
401.106	9.75
401.315	9.49
401.524	9.54
401.733	9.43
401.941	9.38
402.15	9.39
402.359	9.43
402.568	9.26
402.777	9.39
402.985	9.04
403.194	9.22
403.403	9.27
403.612	9.17
403.82	8.97
404.029	8.99
404.238	8.98
404.446	8.9
404.655	9.15
404.864	9.15
405.072	9.15
405.281	8.97
405.489	8.99
405.698	8.76
405.906	8.72
406.115	8.72
406.324	8.83
406.532	8.79
406.741	8.84
406.949	8.72
407.158	8.86
407.366	8.79
407.574	8.91
407.783	8.8
407.991	8.74
408.2	8.55
408.408	8.53
408.617	8.57
408.825	8.66
409.033	8.81
409.242	8.82
409.45	8.67
409.658	8.43
409.867	8.4
410.075	8.46
410.283	8.44
410.491	8.44
410.7	8.56
410.908	8.5
411.116	8.36
411.324	8.4
411.533	8.39
411.741	8.25
411.949	8.19
412.157	8.24
412.365	8.41
412.573	8.3
412.781	8.38
412.99	8.53
413.198	8.52
413.406	8.45
413.614	8.64
413.822	8.62
414.03	8.74
414.238	8.64
414.446	8.59
414.654	8.6
414.862	8.54
415.07	8.4
415.278	8.55
415.486	8.44
415.694	8.48
415.902	8.46
416.109	8.3
416.317	8.26
416.525	8.27
416.733	8.12
416.941	8.24
417.149	8.33
417.357	8.25
417.564	8.05
417.772	8.01
417.98	7.95
418.188	7.8
418.395	7.76
418.603	8
418.811	7.93
419.019	7.83
419.226	8.07
419.434	8.19
419.642	8.05
419.849	8.12
420.057	8.08
420.265	7.98
420.472	7.6
420.68	7.6
420.887	7.64
421.095	7.9
421.302	7.8
421.51	7.95
421.717	8
421.925	7.86
422.132	7.76
422.34	7.71
422.547	7.7
422.755	7.73
422.962	7.84
423.17	7.78
423.377	7.8
423.585	7.89
423.792	7.65
423.999	7.62
424.207	7.36
424.414	7.13
424.621	7.1
424.829	7.21
425.036	7.28
425.243	7.62
425.451	7.93
425.658	7.99
425.865	7.98
426.072	7.77
426.28	7.47
426.487	7.35
426.694	7.25
426.901	7.35
427.108	7.39
427.315	7.62
427.523	7.61
427.73	7.54
427.937	7.43
428.144	7.67
428.351	7.67
428.558	7.71
428.765	7.74
428.972	7.78
429.179	7.52
429.386	7.43
429.593	7.52
429.8	7.62
430.007	7.71
430.214	7.8
430.421	7.96
430.628	7.83
430.835	7.84
431.042	7.86
431.249	7.9
431.456	7.84
431.662	8.02
431.869	8.14
432.076	8.14
432.283	8.23
432.49	8.12
432.697	8.09
432.903	7.74
433.11	7.53
433.317	7.25
433.524	7.36
433.73	7.34
433.937	7.43
434.144	7.69
434.35	7.69
434.557	7.6
434.764	7.56
434.97	7.6
435.177	7.51
435.384	7.46
435.59	7.43
435.797	7.41
436.003	7.41
436.21	7.16
436.416	7.17
436.623	7.17
436.829	7.06
437.036	7.05
437.242	7.23
437.449	7.33
437.655	7.47
437.862	7.73
438.068	7.93
438.275	8.1
438.481	8.09
438.687	7.92
438.894	8
439.1	7.8
439.307	7.76
439.513	7.88
439.719	7.91
439.926	7.78
440.132	7.87
440.338	7.89
440.544	7.87
440.751	7.94
440.957	7.8
441.163	7.66
441.369	7.57
441.575	7.33
441.782	7.37
441.988	7.37
442.194	7.29
442.4	7.3
442.606	7.51
442.812	7.49
443.018	7.47
443.224	7.6
443.431	7.63
443.637	7.49
443.843	7.44
444.049	7.45
444.255	7.48
444.461	7.49
444.667	7.63
444.873	7.56
445.079	7.57
445.284	7.67
445.49	7.53
445.696	7.56
445.902	7.63
446.108	7.68
446.314	7.54
446.52	7.67
446.726	7.65
446.931	7.68
447.137	7.7
447.343	7.83
447.549	7.82
447.755	7.85
447.96	7.84
448.166	7.89
448.372	7.81
448.578	7.82
448.783	7.9
448.989	7.91
449.195	7.97
449.4	8.07
449.606	8.16
449.812	8.06
450.017	8.2
450.223	8.12
450.428	8.08
450.634	7.97
450.84	7.91
451.045	7.7
451.251	7.7
451.456	7.69
451.662	7.71
451.867	7.85
452.073	8.08
452.278	8.07
452.483	8.07
452.689	8.04
452.894	8.03
453.1	8.03
453.305	8.1
453.51	8.23
453.716	8.33
453.921	8.31
454.127	8.27
454.332	8.19
454.537	8.03
454.742	8
454.948	7.98
455.153	7.97
455.358	7.98
455.563	8.13
455.769	8
455.974	8
456.179	7.86
456.384	7.72
456.589	7.75
456.795	7.84
457	7.85
457.205	7.99
457.41	8.24
457.615	8.13
457.82	8.17
458.025	8.17
458.23	8.11
458.435	7.98
458.64	7.98
458.845	8.13
459.05	8.12
459.255	8.15
459.46	8.27
459.665	8.44
459.87	8.33
460.075	8.39
460.28	8.51
460.485	8.53
460.69	8.4
460.895	8.3
461.099	8.28
461.304	8.18
461.509	8.25
461.714	8.21
461.919	8.33
462.123	8.25
462.328	8.31
462.533	8.32
462.738	8.48
462.942	8.42
463.147	8.6
463.352	8.57
463.556	8.57
463.761	8.52
463.966	8.58
464.17	8.61
464.375	8.66
464.58	8.47
464.784	8.53
464.989	8.61
465.193	8.57
465.398	8.63
465.602	8.95
465.807	9.06
466.011	9.07
466.216	9.05
466.42	9.13
466.625	9.13
466.829	9.07
467.034	9.04
