Data from Ofav_SP_Phys_2AZ7_Reflection_3.txt Node
Date: Thu Aug 05 17:44:42 EDT 2021
User: Adam
Spectrometer: FLMT01687
Trigger mode: 0
Integration Time (sec): 8.000000E-1
Scans to average: 2
Electric dark correction enabled: true
Nonlinearity correction enabled: false
Boxcar width: 2
XAxis mode: Wavelengths
Number of Pixels in Spectrum: 3648
>>>>>Begin Spectral Data<<<<<
179.494	327.29
179.716	343.91
179.937	267.37
180.158	254.25
180.38	482.15
180.601	87.87
180.823	41.18
181.044	-91.96
181.265	-59.32
181.486	-14.18
181.708	407.38
181.929	-104.61
182.15	-677.96
182.372	-4.61
182.593	35.06
182.814	45.11
183.035	33.45
183.257	570.46
183.478	-730.51
183.699	658.66
183.92	141.48
184.141	-853.36
184.363	594.05
184.584	13.82
184.805	67.64
185.026	35.68
185.247	49.14
185.468	61.13
185.689	82.67
185.91	46.76
186.132	26.29
186.353	49.6
186.574	-38.62
186.795	-38.94
187.016	-2.18
187.237	36.28
187.458	-25.68
187.679	56.46
187.9	46.88
188.121	23.26
188.342	-0.99
188.563	7.96
188.784	0.18
189.005	-36.25
189.226	-2.04
189.447	19.61
189.667	31.6
189.888	152.32
190.109	143.9
190.33	126.97
190.551	91.63
190.772	119.37
190.993	60.89
191.214	49.31
191.434	38.61
191.655	38.53
191.876	41.25
192.097	47.5
192.318	53.26
192.538	105.47
192.759	111.6
192.98	60.88
193.201	118.81
193.421	21.14
193.642	9.23
193.863	-11.04
194.083	9.74
194.304	25.65
194.525	25.43
194.745	23.11
194.966	45.74
195.187	64.16
195.407	42.52
195.628	36.12
195.848	43.59
196.069	25.07
196.29	-9.03
196.51	36.52
196.731	48.31
196.951	63.89
197.172	61.91
197.392	70.19
197.613	45.79
197.833	70.28
198.054	81.87
198.274	62.03
198.495	84.85
198.715	92.07
198.936	61.43
199.156	60.58
199.377	64.35
199.597	64.16
199.817	39.46
200.038	30.72
200.258	13.39
200.479	1.36
200.699	-16.14
200.919	-18.3
201.14	-25.25
201.36	-24.88
201.58	18.06
201.801	-68.07
202.021	-47.48
202.241	-4.76
202.461	-23.63
202.682	-50.97
202.902	-29.93
203.122	-14.39
203.342	16.65
203.563	-0.35
203.783	12.78
204.003	39.6
204.223	35.55
204.443	16.09
204.663	17.91
204.884	22.81
205.104	15.37
205.324	26.47
205.544	48.11
205.764	33.02
205.984	7.57
206.204	-14.79
206.424	-24.98
206.644	-16.13
206.864	7.24
207.084	16.84
207.304	83.98
207.525	132.65
207.745	92.39
207.964	100.88
208.184	94.08
208.404	45.63
208.624	33.17
208.844	2.22
209.064	7.34
209.284	16.36
209.504	-2.23
209.724	-3.61
209.944	-1.44
210.164	16.49
210.384	41.88
210.604	33.22
210.823	42.83
211.043	49.62
211.263	30.01
211.483	16.38
211.703	39.06
211.922	32.38
212.142	50.21
212.362	48.77
212.582	136.07
212.801	69.95
213.021	56.61
213.241	5.5
213.461	17.41
213.68	-1.77
213.9	-12.81
214.12	-3.65
214.339	5.37
214.559	2.68
214.779	-25.24
214.998	9.49
215.218	-24.26
215.438	39.8
215.657	82.72
215.877	98.61
216.096	76.1
216.316	104.88
216.535	107.8
216.755	37.38
216.974	259.43
217.194	97.06
217.413	69.94
217.633	45.58
217.852	56.39
218.072	40.84
218.291	51.75
218.511	63.76
218.73	62.02
218.95	73.98
219.169	83.3
219.389	109
219.608	92.07
219.827	102.71
220.047	107.68
220.266	75.91
220.485	61.83
220.705	55.61
220.924	32.74
221.143	-3.13
221.363	-10.71
221.582	-10.71
221.801	-53.14
222.021	-2.67
222.24	-17.91
222.459	-99.41
222.678	-52.93
222.897	7.29
223.117	-44.77
223.336	-13.4
223.555	10.82
223.774	3.3
223.993	-30.54
224.213	5.37
224.432	14.96
224.651	36.47
224.87	25.47
225.089	38.77
225.308	29.03
225.527	32.89
225.746	15.67
225.965	24.59
226.184	32.75
226.404	48.53
226.623	28.65
226.842	22.99
227.061	35
227.28	28.5
227.499	24.48
227.718	14.98
227.936	29.14
228.155	25.57
228.374	19.03
228.593	21.2
228.812	41.1
229.031	37.15
229.25	24.85
229.469	42.59
229.688	43.33
229.907	40.13
230.125	6.92
230.344	27.16
230.563	8.92
230.782	-74.95
231.001	-105.76
231.22	28.77
231.438	1.15
231.657	22.86
231.876	23.93
232.095	21.89
232.313	13.08
232.532	7.46
232.751	-3.84
232.969	7.88
233.188	-1.83
233.407	-6.03
233.625	41.32
233.844	19.51
234.063	30.01
234.281	39.6
234.5	22.91
234.719	-17.16
234.937	-14.85
235.156	0.13
235.374	-3.38
235.593	-24.83
235.811	-34.17
236.03	-12.75
236.249	5.02
236.467	-2.66
236.686	2.77
236.904	7.37
237.123	-21.03
237.341	-3.02
237.559	1.32
237.778	-3.42
237.996	2.35
238.215	9.77
238.433	17.12
238.652	18.43
238.87	29.87
239.088	30.24
239.307	33.83
239.525	16.02
239.743	23.23
239.962	42.97
240.18	22.54
240.398	-4.12
240.617	-23.04
240.835	11.48
241.053	14
241.271	16.15
241.49	54.83
241.708	66.11
241.926	8.44
242.144	-35.22
242.363	-60.98
242.581	-108.08
242.799	-167.76
243.017	-97.42
243.235	-106.54
243.453	-21.44
243.672	-17.92
243.89	11.64
244.108	10.84
244.326	49.32
244.544	7.06
244.762	7.89
244.98	19.97
245.198	17.26
245.416	41.25
245.634	69.77
245.852	99.23
246.07	91.7
246.288	58.17
246.506	46.09
246.724	36.3
246.942	33.11
247.16	24.39
247.378	98.59
247.596	17.01
247.814	29.01
248.032	14.04
248.25	-11.89
248.468	-10.81
248.685	15.89
248.903	9.97
249.121	-4.61
249.339	15.64
249.557	29.69
249.775	23.05
249.992	20.71
250.21	32.83
250.428	3.98
250.646	-6.15
250.863	-1.54
251.081	-2.85
251.299	-11.26
251.517	38.1
251.734	37.78
251.952	10.46
252.17	29.35
252.387	38.97
252.605	35.35
252.823	40.13
253.04	43.14
253.258	40.35
253.475	41.03
253.693	18.38
253.911	28.45
254.128	32.97
254.346	35.07
254.563	17.93
254.781	29.58
254.998	26.64
255.216	10.91
255.433	10.6
255.651	18.04
255.868	-7.03
256.086	-41.38
256.303	-33.52
256.521	-79.08
256.738	-97.84
256.956	-160.2
257.173	-14.26
257.39	25.41
257.608	30.17
257.825	39.56
258.043	48.99
258.26	39.35
258.477	34.56
258.695	32.75
258.912	41.78
259.129	28.14
259.346	17.85
259.564	19.3
259.781	29.26
259.998	17.47
260.216	26.11
260.433	52.07
260.65	37.98
260.867	2.12
261.084	34.09
261.302	42.63
261.519	26.11
261.736	58.69
261.953	63.88
262.17	63.36
262.387	87.82
262.604	99.96
262.822	97.22
263.039	105.63
263.256	83.66
263.473	49.33
263.69	52.13
263.907	26.52
264.124	-1.48
264.341	8.99
264.558	-5.84
264.775	-15.92
264.992	19.66
265.209	27.75
265.426	28.13
265.643	25.9
265.86	15.24
266.077	2.84
266.294	-18.95
266.51	-30.46
266.727	-24.33
266.944	-15.75
267.161	-23.87
267.378	-10.6
267.595	-3.57
267.812	-8.7
268.028	-10.35
268.245	7.69
268.462	17.9
268.679	10.19
268.896	34.76
269.112	15.82
269.329	34.02
269.546	32.35
269.763	41.88
269.979	41.73
270.196	87.28
270.413	63.7
270.629	75.37
270.846	61.76
271.063	72.7
271.279	24.23
271.496	37.47
271.712	-1.31
271.929	-8.55
272.146	-26.79
272.362	-55.52
272.579	-44.99
272.795	-36.81
273.012	-11.27
273.228	-23.8
273.445	1.65
273.661	23.96
273.878	26.55
274.094	15.28
274.311	9.99
274.527	-2.97
274.744	-17.15
274.96	-0.16
275.177	-9.19
275.393	-17.29
275.609	-16.59
275.826	-14.33
276.042	-9.87
276.259	15.46
276.475	33.37
276.691	43.42
276.908	41.07
277.124	42.23
277.34	39.88
277.557	16.12
277.773	22.1
277.989	23.28
278.205	-0.96
278.422	23.33
278.638	50.93
278.854	60.7
279.07	50.92
279.286	56.35
279.503	39.79
279.719	30.61
279.935	22.02
280.151	48.38
280.367	58.72
280.583	56.22
280.799	79.24
281.016	86.27
281.232	121.47
281.448	113.15
281.664	124.57
281.88	107.96
282.096	80.69
282.312	62.71
282.528	54.13
282.744	63.12
282.96	66.06
283.176	61.93
283.392	49.05
283.608	48.07
283.824	33.84
284.04	43.34
284.256	31.85
284.471	41.25
284.687	59.05
284.903	48.58
285.119	47.25
285.335	36.69
285.551	18.32
285.767	-15.36
285.982	-36.33
286.198	-121.52
286.414	-42.93
286.63	-27.44
286.846	1.84
287.061	8.79
287.277	13.87
287.493	21.88
287.709	29.53
287.924	42.43
288.14	46.9
288.356	51.7
288.571	61.06
288.787	66.56
289.003	74.71
289.218	51.57
289.434	22.82
289.65	-37.5
289.865	-35.86
290.081	-26.47
290.296	-4.78
290.512	-5.62
290.727	11.95
290.943	22.66
291.159	16.93
291.374	28.51
291.59	39.75
291.805	29.96
292.021	38.77
292.236	42.51
292.451	-5.55
292.667	-30.86
292.882	-28.21
293.098	-37.67
293.313	-17.85
293.529	5.75
293.744	-0.63
293.959	2.38
294.175	10.48
294.39	7.43
294.605	15.06
294.821	23.9
295.036	18.21
295.251	23.63
295.467	35.59
295.682	25.94
295.897	28.24
296.112	31.23
296.328	30.7
296.543	10.08
296.758	9.09
296.973	21.7
297.188	42.76
297.404	35.87
297.619	51.28
297.834	30.79
298.049	7.79
298.264	-42.03
298.479	-77.9
298.694	-102.74
298.909	-56.16
299.125	-15.15
299.34	3.3
299.555	23.07
299.77	35.39
299.985	32.16
300.2	13.29
300.415	13.71
300.63	1.72
300.845	-10.55
301.06	-5
301.275	-1.5
301.49	-0.15
301.704	-13.35
301.919	9.87
302.134	6.05
302.349	6.7
302.564	1.73
302.779	0.72
302.994	-2.06
303.209	0.47
303.423	-10.73
303.638	-7.9
303.853	-8.43
304.068	-23.12
304.283	-16.5
304.497	-28.19
304.712	-38.31
304.927	-34.76
305.142	-31.43
305.356	-37.9
305.571	2.98
305.786	-2.09
306	17.98
306.215	33.32
306.43	42.23
306.644	40.33
306.859	39.07
307.074	41.12
307.288	39.73
307.503	48.52
307.717	44.37
307.932	35.56
308.147	23.13
308.361	29.56
308.576	21.34
308.79	9.82
309.005	29.83
309.219	4.43
309.434	-52.35
309.648	-120.43
309.863	-103.24
310.077	-187.33
310.292	-138.49
310.506	-52.05
310.72	-8.72
310.935	-37.9
311.149	-13.13
311.364	21.5
311.578	13.32
311.792	12.68
312.007	47.46
312.221	47.94
312.435	61.29
312.649	60.8
312.864	78.73
313.078	64.57
313.292	76.45
313.507	63.75
313.721	61.61
313.935	33.98
314.149	22.71
314.363	13.99
314.578	14.1
314.792	-0.47
315.006	-6.82
315.22	10.71
315.434	-30.94
315.648	-64.45
315.862	-31.19
316.077	-20.2
316.291	-49.66
316.505	-1.16
316.719	-19.24
316.933	-20.9
317.147	-2.26
317.361	3.83
317.575	-9.01
317.789	16.7
318.003	4.93
318.217	27.11
318.431	32.97
318.645	34.97
318.859	-11.47
319.073	-15.34
319.287	-52.62
319.5	-38.42
319.714	-39
319.928	15.12
320.142	23.53
320.356	13.01
320.57	13.97
320.784	14.39
320.997	-2.12
321.211	5.03
321.425	-5.19
321.639	-2.15
321.853	-1.98
322.066	-16.41
322.28	-7.23
322.494	-6.87
322.707	-6.64
322.921	3.96
323.135	26.34
323.349	24.44
323.562	34.47
323.776	36.94
323.989	25.21
324.203	-1.47
324.417	9.18
324.63	6.31
324.844	-14.3
325.057	-11.83
325.271	-2.41
325.485	-9.91
325.698	-16.7
325.912	9.11
326.125	14.63
326.339	21.74
326.552	7.52
326.766	21.31
326.979	17.3
327.193	20.24
327.406	16.54
327.619	20.19
327.833	11.7
328.046	27.44
328.26	8.75
328.473	-25.97
328.686	-3.04
328.9	7.26
329.113	-14.15
329.326	-2.36
329.54	9.82
329.753	-1.17
329.966	0.75
330.179	6.03
330.393	9.28
330.606	25.39
330.819	30.78
331.032	18.75
331.246	48.49
331.459	31.4
331.672	10.91
331.885	17.91
332.098	34.77
332.311	3.96
332.525	6.81
332.738	11.54
332.951	9.53
333.164	3.89
333.377	24.25
333.59	21.39
333.803	33.23
334.016	22.08
334.229	18.94
334.442	-5.43
334.655	8.48
334.868	-8.36
335.081	3.85
335.294	10.14
335.507	27.88
335.72	34.78
335.933	39.16
336.146	43.31
336.359	44.62
336.572	20.44
336.785	-7.56
336.997	0.83
337.21	1.87
337.423	18.17
337.636	46.92
337.849	86.65
338.062	99.44
338.274	65.82
338.487	33.38
338.7	18.58
338.913	0.33
339.125	-0.92
339.338	0.79
339.551	-9.98
339.763	23.32
339.976	27.05
340.189	8.65
340.402	5.7
340.614	7.93
340.827	-11.12
341.039	-24.18
341.252	-20.04
341.465	-5.06
341.677	-3.26
341.89	-0.63
342.102	31.4
342.315	25.79
342.527	29.69
342.74	43.64
342.952	37.49
343.165	25.74
343.377	51.95
343.59	37.45
343.802	24.48
344.015	30.05
344.227	25.12
344.44	19.09
344.652	32.55
344.864	32.22
345.077	34.72
345.289	21.41
345.502	22.98
345.714	10.93
345.926	22.05
346.139	20.23
346.351	27.23
346.563	10.28
346.775	13.17
346.988	7.65
347.2	14.44
347.412	8.37
347.624	38.31
347.837	46.32
348.049	35.17
348.261	25.72
348.473	36.88
348.685	50.2
348.897	72.73
349.11	77.04
349.322	68.67
349.534	48.41
349.746	40.22
349.958	7.55
350.17	17
350.382	23.11
350.594	23.63
350.806	13.56
351.018	23.18
351.23	19.24
351.442	15.09
351.654	11.37
351.866	14.93
352.078	-2.55
352.29	3.36
352.502	18.87
352.714	14.35
352.926	23.27
353.138	33.08
353.35	41.58
353.561	30.63
353.773	36.66
353.985	30.14
354.197	32.33
354.409	8
354.621	11.46
354.832	17.89
355.044	11.16
355.256	17.73
355.468	29.78
355.679	42.86
355.891	42.4
356.103	40.25
356.314	36.79
356.526	17.84
356.738	-6.43
356.949	-25.33
357.161	-6.13
357.373	-15.68
357.584	1.61
357.796	27.46
358.008	42.89
358.219	60.49
358.431	87.9
358.642	64.67
358.854	46.35
359.065	54.85
359.277	49.36
359.488	40.38
359.7	44.49
359.911	40.5
360.123	25.49
360.334	28.22
360.546	18.9
360.757	24.37
360.969	29.27
361.18	30.3
361.391	17.31
361.603	37.66
361.814	7.51
362.025	23.4
362.237	34.45
362.448	33.1
362.659	18.63
362.871	32.76
363.082	21.34
363.293	1.04
363.504	-9.6
363.716	9.73
363.927	20.97
364.138	20.95
364.349	32.53
364.56	41.43
364.772	49.1
364.983	34.2
365.194	32.49
365.405	10.01
365.616	16.96
365.827	9.33
366.038	23.91
366.25	17.62
366.461	10.36
366.672	11.75
366.883	-3.18
367.094	-10.32
367.305	-2
367.516	20.84
367.727	21.42
367.938	24.54
368.149	19.55
368.36	23.9
368.571	4.23
368.781	-21.87
368.992	-15.57
369.203	-5.57
369.414	-23.98
369.625	-10.51
369.836	-21.15
370.047	-18.72
370.258	-14.26
370.468	-5.45
370.679	0.18
370.89	-3.57
371.101	4.04
371.312	2.06
371.522	9.44
371.733	2.54
371.944	24.67
372.155	28.14
372.365	26.66
372.576	26.87
372.787	27.96
372.997	24.42
373.208	20.45
373.419	28
373.629	23.82
373.84	33.51
374.05	34.03
374.261	37.6
374.472	25.24
374.682	21.63
374.893	12.43
375.103	14.19
375.314	-9.25
375.524	3.39
375.735	3.19
375.945	25.54
376.156	20.12
376.366	41.63
376.577	39.21
376.787	35.21
376.997	16.99
377.208	22.23
377.418	19.64
377.629	7.15
377.839	26.84
378.049	23.15
378.26	15.15
378.47	13.74
378.68	35.44
378.89	23.76
379.101	22.64
379.311	33.23
379.521	28.99
379.732	18.88
379.942	25
380.152	37.43
380.362	32.25
380.572	34.25
380.783	26.53
380.993	11.81
381.203	5.44
381.413	0.56
381.623	11.36
381.833	17.05
382.043	24.04
382.253	23.54
382.463	28.51
382.674	18.07
382.884	18.42
383.094	16.17
383.304	16.4
383.514	21.34
383.724	26.56
383.934	25.58
384.144	17.52
384.353	15.47
384.563	11.67
384.773	12.2
384.983	0.82
385.193	9.17
385.403	7.23
385.613	7.56
385.823	-1.07
386.033	3.72
386.242	4.7
386.452	5.89
386.662	7.71
386.872	13.86
387.082	16.01
387.291	10.59
387.501	13.21
387.711	12.69
387.921	11.45
388.13	9.31
388.34	11.28
388.55	8.01
388.759	3.51
388.969	2.08
389.179	2.52
389.388	3.96
389.598	3.97
389.807	7.75
390.017	10.52
390.227	10.48
390.436	8.5
390.646	8.47
390.855	6.98
391.065	6.09
391.274	6.38
391.484	8.96
391.693	9.12
391.903	9.33
392.112	10.02
392.322	8.57
392.531	7.59
392.74	8.02
392.95	6.76
393.159	5.28
393.369	5.88
393.578	6.58
393.787	6.56
393.997	7.8
394.206	7.55
394.415	8.76
394.625	8.96
394.834	8.58
395.043	7.82
395.252	8.54
395.462	8.91
395.671	8.14
395.88	9.33
396.089	9.28
396.298	9.59
396.508	8.84
396.717	8.51
396.926	7.56
397.135	7.47
397.344	6.69
397.553	6.63
397.762	7.39
397.971	7.3
398.181	7.42
398.39	8.03
398.599	8.34
398.808	7.9
399.017	7.57
399.226	7.73
399.435	7.87
399.644	7.61
399.853	7.55
400.062	7.73
400.27	7.72
400.479	7.47
400.688	7.72
400.897	7.9
401.106	8.09
401.315	7.98
401.524	7.78
401.733	7.68
401.941	7.55
402.15	7.33
402.359	7.32
402.568	7.54
402.777	7.57
402.985	7.73
403.194	7.89
403.403	7.94
403.612	7.97
403.82	7.83
404.029	7.62
404.238	7.72
404.446	7.81
404.655	7.79
404.864	7.81
405.072	7.87
405.281	7.75
405.489	7.69
405.698	7.64
405.906	7.6
406.115	7.37
406.324	7.43
406.532	7.35
406.741	7.23
406.949	7.06
407.158	7.33
407.366	7.21
407.574	7.28
407.783	7.3
407.991	7.38
408.2	7.17
408.408	7.17
408.617	7.11
408.825	7.07
409.033	7.17
409.242	7.36
409.45	7.23
409.658	7.21
409.867	7.24
410.075	7.16
410.283	7.16
410.491	7.34
410.7	7.48
410.908	7.44
411.116	7.49
411.324	7.46
411.533	7.28
411.741	7.11
411.949	7.13
412.157	7.15
412.365	7.08
412.573	7.09
412.781	7.08
412.99	7.11
413.198	7.19
413.406	7.29
413.614	7.37
413.822	7.43
414.03	7.41
414.238	7.26
414.446	7.24
414.654	7.16
414.862	7.1
415.07	7.01
415.278	7.03
415.486	6.93
415.694	7.09
415.902	7.15
416.109	7.2
416.317	7.27
416.525	7.24
416.733	7.04
416.941	7.07
417.149	6.96
417.357	6.87
417.564	6.8
417.772	6.76
417.98	6.6
418.188	6.59
418.395	6.55
418.603	6.64
418.811	6.67
419.019	6.76
419.226	6.9
419.434	6.95
419.642	6.93
419.849	7.02
420.057	6.95
420.265	6.9
420.472	6.76
420.68	6.73
420.887	6.63
421.095	6.62
421.302	6.58
421.51	6.55
421.717	6.6
421.925	6.67
422.132	6.65
422.34	6.78
422.547	6.92
422.755	6.78
422.962	6.89
423.17	6.9
423.377	6.74
423.585	6.62
423.792	6.59
423.999	6.46
424.207	6.39
424.414	6.25
424.621	6.18
424.829	6.3
425.036	6.37
425.243	6.44
425.451	6.68
425.658	6.8
425.865	6.76
426.072	6.66
426.28	6.53
426.487	6.38
426.694	6.28
426.901	6.2
427.108	6.21
427.315	6.34
427.523	6.31
427.73	6.35
427.937	6.29
428.144	6.25
428.351	6.14
428.558	6.23
428.765	6.17
428.972	6.21
429.179	6.26
429.386	6.38
429.593	6.42
429.8	6.61
430.007	6.55
430.214	6.45
430.421	6.53
430.628	6.45
430.835	6.47
431.042	6.67
431.249	6.81
431.456	6.63
431.662	6.81
431.869	6.79
432.076	6.77
432.283	6.85
432.49	6.84
432.697	6.71
432.903	6.55
433.11	6.34
433.317	6.14
433.524	6.33
433.73	6.3
433.937	6.44
434.144	6.59
434.35	6.54
434.557	6.43
434.764	6.38
434.97	6.29
435.177	6.36
435.384	6.32
435.59	6.34
435.797	6.34
436.003	6.37
436.21	6.06
436.416	6.09
436.623	6.09
436.829	6.17
437.036	5.94
437.242	6.08
437.449	6.17
437.655	6.13
437.862	6.17
438.068	6.48
438.275	6.62
438.481	6.66
438.687	6.59
438.894	6.5
439.1	6.26
439.307	6.12
439.513	6.11
439.719	6.13
439.926	6.16
440.132	6.28
440.338	6.36
440.544	6.45
440.751	6.5
440.957	6.37
441.163	6.37
441.369	6.37
441.575	6.16
441.782	6.23
441.988	6.3
442.194	6.18
442.4	6.12
442.606	6.19
442.812	6.07
443.018	6.09
443.224	6.13
443.431	6.15
443.637	6.1
443.843	6.1
444.049	6.02
444.255	6.08
444.461	6.13
444.667	6.14
444.873	6.14
445.079	6.13
445.284	6.11
445.49	6.07
445.696	6.11
445.902	6.16
446.108	6.19
446.314	6.08
446.52	6.12
446.726	6.15
446.931	6.15
447.137	6.26
447.343	6.39
447.549	6.35
447.755	6.26
447.96	6.3
448.166	6.26
448.372	6.24
448.578	6.26
448.783	6.41
448.989	6.24
449.195	6.43
449.4	6.61
449.606	6.64
449.812	6.54
450.017	6.73
450.223	6.47
450.428	6.38
450.634	6.34
450.84	6.37
451.045	6.29
451.251	6.3
451.456	6.24
451.662	6.21
451.867	6.2
452.073	6.31
452.278	6.46
452.483	6.43
452.689	6.5
452.894	6.47
453.1	6.47
453.305	6.37
453.51	6.38
453.716	6.52
453.921	6.54
454.127	6.52
454.332	6.6
454.537	6.73
454.742	6.63
454.948	6.62
455.153	6.6
455.358	6.52
455.563	6.4
455.769	6.3
455.974	6.41
456.179	6.36
456.384	6.35
456.589	6.38
456.795	6.39
457	6.37
457.205	6.39
457.41	6.48
457.615	6.48
457.82	6.54
458.025	6.45
458.23	6.46
458.435	6.36
458.64	6.35
458.845	6.41
459.05	6.36
459.255	6.34
459.46	6.49
459.665	6.54
459.87	6.46
460.075	6.68
460.28	6.74
460.485	6.63
460.69	6.5
460.895	6.48
461.099	6.4
461.304	6.4
461.509	6.47
461.714	6.61
461.919	6.72
462.123	6.63
462.328	6.58
462.533	6.6
462.738	6.57
462.942	6.5
463.147	6.62
463.352	6.69
463.556	6.65
463.761	6.56
463.966	6.59
464.17	6.57
464.375	6.57
464.58	6.56
464.784	6.68
464.989	6.76
465.193	6.73
465.398	6.88
465.602	6.99
465.807	7.11
466.011	7.1
466.216	7.1
466.42	6.99
466.625	7.08
466.829	7.06
467.034	6.93
