Data from Ofav_SP_Phys_0EV1_Reflection_1.txt Node
Date: Thu Aug 05 17:54:42 EDT 2021
User: Adam
Spectrometer: FLMT01687
Trigger mode: 0
Integration Time (sec): 8.000000E-1
Scans to average: 2
Electric dark correction enabled: true
Nonlinearity correction enabled: false
Boxcar width: 2
XAxis mode: Wavelengths
Number of Pixels in Spectrum: 3648
>>>>>Begin Spectral Data<<<<<
179.494	665.56
179.716	795.74
179.937	675.64
180.158	876.17
180.38	2390.85
180.601	-1382.39
180.823	-537.82
181.044	-248.94
181.265	-84.55
181.486	-2.47
181.708	-727.52
181.929	-256.43
182.15	-829.39
182.372	-89.71
182.593	-82.97
182.814	-334.74
183.035	-85.69
183.257	41.28
183.478	-226.44
183.699	250.46
183.92	21.89
184.141	437.67
184.363	-281.08
184.584	252.27
184.805	120.6
185.026	80.74
185.247	79.6
185.468	92.8
185.689	97.04
185.91	74.71
186.132	27.27
186.353	16.62
186.574	-40.92
186.795	-35.14
187.016	-19.24
187.237	13.19
187.458	-35.1
187.679	10.91
187.9	4.42
188.121	74.29
188.342	103.58
188.563	82.3
188.784	167.96
189.005	204.76
189.226	150.2
189.447	117.6
189.667	172.17
189.888	207.76
190.109	149.61
190.33	102.55
190.551	103.24
190.772	138.77
190.993	108.62
191.214	92.87
191.434	82.43
191.655	71.87
191.876	69.34
192.097	49.17
192.318	42.66
192.538	49.72
192.759	155.55
192.98	108.25
193.201	261.07
193.421	158.76
193.642	85.85
193.863	9.58
194.083	15.6
194.304	27.04
194.525	27.97
194.745	24.66
194.966	18.24
195.187	41.3
195.407	18.23
195.628	-9.4
195.848	24.21
196.069	42.92
196.29	28.8
196.51	61.39
196.731	61.97
196.951	61.42
197.172	74.57
197.392	74.38
197.613	68.6
197.833	94.05
198.054	119.15
198.274	104.25
198.495	115.4
198.715	123.87
198.936	137.68
199.156	78.5
199.377	67.54
199.597	76.91
199.817	55.68
200.038	58.7
200.258	49.34
200.479	58.47
200.699	29.82
200.919	31.85
201.14	-10.7
201.36	-6.14
201.58	26.02
201.801	-23.41
202.021	-17.07
202.241	65.41
202.461	21.56
202.682	-37.06
202.902	9.82
203.122	39.55
203.342	22.33
203.563	47.31
203.783	38.39
204.003	31.12
204.223	16.9
204.443	2.38
204.663	27.64
204.884	54.73
205.104	45.16
205.324	50.35
205.544	44.26
205.764	39.76
205.984	-5.17
206.204	5.73
206.424	31.66
206.644	41.88
206.864	55.34
207.084	73.99
207.304	128.2
207.525	118
207.745	88.16
207.964	57.49
208.184	69.34
208.404	-16.36
208.624	13.85
208.844	53.55
209.064	58.29
209.284	61
209.504	43.63
209.724	43.46
209.944	15.49
210.164	11.24
210.384	34.99
210.604	45.17
210.823	42.03
211.043	44.14
211.263	33.42
211.483	27.48
211.703	27.88
211.922	5.18
212.142	45.48
212.362	68.84
212.582	30.65
212.801	94.71
213.021	101.56
213.241	89.18
213.461	78.49
213.68	69.07
213.9	51.8
214.12	16.5
214.339	15.76
214.559	49.85
214.779	75.93
214.998	94.13
215.218	129.62
215.438	182.48
215.657	191.5
215.877	221.96
216.096	210.06
216.316	229.99
216.535	125.37
216.755	99.83
216.974	325.83
217.194	147.15
217.413	67.16
217.633	82.39
217.852	76.87
218.072	69.08
218.291	56.32
218.511	75.22
218.73	45.31
218.95	29.74
219.169	11.23
219.389	45.34
219.608	-13.52
219.827	57.09
220.047	89.53
220.266	77.18
220.485	85.71
220.705	91.01
220.924	50.35
221.143	30.77
221.363	-1.17
221.582	6.77
221.801	15.19
222.021	68.78
222.24	93.7
222.459	153.2
222.678	103.1
222.897	89.84
223.117	19.41
223.336	1.63
223.555	32.78
223.774	-26.15
223.993	-22.9
224.213	31.34
224.432	63.24
224.651	74.48
224.87	108.21
225.089	106.34
225.308	111.03
225.527	63.79
225.746	32.33
225.965	8.42
226.184	1.76
226.404	26.08
226.623	-4.43
226.842	7.89
227.061	28.47
227.28	48.68
227.499	37.96
227.718	61.84
227.936	56.03
228.155	40.25
228.374	32.76
228.593	36.81
228.812	32.27
229.031	58.5
229.25	78.4
229.469	87.54
229.688	81.13
229.907	63.45
230.125	43.75
230.344	47.8
230.563	31.72
230.782	54.2
231.001	83.15
231.22	96.61
231.438	64.3
231.657	30.6
231.876	32.18
232.095	27.17
232.313	15.41
232.532	10.73
232.751	42.5
232.969	47.59
233.188	62.46
233.407	27.81
233.625	50.47
233.844	15.21
234.063	-17.29
234.281	11.09
234.5	37.13
234.719	35.14
234.937	25.63
235.156	17.11
235.374	15.92
235.593	35.63
235.811	24.2
236.03	37.27
236.249	58.29
236.467	54.53
236.686	46.56
236.904	47.34
237.123	40.22
237.341	43.91
237.559	39.44
237.778	43.1
237.996	57.27
238.215	81.69
238.433	70.72
238.652	72.34
238.87	48.72
239.088	33.75
239.307	23.41
239.525	10.76
239.743	-12.52
239.962	21.39
240.18	39.96
240.398	39.88
240.617	30.29
240.835	100.64
241.053	65.67
241.271	30.75
241.49	42.68
241.708	36.99
241.926	17.03
242.144	-4.34
242.363	34.42
242.581	76.16
242.799	121.14
243.017	90.06
243.235	72.63
243.453	41.08
243.672	32.88
243.89	9.45
244.108	54.32
244.326	71.87
244.544	89.14
244.762	63.09
244.98	108.46
245.198	99.02
245.416	116.44
245.634	128.66
245.852	142.02
246.07	95.55
246.288	51.83
246.506	26.02
246.724	23.21
246.942	37.32
247.16	67.05
247.378	99.84
247.596	41.76
247.814	52.97
248.032	13.01
248.25	-11.37
248.468	14.87
248.685	39.37
248.903	17.94
249.121	14.28
249.339	34.47
249.557	30.99
249.775	21.95
249.992	12.78
250.21	52.29
250.428	17.82
250.646	19.23
250.863	36.77
251.081	47.19
251.299	23.99
251.517	68.08
251.734	62.52
251.952	16.64
252.17	56.63
252.387	22.76
252.605	14.28
252.823	30.33
253.04	44.46
253.258	46.39
253.475	79.01
253.693	72.82
253.911	84.75
254.128	79.53
254.346	65.11
254.563	59.86
254.781	71.2
254.998	57.81
255.216	51.55
255.433	41.69
255.651	71.38
255.868	13.17
256.086	3.24
256.303	-8.58
256.521	-10.33
256.738	-59.01
256.956	-108.9
257.173	0.42
257.39	54.17
257.608	43.6
257.825	40.64
258.043	49.93
258.26	26.65
258.477	15.24
258.695	33.67
258.912	52.15
259.129	45.5
259.346	52.43
259.564	48.73
259.781	47.42
259.998	44.72
260.216	53.29
260.433	59.66
260.65	62.99
260.867	46.3
261.084	20.82
261.302	6.01
261.519	17.25
261.736	38.25
261.953	40.41
262.17	42.19
262.387	105.64
262.604	91.72
262.822	134.32
263.039	179.3
263.256	216.94
263.473	143.48
263.69	191.11
263.907	141.76
264.124	154.9
264.341	92.83
264.558	88.97
264.775	51.37
264.992	65.36
265.209	40.98
265.426	34.7
265.643	36.8
265.86	42.62
266.077	29.85
266.294	30.32
266.51	48.56
266.727	65.41
266.944	88.79
267.161	73.39
267.378	65.42
267.595	39.25
267.812	11.25
268.028	-20.99
268.245	8.18
268.462	-2.18
268.679	17.79
268.896	25.87
269.112	24.48
269.329	34.79
269.546	49.58
269.763	55.75
269.979	80.79
270.196	101.21
270.413	84.21
270.629	96.71
270.846	86.96
271.063	50.77
271.279	54.83
271.496	28.51
271.712	-57.82
271.929	-78.64
272.146	3.35
272.362	-67.73
272.579	-36.41
272.795	7.37
273.012	27.52
273.228	-4.36
273.445	24.15
273.661	46.42
273.878	28.75
274.094	12.07
274.311	35.51
274.527	42.95
274.744	53.28
274.96	32.03
275.177	44.9
275.393	26.59
275.609	39.44
275.826	36.02
276.042	70.94
276.259	76.18
276.475	73.02
276.691	44.71
276.908	55.54
277.124	66.75
277.34	77.48
277.557	68.48
277.773	81.74
277.989	60.54
278.205	39.96
278.422	24.98
278.638	60.16
278.854	86.2
279.07	89.46
279.286	67.82
279.503	68.44
279.719	57.48
279.935	62.78
280.151	72.18
280.367	92.67
280.583	79.37
280.799	101.84
281.016	86.72
281.232	91.81
281.448	97.02
281.664	97
281.88	111.22
282.096	120.78
282.312	90.69
282.528	72.29
282.744	85.07
282.96	68.44
283.176	64.61
283.392	74.76
283.608	80.4
283.824	56.13
284.04	47.33
284.256	38.93
284.471	32.57
284.687	46.23
284.903	54.66
285.119	65.92
285.335	57.27
285.551	47.57
285.767	17.63
285.982	33.15
286.198	12.65
286.414	24.59
286.63	62.21
286.846	59.59
287.061	26.16
287.277	27.66
287.493	48.63
287.709	25.59
287.924	43.09
288.14	70.64
288.356	76.74
288.571	65.01
288.787	61.76
289.003	64.31
289.218	29.94
289.434	-14.16
289.65	-24.7
289.865	7.35
290.081	14.77
290.296	29.12
290.512	22.14
290.727	38.97
290.943	36.29
291.159	44.41
291.374	38.12
291.59	53.43
291.805	50.96
292.021	76.69
292.236	89.56
292.451	83.95
292.667	86.35
292.882	58.27
293.098	38.15
293.313	47.37
293.529	91.46
293.744	68.43
293.959	57.01
294.175	67.5
294.39	50.11
294.605	10.53
294.821	25.29
295.036	42.29
295.251	41.7
295.467	40.44
295.682	41.16
295.897	35.69
296.112	27.36
296.328	23.6
296.543	48.92
296.758	36.82
296.973	37.77
297.188	51.8
297.404	41.67
297.619	32.3
297.834	40.08
298.049	33.86
298.264	34.18
298.479	29.92
298.694	17.61
298.909	58.64
299.125	54.9
299.34	57.72
299.555	72.16
299.77	85.9
299.985	79.33
300.2	63.11
300.415	52.48
300.63	40.84
300.845	20.92
301.06	14.44
301.275	22.42
301.49	48.63
301.704	72.81
301.919	75.73
302.134	67.89
302.349	68.72
302.564	43.68
302.779	39.79
302.994	43.38
303.209	65.11
303.423	60
303.638	56.21
303.853	59.49
304.068	49.92
304.283	30.34
304.497	20.69
304.712	7.41
304.927	-6.66
305.142	-16.09
305.356	4.91
305.571	49.68
305.786	64.55
306	64.27
306.215	66.71
306.43	69.85
306.644	73.17
306.859	74.08
307.074	79.64
307.288	106.52
307.503	91.63
307.717	90.42
307.932	65.33
308.147	81.09
308.361	69.85
308.576	66.05
308.79	48.96
309.005	60.47
309.219	28.1
309.434	6.13
309.648	-27.36
309.863	-33.74
310.077	-77.43
310.292	-34.44
310.506	-9.25
310.72	20.64
310.935	46.53
311.149	83.67
311.364	67.59
311.578	56.62
311.792	79.17
312.007	71.35
312.221	48.92
312.435	61.04
312.649	73.76
312.864	45.11
313.078	50.4
313.292	69.69
313.507	78.53
313.721	76.05
313.935	79.22
314.149	82.62
314.363	83.01
314.578	53.98
314.792	55.11
315.006	74.48
315.22	54.11
315.434	18.02
315.648	40.78
315.862	53.58
316.077	7.52
316.291	2.53
316.505	48.56
316.719	33.69
316.933	25.09
317.147	23.46
317.361	40.09
317.575	29.02
317.789	43.7
318.003	48.46
318.217	78.69
318.431	105.91
318.645	118.49
318.859	123.58
319.073	98.18
319.287	105.29
319.5	55.72
319.714	25.04
319.928	66.79
320.142	97.23
320.356	74.44
320.57	86.07
320.784	110.24
320.997	61.93
321.211	44.96
321.425	28.58
321.639	-23.27
321.853	-14.42
322.066	-14.18
322.28	-19.48
322.494	-16.02
322.707	21.79
322.921	20.6
323.135	23.58
323.349	28.67
323.562	48.19
323.776	53.16
323.989	38.97
324.203	53.21
324.417	55.03
324.63	37.8
324.844	22.33
325.057	32.53
325.271	5.47
325.485	17.08
325.698	16.07
325.912	17.53
326.125	37.48
326.339	53.67
326.552	52.74
326.766	47.65
326.979	92.57
327.193	77.39
327.406	81.27
327.619	106.86
327.833	86.5
328.046	70.68
328.26	61.1
328.473	12.34
328.686	-8.04
328.9	8.77
329.113	-5.54
329.326	3.7
329.54	37.01
329.753	43.39
329.966	61.39
330.179	71.2
330.393	90
330.606	70.88
330.819	63.33
331.032	68.52
331.246	101.74
331.459	61.72
331.672	95.62
331.885	94.39
332.098	84.07
332.311	68.13
332.525	85.55
332.738	63.82
332.951	54.82
333.164	52.09
333.377	38.01
333.59	14.34
333.803	2.86
334.016	8.63
334.229	10.15
334.442	32.52
334.655	62.81
334.868	67.79
335.081	55.5
335.294	52.16
335.507	58.15
335.72	61.41
335.933	56.79
336.146	51.1
336.359	45.73
336.572	28.41
336.785	10.68
336.997	27.05
337.21	54.69
337.423	93.55
337.636	105.02
337.849	117.7
338.062	91.72
338.274	65.8
338.487	35.2
338.7	24.79
338.913	30.82
339.125	63.02
339.338	71.01
339.551	78.73
339.763	102.53
339.976	81.73
340.189	71.53
340.402	46.14
340.614	40.98
340.827	41.23
341.039	36.49
341.252	33.66
341.465	50.01
341.677	58.5
341.89	35.41
342.102	42.05
342.315	31.41
342.527	38.19
342.74	39.75
342.952	48.19
343.165	81.96
343.377	93.46
343.59	64.38
343.802	63.84
344.015	45.93
344.227	23.36
344.44	25.38
344.652	41.76
344.864	41.45
345.077	59.34
345.289	49.56
345.502	35.55
345.714	39.46
345.926	48.01
346.139	43.26
346.351	49.13
346.563	47.56
346.775	54.03
346.988	17.94
347.2	37.25
347.412	36.12
347.624	59.03
347.837	36.73
348.049	50.44
348.261	22.65
348.473	43.65
348.685	51.27
348.897	71.97
349.11	71.02
349.322	42.76
349.534	34.55
349.746	32.45
349.958	24.88
350.17	34.09
350.382	58.56
350.594	53.51
350.806	67.1
351.018	67.99
351.23	68.39
351.442	60.7
351.654	55.3
351.866	47.03
352.078	25.57
352.29	18.84
352.502	26.54
352.714	32.21
352.926	23.39
353.138	36.87
353.35	47.36
353.561	53.12
353.773	40.18
353.985	44.05
354.197	41.94
354.409	29.85
354.621	30.9
354.832	65.4
355.044	75.99
355.256	94.85
355.468	97.91
355.679	95.4
355.891	89.48
356.103	96.85
356.314	86.89
356.526	88.73
356.738	81.77
356.949	58.1
357.161	59.51
357.373	75.52
357.584	87.54
357.796	78.74
358.008	76.39
358.219	47.8
358.431	60.63
358.642	33.87
358.854	46.5
359.065	60.8
359.277	63.31
359.488	39.27
359.7	52.8
359.911	49.42
360.123	45.36
360.334	50.57
360.546	47.42
360.757	43.86
360.969	45.02
361.18	57.03
361.391	50.87
361.603	63.05
361.814	62.41
362.025	75.87
362.237	67.2
362.448	72.93
362.659	85.02
362.871	72.31
363.082	53.55
363.293	46.95
363.504	32.79
363.716	25.26
363.927	50.96
364.138	54.16
364.349	34.08
364.56	47.46
364.772	47.06
364.983	46.52
365.194	48.91
365.405	50.36
365.616	38.45
365.827	39.18
366.038	40.33
366.25	43.95
366.461	44.21
366.672	47.63
366.883	46.71
367.094	42.59
367.305	40.21
367.516	51.82
367.727	52.59
367.938	48.48
368.149	35.35
368.36	43.67
368.571	46.78
368.781	49.84
368.992	24.98
369.203	41.39
369.414	34.78
369.625	30.19
369.836	12.01
370.047	20.4
370.258	14.08
370.468	6.55
370.679	1.04
370.89	13.64
371.101	17
371.312	25.45
371.522	30.97
371.733	36.09
371.944	31.29
372.155	28.72
372.365	-1.49
372.576	1.51
372.787	0.17
372.997	6.75
373.208	13.86
373.419	44.78
373.629	36.15
373.84	59.88
374.05	51.62
374.261	63.26
374.472	65.59
374.682	61.64
374.893	45.21
375.103	39.96
375.314	25.21
375.524	14.62
375.735	26.56
375.945	41
376.156	41.71
376.366	50.8
376.577	52.95
376.787	60.37
376.997	54.4
377.208	62.39
377.418	55.13
377.629	52.56
377.839	64.66
378.049	70.01
378.26	55.57
378.47	66.94
378.68	86.09
378.89	71.83
379.101	60.23
379.311	76.94
379.521	72.38
379.732	68.46
379.942	63.02
380.152	73.09
380.362	79.78
380.572	71.45
380.783	43.42
380.993	47.33
381.203	46.19
381.413	37.76
381.623	30.52
381.833	41.68
382.043	45.67
382.253	37.67
382.463	45.02
382.674	54.4
382.884	46.9
383.094	29.11
383.304	27.21
383.514	12.07
383.724	-5.54
383.934	3.5
384.144	11.3
384.353	16.51
384.563	22.43
384.773	33.28
384.983	25.77
385.193	28.95
385.403	23.43
385.613	24.5
385.823	20.81
386.033	25.7
386.242	23.46
386.452	26.83
386.662	26.48
386.872	21.73
387.082	20.14
387.291	9.29
387.501	10.22
387.711	10.7
387.921	11.82
388.13	12.07
388.34	20.7
388.55	15.96
388.759	10.1
388.969	13.13
389.179	12.28
389.388	18.83
389.598	21.3
389.807	26.15
390.017	30.16
390.227	31.59
390.436	23.95
390.646	22.16
390.855	19.08
391.065	14.17
391.274	15.37
391.484	17.84
391.693	18.39
391.903	19.82
392.112	20.28
392.322	18.05
392.531	18.12
392.74	16.94
392.95	15.83
393.159	15.28
393.369	15.47
393.578	15.83
393.787	17.58
393.997	18.63
394.206	19.06
394.415	19.99
394.625	20.78
394.834	19.66
395.043	18.34
395.252	18.5
395.462	17.88
395.671	17.05
395.88	18.15
396.089	18.61
396.298	18.98
396.508	19.05
396.717	17.97
396.926	17.25
397.135	16.44
397.344	15.71
397.553	15.79
397.762	16.77
397.971	16.21
398.181	16.35
398.39	15.89
398.599	16.03
398.808	15.55
399.017	15.82
399.226	16.4
399.435	16.92
399.644	16.68
399.853	16.98
400.062	17.09
400.27	16.64
400.479	16.63
400.688	16.52
400.897	16.41
401.106	16.11
401.315	15.75
401.524	15.38
401.733	15.26
401.941	15.27
402.15	15.2
402.359	15.36
402.568	15.24
402.777	15.28
402.985	14.91
403.194	15.03
403.403	15.15
403.612	15.1
403.82	14.96
404.029	15.03
404.238	15.1
404.446	14.84
404.655	14.77
404.864	14.79
405.072	14.59
405.281	14.3
405.489	14.39
405.698	14.56
405.906	14.49
406.115	14.41
406.324	14.6
406.532	14.4
406.741	14.3
406.949	14.3
407.158	14.4
407.366	14.22
407.574	14.3
407.783	14.22
407.991	14.04
408.2	13.93
408.408	13.82
408.617	13.82
408.825	13.79
409.033	13.92
409.242	13.85
409.45	13.77
409.658	13.54
409.867	13.56
410.075	13.47
410.283	13.53
410.491	13.43
410.7	13.56
410.908	13.46
411.116	13.4
411.324	13.43
411.533	13.38
411.741	13.17
411.949	13.19
412.157	13.15
412.365	13.16
412.573	13.24
412.781	13.5
412.99	13.48
413.198	13.59
413.406	13.6
413.614	13.61
413.822	13.51
414.03	13.51
414.238	13.3
414.446	13.25
414.654	13.18
414.862	13.24
415.07	13.19
415.278	13.25
415.486	13.13
415.694	13.23
415.902	13.04
416.109	12.91
416.317	12.93
416.525	12.82
416.733	12.74
416.941	12.76
417.149	12.92
417.357	12.93
417.564	12.85
417.772	12.66
417.98	12.71
418.188	12.51
418.395	12.24
418.603	12.38
418.811	12.4
419.019	12.5
419.226	12.46
419.434	12.6
419.642	12.48
419.849	12.65
420.057	12.39
420.265	12.42
420.472	12.3
420.68	12.37
420.887	12.3
421.095	12.33
421.302	12.15
421.51	12.28
421.717	12.18
421.925	12.18
422.132	12.18
422.34	12.46
422.547	12.37
422.755	12.48
422.962	12.58
423.17	12.56
423.377	12.52
423.585	12.4
423.792	12.25
423.999	12.02
424.207	11.86
424.414	11.48
424.621	11.5
424.829	11.49
425.036	11.65
425.243	11.94
425.451	12.35
425.658	12.41
425.865	12.26
426.072	12.17
426.28	11.9
426.487	11.74
426.694	11.67
426.901	11.86
427.108	11.79
427.315	11.92
427.523	12.07
427.73	12.13
427.937	12.03
428.144	12.19
428.351	12.33
428.558	12.17
428.765	12.03
428.972	12.09
429.179	12.01
429.386	11.79
429.593	11.89
429.8	11.97
430.007	11.97
430.214	12.03
430.421	12.33
430.628	12.18
430.835	12.23
431.042	12.14
431.249	12.15
431.456	11.93
431.662	12.26
431.869	12.39
432.076	12.49
432.283	12.62
432.49	12.54
432.697	12.48
432.903	12.26
433.11	12.2
433.317	11.88
433.524	12.07
433.73	11.92
433.937	11.92
434.144	11.94
434.35	12.07
434.557	12.02
434.764	12.07
434.97	12.15
435.177	12.37
435.384	12.16
435.59	11.95
435.797	11.96
436.003	12.01
436.21	11.8
436.416	11.99
436.623	12.19
436.829	12.15
437.036	12.1
437.242	12.16
437.449	12.14
437.655	12.27
437.862	12.31
438.068	12.45
438.275	12.6
438.481	12.65
438.687	12.44
438.894	12.49
439.1	12.21
439.307	12.1
439.513	12.1
439.719	12.13
439.926	12.08
440.132	12.21
440.338	12.18
440.544	12.02
440.751	12.16
440.957	12.2
441.163	12.15
441.369	12.2
441.575	12.29
441.782	12.36
441.988	12.27
442.194	12.23
442.4	12.25
442.606	12.31
442.812	12.15
443.018	12.14
443.224	12.29
443.431	12.31
443.637	12.22
443.843	12.18
444.049	12.21
444.255	12.13
444.461	12.07
444.667	12.12
444.873	12.11
445.079	12.15
445.284	12.28
445.49	12.32
445.696	12.43
445.902	12.56
446.108	12.66
446.314	12.59
446.52	12.61
446.726	12.68
446.931	12.65
447.137	12.53
447.343	12.58
447.549	12.47
447.755	12.5
447.96	12.59
448.166	12.67
448.372	12.66
448.578	12.68
448.783	12.69
448.989	12.63
449.195	12.7
449.4	12.79
449.606	12.98
449.812	12.79
450.017	12.81
450.223	12.78
450.428	12.79
450.634	12.86
450.84	12.91
451.045	12.87
451.251	12.89
451.456	12.93
451.662	12.88
451.867	13.02
452.073	13.16
452.278	13.14
452.483	13.18
452.689	13.21
452.894	13.23
453.1	13.25
453.305	13.31
453.51	13.42
453.716	13.5
453.921	13.53
454.127	13.59
454.332	13.55
454.537	13.53
454.742	13.4
454.948	13.44
455.153	13.32
455.358	13.48
455.563	13.39
455.769	13.36
455.974	13.39
456.179	13.46
456.384	13.22
456.589	13.25
456.795	13.45
457	13.48
457.205	13.5
457.41	13.8
457.615	13.95
457.82	13.85
458.025	13.9
458.23	13.91
458.435	13.74
458.64	13.56
458.845	13.82
459.05	13.75
459.255	13.79
459.46	14.02
459.665	14.12
459.87	13.96
460.075	14.03
460.28	14.15
460.485	14.08
460.69	14.13
460.895	14.07
461.099	14.16
461.304	14.19
461.509	14.23
461.714	14.15
