Data from Ofav_SP_Phys_2AZ7_Reflection_1.txt Node
Date: Thu Aug 05 17:44:28 EDT 2021
User: Adam
Spectrometer: FLMT01687
Trigger mode: 0
Integration Time (sec): 8.000000E-1
Scans to average: 2
Electric dark correction enabled: true
Nonlinearity correction enabled: false
Boxcar width: 2
XAxis mode: Wavelengths
Number of Pixels in Spectrum: 3648
>>>>>Begin Spectral Data<<<<<
179.494	243.26
179.716	272.92
179.937	206.81
180.158	203.32
180.38	491.99
180.601	-26.22
180.823	130.76
181.044	52.07
181.265	-9.77
181.486	140.32
181.708	-232.21
181.929	-4.22
182.15	-126.53
182.372	29.95
182.593	75.78
182.814	-91.75
183.035	2.37
183.257	116.01
183.478	125.42
183.699	62.61
183.92	100.79
184.141	26.01
184.363	591.35
184.584	-22
184.805	66.73
185.026	33.46
185.247	39.4
185.468	71.8
185.689	87.28
185.91	43.45
186.132	13.72
186.353	1.75
186.574	-83.97
186.795	-140.22
187.016	-91.85
187.237	-13.11
187.458	-131.87
187.679	12.19
187.9	65.13
188.121	62.48
188.342	66.53
188.563	70.73
188.784	78.7
189.005	53.02
189.226	87.2
189.447	41.81
189.667	76.35
189.888	256.57
190.109	188.94
190.33	144.44
190.551	155.97
190.772	162.13
190.993	99.3
191.214	71.35
191.434	59.85
191.655	44.26
191.876	44.91
192.097	25.2
192.318	10.02
192.538	-52.71
192.759	26.08
192.98	35.32
193.201	192.47
193.421	111.65
193.642	52.03
193.863	31.82
194.083	36.84
194.304	55.99
194.525	70.21
194.745	63.99
194.966	58.11
195.187	49.19
195.407	33.44
195.628	57.77
195.848	100.76
196.069	74.58
196.29	55.51
196.51	54.56
196.731	24.66
196.951	29.32
197.172	55.78
197.392	79.52
197.613	75.19
197.833	141.49
198.054	135.84
198.274	100.54
198.495	104.1
198.715	90.07
198.936	33.32
199.156	25.15
199.377	33.68
199.597	16.83
199.817	-9.38
200.038	-6.32
200.258	-7.52
200.479	-35.37
200.699	-37.49
200.919	-26.8
201.14	-52.93
201.36	-77.75
201.58	-46.52
201.801	-120.92
202.021	-88.34
202.241	-32.09
202.461	-42.4
202.682	-87.14
202.902	-143.46
203.122	-336.67
203.342	-105.29
203.563	-29.09
203.783	22.58
204.003	36.62
204.223	50.14
204.443	19.63
204.663	3.11
204.884	7.16
205.104	3.6
205.324	34.91
205.544	30.17
205.764	34.64
205.984	19.48
206.204	0.31
206.424	-23.88
206.644	-18.55
206.864	3.5
207.084	14.15
207.304	49.51
207.525	41.21
207.745	51.9
207.964	25.45
208.184	20.14
208.404	6.37
208.624	-14.9
208.844	-41.88
209.064	-10.81
209.284	0.3
209.504	-4.46
209.724	-13.15
209.944	-17.63
210.164	-55.69
210.384	-28.08
210.604	-7.17
210.823	35.43
211.043	40.61
211.263	53.15
211.483	58.44
211.703	68.58
211.922	78.36
212.142	99.08
212.362	73.41
212.582	131.12
212.801	131.12
213.021	103.37
213.241	64.39
213.461	70.01
213.68	35.92
213.9	1.05
214.12	9.46
214.339	3.66
214.559	29.92
214.779	8.76
214.998	16.33
215.218	-43.23
215.438	-3.01
215.657	1.05
215.877	14.68
216.096	0.46
216.316	66.53
216.535	10.23
216.755	-72.24
216.974	-205.71
217.194	35.9
217.413	28.73
217.633	40.74
217.852	71.58
218.072	72.61
218.291	68.61
218.511	63.62
218.73	59.42
218.95	53.46
219.169	44.26
219.389	70.59
219.608	87.69
219.827	85.24
220.047	51.05
220.266	34.97
220.485	3.5
220.705	9.71
220.924	8.26
221.143	31.58
221.363	61.17
221.582	73.48
221.801	85.49
222.021	70.59
222.24	96.66
222.459	108.35
222.678	71.78
222.897	65.62
223.117	48.73
223.336	20.65
223.555	38.57
223.774	-5.31
223.993	-19.64
224.213	27.61
224.432	18.98
224.651	31
224.87	36.8
225.089	53.47
225.308	29.61
225.527	43.74
225.746	-1.66
225.965	31.39
226.184	21.36
226.404	31.96
226.623	18.09
226.842	57.68
227.061	51.91
227.28	33.7
227.499	12.93
227.718	2.37
227.936	-29.08
228.155	-44.73
228.374	-18.97
228.593	8.29
228.812	15.96
229.031	44.16
229.25	43.26
229.469	65.06
229.688	65.03
229.907	71.47
230.125	55.7
230.344	62.68
230.563	50.29
230.782	42.16
231.001	95.54
231.22	102.29
231.438	102.1
231.657	90.16
231.876	93.61
232.095	50.41
232.313	17.33
232.532	-6.63
232.751	3.91
232.969	20.21
233.188	24.86
233.407	48.05
233.625	76.92
233.844	59.7
234.063	34.09
234.281	37.74
234.5	42.44
234.719	29.31
234.937	19.82
235.156	23.56
235.374	22.5
235.593	2.01
235.811	-16.95
236.03	-0.76
236.249	-1.83
236.467	-8.32
236.686	-27.4
236.904	6.25
237.123	-3.21
237.341	28.92
237.559	12.35
237.778	26.45
237.996	42.48
238.215	41.1
238.433	34.71
238.652	41.16
238.87	31.34
239.088	2.32
239.307	20.43
239.525	1.18
239.743	15.6
239.962	25.88
240.18	31.81
240.398	19.42
240.617	16.95
240.835	29.91
241.053	44.55
241.271	44.39
241.49	45.36
241.708	64.22
241.926	34.71
242.144	15.95
242.363	73.74
242.581	120.61
242.799	68.78
243.017	42.27
243.235	30.96
243.453	-14.22
243.672	-75.75
243.89	-53.54
244.108	-45.13
244.326	-29.92
244.544	-2.22
244.762	19.45
244.98	56
245.198	23.1
245.416	30.62
245.634	22.01
245.852	18.7
246.07	14.41
246.288	19.15
246.506	-3.83
246.724	19.81
246.942	26.46
247.16	4.45
247.378	-43.73
247.596	-2.12
247.814	4.46
248.032	7.31
248.25	8.41
248.468	25.24
248.685	34.41
248.903	37.6
249.121	39.72
249.339	41.41
249.557	30.07
249.775	17.23
249.992	-14.71
250.21	10.33
250.428	8.94
250.646	19.77
250.863	55.94
251.081	76.65
251.299	57.98
251.517	74.97
251.734	82.26
251.952	40.12
252.17	40.22
252.387	17.76
252.605	5.83
252.823	21.8
253.04	26.18
253.258	35.93
253.475	51.31
253.693	47.91
253.911	37.65
254.128	43.95
254.346	40.42
254.563	37.88
254.781	42.97
254.998	38.31
255.216	36.3
255.433	9.19
255.651	19.48
255.868	-3.45
256.086	3.04
256.303	13.71
256.521	9.59
256.738	-7.84
256.956	3.88
257.173	27.17
257.39	44.09
257.608	43.13
257.825	32.1
258.043	27.29
258.26	14.26
258.477	27.89
258.695	49.77
258.912	51.24
259.129	65.96
259.346	67.39
259.564	53.07
259.781	60.18
259.998	70.09
260.216	62.83
260.433	49.17
260.65	13.76
260.867	-97.1
261.084	-66.25
261.302	-37.45
261.519	-25.53
261.736	21.63
261.953	34.26
262.17	31.61
262.387	50.75
262.604	64.64
262.822	60.57
263.039	75.26
263.256	91.03
263.473	35.59
263.69	57.76
263.907	52.39
264.124	65.55
264.341	43.78
264.558	67.57
264.775	61.11
264.992	60.47
265.209	48.46
265.426	76.74
265.643	40.48
265.86	13.96
266.077	27.45
266.294	24.86
266.51	-9.11
266.727	14.92
266.944	31.67
267.161	19.7
267.378	14.15
267.595	18.48
267.812	9
268.028	-4.45
268.245	5.05
268.462	-6.12
268.679	-1.52
268.896	19.87
269.112	38.1
269.329	53.88
269.546	57.86
269.763	59.82
269.979	59.32
270.196	68.59
270.413	57.56
270.629	66.83
270.846	38.4
271.063	43.77
271.279	8.2
271.496	-20.03
271.712	-121.15
271.929	-86.66
272.146	-75.29
272.362	-68.44
272.579	-27.68
272.795	1.26
273.012	19.73
273.228	4.13
273.445	21.81
273.661	32.63
273.878	46.43
274.094	39.12
274.311	31.26
274.527	15.36
274.744	2.56
274.96	-3.53
275.177	-3.06
275.393	8.52
275.609	0.41
275.826	8.57
276.042	19.01
276.259	29.73
276.475	17.93
276.691	24.75
276.908	24.22
277.124	32.78
277.34	26.13
277.557	17.02
277.773	20.69
277.989	3.86
278.205	-1.92
278.422	26.49
278.638	51.21
278.854	50.28
279.07	50.01
279.286	29.56
279.503	12.25
279.719	-14.1
279.935	0.28
280.151	28.9
280.367	37.56
280.583	35.33
280.799	46.71
281.016	23.57
281.232	5.56
281.448	-5.85
281.664	-2.97
281.88	-14.26
282.096	21.13
282.312	15.01
282.528	40.92
282.744	44.57
282.96	41.07
283.176	49.34
283.392	54.62
283.608	46.01
283.824	57.21
284.04	61.27
284.256	48.44
284.471	38.09
284.687	35.85
284.903	31.07
285.119	40.51
285.335	24.62
285.551	15.23
285.767	16.68
285.982	-21.74
286.198	-63.52
286.414	-47.82
286.63	11.35
286.846	18.83
287.061	33.4
287.277	18.73
287.493	56.27
287.709	20.9
287.924	25.12
288.14	39.9
288.356	43.06
288.571	29.27
288.787	37.22
289.003	24.35
289.218	-35.48
289.434	-24.09
289.65	-15.8
289.865	12.14
290.081	23.86
290.296	25.37
290.512	20.5
290.727	35.65
290.943	24.14
291.159	18.3
291.374	27.6
291.59	31.91
291.805	30.37
292.021	52.34
292.236	70.57
292.451	66.17
292.667	81.59
292.882	41.58
293.098	6.57
293.313	15.8
293.529	22.57
293.744	11.13
293.959	7.45
294.175	5.69
294.39	-26.05
294.605	-23.41
294.821	-11.44
295.036	-13.21
295.251	-11.9
295.467	23.33
295.682	21.83
295.897	23.58
296.112	20.21
296.328	33.26
296.543	21.46
296.758	14.37
296.973	5.47
297.188	30.2
297.404	34.71
297.619	40.28
297.834	30.23
298.049	24.99
298.264	5.86
298.479	-27.18
298.694	-39.5
298.909	-15.6
299.125	8.61
299.34	19.9
299.555	17.93
299.77	19.28
299.985	24.93
300.2	23.6
300.415	25.97
300.63	13.18
300.845	10.82
301.06	12.47
301.275	9.08
301.49	-14.81
301.704	-10.46
301.919	19.05
302.134	5.72
302.349	2.86
302.564	8.22
302.779	24.95
302.994	21.23
303.209	27.65
303.423	4.13
303.638	17.84
303.853	18.07
304.068	16.04
304.283	32.27
304.497	42.56
304.712	55.37
304.927	47.48
305.142	58.93
305.356	53.76
305.571	82.04
305.786	69.34
306	61.04
306.215	63.4
306.43	67.45
306.644	56.58
306.859	56.74
307.074	87.2
307.288	75.96
307.503	75.9
307.717	78.8
307.932	53.64
308.147	42.58
308.361	41.36
308.576	4.73
308.79	1.11
309.005	18.36
309.219	-11.09
309.434	-20.56
309.648	-43.27
309.863	-33.2
310.077	-98.93
310.292	-75.48
310.506	-53.43
310.72	3.35
310.935	14.37
311.149	48.02
311.364	56
311.578	60.15
311.792	47.39
312.007	29.68
312.221	29.16
312.435	37.27
312.649	35.88
312.864	58.76
313.078	52.47
313.292	60.12
313.507	64.61
313.721	47.04
313.935	43.03
314.149	24.83
314.363	12.99
314.578	9.78
314.792	0.52
315.006	-19.32
315.22	9.85
315.434	-17.18
315.648	-55.48
315.862	7.02
316.077	0.36
316.291	-43.77
316.505	7.38
316.719	16.16
316.933	0.6
317.147	0.33
317.361	13.31
317.575	-4.38
317.789	-6.46
318.003	-22.39
318.217	11.04
318.431	16.64
318.645	43.43
318.859	32.66
319.073	34.36
319.287	10.06
319.5	23.97
319.714	19.74
319.928	19.53
320.142	24.86
320.356	33.75
320.57	37.53
320.784	11.78
320.997	28.28
321.211	34.03
321.425	16.22
321.639	-20.46
321.853	-7.17
322.066	5.78
322.28	-7.16
322.494	-7.12
322.707	8.46
322.921	8.44
323.135	-6.08
323.349	-3.07
323.562	4.27
323.776	19.99
323.989	18.61
324.203	38.56
324.417	50.01
324.63	30.96
324.844	14.94
325.057	29.17
325.271	4.95
325.485	8.11
325.698	21.18
325.912	15.67
326.125	8.61
326.339	33.71
326.552	16.14
326.766	-2.82
326.979	24.76
327.193	28.46
327.406	31.42
327.619	70.22
327.833	69.48
328.046	71.64
328.26	80.36
328.473	1.6
328.686	-12.36
328.9	-18.68
329.113	-18.37
329.326	-18.93
329.54	17.93
329.753	31.93
329.966	58.25
330.179	47.96
330.393	88.22
330.606	87.21
330.819	64.16
331.032	61.99
331.246	87.97
331.459	36.27
331.672	29.64
331.885	41
332.098	52.68
332.311	44.53
332.525	42.06
332.738	35.76
332.951	11.39
333.164	-2.8
333.377	-3.38
333.59	1.57
333.803	-0.97
334.016	23.4
334.229	30.92
334.442	34.71
334.655	40.25
334.868	43.58
335.081	50.73
335.294	57.28
335.507	55.11
335.72	59.93
335.933	57.54
336.146	53.72
336.359	46.08
336.572	39.74
336.785	22.15
336.997	33.7
337.21	27.51
337.423	39.87
337.636	29.48
337.849	41.91
338.062	22.8
338.274	1.09
338.487	-10.14
338.7	5.22
338.913	-6.51
339.125	-9.52
339.338	-3.25
339.551	-5.39
339.763	6.52
339.976	5.99
340.189	14.77
340.402	5.07
340.614	15.56
340.827	19.86
341.039	33.18
341.252	18.7
341.465	22.46
341.677	19.45
341.89	-0.91
342.102	2.27
342.315	4.98
342.527	31.48
342.74	17.29
342.952	10.91
343.165	22.04
343.377	39.81
343.59	-1.23
343.802	2.54
344.015	35.23
344.227	17.89
344.44	10.89
344.652	35.6
344.864	44.81
345.077	39.59
345.289	28.73
345.502	29.63
345.714	28.68
345.926	38.2
346.139	29.97
346.351	38.42
346.563	24.4
346.775	14.49
346.988	-10.8
347.2	-11.95
347.412	-33.67
347.624	17.99
347.837	23.59
348.049	27.52
348.261	21.53
348.473	32.88
348.685	43.27
348.897	59.58
349.11	70.61
349.322	71.06
349.534	51.5
349.746	32.04
349.958	11.16
350.17	17.26
350.382	23.55
350.594	26.05
350.806	15.92
351.018	28.24
351.23	21.03
351.442	28.14
351.654	20.93
351.866	22.05
352.078	9.5
352.29	3.07
352.502	3.57
352.714	-10.87
352.926	3.06
353.138	2.37
353.35	14.2
353.561	4.36
353.773	16.79
353.985	12.98
354.197	22.62
354.409	10.17
354.621	20.48
354.832	25.35
355.044	19.9
355.256	22.49
355.468	24.58
355.679	30.34
355.891	40.64
356.103	53.47
356.314	50.08
356.526	49.92
356.738	43.98
356.949	21.92
357.161	2.6
357.373	-4.37
357.584	11.06
357.796	15.24
358.008	35.97
358.219	55.02
358.431	63.64
358.642	19.48
358.854	31.59
359.065	34.46
359.277	35.17
359.488	30.26
359.7	40.62
359.911	30.89
360.123	18.05
360.334	23.98
360.546	31.16
360.757	31.77
360.969	35.98
361.18	62.52
361.391	67.12
361.603	65.84
361.814	82.24
362.025	79.73
362.237	51.09
362.448	40.6
362.659	33.93
362.871	18
363.082	6.91
363.293	0.92
363.504	-9.72
363.716	-14.49
363.927	9.55
364.138	21.04
364.349	11.3
364.56	18.66
364.772	18.03
364.983	4.25
365.194	-7.4
365.405	-1.65
365.616	6.55
365.827	13.59
366.038	26.59
366.25	27.65
366.461	21.74
366.672	29.61
366.883	31.13
367.094	33.03
367.305	34.38
367.516	50.41
367.727	54.65
367.938	36.33
368.149	20.79
368.36	25.52
368.571	10.23
368.781	-23.14
368.992	9.11
369.203	21.44
369.414	5.5
369.625	21.13
369.836	8
370.047	16.17
370.258	11.91
370.468	20.04
370.679	9.5
370.89	19.32
371.101	10.64
371.312	19.82
371.522	18.88
371.733	14.82
371.944	17.22
372.155	47.12
372.365	37.28
372.576	54.81
372.787	60.69
372.997	59.93
373.208	45.81
373.419	53.43
373.629	27.37
373.84	43.23
374.05	49.8
374.261	46.31
374.472	43.92
374.682	52.63
374.893	33.47
375.103	27.56
375.314	29.79
375.524	24.67
375.735	15
375.945	33.33
376.156	40.36
376.366	34.09
376.577	42.31
376.787	49.08
376.997	32.67
377.208	24.38
377.418	26.03
377.629	28.85
377.839	36.34
378.049	44.09
378.26	35.64
378.47	34.31
378.68	33.2
378.89	17.02
379.101	9.32
379.311	21.32
379.521	32.56
379.732	24.47
379.942	33.49
380.152	38.46
380.362	32.95
380.572	18.59
380.783	15.14
380.993	6.87
381.203	7.06
381.413	9.62
381.623	21.31
381.833	27.32
382.043	36.13
382.253	40.05
382.463	44.48
382.674	38.81
382.884	36.41
383.094	31.86
383.304	24.95
383.514	20.27
383.724	13.1
383.934	12.3
384.144	6.62
384.353	8.3
384.563	7.9
384.773	15.05
384.983	11.46
385.193	18.85
385.403	18.83
385.613	18.66
385.823	13.13
386.033	8.93
386.242	10.92
386.452	12.43
386.662	14.27
386.872	15.68
387.082	23.5
387.291	12.82
387.501	9.8
387.711	8.81
387.921	8.04
388.13	-0.05
388.34	5.39
388.55	6.91
388.759	2.6
388.969	2.02
389.179	4.68
389.388	2.67
389.598	3.61
389.807	8.95
390.017	11.56
390.227	10.81
390.436	10.39
390.646	8.5
390.855	4.01
391.065	3.23
391.274	2.75
391.484	5.97
391.693	4.96
391.903	7.84
392.112	8.44
392.322	8.02
392.531	6.23
392.74	8.23
392.95	6.92
393.159	6.38
393.369	7.72
393.578	8.99
393.787	9.06
393.997	8.9
394.206	8.42
394.415	8.54
394.625	8.23
394.834	7.99
395.043	7.64
395.252	8.39
395.462	8.29
395.671	7.8
395.88	8.57
396.089	8.88
396.298	8.71
396.508	8.55
396.717	8.81
396.926	7.93
397.135	7.41
397.344	7.33
397.553	7.49
397.762	7.52
397.971	7.45
398.181	7.78
398.39	7.79
398.599	7.91
398.808	7.75
399.017	7.62
399.226	7.75
399.435	7.64
399.644	7.63
399.853	7.85
400.062	8.17
400.27	8.11
400.479	8.01
400.688	7.66
400.897	7.62
401.106	7.43
401.315	7.13
401.524	7.04
401.733	7.21
401.941	7.09
402.15	7.08
402.359	7.13
402.568	7.1
402.777	7.19
402.985	7.28
403.194	7.25
403.403	7.51
403.612	7.51
403.82	7.51
404.029	7.33
404.238	7.44
404.446	7.44
404.655	7.7
404.864	7.66
405.072	7.55
405.281	7.49
405.489	7.42
405.698	7.39
405.906	7.22
406.115	7.02
406.324	7.04
406.532	6.95
406.741	6.85
406.949	6.8
407.158	7.14
407.366	7.15
407.574	7.26
407.783	7.24
407.991	7.29
408.2	7.17
408.408	7.04
408.617	6.92
408.825	6.92
409.033	6.93
409.242	6.93
409.45	6.8
409.658	6.61
409.867	6.56
410.075	6.6
410.283	6.67
410.491	6.81
410.7	7.05
410.908	6.98
411.116	6.93
411.324	6.84
411.533	6.67
411.741	6.57
411.949	6.58
412.157	6.59
412.365	6.69
412.573	6.74
412.781	6.66
412.99	6.81
413.198	6.88
413.406	6.83
413.614	6.9
413.822	6.97
414.03	6.92
414.238	6.74
414.446	6.71
414.654	6.75
414.862	6.74
415.07	6.74
415.278	6.88
415.486	6.82
415.694	6.81
415.902	6.74
416.109	6.38
416.317	6.39
416.525	6.37
416.733	6.36
416.941	6.49
417.149	6.66
417.357	6.62
417.564	6.52
417.772	6.49
417.98	6.36
418.188	6.36
418.395	6.22
418.603	6.25
418.811	6.2
419.019	6.37
419.226	6.43
419.434	6.59
419.642	6.54
419.849	6.59
420.057	6.43
420.265	6.45
420.472	6.25
420.68	6.31
420.887	6.25
421.095	6.33
421.302	6.26
421.51	6.44
421.717	6.44
421.925	6.31
422.132	6.29
422.34	6.3
422.547	6.35
422.755	6.27
422.962	6.32
423.17	6.39
423.377	6.36
423.585	6.12
423.792	6.21
423.999	6.21
424.207	6
424.414	5.9
424.621	6.02
424.829	6.04
425.036	6.17
425.243	6.32
425.451	6.47
425.658	6.41
425.865	6.19
426.072	6.02
426.28	5.78
426.487	5.76
426.694	5.77
426.901	5.97
427.108	6.16
427.315	6.26
427.523	6.24
427.73	6.11
427.937	5.97
428.144	5.85
428.351	6
428.558	6.07
428.765	6
428.972	6.11
429.179	6.21
429.386	6.07
429.593	6.06
429.8	6.14
430.007	6
430.214	5.88
430.421	6.01
430.628	5.78
430.835	5.92
431.042	6.04
431.249	6.01
431.456	5.94
431.662	6.15
431.869	6.12
432.076	6.13
432.283	6.27
432.49	6.2
432.697	6.15
432.903	6.02
433.11	5.88
433.317	5.77
433.524	5.86
433.73	5.87
433.937	5.85
434.144	6.01
434.35	5.93
434.557	5.92
434.764	5.85
434.97	5.89
435.177	5.89
435.384	5.91
435.59	5.89
435.797	5.9
436.003	5.93
436.21	5.73
436.416	5.75
436.623	5.72
436.829	5.69
437.036	5.56
437.242	5.65
437.449	5.71
437.655	5.79
437.862	5.9
438.068	6.16
438.275	6.22
438.481	6.3
438.687	6.18
438.894	6.24
439.1	6.02
439.307	5.99
439.513	5.84
439.719	5.9
439.926	5.8
440.132	5.93
440.338	6.05
440.544	6.18
440.751	6.15
440.957	6.03
441.163	5.94
441.369	5.83
441.575	5.72
441.782	5.71
441.988	5.74
442.194	5.73
442.4	5.8
442.606	5.88
442.812	5.8
443.018	5.85
443.224	5.92
443.431	5.85
443.637	5.77
443.843	5.77
444.049	5.73
444.255	5.73
444.461	5.77
444.667	5.8
444.873	5.8
445.079	5.74
445.284	5.75
445.49	5.75
445.696	5.81
445.902	5.85
446.108	5.87
446.314	5.74
446.52	5.71
446.726	5.65
446.931	5.62
447.137	5.67
447.343	5.78
447.549	5.74
447.755	5.83
447.96	5.88
448.166	5.86
448.372	5.79
448.578	5.84
448.783	5.87
448.989	5.77
449.195	5.87
449.4	6.03
449.606	6.07
449.812	6.02
450.017	6.22
450.223	6.13
450.428	6.1
450.634	6.09
450.84	6.03
451.045	5.89
451.251	5.9
451.456	5.88
451.662	5.76
451.867	5.84
452.073	5.92
452.278	6.05
452.483	6.09
452.689	6.21
452.894	6.23
453.1	6.21
453.305	6.1
453.51	6.09
453.716	6.12
453.921	6.08
454.127	6.03
454.332	6.04
454.537	6.08
454.742	5.99
454.948	5.96
455.153	5.94
455.358	5.9
455.563	5.81
455.769	5.75
455.974	5.87
456.179	5.93
456.384	5.94
456.589	5.88
456.795	5.99
457	5.84
457.205	5.76
457.41	5.88
457.615	5.99
457.82	5.98
458.025	5.91
458.23	6.02
458.435	5.86
458.64	5.81
458.845	5.88
459.05	6.03
459.255	5.98
459.46	6.04
459.665	6.05
459.87	5.91
460.075	5.91
460.28	6.05
460.485	6.04
460.69	6
460.895	5.99
461.099	6.03
461.304	5.97
461.509	6
461.714	6.1
461.919	6.19
462.123	6.15
462.328	6.13
462.533	6.23
462.738	6.2
462.942	6.28
463.147	6.34
463.352	6.41
463.556	6.37
463.761	6.31
463.966	6.32
464.17	6.41
464.375	6.4
464.58	6.42
464.784	6.61
464.989	6.62
465.193	6.51
465.398	6.72
465.602	6.79
465.807	6.78
466.011	6.78
466.216	6.81
466.42	6.72
466.625	6.73
466.829	6.74
467.034	6.64
467.238	6.64
467.443	6.52
467.647	6.36
467.851	6.24
468.056	6.37
