Data from Ofav_SP_Phys_0AZ4_Reflection_3.txt Node
Date: Thu Aug 05 17:43:20 EDT 2021
User: Adam
Spectrometer: FLMT01687
Trigger mode: 0
Integration Time (sec): 8.000000E-1
Scans to average: 2
Electric dark correction enabled: true
Nonlinearity correction enabled: false
Boxcar width: 2
XAxis mode: Wavelengths
Number of Pixels in Spectrum: 3648
>>>>>Begin Spectral Data<<<<<
179.494	318.64
179.716	343.13
179.937	282.73
180.158	325.05
180.38	636.84
180.601	-175.93
180.823	-78.49
181.044	-65.59
181.265	-8.28
181.486	23.8
181.708	555.03
181.929	-80.81
182.15	-563.67
182.372	5.04
182.593	42.37
182.814	-202.88
183.035	87.42
183.257	858.01
183.478	-1114.24
183.699	1403.95
183.92	462.75
184.141	-1457.85
184.363	1809.19
184.584	-141.57
184.805	2.35
185.026	13.6
185.247	6.3
185.468	29.08
185.689	23.06
185.91	15.22
186.132	-56.71
186.353	-1.79
186.574	-65.07
186.795	-49.44
187.016	-33.97
187.237	12.07
187.458	-164
187.679	-17.34
187.9	-2.61
188.121	-56.15
188.342	-37.93
188.563	-20.2
188.784	-26.08
189.005	-134.09
189.226	-51.17
189.447	-46.17
189.667	-31.19
189.888	-99
190.109	41.19
190.33	43.04
190.551	44.94
190.772	27.69
190.993	20.45
191.214	21.09
191.434	15.89
191.655	-4.32
191.876	-5.18
192.097	12.46
192.318	0.54
192.538	-32.75
192.759	65.75
192.98	54.68
193.201	-90.16
193.421	-153.15
193.642	-67.1
193.863	-139.24
194.083	-63.21
194.304	-22.25
194.525	-28.7
194.745	-35
194.966	-21.82
195.187	-35.78
195.407	-75.85
195.628	-82.49
195.848	-63.11
196.069	-27.04
196.29	-39.96
196.51	-27.82
196.731	11.22
196.951	21.01
197.172	17.55
197.392	35.06
197.613	26.67
197.833	34.02
198.054	25.17
198.274	25.74
198.495	15.11
198.715	34.01
198.936	18.34
199.156	20.06
199.377	39.64
199.597	22.59
199.817	4.69
200.038	4.32
200.258	14.17
200.479	7.21
200.699	15.21
200.919	11.49
201.14	-5.37
201.36	-24.64
201.58	-39.19
201.801	-104.58
202.021	-87.79
202.241	-24.19
202.461	-61.73
202.682	-57.87
202.902	-124.15
203.122	-226.66
203.342	-185.85
203.563	-95.37
203.783	-101.99
204.003	-7.59
204.223	19.68
204.443	-8.25
204.663	-14.32
204.884	0.69
205.104	-8.95
205.324	-20.27
205.544	-4.94
205.764	4.82
205.984	-20.74
206.204	-33.98
206.424	-23.16
206.644	-37.6
206.864	-39.06
207.084	-58.57
207.304	-42.89
207.525	-98.15
207.745	-40.2
207.964	-64.03
208.184	-30.96
208.404	-23.7
208.624	-21.11
208.844	-54.85
209.064	-20.09
209.284	6.15
209.504	-42.27
209.724	-24.93
209.944	-17.87
210.164	-35.79
210.384	-34.87
210.604	-24.43
210.823	0.8
211.043	-5.64
211.263	-4.37
211.483	0.4
211.703	25.8
211.922	-21.71
212.142	-19.46
212.362	-17.88
212.582	-47.48
212.801	-84.16
213.021	-20.66
213.241	-39.14
213.461	-36.12
213.68	-36.75
213.9	-51.41
214.12	-87.94
214.339	-69.22
214.559	-41.43
214.779	-36.29
214.998	-2.62
215.218	7.77
215.438	29.37
215.657	-15.99
215.877	-30.16
216.096	-92.99
216.316	-115.15
216.535	-170.08
216.755	-229.36
216.974	-545.64
217.194	-58.56
217.413	-7.02
217.633	21.28
217.852	50.28
218.072	26.45
218.291	-5.26
218.511	-2.23
218.73	-21.21
218.95	-65.26
219.169	-80.11
219.389	-9.9
219.608	-53.36
219.827	-36.92
220.047	-33.25
220.266	6.46
220.485	-46.81
220.705	-36.51
220.924	-82.81
221.143	-60.64
221.363	-81.61
221.582	-57.05
221.801	-58.87
222.021	1.14
222.24	6.87
222.459	-2.3
222.678	3.21
222.897	8.15
223.117	-19.66
223.336	-20.68
223.555	-17.8
223.774	-51.44
223.993	-68.28
224.213	9.7
224.432	-17.95
224.651	-10.04
224.87	9.37
225.089	21.53
225.308	-32.53
225.527	-11
225.746	-5.53
225.965	-23.15
226.184	-2.61
226.404	-6.82
226.623	-31.08
226.842	3.4
227.061	21.73
227.28	8.45
227.499	0.02
227.718	8.34
227.936	-19.1
228.155	-46.08
228.374	-24.33
228.593	-15.01
228.812	-20.49
229.031	-10.21
229.25	-8.64
229.469	-2.81
229.688	16.03
229.907	24.36
230.125	1.38
230.344	-4.9
230.563	-12.35
230.782	-111.95
231.001	-143.4
231.22	-20.51
231.438	35.31
231.657	28.4
231.876	-1.41
232.095	9.85
232.313	-23.53
232.532	-67.65
232.751	-80.07
232.969	-22.27
233.188	-47.13
233.407	-57.88
233.625	-26.55
233.844	-52.18
234.063	-52.5
234.281	-24.23
234.5	6.8
234.719	0.03
234.937	-14.22
235.156	-21.39
235.374	-28.43
235.593	-30.8
235.811	-57.24
236.03	-26.01
236.249	-28.2
236.467	-8.51
236.686	-41.81
236.904	-25.48
237.123	-67.25
237.341	-22.73
237.559	-50.52
237.778	-38.73
237.996	-16.61
238.215	-18.68
238.433	-20.46
238.652	-23.06
238.87	-12.49
239.088	-13.5
239.307	-8.51
239.525	-21.57
239.743	-9.12
239.962	17.22
240.18	-16.28
240.398	-13.22
240.617	-7.32
240.835	-16.42
241.053	-33.65
241.271	-26.13
241.49	-16.33
241.708	-56.81
241.926	-35.63
242.144	-67.73
242.363	-111.61
242.581	-84.55
242.799	-45.87
243.017	-18.55
243.235	-89.83
243.453	-31.71
243.672	-37.25
243.89	-69.97
244.108	-122.44
244.326	-21.46
244.544	-27.91
244.762	-45.63
244.98	-46.8
245.198	-52.89
245.416	-51.08
245.634	-62.95
245.852	-89.5
246.07	-22.94
246.288	-21.85
246.506	-69.67
246.724	-35.89
246.942	-22.26
247.16	-56.21
247.378	-143.19
247.596	-71.9
247.814	-73.34
248.032	-65.11
248.25	-81.27
248.468	-38.21
248.685	-21.66
248.903	-23.95
249.121	-38.08
249.339	-13.41
249.557	-19.79
249.775	-26.69
249.992	-21.41
250.21	19.91
250.428	-1.35
250.646	12.93
250.863	5.26
251.081	23.7
251.299	4.86
251.517	50.24
251.734	35.63
251.952	19.81
252.17	-13.49
252.387	-37.49
252.605	-40.36
252.823	-35.92
253.04	-16.44
253.258	-10.93
253.475	3.54
253.693	-24.58
253.911	-6.06
254.128	2.27
254.346	14.4
254.563	22.76
254.781	35.13
254.998	-10.1
255.216	-23.08
255.433	-57.59
255.651	-158.92
255.868	-130.03
256.086	-112.55
256.303	-93.72
256.521	-170.13
256.738	-208.53
256.956	-388.43
257.173	-90.72
257.39	-35.48
257.608	-31.26
257.825	-6.96
258.043	-8.25
258.26	-32.61
258.477	-48.34
258.695	-14.15
258.912	-3.45
259.129	6.03
259.346	12.62
259.564	21.46
259.781	16.19
259.998	5.93
260.216	-8.08
260.433	5.77
260.65	-19.16
260.867	-82.13
261.084	-42.4
261.302	-5.36
261.519	-12.46
261.736	19.21
261.953	35.12
262.17	34.42
262.387	14.64
262.604	1.3
262.822	-11.55
263.039	-45.98
263.256	-3.9
263.473	-1.11
263.69	34.18
263.907	22.77
264.124	1.62
264.341	-18.67
264.558	-17.1
264.775	-40.91
264.992	-47.07
265.209	-10.82
265.426	-32.95
265.643	-14.08
265.86	-26.22
266.077	-32.74
266.294	-65.28
266.51	-42.29
266.727	-53.44
266.944	-33.68
267.161	-23.24
267.378	5.36
267.595	-8.59
267.812	-1.17
268.028	-5.8
268.245	2.55
268.462	-35.6
268.679	-40.07
268.896	-32.1
269.112	-29.65
269.329	-14.39
269.546	25.12
269.763	40.87
269.979	39.46
270.196	36.65
270.413	25.94
270.629	3.69
270.846	-23.44
271.063	-12.46
271.279	-38.86
271.496	-87.58
271.712	-102.71
271.929	-104.54
272.146	-88.47
272.362	-113.73
272.579	-89.92
272.795	-72.26
273.012	-28.65
273.228	-42.8
273.445	-14.47
273.661	22.49
273.878	13.86
274.094	3.45
274.311	11.29
274.527	7.21
274.744	-28.35
274.96	-14.74
275.177	-19.95
275.393	-55.12
275.609	-55.14
275.826	-43.25
276.042	-48.48
276.259	-52.79
276.475	-22.06
276.691	-20.36
276.908	-9.1
277.124	7.73
277.34	7.51
277.557	-7.9
277.773	4.57
277.989	-25.23
278.205	-27.52
278.422	-21.48
278.638	11.87
278.854	2.55
279.07	7.72
279.286	7.22
279.503	1.05
279.719	-36.14
279.935	-13.57
280.151	13.29
280.367	12.47
280.583	20.39
280.799	53.16
281.016	57.86
281.232	31.84
281.448	-20.26
281.664	-27.52
281.88	-109.14
282.096	-68.33
282.312	-38.01
282.528	-8.43
282.744	-6.64
282.96	12.18
283.176	7.51
283.392	19.89
283.608	9.79
283.824	-0.38
284.04	-2.43
284.256	-11.47
284.471	-46.13
284.687	-43.42
284.903	-23.82
285.119	-26.59
285.335	-33.83
285.551	-33.27
285.767	-24.11
285.982	-43.68
286.198	-72.44
286.414	-53.15
286.63	-23.42
286.846	-24.86
287.061	-16.03
287.277	4.61
287.493	7.53
287.709	-5.43
287.924	7.95
288.14	8.94
288.356	7.96
288.571	16.15
288.787	20.79
289.003	17.13
289.218	-10.33
289.434	-46.59
289.65	-34.32
289.865	5.25
290.081	-11.01
290.296	7.2
290.512	8.47
290.727	1.25
290.943	-9.65
291.159	-1.73
291.374	3.86
291.59	4.27
291.805	4.18
292.021	10.79
292.236	-1.86
292.451	-19.59
292.667	-48.56
292.882	-31.56
293.098	-31.42
293.313	-13.71
293.529	-4.69
293.744	0.01
293.959	-4.78
294.175	-6.77
294.39	-12.1
294.605	-36.69
294.821	-38.02
295.036	-45.5
295.251	-38.7
295.467	-24.15
295.682	-15.23
295.897	-7.3
296.112	-12.68
296.328	-10.89
296.543	-1.5
296.758	-6.78
296.973	-12.99
297.188	22.04
297.404	17.76
297.619	14.71
297.834	8.05
298.049	-5.11
298.264	-51.78
298.479	-49.87
298.694	-75.42
298.909	-29.11
299.125	-6.81
299.34	23.81
299.555	23.21
299.77	44.3
299.985	59.57
300.2	65.18
300.415	28.91
300.63	3.15
300.845	-23.65
301.06	-39.37
301.275	-52.42
301.49	-38.77
301.704	-60.89
301.919	-7.2
302.134	-14.78
302.349	-3.5
302.564	-8.6
302.779	3.1
302.994	-0.18
303.209	9.11
303.423	13.96
303.638	33.45
303.853	11.52
304.068	-7.29
304.283	-0.49
304.497	-15.26
304.712	-64.8
304.927	-38.79
305.142	-12.59
305.356	-44.41
305.571	-36.46
305.786	-2.33
306	14.35
306.215	13.7
306.43	23.04
306.644	42.47
306.859	41.08
307.074	32.14
307.288	23.89
307.503	31.32
307.717	20.87
307.932	11.27
308.147	-4
308.361	2.95
308.576	-8.05
308.79	-26.72
309.005	-11.71
309.219	-20.71
309.434	-42.5
309.648	-92.67
309.863	-87.51
310.077	-144.92
310.292	-140.98
310.506	-107.34
310.72	-61.21
310.935	-67.05
311.149	-82.87
311.364	-38.95
311.578	-20.47
311.792	10.51
312.007	1.81
312.221	16.5
312.435	17.54
312.649	21.1
312.864	-6.51
313.078	13.19
313.292	20.43
313.507	17.93
313.721	17.62
313.935	2.41
314.149	-9.77
314.363	-14.75
314.578	3.9
314.792	-7.09
315.006	-11.84
315.22	-1.91
315.434	-32.9
315.648	-102.46
315.862	-107.32
316.077	-74.99
316.291	-64.07
316.505	-37.12
316.719	1.95
316.933	11.04
317.147	4.69
317.361	-1.35
317.575	0.02
317.789	-11.72
318.003	-52.02
318.217	-8.17
318.431	6.25
318.645	17.76
318.859	5.3
319.073	9.28
319.287	-4.4
319.5	-12.82
319.714	-7.75
319.928	10.73
320.142	19.01
320.356	27.5
320.57	15.15
320.784	-12.41
320.997	-48.91
321.211	-28.88
321.425	-69.44
321.639	-34.54
321.853	-32.2
322.066	-13.67
322.28	-22.58
322.494	-22.68
322.707	-27.53
322.921	-13.26
323.135	-18.29
323.349	-4.23
323.562	-9.08
323.776	2.22
323.989	-13.76
324.203	-7.74
324.417	-17.42
324.63	-7.08
324.844	-22.44
325.057	-25.53
325.271	-66.64
325.485	-46.42
325.698	-54.75
325.912	-44.73
326.125	-13.19
326.339	10.28
326.552	-4.35
326.766	-2.98
326.979	16.55
327.193	3.53
327.406	-1.65
327.619	-1.28
327.833	-2.43
328.046	-24.58
328.26	-61.59
328.473	-27.07
328.686	-11.77
328.9	-21.94
329.113	-20.47
329.326	-15.59
329.54	-20
329.753	-35.73
329.966	-7.97
330.179	-7.47
330.393	4.52
330.606	15.41
330.819	0.76
331.032	-34.06
331.246	-1.27
331.459	-5.47
331.672	-23.72
331.885	23.02
332.098	45.1
332.311	23.88
332.525	-1.48
332.738	-7.98
332.951	-30.85
333.164	-32.07
333.377	-13.75
333.59	-7.02
333.803	-23.15
334.016	-25.86
334.229	-55.19
334.442	-42.78
334.655	-26
334.868	10.87
335.081	9.19
335.294	26.25
335.507	13.02
335.72	27.08
335.933	16.3
336.146	25.6
336.359	11.92
336.572	13.05
336.785	-9.3
336.997	-2.23
337.21	-3.27
337.423	25.81
337.636	32.08
337.849	43.52
338.062	15.17
338.274	-8.79
338.487	-32.58
338.7	-27.05
338.913	-49.91
339.125	-20.77
339.338	-16.25
339.551	-17.77
339.763	-4.35
339.976	11.86
340.189	11.45
340.402	-5.44
340.614	2.2
340.827	-8.69
341.039	-10.71
341.252	-10.27
341.465	7.84
341.677	4.34
341.89	-0.34
342.102	8.87
342.315	-6.67
342.527	10.24
342.74	6.18
342.952	0.25
343.165	-26.18
343.377	-2.62
343.59	-87.66
343.802	-71.71
344.015	-66.23
344.227	-39.63
344.44	-37.21
344.652	1.05
344.864	17.58
345.077	23.37
345.289	16.76
345.502	6.75
345.714	0.5
345.926	-1.32
346.139	4.37
346.351	9.53
346.563	-1.17
346.775	2.54
346.988	-21.28
347.2	-28.41
347.412	-77.48
347.624	-31.85
347.837	-18.03
348.049	-8.38
348.261	-9.75
348.473	11.21
348.685	27.14
348.897	26.27
349.11	12.3
349.322	4.86
349.534	-0.25
349.746	-36.21
349.958	-42.34
350.17	-27.64
350.382	-18.34
350.594	-29.03
350.806	-22.77
351.018	-2.84
351.23	8.27
351.442	14.5
351.654	8.92
351.866	14.39
352.078	4.47
352.29	-3.27
352.502	0.67
352.714	-9.38
352.926	-5.51
353.138	-7.72
353.35	6.68
353.561	-6.22
353.773	4.82
353.985	-0.53
354.197	10.23
354.409	-4.68
354.621	-10.68
354.832	-6.1
355.044	-14.08
355.256	-15.07
355.468	-26.22
355.679	-14.3
355.891	-8.09
356.103	-15.27
356.314	-23.17
356.526	-27.31
356.738	-21.99
356.949	-48.76
357.161	-35.54
357.373	-39.78
357.584	-29.14
357.796	-25.97
358.008	-13.12
358.219	-44.15
358.431	-49.32
358.642	-34.77
358.854	-8.79
359.065	-2.56
359.277	21.39
359.488	15.7
359.7	16.17
359.911	-4.24
360.123	-6.7
360.334	1.02
360.546	2.93
360.757	-5.92
360.969	-5.05
361.18	-6.53
361.391	-12.47
361.603	10.68
361.814	3.62
362.025	8.29
362.237	9.8
362.448	3.15
362.659	-8.29
362.871	-5.64
363.082	-8.47
363.293	-14.14
363.504	-25.17
363.716	-40.94
363.927	-20.57
364.138	-48.4
364.349	-45.53
364.56	-49.27
364.772	-42.56
364.983	-70.03
365.194	-32.86
365.405	-35.27
365.616	-2.12
365.827	7.87
366.038	12.96
366.25	14.78
366.461	9.28
366.672	9.66
366.883	12.68
367.094	11.58
367.305	15.91
367.516	26.84
367.727	34.25
367.938	9.19
368.149	-6.15
368.36	-27.84
368.571	-60.46
368.781	-95.5
368.992	-44.15
369.203	4.03
369.414	14.71
369.625	9.52
369.836	-9.62
370.047	-19.63
370.258	-26.37
370.468	-27.97
370.679	-18.9
370.89	-6.23
371.101	-6.92
371.312	-6.98
371.522	-1.84
371.733	-11.28
371.944	-8.24
372.155	-3.68
372.365	-4.19
372.576	2.55
372.787	-1.25
372.997	-5.66
373.208	6.85
373.419	0.53
373.629	-9.01
373.84	7.8
374.05	14.92
374.261	8.25
374.472	8.37
374.682	6.4
374.893	12.52
375.103	4.58
375.314	-5.37
375.524	-5.21
375.735	-9.79
375.945	-9.5
376.156	-14.78
376.366	-1.35
376.577	5.68
376.787	11.85
376.997	8.81
377.208	6.91
377.418	15.69
377.629	14.67
377.839	21.13
378.049	14.16
378.26	24.77
378.47	17.24
378.68	23.56
378.89	11.51
379.101	14.52
379.311	15.75
379.521	23.81
379.732	11.82
379.942	22.47
380.152	17.6
380.362	8.83
380.572	9.56
380.783	2.62
380.993	-2.13
381.203	-1.34
381.413	4.52
381.623	6.05
381.833	15.53
382.043	16.35
382.253	21.92
382.463	27.73
382.674	23.73
382.884	16.15
383.094	7.38
383.304	0.56
383.514	-4.07
383.724	-7.92
383.934	-1.89
384.144	-0.32
384.353	7.65
384.563	2.86
384.773	4.52
384.983	-1.44
385.193	1.49
385.403	-2.64
385.613	-0.66
385.823	-6.02
386.033	-5.1
386.242	-0.06
386.452	1.29
386.662	3.01
386.872	2.99
387.082	7.43
387.291	-0.91
387.501	0.73
387.711	-1.11
387.921	0.66
388.13	-5.36
388.34	-1.6
388.55	-6.23
388.759	-8.95
388.969	-6.11
389.179	-2.61
389.388	1.79
389.598	3.14
389.807	5.96
390.017	7.55
390.227	5.59
390.436	2.67
390.646	0.03
390.855	-0.3
391.065	-1.98
391.274	0.7
391.484	2.64
391.693	5.67
391.903	6.64
392.112	6.9
392.322	8.01
392.531	8.59
392.74	9.2
392.95	6.71
393.159	5.95
393.369	4.68
393.578	3.31
393.787	3.45
393.997	4.89
394.206	5.28
394.415	6.21
394.625	7.21
394.834	7.2
395.043	7.01
395.252	7.11
395.462	6.64
395.671	6.18
395.88	6.08
396.089	6.19
396.298	6.58
396.508	6.74
396.717	6.6
396.926	6.37
397.135	6.12
397.344	5.75
397.553	6.24
397.762	5.98
397.971	5.8
398.181	5.91
398.39	5.59
398.599	5.4
398.808	5.58
399.017	5.56
399.226	5.93
399.435	6.19
399.644	6.13
399.853	6.29
400.062	6.32
400.27	6.09
400.479	5.89
400.688	5.59
400.897	5.7
401.106	5.84
401.315	5.54
401.524	5.83
401.733	5.98
401.941	5.91
402.15	5.71
402.359	5.9
402.568	5.66
402.777	5.83
402.985	5.63
403.194	5.52
403.403	5.5
403.612	5.63
403.82	5.49
404.029	5.56
404.238	5.9
404.446	5.93
404.655	6.05
404.864	5.9
405.072	5.81
405.281	5.6
405.489	5.75
405.698	5.62
405.906	5.57
406.115	5.56
406.324	5.7
406.532	5.55
406.741	5.54
406.949	5.52
407.158	5.73
407.366	5.71
407.574	5.7
407.783	5.58
407.991	5.61
408.2	5.42
408.408	5.31
408.617	5.29
408.825	5.4
409.033	5.45
409.242	5.52
409.45	5.47
409.658	5.36
409.867	5.37
410.075	5.36
410.283	5.37
410.491	5.42
410.7	5.57
410.908	5.56
411.116	5.58
411.324	5.54
411.533	5.53
411.741	5.42
411.949	5.42
412.157	5.39
412.365	5.43
412.573	5.41
412.781	5.5
412.99	5.42
413.198	5.56
413.406	5.62
413.614	5.55
413.822	5.47
414.03	5.54
414.238	5.42
414.446	5.3
414.654	5.37
414.862	5.3
415.07	5.19
415.278	5.13
415.486	4.97
415.694	4.86
415.902	4.89
416.109	4.78
416.317	4.85
416.525	5.03
416.733	5.2
416.941	5.27
417.149	5.35
417.357	5.33
417.564	5.25
417.772	5.02
417.98	4.89
418.188	4.97
418.395	4.86
418.603	4.82
418.811	4.8
419.019	4.98
419.226	4.91
419.434	5.11
419.642	5.03
419.849	5.25
420.057	5.07
420.265	5.13
420.472	4.93
420.68	5.01
420.887	4.81
421.095	4.8
421.302	4.64
421.51	4.63
421.717	4.72
421.925	4.71
422.132	4.95
422.34	5.04
422.547	5.07
422.755	4.88
422.962	5.12
423.17	5
423.377	4.92
423.585	4.9
423.792	4.9
423.999	4.76
424.207	4.64
424.414	4.49
424.621	4.58
424.829	4.73
425.036	4.53
425.243	4.68
425.451	4.94
425.658	4.81
425.865	4.63
426.072	4.7
426.28	4.57
426.487	4.57
426.694	4.6
426.901	4.65
427.108	4.81
427.315	4.84
427.523	4.77
427.73	4.64
427.937	4.71
428.144	4.69
428.351	4.81
428.558	4.81
428.765	4.83
428.972	4.72
429.179	4.67
429.386	4.52
429.593	4.45
429.8	4.62
430.007	4.67
430.214	4.73
430.421	4.82
430.628	4.73
430.835	4.74
431.042	4.77
431.249	4.82
431.456	4.73
431.662	5.05
431.869	5.03
432.076	4.99
432.283	5.01
432.49	5.12
432.697	4.97
432.903	4.93
433.11	4.84
433.317	4.67
433.524	4.73
433.73	4.77
433.937	4.85
434.144	4.97
434.35	5.01
434.557	4.84
434.764	4.82
434.97	4.74
435.177	4.87
435.384	4.76
435.59	4.81
435.797	4.87
436.003	4.9
436.21	4.68
436.416	4.8
436.623	4.81
436.829	4.77
437.036	4.65
437.242	4.68
437.449	4.8
437.655	4.85
437.862	4.9
438.068	5.08
438.275	5.27
438.481	5.16
438.687	5.24
438.894	5.25
439.1	5.12
439.307	5.12
439.513	5.17
439.719	5.11
439.926	5.1
440.132	5.18
440.338	5.12
440.544	5.13
440.751	5.16
440.957	5.25
441.163	5.19
441.369	5.21
441.575	5.12
441.782	5.13
441.988	4.94
442.194	4.9
442.4	4.84
442.606	4.94
442.812	4.9
443.018	5.04
443.224	5.12
443.431	5.16
443.637	5.1
443.843	5.06
444.049	4.93
444.255	4.95
444.461	4.98
444.667	4.93
444.873	4.92
445.079	5.02
445.284	5.05
445.49	5.05
445.696	5.12
445.902	5.19
446.108	5.13
446.314	5.04
446.52	5.13
446.726	5.1
446.931	5.06
447.137	5.05
447.343	5.13
447.549	5.02
447.755	5.14
447.96	5.13
448.166	5.18
448.372	5.1
448.578	5.27
448.783	5.22
448.989	5.21
449.195	5.3
449.4	5.41
449.606	5.3
449.812	5.35
450.017	5.42
450.223	5.38
450.428	5.4
450.634	5.51
450.84	5.42
451.045	5.38
451.251	5.38
451.456	5.42
451.662	5.31
451.867	5.36
452.073	5.53
452.278	5.57
452.483	5.41
452.689	5.44
452.894	5.52
453.1	5.45
453.305	5.45
453.51	5.51
453.716	5.49
453.921	5.45
454.127	5.46
454.332	5.43
454.537	5.52
454.742	5.63
454.948	5.62
455.153	5.55
455.358	5.51
455.563	5.47
455.769	5.41
455.974	5.43
456.179	5.49
456.384	5.5
456.589	5.6
456.795	5.55
457	5.51
457.205	5.5
457.41	5.5
457.615	5.44
457.82	5.47
458.025	5.47
458.23	5.55
458.435	5.55
458.64	5.49
458.845	5.56
459.05	5.55
459.255	5.51
459.46	5.56
459.665	5.66
459.87	5.57
460.075	5.64
460.28	5.66
460.485	5.63
460.69	5.52
460.895	5.55
461.099	5.61
461.304	5.63
461.509	5.7
461.714	5.79
461.919	5.76
462.123	5.74
462.328	5.72
462.533	5.78
462.738	5.89
