Data from Ofav_SP_Phys_0AZ4_Reflection_1.txt Node
Date: Thu Aug 05 17:43:06 EDT 2021
User: Adam
Spectrometer: FLMT01687
Trigger mode: 0
Integration Time (sec): 8.000000E-1
Scans to average: 2
Electric dark correction enabled: true
Nonlinearity correction enabled: false
Boxcar width: 2
XAxis mode: Wavelengths
Number of Pixels in Spectrum: 3648
>>>>>Begin Spectral Data<<<<<
179.494	225.79
179.716	262.48
179.937	209.78
180.158	262.56
180.38	536.61
180.601	-78.47
180.823	140.34
181.044	118.77
181.265	109.57
181.486	125.15
181.708	172.48
181.929	76.97
182.15	158.78
182.372	70.19
182.593	73.84
182.814	86.18
183.035	81.4
183.257	655.16
183.478	-668.81
183.699	811.25
183.92	255.69
184.141	-1019.28
184.363	910.81
184.584	-99.8
184.805	-10.03
185.026	5.42
185.247	25.88
185.468	30.27
185.689	56.17
185.91	21.61
186.132	-52.36
186.353	-69.73
186.574	-200.19
186.795	-191.81
187.016	-154.58
187.237	-49.31
187.458	-375.35
187.679	-26.8
187.9	-21.96
188.121	-52.63
188.342	-53.81
188.563	23.67
188.784	6.24
189.005	-57.39
189.226	31.43
189.447	35.23
189.667	66.28
189.888	-32.17
190.109	45.88
190.33	28.63
190.551	26.81
190.772	29.37
190.993	54.03
191.214	50.05
191.434	39.46
191.655	29.13
191.876	44.5
192.097	20.45
192.318	18.21
192.538	-44.2
192.759	28.72
192.98	-27.26
193.201	-117.08
193.421	-80.16
193.642	23.84
193.863	5.65
194.083	-3.54
194.304	28.97
194.525	32.88
194.745	28.38
194.966	16.83
195.187	24.63
195.407	-10.74
195.628	-30.47
195.848	-0.82
196.069	20.12
196.29	22.16
196.51	52.35
196.731	46.45
196.951	47.21
197.172	46.26
197.392	61.27
197.613	48.77
197.833	63.22
198.054	49.72
198.274	30.31
198.495	15.77
198.715	62.44
198.936	79.82
199.156	65.12
199.377	58.24
199.597	43
199.817	5.69
200.038	13.52
200.258	17.08
200.479	26.15
200.699	16.56
200.919	11.61
201.14	-17.92
201.36	-33.66
201.58	-40.15
201.801	-86.66
202.021	-36.37
202.241	1.06
202.461	-30.36
202.682	-59.77
202.902	-79.16
203.122	-165.83
203.342	-58.23
203.563	-5.69
203.783	24.81
204.003	35.42
204.223	13.34
204.443	-22.65
204.663	-31.1
204.884	-8.42
205.104	-22.16
205.324	3.29
205.544	16.81
205.764	30.22
205.984	32.42
206.204	20.02
206.424	5.98
206.644	1.46
206.864	20.54
207.084	-14.71
207.304	18.16
207.525	48.13
207.745	64.79
207.964	25.33
208.184	19.58
208.404	4.26
208.624	-41.33
208.844	-109.48
209.064	-48.49
209.284	-6.63
209.504	-12.54
209.724	-3.25
209.944	26.55
210.164	-4.32
210.384	4.74
210.604	10.85
210.823	25.73
211.043	17.3
211.263	22.61
211.483	12.77
211.703	21.64
211.922	14.98
212.142	30.44
212.362	-0.52
212.582	19.93
212.801	22
213.021	16.61
213.241	-0.45
213.461	-2.37
213.68	-4.94
213.9	-33.12
214.12	-61.85
214.339	-77.97
214.559	-35.53
214.779	-66.44
214.998	-57.81
215.218	-19.71
215.438	47.21
215.657	57.04
215.877	123.14
216.096	96.68
216.316	106.23
216.535	73.87
216.755	32
216.974	-71.16
217.194	14.54
217.413	8.14
217.633	9.04
217.852	35.93
218.072	48.95
218.291	42.84
218.511	62.3
218.73	50.24
218.95	19.3
219.169	-10.41
219.389	33.74
219.608	-3.07
219.827	-7.74
220.047	1.06
220.266	15.8
220.485	-7.56
220.705	19.68
220.924	26.14
221.143	39.01
221.363	45.47
221.582	35.22
221.801	-1.47
222.021	9.34
222.24	10.75
222.459	-23.11
222.678	21.44
222.897	33.35
223.117	55.9
223.336	-1.66
223.555	-15.57
223.774	-70.88
223.993	-84.97
224.213	-45.75
224.432	-48.81
224.651	-0.4
224.87	14.04
225.089	9.62
225.308	-29.03
225.527	14.57
225.746	-20.04
225.965	-37.43
226.184	-5.74
226.404	3.99
226.623	-74.02
226.842	-48.47
227.061	-3.15
227.28	5.9
227.499	-5.94
227.718	25.97
227.936	39.33
228.155	27.03
228.374	7.12
228.593	13.31
228.812	27.81
229.031	21.84
229.25	29.92
229.469	46.39
229.688	46.99
229.907	36.95
230.125	35.85
230.344	5.31
230.563	-18.54
230.782	-89.11
231.001	-118.92
231.22	-57.38
231.438	-11.9
231.657	4.17
231.876	0.93
232.095	28.04
232.313	17.84
232.532	3.7
232.751	-21.98
232.969	-4.35
233.188	-43.62
233.407	-40.34
233.625	-13.15
233.844	-32.64
234.063	-34.28
234.281	6.09
234.5	17.98
234.719	-32.16
234.937	-30.92
235.156	-26.58
235.374	-18.09
235.593	-40.64
235.811	-27.82
236.03	-9.24
236.249	9.09
236.467	-6.38
236.686	-24.51
236.904	-10.21
237.123	-20.35
237.341	-10.63
237.559	-28.77
237.778	-3.39
237.996	16.37
238.215	20.59
238.433	9.8
238.652	24.5
238.87	12.82
239.088	-14.97
239.307	-9.62
239.525	-3.31
239.743	-10.84
239.962	-4.98
240.18	-2.06
240.398	-31.73
240.617	-63.58
240.835	-29.39
241.053	-30.84
241.271	-41.46
241.49	-26.91
241.708	-38.71
241.926	-32.81
242.144	-15.79
242.363	-22.46
242.581	35.34
242.799	33.36
243.017	69.52
243.235	19.93
243.453	39
243.672	13.4
243.89	24.26
244.108	4.34
244.326	60.3
244.544	57.43
244.762	62.44
244.98	60.69
245.198	23.63
245.416	-1.16
245.634	-23.34
245.852	-62.43
246.07	-39.84
246.288	-26.34
246.506	-45.67
246.724	-3.92
246.942	11.16
247.16	23.64
247.378	38.14
247.596	25.67
247.814	12.03
248.032	17.13
248.25	11.89
248.468	19.64
248.685	14.5
248.903	23.67
249.121	-0.95
249.339	18.98
249.557	3.59
249.775	5.55
249.992	3.83
250.21	42.39
250.428	8.31
250.646	8.09
250.863	10.64
251.081	4.46
251.299	-21.17
251.517	21
251.734	20.79
251.952	6.37
252.17	23.05
252.387	5.82
252.605	12.14
252.823	36.76
253.04	33.22
253.258	15.17
253.475	37.17
253.693	24.3
253.911	12.07
254.128	34.21
254.346	53
254.563	46.93
254.781	40.51
254.998	30.25
255.216	1.41
255.433	-49.73
255.651	-91
255.868	-72.94
256.086	-33.94
256.303	-33.47
256.521	-39.99
256.738	-95.61
256.956	-180.13
257.173	-55.2
257.39	-23.49
257.608	-22.35
257.825	-2.1
258.043	-11.66
258.26	-22.64
258.477	-20.13
258.695	10.36
258.912	23.34
259.129	39.86
259.346	50.69
259.564	41.97
259.781	29.12
259.998	26.65
260.216	35.02
260.433	22.57
260.65	7.62
260.867	-9.16
261.084	0.2
261.302	-14.91
261.519	-15.45
261.736	23.44
261.953	21.91
262.17	24.39
262.387	34.09
262.604	18.37
262.822	11.78
263.039	2.27
263.256	28.52
263.473	18.83
263.69	41.67
263.907	37.39
264.124	27.51
264.341	15.48
264.558	17.25
264.775	26.53
264.992	16.28
265.209	39.13
265.426	38.76
265.643	24.54
265.86	16.63
266.077	27.62
266.294	-0.87
266.51	-10.4
266.727	8.71
266.944	0.14
267.161	-19.13
267.378	-10.57
267.595	-11.93
267.812	-48.84
268.028	-40.2
268.245	-24.28
268.462	-47.44
268.679	-29.86
268.896	8.59
269.112	12.43
269.329	27.92
269.546	40.74
269.763	39.99
269.979	36.78
270.196	52.46
270.413	33.82
270.629	28.6
270.846	12.63
271.063	6.52
271.279	-22.51
271.496	-35.9
271.712	-78.04
271.929	-23.55
272.146	21.56
272.362	-25.95
272.579	-0.37
272.795	35.77
273.012	8.55
273.228	-37.38
273.445	-1.88
273.661	1.29
273.878	-40.39
274.094	-23.84
274.311	11.87
274.527	-5.24
274.744	-24.27
274.96	7.94
275.177	8.5
275.393	-18.85
275.609	-15.22
275.826	-27.21
276.042	-25.56
276.259	-32.27
276.475	-8.31
276.691	3.19
276.908	10.51
277.124	19.1
277.34	19.63
277.557	3.77
277.773	-8.45
277.989	-3.13
278.205	-9.46
278.422	-2.16
278.638	32.47
278.854	40.46
279.07	29.95
279.286	25.62
279.503	10.65
279.719	-24.33
279.935	15.78
280.151	52.65
280.367	42.17
280.583	40.67
280.799	50.81
281.016	30.36
281.232	26.38
281.448	-4.64
281.664	10.23
281.88	-9.65
282.096	11.74
282.312	1.74
282.528	30.36
282.744	32.98
282.96	48.03
283.176	41.03
283.392	44.11
283.608	42.94
283.824	28.74
284.04	27.33
284.256	19.76
284.471	9.66
284.687	33.28
284.903	34.75
285.119	18.14
285.335	5.26
285.551	13.91
285.767	-20.19
285.982	-74.48
286.198	-154.84
286.414	-85.57
286.63	-66.04
286.846	-62.48
287.061	-11.24
287.277	12.07
287.493	21.17
287.709	5.36
287.924	47.18
288.14	40.19
288.356	46.07
288.571	49.9
288.787	64.03
289.003	72.24
289.218	63.73
289.434	56.6
289.65	13.9
289.865	26.29
290.081	10.74
290.296	30.5
290.512	32.19
290.727	40.08
290.943	22.11
291.159	22.05
291.374	13.55
291.59	15.14
291.805	14
292.021	30.98
292.236	19.33
292.451	34.99
292.667	-11.73
292.882	-6.25
293.098	-16.11
293.313	7.81
293.529	18.51
293.744	21
293.959	-4.3
294.175	8.61
294.39	-14.18
294.605	-28.39
294.821	-29.91
295.036	-5.44
295.251	-11.95
295.467	3.5
295.682	8.85
295.897	20.95
296.112	12.46
296.328	13.89
296.543	6.86
296.758	-16.16
296.973	-20.15
297.188	9.15
297.404	11.11
297.619	6.26
297.834	8.92
298.049	-18.05
298.264	-63.72
298.479	-75.16
298.694	-28.61
298.909	10.35
299.125	45.18
299.34	66.57
299.555	60.72
299.77	72.1
299.985	52.59
300.2	45.48
300.415	21.99
300.63	7.86
300.845	-28.97
301.06	-11.22
301.275	-18.56
301.49	0.9
301.704	-39.45
301.919	-9.18
302.134	-9.74
302.349	-16.22
302.564	-21.34
302.779	-12.72
302.994	-17.25
303.209	-8.6
303.423	-19.65
303.638	-5.76
303.853	11.84
304.068	12.52
304.283	1.1
304.497	13.67
304.712	-8.47
304.927	-8.55
305.142	-10.54
305.356	-14.3
305.571	-13.88
305.786	9.32
306	12.56
306.215	16.13
306.43	17.99
306.644	21.66
306.859	18.56
307.074	19.39
307.288	19.18
307.503	22.24
307.717	24.74
307.932	12.22
308.147	6.04
308.361	9.51
308.576	-4.29
308.79	-4.66
309.005	5.51
309.219	-3.44
309.434	-49.59
309.648	-55.16
309.863	-103.54
310.077	-185.48
310.292	-167.89
310.506	-104.78
310.72	-57.48
310.935	-40.59
311.149	-23.68
311.364	9.06
311.578	20.61
311.792	15.23
312.007	18.23
312.221	13.62
312.435	7.18
312.649	-4.73
312.864	-37.9
313.078	-31.54
313.292	0.84
313.507	3.42
313.721	13.64
313.935	30.42
314.149	14.8
314.363	-8.78
314.578	-4.63
314.792	-22.5
315.006	-33.22
315.22	-18.19
315.434	-38.92
315.648	-127.16
315.862	-93.38
316.077	-89.09
316.291	-119.39
316.505	-52.14
316.719	1.59
316.933	-1.57
317.147	18.64
317.361	31.23
317.575	11.49
317.789	-5.63
318.003	-25.01
318.217	-8.29
318.431	0.15
318.645	18.46
318.859	-2.12
319.073	1.45
319.287	-17.5
319.5	-6.99
319.714	1.55
319.928	41.31
320.142	50.93
320.356	38.01
320.57	-5.4
320.784	-38.66
320.997	-73.22
321.211	-58.14
321.425	-94.94
321.639	-40.71
321.853	-40.13
322.066	-30.25
322.28	-27.93
322.494	-27.8
322.707	-20.31
322.921	1.51
323.135	11.37
323.349	23
323.562	36.32
323.776	40.43
323.989	13.49
324.203	10.78
324.417	3.14
324.63	-7.52
324.844	-24.31
325.057	-3.54
325.271	-31.44
325.485	-12.1
325.698	-6.25
325.912	13.07
326.125	11.27
326.339	42.8
326.552	37.5
326.766	18.56
326.979	19.57
327.193	34.89
327.406	8.06
327.619	12.23
327.833	20.71
328.046	12.42
328.26	-0.44
328.473	-18.31
328.686	-26.84
328.9	-23.35
329.113	-17.99
329.326	-17.94
329.54	-6.57
329.753	5.8
329.966	28.64
330.179	32.09
330.393	36.54
330.606	50.73
330.819	39.32
331.032	3.62
331.246	26.14
331.459	8.74
331.672	2.59
331.885	26.38
332.098	45.34
332.311	22.56
332.525	26.48
332.738	29.12
332.951	-3.46
333.164	-9.09
333.377	11.22
333.59	4.54
333.803	-10.06
334.016	2.34
334.229	0.92
334.442	-10.68
334.655	-12.05
334.868	-6.11
335.081	-16.63
335.294	0.82
335.507	4.38
335.72	10.43
335.933	8.63
336.146	26.64
336.359	12.13
336.572	11.83
336.785	12.22
336.997	24.47
337.21	26.94
337.423	44.22
337.636	41.88
337.849	49.84
338.062	6.31
338.274	-26
338.487	-33.61
338.7	-43.89
338.913	-59.74
339.125	-22.68
339.338	-1.86
339.551	-22.59
339.763	7.26
339.976	16.15
340.189	18.09
340.402	-6.23
340.614	18.29
340.827	30.23
341.039	24.04
341.252	13.75
341.465	22.43
341.677	16.08
341.89	-12.21
342.102	9.77
342.315	9.52
342.527	28.23
342.74	14.27
342.952	18.15
343.165	9.89
343.377	13.58
343.59	-15.53
343.802	12.33
344.015	2.36
344.227	-14.34
344.44	0.78
344.652	3.18
344.864	-3.47
345.077	-1.45
345.289	-11.33
345.502	-27.32
345.714	-8.5
345.926	17.8
346.139	23.39
346.351	32.51
346.563	28.36
346.775	26.61
346.988	5.4
347.2	-3.75
347.412	-1.51
347.624	3.18
347.837	-9.14
348.049	10.03
348.261	12.32
348.473	17.57
348.685	43.05
348.897	68.84
349.11	43.53
349.322	34.3
349.534	17.52
349.746	5.42
349.958	-20.5
350.17	-9.36
350.382	-14.47
350.594	-14.93
350.806	-18.5
351.018	2.94
351.23	8.2
351.442	12.67
351.654	13.07
351.866	11.6
352.078	-10.82
352.29	-19.03
352.502	2.55
352.714	-1.52
352.926	5.46
353.138	17.79
353.35	31.41
353.561	19.9
353.773	16.19
353.985	14.22
354.197	19.63
354.409	-11.89
354.621	-11.11
354.832	-9.25
355.044	-10.76
355.256	-14.96
355.468	9.07
355.679	12.21
355.891	24.12
356.103	12.96
356.314	17.83
356.526	8.48
356.738	0.49
356.949	-37.08
357.161	-2.52
357.373	-3.83
357.584	-4.01
357.796	-1.92
358.008	20.51
358.219	4.88
358.431	13.36
358.642	33.68
358.854	40.19
359.065	50.69
359.277	42.41
359.488	24.03
359.7	22.41
359.911	11.07
360.123	-0.44
360.334	8.54
360.546	1.27
360.757	-3.45
360.969	5.72
361.18	13.2
361.391	19.28
361.603	53.44
361.814	39.57
362.025	28.7
362.237	20.47
362.448	8.57
362.659	-18.93
362.871	-24.51
363.082	-16.72
363.293	-24
363.504	-24.84
363.716	-2.06
363.927	25.79
364.138	23.62
364.349	1.68
364.56	5.4
364.772	-7.63
364.983	-68.82
365.194	-57.76
365.405	-31.46
365.616	-6.65
365.827	0.98
366.038	27.72
366.25	21.9
366.461	3.42
366.672	-6.58
366.883	5.12
367.094	1.72
367.305	11.32
367.516	29.99
367.727	39.36
367.938	23.89
368.149	12.92
368.36	8.37
368.571	-4.82
368.781	-26.07
368.992	-14.21
369.203	2.73
369.414	-4.56
369.625	3.15
369.836	-8.1
370.047	-3.79
370.258	3.59
370.468	4.46
370.679	6.71
370.89	16.04
371.101	8.17
371.312	8.22
371.522	14.48
371.733	8.29
371.944	14.09
372.155	31.42
372.365	23.11
372.576	27.03
372.787	28.23
372.997	32.18
373.208	28.35
373.419	34.89
373.629	27.17
373.84	41.9
374.05	23.72
374.261	31.2
374.472	27.17
374.682	21.8
374.893	15.92
375.103	14.36
375.314	5.03
375.524	4.37
375.735	14.18
375.945	27.97
376.156	32.87
376.366	34.51
376.577	39.34
376.787	22.65
376.997	-0.97
377.208	-3.99
377.418	-2.7
377.629	4.95
377.839	21.39
378.049	28.03
378.26	30.73
378.47	23.55
378.68	20.06
378.89	7.01
379.101	-4.34
379.311	-3.44
379.521	5.35
379.732	14.59
379.942	23.95
380.152	30
380.362	26.53
380.572	22.79
380.783	8.28
380.993	1.02
381.203	4.78
381.413	3.54
381.623	0.06
381.833	4.98
382.043	11.28
382.253	11.09
382.463	19.31
382.674	20.22
382.884	16.62
383.094	13.16
383.304	4.12
383.514	0.98
383.724	4.77
383.934	6.33
384.144	11.07
384.353	16
384.563	15.13
384.773	16.8
384.983	6.32
385.193	5.78
385.403	11.61
385.613	13.18
385.823	11.79
386.033	20.47
386.242	16.37
386.452	15.7
386.662	12.94
386.872	10.56
387.082	9.02
387.291	6.76
387.501	8.34
387.711	11.04
387.921	12.4
388.13	10.93
388.34	11.28
388.55	7.78
388.759	-0.74
388.969	-0.02
389.179	4.53
389.388	6.7
389.598	7.43
389.807	13.3
390.017	11.58
390.227	8.57
390.436	6.85
390.646	5.2
390.855	2.33
391.065	1.9
391.274	4.19
391.484	5.96
391.693	6.11
391.903	6.51
392.112	8.01
392.322	6.78
392.531	6.33
392.74	7.74
392.95	6.32
393.159	5.84
393.369	5.78
393.578	6.63
393.787	5.96
393.997	8.15
394.206	7.82
394.415	9.31
394.625	9.49
394.834	9.3
395.043	8.31
395.252	8.51
395.462	6.98
395.671	6.28
395.88	7.49
396.089	7.72
396.298	7.78
396.508	8.23
396.717	7.86
396.926	7.08
397.135	6.92
397.344	6.96
397.553	7.2
397.762	7.17
397.971	6.89
398.181	6.86
398.39	6.62
398.599	6.22
398.808	6.26
399.017	6.12
399.226	6.11
399.435	6.53
399.644	6.9
399.853	6.78
400.062	6.92
400.27	6.93
400.479	6.17
400.688	5.87
400.897	6.01
401.106	5.95
401.315	5.96
401.524	6.17
401.733	6.2
401.941	6.32
402.15	6.15
402.359	5.99
402.568	5.98
402.777	6.13
402.985	5.84
403.194	6.03
403.403	6.13
403.612	6.29
403.82	6.26
404.029	6.23
404.238	6.22
404.446	6.37
404.655	6.45
404.864	6.28
405.072	6.32
405.281	6.28
405.489	6.23
405.698	6.17
405.906	6.08
406.115	5.83
406.324	6.06
406.532	5.82
406.741	5.82
406.949	5.91
407.158	6.23
407.366	6.01
407.574	6.15
407.783	5.98
407.991	5.89
408.2	5.85
408.408	5.8
408.617	5.87
408.825	6.02
409.033	6.02
409.242	6.07
409.45	6.03
409.658	5.82
409.867	5.74
410.075	5.78
410.283	5.72
410.491	5.79
410.7	5.98
410.908	5.94
411.116	6.05
411.324	5.96
411.533	5.88
411.741	5.8
411.949	5.85
412.157	5.75
412.365	5.87
412.573	5.84
412.781	5.72
412.99	5.74
413.198	5.85
413.406	5.82
413.614	5.81
413.822	5.89
414.03	5.82
414.238	5.66
414.446	5.6
414.654	5.63
414.862	5.56
415.07	5.48
415.278	5.47
415.486	5.32
415.694	5.27
415.902	5.2
416.109	5.23
416.317	5.29
416.525	5.42
416.733	5.37
416.941	5.61
417.149	5.56
417.357	5.5
417.564	5.42
417.772	5.36
417.98	5.19
418.188	5.17
418.395	5.12
418.603	5.31
418.811	5.38
419.019	5.33
419.226	5.34
419.434	5.42
419.642	5.21
419.849	5.43
420.057	5.32
420.265	5.39
420.472	5.11
420.68	5.16
420.887	4.92
421.095	4.98
421.302	4.9
421.51	4.98
421.717	5.05
421.925	4.97
422.132	5.13
422.34	5.08
422.547	5.12
422.755	5.06
422.962	5.13
423.17	5.04
423.377	5.1
423.585	5.03
423.792	4.98
423.999	5
424.207	4.77
424.414	4.62
424.621	4.79
424.829	4.85
425.036	4.98
425.243	5.16
425.451	5.42
425.658	5.37
425.865	5.22
426.072	5.03
426.28	4.88
426.487	4.62
426.694	4.64
426.901	4.66
427.108	4.84
427.315	5
427.523	5.09
427.73	5
427.937	5.13
428.144	5.1
428.351	5.17
428.558	5.2
428.765	5.21
428.972	5.04
429.179	4.96
429.386	4.94
429.593	4.96
429.8	4.95
430.007	5
430.214	4.9
430.421	4.96
430.628	4.9
430.835	5.13
431.042	5.08
431.249	5.18
431.456	5.05
431.662	5.21
431.869	5.14
432.076	5.26
432.283	5.31
432.49	5.33
432.697	5.25
432.903	5.25
433.11	5.22
433.317	5.12
433.524	5.26
433.73	5.35
433.937	5.24
434.144	5.24
434.35	5.32
434.557	5.23
434.764	5.08
434.97	5.16
435.177	5.13
435.384	4.95
435.59	5.01
435.797	5.15
436.003	5.12
436.21	5.04
436.416	5.12
436.623	5.04
436.829	4.89
437.036	4.78
437.242	4.83
437.449	4.98
437.655	5.04
437.862	5.18
438.068	5.47
438.275	5.62
438.481	5.59
438.687	5.54
438.894	5.55
439.1	5.26
439.307	5.16
439.513	5.14
439.719	5.22
439.926	5.18
440.132	5.25
440.338	5.31
440.544	5.35
440.751	5.33
440.957	5.3
441.163	5.4
441.369	5.41
441.575	5.25
441.782	5.24
441.988	5.21
442.194	4.97
442.4	4.92
442.606	4.97
442.812	4.95
443.018	5.08
443.224	5.23
443.431	5.26
443.637	5.29
443.843	5.27
444.049	5.12
444.255	5.19
444.461	5.21
444.667	5.16
444.873	5.22
445.079	5.16
445.284	5.1
445.49	5.1
445.696	5.2
445.902	5.15
446.108	5.27
446.314	5.22
446.52	5.22
446.726	5.17
446.931	5.22
447.137	5.19
447.343	5.26
447.549	5.2
447.755	5.29
447.96	5.26
448.166	5.3
448.372	5.34
448.578	5.33
448.783	5.46
448.989	5.42
449.195	5.49
449.4	5.52
449.606	5.71
449.812	5.65
450.017	5.83
450.223	5.67
450.428	5.69
450.634	5.64
450.84	5.49
451.045	5.41
451.251	5.57
451.456	5.61
451.662	5.59
451.867	5.64
452.073	5.75
452.278	5.76
452.483	5.78
452.689	5.81
452.894	5.87
453.1	5.86
453.305	5.83
453.51	5.84
453.716	5.9
453.921	5.9
454.127	5.88
454.332	5.81
454.537	5.83
454.742	5.64
454.948	5.65
455.153	5.59
455.358	5.61
455.563	5.65
455.769	5.74
455.974	5.78
456.179	5.74
456.384	5.72
456.589	5.61
456.795	5.63
457	5.56
457.205	5.66
457.41	5.7
457.615	5.71
457.82	5.81
458.025	5.82
458.23	5.76
458.435	5.79
458.64	5.77
458.845	5.69
459.05	5.64
459.255	5.65
459.46	5.69
459.665	5.77
459.87	5.79
460.075	5.94
460.28	6.04
460.485	6.08
460.69	6.06
460.895	5.97
461.099	5.85
461.304	5.81
461.509	5.81
461.714	5.87
461.919	6.02
462.123	6.08
462.328	6.1
462.533	6.12
462.738	6.16
462.942	6.19
463.147	6.25
463.352	6.35
463.556	6.38
463.761	6.32
463.966	6.25
464.17	6.24
464.375	6.2
464.58	6.17
464.784	6.22
464.989	6.29
465.193	6.25
465.398	6.36
465.602	6.41
465.807	6.52
466.011	6.49
466.216	6.56
