Data from Ofav_SP_Phys_9EV4_Reflection_2.txt Node
Date: Thu Aug 05 17:42:23 EDT 2021
User: Adam
Spectrometer: FLMT01687
Trigger mode: 0
Integration Time (sec): 8.000000E-1
Scans to average: 2
Electric dark correction enabled: true
Nonlinearity correction enabled: false
Boxcar width: 2
XAxis mode: Wavelengths
Number of Pixels in Spectrum: 3648
>>>>>Begin Spectral Data<<<<<
179.494	180.87
179.716	205.03
179.937	205.74
180.158	262.94
180.38	793.36
180.601	-328.57
180.823	-249.92
181.044	13.52
181.265	62.31
181.486	103.7
181.708	530.87
181.929	52.78
182.15	190.61
182.372	108.94
182.593	23.28
182.814	-48.56
183.035	50.23
183.257	392.53
183.478	-304.75
183.699	882.37
183.92	194.79
184.141	-666.82
184.363	1374.59
184.584	-226.34
184.805	-61.59
185.026	-19.12
185.247	4.21
185.468	29.34
185.689	20.18
185.91	2.1
186.132	-84.32
186.353	-65.38
186.574	-207.3
186.795	-140.06
187.016	-148.2
187.237	-122.71
187.458	-543.35
187.679	-124.2
187.9	-154.26
188.121	-173.66
188.342	-120.13
188.563	-39.44
188.784	-56.05
189.005	-80.96
189.226	-3.97
189.447	1.76
189.667	-44.35
189.888	7.63
190.109	-4.27
190.33	11.12
190.551	24.65
190.772	37.03
190.993	28.88
191.214	43.06
191.434	32.76
191.655	33.56
191.876	30.09
192.097	26.08
192.318	18.08
192.538	-38.32
192.759	-18.33
192.98	-13.16
193.201	-154.41
193.421	-185.25
193.642	-48.06
193.863	-95.21
194.083	-72.2
194.304	-31.86
194.525	-33.82
194.745	-32.65
194.966	1.25
195.187	27.34
195.407	19.17
195.628	30.36
195.848	64.19
196.069	41.54
196.29	25.67
196.51	59.98
196.731	50.15
196.951	50.16
197.172	51.45
197.392	61.93
197.613	23.74
197.833	26.29
198.054	-3.9
198.274	-1.27
198.495	3.14
198.715	25.07
198.936	8.25
199.156	33.53
199.377	38.03
199.597	18.03
199.817	-0.87
200.038	-0.32
200.258	3.34
200.479	-28.34
200.699	-18.71
200.919	-30.32
201.14	-31.01
201.36	-58.88
201.58	-28.53
201.801	-102.62
202.021	-60.87
202.241	-25.42
202.461	-16.5
202.682	-37.58
202.902	-58.86
203.122	-94.49
203.342	8.18
203.563	-16.26
203.783	10.19
204.003	32.46
204.223	26.67
204.443	-5.4
204.663	-9.73
204.884	-5.15
205.104	-20.82
205.324	-19.59
205.544	-16.44
205.764	-7.4
205.984	-7.41
206.204	-24.26
206.424	-9.31
206.644	-11.77
206.864	-15.15
207.084	-63.18
207.304	-16.61
207.525	-59.38
207.745	-7.93
207.964	-48.13
208.184	-47.14
208.404	-73.18
208.624	-78.98
208.844	-203.9
209.064	-134.59
209.284	-103.36
209.504	-114.1
209.724	-65.79
209.944	-39.52
210.164	-76.47
210.384	-11.13
210.604	-19.59
210.823	2.38
211.043	1.43
211.263	18.32
211.483	1.55
211.703	23.77
211.922	4.69
212.142	44.39
212.362	19.04
212.582	22.77
212.801	22.26
213.021	29.58
213.241	20.24
213.461	6.42
213.68	4.59
213.9	-12.63
214.12	-54.43
214.339	-75.92
214.559	-51.32
214.779	-35.94
214.998	-24.34
215.218	-3.63
215.438	16.66
215.657	57.9
215.877	21.26
216.096	7.8
216.316	67.93
216.535	20.1
216.755	-47.34
216.974	-5.55
217.194	29.72
217.413	8.91
217.633	34.62
217.852	51.57
218.072	32.91
218.291	29.41
218.511	31.97
218.73	-2.1
218.95	-7.27
219.169	-13.61
219.389	38.56
219.608	8.31
219.827	32.49
220.047	19.93
220.266	26.44
220.485	-24.2
220.705	9.23
220.924	-15.61
221.143	-19.87
221.363	-2.21
221.582	-6.97
221.801	-47.69
222.021	-13.88
222.24	2.2
222.459	-85.54
222.678	-17.66
222.897	-3.55
223.117	-20.09
223.336	-30.09
223.555	-12.16
223.774	-61.95
223.993	-70.96
224.213	-27.63
224.432	-56.74
224.651	-36.05
224.87	-1.58
225.089	-7.66
225.308	-37.07
225.527	-5.79
225.746	-6.72
225.965	-33.49
226.184	-31.92
226.404	-28.97
226.623	-50.2
226.842	-25.46
227.061	-4.33
227.28	-23.95
227.499	-53.74
227.718	-58.9
227.936	-81.19
228.155	-99.25
228.374	-48
228.593	-16.83
228.812	10.27
229.031	8.78
229.25	5.05
229.469	6.6
229.688	8.11
229.907	-2.01
230.125	-32.74
230.344	-35.4
230.563	-33.53
230.782	-98.2
231.001	-119.2
231.22	16.91
231.438	3.72
231.657	-5.33
231.876	-39.24
232.095	-12.72
232.313	-41.2
232.532	-30.39
232.751	-31.86
232.969	-9.08
233.188	-40.84
233.407	-50.03
233.625	-32.05
233.844	-78.11
234.063	-77.13
234.281	-53
234.5	-14.44
234.719	-40.63
234.937	-23.98
235.156	-37.13
235.374	-25.48
235.593	-51.95
235.811	-42.81
236.03	-29.13
236.249	-14.76
236.467	-19.05
236.686	-62.56
236.904	-48.46
237.123	-62.2
237.341	-35.14
237.559	-39.83
237.778	-9.72
237.996	-2.08
238.215	-7.9
238.433	12.91
238.652	20.73
238.87	15.11
239.088	11.18
239.307	37.01
239.525	32.3
239.743	10.37
239.962	42.89
240.18	44.8
240.398	-20.23
240.617	-50.63
240.835	-21.54
241.053	-23.6
241.271	-20.51
241.49	-3.92
241.708	-11.81
241.926	2.4
242.144	-37.57
242.363	-66.58
242.581	-33.36
242.799	-69.95
243.017	-76.93
243.235	-80.03
243.453	-36.64
243.672	-65.11
243.89	-30.12
244.108	-16.15
244.326	-17.81
244.544	-39.95
244.762	-8.44
244.98	1.74
245.198	-7.19
245.416	14.44
245.634	3.51
245.852	-22.26
246.07	3.89
246.288	-0.47
246.506	-16.66
246.724	4.38
246.942	2.84
247.16	-51.28
247.378	-163.37
247.596	-81.53
247.814	-76.82
248.032	-51.68
248.25	-52.08
248.468	-23.62
248.685	-28.75
248.903	-26.48
249.121	-51.98
249.339	-24.95
249.557	-18.47
249.775	-4.56
249.992	-7.87
250.21	34.21
250.428	17.96
250.646	26.71
250.863	43.32
251.081	62.73
251.299	15.38
251.517	50.85
251.734	52.91
251.952	24.83
252.17	9.4
252.387	28.63
252.605	15.44
252.823	22.31
253.04	22.4
253.258	19.37
253.475	35.41
253.693	35.34
253.911	27.77
254.128	35.85
254.346	31.82
254.563	15.01
254.781	26.5
254.998	-5.46
255.216	-6.14
255.433	-14.45
255.651	-89.52
255.868	-180.13
256.086	-124.59
256.303	-92.19
256.521	-123.47
256.738	-119.58
256.956	-182.14
257.173	-35.02
257.39	-26.85
257.608	-58.49
257.825	-24.59
258.043	-14.12
258.26	-30.59
258.477	-21.72
258.695	11.37
258.912	21.28
259.129	31.09
259.346	41.24
259.564	35.24
259.781	30.7
259.998	34.81
260.216	37.23
260.433	45.32
260.65	25.98
260.867	-17.57
261.084	10.21
261.302	11.33
261.519	-13.76
261.736	6.62
261.953	17.4
262.17	-4.03
262.387	-29.96
262.604	-52.6
262.822	-59.92
263.039	-57.79
263.256	5.15
263.473	2
263.69	32.6
263.907	25.8
264.124	0.82
264.341	-30.9
264.558	-15.57
264.775	-4.91
264.992	-6.12
265.209	-2.91
265.426	-4.69
265.643	-18.45
265.86	-40.99
266.077	-36.63
266.294	-46.98
266.51	-40.22
266.727	-38.04
266.944	-38.14
267.161	-44.16
267.378	-16.01
267.595	-3.21
267.812	-12.34
268.028	2.62
268.245	13.9
268.462	-2.46
268.679	-23.34
268.896	7.31
269.112	-10.48
269.329	-29.61
269.546	-1.69
269.763	2.09
269.979	0.2
270.196	10.92
270.413	15.44
270.629	23.53
270.846	16.25
271.063	19.13
271.279	-5.13
271.496	-16.75
271.712	-36.58
271.929	-18.44
272.146	-38.59
272.362	-43.04
272.579	-35.69
272.795	-56.66
273.012	-40.02
273.228	-55.04
273.445	-17.59
273.661	0.02
273.878	2.99
274.094	2.22
274.311	21.19
274.527	2.07
274.744	-15.96
274.96	0.02
275.177	-2.07
275.393	-38.79
275.609	-24.67
275.826	-28.61
276.042	-24.56
276.259	-37.91
276.475	-9.34
276.691	-9.44
276.908	-0.8
277.124	10.62
277.34	8.83
277.557	-10.74
277.773	-18.43
277.989	-17.41
278.205	-42.41
278.422	-5.01
278.638	19.51
278.854	37.48
279.07	30.03
279.286	18.9
279.503	16.15
279.719	-8.64
279.935	-18.54
280.151	-1.48
280.367	19.21
280.583	9.41
280.799	16.41
281.016	-5.17
281.232	-39.28
281.448	-85.62
281.664	-97.19
281.88	-120.95
282.096	-68.98
282.312	-46.2
282.528	-17.64
282.744	-6.86
282.96	-2.56
283.176	-4.02
283.392	1.08
283.608	-8.16
283.824	3.37
284.04	15.85
284.256	5.66
284.471	-9.3
284.687	5.89
284.903	8.97
285.119	0.65
285.335	-1.46
285.551	-12.07
285.767	-18.39
285.982	-68.11
286.198	-144.93
286.414	-85.77
286.63	-2.83
286.846	4.03
287.061	20.53
287.277	34.23
287.493	49.82
287.709	16.15
287.924	25.16
288.14	22.93
288.356	22.16
288.571	19.4
288.787	16.32
289.003	-5.02
289.218	-51.35
289.434	-53.52
289.65	-45.91
289.865	-8.68
290.081	6.35
290.296	14.88
290.512	10.37
290.727	16.54
290.943	-10.22
291.159	-20.2
291.374	-15.38
291.59	-15.65
291.805	-16.32
292.021	2.47
292.236	-20.06
292.451	-42.9
292.667	-82.13
292.882	-81.81
293.098	-55.69
293.313	-17.15
293.529	-8.69
293.744	-2.82
293.959	-4.39
294.175	-9.52
294.39	-31.76
294.605	-29.11
294.821	-22
295.036	-13.37
295.251	-10.03
295.467	-3.39
295.682	-0.28
295.897	4.58
296.112	-0.63
296.328	-3.81
296.543	4.36
296.758	-32.35
296.973	-32.17
297.188	-6.82
297.404	0.17
297.619	-2.99
297.834	13.57
298.049	-16.66
298.264	-63.32
298.479	-75.33
298.694	-68.22
298.909	-43.81
299.125	12.53
299.34	35.17
299.555	2.11
299.77	13.67
299.985	11.47
300.2	5.13
300.415	-2.05
300.63	21.81
300.845	-4.32
301.06	-16.43
301.275	-29.85
301.49	-23
301.704	-79.84
301.919	-5.8
302.134	-9.23
302.349	-2.88
302.564	-11.9
302.779	-3.88
302.994	-5.06
303.209	7.37
303.423	-2.9
303.638	-1.66
303.853	-6.16
304.068	-18.61
304.283	-18.39
304.497	-25.58
304.712	-58.79
304.927	-58.75
305.142	-60.05
305.356	-84.3
305.571	-44.24
305.786	-9.38
306	3.45
306.215	18.99
306.43	44.47
306.644	46.68
306.859	39.01
307.074	58.04
307.288	28.27
307.503	26.99
307.717	-8.13
307.932	5.21
308.147	-20.42
308.361	2.95
308.576	-16.85
308.79	-9.72
309.005	-1.25
309.219	-5.51
309.434	-42.8
309.648	-88.74
309.863	-105.88
310.077	-225.6
310.292	-169.26
310.506	-122.42
310.72	-53.76
310.935	-57.86
311.149	-60.32
311.364	-45.83
311.578	-10.65
311.792	-3.34
312.007	6.5
312.221	20.07
312.435	35.05
312.649	15.31
312.864	-2.78
313.078	3.75
313.292	10.41
313.507	-13.81
313.721	0.2
313.935	-6.96
314.149	-4.88
314.363	-23.43
314.578	-11.65
314.792	-27.33
315.006	-44.96
315.22	-41.23
315.434	-59.94
315.648	-74.3
315.862	-109.69
316.077	-107.08
316.291	-142.42
316.505	-52.62
316.719	-58.98
316.933	-42.39
317.147	-23.2
317.361	-4.78
317.575	-19.42
317.789	-15.93
318.003	-53.15
318.217	-6.62
318.431	-45.55
318.645	-42.45
318.859	-67.39
319.073	-32.61
319.287	-82.42
319.5	-18.29
319.714	-8.22
319.928	10.11
320.142	-0.23
320.356	6.48
320.57	-22.42
320.784	-40.63
320.997	-52.78
321.211	-24.65
321.425	-58.8
321.639	-34.77
321.853	-27.36
322.066	-15.91
322.28	-27.34
322.494	-14.17
322.707	-0.43
322.921	-0.64
323.135	4.97
323.349	18.03
323.562	22.01
323.776	19.55
323.989	4.27
324.203	4.28
324.417	17.45
324.63	-2.93
324.844	-25.4
325.057	-2.29
325.271	-34.66
325.485	-48.08
325.698	-34.12
325.912	-31.97
326.125	-26.23
326.339	-3.25
326.552	-5.88
326.766	-7.7
326.979	6.05
327.193	20.73
327.406	16.85
327.619	30.07
327.833	8.78
328.046	19.95
328.26	6.5
328.473	-20.13
328.686	-33
328.9	-12.24
329.113	-13.14
329.326	-4.32
329.54	16.78
329.753	21.25
329.966	48.78
330.179	43.24
330.393	39.07
330.606	27.9
330.819	44.41
331.032	9.07
331.246	27.56
331.459	26.3
331.672	24.31
331.885	16.5
332.098	10.39
332.311	-5.47
332.525	-11.96
332.738	-5.89
332.951	-27.28
333.164	-13.69
333.377	9.37
333.59	13.28
333.803	0.25
334.016	8.81
334.229	11.12
334.442	-25.52
334.655	-8.17
334.868	15.49
335.081	12.25
335.294	21.75
335.507	28.49
335.72	24.25
335.933	10.19
336.146	12.56
336.359	3.8
336.572	2.3
336.785	-0.54
336.997	14.26
337.21	36.68
337.423	25.81
337.636	23.77
337.849	24.43
338.062	-11.79
338.274	-35.81
338.487	-3.42
338.7	0.8
338.913	-11.54
339.125	15.96
339.338	9.31
339.551	-13.06
339.763	2
339.976	6.4
340.189	2.2
340.402	-8.43
340.614	1.32
340.827	-5.74
341.039	1.33
341.252	9.84
341.465	10.97
341.677	3.34
341.89	7.75
342.102	15.93
342.315	-2.07
342.527	24.72
342.74	18.26
342.952	-1.35
343.165	-24.71
343.377	1.22
343.59	-39.37
343.802	-16.16
344.015	-23.42
344.227	-25.36
344.44	-12.02
344.652	5.54
344.864	10.85
345.077	15.37
345.289	13.5
345.502	-0.14
345.714	-2.91
345.926	5.62
346.139	15.42
346.351	30.31
346.563	17.63
346.775	7.75
346.988	-14.87
347.2	-24.52
347.412	-69.93
347.624	-30.34
347.837	-10.87
348.049	-16.34
348.261	-5.68
348.473	2.05
348.685	9.9
348.897	4.44
349.11	16.94
349.322	-14.2
349.534	-12.46
349.746	-19.89
349.958	-12.27
350.17	-5.26
350.382	3.25
350.594	12.74
350.806	10.46
351.018	19.28
351.23	18.13
351.442	19.91
351.654	7.96
351.866	6.58
352.078	-5.52
352.29	4.57
352.502	18.16
352.714	15.37
352.926	22.84
353.138	32.9
353.35	23.92
353.561	7.8
353.773	-4.37
353.985	-15.38
354.197	-15.23
354.409	-17.64
354.621	-16.64
354.832	11.17
355.044	3.04
355.256	10.43
355.468	8.76
355.679	17.01
355.891	19.16
356.103	11.19
356.314	2.81
356.526	4.37
356.738	-6.49
356.949	-47.14
357.161	-14.09
357.373	-18.5
357.584	-25.22
357.796	-30.08
358.008	-2.25
358.219	-37.67
358.431	-45.88
358.642	-48.28
358.854	-11.56
359.065	-11.43
359.277	-2.02
359.488	-9.62
359.7	-0.35
359.911	-7.17
360.123	-3.86
360.334	1.27
360.546	3.59
360.757	8.92
360.969	9.41
361.18	13.87
361.391	11.64
361.603	36.42
361.814	22.5
362.025	34.06
362.237	23.53
362.448	19.87
362.659	4.69
362.871	1.69
363.082	-11.55
363.293	-24.86
363.504	-34.85
363.716	-21.88
363.927	14.38
364.138	17.04
364.349	4.9
364.56	9.08
364.772	6.1
364.983	-38.63
365.194	-38.99
365.405	-6.9
365.616	9.26
365.827	6.65
366.038	25.32
366.25	25.42
366.461	8.64
366.672	1.64
366.883	0.92
367.094	-4.29
367.305	2.89
367.516	18.39
367.727	30
367.938	29.24
368.149	21.99
368.36	27.29
368.571	35.55
368.781	-8.14
368.992	4.61
369.203	5.92
369.414	-8.5
369.625	-18.64
369.836	-8.9
370.047	-8.88
370.258	-4.9
370.468	0.86
370.679	11.66
370.89	13.48
371.101	16.71
371.312	25.28
371.522	31.86
371.733	25.84
371.944	25.36
372.155	22.03
372.365	9.18
372.576	7.48
372.787	0.51
372.997	-0.63
373.208	6.47
373.419	15.44
373.629	0.17
373.84	2.17
374.05	0.55
374.261	-4.31
374.472	-14.56
374.682	-19.72
374.893	-4.44
375.103	-1.51
375.314	-2.9
375.524	-7.27
375.735	-2.99
375.945	20.68
376.156	12.87
376.366	12.47
376.577	21.39
376.787	19.13
376.997	-5.5
377.208	7.28
377.418	9.92
377.629	8.23
377.839	22.6
378.049	20.46
378.26	4.67
378.47	3.79
378.68	10.58
378.89	-18.97
379.101	-10.59
379.311	-1.81
379.521	2.45
379.732	-1.47
379.942	12.13
380.152	5.02
380.362	3.21
380.572	9.19
380.783	-5.58
380.993	-7.12
381.203	-2.01
381.413	-3.89
381.623	-7.83
381.833	-5.01
382.043	0.19
382.253	1.76
382.463	7.06
382.674	1.96
382.884	12.61
383.094	14.92
383.304	8.79
383.514	13.62
383.724	5.76
383.934	7.94
384.144	1.17
384.353	3.53
384.563	-9.29
384.773	3.02
384.983	-10.96
385.193	-11.41
385.403	-5.75
385.613	7.74
385.823	-1.68
386.033	6.53
386.242	6.99
386.452	7.42
386.662	3.31
386.872	8.42
387.082	11.99
387.291	8.9
387.501	8.05
387.711	6.38
387.921	5.72
388.13	4.38
388.34	9.62
388.55	8.79
388.759	7.96
388.969	6.04
389.179	3.08
389.388	1.34
389.598	1.52
389.807	6.83
390.017	7.55
390.227	4.5
390.436	5.48
390.646	5.32
390.855	2.67
391.065	4.14
391.274	9.22
391.484	9.38
391.693	10.63
391.903	9.58
392.112	10.26
392.322	8.91
392.531	8.23
392.74	9.23
392.95	8.81
393.159	7.56
393.369	7.11
393.578	7.04
393.787	5.03
393.997	5.26
394.206	4.82
394.415	5.93
394.625	7.05
394.834	6.77
395.043	6.75
395.252	7.8
395.462	7.17
395.671	6.57
395.88	6.95
396.089	7.11
396.298	7.21
396.508	6.85
396.717	6.58
396.926	6.78
397.135	6.77
397.344	5.82
397.553	6.16
397.762	6.41
397.971	6.42
398.181	6.29
398.39	6.9
398.599	6.73
398.808	6.66
399.017	6.17
399.226	6.31
399.435	6.63
399.644	7.2
399.853	7.07
400.062	7.31
400.27	7.27
400.479	6.77
400.688	6.28
400.897	6.68
401.106	6.62
401.315	6.32
401.524	6.39
401.733	6.49
401.941	5.92
402.15	5.88
402.359	5.96
402.568	5.74
402.777	5.78
402.985	5.99
403.194	6.05
403.403	6.15
403.612	6.2
403.82	6.02
404.029	5.88
404.238	6.05
404.446	6.08
404.655	6.2
404.864	6.33
405.072	6.35
405.281	6.13
405.489	6.05
405.698	6.2
405.906	5.94
406.115	5.81
406.324	6.06
406.532	6.01
406.741	5.82
406.949	5.85
407.158	6.04
407.366	5.75
407.574	5.8
407.783	5.74
407.991	5.68
408.2	5.53
408.408	5.52
408.617	5.56
408.825	5.55
409.033	5.73
409.242	5.84
409.45	5.77
409.658	5.69
409.867	5.72
410.075	5.65
410.283	5.68
410.491	5.8
410.7	5.83
410.908	5.95
411.116	5.99
411.324	5.93
411.533	5.82
411.741	5.75
411.949	5.62
412.157	5.47
412.365	5.55
412.573	5.57
412.781	5.57
412.99	5.65
413.198	5.84
413.406	5.81
413.614	5.72
413.822	5.77
414.03	5.73
414.238	5.52
414.446	5.5
414.654	5.66
414.862	5.49
415.07	5.5
415.278	5.59
415.486	5.54
415.694	5.49
415.902	5.51
416.109	5.4
416.317	5.45
416.525	5.49
416.733	5.54
416.941	5.75
417.149	5.78
417.357	5.67
417.564	5.57
417.772	5.36
417.98	5.1
418.188	5.1
418.395	5
418.603	4.97
418.811	5.1
419.019	5.28
419.226	5.28
419.434	5.55
419.642	5.48
419.849	5.41
420.057	5.31
420.265	5.37
420.472	5.29
420.68	5.4
420.887	5.47
421.095	5.51
421.302	5.23
421.51	5.18
421.717	5.02
421.925	4.96
422.132	5.01
422.34	5.17
422.547	5.26
422.755	5.33
422.962	5.26
423.17	5.13
423.377	5.04
423.585	4.96
423.792	4.96
423.999	4.93
424.207	4.92
424.414	4.73
424.621	4.89
424.829	4.93
425.036	4.99
425.243	4.98
425.451	5.18
425.658	5.01
425.865	4.9
426.072	4.84
426.28	4.71
426.487	4.63
426.694	4.54
426.901	4.62
427.108	4.61
427.315	4.75
427.523	4.79
427.73	4.84
427.937	4.83
428.144	4.94
428.351	5.04
428.558	5.16
428.765	5.02
428.972	5.02
429.179	5.05
429.386	4.93
429.593	4.99
429.8	4.94
430.007	4.81
430.214	4.78
430.421	4.92
430.628	4.67
430.835	4.87
431.042	4.98
431.249	5.07
431.456	4.95
431.662	5.2
431.869	5.22
432.076	5.34
432.283	5.23
432.49	5.23
432.697	5.18
432.903	4.95
433.11	4.7
433.317	4.73
433.524	4.78
433.73	4.8
433.937	4.83
434.144	4.97
434.35	4.89
434.557	4.78
434.764	4.6
434.97	4.72
435.177	4.7
435.384	4.59
435.59	4.63
435.797	4.72
436.003	4.67
436.21	4.53
436.416	4.53
436.623	4.51
436.829	4.55
437.036	4.56
437.242	4.59
437.449	4.71
437.655	4.77
437.862	4.85
438.068	4.97
438.275	5.15
438.481	5.29
438.687	5.26
438.894	5.31
439.1	5.12
439.307	5.06
439.513	5.05
439.719	5.09
439.926	4.89
440.132	5.04
440.338	5.04
440.544	4.94
440.751	4.92
440.957	4.95
441.163	4.92
441.369	4.85
441.575	4.86
441.782	4.97
441.988	4.98
442.194	4.9
442.4	5
442.606	4.96
442.812	4.8
443.018	4.87
443.224	4.89
443.431	4.83
443.637	4.83
443.843	4.82
444.049	4.66
444.255	4.73
444.461	4.79
444.667	4.82
444.873	4.84
445.079	4.79
445.284	4.84
445.49	4.85
445.696	4.91
445.902	4.88
446.108	5.02
446.314	4.8
446.52	4.76
446.726	4.71
446.931	4.74
447.137	4.73
447.343	4.8
447.549	4.7
447.755	4.75
447.96	4.84
448.166	4.89
448.372	4.92
448.578	5
448.783	5.03
448.989	4.89
449.195	4.95
449.4	5
449.606	5.07
449.812	5.06
450.017	5.21
450.223	5.13
450.428	5.09
450.634	5.07
450.84	5
451.045	4.93
451.251	5.03
451.456	5.09
451.662	5.04
451.867	4.96
452.073	4.98
452.278	4.92
452.483	4.94
452.689	5.04
452.894	5.2
453.1	5.28
453.305	5.18
453.51	5.15
453.716	5.09
453.921	5.06
454.127	5
454.332	5.03
454.537	5.06
454.742	5
454.948	4.96
455.153	4.92
455.358	4.96
455.563	4.89
455.769	4.85
455.974	4.85
456.179	4.79
456.384	4.77
456.589	4.73
456.795	4.8
457	4.76
457.205	4.89
457.41	4.91
457.615	5.01
457.82	5.04
458.025	5.03
458.23	4.95
458.435	4.87
458.64	4.81
458.845	4.91
459.05	4.95
459.255	4.96
459.46	5.02
459.665	5.08
459.87	4.92
460.075	4.96
460.28	5.05
460.485	5.1
460.69	5.05
460.895	5.06
461.099	5.03
461.304	4.98
461.509	4.97
461.714	4.95
461.919	4.98
462.123	5.02
462.328	4.94
462.533	4.95
462.738	5.02
462.942	5.11
463.147	5.08
463.352	5.2
463.556	5.13
463.761	5.06
463.966	4.96
464.17	4.99
464.375	4.98
