Data from Ofav_SP_Phys_9AZ10_Reflection_3.txt Node
Date: Thu Aug 05 17:49:59 EDT 2021
User: Adam
Spectrometer: FLMT01687
Trigger mode: 0
Integration Time (sec): 8.000000E-1
Scans to average: 2
Electric dark correction enabled: true
Nonlinearity correction enabled: false
Boxcar width: 2
XAxis mode: Wavelengths
Number of Pixels in Spectrum: 3648
>>>>>Begin Spectral Data<<<<<
179.494	649.08
179.716	686.65
179.937	570.5
180.158	692.72
180.38	1643.25
180.601	-592.76
180.823	-121.85
181.044	-62.23
181.265	48.55
181.486	61.53
181.708	-85.23
181.929	-153.36
182.15	-424.08
182.372	2.91
182.593	-4.66
182.814	-84.26
183.035	47.49
183.257	223.84
183.478	-347.46
183.699	625.23
183.92	96.82
184.141	-298.21
184.363	696.76
184.584	20.08
184.805	60.25
185.026	39.34
185.247	45.31
185.468	59.85
185.689	36.98
185.91	20.92
186.132	-45.21
186.353	-23.52
186.574	-147.04
186.795	-80.61
187.016	-91.39
187.237	-82.88
187.458	-438.84
187.679	-90.71
187.9	-103.62
188.121	-101.17
188.342	-64.4
188.563	9.98
188.784	37.5
189.005	12.34
189.226	22.52
189.447	48.61
189.667	61.34
189.888	27.91
190.109	102.16
190.33	121.72
190.551	71.06
190.772	66.37
190.993	78.04
191.214	52.71
191.434	44.26
191.655	52.69
191.876	49.69
192.097	40.63
192.318	51.24
192.538	70.29
192.759	111.69
192.98	53.78
193.201	11.43
193.421	-26.32
193.642	-6.72
193.863	-70.72
194.083	-20.9
194.304	-2.91
194.525	5.85
194.745	6.43
194.966	32.77
195.187	43
195.407	17.63
195.628	-7.55
195.848	-13.04
196.069	-8.25
196.29	-32.79
196.51	8.72
196.731	14.16
196.951	53.52
197.172	59.87
197.392	81.82
197.613	74.24
197.833	125.34
198.054	87.82
198.274	55.14
198.495	50.35
198.715	44.56
198.936	-37.47
199.156	28.86
199.377	42.45
199.597	41.63
199.817	29.49
200.038	33.56
200.258	27.9
200.479	26.57
200.699	25.72
200.919	22.83
201.14	-32.76
201.36	-74.53
201.58	-65.28
201.801	-166.72
202.021	-140.53
202.241	-12.08
202.461	-11.88
202.682	-33.57
202.902	-5.11
203.122	38.42
203.342	-24.74
203.563	-14.75
203.783	5.12
204.003	18.78
204.223	17.22
204.443	16.71
204.663	14.22
204.884	32.07
205.104	27.05
205.324	42.29
205.544	44.09
205.764	45.48
205.984	1.11
206.204	-8.75
206.424	-12.37
206.644	-22.77
206.864	-1.75
207.084	3.76
207.304	53.76
207.525	64.25
207.745	48.45
207.964	15.7
208.184	48.78
208.404	-6.2
208.624	-20.19
208.844	-15.82
209.064	-11.82
209.284	21.83
209.504	40.54
209.724	45.72
209.944	23.72
210.164	7.85
210.384	10.18
210.604	8.05
210.823	16.66
211.043	25.8
211.263	34.23
211.483	19.09
211.703	35.44
211.922	32.45
212.142	67.74
212.362	61.25
212.582	130.99
212.801	107.23
213.021	74.72
213.241	49.14
213.461	52.33
213.68	34.51
213.9	18.59
214.12	35.64
214.339	62.4
214.559	52.17
214.779	40.76
214.998	86.7
215.218	85.34
215.438	100.98
215.657	151.55
215.877	218.91
216.096	158.7
216.316	133
216.535	54.43
216.755	-22.95
216.974	-234.71
217.194	-3.12
217.413	24.67
217.633	34.75
217.852	47.15
218.072	48.55
218.291	19.88
218.511	27.86
218.73	-1.04
218.95	-15.99
219.169	-56.45
219.389	22.35
219.608	-2.24
219.827	33.35
220.047	85.74
220.266	96.56
220.485	62.53
220.705	60.12
220.924	28.81
221.143	-37.32
221.363	-65.19
221.582	-33.41
221.801	-69.83
222.021	-12.07
222.24	16.35
222.459	16.76
222.678	19.67
222.897	61.96
223.117	65.32
223.336	39.76
223.555	48.3
223.774	28.92
223.993	14.04
224.213	22.29
224.432	50.98
224.651	54.14
224.87	57.82
225.089	64.41
225.308	70.73
225.527	21.31
225.746	-1.76
225.965	-35.36
226.184	-20.23
226.404	-1.48
226.623	-10.18
226.842	-20.39
227.061	16.03
227.28	-4.53
227.499	0.42
227.718	-0.31
227.936	21.39
228.155	4.12
228.374	-1.22
228.593	13.92
228.812	42.98
229.031	32.25
229.25	32.74
229.469	42.81
229.688	35.76
229.907	7.03
230.125	4.68
230.344	14.16
230.563	35.92
230.782	44.99
231.001	106.91
231.22	74.69
231.438	53.96
231.657	21.84
231.876	-16.36
232.095	14.23
232.313	23.73
232.532	28.03
232.751	47.31
232.969	45.97
233.188	33.51
233.407	24.68
233.625	32.89
233.844	10.04
234.063	20.55
234.281	31.19
234.5	30.41
234.719	41.26
234.937	-2.41
235.156	-3.28
235.374	-10.85
235.593	-2.47
235.811	-21.06
236.03	14.59
236.249	19.16
236.467	21.72
236.686	12.38
236.904	15.61
237.123	2.4
237.341	37.34
237.559	22.98
237.778	23.67
237.996	44.54
238.215	48.74
238.433	26.83
238.652	19.11
238.87	-14.58
239.088	-29.07
239.307	-20.02
239.525	-38.83
239.743	-41.09
239.962	-11.4
240.18	-39.23
240.398	-61.35
240.617	-45.02
240.835	-4.9
241.053	-7.51
241.271	-7.71
241.49	32.88
241.708	27.26
241.926	36.72
242.144	20.7
242.363	42.97
242.581	26.18
242.799	-51.19
243.017	-79.77
243.235	-96.1
243.453	-42.95
243.672	-55.88
243.89	-32.46
244.108	18.52
244.326	27.53
244.544	57.86
244.762	40.35
244.98	73
245.198	53.4
245.416	84.54
245.634	60.53
245.852	41.96
246.07	39.11
246.288	20.06
246.506	-44
246.724	-10.45
246.942	14.55
247.16	-3.46
247.378	-43.24
247.596	11.56
247.814	32.89
248.032	-1.63
248.25	-33.67
248.468	-15.91
248.685	-5.15
248.903	-14.18
249.121	-18.75
249.339	16.39
249.557	3.59
249.775	-2.54
249.992	-46.37
250.21	-14.18
250.428	-21.93
250.646	-3.96
250.863	1.54
251.081	36.22
251.299	5.29
251.517	41.21
251.734	29.31
251.952	-10.76
252.17	9.54
252.387	33.62
252.605	16.54
252.823	40.63
253.04	38.57
253.258	38.43
253.475	56.26
253.693	37.13
253.911	35.78
254.128	47.37
254.346	42.45
254.563	29.07
254.781	36.72
254.998	22.46
255.216	-6.29
255.433	-37.41
255.651	-87.44
255.868	-70.53
256.086	-52.96
256.303	-43.41
256.521	-18.67
256.738	-27.82
256.956	-66.96
257.173	-2.01
257.39	70.57
257.608	22.09
257.825	8.37
258.043	13.28
258.26	-3.31
258.477	-13.95
258.695	15.03
258.912	32.08
259.129	44.03
259.346	49.24
259.564	45.54
259.781	43.63
259.998	38.31
260.216	42.54
260.433	43.56
260.65	19.78
260.867	-45.55
261.084	-32.05
261.302	-39.13
261.519	-13.37
261.736	27.98
261.953	37.17
262.17	39.29
262.387	78.44
262.604	60.73
262.822	66.62
263.039	78.01
263.256	73.16
263.473	39.48
263.69	55.59
263.907	48.22
264.124	24.05
264.341	12.81
264.558	7.15
264.775	-8.98
264.992	1.27
265.209	18.5
265.426	33.35
265.643	14.61
265.86	-6.69
266.077	-18.19
266.294	-16.37
266.51	-23.4
266.727	-3.39
266.944	31.12
267.161	22.46
267.378	26.01
267.595	24.66
267.812	9.89
268.028	-13.12
268.245	-13.45
268.462	-39.09
268.679	-58.39
268.896	-30.42
269.112	-34.19
269.329	-9.99
269.546	20.76
269.763	38.08
269.979	37.15
270.196	61.58
270.413	49.09
270.629	44.99
270.846	27.36
271.063	30.21
271.279	0.54
271.496	-60.56
271.712	-124.84
271.929	-117.92
272.146	-95.51
272.362	-122.86
272.579	-66.59
272.795	-54.45
273.012	-15.67
273.228	-30.71
273.445	-10.12
273.661	14.27
273.878	30.3
274.094	27.55
274.311	43.39
274.527	34.55
274.744	18.13
274.96	31.56
275.177	1.99
275.393	-9.75
275.609	13.7
275.826	22.94
276.042	14.08
276.259	28.23
276.475	35.28
276.691	18.02
276.908	22.22
277.124	37.98
277.34	42.55
277.557	9.86
277.773	10.01
277.989	-5.54
278.205	-25.85
278.422	-40.46
278.638	15.99
278.854	36.3
279.07	28.15
279.286	-10.01
279.503	-4.2
279.719	-28.82
279.935	-18.38
280.151	29.73
280.367	81.59
280.583	64.04
280.799	89.07
281.016	77.1
281.232	66.31
281.448	45.59
281.664	41.34
281.88	2.64
282.096	19.76
282.312	14.95
282.528	25.75
282.744	48.96
282.96	53.92
283.176	63.5
283.392	77.11
283.608	70.14
283.824	42.36
284.04	29.78
284.256	12.87
284.471	-10.27
284.687	5.16
284.903	12.78
285.119	16.4
285.335	1.58
285.551	-1.57
285.767	-22.31
285.982	-24.58
286.198	-59.13
286.414	-22.68
286.63	19.51
286.846	19.05
287.061	5.7
287.277	16.11
287.493	26.92
287.709	-4.67
287.924	12.59
288.14	27.39
288.356	26.06
288.571	34.33
288.787	35.74
289.003	10.54
289.218	-28.25
289.434	-32.51
289.65	-40.32
289.865	-9.41
290.081	10.74
290.296	11.29
290.512	19.6
290.727	26.34
290.943	24.96
291.159	34.55
291.374	40.63
291.59	37.95
291.805	27.55
292.021	58.39
292.236	63.27
292.451	31.72
292.667	24.84
292.882	19.95
293.098	-2.05
293.313	13.36
293.529	46.06
293.744	37.48
293.959	14.68
294.175	20.48
294.39	7.86
294.605	-8.29
294.821	-9.69
295.036	5.27
295.251	-2.82
295.467	4.31
295.682	1.52
295.897	14.71
296.112	21.78
296.328	27.67
296.543	29.87
296.758	43.41
296.973	30.55
297.188	33.4
297.404	21.36
297.619	10.53
297.834	-1.64
298.049	-28.32
298.264	-54.6
298.479	-63.77
298.694	-30.67
298.909	6.1
299.125	27.43
299.34	38.06
299.555	42.12
299.77	45.37
299.985	34.72
300.2	46.76
300.415	55.63
300.63	45.01
300.845	22.92
301.06	62.7
301.275	30.91
301.49	21.17
301.704	6.58
301.919	34.59
302.134	6.7
302.349	3.84
302.564	9.27
302.779	26.04
302.994	21.57
303.209	26.05
303.423	19.06
303.638	7.48
303.853	5.87
304.068	15.63
304.283	21.85
304.497	21.12
304.712	15.84
304.927	-21.77
305.142	-39.06
305.356	-62.75
305.571	-12.33
305.786	11.85
306	32.05
306.215	39.96
306.43	60.68
306.644	56.87
306.859	37.37
307.074	36.18
307.288	41.74
307.503	34.4
307.717	33.48
307.932	35.07
308.147	32.41
308.361	33.6
308.576	16.79
308.79	-5.62
309.005	11.47
309.219	-11.14
309.434	-27.87
309.648	-50.05
309.863	-54.19
310.077	-87.07
310.292	-57.12
310.506	-46.87
310.72	-3.94
310.935	8.34
311.149	3.18
311.364	32.24
311.578	23.81
311.792	37.89
312.007	33.87
312.221	26.73
312.435	31.98
312.649	32.57
312.864	10.17
313.078	27.84
313.292	65.55
313.507	53.66
313.721	57.93
313.935	47.96
314.149	45.17
314.363	23.36
314.578	38.3
314.792	22.35
315.006	25.36
315.22	-3.48
315.434	-30.63
315.648	-85.15
315.862	-48.89
316.077	-42.25
316.291	-43.41
316.505	-16.93
316.719	4.74
316.933	-0.09
317.147	11.26
317.361	25.25
317.575	20.59
317.789	22.05
318.003	28.16
318.217	49.73
318.431	83.57
318.645	77.27
318.859	61.01
319.073	42.68
319.287	15.35
319.5	-17.69
319.714	-10.93
319.928	20.92
320.142	-7.01
320.356	15.02
320.57	28.39
320.784	27.79
320.997	-6.57
321.211	32.09
321.425	26.78
321.639	-13.56
321.853	-18.04
322.066	-12.63
322.28	-9.42
322.494	-8.26
322.707	-4.38
322.921	4.11
323.135	16.6
323.349	18.9
323.562	10.35
323.776	28.46
323.989	-4.54
324.203	-9.78
324.417	0.49
324.63	8.93
324.844	0.9
325.057	14.71
325.271	-4.65
325.485	-9.88
325.698	-21.1
325.912	-13.62
326.125	9.92
326.339	23.24
326.552	18.27
326.766	31.2
326.979	41.02
327.193	35.26
327.406	31.93
327.619	50.93
327.833	22.75
328.046	33.2
328.26	26.98
328.473	-17.65
328.686	-35.75
328.9	-17.47
329.113	-31.37
329.326	-21.75
329.54	21.82
329.753	50.59
329.966	56.85
330.179	67.83
330.393	77.09
330.606	73.14
330.819	50.42
331.032	59.26
331.246	80.18
331.459	63.45
331.672	46.84
331.885	46.7
332.098	48.91
332.311	46.07
332.525	32.47
332.738	28.25
332.951	34.71
333.164	40.16
333.377	30.28
333.59	43.53
333.803	30.26
334.016	16.99
334.229	-26.68
334.442	-20.12
334.655	8.1
334.868	34.08
335.081	31.42
335.294	67.48
335.507	65.27
335.72	58.76
335.933	50.85
336.146	54.54
336.359	40.86
336.572	26.17
336.785	-0.64
336.997	-0.45
337.21	-9.46
337.423	13.58
337.636	17.2
337.849	57.39
338.062	23.51
338.274	4.15
338.487	3.58
338.7	-3.78
338.913	-35
339.125	-1.9
339.338	5.64
339.551	-31.38
339.763	11.24
339.976	22.53
340.189	31.21
340.402	22.61
340.614	43.93
340.827	41.27
341.039	39.9
341.252	31.4
341.465	34.1
341.677	38.39
341.89	20.86
342.102	21.26
342.315	1.17
342.527	13.75
342.74	13.36
342.952	5.15
343.165	-6.6
343.377	39.27
343.59	9.06
343.802	-17.91
344.015	-16.39
344.227	-5.78
344.44	-19.51
344.652	11.36
344.864	21.97
345.077	26.99
345.289	11.35
345.502	8.78
345.714	-1.69
345.926	16.17
346.139	20.25
346.351	24.49
346.563	16.96
346.775	12.09
346.988	-30.79
347.2	-6.66
347.412	0.54
347.624	46.18
347.837	48.22
348.049	55.44
348.261	26.16
348.473	33.34
348.685	34.96
348.897	27.87
349.11	33.71
349.322	33.44
349.534	4.77
349.746	0.71
349.958	-19.63
350.17	-18.09
350.382	-13.39
350.594	2.03
350.806	11.13
351.018	48.9
351.23	42.31
351.442	45.57
351.654	30.41
351.866	20.41
352.078	-10.52
352.29	2.29
352.502	14.32
352.714	14.92
352.926	18.42
353.138	24.68
353.35	26.88
353.561	15.79
353.773	13.79
353.985	12.02
354.197	27.03
354.409	6.09
354.621	0.28
354.832	11.44
355.044	9.58
355.256	14.79
355.468	33.89
355.679	40.84
355.891	50.67
356.103	60.37
356.314	51.76
356.526	51.22
356.738	52.73
356.949	25.1
357.161	30.4
357.373	25.14
357.584	24.71
357.796	29.32
358.008	33.87
358.219	15.48
358.431	46.07
358.642	29.68
358.854	36.76
359.065	50.69
359.277	50.41
359.488	26.09
359.7	34.05
359.911	22.35
360.123	10.27
360.334	7.91
360.546	7.38
360.757	2.34
360.969	6.01
361.18	24.55
361.391	36.93
361.603	45.48
361.814	53.56
362.025	63.69
362.237	49.16
362.448	34.69
362.659	41.14
362.871	17.05
363.082	-2.07
363.293	-13.09
363.504	-11.28
363.716	-17.39
363.927	17.65
364.138	26.86
364.349	9.89
364.56	10.31
364.772	9.69
364.983	9.82
365.194	1.37
365.405	15.13
365.616	13.79
365.827	20.01
366.038	29.9
366.25	28.42
366.461	22.35
366.672	34.75
366.883	40.8
367.094	30.18
367.305	36.81
367.516	39.78
367.727	32.32
367.938	10.12
368.149	-1.57
368.36	-4.5
368.571	-29.48
368.781	-40.63
368.992	-31.88
369.203	-4.11
369.414	-6.26
369.625	6.2
369.836	6.35
370.047	9.4
370.258	10.33
370.468	9.83
370.679	13.85
370.89	12.55
371.101	1.74
371.312	8.08
371.522	9.33
371.733	0.71
371.944	-7.43
372.155	19.45
372.365	-1.45
372.576	7.15
372.787	2.34
372.997	22.12
373.208	15.57
373.419	24.6
373.629	6.43
373.84	34.54
374.05	30.3
374.261	28.83
374.472	33.14
374.682	32.3
374.893	27.46
375.103	11.72
375.314	11.57
375.524	16.72
375.735	14.44
375.945	19.86
376.156	22.97
376.366	30.54
376.577	33.12
376.787	38.19
376.997	24.5
377.208	24.22
377.418	18.39
377.629	19.94
377.839	32.32
378.049	35.33
378.26	35.84
378.47	43.13
378.68	36.23
378.89	13.11
379.101	15.97
379.311	15.43
379.521	3.73
379.732	22.1
379.942	38.57
380.152	36.23
380.362	43.26
380.572	47.32
380.783	26.79
380.993	22.29
381.203	14.33
381.413	11.85
381.623	17.14
381.833	24.13
382.043	31.82
382.253	36.1
382.463	37.16
382.674	33.63
382.884	25.77
383.094	13.16
383.304	12.54
383.514	12.37
383.724	8.08
383.934	16.25
384.144	18.03
384.353	19
384.563	22.6
384.773	25.9
384.983	14.39
385.193	12.87
385.403	14.25
385.613	13.31
385.823	3.86
386.033	8.41
386.242	10.57
386.452	5.32
386.662	7.42
386.872	8.06
387.082	9.35
387.291	-0.55
387.501	3.05
387.711	1.64
387.921	4.64
388.13	5.68
388.34	15
388.55	9.89
388.759	5.49
388.969	4.75
389.179	4.24
389.388	7.22
389.598	10.73
389.807	11.62
390.017	12.16
390.227	10.1
390.436	5.7
390.646	5.46
390.855	6.2
391.065	6.78
391.274	9.3
391.484	11.83
391.693	9.43
391.903	9.75
392.112	9.53
392.322	8.14
392.531	7.83
392.74	8.53
392.95	7.98
393.159	6.78
393.369	6.97
393.578	7.25
393.787	8.41
393.997	7.53
394.206	8.26
394.415	8.95
394.625	9.09
394.834	8.13
395.043	7.81
395.252	8
395.462	8.47
395.671	7.38
395.88	8.32
396.089	8.27
396.298	8.84
396.508	8
396.717	8.03
396.926	7.57
397.135	7.56
397.344	6.48
397.553	6.81
397.762	6.94
397.971	6.75
398.181	6.91
398.39	6.65
398.599	6.51
398.808	6.4
399.017	6.27
399.226	6.47
399.435	7.19
399.644	7.24
399.853	7.67
400.062	7.89
400.27	7.94
400.479	7.42
400.688	7.2
400.897	7.3
401.106	7.24
401.315	6.83
401.524	6.89
401.733	6.8
401.941	6.69
402.15	6.54
402.359	6.46
402.568	6.57
402.777	6.97
402.985	6.72
403.194	6.72
403.403	6.8
403.612	6.62
403.82	6.37
404.029	6.35
404.238	6.49
404.446	6.71
404.655	7.04
404.864	6.98
405.072	7.01
405.281	6.74
405.489	6.78
405.698	6.63
405.906	6.53
406.115	6.3
406.324	6.54
406.532	6.31
406.741	6.21
406.949	6.16
407.158	6.28
407.366	6.22
407.574	6.22
407.783	6.18
407.991	6.19
408.2	6.17
408.408	6.15
408.617	6.3
408.825	6.35
409.033	6.4
409.242	6.36
409.45	6.18
409.658	6.02
409.867	5.92
410.075	5.97
410.283	5.96
410.491	6.01
410.7	6.05
410.908	5.97
411.116	5.86
411.324	5.97
411.533	5.88
411.741	5.77
411.949	5.86
412.157	5.88
412.365	5.86
412.573	5.89
412.781	5.96
412.99	5.97
413.198	6.13
413.406	6.21
413.614	6.27
413.822	6.18
414.03	6.21
414.238	6.11
414.446	5.94
414.654	5.95
414.862	6.03
415.07	6.14
415.278	6.04
415.486	5.97
415.694	5.92
415.902	5.82
416.109	5.61
416.317	5.78
416.525	5.64
416.733	5.54
416.941	5.7
417.149	5.72
417.357	5.48
417.564	5.51
417.772	5.57
417.98	5.33
418.188	5.23
418.395	5.18
418.603	5.38
418.811	5.35
419.019	5.37
419.226	5.51
419.434	5.62
419.642	5.6
419.849	5.62
420.057	5.6
420.265	5.62
420.472	5.49
420.68	5.3
420.887	5.22
421.095	5.31
421.302	5.16
421.51	5.14
421.717	5.23
421.925	5.19
422.132	5.21
422.34	5.17
422.547	5.2
422.755	5.15
422.962	5.33
423.17	5.29
423.377	5.42
423.585	5.55
423.792	5.51
423.999	5.51
424.207	5.35
424.414	5.12
424.621	5
424.829	5.22
425.036	5.21
425.243	5.42
425.451	5.62
425.658	5.84
425.865	5.74
426.072	5.67
426.28	5.57
426.487	5.48
426.694	5.37
426.901	5.3
427.108	5.29
427.315	5.3
427.523	5.46
427.73	5.37
427.937	5.24
428.144	5.34
428.351	5.43
428.558	5.27
428.765	5.13
428.972	5.3
429.179	5.12
429.386	5.09
429.593	5.2
429.8	5.38
430.007	5.3
430.214	5.36
430.421	5.4
430.628	5.22
430.835	5.3
431.042	5.21
431.249	5.26
431.456	5.25
431.662	5.59
431.869	5.6
432.076	5.73
432.283	5.89
432.49	5.76
432.697	5.73
432.903	5.59
433.11	5.6
433.317	5.47
433.524	5.67
433.73	5.6
433.937	5.69
434.144	5.7
434.35	5.6
434.557	5.63
434.764	5.47
434.97	5.42
435.177	5.46
435.384	5.3
435.59	5.15
435.797	5.36
436.003	5.44
436.21	5.11
436.416	5.3
436.623	5.36
436.829	5.26
437.036	5.17
437.242	5.45
437.449	5.48
437.655	5.59
437.862	5.72
438.068	5.84
438.275	5.91
438.481	5.95
438.687	5.81
438.894	5.79
439.1	5.71
439.307	5.67
439.513	5.66
439.719	5.73
439.926	5.67
440.132	5.8
440.338	5.81
440.544	5.86
440.751	5.88
440.957	5.89
441.163	5.79
441.369	5.8
441.575	5.7
441.782	5.75
441.988	5.62
442.194	5.66
442.4	5.74
442.606	5.77
442.812	5.74
443.018	5.84
443.224	5.72
443.431	5.64
443.637	5.63
443.843	5.52
444.049	5.5
444.255	5.49
444.461	5.47
444.667	5.49
444.873	5.52
445.079	5.57
445.284	5.69
445.49	5.77
445.696	5.77
445.902	5.81
446.108	5.76
446.314	5.71
446.52	5.67
446.726	5.74
446.931	5.74
447.137	5.74
447.343	5.73
447.549	5.72
447.755	5.7
447.96	5.7
448.166	5.69
448.372	5.77
448.578	5.68
448.783	5.79
448.989	5.8
449.195	5.84
449.4	5.86
449.606	5.95
449.812	5.9
450.017	5.99
450.223	5.93
450.428	5.93
450.634	5.99
450.84	5.82
451.045	5.77
451.251	5.89
451.456	6
451.662	5.98
451.867	6.15
452.073	6.15
452.278	6.02
452.483	5.98
452.689	5.97
452.894	5.99
453.1	6
453.305	6.09
453.51	6.05
453.716	6.08
453.921	6.05
454.127	6.12
454.332	6.14
454.537	6.25
454.742	6.22
454.948	6.17
455.153	6.11
455.358	6.13
455.563	6.09
455.769	6.04
455.974	6.09
456.179	6.05
456.384	5.85
456.589	5.79
456.795	5.81
457	5.77
457.205	5.77
457.41	5.96
457.615	5.9
457.82	5.89
458.025	5.87
458.23	5.88
458.435	5.8
458.64	5.71
458.845	5.83
459.05	5.81
459.255	5.88
459.46	5.93
459.665	6.11
459.87	6.05
460.075	6.18
460.28	6.09
460.485	6.19
460.69	6.14
460.895	6.02
461.099	6
461.304	6.03
461.509	6.02
461.714	6.07
461.919	6.2
462.123	6.16
462.328	6.15
462.533	6.13
462.738	6.12
462.942	6.12
463.147	6.16
463.352	6.27
463.556	6.23
463.761	6.2
463.966	6.27
464.17	6.28
464.375	6.23
464.58	6.3
464.784	6.32
464.989	6.35
465.193	6.21
465.398	6.39
465.602	6.53
465.807	6.65
466.011	6.68
466.216	6.82
466.42	6.71
