Data from Ofav_SP_Phys_0DW46_Reflection_3.txt Node
Date: Thu Aug 05 17:45:44 EDT 2021
User: Adam
Spectrometer: FLMT01687
Trigger mode: 0
Integration Time (sec): 8.000000E-1
Scans to average: 2
Electric dark correction enabled: true
Nonlinearity correction enabled: false
Boxcar width: 2
XAxis mode: Wavelengths
Number of Pixels in Spectrum: 3648
>>>>>Begin Spectral Data<<<<<
179.494	497.84
179.716	545.07
179.937	457.03
180.158	564.86
180.38	1232.04
180.601	-229.35
180.823	43.03
181.044	36.65
181.265	67.4
181.486	52.28
181.708	488.59
181.929	-113.63
182.15	-212.24
182.372	30.38
182.593	35.12
182.814	-5.37
183.035	119.96
183.257	229.18
183.478	17.63
183.699	221.28
183.92	64.25
184.141	-100.45
184.363	672.43
184.584	28.25
184.805	-7.3
185.026	2.53
185.247	28.79
185.468	46.84
185.689	37.86
185.91	51.22
186.132	20.62
186.353	4.73
186.574	-67.12
186.795	-77.56
187.016	-48.41
187.237	-26.39
187.458	-171.35
187.679	23.18
187.9	21.39
188.121	-22.78
188.342	-8.51
188.563	44.14
188.784	51.09
189.005	10.18
189.226	27.31
189.447	19.14
189.667	-12.89
189.888	-53.57
190.109	107.76
190.33	120.72
190.551	107.24
190.772	86.83
190.993	75.42
191.214	42.92
191.434	39.09
191.655	30.41
191.876	37.65
192.097	14.69
192.318	17.11
192.538	-30.12
192.759	-5.94
192.98	-48.42
193.201	-279.02
193.421	-305.09
193.642	-135.62
193.863	-148.56
194.083	-65.62
194.304	-11.41
194.525	20.29
194.745	19.69
194.966	36.64
195.187	16.57
195.407	-8.77
195.628	-16.46
195.848	3.85
196.069	20.06
196.29	27.58
196.51	64.87
196.731	49.82
196.951	50.42
197.172	66.73
197.392	71.48
197.613	42.25
197.833	53.57
198.054	39.41
198.274	-28.6
198.495	-12.26
198.715	16.57
198.936	-1.68
199.156	64.35
199.377	63.8
199.597	62.78
199.817	36.55
200.038	27.72
200.258	18.2
200.479	11.92
200.699	-5.55
200.919	-15.69
201.14	-35.8
201.36	-76.1
201.58	-49.38
201.801	-90.71
202.021	-70.03
202.241	-26.55
202.461	11.35
202.682	-9.16
202.902	32.91
203.122	189.74
203.342	283.35
203.563	92
203.783	104.62
204.003	55.37
204.223	30.61
204.443	4.09
204.663	18.46
204.884	23.24
205.104	19.47
205.324	41.56
205.544	35.24
205.764	32.13
205.984	2.89
206.204	-11.09
206.424	7.83
206.644	-1.81
206.864	-10.23
207.084	-11.6
207.304	26.06
207.525	-0.34
207.745	27.8
207.964	32.44
208.184	41.93
208.404	12.6
208.624	6.43
208.844	27.86
209.064	54.71
209.284	61
209.504	44.03
209.724	34.73
209.944	17.05
210.164	1.51
210.384	17.54
210.604	28.36
210.823	23.51
211.043	17.05
211.263	17.79
211.483	2.94
211.703	11.03
211.922	14.49
212.142	45.14
212.362	5.6
212.582	35.82
212.801	80.24
213.021	33.6
213.241	-0.84
213.461	18.02
213.68	8.68
213.9	-28.24
214.12	-51.67
214.339	-35.25
214.559	2.98
214.779	-13.64
214.998	10.79
215.218	27.82
215.438	59.31
215.657	55.75
215.877	44.56
216.096	-10.89
216.316	27.61
216.535	-10.73
216.755	-113.8
216.974	-218.07
217.194	2.35
217.413	33.17
217.633	29.99
217.852	58.1
218.072	77.15
218.291	70.1
218.511	71.48
218.73	75.95
218.95	90.17
219.169	43.2
219.389	78.33
219.608	43.6
219.827	51.57
220.047	46.74
220.266	48.61
220.485	19.17
220.705	44.43
220.924	44.36
221.143	27.18
221.363	-3.4
221.582	14.82
221.801	-40.7
222.021	17.06
222.24	26.85
222.459	81.09
222.678	56.03
222.897	63.83
223.117	9.56
223.336	17.82
223.555	15.55
223.774	-32.45
223.993	-28.65
224.213	8.94
224.432	-12.93
224.651	2.89
224.87	10.5
225.089	16.73
225.308	-28.72
225.527	-32.97
225.746	-67.84
225.965	-114.94
226.184	-93.44
226.404	-63.1
226.623	-70.54
226.842	-46.72
227.061	1.87
227.28	26.93
227.499	33.72
227.718	17.59
227.936	-0.87
228.155	25.83
228.374	11.8
228.593	21.38
228.812	43.55
229.031	65.07
229.25	56.86
229.469	48.03
229.688	41.83
229.907	25.41
230.125	0.53
230.344	-12.95
230.563	-15.86
230.782	-75.48
231.001	-37.83
231.22	31.67
231.438	30.36
231.657	19.9
231.876	34.34
232.095	35.94
232.313	6.28
232.532	4.65
232.751	17.21
232.969	9.72
233.188	10.24
233.407	11.12
233.625	41.99
233.844	34.25
234.063	29.33
234.281	21.81
234.5	26.06
234.719	2.38
234.937	-42.26
235.156	-45.24
235.374	-49.83
235.593	-41.6
235.811	-34.87
236.03	-1.77
236.249	3.66
236.467	6.61
236.686	-14.05
236.904	-14.69
237.123	-24.85
237.341	21.37
237.559	13.2
237.778	4.15
237.996	5.66
238.215	-3.89
238.433	-26.85
238.652	-4.24
238.87	-0.73
239.088	-1.11
239.307	18.98
239.525	16.82
239.743	-9.68
239.962	9.07
240.18	6.2
240.398	-33
240.617	-26.55
240.835	24.98
241.053	37.31
241.271	21.75
241.49	47.19
241.708	35.64
241.926	22.38
242.144	-18.49
242.363	-22.01
242.581	23.89
242.799	-8.21
243.017	12.57
243.235	-44.48
243.453	-31.94
243.672	-95.51
243.89	-67.01
244.108	-93.46
244.326	-21.37
244.544	17.34
244.762	14.85
244.98	3.87
245.198	28.66
245.416	46.74
245.634	32.6
245.852	21
246.07	31.05
246.288	4.21
246.506	-52.03
246.724	-25.48
246.942	-22.75
247.16	-43.38
247.378	-130.66
247.596	-49.1
247.814	-46.83
248.032	-22.72
248.25	-26.92
248.468	0.89
248.685	6.35
248.903	15.84
249.121	13.16
249.339	36.11
249.557	37.86
249.775	52.98
249.992	34.22
250.21	46.07
250.428	25.62
250.646	25.04
250.863	26.02
251.081	30.5
251.299	26.83
251.517	59.5
251.734	45.5
251.952	12.8
252.17	23.53
252.387	11.96
252.605	-1.14
252.823	6.67
253.04	6.57
253.258	4.56
253.475	16.93
253.693	-11.28
253.911	1.49
254.128	27.76
254.346	28.83
254.563	20.44
254.781	40.02
254.998	25.99
255.216	-3.9
255.433	-10.68
255.651	-18.78
255.868	-40.31
256.086	-30.93
256.303	-27.43
256.521	-31.65
256.738	-89.24
256.956	-181.94
257.173	-34.32
257.39	29.54
257.608	-10.53
257.825	18.79
258.043	25.47
258.26	23.83
258.477	12.43
258.695	32.42
258.912	35.83
259.129	37.81
259.346	37.56
259.564	32.73
259.781	40.92
259.998	48.12
260.216	55.02
260.433	50.75
260.65	40.54
260.867	11.48
261.084	25.91
261.302	12.2
261.519	38.83
261.736	41.55
261.953	38.93
262.17	33.36
262.387	93.5
262.604	72.98
262.822	99.57
263.039	119.04
263.256	129.78
263.473	55.53
263.69	84.96
263.907	67.67
264.124	46.82
264.341	22.98
264.558	27.51
264.775	-3.86
264.992	7.13
265.209	21.72
265.426	9.26
265.643	-2.71
265.86	-2.85
266.077	-8.63
266.294	-11.09
266.51	-18.3
266.727	5.35
266.944	19.41
267.161	-2.74
267.378	3.56
267.595	25.26
267.812	-0.16
268.028	-13.17
268.245	6.83
268.462	3.46
268.679	-17.13
268.896	4.79
269.112	0.07
269.329	13.17
269.546	23.28
269.763	30.7
269.979	29.37
270.196	37.77
270.413	25.98
270.629	20.13
270.846	11.82
271.063	11.29
271.279	-24.66
271.496	-80.63
271.712	-140.23
271.929	-128.74
272.146	-108.88
272.362	-98.63
272.579	-40.84
272.795	-11.09
273.012	-9.06
273.228	-4.91
273.445	4.09
273.661	20
273.878	18.13
274.094	11.58
274.311	3.76
274.527	-11.72
274.744	-44.25
274.96	-46.34
275.177	-26.17
275.393	-31.5
275.609	-0.37
275.826	3.73
276.042	13.14
276.259	4.16
276.475	7.92
276.691	-1.41
276.908	6.4
277.124	15.9
277.34	22.97
277.557	-1.56
277.773	-0.93
277.989	2.2
278.205	-12.16
278.422	-43.24
278.638	21.97
278.854	38.24
279.07	29.25
279.286	23.62
279.503	45.4
279.719	17.73
279.935	25.64
280.151	36.89
280.367	52.73
280.583	34.83
280.799	45.86
281.016	2.68
281.232	-4.57
281.448	-43.04
281.664	-13.5
281.88	-19.22
282.096	19.68
282.312	38.39
282.528	52.06
282.744	28.26
282.96	17.94
283.176	30.61
283.392	8.58
283.608	10.72
283.824	12.5
284.04	27.27
284.256	14.28
284.471	12.42
284.687	28.19
284.903	26.26
285.119	17.15
285.335	18.27
285.551	20.22
285.767	-5.85
285.982	-17.44
286.198	-52.48
286.414	-67.81
286.63	-38.55
286.846	-24.22
287.061	-13.08
287.277	3.37
287.493	15.1
287.709	10.1
287.924	28.07
288.14	32.23
288.356	36.87
288.571	41.37
288.787	39.7
289.003	44.4
289.218	36.42
289.434	-2.62
289.65	-25.94
289.865	-3.68
290.081	-15.25
290.296	-5.96
290.512	0.06
290.727	18.58
290.943	7.44
291.159	7.17
291.374	19.7
291.59	21.64
291.805	-0.29
292.021	8.4
292.236	6.07
292.451	-24.8
292.667	-50.94
292.882	-36.14
293.098	-39.9
293.313	-21.04
293.529	-6.75
293.744	4.13
293.959	14.25
294.175	41.21
294.39	29.26
294.605	22.42
294.821	27.09
295.036	8.1
295.251	11.2
295.467	30.38
295.682	25.35
295.897	30.97
296.112	40.69
296.328	37.57
296.543	24.17
296.758	12.88
296.973	15.73
297.188	39.5
297.404	30.04
297.619	24.4
297.834	18.02
298.049	-19.6
298.264	-70.23
298.479	-89.65
298.694	-68.48
298.909	0.94
299.125	27.37
299.34	37.15
299.555	47.5
299.77	40.25
299.985	27.56
300.2	27.33
300.415	25.04
300.63	6.33
300.845	-6.44
301.06	-14.29
301.275	-14.97
301.49	-10.43
301.704	-51.75
301.919	-13.89
302.134	-6.71
302.349	-26.61
302.564	-14.79
302.779	15.95
302.994	19.96
303.209	28.33
303.423	38.77
303.638	15
303.853	-9.72
304.068	-3.77
304.283	-3.63
304.497	3.5
304.712	12.37
304.927	11.62
305.142	19.57
305.356	12.4
305.571	22.32
305.786	31.67
306	33.88
306.215	39.78
306.43	45.58
306.644	48.58
306.859	41.64
307.074	46.49
307.288	38.84
307.503	43.18
307.717	31.24
307.932	17.89
308.147	21.02
308.361	30.47
308.576	8.13
308.79	-5.09
309.005	13.22
309.219	0.86
309.434	-58.41
309.648	-119.67
309.863	-124.89
310.077	-198.89
310.292	-173.88
310.506	-102.44
310.72	-39.24
310.935	-10.85
311.149	17.35
311.364	25.05
311.578	26.32
311.792	49.8
312.007	37.39
312.221	23.5
312.435	43.98
312.649	45.95
312.864	33.44
313.078	34.67
313.292	60.03
313.507	50.49
313.721	43.8
313.935	41.14
314.149	35.74
314.363	22.22
314.578	31.67
314.792	14.83
315.006	1.57
315.22	-2.57
315.434	-31.76
315.648	-121.28
315.862	-112.51
316.077	-71.85
316.291	-83.89
316.505	-10.55
316.719	22.08
316.933	17.25
317.147	5.1
317.361	11.86
317.575	-3.03
317.789	-4.58
318.003	20.74
318.217	57.21
318.431	70.31
318.645	70.84
318.859	57.43
319.073	30.94
319.287	20.01
319.5	38.6
319.714	11.38
319.928	20.25
320.142	29.18
320.356	16.05
320.57	3.87
320.784	13.15
320.997	-6.33
321.211	-0.63
321.425	-30.87
321.639	-40.32
321.853	-42.03
322.066	-19.43
322.28	-19.31
322.494	-1.68
322.707	3.33
322.921	5.38
323.135	3.21
323.349	15.15
323.562	25.53
323.776	26.84
323.989	5.74
324.203	10.54
324.417	-7.14
324.63	-29.89
324.844	-54.31
325.057	-22.79
325.271	-37.1
325.485	-25.28
325.698	-2.06
325.912	23.22
326.125	21.05
326.339	32.98
326.552	34.16
326.766	17
326.979	21.97
327.193	31.88
327.406	27.07
327.619	38.77
327.833	16.38
328.046	5.16
328.26	-29.78
328.473	-45.17
328.686	-19.31
328.9	-0.43
329.113	8.27
329.326	3.7
329.54	8.95
329.753	7.43
329.966	25.88
330.179	26.44
330.393	45.88
330.606	61.81
330.819	45.01
331.032	29.11
331.246	44.86
331.459	19.91
331.672	-0.45
331.885	26.52
332.098	38.17
332.311	30.65
332.525	24.38
332.738	19.17
332.951	4.34
333.164	20
333.377	28.3
333.59	42.07
333.803	52.21
334.016	55.02
334.229	31.05
334.442	14.57
334.655	24.2
334.868	22.37
335.081	20.4
335.294	36.17
335.507	39.23
335.72	35.34
335.933	39.55
336.146	37.09
336.359	17
336.572	11.14
336.785	16.46
336.997	17.12
337.21	39.01
337.423	44.83
337.636	45.51
337.849	37.14
338.062	16.51
338.274	-27.49
338.487	-19.67
338.7	-9.09
338.913	-11.25
339.125	5.72
339.338	20.79
339.551	28.58
339.763	37.4
339.976	37.25
340.189	26.8
340.402	10.61
340.614	9.95
340.827	15.28
341.039	15.92
341.252	17.09
341.465	30.51
341.677	36.02
341.89	9.2
342.102	23.51
342.315	26.4
342.527	25.84
342.74	14.44
342.952	24.24
343.165	17.47
343.377	29.61
343.59	-2.86
343.802	16.49
344.015	3.94
344.227	0.05
344.44	2.85
344.652	30.24
344.864	27.87
345.077	44.99
345.289	37.7
345.502	31.66
345.714	16.6
345.926	29.42
346.139	21.31
346.351	24.84
346.563	1.38
346.775	-9.89
346.988	-70.47
347.2	-72.57
347.412	-106.2
347.624	-20.95
347.837	25.05
348.049	51.73
348.261	53.36
348.473	59.93
348.685	52.16
348.897	37.87
349.11	33.37
349.322	11.19
349.534	-20.53
349.746	-15.4
349.958	-1.24
350.17	16.62
350.382	29.58
350.594	50.33
350.806	37.09
351.018	45.15
351.23	42.14
351.442	29.15
351.654	17.86
351.866	20.87
352.078	1.74
352.29	-13.06
352.502	2.83
352.714	4.4
352.926	19.8
353.138	25.48
353.35	27.23
353.561	27.79
353.773	27.89
353.985	28.47
354.197	35.87
354.409	40.86
354.621	48.61
354.832	63.24
355.044	60.48
355.256	56.38
355.468	56.62
355.679	53.86
355.891	44.63
356.103	36.28
356.314	35.22
356.526	25.53
356.738	12.31
356.949	-7.78
357.161	12.29
357.373	1.05
357.584	7.47
357.796	30.17
358.008	43.56
358.219	23.07
358.431	20.18
358.642	15.35
358.854	20.26
359.065	26.64
359.277	39.32
359.488	36.24
359.7	44.24
359.911	35.21
360.123	34.51
360.334	34.66
360.546	35.61
360.757	30.57
360.969	36.49
361.18	34.9
361.391	17.29
361.603	39.68
361.814	35.06
362.025	40.13
362.237	38.11
362.448	39.88
362.659	36.72
362.871	27.24
363.082	20.1
363.293	8.67
363.504	10.4
363.716	-11.97
363.927	14.26
364.138	7.56
364.349	17.07
364.56	20.83
364.772	43.56
364.983	62.89
365.194	78.59
365.405	67.65
365.616	60.49
365.827	63.11
366.038	57.35
366.25	45.55
366.461	40.99
366.672	39.06
366.883	33.14
367.094	28.51
367.305	20.88
367.516	33.58
367.727	27.25
367.938	15.01
368.149	12.38
368.36	9.86
368.571	-13.41
368.781	-17.28
368.992	-26.72
369.203	-12.43
369.414	-1.42
369.625	-0.12
369.836	0.77
370.047	15.67
370.258	12.4
370.468	11.78
370.679	25.71
370.89	31.73
371.101	21.24
371.312	21.6
371.522	21.19
371.733	4.38
371.944	3.14
372.155	21.33
372.365	16.21
372.576	21.12
372.787	24.43
372.997	33.57
373.208	26.12
373.419	41.7
373.629	41.69
373.84	54.69
374.05	41.68
374.261	47.35
374.472	48.39
374.682	48.3
374.893	44.66
375.103	38.43
375.314	33.21
375.524	24.44
375.735	23.82
375.945	20.33
376.156	26.02
376.366	33.01
376.577	38.44
376.787	41.49
376.997	39.3
377.208	39.35
377.418	34.16
377.629	30.13
377.839	32.4
378.049	26.24
378.26	16.5
378.47	24.23
378.68	33.01
378.89	20.28
379.101	15.18
379.311	21.12
379.521	9.78
379.732	4.72
379.942	11.92
380.152	28.99
380.362	26.24
380.572	31.22
380.783	18.19
380.993	22.73
381.203	13.96
381.413	14.59
381.623	19.85
381.833	28.02
382.043	21.94
382.253	29.14
382.463	35.48
382.674	34.41
382.884	31.62
383.094	31.73
383.304	21.48
383.514	11.79
383.724	-1.38
383.934	5.73
384.144	8.81
384.353	15.91
384.563	25.8
384.773	35.04
384.983	22.45
385.193	21.01
385.403	19.92
385.613	12.83
385.823	1.79
386.033	6.12
386.242	5.22
386.452	6.53
386.662	9.26
386.872	14.13
387.082	19.24
387.291	12.85
387.501	12.75
387.711	14.51
387.921	14.27
388.13	9.47
388.34	14.01
388.55	13.16
388.759	6.56
388.969	2.3
389.179	2.69
389.388	3.75
389.598	6.57
389.807	12.34
390.017	15.54
390.227	18.19
390.436	17.56
390.646	14.24
390.855	11.12
391.065	10.77
391.274	11.3
391.484	12.28
391.693	12.44
391.903	13.89
392.112	14.56
392.322	13.66
392.531	14.11
392.74	13.52
392.95	11.97
393.159	10.62
393.369	9.34
393.578	8.48
393.787	10.04
393.997	11.03
394.206	11.13
394.415	12.72
394.625	14.54
394.834	14.06
395.043	13.35
395.252	14.22
395.462	13.68
395.671	12.23
395.88	12.82
396.089	13.53
396.298	13.31
396.508	12.9
396.717	13.04
396.926	12.33
397.135	11.81
397.344	11.74
397.553	12.57
397.762	13.02
397.971	12.91
398.181	12.75
398.39	12.81
398.599	12.42
398.808	11.75
399.017	12.09
399.226	12.18
399.435	12.15
399.644	12.28
399.853	12.35
400.062	12.03
400.27	12.08
400.479	11.89
400.688	11.84
400.897	12.15
401.106	12.06
401.315	12.03
401.524	12.11
401.733	12.05
401.941	11.94
402.15	11.84
402.359	11.76
402.568	11.75
402.777	11.82
402.985	11.5
403.194	11.58
403.403	11.63
403.612	11.64
403.82	11.54
404.029	11.55
404.238	11.6
404.446	11.51
404.655	11.53
404.864	11.55
405.072	11.47
405.281	11.28
405.489	11.48
405.698	11.61
405.906	11.51
406.115	11.46
406.324	11.76
406.532	11.45
406.741	11.25
406.949	11.06
407.158	11.33
407.366	11.24
407.574	11.37
407.783	11.33
407.991	11.49
408.2	11.38
408.408	11.23
408.617	11.33
408.825	11.27
409.033	11.25
409.242	11.22
409.45	11.16
409.658	10.95
409.867	11.06
410.075	11.12
410.283	11.1
410.491	11.1
410.7	11.37
410.908	11.32
411.116	11.29
411.324	11.27
411.533	11.21
411.741	10.93
411.949	10.88
412.157	10.79
412.365	10.96
412.573	11.02
412.781	11.1
412.99	11.31
413.198	11.41
413.406	11.29
413.614	11.31
413.822	11.31
414.03	11.15
414.238	11.07
414.446	11.06
414.654	11.07
414.862	10.96
415.07	10.9
415.278	10.92
415.486	10.76
415.694	10.68
415.902	10.58
416.109	10.42
416.317	10.42
416.525	10.46
416.733	10.57
416.941	10.72
417.149	10.85
417.357	10.74
417.564	10.6
417.772	10.36
417.98	10.32
418.188	10.17
418.395	10.2
418.603	10.42
418.811	10.58
419.019	10.72
419.226	10.83
419.434	10.84
419.642	10.83
419.849	10.73
420.057	10.66
420.265	10.57
420.472	10.47
420.68	10.37
420.887	10.39
421.095	10.26
421.302	10.08
421.51	10.08
421.717	10.05
421.925	10.04
422.132	10.14
422.34	10.28
422.547	10.3
422.755	10.41
422.962	10.45
423.17	10.39
423.377	10.48
423.585	10.47
423.792	10.28
423.999	10.28
424.207	10.2
424.414	9.94
424.621	9.9
424.829	9.94
425.036	9.94
425.243	10.07
425.451	10.33
425.658	10.36
425.865	10.31
426.072	10.18
426.28	9.84
426.487	9.73
426.694	9.69
426.901	9.75
427.108	9.84
427.315	10
427.523	10.01
427.73	9.92
427.937	9.93
428.144	9.9
428.351	10.01
428.558	10.07
428.765	9.95
428.972	9.88
429.179	9.79
429.386	9.63
429.593	9.74
429.8	9.81
430.007	9.69
430.214	9.81
430.421	9.85
430.628	9.83
430.835	9.97
431.042	10.02
431.249	9.95
431.456	9.93
431.662	10.12
431.869	10.11
432.076	10.22
432.283	10.33
432.49	10.32
432.697	10.1
432.903	9.98
433.11	9.86
433.317	9.7
433.524	9.88
433.73	9.82
433.937	9.88
434.144	9.88
434.35	9.94
434.557	9.77
434.764	9.66
434.97	9.53
435.177	9.74
435.384	9.57
435.59	9.48
435.797	9.71
436.003	9.69
436.21	9.38
436.416	9.43
436.623	9.55
436.829	9.44
437.036	9.41
437.242	9.47
437.449	9.57
437.655	9.57
437.862	9.61
438.068	9.81
438.275	10.03
438.481	9.96
438.687	9.96
438.894	10.06
439.1	9.95
439.307	9.87
439.513	9.8
439.719	9.71
439.926	9.68
440.132	9.78
440.338	9.84
440.544	10.01
440.751	10.16
440.957	10.11
441.163	10.06
441.369	9.95
441.575	9.91
441.782	9.91
441.988	9.8
442.194	9.71
442.4	9.83
442.606	9.76
442.812	9.7
443.018	9.65
443.224	9.64
443.431	9.6
443.637	9.61
443.843	9.54
444.049	9.62
444.255	9.7
444.461	9.64
444.667	9.63
444.873	9.64
445.079	9.59
445.284	9.63
445.49	9.67
445.696	9.79
445.902	9.85
446.108	9.71
446.314	9.59
446.52	9.65
446.726	9.59
446.931	9.52
447.137	9.65
447.343	9.75
447.549	9.75
447.755	9.82
447.96	9.77
448.166	9.8
448.372	9.7
448.578	9.64
448.783	9.73
448.989	9.83
449.195	9.94
449.4	10.07
449.606	10.13
449.812	10
450.017	10.05
450.223	9.95
450.428	9.91
450.634	9.8
450.84	9.82
451.045	9.76
451.251	9.8
451.456	9.8
451.662	9.84
451.867	9.86
452.073	9.96
452.278	9.94
452.483	9.98
452.689	9.98
452.894	10.03
453.1	10.02
453.305	10.05
453.51	9.95
453.716	10.01
453.921	9.97
454.127	9.93
454.332	9.84
454.537	10.07
454.742	10.01
454.948	9.89
455.153	9.87
455.358	9.91
455.563	9.79
455.769	9.7
455.974	9.81
456.179	9.8
456.384	9.76
456.589	9.74
456.795	9.76
457	9.8
457.205	9.79
457.41	9.92
457.615	9.93
457.82	9.94
458.025	9.84
458.23	9.85
458.435	9.86
458.64	9.83
458.845	10.03
459.05	10.04
459.255	10.06
459.46	10.1
459.665	10.14
459.87	10.03
460.075	10.19
460.28	10.22
460.485	10.09
460.69	10.09
460.895	10.05
461.099	10.04
461.304	10.03
461.509	10.15
461.714	10.3
461.919	10.31
462.123	10.24
462.328	10.26
462.533	10.22
462.738	10.21
462.942	10.33
463.147	10.42
463.352	10.49
