Data from Ofav_SP_Phys_2JQ31_Reflection_2.txt Node
Date: Thu Aug 05 17:46:18 EDT 2021
User: Adam
Spectrometer: FLMT01687
Trigger mode: 0
Integration Time (sec): 8.000000E-1
Scans to average: 2
Electric dark correction enabled: true
Nonlinearity correction enabled: false
Boxcar width: 2
XAxis mode: Wavelengths
Number of Pixels in Spectrum: 3648
>>>>>Begin Spectral Data<<<<<
179.494	461.56
179.716	525.53
179.937	415.76
180.158	458.4
180.38	1163.84
180.601	-499.8
180.823	-5.71
181.044	-44.02
181.265	-40.48
181.486	-58.94
181.708	-291.28
181.929	-124.76
182.15	-211.43
182.372	-20.58
182.593	-36.18
182.814	52.59
183.035	5.29
183.257	-69.04
183.478	-458.98
183.699	696.05
183.92	194.7
184.141	-1091.48
184.363	1918.92
184.584	-169.32
184.805	-17.19
185.026	12.04
185.247	18.58
185.468	65.82
185.689	62.12
185.91	70.5
186.132	42.01
186.353	9.23
186.574	-107.67
186.795	-96.95
187.016	-92.25
187.237	-26.47
187.458	-194.84
187.679	-52.58
187.9	-44.45
188.121	-89.3
188.342	-62.79
188.563	8.21
188.784	37.32
189.005	-49.7
189.226	15.21
189.447	-2.09
189.667	34.68
189.888	16.77
190.109	162.48
190.33	122.42
190.551	67.59
190.772	29.59
190.993	33.24
191.214	19.34
191.434	11.77
191.655	15.49
191.876	25.63
192.097	12.81
192.318	4.69
192.538	-117.48
192.759	-41.11
192.98	-49.72
193.201	-261.94
193.421	-90.94
193.642	34.15
193.863	2.32
194.083	6.25
194.304	19.96
194.525	-10.19
194.745	-27.14
194.966	-30.63
195.187	-42.12
195.407	-72.74
195.628	-82.81
195.848	-51.2
196.069	-21.24
196.29	-29.56
196.51	-7.72
196.731	5.54
196.951	19.19
197.172	28.41
197.392	62.22
197.613	72.94
197.833	118.72
198.054	129.69
198.274	97.21
198.495	57.7
198.715	35.47
198.936	-6.83
199.156	12.49
199.377	20.92
199.597	35.84
199.817	34.07
200.038	23.55
200.258	18.01
200.479	16.75
200.699	1.91
200.919	-4.98
201.14	-21.27
201.36	-48.91
201.58	-55.16
201.801	-152.19
202.021	-100.11
202.241	-44.27
202.461	-33.97
202.682	-36.28
202.902	-83.48
203.122	-277.6
203.342	-95.67
203.563	-50.63
203.783	-50.62
204.003	47.14
204.223	41.43
204.443	-2.52
204.663	-14.3
204.884	8.81
205.104	-22.74
205.324	-3.34
205.544	10.41
205.764	12.68
205.984	-15.14
206.204	-5.54
206.424	11.32
206.644	2.6
206.864	-4.15
207.084	-22.67
207.304	16.36
207.525	0.08
207.745	36.12
207.964	39.58
208.184	59.38
208.404	12.94
208.624	-18.11
208.844	-31.64
209.064	-31.68
209.284	-5.34
209.504	-16.69
209.724	11.28
209.944	-21.92
210.164	-31.24
210.384	-9.11
210.604	15.07
210.823	20.72
211.043	28.34
211.263	34.34
211.483	33.01
211.703	40.03
211.922	19.48
212.142	41.05
212.362	38.07
212.582	46.06
212.801	19.72
213.021	35.84
213.241	11.11
213.461	-9.54
213.68	-26.26
213.9	-50.56
214.12	-93.24
214.339	-78.13
214.559	-34.39
214.779	-28.86
214.998	1.4
215.218	11.06
215.438	33.32
215.657	72.27
215.877	110.02
216.096	64.33
216.316	92.27
216.535	41.42
216.755	-26.67
216.974	-157.53
217.194	55.21
217.413	49.04
217.633	66.04
217.852	71.22
218.072	59.96
218.291	25.06
218.511	33.49
218.73	-7.84
218.95	-39.68
219.169	-61.74
219.389	11.43
219.608	-27.25
219.827	-6.85
220.047	6.59
220.266	33.33
220.485	7.16
220.705	1.44
220.924	-8.93
221.143	26.47
221.363	5.79
221.582	-10.45
221.801	-11.11
222.021	5.89
222.24	-17.98
222.459	-56.77
222.678	10.32
222.897	3.96
223.117	-8.92
223.336	-26.67
223.555	-23.12
223.774	-58.77
223.993	-56.73
224.213	-27.06
224.432	-67.29
224.651	-44.7
224.87	-38.4
225.089	-27.1
225.308	-69.6
225.527	-14.65
225.746	-23.39
225.965	-31.39
226.184	-28.93
226.404	-4.88
226.623	-25.87
226.842	9.92
227.061	35.32
227.28	47.09
227.499	59.63
227.718	72.09
227.936	53.63
228.155	49.54
228.374	37.69
228.593	22.37
228.812	35.31
229.031	50.25
229.25	28.63
229.469	30.32
229.688	25.62
229.907	-0.65
230.125	-36.36
230.344	-19.88
230.563	-13.16
230.782	-55.91
231.001	-52.33
231.22	36.75
231.438	19.88
231.657	4.06
231.876	-1.38
232.095	14.12
232.313	-12.32
232.532	-10.35
232.751	-13.13
232.969	19.9
233.188	27.85
233.407	2.99
233.625	25.69
233.844	6.29
234.063	-10.12
234.281	-10.67
234.5	34.16
234.719	50.14
234.937	43.58
235.156	18
235.374	10.51
235.593	-16.69
235.811	-45.28
236.03	-15.18
236.249	-2.2
236.467	-16.27
236.686	-17.4
236.904	15.48
237.123	-8.79
237.341	11.61
237.559	9.76
237.778	-17.1
237.996	-8.89
238.215	-20.42
238.433	-44.14
238.652	-44.62
238.87	-26.18
239.088	-53.44
239.307	-16.51
239.525	-9.45
239.743	0.24
239.962	4.41
240.18	49.76
240.398	9.42
240.617	-11.15
240.835	23.09
241.053	31.95
241.271	-3.05
241.49	15.56
241.708	-5.36
241.926	-17.18
242.144	-44.62
242.363	-49.12
242.581	-47.87
242.799	-51.42
243.017	-45.37
243.235	-52.75
243.453	-12.58
243.672	-5.96
243.89	-7.84
244.108	-4.47
244.326	-10.14
244.544	-15.84
244.762	-7.67
244.98	31.16
245.198	13.28
245.416	41.19
245.634	27.04
245.852	21.65
246.07	17.85
246.288	4.66
246.506	-14.54
246.724	21.81
246.942	6.82
247.16	-12.66
247.378	-44.17
247.596	-34.7
247.814	-28.8
248.032	-25.05
248.25	-49.06
248.468	-19.9
248.685	-6.45
248.903	-19.94
249.121	-22.48
249.339	17
249.557	21.97
249.775	25.95
249.992	22.04
250.21	27.18
250.428	13.49
250.646	7.78
250.863	20.18
251.081	43.91
251.299	32.76
251.517	32.51
251.734	29.46
251.952	-12.06
252.17	-14.57
252.387	-24.24
252.605	-15.38
252.823	0.04
253.04	13.81
253.258	12.74
253.475	31.17
253.693	32.84
253.911	49.67
254.128	41.41
254.346	44.94
254.563	49.22
254.781	50.44
254.998	34.8
255.216	42.57
255.433	37.95
255.651	-21.85
255.868	-33.16
256.086	-28.66
256.303	-38.17
256.521	-46.6
256.738	-50.45
256.956	-107.42
257.173	-7.77
257.39	77.79
257.608	48.87
257.825	45.75
258.043	26.55
258.26	17.15
258.477	-8.78
258.695	4.85
258.912	9.59
259.129	18.4
259.346	28.16
259.564	23
259.781	23.21
259.998	15.99
260.216	32.24
260.433	20.27
260.65	4.72
260.867	-59.41
261.084	-42.72
261.302	-27.94
261.519	-27.52
261.736	19.64
261.953	41.7
262.17	35.54
262.387	47.86
262.604	57.28
262.822	39.23
263.039	31.01
263.256	58.26
263.473	19
263.69	45.24
263.907	42.07
264.124	28.19
264.341	33.4
264.558	47.89
264.775	16.31
264.992	22.1
265.209	10.52
265.426	5.69
265.643	0.03
265.86	-12.4
266.077	-27.22
266.294	-16.47
266.51	-17.3
266.727	-9.86
266.944	40.68
267.161	13.9
267.378	9.49
267.595	1.97
267.812	-9
268.028	-20.22
268.245	10.7
268.462	7.93
268.679	4.47
268.896	17.76
269.112	-3.4
269.329	-6.63
269.546	6.35
269.763	8.96
269.979	14.77
270.196	31.3
270.413	26.44
270.629	48.36
270.846	39.98
271.063	14.31
271.279	-5.1
271.496	-18.28
271.712	-87.41
271.929	-45.64
272.146	-13.61
272.362	-39.25
272.579	-19.77
272.795	-14
273.012	-2.68
273.228	-4.96
273.445	14.75
273.661	17.18
273.878	3.25
274.094	-4.85
274.311	0.96
274.527	-13.82
274.744	-32.56
274.96	-12.57
275.177	-6.23
275.393	-30.74
275.609	-16.87
275.826	-5.35
276.042	13.32
276.259	13.48
276.475	14.06
276.691	15.35
276.908	23.46
277.124	28.83
277.34	26.91
277.557	26.63
277.773	16.22
277.989	8.77
278.205	4.16
278.422	1.4
278.638	31.39
278.854	47.62
279.07	44.48
279.286	35.86
279.503	41.78
279.719	31.73
279.935	57.09
280.151	47.1
280.367	33.24
280.583	36.19
280.799	48.28
281.016	36.63
281.232	29.69
281.448	8.75
281.664	-2.86
281.88	-40.09
282.096	4.55
282.312	44.42
282.528	71.73
282.744	72.61
282.96	62.88
283.176	53.24
283.392	33.74
283.608	35.05
283.824	25.3
284.04	38.16
284.256	22.81
284.471	6.97
284.687	13.25
284.903	20.99
285.119	15.07
285.335	25.05
285.551	32.9
285.767	22.89
285.982	32.75
286.198	10.29
286.414	-36.04
286.63	-8.5
286.846	-9.11
287.061	-14.68
287.277	-0.34
287.493	30.57
287.709	8.32
287.924	19.27
288.14	36.08
288.356	51.51
288.571	43.61
288.787	52.46
289.003	83.9
289.218	84.27
289.434	79.95
289.65	29.87
289.865	33.13
290.081	19.64
290.296	16.73
290.512	-7.91
290.727	7.75
290.943	-6.23
291.159	-12.19
291.374	-4.79
291.59	-9.56
291.805	-0.67
292.021	31.37
292.236	19.2
292.451	10.29
292.667	13.61
292.882	-23.99
293.098	-53.46
293.313	-31.92
293.529	-8.68
293.744	14.02
293.959	6.55
294.175	28.45
294.39	20.69
294.605	0.03
294.821	-7.17
295.036	12.6
295.251	11.17
295.467	28.41
295.682	24.9
295.897	30.94
296.112	29.26
296.328	19.17
296.543	20.23
296.758	15.28
296.973	7.31
297.188	8.91
297.404	11.35
297.619	-8.04
297.834	-0.92
298.049	-17.29
298.264	-41.56
298.479	-38.12
298.694	-1.31
298.909	-3.91
299.125	19.6
299.34	19.11
299.555	24.06
299.77	27.74
299.985	38.52
300.2	34.53
300.415	38.21
300.63	15.71
300.845	-0.83
301.06	2.82
301.275	-0.65
301.49	-14.72
301.704	-38.74
301.919	4.23
302.134	2.29
302.349	-4.72
302.564	0.58
302.779	20.46
302.994	5.3
303.209	18.42
303.423	8.77
303.638	17.7
303.853	-4.44
304.068	4.78
304.283	-8
304.497	20.09
304.712	6.84
304.927	10.73
305.142	12.66
305.356	20.39
305.571	21.17
305.786	35.8
306	43.17
306.215	49.47
306.43	66.8
306.644	56.3
306.859	55.76
307.074	72.98
307.288	51.72
307.503	39.66
307.717	26.44
307.932	13.01
308.147	1.95
308.361	26.89
308.576	10.48
308.79	12.45
309.005	34.47
309.219	6.15
309.434	-17.74
309.648	-27.82
309.863	-69.11
310.077	-120.06
310.292	-60.43
310.506	-70.82
310.72	-34.31
310.935	-5.42
311.149	-11.88
311.364	-2
311.578	27.78
311.792	46.2
312.007	37.8
312.221	37.76
312.435	51.91
312.649	36.65
312.864	4.24
313.078	11.04
313.292	39.22
313.507	20.09
313.721	28.2
313.935	30.54
314.149	39.78
314.363	15.45
314.578	24.37
314.792	30.84
315.006	40.58
315.22	3.42
315.434	-10.13
315.648	-17.93
315.862	-75.83
316.077	-61.08
316.291	-70.68
316.505	-22.88
316.719	-10.11
316.933	-5.27
317.147	4.17
317.361	22.61
317.575	13.48
317.789	-2.84
318.003	-23.14
318.217	-4.83
318.431	-4.69
318.645	8.21
318.859	-12.79
319.073	1.8
319.287	-35.33
319.5	-9.23
319.714	-20.22
319.928	3.95
320.142	13.85
320.356	23.39
320.57	-5.76
320.784	-16.33
320.997	-11.86
321.211	-7.48
321.425	-37.5
321.639	-26.22
321.853	-27.34
322.066	-27.89
322.28	-32.42
322.494	-23.14
322.707	-17.69
322.921	1.32
323.135	-6.45
323.349	-3.95
323.562	-4.6
323.776	8.22
323.989	-32.79
324.203	-10.64
324.417	-5.47
324.63	-15.9
324.844	-34.64
325.057	-10.92
325.271	-37.97
325.485	-30.86
325.698	-25.42
325.912	-13.31
326.125	5.28
326.339	43.87
326.552	32.82
326.766	28.33
326.979	29.31
327.193	25.74
327.406	5.4
327.619	36.35
327.833	21.84
328.046	31.84
328.26	29.32
328.473	-3.91
328.686	-21.71
328.9	-9.15
329.113	4.78
329.326	5.75
329.54	23.64
329.753	31.36
329.966	48.96
330.179	48.02
330.393	55.61
330.606	66.74
330.819	79.76
331.032	88.44
331.246	96.03
331.459	52.6
331.672	52.13
331.885	46.81
332.098	46.74
332.311	24.78
332.525	21.54
332.738	14.28
332.951	-3.89
333.164	4.54
333.377	12.74
333.59	23.35
333.803	14.17
334.016	2.24
334.229	-14.66
334.442	-12.39
334.655	2.97
334.868	23.55
335.081	32.07
335.294	45.49
335.507	55.66
335.72	57.71
335.933	42.92
336.146	34.63
336.359	16.84
336.572	1.01
336.785	-24.38
336.997	-1.47
337.21	32.4
337.423	51.41
337.636	53.32
337.849	69.28
338.062	18.78
338.274	-5.36
338.487	-22.92
338.7	-28.78
338.913	-37.87
339.125	-0.37
339.338	-1.04
339.551	0.68
339.763	12.15
339.976	20.45
340.189	17.18
340.402	7.06
340.614	17.5
340.827	35.92
341.039	32.06
341.252	31.49
341.465	35.32
341.677	27.17
341.89	4.43
342.102	10.03
342.315	-20.86
342.527	-15.51
342.74	-8.4
342.952	-9.31
343.165	-11.44
343.377	31.73
343.59	0.05
343.802	7.31
344.015	0.24
344.227	-7.27
344.44	-6.97
344.652	17.42
344.864	26.26
345.077	38.37
345.289	32.49
345.502	28.79
345.714	19.33
345.926	18.62
346.139	10.93
346.351	15.05
346.563	1.36
346.775	4.13
346.988	-33.4
347.2	-46.85
347.412	-91.51
347.624	-42.65
347.837	-33.68
348.049	-13.31
348.261	-1.19
348.473	34.46
348.685	41.71
348.897	58.68
349.11	72.06
349.322	55.51
349.534	24.19
349.746	9.73
349.958	-19.06
350.17	5.31
350.382	34.59
350.594	27.18
350.806	35.16
351.018	46.84
351.23	25.34
351.442	15.32
351.654	12.9
351.866	-5.81
352.078	-30.1
352.29	-34.06
352.502	-20.08
352.714	-30.68
352.926	-6.01
353.138	-0.4
353.35	9.46
353.561	0.02
353.773	6.81
353.985	5.53
354.197	21.78
354.409	3.27
354.621	-7.16
354.832	12.09
355.044	7.69
355.256	-6.76
355.468	8.37
355.679	19.38
355.891	19.73
356.103	19.7
356.314	31.15
356.526	25.51
356.738	29.88
356.949	-3.43
357.161	27.68
357.373	-2.13
357.584	15.92
357.796	7.11
358.008	28.57
358.219	-37.64
358.431	-11.43
358.642	-19.98
358.854	3.61
359.065	6.63
359.277	30.86
359.488	18.05
359.7	25.57
359.911	29.91
360.123	16.93
360.334	18.72
360.546	22.32
360.757	19.95
360.969	7.83
361.18	34.68
361.391	30.17
361.603	36.6
361.814	15.73
362.025	33.14
362.237	15.66
362.448	2.24
362.659	-1.18
362.871	-8.22
363.082	-25.26
363.293	-29.63
363.504	-34.62
363.716	-43.33
363.927	-1.41
364.138	10.97
364.349	18.21
364.56	35.72
364.772	54.03
364.983	49.97
365.194	35.13
365.405	37.63
365.616	35.76
365.827	27.1
366.038	39
366.25	41.4
366.461	23.84
366.672	25.17
366.883	27.94
367.094	17.52
367.305	17.98
367.516	38.38
367.727	35.85
367.938	28.57
368.149	21.01
368.36	15.21
368.571	-7.88
368.781	-26.22
368.992	-39.21
369.203	-13.42
369.414	-12.32
369.625	-15.75
369.836	-16.56
370.047	-6.43
370.258	-4.19
370.468	6.67
370.679	18.3
370.89	16.86
371.101	21.98
371.312	20.29
371.522	8.75
371.733	-3.07
371.944	3.71
372.155	6.08
372.365	3.2
372.576	13.9
372.787	16.49
372.997	25.29
373.208	24.29
373.419	41.33
373.629	39.93
373.84	44.86
374.05	34.27
374.261	29.75
374.472	24.97
374.682	15.64
374.893	17.95
375.103	10.97
375.314	8.17
375.524	3.51
375.735	7.47
375.945	13.34
376.156	23.94
376.366	31.29
376.577	34.71
376.787	28.64
376.997	23.13
377.208	18.01
377.418	20.19
377.629	27.56
377.839	40.06
378.049	46.12
378.26	43.51
378.47	36.12
378.68	34.01
378.89	16.65
379.101	6.71
379.311	5.75
379.521	21.79
379.732	21.06
379.942	28.66
380.152	25.92
380.362	26.73
380.572	26.85
380.783	11.58
380.993	16.66
381.203	20.45
381.413	21.65
381.623	20.68
381.833	25.4
382.043	23.02
382.253	27.7
382.463	36.54
382.674	30.67
382.884	28.5
383.094	29.51
383.304	18.23
383.514	14.28
383.724	7.38
383.934	12.08
384.144	9.63
384.353	10.88
384.563	8.36
384.773	13.37
384.983	4.12
385.193	4.97
385.403	8.08
385.613	7.48
385.823	1.11
386.033	9.45
386.242	7.52
386.452	8.9
386.662	9.37
386.872	12.11
387.082	11.14
387.291	2.99
387.501	2
387.711	6.26
387.921	7.07
388.13	3.93
388.34	9.9
388.55	9.12
388.759	2.46
388.969	1.58
389.179	5.55
389.388	6.21
389.598	6.75
389.807	12.13
390.017	15.29
390.227	14.45
390.436	14.67
390.646	12.83
390.855	11.02
391.065	10.98
391.274	11.3
391.484	12.85
391.693	12.89
391.903	12.35
392.112	12.45
392.322	11.7
392.531	10.87
392.74	11.39
392.95	10.03
393.159	8.8
393.369	9.55
393.578	10.58
393.787	11.47
393.997	11.68
394.206	11.86
394.415	12.11
394.625	11.96
394.834	12.22
395.043	11.94
395.252	11.96
395.462	11.78
395.671	11.12
395.88	11.5
396.089	11.76
396.298	12.16
396.508	11.8
396.717	11.74
396.926	10.95
397.135	10.87
397.344	10.31
397.553	10.28
397.762	10.14
397.971	9.85
398.181	9.79
398.39	9.75
398.599	10.02
398.808	10.26
399.017	10.38
399.226	10.63
399.435	10.69
399.644	11.02
399.853	10.8
400.062	10.96
400.27	10.99
400.479	10.93
400.688	10.51
400.897	10.66
401.106	10.5
401.315	10.31
401.524	10.28
401.733	10.27
401.941	10.21
402.15	10.08
402.359	10.07
402.568	10.02
402.777	10.26
402.985	10.19
403.194	10.37
403.403	10.35
403.612	10.28
403.82	9.97
404.029	9.94
404.238	9.84
404.446	9.92
404.655	10.2
404.864	10.22
405.072	10.15
405.281	10.18
405.489	10.22
405.698	10.17
405.906	10.24
406.115	10.03
406.324	10.02
406.532	9.88
406.741	9.72
406.949	9.46
407.158	9.74
407.366	9.73
407.574	9.78
407.783	9.77
407.991	9.86
408.2	9.75
408.408	9.67
408.617	9.6
408.825	9.68
409.033	9.68
409.242	9.64
409.45	9.57
409.658	9.44
409.867	9.39
410.075	9.37
410.283	9.44
410.491	9.52
410.7	9.6
410.908	9.55
411.116	9.5
411.324	9.39
411.533	9.21
411.741	9.18
411.949	9.15
412.157	9.18
412.365	9.41
412.573	9.55
412.781	9.54
412.99	9.58
413.198	9.77
413.406	9.61
413.614	9.5
413.822	9.55
414.03	9.62
414.238	9.37
414.446	9.36
414.654	9.47
414.862	9.14
415.07	8.94
415.278	8.94
415.486	8.83
415.694	8.71
415.902	8.83
416.109	8.84
416.317	8.91
416.525	9.03
416.733	9.04
416.941	9.28
417.149	9.29
417.357	9.21
417.564	9.01
417.772	9.05
417.98	8.89
418.188	8.81
418.395	8.76
418.603	8.89
418.811	8.81
419.019	8.85
419.226	8.85
419.434	9
419.642	8.87
419.849	8.91
420.057	8.69
420.265	8.73
420.472	8.44
420.68	8.38
420.887	8.23
421.095	8.45
421.302	8.43
421.51	8.52
421.717	8.63
421.925	8.67
422.132	8.75
422.34	8.74
422.547	8.84
422.755	8.74
422.962	8.93
423.17	8.88
423.377	8.88
423.585	8.86
423.792	9.03
423.999	8.73
424.207	8.52
424.414	8.37
424.621	8.45
424.829	8.44
425.036	8.72
425.243	8.74
425.451	9.01
425.658	8.92
425.865	8.8
426.072	8.65
426.28	8.68
426.487	8.43
426.694	8.39
426.901	8.32
427.108	8.19
427.315	8.25
427.523	8.33
427.73	8.35
427.937	8.6
428.144	8.77
428.351	8.99
428.558	9
428.765	8.89
428.972	8.77
429.179	8.83
429.386	8.6
429.593	8.79
429.8	8.94
430.007	8.97
430.214	8.84
430.421	8.97
430.628	8.77
430.835	8.8
431.042	8.73
431.249	8.79
431.456	8.73
431.662	8.98
431.869	8.95
432.076	9.03
432.283	9.16
432.49	9.16
432.697	9.01
432.903	8.94
433.11	8.83
433.317	8.72
433.524	8.82
433.73	8.93
433.937	8.93
434.144	8.99
434.35	8.89
434.557	8.81
434.764	8.64
434.97	8.62
435.177	8.63
435.384	8.72
435.59	8.62
435.797	8.76
436.003	8.8
436.21	8.72
436.416	8.66
436.623	8.67
436.829	8.56
437.036	8.46
437.242	8.39
437.449	8.52
437.655	8.57
437.862	8.82
438.068	9.13
438.275	9.43
438.481	9.49
438.687	9.45
438.894	9.31
439.1	9.09
439.307	8.9
439.513	8.79
439.719	8.88
439.926	8.88
440.132	9.02
440.338	9.19
440.544	9.21
440.751	9.29
440.957	9.2
441.163	9.15
441.369	9.06
441.575	8.99
441.782	8.94
441.988	8.92
442.194	8.81
442.4	8.83
442.606	8.92
442.812	8.83
443.018	8.76
443.224	8.84
443.431	8.72
443.637	8.62
443.843	8.61
444.049	8.78
444.255	8.8
444.461	8.89
444.667	8.93
444.873	8.91
445.079	8.81
445.284	8.87
445.49	8.96
445.696	9.04
445.902	9.16
446.108	9.23
446.314	9.19
446.52	9.14
446.726	9.22
446.931	9.19
447.137	9.25
447.343	9.28
447.549	9.33
447.755	9.33
447.96	9.4
448.166	9.35
448.372	9.31
448.578	9.3
448.783	9.41
448.989	9.32
449.195	9.35
449.4	9.46
449.606	9.54
449.812	9.48
450.017	9.58
450.223	9.53
450.428	9.5
450.634	9.38
450.84	9.37
451.045	9.3
451.251	9.4
451.456	9.4
451.662	9.45
451.867	9.4
452.073	9.63
452.278	9.63
452.483	9.8
452.689	9.88
452.894	9.91
453.1	9.77
453.305	9.75
453.51	9.65
453.716	9.69
453.921	9.67
454.127	9.84
454.332	9.89
454.537	9.89
454.742	9.87
454.948	9.87
455.153	9.69
455.358	9.68
455.563	9.61
455.769	9.48
455.974	9.58
456.179	9.71
456.384	9.59
456.589	9.72
456.795	9.9
457	9.89
457.205	9.86
457.41	10.01
457.615	9.97
457.82	9.9
458.025	9.81
458.23	9.75
458.435	9.71
458.64	9.64
458.845	9.7
459.05	9.81
459.255	9.9
459.46	9.94
459.665	10.06
459.87	10.11
460.075	10.11
460.28	10.19
460.485	10.31
460.69	10.33
460.895	10.18
461.099	10.21
461.304	10.17
461.509	10.08
461.714	10.02
461.919	10.08
462.123	10.06
462.328	10.01
462.533	10.13
462.738	10.3
462.942	10.41
463.147	10.46
463.352	10.57
463.556	10.54
463.761	10.51
463.966	10.49
464.17	10.53
464.375	10.56
464.58	10.56
