Data from Ofav_SP_Phys_9AZ10_Reflection_1.txt Node
Date: Thu Aug 05 17:49:24 EDT 2021
User: Adam
Spectrometer: FLMT01687
Trigger mode: 0
Integration Time (sec): 8.000000E-1
Scans to average: 2
Electric dark correction enabled: true
Nonlinearity correction enabled: false
Boxcar width: 2
XAxis mode: Wavelengths
Number of Pixels in Spectrum: 3648
>>>>>Begin Spectral Data<<<<<
179.494	515.14
179.716	600
179.937	507.09
180.158	607.28
180.38	1771.17
180.601	-918.2
180.823	-336.81
181.044	-159.55
181.265	-169.89
181.486	-44.39
181.708	0
181.929	-239.54
182.15	-871.84
182.372	-133.71
182.593	-87.68
182.814	-322.46
183.035	-71.1
183.257	239.15
183.478	-150.51
183.699	196.96
183.92	105.91
184.141	-898.65
184.363	525.41
184.584	12.11
184.805	27.08
185.026	31.53
185.247	55.29
185.468	49.39
185.689	50.55
185.91	34.19
186.132	-24.54
186.353	-27.45
186.574	-170.68
186.795	-206.32
187.016	-162.23
187.237	-103.22
187.458	-487.74
187.679	-79.25
187.9	-32.35
188.121	-50.45
188.342	-11.21
188.563	34.57
188.784	29.54
189.005	-67.07
189.226	-7.12
189.447	-16.84
189.667	-73.2
189.888	-136.67
190.109	-1.44
190.33	12.86
190.551	63.88
190.772	64.65
190.993	43.41
191.214	47.29
191.434	34.4
191.655	-3.02
191.876	11.1
192.097	14.97
192.318	13.16
192.538	-47.65
192.759	25.61
192.98	-31.82
193.201	-253.55
193.421	-198.79
193.642	-26.56
193.863	-68.29
194.083	-8.99
194.304	-3.05
194.525	-2.56
194.745	-14.11
194.966	10.3
195.187	4.95
195.407	44.43
195.628	25.39
195.848	50.92
196.069	56.23
196.29	62.88
196.51	57.02
196.731	53.17
196.951	52.18
197.172	53.97
197.392	53.74
197.613	31.62
197.833	47.28
198.054	31.42
198.274	-34.41
198.495	-37.68
198.715	1.79
198.936	-59.27
199.156	-5.87
199.377	13.92
199.597	15.96
199.817	-16.46
200.038	-10.77
200.258	0.83
200.479	-1.06
200.699	-9.57
200.919	-6.45
201.14	-44.52
201.36	-112.67
201.58	-93.3
201.801	-160.62
202.021	-131.52
202.241	-22.58
202.461	-6.32
202.682	-60.87
202.902	-64.5
203.122	78.1
203.342	135.13
203.563	78.51
203.783	136.05
204.003	57.81
204.223	4.66
204.443	-17.4
204.663	-34.43
204.884	-22.94
205.104	-29.09
205.324	22.54
205.544	5.41
205.764	30.31
205.984	14.57
206.204	22.8
206.424	-8.69
206.644	4.15
206.864	-28.75
207.084	-61.44
207.304	-27.61
207.525	-98.2
207.745	-79.22
207.964	-51.06
208.184	14.38
208.404	-8.05
208.624	4.82
208.844	4.53
209.064	-6.71
209.284	-14.41
209.504	-23.15
209.724	1.56
209.944	-13.81
210.164	-33.73
210.384	-6.58
210.604	3.57
210.823	18.91
211.043	25.07
211.263	40.6
211.483	26.27
211.703	11.98
211.922	-8.93
212.142	24.53
212.362	-14.99
212.582	53.21
212.801	103.31
213.021	58.44
213.241	7.58
213.461	-19.19
213.68	-51.53
213.9	-73.16
214.12	-122.63
214.339	-58.08
214.559	-7.97
214.779	22.22
214.998	66.49
215.218	97.32
215.438	79.67
215.657	146.63
215.877	105.41
216.096	35.44
216.316	13.7
216.535	-4.86
216.755	-144.93
216.974	-397.46
217.194	-67.1
217.413	0.92
217.633	-6.92
217.852	25.89
218.072	28.25
218.291	19.51
218.511	5.24
218.73	-1.52
218.95	-32.85
219.169	-27.71
219.389	30.94
219.608	3.31
219.827	43.86
220.047	70.41
220.266	70.23
220.485	22.93
220.705	73.07
220.924	61.88
221.143	28.38
221.363	-9.89
221.582	9.1
221.801	-39.56
222.021	14.46
222.24	40.74
222.459	106.69
222.678	85.64
222.897	72.83
223.117	39.39
223.336	30.12
223.555	37.44
223.774	3.15
223.993	14.2
224.213	33.74
224.432	1.41
224.651	5.87
224.87	27.23
225.089	38.92
225.308	3.71
225.527	14.09
225.746	-21.46
225.965	-38.5
226.184	-79.71
226.404	-42.95
226.623	-72.59
226.842	-46.8
227.061	-18.82
227.28	-7.77
227.499	-25.69
227.718	-10.95
227.936	-25.26
228.155	-23.47
228.374	-24.12
228.593	-2.03
228.812	18.05
229.031	23.56
229.25	12.08
229.469	25.77
229.688	13.05
229.907	-2.54
230.125	-23.89
230.344	-11.07
230.563	-15.13
230.782	-0.49
231.001	24.77
231.22	65.3
231.438	49.06
231.657	59.16
231.876	21.62
232.095	11.68
232.313	-9.42
232.532	-8.36
232.751	-30.82
232.969	4.27
233.188	9.19
233.407	7.85
233.625	33.9
233.844	30.53
234.063	23.31
234.281	27.07
234.5	43.16
234.719	63.26
234.937	36.39
235.156	17.95
235.374	28.72
235.593	22.02
235.811	-5.64
236.03	10.63
236.249	3.13
236.467	-20.32
236.686	-55.67
236.904	-46.92
237.123	-57.49
237.341	10.75
237.559	-9.23
237.778	13.63
237.996	25.19
238.215	41.8
238.433	28.53
238.652	49.61
238.87	25.02
239.088	-0.2
239.307	1.53
239.525	-12.51
239.743	-20.71
239.962	7.96
240.18	36.42
240.398	33.91
240.617	9.67
240.835	21.93
241.053	8.86
241.271	-8.16
241.49	-1.13
241.708	-2.03
241.926	16.64
242.144	-17.87
242.363	-44.42
242.581	-42.57
242.799	-74.48
243.017	-91.43
243.235	-128.01
243.453	-55.76
243.672	-74.93
243.89	-49.54
244.108	-26.32
244.326	26.59
244.544	33.54
244.762	27.62
244.98	29.05
245.198	9.02
245.416	28.04
245.634	0.29
245.852	4.25
246.07	42.06
246.288	22.11
246.506	-24.63
246.724	31.01
246.942	36.94
247.16	-10.26
247.378	-10.42
247.596	-1.38
247.814	-27.82
248.032	-45.87
248.25	-65.74
248.468	-44.6
248.685	-27.96
248.903	-27.76
249.121	-20.86
249.339	12.01
249.557	11.62
249.775	19.16
249.992	1.41
250.21	13.88
250.428	11.9
250.646	5.81
250.863	-14.62
251.081	7.27
251.299	-3.41
251.517	-0.61
251.734	-16.77
251.952	-51.1
252.17	-32.27
252.387	-52.89
252.605	-48.95
252.823	5.91
253.04	31.38
253.258	20.72
253.475	51.52
253.693	49.62
253.911	44.77
254.128	29.09
254.346	40.76
254.563	16.68
254.781	25.89
254.998	-2.95
255.216	-26.19
255.433	-63.16
255.651	-116.86
255.868	-98.76
256.086	-69.88
256.303	-61.64
256.521	-80.86
256.738	-105.36
256.956	-211.91
257.173	-38.8
257.39	66.54
257.608	45.68
257.825	46.09
258.043	38.28
258.26	31.62
258.477	2.44
258.695	15.25
258.912	29.51
259.129	23.05
259.346	16.97
259.564	-0
259.781	18.68
259.998	10.22
260.216	27.19
260.433	26.37
260.65	40.46
260.867	-0
261.084	-13.58
261.302	-14.8
261.519	-8.06
261.736	8.46
261.953	8.2
262.17	8.28
262.387	41.87
262.604	47.23
262.822	66.08
263.039	97.73
263.256	113.7
263.473	49.78
263.69	38.1
263.907	19.06
264.124	-2.12
264.341	-11.57
264.558	-3.29
264.775	5.67
264.992	23.2
265.209	34.56
265.426	27.09
265.643	21.84
265.86	9.13
266.077	-10.77
266.294	-26.42
266.51	-0
266.727	6.16
266.944	28.99
267.161	21.38
267.378	11.71
267.595	-2.58
267.812	-19.02
268.028	-29.28
268.245	-12.7
268.462	-12.17
268.679	-22.14
268.896	-2.17
269.112	2.42
269.329	44.85
269.546	39.62
269.763	43.89
269.979	45.52
270.196	62.37
270.413	36.11
270.629	46.38
270.846	41.19
271.063	39.99
271.279	21.34
271.496	4.2
271.712	-69.18
271.929	-87.56
272.146	-61.15
272.362	-132.03
272.579	-50.58
272.795	-30.68
273.012	10.88
273.228	-1.39
273.445	26.53
273.661	20.62
273.878	20.51
274.094	-22.76
274.311	-21.17
274.527	-37.99
274.744	-50.88
274.96	-51.53
275.177	-18.35
275.393	-31.85
275.609	-22.91
275.826	-32.07
276.042	-23.47
276.259	-28.33
276.475	-8.6
276.691	1.14
276.908	4.72
277.124	29.08
277.34	32.18
277.557	7.11
277.773	7.33
277.989	16.84
278.205	11.91
278.422	8.06
278.638	39.99
278.854	45.06
279.07	36.42
279.286	-2.73
279.503	-5.63
279.719	3.89
279.935	33.16
280.151	54.28
280.367	73.65
280.583	62.93
280.799	53.9
281.016	33.05
281.232	18.72
281.448	-0
281.664	-17.5
281.88	-17.96
282.096	-9.31
282.312	1.85
282.528	14.59
282.744	20.86
282.96	16.22
283.176	19.98
283.392	14.55
283.608	26.66
283.824	25.86
284.04	40.57
284.256	48.06
284.471	48.53
284.687	45.11
284.903	40.4
285.119	33.88
285.335	-1.84
285.551	-5.3
285.767	-26.45
285.982	-61.94
286.198	-153.47
286.414	-88.13
286.63	-49.12
286.846	-18.31
287.061	-5.8
287.277	1.47
287.493	29.03
287.709	8.72
287.924	14.85
288.14	22.74
288.356	46.9
288.571	50.95
288.787	56.43
289.003	61.42
289.218	41.45
289.434	-21.24
289.65	-76.16
289.865	-57.17
290.081	-29.82
290.296	-20.21
290.512	-4.14
290.727	18.38
290.943	26.58
291.159	48.14
291.374	61.02
291.59	45.01
291.805	42.39
292.021	50.91
292.236	15.38
292.451	-24.12
292.667	-7.52
292.882	-15.79
293.098	-16
293.313	-12.41
293.529	8.71
293.744	10.1
293.959	9.39
294.175	21.63
294.39	22.64
294.605	9.84
294.821	20.62
295.036	2.06
295.251	19.36
295.467	20.11
295.682	17.4
295.897	15.53
296.112	23.77
296.328	3.06
296.543	6.51
296.758	-11.15
296.973	-10.14
297.188	21.18
297.404	22.64
297.619	9.8
297.834	4.73
298.049	-21.17
298.264	-62.8
298.479	-103.15
298.694	-72.36
298.909	-16.97
299.125	8.19
299.34	28.29
299.555	26.75
299.77	33.75
299.985	40.54
300.2	60.48
300.415	47.46
300.63	39.47
300.845	22.36
301.06	12.51
301.275	-13.45
301.49	-6.51
301.704	-4.96
301.919	22.11
302.134	30.01
302.349	44.46
302.564	35.74
302.779	39.57
302.994	45.07
303.209	48.59
303.423	25.18
303.638	19.13
303.853	11.71
304.068	4.75
304.283	1.84
304.497	-1.53
304.712	8.36
304.927	-1.97
305.142	14.81
305.356	0.27
305.571	22.69
305.786	21.5
306	35.69
306.215	29.43
306.43	46.76
306.644	43.97
306.859	29.5
307.074	20.93
307.288	22.56
307.503	19.81
307.717	-1.39
307.932	8.14
308.147	10.83
308.361	9.42
308.576	-13.38
308.79	-2.29
309.005	1.62
309.219	-30.4
309.434	-63.63
309.648	-75.81
309.863	-64.49
310.077	-123.24
310.292	-68.35
310.506	-51.87
310.72	-30.95
310.935	-42.97
311.149	-16.58
311.364	2.8
311.578	23.9
311.792	53.3
312.007	69.93
312.221	47.06
312.435	57.55
312.649	66.5
312.864	39.2
313.078	24.18
313.292	58.51
313.507	57.44
313.721	58.75
313.935	70.58
314.149	61.15
314.363	31.92
314.578	32.46
314.792	8.02
315.006	-21.26
315.22	-14.95
315.434	-22.48
315.648	-77.57
315.862	-76.52
316.077	-58.55
316.291	-11.4
316.505	6.14
316.719	23.45
316.933	23.75
317.147	36.36
317.361	28.23
317.575	16.13
317.789	16.61
318.003	9.9
318.217	34.99
318.431	38.1
318.645	46.65
318.859	25.15
319.073	13.89
319.287	-9.16
319.5	5.47
319.714	0.47
319.928	36.45
320.142	30.82
320.356	14.19
320.57	-4.03
320.784	-18.81
320.997	-52.48
321.211	3.05
321.425	-1.56
321.639	-35.68
321.853	-28.53
322.066	-12.18
322.28	-22.26
322.494	-26.16
322.707	-5.51
322.921	-1.95
323.135	-2.34
323.349	1.86
323.562	9.43
323.776	32.62
323.989	38.09
324.203	26.77
324.417	29.57
324.63	12.64
324.844	-12.02
325.057	-16.9
325.271	-31.15
325.485	-14.8
325.698	5.59
325.912	19.62
326.125	26.75
326.339	46.12
326.552	30.16
326.766	23.36
326.979	33.74
327.193	46.43
327.406	33.85
327.619	61.61
327.833	45.25
328.046	48.77
328.26	37.28
328.473	-15.53
328.686	-16.51
328.9	7.15
329.113	-5.61
329.326	-8.67
329.54	35.92
329.753	34.27
329.966	29.56
330.179	35.4
330.393	62.34
330.606	55.6
330.819	44.21
331.032	46.06
331.246	56.87
331.459	28.19
331.672	9.98
331.885	39.88
332.098	53.03
332.311	40.84
332.525	36.29
332.738	30.23
332.951	9.45
333.164	0.35
333.377	-0.71
333.59	-5.23
333.803	-4.17
334.016	-2.44
334.229	-8.51
334.442	-4.6
334.655	9.44
334.868	14.27
335.081	11.16
335.294	24.08
335.507	32.26
335.72	39.97
335.933	35.43
336.146	39.24
336.359	38.26
336.572	27.71
336.785	11.18
336.997	21.55
337.21	46.26
337.423	42.77
337.636	45.44
337.849	62.36
338.062	27.47
338.274	-29.01
338.487	-18.14
338.7	0.58
338.913	-19.88
339.125	12.31
339.338	20.73
339.551	2.36
339.763	14.1
339.976	41.93
340.189	44.74
340.402	50.48
340.614	48.65
340.827	47.7
341.039	27.33
341.252	21.49
341.465	29.75
341.677	34.8
341.89	16.88
342.102	24.11
342.315	5.64
342.527	3.62
342.74	-1.37
342.952	0.91
343.165	-0.88
343.377	13.68
343.59	-45.32
343.802	-44.77
344.015	-43.21
344.227	-39.96
344.44	-18.33
344.652	18.56
344.864	32.85
345.077	31.36
345.289	24.16
345.502	6.59
345.714	-3.24
345.926	-2.51
346.139	9.13
346.351	8.26
346.563	5.48
346.775	3.95
346.988	-21.3
347.2	-3.89
347.412	6.17
347.624	4.81
347.837	1.33
348.049	5.17
348.261	-19.12
348.473	3.56
348.685	34.5
348.897	39.26
349.11	63.56
349.322	56.32
349.534	40.97
349.746	14.66
349.958	5.05
350.17	10.37
350.382	30.24
350.594	24.39
350.806	26.21
351.018	38.11
351.23	25.98
351.442	20.17
351.654	15.65
351.866	9.92
352.078	-11.99
352.29	-17.14
352.502	-2.94
352.714	-12.83
352.926	5.77
353.138	6.32
353.35	22.53
353.561	9.48
353.773	6.92
353.985	13.01
354.197	36.71
354.409	22.83
354.621	16.47
354.832	43.38
355.044	16.51
355.256	15.94
355.468	10.17
355.679	16.68
355.891	18.03
356.103	20.95
356.314	10.89
356.526	10.06
356.738	14.54
356.949	-24.74
357.161	-6.96
357.373	-14.18
357.584	-16.97
357.796	-15.5
358.008	13.36
358.219	-16.2
358.431	4.3
358.642	12.26
358.854	28.03
359.065	39.8
359.277	50.61
359.488	29.18
359.7	29.47
359.911	13.19
360.123	6.71
360.334	7.96
360.546	11.81
360.757	14.84
360.969	20.97
361.18	26.56
361.391	21.74
361.603	53.17
361.814	48.77
362.025	53.99
362.237	34.53
362.448	35.01
362.659	12.68
362.871	2.14
363.082	-8.33
363.293	-12.44
363.504	-35.73
363.716	-21.24
363.927	4.79
364.138	-2.23
364.349	-13.68
364.56	8.5
364.772	-13.82
364.983	-33.82
365.194	-16.68
365.405	11.53
365.616	11.55
365.827	24.8
366.038	36.8
366.25	27.67
366.461	23.05
366.672	17.81
366.883	21.07
367.094	9.93
367.305	27.41
367.516	34.2
367.727	42.86
367.938	42.81
368.149	49.78
368.36	43.8
368.571	34.06
368.781	3.55
368.992	-9.16
369.203	-12.28
369.414	-17.25
369.625	-24.93
369.836	-23.55
370.047	-14.91
370.258	-11.79
370.468	-4.66
370.679	5.01
370.89	8.23
371.101	0.51
371.312	-10.13
371.522	-13.75
371.733	-23.97
371.944	-20.63
372.155	3.1
372.365	-1.65
372.576	6
372.787	13.2
372.997	21.15
373.208	18.72
373.419	33.59
373.629	16.31
373.84	22.35
374.05	23.91
374.261	3.91
374.472	7.04
374.682	7.95
374.893	8.06
375.103	1.11
375.314	21.67
375.524	29.61
375.735	27.95
375.945	43.88
376.156	44.88
376.366	33.54
376.577	30.55
376.787	32.32
376.997	18.51
377.208	20.95
377.418	31.24
377.629	30.2
377.839	36.68
378.049	27.64
378.26	16.81
378.47	20.88
378.68	31.95
378.89	14.41
379.101	15.77
379.311	30.06
379.521	16.36
379.732	8.37
379.942	24.95
380.152	40.56
380.362	30.03
380.572	34.8
380.783	26.97
380.993	15.33
381.203	2.81
381.413	4.72
381.623	9.25
381.833	15.9
382.043	24.83
382.253	25.76
382.463	31.55
382.674	25.23
382.884	22.53
383.094	8.77
383.304	-0.92
383.514	-2.87
383.724	-3.11
383.934	1.9
384.144	10.77
384.353	23.38
384.563	22.26
384.773	27.63
384.983	23.51
385.193	21.91
385.403	16.66
385.613	15.8
385.823	5.14
386.033	5.68
386.242	1.71
386.452	1.22
386.662	4.14
386.872	7.22
387.082	9.42
387.291	-0.82
387.501	-0.63
387.711	-1.74
387.921	-1.84
388.13	-5.33
388.34	5.59
388.55	4.24
388.759	-0.64
388.969	0.6
389.179	0.07
389.388	1.13
389.598	4.91
389.807	10.93
390.017	10.62
390.227	12.75
390.436	11.63
390.646	8.87
390.855	6.82
391.065	6.52
391.274	6.14
391.484	6.94
391.693	6.72
391.903	7.09
392.112	7.96
392.322	6.58
392.531	5.75
392.74	6.68
392.95	5.78
393.159	4.68
393.369	5.73
393.578	6.16
393.787	6
393.997	6.4
394.206	6.19
394.415	6.38
394.625	7.3
394.834	6.93
395.043	6.37
395.252	7.01
395.462	7.5
395.671	7.21
395.88	8.41
396.089	8.22
396.298	8.05
396.508	7.16
396.717	6.69
396.926	5.92
397.135	5.67
397.344	5.02
397.553	5.32
397.762	5.73
397.971	5.31
398.181	5.3
398.39	5.54
398.599	5.22
398.808	5.07
399.017	5.25
399.226	5.63
399.435	5.94
399.644	6.23
399.853	6.24
400.062	6.41
400.27	6.31
400.479	6.12
400.688	5.75
400.897	6.01
401.106	5.75
401.315	5.64
401.524	5.88
401.733	6
401.941	5.8
402.15	5.54
402.359	5.48
402.568	5.21
402.777	5.32
402.985	4.93
403.194	5.1
403.403	5.2
403.612	5.24
403.82	5.05
404.029	5.29
404.238	5.49
404.446	5.38
404.655	5.33
404.864	5.34
405.072	5.28
405.281	5.21
405.489	5.46
405.698	5.65
405.906	5.73
406.115	5.52
406.324	5.6
406.532	5.36
406.741	5.11
406.949	5.02
407.158	5.19
407.366	5.21
407.574	5.31
407.783	5.45
407.991	5.36
408.2	5.32
408.408	5.13
408.617	5.17
408.825	5.11
409.033	5.24
409.242	5.15
409.45	5.02
409.658	4.82
409.867	4.76
410.075	4.79
410.283	4.91
410.491	5.04
410.7	5.25
410.908	5.17
411.116	5.18
411.324	5.17
411.533	5.09
411.741	4.85
411.949	4.96
412.157	4.93
412.365	4.85
412.573	4.83
412.781	4.98
412.99	4.95
413.198	4.97
413.406	5.04
413.614	5
413.822	4.98
414.03	5.12
414.238	5.02
414.446	4.92
414.654	5
414.862	4.85
415.07	4.77
415.278	4.82
415.486	4.75
415.694	4.83
415.902	4.83
416.109	4.64
416.317	4.7
416.525	4.7
416.733	4.53
416.941	4.74
417.149	4.81
417.357	4.64
417.564	4.54
417.772	4.39
417.98	4.26
418.188	4.24
418.395	4.13
418.603	4.28
418.811	4.34
419.019	4.33
419.226	4.29
419.434	4.67
419.642	4.64
419.849	4.9
420.057	4.75
420.265	4.72
420.472	4.35
420.68	4.33
420.887	4.06
421.095	4.18
421.302	4.16
421.51	4.06
421.717	4.1
421.925	4.12
422.132	4.22
422.34	4.29
422.547	4.5
422.755	4.42
422.962	4.47
423.17	4.34
423.377	4.28
423.585	4.37
423.792	4.35
423.999	4.35
424.207	4.28
424.414	4.16
424.621	4.21
424.829	4.28
425.036	4.44
425.243	4.54
425.451	4.8
425.658	4.71
425.865	4.66
426.072	4.5
426.28	4.3
426.487	4.16
426.694	3.99
426.901	4.03
427.108	4.08
427.315	4.1
427.523	4.12
427.73	4.13
427.937	4.05
428.144	4.04
428.351	4.34
428.558	4.47
428.765	4.53
428.972	4.56
429.179	4.56
429.386	4.4
429.593	4.32
429.8	4.34
430.007	4.32
430.214	4.22
430.421	4.3
430.628	4.26
430.835	4.19
431.042	4.25
431.249	4.41
431.456	4.35
431.662	4.47
431.869	4.58
432.076	4.51
432.283	4.58
432.49	4.57
432.697	4.49
432.903	4.32
433.11	4.32
433.317	4.2
433.524	4.26
433.73	4.23
433.937	4.19
434.144	4.35
434.35	4.32
434.557	4.27
434.764	4.32
434.97	4.46
435.177	4.49
435.384	4.25
435.59	4.2
435.797	4.28
436.003	4.29
436.21	4.07
436.416	4.17
436.623	4.1
436.829	4.03
437.036	3.91
437.242	3.93
437.449	4.09
437.655	4.28
437.862	4.35
438.068	4.57
438.275	4.77
438.481	4.85
438.687	4.7
438.894	4.87
439.1	4.72
439.307	4.66
439.513	4.68
439.719	4.82
439.926	4.74
440.132	4.96
440.338	4.99
440.544	4.97
440.751	4.99
440.957	4.89
441.163	4.74
441.369	4.68
441.575	4.63
441.782	4.6
441.988	4.56
442.194	4.55
442.4	4.59
442.606	4.63
442.812	4.65
443.018	4.57
443.224	4.59
443.431	4.63
443.637	4.63
443.843	4.56
444.049	4.62
444.255	4.59
444.461	4.65
444.667	4.63
444.873	4.63
445.079	4.56
445.284	4.7
445.49	4.64
445.696	4.78
445.902	4.88
446.108	5.03
446.314	4.89
446.52	4.91
446.726	4.84
446.931	4.8
447.137	4.78
447.343	4.88
447.549	4.86
447.755	4.88
447.96	4.89
448.166	4.93
448.372	4.97
448.578	4.99
448.783	5.16
448.989	5.12
449.195	5.14
449.4	5.13
449.606	5.18
449.812	5
450.017	5.08
450.223	5
450.428	5
450.634	4.99
450.84	4.93
451.045	4.9
451.251	4.94
451.456	4.99
451.662	4.96
451.867	5
452.073	4.98
452.278	4.95
452.483	4.96
452.689	5.01
452.894	5.06
453.1	5.11
453.305	5.13
453.51	5.07
453.716	5.04
453.921	5.16
454.127	5.17
454.332	5.12
454.537	5.16
454.742	5.14
454.948	5.04
455.153	5.07
455.358	5.13
455.563	5.21
455.769	5.15
455.974	5.22
456.179	5.09
456.384	4.93
456.589	4.83
456.795	4.96
457	4.97
457.205	5.05
457.41	5.28
457.615	5.28
457.82	5.23
458.025	5.07
458.23	5.1
458.435	4.98
458.64	4.97
458.845	5.08
459.05	5.13
459.255	5.05
459.46	5.26
459.665	5.33
459.87	5.26
460.075	5.3
460.28	5.43
460.485	5.33
460.69	5.26
460.895	5.18
461.099	5.19
461.304	5.22
461.509	5.21
461.714	5.21
461.919	5.33
462.123	5.23
462.328	5.25
462.533	5.29
462.738	5.4
462.942	5.38
463.147	5.49
463.352	5.47
463.556	5.55
463.761	5.33
463.966	5.3
464.17	5.36
464.375	5.45
464.58	5.29
464.784	5.53
464.989	5.58
465.193	5.48
465.398	5.54
465.602	5.78
465.807	5.82
466.011	5.91
