Data from Ofav_SP_Phys_6JQ16_Reflection_3.txt Node
Date: Thu Aug 05 17:54:16 EDT 2021
User: Adam
Spectrometer: FLMT01687
Trigger mode: 0
Integration Time (sec): 8.000000E-1
Scans to average: 2
Electric dark correction enabled: true
Nonlinearity correction enabled: false
Boxcar width: 2
XAxis mode: Wavelengths
Number of Pixels in Spectrum: 3648
>>>>>Begin Spectral Data<<<<<
179.494	572.88
179.716	683.37
179.937	572.48
180.158	716.61
180.38	1750.8
180.601	-877.3
180.823	-104.03
181.044	-105.36
181.265	-12.66
181.486	-42.29
181.708	-164.43
181.929	75.05
182.15	-423.27
182.372	3.9
182.593	-25.04
182.814	-362.57
183.035	-273.93
183.257	-714.95
183.478	701.36
183.699	-734.65
183.92	-214.39
184.141	895.52
184.363	-982.16
184.584	288.7
184.805	137.93
185.026	81.58
185.247	95.77
185.468	109.73
185.689	129.06
185.91	107.54
186.132	49.81
186.353	12.54
186.574	-151.65
186.795	-46.01
187.016	-53.82
187.237	28.77
187.458	-33.42
187.679	83.55
187.9	-7.73
188.121	21.98
188.342	3.37
188.563	36.99
188.784	76.81
189.005	62.7
189.226	75.88
189.447	67.54
189.667	190.34
189.888	428.66
190.109	255.74
190.33	199.67
190.551	187.44
190.772	167.95
190.993	90
191.214	76.94
191.434	71.85
191.655	62.84
191.876	60.58
192.097	41.78
192.318	56.87
192.538	60.91
192.759	72.62
192.98	23.06
193.201	143.13
193.421	4.57
193.642	2.71
193.863	-16.44
194.083	29.58
194.304	46.28
194.525	69.8
194.745	51.6
194.966	39.36
195.187	41.32
195.407	26.12
195.628	33.65
195.848	59.89
196.069	80.78
196.29	77.97
196.51	104.24
196.731	79.46
196.951	87.74
197.172	89.81
197.392	102.85
197.613	73.31
197.833	87.28
198.054	80.29
198.274	59.42
198.495	75.1
198.715	111.39
198.936	101.79
199.156	107.19
199.377	106.65
199.597	87.19
199.817	61.26
200.038	60.71
200.258	47.52
200.479	44.31
200.699	39.83
200.919	40.47
201.14	8.75
201.36	-6.84
201.58	25.67
201.801	-45.48
202.021	-48.36
202.241	26.45
202.461	1.18
202.682	-47.59
202.902	-98.41
203.122	-68.46
203.342	24.74
203.563	61.25
203.783	138.09
204.003	99.67
204.223	95.56
204.443	86.55
204.663	94.5
204.884	72.52
205.104	75.48
205.324	62.31
205.544	53.07
205.764	58.53
205.984	48.8
206.204	52.48
206.424	79.34
206.644	58.49
206.864	48.91
207.084	65.85
207.304	126.89
207.525	104.45
207.745	146.87
207.964	159.17
208.184	123.29
208.404	31.95
208.624	53.2
208.844	28.41
209.064	29.71
209.284	71.48
209.504	94.35
209.724	54.09
209.944	50.98
210.164	31.79
210.384	32.44
210.604	17.68
210.823	38.5
211.043	34.25
211.263	34.39
211.483	23.09
211.703	45.36
211.922	60.34
212.142	109.69
212.362	106.15
212.582	122.64
212.801	111.28
213.021	67.44
213.241	19.4
213.461	26.05
213.68	37.69
213.9	4.24
214.12	5.11
214.339	20.26
214.559	41.91
214.779	41.76
214.998	115
215.218	127.21
215.438	155.15
215.657	172.08
215.877	171.24
216.096	55.05
216.316	43.23
216.535	-20.41
216.755	-69.09
216.974	-143.74
217.194	63.15
217.413	39.93
217.633	64.61
217.852	67.18
218.072	56.99
218.291	45.55
218.511	71.25
218.73	54.13
218.95	43.16
219.169	24.05
219.389	80.69
219.608	56.05
219.827	68.86
220.047	83.02
220.266	85.36
220.485	50.85
220.705	61.47
220.924	60.69
221.143	33.08
221.363	24.37
221.582	37.26
221.801	26.41
222.021	70.48
222.24	112.39
222.459	206.01
222.678	157.98
222.897	119.78
223.117	95.65
223.336	80.73
223.555	59.54
223.774	2.25
223.993	23.57
224.213	36.07
224.432	17.43
224.651	14.38
224.87	42.56
225.089	48.24
225.308	-3.13
225.527	22.48
225.746	15.67
225.965	21.7
226.184	2.77
226.404	44.97
226.623	31.89
226.842	32.61
227.061	49.48
227.28	76.44
227.499	77.71
227.718	61.64
227.936	56.76
228.155	34.06
228.374	10.01
228.593	-1.74
228.812	9.72
229.031	24.55
229.25	30.09
229.469	35.44
229.688	47.13
229.907	42.16
230.125	29.9
230.344	41.42
230.563	63.65
230.782	68.97
231.001	90.69
231.22	119.38
231.438	84.15
231.657	62.48
231.876	86.97
232.095	58
232.313	28.98
232.532	9.74
232.751	12.23
232.969	18.46
233.188	36.13
233.407	33.71
233.625	58.5
233.844	32.97
234.063	46.1
234.281	48.91
234.5	58.61
234.719	95.04
234.937	96.56
235.156	68.46
235.374	51.64
235.593	52.68
235.811	28.72
236.03	48.83
236.249	68.61
236.467	56.81
236.686	66.68
236.904	59.33
237.123	26.35
237.341	38.76
237.559	42.86
237.778	31.04
237.996	36.99
238.215	50.91
238.433	40.59
238.652	47.33
238.87	31.26
239.088	12.22
239.307	16.61
239.525	-2.34
239.743	-13.31
239.962	27.32
240.18	43.41
240.398	33.68
240.617	14.86
240.835	61.56
241.053	21.09
241.271	13.33
241.49	36.78
241.708	38.71
241.926	-6.71
242.144	-21.81
242.363	18.26
242.581	26.09
242.799	2.47
243.017	26.56
243.235	12.76
243.453	7.52
243.672	-2.86
243.89	44.66
244.108	116.62
244.326	147.65
244.544	153.24
244.762	115.4
244.98	102.68
245.198	93.34
245.416	76.63
245.634	84.28
245.852	103.83
246.07	96.86
246.288	44.81
246.506	15.62
246.724	28.41
246.942	19.01
247.16	5.1
247.378	63.43
247.596	36.28
247.814	42.22
248.032	1.88
248.25	-8.07
248.468	-3
248.685	5.96
248.903	-8.74
249.121	10.41
249.339	23.65
249.557	16.75
249.775	35.46
249.992	21.55
250.21	33.86
250.428	13.74
250.646	33.02
250.863	49.48
251.081	81.92
251.299	70.09
251.517	102.7
251.734	76.22
251.952	51.22
252.17	62.72
252.387	57.86
252.605	71.81
252.823	68.8
253.04	63.8
253.258	52.08
253.475	71.61
253.693	37.94
253.911	48.3
254.128	38.34
254.346	43.71
254.563	26.01
254.781	36.7
254.998	25.79
255.216	14.61
255.433	6.6
255.651	28.72
255.868	-1.73
256.086	-1
256.303	0.11
256.521	-37.24
256.738	-84.89
256.956	-75.12
257.173	35.49
257.39	99.31
257.608	99.32
257.825	79.59
258.043	63.76
258.26	50.43
258.477	20.13
258.695	34.92
258.912	38.15
259.129	42.34
259.346	42.1
259.564	58.11
259.781	73.29
259.998	71.63
260.216	71.62
260.433	66.55
260.65	72.83
260.867	33.03
261.084	71.43
261.302	50.98
261.519	69.27
261.736	76.03
261.953	65.36
262.17	48.46
262.387	113.34
262.604	104.83
262.822	93.81
263.039	125.18
263.256	134.63
263.473	68.84
263.69	76.57
263.907	56.42
264.124	37.82
264.341	29.9
264.558	40.48
264.775	33.88
264.992	70.16
265.209	69.71
265.426	69.81
265.643	46.35
265.86	35.06
266.077	17.5
266.294	25.01
266.51	27.74
266.727	48.27
266.944	90.05
267.161	79.28
267.378	54.34
267.595	53.9
267.812	13.89
268.028	-3.13
268.245	6.5
268.462	10.01
268.679	10.43
268.896	29.04
269.112	19.66
269.329	42.29
269.546	55.91
269.763	57.52
269.979	65.14
270.196	81.38
270.413	67.04
270.629	67.18
270.846	61.02
271.063	71.17
271.279	56.58
271.496	53.21
271.712	-21.66
271.929	-8.07
272.146	2.98
272.362	-6.83
272.579	2.45
272.795	12.07
273.012	31.25
273.228	35.16
273.445	40.22
273.661	41.11
273.878	46.32
274.094	16.74
274.311	14.36
274.527	-3.74
274.744	-26.94
274.96	-12.23
275.177	-6.17
275.393	0.65
275.609	13.66
275.826	38.83
276.042	46.82
276.259	56.51
276.475	48.71
276.691	34.13
276.908	33.26
277.124	46.92
277.34	60.89
277.557	25.05
277.773	50.41
277.989	58.16
278.205	69.41
278.422	32.74
278.638	69.42
278.854	69.21
279.07	50.76
279.286	18.38
279.503	26.99
279.719	4.91
279.935	13.4
280.151	30.59
280.367	73.5
280.583	71
280.799	93.75
281.016	83.2
281.232	97.45
281.448	61.31
281.664	27.68
281.88	14.38
282.096	46.03
282.312	38.94
282.528	48.5
282.744	45.59
282.96	39.33
283.176	47.33
283.392	47.63
283.608	42.38
283.824	49.43
284.04	47.58
284.256	31.22
284.471	25.44
284.687	38.7
284.903	46.72
285.119	60.07
285.335	52.14
285.551	53.53
285.767	21.46
285.982	-2.95
286.198	-77.35
286.414	-25.07
286.63	15.34
286.846	49.03
287.061	30.86
287.277	38.53
287.493	53.66
287.709	38.47
287.924	33.31
288.14	55.83
288.356	63.77
288.571	57.24
288.787	60.65
289.003	97.99
289.218	106.84
289.434	81.92
289.65	101.59
289.865	84.28
290.081	40.73
290.296	45.51
290.512	50.45
290.727	45.16
290.943	32.32
291.159	49.51
291.374	58.19
291.59	59.98
291.805	49.59
292.021	106.08
292.236	132.91
292.451	140.82
292.667	158.54
292.882	124.71
293.098	54.45
293.313	52.67
293.529	62.28
293.744	49.31
293.959	47.05
294.175	65.4
294.39	38.61
294.605	22.85
294.821	25.7
295.036	24.18
295.251	20.53
295.467	35.26
295.682	33.84
295.897	38.75
296.112	51.31
296.328	51.55
296.543	48.07
296.758	45.82
296.973	61.6
297.188	65.13
297.404	52.24
297.619	59.19
297.834	54.43
298.049	14.85
298.264	-1.77
298.479	19.23
298.694	7
298.909	41.41
299.125	53.78
299.34	40.38
299.555	25.16
299.77	41.64
299.985	32.85
300.2	40.76
300.415	51.68
300.63	44.65
300.845	17.03
301.06	26.97
301.275	11.27
301.49	15.87
301.704	20.05
301.919	53.64
302.134	35.64
302.349	43.72
302.564	14.74
302.779	13.69
302.994	18.22
303.209	44.6
303.423	53.56
303.638	73.47
303.853	85.06
304.068	51.94
304.283	38.56
304.497	26.25
304.712	27.03
304.927	32.46
305.142	54.7
305.356	56.06
305.571	75.5
305.786	59.69
306	63.28
306.215	70.84
306.43	78.36
306.644	76.05
306.859	92.55
307.074	89.4
307.288	84.63
307.503	72.83
307.717	67.6
307.932	38.85
308.147	48.8
308.361	46.39
308.576	30.69
308.79	9.82
309.005	31.99
309.219	-2.68
309.434	-23.7
309.648	-62.29
309.863	-32.99
310.077	-100.89
310.292	-87.04
310.506	-51.45
310.72	2.81
310.935	29.41
311.149	81.04
311.364	98.94
311.578	91.64
311.792	81.71
312.007	54.38
312.221	29.67
312.435	33.99
312.649	37.17
312.864	38.36
313.078	56.71
313.292	81.19
313.507	89.65
313.721	94.41
313.935	97.57
314.149	77.95
314.363	81.29
314.578	49.77
314.792	35.26
315.006	34.46
315.22	42.31
315.434	-20.23
315.648	-45.98
315.862	-22.89
316.077	-22.37
316.291	-9.77
316.505	48.91
316.719	66.59
316.933	36.99
317.147	36.43
317.361	21.45
317.575	1.53
317.789	-8.99
318.003	6.62
318.217	41.28
318.431	86.01
318.645	87.41
318.859	87.63
319.073	45.73
319.287	22.56
319.5	7.95
319.714	-2.96
319.928	18.83
320.142	47.2
320.356	43.37
320.57	58.6
320.784	88.72
320.997	77.09
321.211	65.89
321.425	56.77
321.639	-19.88
321.853	-13.02
322.066	-7.42
322.28	-22.19
322.494	-12.07
322.707	23.89
322.921	25.69
323.135	25.11
323.349	46.57
323.562	55.64
323.776	62.15
323.989	39.59
324.203	39.07
324.417	39.12
324.63	18.42
324.844	-2.68
325.057	19.29
325.271	1.96
325.485	10.99
325.698	29.01
325.912	37.37
326.125	47.65
326.339	79.6
326.552	78.55
326.766	66.74
326.979	80.97
327.193	49.28
327.406	21.17
327.619	20.41
327.833	3.96
328.046	11.75
328.26	6.6
328.473	4.1
328.686	5.35
328.9	25.39
329.113	11.31
329.326	17.94
329.54	31.72
329.753	44.24
329.966	54.61
330.179	58.11
330.393	86.45
330.606	93.3
330.819	92.57
331.032	108.74
331.246	122.86
331.459	70.34
331.672	56.24
331.885	52.04
332.098	60.89
332.311	53.82
332.525	64.61
332.738	55.49
332.951	52.34
333.164	41.87
333.377	31.31
333.59	26.61
333.803	11.68
334.016	-20.16
334.229	-39.63
334.442	-44.08
334.655	-15.02
334.868	11.34
335.081	34.63
335.294	51.46
335.507	69.36
335.72	65.54
335.933	51.1
336.146	54.16
336.359	58.36
336.572	61.67
336.785	50.21
336.997	65.67
337.21	79.99
337.423	82.11
337.636	81.51
337.849	80.88
338.062	86.87
338.274	75.49
338.487	63.23
338.7	54.6
338.913	67.14
339.125	63.44
339.338	56.01
339.551	55.38
339.763	81.1
339.976	69.35
340.189	67.18
340.402	63.39
340.614	55.41
340.827	58.64
341.039	44.73
341.252	34.13
341.465	41.19
341.677	49.35
341.89	8.52
342.102	38.62
342.315	26.21
342.527	32.46
342.74	6.94
342.952	23.81
343.165	20.44
343.377	50.99
343.59	27.67
343.802	46.28
344.015	30.46
344.227	33.37
344.44	29.73
344.652	30.82
344.864	27.31
345.077	37.13
345.289	13.11
345.502	14.44
345.714	18.23
345.926	36.66
346.139	37.41
346.351	32.11
346.563	24.63
346.775	25.95
346.988	2.62
347.2	18.08
347.412	53.3
347.624	68.38
347.837	58.8
348.049	51.32
348.261	23.89
348.473	35.35
348.685	29
348.897	46.96
349.11	45.12
349.322	39.37
349.534	11.24
349.746	28.88
349.958	15.68
350.17	17.36
350.382	21.31
350.594	27.23
350.806	32.36
351.018	46.88
351.23	47.75
351.442	66.94
351.654	65.19
351.866	59.07
352.078	37.42
352.29	39.45
352.502	37.18
352.714	13.62
352.926	17.76
353.138	31.68
353.35	43.72
353.561	37.99
353.773	44.29
353.985	47.92
354.197	48.61
354.409	30.35
354.621	16.37
354.832	30.67
355.044	36.33
355.256	49.6
355.468	56.43
355.679	67.09
355.891	67.42
356.103	64.03
356.314	52.51
356.526	49.35
356.738	26.3
356.949	-2.91
357.161	9.3
357.373	2.05
357.584	13.58
357.796	33.84
358.008	54.9
358.219	35.46
358.431	56.92
358.642	52.66
358.854	62.98
359.065	69.03
359.277	78.89
359.488	67.22
359.7	61.24
359.911	46.65
360.123	45.88
360.334	41.99
360.546	31.77
360.757	36.95
360.969	40.11
361.18	37.42
361.391	46.37
361.603	68.14
361.814	64.34
362.025	81.53
362.237	65.72
362.448	65.23
362.659	64.05
362.871	54.45
363.082	38.92
363.293	44.09
363.504	38.83
363.716	41.27
363.927	39.01
364.138	32.1
364.349	3.4
364.56	3.86
364.772	9.11
364.983	13.8
365.194	36.66
365.405	60.06
365.616	52.16
365.827	48.8
366.038	62.02
366.25	61.92
366.461	55.81
366.672	59.33
366.883	50.34
367.094	39.79
367.305	43.23
367.516	50.08
367.727	55.13
367.938	59.88
368.149	46.69
368.36	32.74
368.571	35.36
368.781	29.98
368.992	21.41
369.203	37.4
369.414	32.24
369.625	33.79
369.836	20.23
370.047	16.26
370.258	15.5
370.468	18.43
370.679	6.56
370.89	11.03
371.101	18.81
371.312	19.19
371.522	19.35
371.733	23.73
371.944	16.71
372.155	21.94
372.365	9.6
372.576	9.26
372.787	3.19
372.997	18.49
373.208	16.32
373.419	28.17
373.629	27.77
373.84	48.22
374.05	36.72
374.261	31.46
374.472	33.12
374.682	28.73
374.893	20.07
375.103	9.34
375.314	20.57
375.524	14.95
375.735	19.12
375.945	41.9
376.156	54.32
376.366	55.68
376.577	60.16
376.787	64.2
376.997	44.17
377.208	53.03
377.418	45.12
377.629	45.79
377.839	51.22
378.049	59.63
378.26	36.16
378.47	41.81
378.68	53.39
378.89	33.04
379.101	25.16
379.311	36.35
379.521	31.29
379.732	25.16
379.942	36.29
380.152	42.56
380.362	56.92
380.572	59.86
380.783	56.23
380.993	59.34
381.203	62.59
381.413	50.47
381.623	51.66
381.833	53.68
382.043	53.62
382.253	45.54
382.463	53.75
382.674	45.17
382.884	34.56
383.094	26.5
383.304	22.97
383.514	13.93
383.724	3.91
383.934	4.66
384.144	7.24
384.353	13.14
384.563	9.4
384.773	22.74
384.983	16.4
385.193	22.29
385.403	17.61
385.613	21.23
385.823	14.57
386.033	20.6
386.242	13.46
386.452	18.2
386.662	16.53
386.872	14.3
387.082	15.82
387.291	2.38
387.501	1.55
387.711	2.17
387.921	5.65
388.13	3.07
388.34	16.59
388.55	14.4
388.759	11.06
388.969	10.29
389.179	10.6
389.388	10.02
389.598	10.85
389.807	13.56
390.017	11.8
390.227	13.72
390.436	11.07
390.646	8.9
390.855	7.29
391.065	7.71
391.274	6.22
391.484	8.17
391.693	8.64
391.903	9.65
392.112	11.42
392.322	9.75
392.531	9.89
392.74	10.64
392.95	8.58
393.159	7.79
393.369	10.69
393.578	10.71
393.787	10.35
393.997	11.46
394.206	10.58
394.415	9.9
394.625	10.7
394.834	10.46
395.043	9.81
395.252	10.36
395.462	10.5
395.671	9.71
395.88	10.57
396.089	10.7
396.298	10.95
396.508	10.56
396.717	10.02
396.926	9.24
397.135	8.64
397.344	7.65
397.553	7.46
397.762	7.54
397.971	7.16
398.181	7.36
398.39	6.96
398.599	7.34
398.808	7.39
399.017	7.73
399.226	7.79
399.435	8.33
399.644	8.32
399.853	8.62
400.062	8.63
400.27	8.57
400.479	8.31
400.688	7.98
400.897	7.61
401.106	7.32
401.315	7.26
401.524	7.52
401.733	7.47
401.941	7.59
402.15	7.58
402.359	7.44
402.568	7.36
402.777	7.26
402.985	6.97
403.194	6.8
403.403	6.75
403.612	6.46
403.82	6.47
404.029	6.41
404.238	6.66
404.446	6.71
404.655	6.92
404.864	6.94
405.072	6.86
405.281	6.65
405.489	6.69
405.698	6.72
405.906	6.5
406.115	6.44
406.324	6.7
406.532	6.51
406.741	6.33
406.949	6.4
407.158	6.56
407.366	6.32
407.574	6.48
407.783	6.5
407.991	6.45
408.2	6.33
408.408	6.24
408.617	6.19
408.825	6.15
409.033	6.21
409.242	6.21
409.45	6.15
409.658	6.04
409.867	6.05
410.075	6.01
410.283	6.06
410.491	6.13
410.7	6.12
410.908	6.13
411.116	6.09
411.324	6.13
411.533	6.1
411.741	6.01
411.949	5.92
412.157	5.96
412.365	6.16
412.573	6.1
412.781	6.34
412.99	6.47
413.198	6.59
413.406	6.46
413.614	6.63
413.822	6.56
414.03	6.53
414.238	6.32
414.446	6.33
414.654	6.26
414.862	6.13
415.07	6.2
415.278	6.3
415.486	6.07
415.694	6.13
415.902	6.17
416.109	5.87
416.317	5.82
416.525	5.65
416.733	5.57
416.941	5.85
417.149	6.1
417.357	6.17
417.564	6.22
417.772	6.15
417.98	5.88
418.188	5.62
418.395	5.37
418.603	5.55
418.811	5.49
419.019	5.47
419.226	5.69
419.434	6.04
419.642	5.97
419.849	6.12
420.057	6
420.265	5.96
420.472	5.59
420.68	5.47
420.887	5.39
421.095	5.55
421.302	5.59
421.51	5.67
421.717	5.84
421.925	5.88
422.132	5.97
422.34	5.97
422.547	5.97
422.755	5.91
422.962	6
423.17	5.85
423.377	5.62
423.585	5.75
423.792	5.78
423.999	5.69
424.207	5.43
424.414	5.32
424.621	5.25
424.829	5.24
425.036	5.23
425.243	5.65
425.451	5.83
425.658	5.76
425.865	5.7
426.072	5.65
426.28	5.52
426.487	5.52
426.694	5.58
426.901	5.75
427.108	5.91
427.315	5.88
427.523	5.97
427.73	5.85
427.937	5.54
428.144	5.46
428.351	5.54
428.558	5.34
428.765	5.3
428.972	5.54
429.179	5.38
429.386	5.24
429.593	5.44
429.8	5.59
430.007	5.45
430.214	5.54
430.421	5.81
430.628	5.7
430.835	5.79
431.042	5.78
431.249	5.77
431.456	5.59
431.662	5.8
431.869	5.71
432.076	5.86
432.283	6.04
432.49	5.92
432.697	5.78
432.903	5.85
433.11	5.76
433.317	5.57
433.524	5.75
433.73	5.77
433.937	5.69
434.144	5.79
434.35	5.83
434.557	5.7
434.764	5.7
434.97	5.68
435.177	5.75
435.384	5.61
435.59	5.66
435.797	5.76
436.003	5.66
436.21	5.43
436.416	5.51
436.623	5.42
436.829	5.32
437.036	5.4
437.242	5.46
437.449	5.68
437.655	5.93
437.862	6.15
438.068	6.37
438.275	6.42
438.481	6.35
438.687	6.1
438.894	6.02
439.1	5.76
439.307	5.8
439.513	5.75
439.719	5.78
439.926	5.68
440.132	5.81
440.338	5.85
440.544	5.89
440.751	5.97
440.957	6.01
441.163	5.93
441.369	5.9
441.575	5.89
441.782	5.98
441.988	6.02
442.194	5.96
442.4	5.98
442.606	5.97
442.812	5.91
443.018	5.82
443.224	5.93
443.431	5.87
443.637	5.84
443.843	5.76
444.049	5.73
444.255	5.79
444.461	5.85
444.667	5.88
444.873	5.88
445.079	5.87
445.284	5.96
445.49	5.89
445.696	5.93
445.902	5.95
446.108	5.95
446.314	5.72
446.52	5.83
446.726	5.88
446.931	5.91
447.137	5.92
447.343	6.02
447.549	6
447.755	5.98
447.96	6.1
448.166	6.08
448.372	6.19
448.578	6.16
448.783	6.29
448.989	6.13
449.195	6.28
449.4	6.21
449.606	6.22
449.812	6.12
450.017	6.28
450.223	6.15
450.428	6.14
450.634	6.2
450.84	6.17
451.045	6.07
451.251	6.24
451.456	6.35
451.662	6.41
451.867	6.52
452.073	6.68
452.278	6.59
452.483	6.54
452.689	6.5
452.894	6.58
453.1	6.53
453.305	6.63
453.51	6.66
453.716	6.68
453.921	6.61
454.127	6.7
454.332	6.6
454.537	6.71
454.742	6.77
454.948	6.67
455.153	6.54
455.358	6.6
455.563	6.59
455.769	6.41
455.974	6.51
456.179	6.47
456.384	6.38
456.589	6.4
456.795	6.48
457	6.52
457.205	6.65
457.41	6.85
457.615	6.72
457.82	6.81
458.025	6.8
458.23	6.77
458.435	6.68
458.64	6.65
458.845	6.67
459.05	6.64
459.255	6.64
459.46	6.79
459.665	6.97
459.87	6.94
460.075	6.98
460.28	7.01
460.485	6.98
460.69	6.97
460.895	6.84
461.099	6.89
461.304	6.92
461.509	6.93
461.714	6.9
461.919	7.14
462.123	7.14
462.328	7.18
462.533	7.15
462.738	7.27
462.942	7.27
463.147	7.34
463.352	7.43
463.556	7.45
463.761	7.3
463.966	7.19
464.17	7.22
464.375	7.16
464.58	7.14
464.784	7.21
464.989	7.35
465.193	7.29
465.398	7.49
465.602	7.76
465.807	7.88
466.011	7.9
466.216	8.01
466.42	7.96
466.625	7.87
