Data from Ofav_SP_Phys_9AZ81_Reflection_3.txt Node
Date: Thu Aug 05 17:50:47 EDT 2021
User: Adam
Spectrometer: FLMT01687
Trigger mode: 0
Integration Time (sec): 8.000000E-1
Scans to average: 2
Electric dark correction enabled: true
Nonlinearity correction enabled: false
Boxcar width: 2
XAxis mode: Wavelengths
Number of Pixels in Spectrum: 3648
>>>>>Begin Spectral Data<<<<<
179.494	654.08
179.716	722.63
179.937	588.32
180.158	705.37
180.38	1707.78
180.601	-840.51
180.823	-92.61
181.044	-105.81
181.265	32.4
181.486	106.66
181.708	-1506.71
181.929	-205.18
182.15	-500
182.372	-12.85
182.593	23.28
182.814	-202.88
183.035	-106.2
183.257	-470.11
183.478	195.59
183.699	-76.9
183.92	159.84
184.141	-596.86
184.363	1296.76
184.584	-56.81
184.805	10.42
185.026	57.1
185.247	64.88
185.468	86.66
185.689	99.2
185.91	92.58
186.132	42.99
186.353	22.46
186.574	-6.67
186.795	-52.01
187.016	-73.47
187.237	-44.55
187.458	-116
187.679	17.94
187.9	27.09
188.121	35.82
188.342	62.95
188.563	46.67
188.784	45.42
189.005	-18.54
189.226	35.66
189.447	32.42
189.667	-13.09
189.888	54.19
190.109	184.06
190.33	161.84
190.551	157.06
190.772	162.97
190.993	107.53
191.214	74.41
191.434	52.28
191.655	23.01
191.876	34.57
192.097	32.14
192.318	23.5
192.538	37.8
192.759	106.4
192.98	62.48
193.201	60.93
193.421	-17.52
193.642	23.59
193.863	-16.14
194.083	10.57
194.304	15.96
194.525	50.94
194.745	25.9
194.966	38.05
195.187	48.54
195.407	57.11
195.628	3.56
195.848	25.49
196.069	33.39
196.29	21.09
196.51	38.03
196.731	33.44
196.951	46.9
197.172	66.9
197.392	67.2
197.613	74.09
197.833	117.46
198.054	122.19
198.274	48.38
198.495	78.06
198.715	68.7
198.936	40.41
199.156	48.37
199.377	76.58
199.597	60.67
199.817	29.38
200.038	27.18
200.258	22.49
200.479	-13.95
200.699	-10.39
200.919	-13.12
201.14	-33.98
201.36	-58.15
201.58	38.11
201.801	-49.08
202.021	-29.53
202.241	19.74
202.461	-0.93
202.682	-98.45
202.902	-161.58
203.122	-163.58
203.342	77.48
203.563	18.17
203.783	94.33
204.003	90.55
204.223	68.05
204.443	6.58
204.663	24.98
204.884	23.19
205.104	-1.92
205.324	2.95
205.544	16.02
205.764	32.95
205.984	7.78
206.204	28.81
206.424	15.48
206.644	9.91
206.864	-16.12
207.084	-55.02
207.304	-19.6
207.525	-38.73
207.745	25.18
207.964	-0.92
208.184	84.95
208.404	44.28
208.624	27.48
208.844	-7.51
209.064	6.3
209.284	-15.1
209.504	-47.46
209.724	-12.76
209.944	-27.6
210.164	-39.96
210.384	-1.98
210.604	8.17
210.823	8.49
211.043	3.05
211.263	22.89
211.483	16.31
211.703	36.56
211.922	66.03
212.142	94.46
212.362	46.82
212.582	38.27
212.801	19.67
213.021	19.4
213.241	-11.03
213.461	-4.13
213.68	9.95
213.9	-28.31
214.12	-69.66
214.339	-68.85
214.559	-31.23
214.779	-28.53
214.998	4.91
215.218	33.83
215.438	65.05
215.657	101.43
215.877	76.54
216.096	92.52
216.316	97.82
216.535	37.72
216.755	-56.95
216.974	-66.4
217.194	0.77
217.413	19.93
217.633	38.58
217.852	64.73
218.072	51.27
218.291	44.1
218.511	48.2
218.73	41.59
218.95	10.98
219.169	-15.74
219.389	23.38
219.608	-36.81
219.827	-14.13
220.047	-4.73
220.266	27.3
220.485	-0.94
220.705	20.94
220.924	11.67
221.143	30.36
221.363	-9.54
221.582	17.19
221.801	-7.27
222.021	28.39
222.24	33.3
222.459	98.53
222.678	38.96
222.897	81.31
223.117	92.08
223.336	88.89
223.555	60.04
223.774	37.85
223.993	24.21
224.213	4.45
224.432	-34.18
224.651	-10.32
224.87	27.52
225.089	4.37
225.308	-22.64
225.527	10.44
225.746	21.89
225.965	-21.9
226.184	5.96
226.404	24.37
226.623	3.59
226.842	-18.44
227.061	20.83
227.28	16
227.499	8.23
227.718	8.34
227.936	15.13
228.155	-3.09
228.374	15.57
228.593	35.75
228.812	50.06
229.031	53.52
229.25	55.6
229.469	47.23
229.688	26.76
229.907	-4.55
230.125	-28.42
230.344	-44.25
230.563	-62.96
230.782	-129.14
231.001	-53.53
231.22	6.27
231.438	7.08
231.657	26.25
231.876	39.3
232.095	17.02
232.313	3.26
232.532	7.12
232.751	7.14
232.969	15.43
233.188	23.72
233.407	-0.72
233.625	23.38
233.844	-0.96
234.063	-14.09
234.281	-1.67
234.5	29.39
234.719	9.82
234.937	7.91
235.156	19.86
235.374	12.1
235.593	-4.97
235.811	8.13
236.03	28.06
236.249	15.92
236.467	17.08
236.686	3.65
236.904	1.29
237.123	-38.51
237.341	3.33
237.559	-11.16
237.778	17.73
237.996	17.33
238.215	29.72
238.433	25.79
238.652	30.22
238.87	0.61
239.088	-2.53
239.307	2.06
239.525	3.65
239.743	3.67
239.962	36.47
240.18	30.38
240.398	44.85
240.617	27.1
240.835	34.75
241.053	18.63
241.271	31.24
241.49	35.28
241.708	-2.68
241.926	18.15
242.144	-2.2
242.363	-23.36
242.581	8.67
242.799	7.89
243.017	7.28
243.235	50.16
243.453	29.6
243.672	32.79
243.89	35.93
244.108	68.37
244.326	27.71
244.544	30.13
244.762	12.18
244.98	65.31
245.198	14.46
245.416	45.88
245.634	51.68
245.852	59.13
246.07	29.43
246.288	23.59
246.506	-21.67
246.724	-11.68
246.942	-38.33
247.16	-78.79
247.378	-102.82
247.596	-49.87
247.814	-39.61
248.032	-38.25
248.25	-22.07
248.468	-11.9
248.685	8.73
248.903	7.59
249.121	38.4
249.339	27.58
249.557	25.64
249.775	21.61
249.992	-3.64
250.21	11
250.428	14.06
250.646	12.5
250.863	28.71
251.081	63
251.299	52.93
251.517	77.8
251.734	75.36
251.952	43.44
252.17	36.43
252.387	34.56
252.605	11.03
252.823	21.86
253.04	23.55
253.258	39.31
253.475	38.38
253.693	47.54
253.911	60.19
254.128	72.56
254.346	55.64
254.563	63.19
254.781	54.06
254.998	40.26
255.216	0.95
255.433	-20.92
255.651	-77.06
255.868	-72.7
256.086	-28.31
256.303	-8.38
256.521	-15.66
256.738	-31.05
256.956	-76.19
257.173	-15.93
257.39	52.81
257.608	69.18
257.825	42.98
258.043	31.3
258.26	4.04
258.477	-9.35
258.695	15.11
258.912	37.77
259.129	60.66
259.346	74.22
259.564	58.73
259.781	55.72
259.998	32.84
260.216	35.88
260.433	31.95
260.65	36.27
260.867	-10.92
261.084	27.86
261.302	41.74
261.519	50.99
261.736	58.83
261.953	40.86
262.17	36.81
262.387	54.78
262.604	47.25
262.822	39.88
263.039	83.1
263.256	114.93
263.473	63.09
263.69	78.32
263.907	78.88
264.124	58.71
264.341	4.24
264.558	7.04
264.775	-9.1
264.992	11.85
265.209	26.32
265.426	47.83
265.643	33.18
265.86	30.14
266.077	2.08
266.294	-10.4
266.51	-18.14
266.727	8.16
266.944	25.05
267.161	15.29
267.378	18.92
267.595	29.29
267.812	-5.69
268.028	-24.05
268.245	6.28
268.462	-15.09
268.679	-26.05
268.896	-2.15
269.112	4.05
269.329	9.37
269.546	40.15
269.763	40.55
269.979	57.15
270.196	83.11
270.413	67.47
270.629	79.62
270.846	77.16
271.063	56.32
271.279	47.52
271.496	-15.17
271.712	-71.68
271.929	-111.84
272.146	-49.85
272.362	-103.9
272.579	-52.12
272.795	-27.28
273.012	20.29
273.228	-8.88
273.445	9.6
273.661	39.18
273.878	17.82
274.094	17.15
274.311	26.94
274.527	-2.8
274.744	1.98
274.96	6.2
275.177	-17.4
275.393	-32.1
275.609	-9.1
275.826	-16.77
276.042	3.12
276.259	27.63
276.475	26.77
276.691	11.91
276.908	15.63
277.124	23.99
277.34	28.37
277.557	25.19
277.773	52.85
277.989	49.64
278.205	77.1
278.422	51.11
278.638	54.08
278.854	64.08
279.07	46.11
279.286	13.26
279.503	12.57
279.719	5.7
279.935	10.97
280.151	43.15
280.367	68.23
280.583	45.16
280.799	56.37
281.016	42.28
281.232	60.54
281.448	38.02
281.664	51.23
281.88	35.96
282.096	47.21
282.312	23
282.528	34.33
282.744	48.18
282.96	44.25
283.176	37.67
283.392	30.71
283.608	22.77
283.824	-5.91
284.04	-5.33
284.256	12.97
284.471	17.13
284.687	25.2
284.903	43.46
285.119	37.85
285.335	1.12
285.551	-15.89
285.767	-42.09
285.982	-72.58
286.198	-120.01
286.414	-65.97
286.63	-20.57
286.846	7.46
287.061	0.46
287.277	6.45
287.493	34.81
287.709	26.62
287.924	47.77
288.14	59.48
288.356	65.55
288.571	57.9
288.787	62.04
289.003	60.88
289.218	25.08
289.434	2.35
289.65	-19.83
289.865	11.92
290.081	19.42
290.296	33.93
290.512	30.9
290.727	39.85
290.943	28.44
291.159	18.05
291.374	25.99
291.59	17.2
291.805	19.99
292.021	34.04
292.236	32.67
292.451	2.9
292.667	18.58
292.882	-19.71
293.098	-10.46
293.313	33.57
293.529	53.25
293.744	41.64
293.959	46.41
294.175	45.4
294.39	16.7
294.605	-3.67
294.821	-1.38
295.036	0.02
295.251	14.44
295.467	34.07
295.682	31.64
295.897	40.83
296.112	40.49
296.328	28.34
296.543	10.87
296.758	-19.29
296.973	-7.48
297.188	12.48
297.404	10.57
297.619	19.3
297.834	34.37
298.049	21.62
298.264	8.61
298.479	5.39
298.694	7.57
298.909	21.23
299.125	27.32
299.34	34.95
299.555	33.87
299.77	53.28
299.985	44.91
300.2	38.78
300.415	48.93
300.63	38.32
300.845	3.71
301.06	24.35
301.275	21.22
301.49	24.55
301.704	24.86
301.919	46.58
302.134	20.36
302.349	32.9
302.564	16.88
302.779	29.69
302.994	26.74
303.209	55.57
303.423	27.07
303.638	23.15
303.853	29.62
304.068	20.83
304.283	10.05
304.497	29.43
304.712	23.55
304.927	8.18
305.142	25.53
305.356	14.74
305.571	22.71
305.786	37.77
306	28.11
306.215	32.39
306.43	50.14
306.644	59.99
306.859	53.16
307.074	82.28
307.288	71.2
307.503	56.46
307.717	40.72
307.932	19.41
308.147	23.07
308.361	25.65
308.576	12.66
308.79	0.97
309.005	45.27
309.219	20.15
309.434	19.63
309.648	17.32
309.863	28.13
310.077	-41.63
310.292	-24.32
310.506	-17.77
310.72	5.44
310.935	13.19
311.149	43.47
311.364	50.2
311.578	47.61
311.792	65.27
312.007	48.28
312.221	30.2
312.435	39.83
312.649	63.04
312.864	28.49
313.078	38.55
313.292	62.36
313.507	45.19
313.721	26.33
313.935	24.34
314.149	16.53
314.363	-17.35
314.578	-4.21
314.792	-6.55
315.006	-23.95
315.22	-23.14
315.434	-23.27
315.648	-71.07
315.862	-95.45
316.077	-50.27
316.291	-56.47
316.505	-20.97
316.719	4.37
316.933	6.38
317.147	0.19
317.361	-0.16
317.575	-24.59
317.789	-12.83
318.003	-41.55
318.217	12.2
318.431	30.15
318.645	49.66
318.859	10.08
319.073	22.29
319.287	-0.61
319.5	10.01
319.714	1.43
319.928	48.62
320.142	55.25
320.356	40.26
320.57	45.41
320.784	58.89
320.997	10.33
321.211	11.53
321.425	3.47
321.639	-54.74
321.853	-54.98
322.066	-51.71
322.28	-53.33
322.494	-53.88
322.707	-20.39
322.921	-3.76
323.135	12.67
323.349	22.41
323.562	41.03
323.776	52.17
323.989	25.95
324.203	26.59
324.417	26.17
324.63	7.11
324.844	-18.31
325.057	-14.39
325.271	-38.81
325.485	-30.51
325.698	-22.16
325.912	-4.69
326.125	26.77
326.339	51.35
326.552	48.32
326.766	42.03
326.979	58.78
327.193	49.96
327.406	28.5
327.619	51.04
327.833	33.24
328.046	17.19
328.26	-3.06
328.473	-5.26
328.686	-26.18
328.9	-3.55
329.113	4.33
329.326	-4.15
329.54	25.16
329.753	52.16
329.966	49.79
330.179	52.94
330.393	80.94
330.606	61.94
330.819	51.07
331.032	53.01
331.246	58.7
331.459	33.7
331.672	51.56
331.885	67.89
332.098	86.13
332.311	74.98
332.525	68.11
332.738	32.33
332.951	13.39
333.164	-7.27
333.377	6.37
333.59	2.23
333.803	6.74
334.016	-0.22
334.229	9.83
334.442	32
334.655	51.63
334.868	61.71
335.081	57.25
335.294	63.62
335.507	30.63
335.72	37.57
335.933	39.52
336.146	43.64
336.359	26.22
336.572	31.14
336.785	7.66
336.997	-4.48
337.21	-9.33
337.423	18.1
337.636	15.7
337.849	39.74
338.062	33.65
338.274	2.58
338.487	25.73
338.7	26.89
338.913	18.05
339.125	31.29
339.338	33.61
339.551	-6.84
339.763	24.64
339.976	23.17
340.189	37.35
340.402	32.38
340.614	43.12
340.827	41.19
341.039	34.84
341.252	19.81
341.465	22.22
341.677	17.66
341.89	-20.21
342.102	1.33
342.315	-13.56
342.527	0.23
342.74	-5
342.952	17.35
343.165	12.98
343.377	38.91
343.59	18.39
343.802	9.4
344.015	-3.04
344.227	-2.68
344.44	4.21
344.652	22.6
344.864	40.05
345.077	49.4
345.289	25.21
345.502	9.3
345.714	-3.88
345.926	-8.55
346.139	-6.26
346.351	7.27
346.563	-0.14
346.775	0.17
346.988	-15.56
347.2	-12.37
347.412	-8.55
347.624	2.43
347.837	1.08
348.049	11.86
348.261	11.21
348.473	21.89
348.685	40.26
348.897	65.28
349.11	31.94
349.322	35.86
349.534	10.06
349.746	9.98
349.958	7.7
350.17	43.68
350.382	43.21
350.594	65.54
350.806	55.66
351.018	54.11
351.23	57.03
351.442	60.94
351.654	51.18
351.866	41.05
352.078	19.23
352.29	-0.9
352.502	2.3
352.714	-0.17
352.926	15.92
353.138	12.94
353.35	22.66
353.561	16.15
353.773	19.09
353.985	31.36
354.197	44.42
354.409	34.34
354.621	29.46
354.832	19.45
355.044	2.23
355.256	10.86
355.468	25.24
355.679	39.66
355.891	51.72
356.103	50.4
356.314	50.9
356.526	30.19
356.738	29.87
356.949	-2.06
357.161	15.44
357.373	7.31
357.584	30.05
357.796	32.62
358.008	34.44
358.219	19.17
358.431	36.74
358.642	14.04
358.854	24.62
359.065	48.36
359.277	46.26
359.488	21.34
359.7	27.1
359.911	4.7
360.123	5.05
360.334	13.15
360.546	18.59
360.757	22.77
360.969	30.67
361.18	25.61
361.391	-1.49
361.603	26.26
361.814	14.65
362.025	42.15
362.237	39.44
362.448	48.6
362.659	38.05
362.871	33.32
363.082	6.18
363.293	-17.01
363.504	-28.61
363.716	-9.84
363.927	23.47
364.138	26.96
364.349	33.83
364.56	28.53
364.772	16.79
364.983	-5.08
365.194	19.4
365.405	34.38
365.616	36.45
365.827	42.28
366.038	48.15
366.25	41.52
366.461	30.53
366.672	35.09
366.883	33.1
367.094	23.14
367.305	26.19
367.516	28.58
367.727	33.58
367.938	27.54
368.149	13
368.36	9.62
368.571	19.11
368.781	-1.75
368.992	2.97
369.203	20.56
369.414	24.93
369.625	5.22
369.836	5.9
370.047	-0.99
370.258	5.2
370.468	1.99
370.679	0.14
370.89	2.26
371.101	-1.53
371.312	-1.42
371.522	1.99
371.733	11.77
371.944	7.38
372.155	34.3
372.365	13.5
372.576	26.16
372.787	23.64
372.997	38.43
373.208	28.67
373.419	40.45
373.629	6.35
373.84	20.05
374.05	8.2
374.261	12.15
374.472	23.29
374.682	27.97
374.893	34.06
375.103	33.27
375.314	30.41
375.524	21.86
375.735	29.14
375.945	27.15
376.156	28.05
376.366	24.82
376.577	31.98
376.787	39.49
376.997	22.73
377.208	25.02
377.418	27.33
377.629	28.32
377.839	34.58
378.049	43.23
378.26	36.92
378.47	45.55
378.68	52.46
378.89	30.22
379.101	25.12
379.311	31.63
379.521	22.05
379.732	29.05
379.942	31.74
380.152	39.59
380.362	38.6
380.572	38.92
380.783	16.29
380.993	21.99
381.203	22.47
381.413	23.07
381.623	28.98
381.833	39.34
382.043	38.89
382.253	39.74
382.463	45.75
382.674	44.87
382.884	38.76
383.094	25.9
383.304	17.57
383.514	11.49
383.724	-1.88
383.934	-0.82
384.144	7.13
384.353	9.9
384.563	12.82
384.773	20.17
384.983	12.34
385.193	10.64
385.403	11.64
385.613	7.61
385.823	0.52
386.033	5.18
386.242	5.21
386.452	4.65
386.662	7.69
386.872	7.98
387.082	13.47
387.291	3.75
387.501	1.95
387.711	1.74
387.921	3.11
388.13	-3.38
388.34	3.33
388.55	3.72
388.759	-1.32
388.969	-0.18
389.179	2.29
389.388	6.48
389.598	8.43
389.807	10.93
390.017	11.68
390.227	10.9
390.436	7.07
390.646	3.68
390.855	2.14
391.065	0.88
391.274	1.31
391.484	4.52
391.693	6.06
391.903	7.01
392.112	8.77
392.322	8.45
392.531	7.78
392.74	7.44
392.95	7
393.159	6.89
393.369	7.15
393.578	6.6
393.787	6.66
393.997	5.97
394.206	4.67
394.415	4.95
394.625	5.12
394.834	4.58
395.043	4.04
395.252	4.83
395.462	4.77
395.671	4.78
395.88	6.08
396.089	7.03
396.298	6.82
396.508	6.68
396.717	6.31
396.926	5.46
397.135	4.68
397.344	4.29
397.553	4.2
397.762	4.24
397.971	4.02
398.181	4.04
398.39	3.82
398.599	3.83
398.808	3.73
399.017	3.69
399.226	3.91
399.435	3.97
399.644	4.1
399.853	4.17
400.062	4.28
400.27	4.37
400.479	4.51
400.688	4.49
400.897	4.65
401.106	4.44
401.315	4.15
401.524	3.95
401.733	3.67
401.941	3.42
402.15	3.42
402.359	3.36
402.568	3.66
402.777	3.96
402.985	3.66
403.194	3.55
403.403	3.71
403.612	3.44
403.82	3.17
404.029	3.41
404.238	3.62
404.446	3.71
404.655	3.88
404.864	3.98
405.072	3.96
405.281	3.79
405.489	3.82
405.698	3.8
405.906	3.69
406.115	3.4
406.324	3.62
406.532	3.59
406.741	3.47
406.949	3.44
407.158	3.7
407.366	3.61
407.574	3.56
407.783	3.55
407.991	3.56
408.2	3.39
408.408	3.37
408.617	3.37
408.825	3.39
409.033	3.39
409.242	3.51
409.45	3.41
409.658	3.33
409.867	3.35
410.075	3.3
410.283	3.36
410.491	3.26
410.7	3.35
410.908	3.3
411.116	3.36
411.324	3.3
411.533	3.32
411.741	3.19
411.949	3.21
412.157	3.33
412.365	3.37
412.573	3.34
412.781	3.39
412.99	3.42
413.198	3.47
413.406	3.63
413.614	3.75
413.822	3.68
414.03	3.68
414.238	3.57
414.446	3.48
414.654	3.52
414.862	3.56
415.07	3.47
415.278	3.43
415.486	3.2
415.694	3.18
415.902	3.1
416.109	3.12
416.317	3.18
416.525	3.2
416.733	3.19
416.941	3.38
417.149	3.44
417.357	3.29
417.564	3.4
417.772	3.21
417.98	3.16
418.188	3.12
418.395	2.94
418.603	2.87
418.811	2.99
419.019	3.13
419.226	3.12
419.434	3.33
419.642	3.46
419.849	3.6
420.057	3.31
420.265	3.36
420.472	3.19
420.68	3.07
420.887	2.9
421.095	3.13
421.302	3.05
421.51	3.18
421.717	3.13
421.925	3.15
422.132	3.11
422.34	3.18
422.547	3.27
422.755	3.4
422.962	3.52
423.17	3.41
423.377	3.36
423.585	3.44
423.792	3.33
423.999	3.18
424.207	3.01
424.414	2.64
424.621	2.46
424.829	2.45
425.036	2.5
425.243	2.62
425.451	2.93
425.658	3.04
425.865	2.89
426.072	2.87
426.28	2.83
426.487	2.75
426.694	2.56
426.901	2.74
427.108	2.82
427.315	2.96
427.523	3.07
427.73	3.14
427.937	3.03
428.144	2.9
428.351	2.89
428.558	2.9
428.765	2.85
428.972	2.71
429.179	2.79
429.386	2.62
429.593	2.66
429.8	2.71
430.007	2.92
430.214	2.89
430.421	3.11
430.628	3.08
430.835	3.17
431.042	3.11
431.249	3.02
431.456	2.82
431.662	2.94
431.869	2.98
432.076	2.96
432.283	3.18
432.49	3.21
432.697	3.11
432.903	2.83
433.11	2.78
433.317	2.73
433.524	2.93
433.73	2.89
433.937	2.97
434.144	3.02
434.35	2.89
434.557	2.71
434.764	2.73
434.97	2.82
435.177	3.04
435.384	2.82
435.59	2.69
435.797	2.69
436.003	2.66
436.21	2.28
436.416	2.38
436.623	2.51
436.829	2.49
437.036	2.32
437.242	2.45
437.449	2.66
437.655	2.77
437.862	2.89
438.068	3.18
438.275	3.33
438.481	3.26
438.687	3.06
438.894	2.97
439.1	2.8
439.307	2.7
439.513	2.73
439.719	2.86
439.926	2.87
440.132	2.92
440.338	2.93
440.544	2.95
440.751	3.01
440.957	3.02
441.163	3
441.369	3.04
441.575	2.91
441.782	2.89
441.988	2.76
442.194	2.63
442.4	2.58
442.606	2.68
442.812	2.55
443.018	2.56
443.224	2.53
443.431	2.6
443.637	2.52
443.843	2.44
444.049	2.43
444.255	2.57
444.461	2.52
444.667	2.49
444.873	2.56
445.079	2.56
445.284	2.56
445.49	2.54
445.696	2.66
445.902	2.68
446.108	2.72
446.314	2.67
446.52	2.73
446.726	2.75
446.931	2.73
447.137	2.78
447.343	2.79
447.549	2.78
447.755	2.75
447.96	2.78
448.166	2.74
448.372	2.71
448.578	2.68
448.783	2.81
448.989	2.75
449.195	2.78
449.4	2.79
449.606	2.9
449.812	2.81
450.017	2.93
450.223	2.83
450.428	2.9
450.634	2.79
450.84	2.77
451.045	2.7
451.251	2.76
451.456	2.77
451.662	2.75
451.867	2.7
452.073	2.79
452.278	2.71
452.483	2.66
452.689	2.75
452.894	2.8
453.1	2.84
453.305	2.93
453.51	2.91
453.716	2.95
453.921	2.87
454.127	2.83
454.332	2.8
454.537	2.93
454.742	2.86
454.948	2.85
455.153	2.8
455.358	2.86
455.563	2.81
455.769	2.73
455.974	2.81
456.179	2.81
456.384	2.66
456.589	2.6
456.795	2.58
457	2.57
457.205	2.54
457.41	2.67
457.615	2.74
457.82	2.76
458.025	2.71
458.23	2.72
458.435	2.69
458.64	2.52
458.845	2.53
459.05	2.5
459.255	2.47
459.46	2.49
459.665	2.63
459.87	2.62
460.075	2.6
460.28	2.65
460.485	2.66
460.69	2.59
460.895	2.48
461.099	2.58
461.304	2.53
461.509	2.49
461.714	2.56
461.919	2.69
462.123	2.63
462.328	2.66
462.533	2.67
462.738	2.67
462.942	2.71
463.147	2.69
463.352	2.71
463.556	2.77
463.761	2.65
463.966	2.61
464.17	2.7
464.375	2.72
464.58	2.67
464.784	2.76
464.989	2.79
465.193	2.76
465.398	2.84
465.602	3.09
465.807	3.18
466.011	3.18
466.216	3.21
466.42	3.22
466.625	3.06
466.829	3.09
467.034	3.07
467.238	3.05
467.443	2.96
