Data from Ofav_SP_Phys_2AZ2_Reflection_1.txt Node
Date: Thu Aug 05 17:53:14 EDT 2021
User: Adam
Spectrometer: FLMT01687
Trigger mode: 0
Integration Time (sec): 8.000000E-1
Scans to average: 2
Electric dark correction enabled: true
Nonlinearity correction enabled: false
Boxcar width: 2
XAxis mode: Wavelengths
Number of Pixels in Spectrum: 3648
>>>>>Begin Spectral Data<<<<<
179.494	606.99
179.716	689.94
179.937	567.45
180.158	673.23
180.38	1633.87
180.601	-854.79
180.823	-153.28
181.044	-61.68
181.265	-62.21
181.486	-71.02
181.708	-241.61
181.929	-20.73
182.15	-372.24
182.372	-16.18
182.593	-40.31
182.814	-211.9
183.035	-90.79
183.257	-106.76
183.478	577.63
183.699	-375.68
183.92	-176.88
184.141	1006.28
184.363	-985.95
184.584	112.61
184.805	95.63
185.026	46.29
185.247	61.87
185.468	58.11
185.689	106.85
185.91	73.55
186.132	72.6
186.353	72.28
186.574	55.4
186.795	-18.64
187.016	20.66
187.237	37.58
187.458	-123.87
187.679	44.99
187.9	71.06
188.121	125.17
188.342	171.87
188.563	161.13
188.784	181.52
189.005	181.29
189.226	150.95
189.447	92.41
189.667	166.96
189.888	345.43
190.109	277.09
190.33	158.7
190.551	165.68
190.772	137.53
190.993	101.64
191.214	71.91
191.434	68.97
191.655	47.68
191.876	58.36
192.097	63.74
192.318	90.05
192.538	112.64
192.759	186.54
192.98	151.28
193.201	298.7
193.421	142.88
193.642	134.28
193.863	44.48
194.083	50.53
194.304	34.69
194.525	41.53
194.745	18.04
194.966	43.67
195.187	46.87
195.407	45.8
195.628	38.79
195.848	63.14
196.069	43.62
196.29	25.95
196.51	57.55
196.731	47.86
196.951	57.48
197.172	94.56
197.392	119.6
197.613	94.27
197.833	114.04
198.054	104.48
198.274	68.38
198.495	53.2
198.715	80.48
198.936	88.91
199.156	111.19
199.377	106.27
199.597	96.67
199.817	80.52
200.038	60.47
200.258	57.44
200.479	43.17
200.699	50.98
200.919	55.43
201.14	25.1
201.36	18.04
201.58	78.45
201.801	29.96
202.021	54.28
202.241	159.29
202.461	173.17
202.682	85.8
202.902	187.92
203.122	361.95
203.342	356.88
203.563	133.47
203.783	176.63
204.003	109.42
204.223	83.81
204.443	34.51
204.663	34.43
204.884	28.79
205.104	23.51
205.324	63.57
205.544	71.24
205.764	73.92
205.984	91.45
206.204	74.74
206.424	34.13
206.644	20.41
206.864	43.93
207.084	24.86
207.304	71.53
207.525	74.53
207.745	100.59
207.964	84.3
208.184	110.52
208.404	51.09
208.624	27.08
208.844	36.76
209.064	39.81
209.284	10.45
209.504	11.97
209.724	49.29
209.944	21.34
210.164	0.7
210.384	60.64
210.604	65.72
210.823	57.72
211.043	62.68
211.263	80.64
211.483	61.16
211.703	66.99
211.922	89.29
212.142	127.36
212.362	114.04
212.582	141.54
212.801	158.07
213.021	86.02
213.241	33.17
213.461	-5.12
213.68	2.95
213.9	-34.1
214.12	-34.27
214.339	-1.86
214.559	38.59
214.779	24.33
214.998	93.09
215.218	98.54
215.438	132.95
215.657	210.21
215.877	262.24
216.096	147.85
216.316	141.98
216.535	76.56
216.755	13.05
216.974	-117.91
217.194	108.77
217.413	86.96
217.633	91.2
217.852	85.42
218.072	108.36
218.291	97.34
218.511	99.6
218.73	77.37
218.95	80.3
219.169	29.84
219.389	62.17
219.608	47.6
219.827	80.46
220.047	72.2
220.266	61.64
220.485	57.82
220.705	74.18
220.924	80.18
221.143	77.3
221.363	45.92
221.582	37.12
221.801	-28.38
222.021	6.67
222.24	30.79
222.459	94.38
222.678	66.53
222.897	103.06
223.117	96.33
223.336	73.42
223.555	64.77
223.774	38.52
223.993	24.94
224.213	30.42
224.432	49.72
224.651	57.33
224.87	67.81
225.089	61.96
225.308	61.01
225.527	57.87
225.746	46.9
225.965	47.19
226.184	57.32
226.404	83.98
226.623	49.58
226.842	46.8
227.061	54.47
227.28	64.14
227.499	70.45
227.718	56.94
227.936	63.27
228.155	63.07
228.374	54.33
228.593	54.2
228.812	71.37
229.031	67.57
229.25	79.14
229.469	73.74
229.688	53.17
229.907	52.57
230.125	60.74
230.344	57.31
230.563	73.71
230.782	137.54
231.001	158.43
231.22	114.09
231.438	95.1
231.657	61.57
231.876	58.36
232.095	69.04
232.313	77.74
232.532	48.91
232.751	57.69
232.969	57.37
233.188	55.85
233.407	18.89
233.625	46.5
233.844	0.33
234.063	-28.89
234.281	-34.97
234.5	7.68
234.719	6.78
234.937	13.88
235.156	28.02
235.374	30.33
235.593	25.54
235.811	-3.61
236.03	24.01
236.249	22.62
236.467	27.35
236.686	36.56
236.904	67.07
237.123	30.32
237.341	51.49
237.559	34.26
237.778	19.67
237.996	28.69
238.215	60.71
238.433	52
238.652	60.4
238.87	46.67
239.088	10.77
239.307	8.69
239.525	1.21
239.743	-2.64
239.962	32.6
240.18	79.29
240.398	87.3
240.617	64.58
240.835	96.5
241.053	75.61
241.271	52.59
241.49	67.69
241.708	83.9
241.926	81.7
242.144	67.02
242.363	160.88
242.581	118.01
242.799	53.2
243.017	12.91
243.235	12.53
243.453	6.78
243.672	8.66
243.89	44.15
244.108	84.52
244.326	87.04
244.544	100.61
244.762	95.73
244.98	99.46
245.198	114.56
245.416	90.67
245.634	101.86
245.852	113.24
246.07	95.98
246.288	51.02
246.506	45.91
246.724	25.57
246.942	23.69
247.16	44.34
247.378	67.72
247.596	70.55
247.814	78.93
248.032	34.97
248.25	17.73
248.468	24.25
248.685	19.85
248.903	11.14
249.121	15.02
249.339	21.43
249.557	14.53
249.775	17.81
249.992	1.97
250.21	20.72
250.428	-5.46
250.646	6.67
250.863	17.65
251.081	46.02
251.299	49.49
251.517	113.91
251.734	94.95
251.952	106.33
252.17	116.94
252.387	95.79
252.605	66.82
252.823	68.25
253.04	44.78
253.258	38.12
253.475	55.23
253.693	54.25
253.911	66.86
254.128	75.31
254.346	82.16
254.563	69.07
254.781	68.42
254.998	63
255.216	52.37
255.433	28.96
255.651	58.13
255.868	0.48
256.086	-1.16
256.303	2.04
256.521	6.84
256.738	1.73
256.956	36.92
257.173	41.62
257.39	83.5
257.608	59.45
257.825	41.32
258.043	45.43
258.26	39.47
258.477	27.36
258.695	45.29
258.912	55.89
259.129	50.45
259.346	47.85
259.564	37.27
259.781	36.53
259.998	44.48
260.216	57.85
260.433	69.63
260.65	76.94
260.867	52.04
261.084	39.38
261.302	50.59
261.519	37.18
261.736	63.15
261.953	64.63
262.17	66.41
262.387	108.53
262.604	123.72
262.822	165.2
263.039	182.42
263.256	166.17
263.473	87.39
263.69	88.55
263.907	55.46
264.124	52.84
264.341	27.14
264.558	21.29
264.775	-3.94
264.992	11.6
265.209	18.23
265.426	41.22
265.643	41.5
265.86	44.11
266.077	46.04
266.294	55.9
266.51	33.02
266.727	39.6
266.944	88.21
267.161	72.37
267.378	50.15
267.595	46.49
267.812	42.8
268.028	-1.81
268.245	15.24
268.462	25.93
268.679	14.51
268.896	37.83
269.112	42.17
269.329	78.75
269.546	63.36
269.763	62.08
269.979	70.59
270.196	97.04
270.413	60.45
270.629	69.24
270.846	69.9
271.063	49.67
271.279	30.63
271.496	51.95
271.712	-2.03
271.929	0.97
272.146	1.61
272.362	-14.05
272.579	-6.78
272.795	11.18
273.012	39.55
273.228	36.43
273.445	42.36
273.661	77.85
273.878	64.76
274.094	58.74
274.311	77.55
274.527	88.3
274.744	86.76
274.96	75.69
275.177	50.4
275.393	40.69
275.609	14.01
275.826	-1.51
276.042	13.73
276.259	28.09
276.475	29.37
276.691	39.28
276.908	41.17
277.124	57.61
277.34	63.47
277.557	49.74
277.773	45.5
277.989	76.07
278.205	52.5
278.422	19.49
278.638	66.92
278.854	86.14
279.07	67.1
279.286	57.24
279.503	98.83
279.719	55.29
279.935	57.36
280.151	69.97
280.367	87.4
280.583	71.52
280.799	90.09
281.016	74.13
281.232	81.1
281.448	44.11
281.664	42.78
281.88	60.02
282.096	80.56
282.312	49.66
282.528	67.59
282.744	66.8
282.96	72.98
283.176	64.16
283.392	73.81
283.608	74.48
283.824	70.47
284.04	63.09
284.256	58.09
284.471	45.06
284.687	62.74
284.903	56.8
285.119	50.67
285.335	42.13
285.551	45.8
285.767	28.57
285.982	24.78
286.198	30.01
286.414	49.69
286.63	74.47
286.846	67.51
287.061	56.62
287.277	60.89
287.493	99.1
287.709	57.13
287.924	59.06
288.14	58.46
288.356	54.84
288.571	38.64
288.787	44.92
289.003	58.05
289.218	63.48
289.434	40.63
289.65	43.88
289.865	49.92
290.081	35.54
290.296	42.1
290.512	45.03
290.727	54.51
290.943	52.45
291.159	51.05
291.374	52.91
291.59	56.42
291.805	45.87
292.021	83.7
292.236	99.19
292.451	105.49
292.667	147.81
292.882	109.48
293.098	38.89
293.313	54.15
293.529	60.77
293.744	35.07
293.959	24.54
294.175	50.68
294.39	34.35
294.605	8.82
294.821	10.01
295.036	14.83
295.251	27.94
295.467	34.55
295.682	44.42
295.897	57.88
296.112	72.6
296.328	63.15
296.543	79.68
296.758	73.72
296.973	55.78
297.188	65.92
297.404	59.21
297.619	40.31
297.834	50.9
298.049	47.48
298.264	19.59
298.479	6.36
298.694	46.3
298.909	50.62
299.125	58.92
299.34	69.23
299.555	78.36
299.77	80.18
299.985	82.46
300.2	71.34
300.415	57.99
300.63	35.17
300.845	21.06
301.06	26.65
301.275	15.28
301.49	22.27
301.704	64.54
301.919	43.06
302.134	30.01
302.349	40.94
302.564	27.68
302.779	25.46
302.994	50.33
303.209	66.98
303.423	65.96
303.638	77.38
303.853	85.61
304.068	55.88
304.283	49.2
304.497	58.83
304.712	52.01
304.927	64.12
305.142	78.45
305.356	74.68
305.571	73.85
305.786	76.95
306	65.94
306.215	76.81
306.43	89.98
306.644	95.02
306.859	103.7
307.074	122.88
307.288	107.32
307.503	92.41
307.717	89.36
307.932	54.19
308.147	60.78
308.361	63.31
308.576	46.92
308.79	29.99
309.005	71.04
309.219	34.35
309.434	26.24
309.648	29.07
309.863	42.51
310.077	-41.67
310.292	-22.78
310.506	-33.78
310.72	16.95
310.935	27.32
311.149	73.61
311.364	73.87
311.578	83.87
311.792	79.52
312.007	75.52
312.221	48.06
312.435	62.1
312.649	78.55
312.864	75.36
313.078	65.67
313.292	105.54
313.507	103.78
313.721	107.86
313.935	93.7
314.149	113.33
314.363	82.94
314.578	70.66
314.792	45.03
315.006	79.59
315.22	58.85
315.434	45.77
315.648	64.64
315.862	139.99
316.077	75.03
316.291	59.36
316.505	68.8
316.719	69.64
316.933	68.49
317.147	55.8
317.361	57.31
317.575	58.52
317.789	60.01
318.003	44.69
318.217	61.56
318.431	83.17
318.645	77.16
318.859	80.74
319.073	74.96
319.287	83.39
319.5	73.94
319.714	67.83
319.928	74.14
320.142	74.95
320.356	67.2
320.57	81.7
320.784	106.19
320.997	61.5
321.211	63.21
321.425	32.23
321.639	-17.06
321.853	-23.7
322.066	7.68
322.28	0.34
322.494	0.16
322.707	17.12
322.921	26.41
323.135	34.27
323.349	49.43
323.562	70.96
323.776	82.26
323.989	65.85
324.203	36.08
324.417	32.22
324.63	16.62
324.844	-2.56
325.057	24.97
325.271	8.31
325.485	7.4
325.698	22.18
325.912	31.59
326.125	26.58
326.339	57.53
326.552	44.58
326.766	21.86
326.979	50.49
327.193	47.73
327.406	31.45
327.619	49.94
327.833	49.33
328.046	54.29
328.26	57.3
328.473	47.92
328.686	29.88
328.9	43.16
329.113	18.55
329.326	12.31
329.54	44.99
329.753	70.23
329.966	65.92
330.179	71.65
330.393	97.83
330.606	64.15
330.819	56.79
331.032	86.27
331.246	106.8
331.459	63.79
331.672	97.95
331.885	95.48
332.098	82.39
332.311	76.56
332.525	83.43
332.738	63.24
332.951	43.7
333.164	58.1
333.377	41.65
333.59	56.87
333.803	66.96
334.016	54.45
334.229	11.87
334.442	34.06
334.655	31.68
334.868	45.42
335.081	43.38
335.294	65.22
335.507	51.68
335.72	46.63
335.933	44.8
336.146	48.01
336.359	46.67
336.572	39.93
336.785	40.44
336.997	35.98
337.21	64.71
337.423	69.67
337.636	93.64
337.849	104.98
338.062	94.97
338.274	69.97
338.487	37.19
338.7	21.22
338.913	32.13
339.125	57.51
339.338	53.61
339.551	71.16
339.763	95.12
339.976	74.37
340.189	65.93
340.402	64.02
340.614	45.01
340.827	50.03
341.039	46.43
341.252	41.9
341.465	42.56
341.677	52.78
341.89	23.74
342.102	41.18
342.315	24.66
342.527	53.88
342.74	46.06
342.952	51.53
343.165	54.48
343.377	69.85
343.59	25.18
343.802	34.46
344.015	28.33
344.227	8.09
344.44	10.92
344.652	38.96
344.864	54.3
345.077	66.66
345.289	72.49
345.502	60.82
345.714	47.03
345.926	36.6
346.139	18.95
346.351	22.67
346.563	17.76
346.775	26.2
346.988	-5.73
347.2	24.3
347.412	28.47
347.624	70.36
347.837	66.39
348.049	82.01
348.261	65.3
348.473	75.31
348.685	77.62
348.897	88.82
349.11	84.84
349.322	69.68
349.534	54.53
349.746	46.19
349.958	50.27
350.17	56.04
350.382	68.58
350.594	73.58
350.806	75.77
351.018	64.37
351.23	65.28
351.442	71.62
351.654	66.46
351.866	57.53
352.078	32.74
352.29	20.23
352.502	29.1
352.714	7.59
352.926	28.86
353.138	37.38
353.35	48.45
353.561	43.17
353.773	42.54
353.985	45.64
354.197	59.06
354.409	50.52
354.621	45.22
354.832	70.38
355.044	53.16
355.256	51.43
355.468	49.43
355.679	43.42
355.891	48.77
356.103	54.35
356.314	62.72
356.526	39.56
356.738	63.53
356.949	33.98
357.161	34.24
357.373	23.05
357.584	68.76
357.796	68.4
358.008	80.39
358.219	91.29
358.431	108.73
358.642	77.58
358.854	64.86
359.065	76.86
359.277	79.55
359.488	56.98
359.7	71.77
359.911	57.14
360.123	37.96
360.334	29.81
360.546	30.65
360.757	19.64
360.969	31.67
361.18	50.62
361.391	52.09
361.603	65.36
361.814	78.88
362.025	85.59
362.237	64.57
362.448	59.56
362.659	59.46
362.871	51.94
363.082	37.47
363.293	32.72
363.504	48.22
363.716	35.48
363.927	49.32
364.138	42.55
364.349	42.42
364.56	42.49
364.772	55.66
364.983	62.27
365.194	90.53
365.405	92.95
365.616	76.61
365.827	79.99
366.038	70.83
366.25	59.21
366.461	53.44
366.672	56.96
366.883	47.96
367.094	45.36
367.305	44.82
367.516	46.27
367.727	53.74
367.938	59.63
368.149	46.29
368.36	56.67
368.571	73.99
368.781	54.69
368.992	12.11
369.203	34.94
369.414	25.13
369.625	27.08
369.836	22.48
370.047	22.79
370.258	22.31
370.468	19.36
370.679	30.05
370.89	37.92
371.101	41.74
371.312	33.12
371.522	33.57
371.733	30.16
371.944	10.02
372.155	24.24
372.365	10.57
372.576	17.34
372.787	17.22
372.997	29.14
373.208	17.43
373.419	45.24
373.629	34.2
373.84	37.2
374.05	42.17
374.261	62.24
374.472	48.71
374.682	54.07
374.893	61.42
375.103	52.52
375.314	35.34
375.524	25.81
375.735	27.95
375.945	35.76
376.156	41.15
376.366	51.44
376.577	75.72
376.787	83.89
376.997	66.97
377.208	75.65
377.418	65.58
377.629	56.3
377.839	75.14
378.049	75.06
378.26	56.33
378.47	68.55
378.68	74.34
378.89	44.9
379.101	45.67
379.311	48.27
379.521	44.62
379.732	23.51
379.942	31.37
380.152	31.64
380.362	32.07
380.572	24.29
380.783	26.22
380.993	18.77
381.203	19.99
381.413	18.25
381.623	23.41
381.833	32.54
382.043	38.24
382.253	44.25
382.463	49.56
382.674	46.73
382.884	41.34
383.094	32.94
383.304	29.31
383.514	27.79
383.724	21.05
383.934	22.4
384.144	24.03
384.353	29.3
384.563	33.17
384.773	40.91
384.983	35.05
385.193	37.08
385.403	25.12
385.613	25.94
385.823	23.87
386.033	25.75
386.242	24.23
386.452	29.9
386.662	29.7
386.872	25.67
387.082	30.69
387.291	17.93
387.501	14.55
387.711	12.63
387.921	12.37
388.13	9.7
388.34	18.26
388.55	21.9
388.759	18.88
388.969	15.67
389.179	13.66
389.388	14.91
389.598	10.87
389.807	13.2
390.017	16.61
390.227	15.67
390.436	15.14
390.646	15.05
390.855	13.46
391.065	14.58
391.274	15.76
391.484	16.04
391.693	16.58
391.903	17.22
392.112	17.71
392.322	15.38
392.531	15.25
392.74	12.79
392.95	10.96
393.159	8.81
393.369	10.2
393.578	10.11
393.787	11.08
393.997	12.08
394.206	12.35
394.415	12.66
394.625	13.35
394.834	12.83
395.043	11.75
395.252	11.74
395.462	11.4
395.671	10.97
395.88	12.47
396.089	13.08
396.298	13.56
396.508	13.38
396.717	13.03
396.926	12.79
397.135	12.42
397.344	12.03
397.553	12.37
397.762	11.88
397.971	11.26
398.181	11.26
398.39	10.83
398.599	10.82
398.808	11.02
399.017	10.9
399.226	10.66
399.435	11.12
399.644	10.91
399.853	11.08
400.062	11.34
400.27	11.75
400.479	11.5
400.688	11.39
400.897	11.79
401.106	11.42
401.315	11.24
401.524	11.05
401.733	11.13
401.941	10.46
402.15	10.36
402.359	10.14
402.568	10.22
402.777	10.34
402.985	10.24
403.194	10.38
403.403	10.52
403.612	10.51
403.82	10.33
404.029	10.63
404.238	10.71
404.446	10.76
404.655	10.81
404.864	10.73
405.072	10.7
405.281	10.57
405.489	10.33
405.698	10.46
405.906	10.41
406.115	10.13
406.324	10.25
406.532	10.18
406.741	10.1
406.949	10.09
407.158	10.35
407.366	10.27
407.574	10.4
407.783	10.36
407.991	10.35
408.2	10.09
408.408	10.04
408.617	10.03
408.825	9.96
409.033	10
409.242	10.07
409.45	9.91
409.658	9.88
409.867	9.76
410.075	9.73
410.283	9.8
410.491	9.92
410.7	10.07
410.908	10.15
411.116	10.12
411.324	10.11
411.533	9.9
411.741	9.72
411.949	9.71
412.157	9.71
412.365	9.69
412.573	9.75
412.781	9.66
412.99	9.65
413.198	9.79
413.406	9.96
413.614	9.94
413.822	10
414.03	10.03
414.238	9.89
414.446	9.69
414.654	9.81
414.862	9.9
415.07	9.9
415.278	10.02
415.486	9.87
415.694	10.01
415.902	9.73
416.109	9.48
416.317	9.27
416.525	9.16
416.733	8.84
416.941	9.08
417.149	9.43
417.357	9.45
417.564	9.41
417.772	9.46
417.98	9.35
418.188	8.96
418.395	8.69
418.603	8.89
418.811	8.84
419.019	9
419.226	9.18
419.434	9.38
419.642	9.41
419.849	9.4
420.057	9.08
420.265	8.98
420.472	8.75
420.68	8.82
420.887	8.99
421.095	9.05
421.302	8.96
421.51	9.19
421.717	9.1
421.925	8.81
422.132	8.9
422.34	9.06
422.547	9.04
422.755	8.88
422.962	9.13
423.17	9.19
423.377	9.18
423.585	9.18
423.792	9.14
423.999	9.17
424.207	8.98
424.414	8.63
424.621	8.7
424.829	8.77
425.036	8.65
425.243	8.81
425.451	9.13
425.658	9.01
425.865	8.93
426.072	8.93
426.28	8.95
426.487	8.91
426.694	8.85
426.901	8.89
427.108	8.99
427.315	9.02
427.523	8.98
427.73	8.94
427.937	8.97
428.144	8.95
428.351	8.91
428.558	8.93
428.765	8.84
428.972	8.74
429.179	8.57
429.386	8.48
429.593	8.59
429.8	8.67
430.007	8.73
430.214	8.84
430.421	8.93
430.628	8.85
430.835	8.96
431.042	9.03
431.249	8.96
431.456	8.88
431.662	9.07
431.869	9.25
432.076	9.27
432.283	9.44
432.49	9.44
432.697	9.38
432.903	9.2
433.11	9.11
433.317	8.89
433.524	8.97
433.73	8.89
433.937	8.78
434.144	8.91
434.35	9
434.557	8.98
434.764	8.92
434.97	8.87
435.177	9
435.384	8.83
435.59	8.84
435.797	8.94
436.003	9.09
436.21	8.76
436.416	8.74
436.623	8.64
436.829	8.54
437.036	8.36
437.242	8.41
437.449	8.58
437.655	8.66
437.862	8.72
438.068	8.91
438.275	9.14
438.481	9.1
438.687	9.13
438.894	9.18
439.1	8.98
439.307	8.84
439.513	8.89
439.719	8.84
439.926	8.8
440.132	8.93
440.338	8.86
440.544	8.89
440.751	8.91
440.957	8.92
441.163	8.84
441.369	8.87
441.575	8.75
441.782	8.83
441.988	8.7
442.194	8.79
442.4	8.89
442.606	9
442.812	8.93
443.018	8.96
443.224	8.86
443.431	8.73
443.637	8.6
443.843	8.46
444.049	8.44
444.255	8.55
444.461	8.55
444.667	8.61
444.873	8.63
445.079	8.61
445.284	8.64
445.49	8.72
445.696	8.81
445.902	8.82
446.108	8.94
446.314	8.85
446.52	8.81
446.726	8.66
446.931	8.75
447.137	8.68
447.343	8.73
447.549	8.63
447.755	8.7
447.96	8.75
448.166	8.79
448.372	8.82
448.578	8.88
448.783	9.04
448.989	8.86
449.195	8.79
449.4	8.75
449.606	8.87
449.812	8.7
450.017	8.91
450.223	8.91
450.428	8.92
450.634	8.81
450.84	8.84
451.045	8.63
451.251	8.7
451.456	8.73
451.662	8.81
451.867	8.84
452.073	9.07
452.278	8.97
452.483	8.88
452.689	8.77
452.894	8.78
453.1	8.66
453.305	8.69
453.51	8.65
453.716	8.78
453.921	8.7
454.127	8.79
454.332	8.79
454.537	9.01
454.742	8.97
454.948	8.97
455.153	8.78
455.358	8.73
455.563	8.67
455.769	8.58
455.974	8.61
456.179	8.58
456.384	8.47
456.589	8.37
456.795	8.39
457	8.4
457.205	8.45
457.41	8.59
457.615	8.66
457.82	8.68
458.025	8.64
458.23	8.71
458.435	8.73
458.64	8.57
458.845	8.6
459.05	8.53
459.255	8.43
459.46	8.43
459.665	8.63
459.87	8.5
460.075	8.53
460.28	8.59
460.485	8.62
460.69	8.52
460.895	8.55
461.099	8.5
461.304	8.47
461.509	8.49
461.714	8.41
461.919	8.41
462.123	8.44
462.328	8.41
462.533	8.42
462.738	8.48
462.942	8.52
463.147	8.56
463.352	8.63
463.556	8.62
463.761	8.59
463.966	8.64
464.17	8.68
464.375	8.74
464.58	8.6
464.784	8.62
464.989	8.67
465.193	8.61
