Data from Ofav_SP_Phys_0AZ4_Reflection_2.txt Node
Date: Thu Aug 05 17:43:12 EDT 2021
User: Adam
Spectrometer: FLMT01687
Trigger mode: 0
Integration Time (sec): 8.000000E-1
Scans to average: 2
Electric dark correction enabled: true
Nonlinearity correction enabled: false
Boxcar width: 2
XAxis mode: Wavelengths
Number of Pixels in Spectrum: 3648
>>>>>Begin Spectral Data<<<<<
179.494	181.2
179.716	209.48
179.937	160.51
180.158	205.3
180.38	468.88
180.601	-91
180.823	-11.6
181.044	52.63
181.265	105.58
181.486	200.12
181.708	-670.47
181.929	-194.05
182.15	-275.51
182.372	27.04
182.593	85.39
182.814	15.55
183.035	40.2
183.257	195.37
183.478	-108.81
183.699	283.59
183.92	174.49
184.141	-429.15
184.363	1127.03
184.584	-122
184.805	0.14
185.026	-6.68
185.247	-5.01
185.468	24.1
185.689	31.75
185.91	14.59
186.132	-17.77
186.353	2.4
186.574	-76.17
186.795	-71.83
187.016	-91.59
187.237	-44.47
187.458	-236.52
187.679	-36.17
187.9	-35.4
188.121	-68.17
188.342	-82.04
188.563	-15.25
188.784	3.96
189.005	-92.14
189.226	1
189.447	32.06
189.667	16.66
189.888	31.91
190.109	101.2
190.33	98.97
190.551	77.93
190.772	87.92
190.993	50.63
191.214	44.32
191.434	22.21
191.655	12.67
191.876	12.93
192.097	11.31
192.318	1.87
192.538	-30.79
192.759	6.82
192.98	-11.86
193.201	-202.75
193.421	-171.61
193.642	-38.96
193.863	-36.28
194.083	-6.43
194.304	35.92
194.525	68.05
194.745	75.08
194.966	55.02
195.187	24.79
195.407	-24.18
195.628	-72.91
195.848	-87.16
196.069	-69.3
196.29	-49.68
196.51	-0.74
196.731	17.52
196.951	36.54
197.172	81.7
197.392	85.95
197.613	70.04
197.833	80.74
198.054	42.91
198.274	-9.47
198.495	-7.87
198.715	4.38
198.936	-25.7
199.156	32.89
199.377	50.93
199.597	38.82
199.817	40.32
200.038	34.83
200.258	30.68
200.479	18.89
200.699	18.78
200.919	2.69
201.14	-2.63
201.36	-8.01
201.58	-9.04
201.801	-20.51
202.021	23.5
202.241	64.97
202.461	85.73
202.682	40.26
202.902	-5.37
203.122	-34.17
203.342	-12.42
203.563	-56.01
203.783	4.33
204.003	34.76
204.223	20.76
204.443	10.63
204.663	46.55
204.884	60.79
205.104	65.5
205.324	77.16
205.544	58.22
205.764	38.22
205.984	26.43
206.204	15.04
206.424	4.91
206.644	19.21
206.864	37.23
207.084	2.22
207.304	46.66
207.525	68.61
207.745	83.51
207.964	68.04
208.184	43.24
208.404	-18.4
208.624	-80.03
208.844	-149.94
209.064	-129.15
209.284	-53.23
209.504	-47.39
209.724	5.69
209.944	-3.37
210.164	-8.26
210.384	-11.37
210.604	22.73
210.823	25.46
211.043	40.49
211.263	46.18
211.483	47.02
211.703	30.3
211.922	15.24
212.142	31.67
212.362	0.46
212.582	2.71
212.801	5.81
213.021	49.33
213.241	-9.71
213.461	-3.44
213.68	-19.26
213.9	-21.11
214.12	-53.98
214.339	-42.72
214.559	-40.42
214.779	-42.58
214.998	-58.85
215.218	-63.42
215.438	-23.34
215.657	30.5
215.877	51.58
216.096	23.95
216.316	2.65
216.535	-41.77
216.755	-93.93
216.974	-237.24
217.194	-39.38
217.413	12.94
217.633	29.47
217.852	36.51
218.072	37.58
218.291	43.22
218.511	36.51
218.73	53.48
218.95	47.55
219.169	26.96
219.389	72.46
219.608	108.14
219.827	71.91
220.047	63.36
220.266	76.73
220.485	47.24
220.705	43.02
220.924	35.02
221.143	59.12
221.363	22.08
221.582	35.8
221.801	43.53
222.021	66.54
222.24	68.18
222.459	97.46
222.678	43.62
222.897	20.24
223.117	3.1
223.336	-1.79
223.555	15.52
223.774	3.94
223.993	18.9
224.213	13.9
224.432	-26.71
224.651	-11.4
224.87	7.81
225.089	-0.45
225.308	-21.33
225.527	19.37
225.746	23.95
225.965	8.8
226.184	7
226.404	21.13
226.623	21.47
226.842	16.71
227.061	27.01
227.28	40.23
227.499	35.56
227.718	24.8
227.936	14.93
228.155	17.04
228.374	17.64
228.593	26.04
228.812	34.92
229.031	30.73
229.25	30.46
229.469	43.69
229.688	45.12
229.907	45.34
230.125	45.78
230.344	36.95
230.563	28.12
230.782	-39.66
231.001	-56.31
231.22	25.41
231.438	45.45
231.657	35.13
231.876	47.64
232.095	29.54
232.313	7.73
232.532	9.19
232.751	16.93
232.969	26.41
233.188	20.61
233.407	35.15
233.625	47.24
233.844	42.76
234.063	40.47
234.281	46.89
234.5	15.19
234.719	1.22
234.937	-28.79
235.156	-30.46
235.374	-2.08
235.593	18.28
235.811	3.21
236.03	23.69
236.249	42.15
236.467	0.31
236.686	-11.45
236.904	16.45
237.123	-15.4
237.341	0.88
237.559	9.54
237.778	16.79
237.996	19.11
238.215	29.75
238.433	41.94
238.652	44.27
238.87	25.86
239.088	6.32
239.307	19.99
239.525	3.68
239.743	6.75
239.962	40.11
240.18	18.68
240.398	-7.31
240.617	2.03
240.835	15.81
241.053	1.85
241.271	8.79
241.49	23.2
241.708	-21.57
241.926	-10.03
242.144	-34.53
242.363	-6.45
242.581	39.47
242.799	57.82
243.017	48.69
243.235	62.23
243.453	24.11
243.672	5.74
243.89	47.47
244.108	87.18
244.326	66.37
244.544	113.19
244.762	97.67
244.98	83.14
245.198	65.02
245.416	48.02
245.634	9.94
245.852	-22.91
246.07	-21.09
246.288	-28.37
246.506	-45.81
246.724	8.5
246.942	17.27
247.16	48.14
247.378	51.6
247.596	15.23
247.814	18.52
248.032	19.58
248.25	-2.39
248.468	-9.2
248.685	21.53
248.903	13.51
249.121	12.58
249.339	35.62
249.557	70.59
249.775	73.2
249.992	89.47
250.21	87.5
250.428	58.77
250.646	45.47
250.863	45.58
251.081	46.09
251.299	4.91
251.517	32.84
251.734	38.25
251.952	12.18
252.17	-6.55
252.387	2.5
252.605	-1.41
252.823	14.16
253.04	13.25
253.258	25.07
253.475	36.19
253.693	30.96
253.911	51.51
254.128	32.42
254.346	33.13
254.563	32.39
254.781	40
254.998	10.38
255.216	49.99
255.433	24.72
255.651	-8.75
255.868	-41.31
256.086	-22.42
256.303	-20.82
256.521	-18.81
256.738	-49.98
256.956	-112.98
257.173	0.39
257.39	29.19
257.608	23.86
257.825	35.67
258.043	37.84
258.26	15.56
258.477	11.67
258.695	11.55
258.912	20.15
259.129	34.79
259.346	41.43
259.564	33.57
259.781	40.4
259.998	36.63
260.216	18.95
260.433	18.24
260.65	14.56
260.867	-10.86
261.084	32.33
261.302	38.01
261.519	44.27
261.736	52.67
261.953	60.08
262.17	56.52
262.387	68.2
262.604	58.84
262.822	49.47
263.039	26.57
263.256	30.23
263.473	32.88
263.69	61.81
263.907	55.52
264.124	38.3
264.341	13.18
264.558	10.15
264.775	-21.14
264.992	-21.1
265.209	4.86
265.426	12.31
265.643	5.61
265.86	10.35
266.077	-0.63
266.294	-17.72
266.51	-17.28
266.727	-19.96
266.944	-19.02
267.161	3.82
267.378	25.74
267.595	16.41
267.812	27.16
268.028	18.7
268.245	20.19
268.462	-17.98
268.679	-32.9
268.896	-14.53
269.112	-20.53
269.329	-26.1
269.546	15.07
269.763	30.04
269.979	32.11
270.196	35.79
270.413	31.7
270.629	20.98
270.846	28.27
271.063	20.44
271.279	28.65
271.496	15.87
271.712	20.98
271.929	18.61
272.146	0.91
272.362	-0.35
272.579	-1.5
272.795	3.19
273.012	11.68
273.228	1.18
273.445	25.69
273.661	42.46
273.878	29.23
274.094	19.15
274.311	41.02
274.527	13.93
274.744	-9.7
274.96	6.51
275.177	14.69
275.393	13.72
275.609	13.62
275.826	11.89
276.042	18.21
276.259	25.75
276.475	8.46
276.691	-0.45
276.908	16.96
277.124	25.39
277.34	18.84
277.557	19.54
277.773	37.98
277.989	28.94
278.205	22.8
278.422	45.11
278.638	48.69
278.854	53.43
279.07	44.83
279.286	26.92
279.503	3.65
279.719	-22.04
279.935	-24.12
280.151	2.19
280.367	29.89
280.583	27.62
280.799	21.72
281.016	16.11
281.232	-6.78
281.448	-6.68
281.664	7.53
281.88	62.98
282.096	61.38
282.312	59.23
282.528	56.39
282.744	31.57
282.96	19.77
283.176	12.73
283.392	31.27
283.608	18.53
283.824	26.7
284.04	33.94
284.256	40.8
284.471	1.57
284.687	18.73
284.903	27.6
285.119	20.46
285.335	3.54
285.551	14.9
285.767	-9.47
285.982	-32.26
286.198	-29.31
286.414	-33.68
286.63	-8.48
286.846	14.95
287.061	20.34
287.277	27.46
287.493	48.36
287.709	29.49
287.924	34.13
288.14	35.76
288.356	24.02
288.571	30.75
288.787	29.13
289.003	15.49
289.218	-23.21
289.434	-0.35
289.65	-18.11
289.865	-0.51
290.081	13.94
290.296	6.56
290.512	2.8
290.727	18.11
290.943	11.97
291.159	12.54
291.374	33.98
291.59	24.98
291.805	6.99
292.021	12.3
292.236	2.28
292.451	1.74
292.667	8.64
292.882	-36.17
293.098	-9.86
293.313	0.33
293.529	-7.01
293.744	-5.27
293.959	-1.29
294.175	7.47
294.39	-3.72
294.605	-11.84
294.821	-10.56
295.036	17.56
295.251	3.7
295.467	15.45
295.682	12.26
295.897	24.71
296.112	21.88
296.328	21.1
296.543	30.02
296.758	18.3
296.973	12.18
297.188	14.39
297.404	23.14
297.619	17.43
297.834	12.65
298.049	-4.22
298.264	-22.75
298.479	-40.78
298.694	-18.43
298.909	8.84
299.125	23.94
299.34	46.99
299.555	29.72
299.77	7.85
299.985	26.63
300.2	19.65
300.415	10.37
300.63	7.97
300.845	-1.9
301.06	-13.61
301.275	-14.54
301.49	-12.7
301.704	-15.68
301.919	32.65
302.134	36.63
302.349	48.23
302.564	42.2
302.779	45.94
302.994	34.97
303.209	30.25
303.423	7.13
303.638	4.68
303.853	4.95
304.068	1.69
304.283	-3.47
304.497	10.55
304.712	6.08
304.927	-6.12
305.142	6.65
305.356	8.1
305.571	3.84
305.786	17.93
306	28.71
306.215	30.64
306.43	48.93
306.644	55.64
306.859	48.53
307.074	53.1
307.288	49.11
307.503	39.5
307.717	43.34
307.932	29.48
308.147	31.31
308.361	25.83
308.576	17.82
308.79	2.91
309.005	13.93
309.219	-19.69
309.434	-45.77
309.648	-66.28
309.863	-85.29
310.077	-122.68
310.292	-82.78
310.506	-49.69
310.72	-24.35
310.935	11.24
311.149	-3.56
311.364	34.2
311.578	53.62
311.792	46.63
312.007	24.19
312.221	41.35
312.435	9.61
312.649	1.45
312.864	-7.41
313.078	-0.54
313.292	10.8
313.507	30.42
313.721	20.8
313.935	27.76
314.149	16.15
314.363	-5.16
314.578	9
314.792	9.71
315.006	-5.38
315.22	10.19
315.434	0.33
315.648	-54.37
315.862	-75.78
316.077	-32.85
316.291	-70.16
316.505	-2.83
316.719	13.6
316.933	25.29
317.147	20.56
317.361	27.07
317.575	3.36
317.789	-6.81
318.003	-31.32
318.217	1.83
318.431	15.75
318.645	34.34
318.859	32.51
319.073	30.48
319.287	5.76
319.5	15.28
319.714	16.55
319.928	28.68
320.142	32.61
320.356	24.12
320.57	0.06
320.784	-9.94
320.997	-33.4
321.211	-9.58
321.425	-4.3
321.639	7.91
321.853	-1.55
322.066	-3.33
322.28	-4.21
322.494	-3.59
322.707	-3.39
322.921	2.37
323.135	16.55
323.349	17.66
323.562	11.45
323.776	16.9
323.989	4.91
324.203	2.57
324.417	14.83
324.63	14.76
324.844	13.84
325.057	32.7
325.271	7.32
325.485	6.15
325.698	12.78
325.912	17.12
326.125	18.5
326.339	41.6
326.552	46.82
326.766	24.49
326.979	41.61
327.193	33.71
327.406	30.57
327.619	26.21
327.833	34.09
328.046	33.56
328.26	43.52
328.473	22.89
328.686	19.72
328.9	30.2
329.113	9.33
329.326	-0.48
329.54	15.61
329.753	18.56
329.966	35.04
330.179	29.14
330.393	46.61
330.606	39.04
330.819	28.16
331.032	9.39
331.246	49.22
331.459	35.18
331.672	33.8
331.885	49.9
332.098	39.45
332.311	18.61
332.525	6.22
332.738	12.73
332.951	-8.16
333.164	4.9
333.377	21.4
333.59	34.82
333.803	39.45
334.016	50.36
334.229	58.63
334.442	35.26
334.655	27.96
334.868	31.8
335.081	22
335.294	17.29
335.507	19.3
335.72	24.27
335.933	17
336.146	29.16
336.359	31.99
336.572	28.89
336.785	33.96
336.997	34.53
337.21	36.72
337.423	32.68
337.636	21.97
337.849	33.57
338.062	19.57
338.274	-15.57
338.487	-34.38
338.7	-18.84
338.913	-46.18
339.125	-25.98
339.338	-0.85
339.551	0.7
339.763	27.65
339.976	40.33
340.189	45.28
340.402	27.3
340.614	36.3
340.827	25.83
341.039	12.53
341.252	5.26
341.465	11.56
341.677	10.7
341.89	8.49
342.102	19.73
342.315	11.13
342.527	28.16
342.74	17.39
342.952	9.63
343.165	5.67
343.377	19.98
343.59	-29.25
343.802	-10.49
344.015	5.76
344.227	14.15
344.44	17.67
344.652	41.29
344.864	44.98
345.077	35.33
345.289	25.83
345.502	23.56
345.714	22.75
345.926	17.89
346.139	30.71
346.351	36.97
346.563	17.8
346.775	1.78
346.988	-20.79
347.2	-49.02
347.412	-119.95
347.624	-57.96
347.837	-25.16
348.049	-15.23
348.261	16.12
348.473	25.14
348.685	28.61
348.897	21.65
349.11	13.98
349.322	-10.17
349.534	7.94
349.746	7.26
349.958	8.4
350.17	26.79
350.382	29.2
350.594	23.59
350.806	17.52
351.018	25.01
351.23	28.94
351.442	23.59
351.654	20.98
351.866	15.16
352.078	-4.11
352.29	-28.39
352.502	-10.59
352.714	-28.32
352.926	3.62
353.138	7.48
353.35	37.54
353.561	27.07
353.773	28.72
353.985	23.32
354.197	21.5
354.409	-9.19
354.621	-10.82
354.832	2.2
355.044	2.47
355.256	5.79
355.468	22.22
355.679	42.05
355.891	36.65
356.103	25.79
356.314	33.19
356.526	28.37
356.738	20.91
356.949	0.52
357.161	12.65
357.373	3.6
357.584	5.28
357.796	-11.8
358.008	-0.62
358.219	-25.55
358.431	12.69
358.642	-1.19
358.854	15.03
359.065	37.1
359.277	46.43
359.488	12.56
359.7	20.59
359.911	16.01
360.123	4.29
360.334	2.18
360.546	13.7
360.757	12.33
360.969	22.59
361.18	17.95
361.391	12.32
361.603	32.38
361.814	23.8
362.025	23.56
362.237	27.22
362.448	14.53
362.659	3.81
362.871	-6.53
363.082	-17.85
363.293	-19.85
363.504	-14.8
363.716	-19.22
363.927	16.96
364.138	25.78
364.349	21.36
364.56	23.46
364.772	33.59
364.983	22.08
365.194	25.09
365.405	20.81
365.616	30.44
365.827	18.91
366.038	12.25
366.25	-3.29
366.461	-6.79
366.672	-6.22
366.883	2.49
367.094	13.53
367.305	26.62
367.516	37.45
367.727	45.02
367.938	32.49
368.149	25.02
368.36	34.24
368.571	21.8
368.781	-14.12
368.992	10.88
369.203	25.56
369.414	-3.99
369.625	2.74
369.836	14.67
370.047	7.49
370.258	13.09
370.468	33.67
370.679	39.85
370.89	30.22
371.101	28.67
371.312	27.44
371.522	27
371.733	18.29
371.944	33.34
372.155	33.74
372.365	17.85
372.576	22.85
372.787	18.51
372.997	16.92
373.208	25.98
373.419	36.03
373.629	21.1
373.84	33.77
374.05	29.71
374.261	32.13
374.472	38
374.682	44.18
374.893	47.28
375.103	47.71
375.314	39.3
375.524	29.33
375.735	18.71
375.945	26.41
376.156	15.98
376.366	21.44
376.577	23.16
376.787	24.46
376.997	15.26
377.208	24.55
377.418	36.57
377.629	37.45
377.839	50.68
378.049	51.21
378.26	40.46
378.47	32.95
378.68	33
378.89	14.31
379.101	16.18
379.311	28.66
379.521	20.86
379.732	23.17
379.942	34.13
380.152	17.99
380.362	17.79
380.572	22.51
380.783	16.81
380.993	13.81
381.203	22.93
381.413	17.86
381.623	14.27
381.833	17.78
382.043	15.63
382.253	19.01
382.463	24.68
382.674	28.45
382.884	14.26
383.094	8.13
383.304	-2.01
383.514	0.49
383.724	-5.17
383.934	12.67
384.144	14.52
384.353	16.8
384.563	9.9
384.773	11.34
384.983	-1.78
385.193	2.22
385.403	6.5
385.613	4.35
385.823	4.42
386.033	7.75
386.242	6.54
386.452	-0.05
386.662	1.28
386.872	0.77
387.082	9.24
387.291	2.17
387.501	5.79
387.711	7.96
387.921	6.54
388.13	2.24
388.34	7.13
388.55	9.56
388.759	7.96
388.969	8.52
389.179	8.73
389.388	11.18
389.598	7.9
389.807	9.49
390.017	11.85
390.227	10.91
390.436	8.21
390.646	7.85
390.855	7.28
391.065	5.32
391.274	6.37
391.484	7.69
391.693	8.41
391.903	7.51
392.112	8.3
392.322	6.31
392.531	4.69
392.74	5.17
392.95	5.22
393.159	4.91
393.369	6.16
393.578	7.46
393.787	8.01
393.997	8.27
394.206	8.45
394.415	8.76
394.625	9.76
394.834	8.92
395.043	7.51
395.252	7.48
395.462	7.23
395.671	5.99
395.88	6.48
396.089	7.47
396.298	7.46
396.508	7.38
396.717	6.97
396.926	6.93
397.135	6.85
397.344	6.29
397.553	6.46
397.762	7.14
397.971	6.79
398.181	6.44
398.39	6.93
398.599	6.89
398.808	6.65
399.017	6.19
399.226	6.33
399.435	6.63
399.644	6.29
399.853	6.37
400.062	7.04
400.27	7.13
400.479	6.6
400.688	6.88
400.897	7.09
401.106	6.8
401.315	6.76
401.524	6.82
401.733	6.77
401.941	6.54
402.15	6.62
402.359	6.46
402.568	6.52
402.777	6.45
402.985	6.5
403.194	6.41
403.403	6.67
403.612	6.59
403.82	6.5
404.029	6.17
404.238	6.3
404.446	6.1
404.655	6.13
404.864	6.17
405.072	6.36
405.281	6.34
405.489	6.39
405.698	6.53
405.906	6.43
406.115	6.37
406.324	6.32
406.532	6.23
406.741	6.11
406.949	6.06
407.158	6.14
407.366	6.18
407.574	6.27
407.783	6.18
407.991	6.37
408.2	6.31
408.408	6.32
408.617	6.41
408.825	6.49
409.033	6.4
409.242	6.43
409.45	6.3
409.658	6
409.867	5.97
410.075	5.96
410.283	5.92
410.491	5.82
410.7	6.08
410.908	5.97
411.116	5.93
411.324	5.95
411.533	5.95
411.741	5.86
411.949	5.97
412.157	5.94
412.365	5.87
412.573	5.85
412.781	5.85
412.99	5.81
413.198	5.96
413.406	6.11
413.614	6.15
413.822	6.16
414.03	6.18
414.238	6.01
414.446	5.9
414.654	5.95
414.862	5.83
415.07	5.72
415.278	5.77
415.486	5.59
415.694	5.47
415.902	5.41
416.109	5.4
416.317	5.6
416.525	5.81
416.733	5.86
416.941	5.97
417.149	6.09
417.357	5.76
417.564	5.57
417.772	5.52
417.98	5.46
418.188	5.38
418.395	5.37
418.603	5.36
418.811	5.32
419.019	5.35
419.226	5.28
419.434	5.37
419.642	5.51
419.849	5.44
420.057	5.26
420.265	5.32
420.472	5.17
420.68	4.9
420.887	4.98
421.095	5.15
421.302	5.06
421.51	5.15
421.717	5.33
421.925	5.32
422.132	5.19
422.34	5.21
422.547	5.16
422.755	5.15
422.962	5.23
423.17	5.46
423.377	5.43
423.585	5.49
423.792	5.5
423.999	5.43
424.207	5.22
424.414	5.08
424.621	5.22
424.829	5.31
425.036	5.33
425.243	5.47
425.451	5.59
425.658	5.47
425.865	5.21
426.072	5.11
426.28	4.95
426.487	4.96
426.694	4.84
426.901	4.79
427.108	4.9
427.315	4.88
427.523	4.86
427.73	4.89
427.937	5.06
428.144	5.13
428.351	5.18
428.558	5.26
428.765	5.12
428.972	5.11
429.179	4.99
429.386	5.06
429.593	5.17
429.8	5.35
430.007	5.27
430.214	5.3
430.421	5.33
430.628	5.17
430.835	5.18
431.042	5.27
431.249	5.21
431.456	5.16
431.662	5.3
431.869	5.37
432.076	5.4
432.283	5.65
432.49	5.59
432.697	5.56
432.903	5.53
433.11	5.42
433.317	5.18
433.524	5.32
433.73	5.34
433.937	5.18
434.144	5.18
434.35	5.27
434.557	5.2
434.764	5.13
434.97	5.12
435.177	5.33
435.384	5.1
435.59	5.11
435.797	5.12
436.003	5.2
436.21	4.9
436.416	5.12
436.623	5.12
436.829	5.17
437.036	5.18
437.242	5.42
437.449	5.49
437.655	5.46
437.862	5.55
438.068	5.59
438.275	5.59
438.481	5.56
438.687	5.41
438.894	5.37
439.1	5.26
439.307	5.33
439.513	5.29
439.719	5.51
439.926	5.49
440.132	5.61
440.338	5.56
440.544	5.54
440.751	5.57
440.957	5.56
441.163	5.64
441.369	5.64
441.575	5.64
441.782	5.64
441.988	5.53
442.194	5.46
442.4	5.49
442.606	5.53
442.812	5.49
443.018	5.57
443.224	5.51
443.431	5.49
443.637	5.46
443.843	5.34
444.049	5.31
444.255	5.35
444.461	5.3
444.667	5.26
444.873	5.33
445.079	5.25
445.284	5.31
445.49	5.33
445.696	5.45
445.902	5.49
446.108	5.57
446.314	5.46
446.52	5.36
446.726	5.36
446.931	5.34
447.137	5.29
447.343	5.3
447.549	5.33
447.755	5.32
447.96	5.38
448.166	5.51
448.372	5.51
448.578	5.5
448.783	5.54
448.989	5.51
449.195	5.56
449.4	5.69
449.606	5.82
449.812	5.86
450.017	5.93
450.223	5.89
450.428	5.9
450.634	5.92
450.84	5.84
451.045	5.78
451.251	5.7
451.456	5.7
451.662	5.71
451.867	5.72
452.073	5.69
452.278	5.81
452.483	5.74
452.689	5.67
452.894	5.78
453.1	5.83
453.305	5.86
453.51	5.91
453.716	5.94
453.921	5.9
454.127	5.93
454.332	5.9
454.537	5.99
454.742	5.96
454.948	5.89
455.153	5.85
455.358	5.8
455.563	5.73
455.769	5.71
455.974	5.81
456.179	5.86
456.384	5.84
456.589	5.87
456.795	6.05
457	5.97
457.205	5.97
457.41	6.1
457.615	6.12
457.82	6
458.025	6.02
458.23	6.04
458.435	5.99
458.64	5.99
458.845	6.1
459.05	6.1
459.255	6.07
459.46	6.09
459.665	6.2
459.87	6.16
460.075	6.25
460.28	6.27
460.485	6.31
460.69	6.18
460.895	6.16
461.099	6.05
461.304	6.12
461.509	6.01
461.714	6.07
461.919	6.18
462.123	6.35
462.328	6.35
462.533	6.55
462.738	6.64
462.942	6.56
463.147	6.49
463.352	6.55
463.556	6.4
463.761	6.25
463.966	6.26
464.17	6.22
464.375	6.17
464.58	6.21
464.784	6.28
464.989	6.39
465.193	6.34
465.398	6.46
465.602	6.65
465.807	6.85
466.011	6.89
466.216	6.97
466.42	6.88
466.625	6.78
466.829	6.54
467.034	6.4
467.238	6.45
467.443	6.41
467.647	6.39
467.851	6.48
