Data from Ofav_SP_Phys_6JQ16_Reflection_1.txt Node
Date: Thu Aug 05 17:54:04 EDT 2021
User: Adam
Spectrometer: FLMT01687
Trigger mode: 0
Integration Time (sec): 8.000000E-1
Scans to average: 2
Electric dark correction enabled: true
Nonlinearity correction enabled: false
Boxcar width: 2
XAxis mode: Wavelengths
Number of Pixels in Spectrum: 3648
>>>>>Begin Spectral Data<<<<<
179.494	687.69
179.716	834.24
179.937	672.51
180.158	794.44
180.38	1754.92
180.601	-826.81
180.823	-54.62
181.044	44.13
181.265	44.17
181.486	-193.96
181.708	234.23
181.929	-117.27
182.15	-112.24
182.372	65.65
182.593	-31.05
182.814	-48.18
183.035	0.09
183.257	495.73
183.478	-382.71
183.699	339.51
183.92	139.89
184.141	-791.48
184.363	610.27
184.584	15.64
184.805	-5.81
185.026	62.62
185.247	84.86
185.468	65.22
185.689	73.55
185.91	60.4
186.132	-66.51
186.353	-87.42
186.574	-207.42
186.795	-229.51
187.016	-199.95
187.237	-92.73
187.458	-396.52
187.679	-39.41
187.9	-13.83
188.121	-16.02
188.342	-27.45
188.563	14.32
188.784	20.09
189.005	-50.53
189.226	32.91
189.447	82.01
189.667	106.85
189.888	252.19
190.109	196.21
190.33	122.31
190.551	67.17
190.772	104.61
190.993	77.61
191.214	72.61
191.434	56.72
191.655	53.51
191.876	48.86
192.097	28.75
192.318	41.26
192.538	55.03
192.759	102.41
192.98	64.78
193.201	242.98
193.421	114.84
193.642	79.62
193.863	20.18
194.083	21.98
194.304	12.64
194.525	9.36
194.745	21.15
194.966	39.97
195.187	51.56
195.407	74.14
195.628	32.77
195.848	34.26
196.069	38.08
196.29	29.28
196.51	52.17
196.731	58.47
196.951	54
197.172	59.25
197.392	79.28
197.613	56.77
197.833	47.88
198.054	33.75
198.274	17.39
198.495	5.28
198.715	14.99
198.936	-29.69
199.156	36.58
199.377	39.33
199.597	35.78
199.817	30.68
200.038	35.28
200.258	40.45
200.479	33.2
200.699	21
200.919	4.52
201.14	-39.42
201.36	-100.55
201.58	-70.87
201.801	-150.35
202.021	-79.92
202.241	1.61
202.461	-4.9
202.682	-35.96
202.902	-90.84
203.122	-223.9
203.342	-37.05
203.563	-22.4
203.783	26.21
204.003	61.74
204.223	47.06
204.443	24.22
204.663	46.74
204.884	29.45
205.104	34.15
205.324	44.17
205.544	40.79
205.764	36.4
205.984	43.37
206.204	16.04
206.424	14.78
206.644	6.03
206.864	-11.33
207.084	-62.18
207.304	18.27
207.525	-7.6
207.745	42.3
207.964	43.32
208.184	73.64
208.404	8.82
208.624	12.58
208.844	-48.38
209.064	-34.03
209.284	6.45
209.504	-6.82
209.724	-18.74
209.944	-17.29
210.164	-34.11
210.384	-6.6
210.604	-9.45
210.823	24.61
211.043	21.21
211.263	32.01
211.483	22.99
211.703	34.29
211.922	10.84
212.142	41.98
212.362	24.46
212.582	28.37
212.801	12.35
213.021	38.06
213.241	34.72
213.461	17.57
213.68	24.94
213.9	27.76
214.12	-10.31
214.339	-11.2
214.559	26.44
214.779	-14.13
214.998	-5.36
215.218	17.07
215.438	32.71
215.657	114.51
215.877	144.56
216.096	76.37
216.316	87.13
216.535	47.95
216.755	-127.13
216.974	-296.83
217.194	4.89
217.413	23.86
217.633	14.81
217.852	30.61
218.072	24.2
218.291	-12.42
218.511	-14
218.73	-12.77
218.95	-31.26
219.169	-48.63
219.389	25.37
219.608	-17.42
219.827	6.53
220.047	31.47
220.266	43.8
220.485	19.03
220.705	48.5
220.924	23.93
221.143	5.52
221.363	-11.83
221.582	-23.84
221.801	-66.68
222.021	12.49
222.24	25.47
222.459	68.54
222.678	71.45
222.897	81.58
223.117	38.07
223.336	41.76
223.555	23.45
223.774	-18.24
223.993	-13.46
224.213	19.34
224.432	9.84
224.651	25.7
224.87	49.1
225.089	63.73
225.308	54.79
225.527	35.19
225.746	1.95
225.965	-7.9
226.184	-28.36
226.404	-11.24
226.623	-30.81
226.842	12.2
227.061	31.29
227.28	41.04
227.499	45
227.718	35.02
227.936	17.21
228.155	2.8
228.374	16.44
228.593	37.34
228.812	70.74
229.031	78.15
229.25	87.98
229.469	80.5
229.688	57.95
229.907	30.75
230.125	8.17
230.344	-12.32
230.563	-30.55
230.782	-88.95
231.001	-77.24
231.22	17.95
231.438	62.81
231.657	35.85
231.876	19.06
232.095	27.86
232.313	-20.05
232.532	-41.08
232.751	-3.45
232.969	15.77
233.188	18.36
233.407	25.5
233.625	59.99
233.844	5.23
234.063	19.67
234.281	37.2
234.5	54.21
234.719	42.14
234.937	43.86
235.156	27.05
235.374	-2.71
235.593	-22.34
235.811	-26.85
236.03	3.1
236.249	-6.51
236.467	10.27
236.686	-11.56
236.904	6.59
237.123	-11.71
237.341	40.1
237.559	21.12
237.778	46.32
237.996	44.25
238.215	50.58
238.433	30.35
238.652	34.28
238.87	-4.98
239.088	-18.23
239.307	-2.57
239.525	-25.24
239.743	-40.21
239.962	-3.36
240.18	10.97
240.398	-28.09
240.617	-42.57
240.835	-23.42
241.053	-35.47
241.271	-40.8
241.49	-3.69
241.708	-9.16
241.926	15.72
242.144	-35.03
242.363	-55.88
242.581	-30.22
242.799	-39.24
243.017	-64.1
243.235	-32.18
243.453	-25.6
243.672	-48.98
243.89	-19.41
244.108	6.54
244.326	27.28
244.544	54.14
244.762	25.38
244.98	47.48
245.198	45.38
245.416	49.25
245.634	36.54
245.852	81.01
246.07	56.22
246.288	46.63
246.506	44.21
246.724	37.25
246.942	5.62
247.16	-13.58
247.378	-63.86
247.596	-44.42
247.814	-34.11
248.032	-41.58
248.25	-64.95
248.468	-41.74
248.685	-27.98
248.903	-22.94
249.121	-28.95
249.339	-6.38
249.557	-10.85
249.775	-23.5
249.992	-75.04
250.21	-24.88
250.428	-28.89
250.646	-33.38
250.863	1.91
251.081	49.76
251.299	26.14
251.517	36.11
251.734	60.09
251.952	20.06
252.17	28.11
252.387	26.96
252.605	40.12
252.823	27.96
253.04	27.54
253.258	25
253.475	40.57
253.693	26.9
253.911	37.26
254.128	46.04
254.346	37.55
254.563	38.73
254.781	50.85
254.998	40.02
255.216	7.37
255.433	19.08
255.651	21.3
255.868	-49.18
256.086	-46.62
256.303	-16.83
256.521	-57.56
256.738	-67.83
256.956	-102.01
257.173	9.99
257.39	50.84
257.608	46.28
257.825	20.73
258.043	25.24
258.26	17.91
258.477	5.42
258.695	20.68
258.912	31.31
259.129	33.4
259.346	25.37
259.564	31.47
259.781	36.68
259.998	33.52
260.216	36.82
260.433	31.73
260.65	18.46
260.867	-24.68
261.084	17.28
261.302	22.58
261.519	34.82
261.736	49.92
261.953	49.53
262.17	36.23
262.387	68.86
262.604	88.28
262.822	100.45
263.039	78.96
263.256	100.4
263.473	46.08
263.69	48.85
263.907	38.11
264.124	58.66
264.341	29.79
264.558	27.42
264.775	0.72
264.992	15.22
265.209	15.8
265.426	-7.79
265.643	-6.57
265.86	-2.93
266.077	-23.38
266.294	-52.36
266.51	-21.48
266.727	-6.84
266.944	18.81
267.161	24.65
267.378	41.29
267.595	41.52
267.812	33.51
268.028	-2.42
268.245	8.62
268.462	-9.71
268.679	-4.94
268.896	7.27
269.112	6.24
269.329	46.43
269.546	56.17
269.763	50.42
269.979	49.38
270.196	72.36
270.413	39.92
270.629	51.32
270.846	34.93
271.063	42.77
271.279	33.7
271.496	-1.09
271.712	-109.41
271.929	-84.68
272.146	-60.78
272.362	-97.42
272.579	-53.99
272.795	-16.14
273.012	22.47
273.228	15.83
273.445	25.62
273.661	51.65
273.878	24.45
274.094	8.55
274.311	14.48
274.527	8.19
274.744	-8.83
274.96	15.81
275.177	-5.13
275.393	-6.18
275.609	24.89
275.826	36.14
276.042	43.16
276.259	56.39
276.475	43.38
276.691	26.88
276.908	23.74
277.124	42.71
277.34	34.66
277.557	20.28
277.773	3.01
277.989	-7.54
278.205	-34.28
278.422	0.31
278.638	26.31
278.854	51.92
279.07	59.86
279.286	21.79
279.503	13.55
279.719	-7.5
279.935	-16.94
280.151	-22.64
280.367	27.99
280.583	21.76
280.799	46.91
281.016	41.06
281.232	40.21
281.448	19.61
281.664	1.92
281.88	-11.86
282.096	7.03
282.312	16.09
282.528	26.35
282.744	64.79
282.96	64.68
283.176	69.91
283.392	62.98
283.608	77.48
283.824	66.11
284.04	51.25
284.256	33.21
284.471	24.9
284.687	24.32
284.903	21.12
285.119	34.5
285.335	32.18
285.551	23.52
285.767	21.78
285.982	16.15
286.198	-40.25
286.414	-35.36
286.63	10.43
286.846	-9.18
287.061	13.36
287.277	20.77
287.493	44.28
287.709	33.35
287.924	40.82
288.14	41.09
288.356	50.4
288.571	45.84
288.787	48.58
289.003	56.63
289.218	42.71
289.434	21.66
289.65	7
289.865	27.26
290.081	18.37
290.296	30.89
290.512	25.18
290.727	31.95
290.943	18.04
291.159	15.84
291.374	19.09
291.59	27.66
291.805	30.91
292.021	50.15
292.236	60.87
292.451	39.22
292.667	11.98
292.882	-22.29
293.098	-19.33
293.313	5.52
293.529	20.94
293.744	26.38
293.959	21.07
294.175	41.12
294.39	12.69
294.605	1.62
294.821	10.79
295.036	20.78
295.251	14.41
295.467	39.88
295.682	45.27
295.897	41.72
296.112	35.16
296.328	30.98
296.543	27.77
296.758	-3.56
296.973	5.49
297.188	32.94
297.404	24.47
297.619	10.26
297.834	13.07
298.049	-24.83
298.264	-60.14
298.479	-66.34
298.694	-69.99
298.909	-31.7
299.125	16.82
299.34	22.49
299.555	19.41
299.77	48.76
299.985	37.55
300.2	24.9
300.415	27.02
300.63	13.86
300.845	-10.44
301.06	23.15
301.275	17.08
301.49	22.25
301.704	57.73
301.919	43.74
302.134	34.1
302.349	42.79
302.564	23.26
302.779	39.72
302.994	29.64
303.209	33.28
303.423	18.09
303.638	26.27
303.853	5.73
304.068	20.8
304.283	3
304.497	5.52
304.712	10.43
304.927	-5.37
305.142	-13.19
305.356	-4.57
305.571	27.56
305.786	39.36
306	48.15
306.215	65.32
306.43	89.79
306.644	79.84
306.859	69.69
307.074	79.14
307.288	75.32
307.503	58.6
307.717	48.44
307.932	42.58
308.147	37.88
308.361	33.03
308.576	13.18
308.79	9.53
309.005	22.7
309.219	2.94
309.434	-32.29
309.648	-89.59
309.863	-92.25
310.077	-200.41
310.292	-177.58
310.506	-100.45
310.72	-40.24
310.935	-24.61
311.149	-22.58
311.364	16.54
311.578	29.22
311.792	43.21
312.007	23.44
312.221	37.51
312.435	36.15
312.649	27.09
312.864	-7.95
313.078	-12.4
313.292	3.08
313.507	8.94
313.721	5.73
313.935	18.72
314.149	43.6
314.363	35.81
314.578	30.75
314.792	24.05
315.006	36.81
315.22	2.39
315.434	-22.77
315.648	-108.08
315.862	-135.29
316.077	-92.84
316.291	-11.91
316.505	19.68
316.719	43.26
316.933	50.24
317.147	41.74
317.361	18.97
317.575	5.36
317.789	12.6
318.003	9.88
318.217	26.78
318.431	43.56
318.645	58.2
318.859	32.93
319.073	20.93
319.287	-9.82
319.5	4.97
319.714	-7.79
319.928	36.02
320.142	44.36
320.356	45.98
320.57	58.23
320.784	58.23
320.997	-6.47
321.211	-8.01
321.425	-15.05
321.639	-72.06
321.853	-64.91
322.066	-42.56
322.28	-47.25
322.494	-51.39
322.707	-5.52
322.921	4.15
323.135	3.7
323.349	16.69
323.562	20.33
323.776	25.67
323.989	2.41
324.203	7.94
324.417	10.41
324.63	8.47
324.844	-22.48
325.057	-14.23
325.271	-35.11
325.485	-26.47
325.698	-24.89
325.912	-25.92
326.125	-12.04
326.339	9.44
326.552	-26.02
326.766	-23.16
326.979	-0.91
327.193	6.46
327.406	0.17
327.619	31.33
327.833	15.47
328.046	34.76
328.26	36.33
328.473	35.33
328.686	11.25
328.9	-1.3
329.113	-5.41
329.326	-11.46
329.54	4.43
329.753	13.86
329.966	31.08
330.179	22.79
330.393	49.18
330.606	48.57
330.819	37.17
331.032	55.36
331.246	79.24
331.459	30.56
331.672	41.8
331.885	63.44
332.098	63.89
332.311	36.76
332.525	53.48
332.738	39.6
332.951	12.12
333.164	17.68
333.377	20.46
333.59	9.23
333.803	-10.45
334.016	-1.49
334.229	-22.21
334.442	9.65
334.655	28.52
334.868	47.61
335.081	36.52
335.294	55.32
335.507	44.1
335.72	49.45
335.933	44.38
336.146	48.25
336.359	42.31
336.572	41.71
336.785	25.52
336.997	29.97
337.21	55.59
337.423	54.88
337.636	40.34
337.849	49.47
338.062	40.79
338.274	16.19
338.487	15.59
338.7	16.53
338.913	7.15
339.125	2.4
339.338	4.45
339.551	-18.88
339.763	26.59
339.976	42.09
340.189	51.45
340.402	32.87
340.614	39.02
340.827	38.06
341.039	30.84
341.252	26.08
341.465	27.32
341.677	27.13
341.89	-12.5
342.102	-14.29
342.315	-34.7
342.527	1.69
342.74	3.4
342.952	1.58
343.165	36.49
343.377	47.27
343.59	-8.62
343.802	-7.76
344.015	13.64
344.227	-6.04
344.44	5.73
344.652	28.23
344.864	37.75
345.077	49.51
345.289	40.01
345.502	32.04
345.714	29.18
345.926	23.45
346.139	7.08
346.351	16.77
346.563	-8.01
346.775	-5.06
346.988	-37.58
347.2	-19.46
347.412	-45.64
347.624	15.61
347.837	7.15
348.049	18.28
348.261	4.25
348.473	25.43
348.685	48.67
348.897	77.02
349.11	93
349.322	89.57
349.534	68.89
349.746	44.23
349.958	45.2
350.17	43.65
350.382	44.8
350.594	55.12
350.806	51.83
351.018	35.53
351.23	27.97
351.442	38.03
351.654	35.51
351.866	29.87
352.078	21.2
352.29	28.24
352.502	36.29
352.714	16.78
352.926	22.31
353.138	19.38
353.35	20
353.561	13.86
353.773	24.01
353.985	31.33
354.197	50.17
354.409	43.38
354.621	26.27
354.832	39.76
355.044	39.45
355.256	46.95
355.468	51.65
355.679	60.88
355.891	69.44
356.103	57.59
356.314	50.25
356.526	41.22
356.738	42.08
356.949	-6.26
357.161	19.17
357.373	5.11
357.584	23.92
357.796	36.23
358.008	59.09
358.219	42.09
358.431	67.97
358.642	45.28
358.854	52.47
359.065	57.51
359.277	54.38
359.488	42.52
359.7	50.01
359.911	25.77
360.123	11.09
360.334	14.39
360.546	16.84
360.757	14.69
360.969	21.24
361.18	53.1
361.391	43.03
361.603	43.5
361.814	37.09
362.025	69.02
362.237	48.39
362.448	48.58
362.659	59.75
362.871	42.15
363.082	22.65
363.293	10.89
363.504	14.62
363.716	-11.19
363.927	29.99
364.138	22.67
364.349	15.82
364.56	23.21
364.772	26.16
364.983	28.43
365.194	36.78
365.405	50.95
365.616	25.58
365.827	30.37
366.038	27.48
366.25	13.16
366.461	2.05
366.672	9.78
366.883	2.83
367.094	-6.53
367.305	0.81
367.516	17.83
367.727	23.08
367.938	28.53
368.149	19.8
368.36	20.15
368.571	7.61
368.781	-1.81
368.992	-27.84
369.203	9.42
369.414	28.31
369.625	40.16
369.836	29.95
370.047	12.6
370.258	10.79
370.468	7.2
370.679	-4.14
370.89	1.99
371.101	22.98
371.312	24.82
371.522	17.44
371.733	23.65
371.944	24.6
372.155	29.25
372.365	-2.43
372.576	10.79
372.787	17.46
372.997	26.55
373.208	26.97
373.419	68.01
373.629	51.44
373.84	50.59
374.05	45.52
374.261	41.85
374.472	31.87
374.682	30.64
374.893	22.22
375.103	19.67
375.314	26.46
375.524	46.22
375.735	44.01
375.945	58.58
376.156	49.24
376.366	47.24
376.577	35.34
376.787	31.7
376.997	27.43
377.208	38.56
377.418	32.03
377.629	48.4
377.839	58.53
378.049	65.55
378.26	54.27
378.47	60.04
378.68	56.38
378.89	38.79
379.101	19.55
379.311	23.67
379.521	18.78
379.732	18.2
379.942	28.15
380.152	24.3
380.362	26.06
380.572	32.01
380.783	15.4
380.993	16.74
381.203	32.67
381.413	29.2
381.623	24.25
381.833	29.56
382.043	31.03
382.253	21.91
382.463	29.13
382.674	26.29
382.884	19.41
383.094	12.04
383.304	5.26
383.514	-1.58
383.724	-9.73
383.934	-0.34
384.144	-3.99
384.353	-0.31
384.563	4.83
384.773	16.95
384.983	7.13
385.193	16.8
385.403	19.03
385.613	15.87
385.823	11.67
386.033	14.61
386.242	11.78
386.452	10.44
386.662	12.36
386.872	8.79
387.082	13.03
387.291	1.29
387.501	0.81
387.711	-1.78
387.921	-0.41
388.13	-3.1
388.34	6.76
388.55	6.31
388.759	6.66
388.969	5.25
389.179	6.54
389.388	10.07
389.598	11.72
389.807	14.19
390.017	16.42
390.227	12.42
390.436	7.25
390.646	4.42
390.855	-0
391.065	-0.05
391.274	4.4
391.484	4.75
391.693	5.25
391.903	6.36
392.112	7.03
392.322	5.13
392.531	6.27
392.74	6.38
392.95	6.7
393.159	5.83
393.369	6.64
393.578	6.72
393.787	7.18
393.997	6.94
394.206	7.1
394.415	8.12
394.625	8.86
394.834	8.07
395.043	7.76
395.252	8.04
395.462	7.4
395.671	6.48
395.88	8.1
396.089	8.41
396.298	8.76
396.508	8.3
396.717	8.13
396.926	6.82
397.135	6.43
397.344	5.73
397.553	6.51
397.762	7.06
397.971	7.61
398.181	7.49
398.39	7.23
398.599	6.83
398.808	6.61
399.017	6.41
399.226	6.7
399.435	6.87
399.644	6.85
399.853	6.8
400.062	6.86
400.27	6.54
400.479	6.28
400.688	6.21
400.897	6.55
401.106	6.42
401.315	6.57
401.524	6.73
401.733	6.65
401.941	6.32
402.15	6.38
402.359	6.19
402.568	6.06
402.777	6.26
402.985	6.18
403.194	6.03
403.403	6.27
403.612	6.29
403.82	5.94
404.029	5.84
404.238	5.9
404.446	5.73
404.655	5.72
404.864	5.77
405.072	5.72
405.281	5.68
405.489	5.8
405.698	5.91
405.906	5.95
406.115	5.9
406.324	5.93
406.532	5.64
406.741	5.51
406.949	5.27
407.158	5.52
407.366	5.51
407.574	5.73
407.783	5.84
407.991	5.92
408.2	5.68
408.408	5.64
408.617	5.54
408.825	5.47
409.033	5.52
409.242	5.51
409.45	5.4
409.658	5.38
409.867	5.32
410.075	5.45
410.283	5.64
410.491	5.62
410.7	5.76
410.908	5.77
411.116	5.76
411.324	5.6
411.533	5.57
411.741	5.4
411.949	5.39
412.157	5.3
412.365	5.42
412.573	5.36
412.781	5.4
412.99	5.45
413.198	5.53
413.406	5.54
413.614	5.61
413.822	5.52
414.03	5.44
414.238	5.28
414.446	5.38
414.654	5.43
414.862	5.46
415.07	5.37
415.278	5.4
415.486	5.11
415.694	5.19
415.902	5.26
416.109	5.32
416.317	5.39
416.525	5.19
416.733	5.09
416.941	5.14
417.149	5.17
417.357	5.14
417.564	5.04
417.772	4.87
417.98	4.72
418.188	4.57
418.395	4.44
418.603	4.79
418.811	4.85
419.019	4.93
419.226	5.17
419.434	5.23
419.642	5.09
419.849	5.22
420.057	5.14
420.265	4.96
420.472	4.83
420.68	4.89
420.887	4.71
421.095	4.81
421.302	4.79
421.51	4.79
421.717	4.9
421.925	4.93
422.132	4.79
422.34	4.8
422.547	4.95
422.755	4.71
422.962	4.86
423.17	4.9
423.377	4.94
423.585	5.03
423.792	5.17
423.999	5.03
424.207	4.83
424.414	4.46
424.621	4.31
424.829	4.33
425.036	4.38
425.243	4.69
425.451	5.06
425.658	4.99
425.865	5.03
426.072	4.99
426.28	4.68
426.487	4.66
426.694	4.62
426.901	4.62
427.108	4.75
427.315	5.1
427.523	5.08
427.73	5.11
427.937	5.02
428.144	4.81
428.351	4.73
428.558	4.76
428.765	4.67
428.972	4.63
429.179	4.73
429.386	4.76
429.593	4.77
429.8	4.86
430.007	4.79
430.214	4.75
430.421	4.79
430.628	4.71
430.835	4.88
431.042	4.98
431.249	5.08
431.456	4.99
431.662	5.31
431.869	5.43
432.076	5.5
432.283	5.48
432.49	5.4
432.697	5.22
432.903	4.91
433.11	4.75
433.317	4.73
433.524	4.83
433.73	4.8
433.937	4.9
434.144	4.95
434.35	5
434.557	5.11
434.764	5.05
434.97	4.97
435.177	5.17
435.384	4.87
435.59	4.64
435.797	4.73
436.003	4.76
436.21	4.49
436.416	4.69
436.623	4.74
436.829	4.76
437.036	4.68
437.242	4.82
437.449	4.91
437.655	5.02
437.862	5.09
438.068	5.31
438.275	5.39
438.481	5.38
438.687	5.21
438.894	5.24
439.1	5.06
439.307	5.04
439.513	5.03
439.719	5.12
439.926	5.09
440.132	5.29
440.338	5.31
440.544	5.33
440.751	5.48
440.957	5.43
441.163	5.31
441.369	5.3
441.575	5.27
441.782	5.21
441.988	5.21
442.194	5.13
442.4	5.06
442.606	5.08
442.812	5.05
443.018	4.92
443.224	5.04
443.431	5.16
443.637	5.12
443.843	5.06
444.049	5.13
444.255	5.18
444.461	5.12
444.667	5.16
444.873	5.17
445.079	5.15
445.284	5.18
445.49	5.23
445.696	5.24
445.902	5.27
446.108	5.27
446.314	5.16
446.52	5.16
446.726	5.26
446.931	5.29
447.137	5.27
447.343	5.31
447.549	5.24
447.755	5.26
447.96	5.32
448.166	5.32
448.372	5.38
448.578	5.39
448.783	5.39
448.989	5.38
449.195	5.49
449.4	5.48
449.606	5.59
449.812	5.51
450.017	5.58
450.223	5.58
450.428	5.59
450.634	5.56
450.84	5.62
451.045	5.5
451.251	5.46
451.456	5.55
451.662	5.53
451.867	5.57
452.073	5.68
452.278	5.77
452.483	5.72
452.689	5.78
452.894	5.8
453.1	5.84
453.305	5.79
453.51	5.81
453.716	5.88
453.921	5.84
454.127	5.84
454.332	5.8
454.537	5.88
454.742	5.81
454.948	5.79
455.153	5.77
455.358	5.75
455.563	5.74
455.769	5.7
455.974	5.76
456.179	5.68
456.384	5.59
456.589	5.57
456.795	5.66
457	5.6
457.205	5.71
457.41	5.9
457.615	5.93
457.82	5.93
458.025	5.9
458.23	5.88
458.435	5.81
458.64	5.76
458.845	5.91
459.05	5.98
459.255	6
459.46	6.16
459.665	6.26
459.87	6.09
460.075	6.07
460.28	6.11
460.485	6.09
460.69	6.05
460.895	5.95
461.099	6.12
461.304	6.16
461.509	6.16
461.714	6.2
461.919	6.4
462.123	6.38
462.328	6.35
462.533	6.33
462.738	6.44
462.942	6.47
463.147	6.4
463.352	6.4
463.556	6.41
463.761	6.31
463.966	6.3
464.17	6.41
464.375	6.48
464.58	6.45
464.784	6.49
464.989	6.51
465.193	6.37
465.398	6.51
465.602	6.78
465.807	6.95
466.011	7.02
466.216	7.14
