Data from Ofav_SP_Phys_4JQ12_Reflection_2.txt Node
Date: Thu Aug 05 17:52:29 EDT 2021
User: Adam
Spectrometer: FLMT01687
Trigger mode: 0
Integration Time (sec): 8.000000E-1
Scans to average: 2
Electric dark correction enabled: true
Nonlinearity correction enabled: false
Boxcar width: 2
XAxis mode: Wavelengths
Number of Pixels in Spectrum: 3648
>>>>>Begin Spectral Data<<<<<
179.494	687.85
179.716	794.97
179.937	700.75
180.158	820.06
180.38	2022.43
180.601	-945.21
180.823	-156.3
181.044	-22.12
181.265	-32.9
181.486	-150.18
181.708	-310.07
181.929	-8.06
182.15	-115.1
182.372	10.65
182.593	-37.12
182.814	-97.89
183.035	-127.44
183.257	-548.75
183.478	473.9
183.699	-260.79
183.92	-6.88
184.141	-174.89
184.363	567.57
184.584	10.29
184.805	70.57
185.026	57.67
185.247	49.17
185.468	64.58
185.689	51.35
185.91	15.71
186.132	-37.58
186.353	-3.89
186.574	-93.95
186.795	-44.67
187.016	-36.15
187.237	-13.78
187.458	-250.06
187.679	-7.93
187.9	-26.25
188.121	-0.32
188.342	14.63
188.563	50.39
188.784	53.73
189.005	26.9
189.226	65.23
189.447	55.92
189.667	51.41
189.888	266.58
190.109	211.79
190.33	145.18
190.551	145.55
190.772	163.87
190.993	94.87
191.214	72
191.434	60.62
191.655	31.19
191.876	41.62
192.097	41.63
192.318	36.51
192.538	21.97
192.759	85.48
192.98	48.32
193.201	-113.75
193.421	-29.51
193.642	-15.28
193.863	-58.18
194.083	-12.55
194.304	22.39
194.525	-4.69
194.745	-2.48
194.966	15.09
195.187	10.48
195.407	-9.74
195.628	-1.23
195.848	42.6
196.069	51.63
196.29	58.46
196.51	65.18
196.731	58.4
196.951	62.88
197.172	68.61
197.392	63.36
197.613	62.5
197.833	89.16
198.054	48.9
198.274	20.69
198.495	24.16
198.715	8.41
198.936	-86.07
199.156	8.12
199.377	14.59
199.597	30.21
199.817	37.26
200.038	28.58
200.258	28.39
200.479	18.73
200.699	2.6
200.919	-7.05
201.14	-39.26
201.36	-57.63
201.58	-8.95
201.801	-96.03
202.021	-84.96
202.241	10.88
202.461	-48.4
202.682	-80.1
202.902	-48.18
203.122	-90.86
203.342	20.21
203.563	-0.91
203.783	12.83
204.003	10.29
204.223	23.41
204.443	-38.08
204.663	-30.55
204.884	-0.56
205.104	-21.45
205.324	-22.88
205.544	2.14
205.764	-0.98
205.984	-41.07
206.204	-52.13
206.424	-26.56
206.644	-41.62
206.864	-23.42
207.084	-48.48
207.304	31.11
207.525	-5.79
207.745	66.43
207.964	70.57
208.184	99.96
208.404	17.9
208.624	13.17
208.844	-52.12
209.064	-38.69
209.284	-24.32
209.504	-33.32
209.724	2.65
209.944	-22.44
210.164	-29.73
210.384	-5.86
210.604	-2.67
210.823	2.07
211.043	23.56
211.263	24.69
211.483	31.73
211.703	51.26
211.922	52.6
212.142	63.68
212.362	64.51
212.582	10.59
212.801	50.88
213.021	51.05
213.241	18.16
213.461	-16.48
213.68	-7.11
213.9	-39.47
214.12	-89.69
214.339	-67.2
214.559	-13.23
214.779	-3
214.998	-18.84
215.218	14.86
215.438	28.59
215.657	66.16
215.877	105.73
216.096	88.32
216.316	58.85
216.535	27.65
216.755	-107.5
216.974	-430.74
217.194	-92.17
217.413	-4.75
217.633	22.37
217.852	35.05
218.072	38.44
218.291	20.09
218.511	28.33
218.73	-14.41
218.95	-35.89
219.169	-41.99
219.389	17.37
219.608	-34.56
219.827	-2.94
220.047	37.29
220.266	42.63
220.485	29.56
220.705	44.48
220.924	16.8
221.143	-16.15
221.363	-50.23
221.582	-71.61
221.801	-100.39
222.021	-17.38
222.24	18.81
222.459	31.95
222.678	44.06
222.897	41.45
223.117	49.88
223.336	16.76
223.555	13.52
223.774	-9.98
223.993	-40.1
224.213	-21.43
224.432	-53.42
224.651	-27.55
224.87	-17.75
225.089	-11.91
225.308	-94.19
225.527	-21.59
225.746	-40.74
225.965	-40.36
226.184	7.41
226.404	35.15
226.623	-19.61
226.842	0.65
227.061	12.03
227.28	9.21
227.499	12.84
227.718	28.14
227.936	28.68
228.155	23.62
228.374	20.18
228.593	4.16
228.812	10.36
229.031	16.16
229.25	15.81
229.469	10.44
229.688	12.63
229.907	4.48
230.125	-9.21
230.344	-9.96
230.563	-3.99
230.782	-22.35
231.001	-28.52
231.22	-8.62
231.438	-9.24
231.657	-15.12
231.876	-37.65
232.095	-3.85
232.313	3.98
232.532	2.91
232.751	23.58
232.969	23.12
233.188	6.89
233.407	-8.71
233.625	8.82
233.844	-41.86
234.063	-31.03
234.281	-5.5
234.5	6.21
234.719	1.32
234.937	8.82
235.156	29.76
235.374	10.33
235.593	-3.96
235.811	-16.57
236.03	-6.51
236.249	-12.2
236.467	-10.91
236.686	-29.48
236.904	-26.29
237.123	-34.27
237.341	0.72
237.559	-28.31
237.778	4.77
237.996	26.68
238.215	36.19
238.433	21.98
238.652	52.09
238.87	16.38
239.088	-23.21
239.307	-18.33
239.525	-17.05
239.743	-44.97
239.962	-21.43
240.18	-11.19
240.398	-2.14
240.617	-28.04
240.835	40.02
241.053	35
241.271	22.36
241.49	41.03
241.708	23.85
241.926	9.06
242.144	-31.83
242.363	-54.93
242.581	-85.95
242.799	-93.79
243.017	-133.02
243.235	-145.71
243.453	-54.07
243.672	-38.59
243.89	-14.54
244.108	43.78
244.326	49.71
244.544	50.95
244.762	38.85
244.98	31.61
245.198	-1.95
245.416	25.81
245.634	14.07
245.852	-16.46
246.07	6.06
246.288	-4.01
246.506	-86.19
246.724	-52.1
246.942	-55.14
247.16	-71.64
247.378	-181.33
247.596	-94.47
247.814	-46.77
248.032	-35.1
248.25	-92.34
248.468	-30.31
248.685	6.58
248.903	-3.05
249.121	-5.42
249.339	31.68
249.557	23.9
249.775	-3.91
249.992	-31.45
250.21	-9.84
250.428	-18.44
250.646	-34.55
250.863	-14.2
251.081	-5.79
251.299	-14.93
251.517	8.73
251.734	41.93
251.952	10.48
252.17	12.82
252.387	3.91
252.605	-20.68
252.823	-6.48
253.04	1.44
253.258	11.83
253.475	21.59
253.693	39.43
253.911	37.58
254.128	38.7
254.346	38.76
254.563	48.6
254.781	31.41
254.998	22.23
255.216	-11.25
255.433	-14.63
255.651	-64.36
255.868	-44.08
256.086	-67.75
256.303	-43.43
256.521	-58.13
256.738	-95.21
256.956	-170.57
257.173	-2.03
257.39	49.75
257.608	27.69
257.825	27.64
258.043	25.49
258.26	0.91
258.477	5.15
258.695	19.06
258.912	27.78
259.129	40.85
259.346	43.41
259.564	19.66
259.781	17.1
259.998	16.59
260.216	17.84
260.433	40.38
260.65	52.5
260.867	69.06
261.084	72.48
261.302	51.27
261.519	34.19
261.736	49.84
261.953	42.9
262.17	35.97
262.387	73.96
262.604	73.54
262.822	92.82
263.039	85.31
263.256	121.39
263.473	77.92
263.69	92.88
263.907	54.27
264.124	49.79
264.341	7.23
264.558	6.04
264.775	-34.64
264.992	9.21
265.209	10.4
265.426	17.78
265.643	2.68
265.86	6.9
266.077	-26.68
266.294	-27.31
266.51	-31.88
266.727	-3.41
266.944	29.11
267.161	49.46
267.378	37.51
267.595	31.1
267.812	2.02
268.028	-20.16
268.245	-20.57
268.462	-22.21
268.679	-9.96
268.896	1.08
269.112	-9.99
269.329	11.88
269.546	23.48
269.763	24.18
269.979	36.22
270.196	59.24
270.413	32.85
270.629	21.25
270.846	23.34
271.063	24.07
271.279	-20.13
271.496	-63.75
271.712	-116.74
271.929	-128.17
272.146	-86.29
272.362	-98.09
272.579	-39.24
272.795	6.37
273.012	31.51
273.228	7.37
273.445	29.76
273.661	46.46
273.878	9.52
274.094	-16.03
274.311	-1.96
274.527	-39.91
274.744	-73.23
274.96	-25.36
275.177	-13.82
275.393	-32.79
275.609	-12.12
275.826	-15.61
276.042	-12.29
276.259	-20.52
276.475	-13.94
276.691	-0.24
276.908	5.61
277.124	24.74
277.34	33.57
277.557	8.63
277.773	2.65
277.989	-2.86
278.205	-32.58
278.422	-40.16
278.638	22.01
278.854	39.9
279.07	37.81
279.286	2.24
279.503	0.64
279.719	-28.84
279.935	-18.73
280.151	-2.56
280.367	38.25
280.583	22.47
280.799	43.44
281.016	29.39
281.232	24.17
281.448	-4.02
281.664	21.23
281.88	19.61
282.096	21.02
282.312	21.53
282.528	21.12
282.744	34.07
282.96	31.98
283.176	34.86
283.392	40.54
283.608	53.24
283.824	45.3
284.04	53.39
284.256	46.7
284.471	38.24
284.687	33.47
284.903	31.53
285.119	26.2
285.335	4.14
285.551	-16.01
285.767	-35.44
285.982	-58.33
286.198	-129.97
286.414	-82.89
286.63	-52.13
286.846	-11.01
287.061	-9.47
287.277	-1.01
287.493	40.42
287.709	46.99
287.924	45.65
288.14	41.19
288.356	56.14
288.571	41.82
288.787	41.64
289.003	20.05
289.218	-8.42
289.434	-63.95
289.65	-75.96
289.865	-56.15
290.081	-29.31
290.296	-17.79
290.512	-13.03
290.727	7.33
290.943	11.3
291.159	21.74
291.374	47.35
291.59	41.14
291.805	31.01
292.021	64.74
292.236	54.46
292.451	-4.29
292.667	0.75
292.882	-12.74
293.098	-35.99
293.313	-14.66
293.529	13.54
293.744	22.58
293.959	26.55
294.175	40.82
294.39	28.3
294.605	9.33
294.821	23.72
295.036	14.11
295.251	15.25
295.467	27.65
295.682	32.99
295.897	31.15
296.112	38.31
296.328	35.31
296.543	37.89
296.758	10.75
296.973	17.75
297.188	23.65
297.404	20.27
297.619	18.73
297.834	22.93
298.049	-17.86
298.264	-29.93
298.479	-44.38
298.694	-41.33
298.909	-17.39
299.125	6.48
299.34	18.54
299.555	8.25
299.77	14.73
299.985	19.13
300.2	34.39
300.415	14.14
300.63	12.96
300.845	0.33
301.06	-1.27
301.275	-18.81
301.49	0.63
301.704	-6.54
301.919	9.66
302.134	0.92
302.349	7.75
302.564	-6.14
302.779	-0.08
302.994	-4
303.209	10.74
303.423	-1.56
303.638	4.1
303.853	0.96
304.068	0.09
304.283	0.75
304.497	-5.63
304.712	-30.71
304.927	-36.7
305.142	-30.03
305.356	-38.95
305.571	7.01
305.786	35.32
306	41.07
306.215	60.4
306.43	68.46
306.644	63.93
306.859	46.84
307.074	47.14
307.288	25.52
307.503	39.71
307.717	22.14
307.932	2.16
308.147	17.9
308.361	21.54
308.576	4.12
308.79	-6.21
309.005	23.53
309.219	-23.79
309.434	-69.51
309.648	-115.29
309.863	-130.59
310.077	-203.25
310.292	-131.39
310.506	-86.71
310.72	-29.94
310.935	-10.81
311.149	2.82
311.364	28.66
311.578	50.47
311.792	54.66
312.007	60.44
312.221	54.51
312.435	69.95
312.649	51.79
312.864	19.48
313.078	24.28
313.292	40.38
313.507	37.09
313.721	47.91
313.935	61.51
314.149	39.85
314.363	33.33
314.578	12.76
314.792	-2.64
315.006	-8.77
315.22	16.52
315.434	2.54
315.648	-26.55
315.862	-0.3
316.077	11.49
316.291	5.46
316.505	50.23
316.719	53.56
316.933	32.13
317.147	23.85
317.361	16.85
317.575	-22.64
317.789	-8.53
318.003	-27.29
318.217	18.27
318.431	55.41
318.645	77.06
318.859	51.44
319.073	56.55
319.287	10.27
319.5	-7.25
319.714	-29.09
319.928	19.05
320.142	17.14
320.356	29.02
320.57	26.85
320.784	25.64
320.997	-12.72
321.211	6.46
321.425	-10.48
321.639	-45.89
321.853	-44.53
322.066	-35.89
322.28	-45.11
322.494	-43.41
322.707	-23.75
322.921	-16.46
323.135	-12.04
323.349	-9.21
323.562	-22.58
323.776	1.81
323.989	-18.34
324.203	-21.24
324.417	1.8
324.63	0.61
324.844	-33.2
325.057	-27.18
325.271	-37.48
325.485	-25.07
325.698	-16.49
325.912	4.02
326.125	15.15
326.339	42.13
326.552	15.84
326.766	25.61
326.979	26.03
327.193	31.36
327.406	11.01
327.619	31.67
327.833	1.53
328.046	5.41
328.26	-20.49
328.473	-42.14
328.686	-33.41
328.9	-2.43
329.113	2.91
329.326	12.4
329.54	30.53
329.753	41.74
329.966	41.37
330.179	43.65
330.393	53.23
330.606	44.22
330.819	34.5
331.032	45.66
331.246	58.55
331.459	42.88
331.672	71.64
331.885	59.15
332.098	54.74
332.311	51.54
332.525	37.32
332.738	16.24
332.951	14.72
333.164	29.22
333.377	15.27
333.59	28.24
333.803	18.19
334.016	1.1
334.229	-33.67
334.442	-2.65
334.655	13.74
334.868	32.86
335.081	45.45
335.294	55.07
335.507	60.16
335.72	67.96
335.933	64.15
336.146	59.53
336.359	55.7
336.572	39.2
336.785	11.83
336.997	5.15
337.21	30.97
337.423	28.11
337.636	43.01
337.849	68.47
338.062	61.73
338.274	35.13
338.487	21.01
338.7	8.86
338.913	-7.28
339.125	11.2
339.338	-4.2
339.551	-0.96
339.763	16.18
339.976	8.84
340.189	5.63
340.402	5.01
340.614	15.95
340.827	30.22
341.039	35.48
341.252	33.38
341.465	27.97
341.677	29.55
341.89	-10.64
342.102	-0.74
342.315	-3.24
342.527	13.95
342.74	9.69
342.952	15.62
343.165	26.06
343.377	38.53
343.59	27.99
343.802	26.14
344.015	25.79
344.227	2.93
344.44	8.61
344.652	22.3
344.864	29.83
345.077	27.24
345.289	16.97
345.502	3.67
345.714	-2.84
345.926	-3.32
346.139	4.57
346.351	0.94
346.563	-18.43
346.775	-19.81
346.988	-63.56
347.2	-48.23
347.412	-37.55
347.624	15.48
347.837	5.44
348.049	16.68
348.261	-7.02
348.473	10.6
348.685	12.85
348.897	17.54
349.11	15.14
349.322	8.11
349.534	-8
349.746	-4.29
349.958	0.99
350.17	17.19
350.382	17.91
350.594	10.28
350.806	5.79
351.018	17.49
351.23	17.25
351.442	29.85
351.654	32.09
351.866	27.21
352.078	12.53
352.29	-1
352.502	8.26
352.714	-12.19
352.926	3.01
353.138	1.62
353.35	15.04
353.561	7.57
353.773	12.79
353.985	14.02
354.197	29.68
354.409	33.11
354.621	31.46
354.832	42.39
355.044	40.38
355.256	47.07
355.468	34.48
355.679	47.91
355.891	50.66
356.103	44.93
356.314	43.19
356.526	44.84
356.738	24.97
356.949	5.43
357.161	30.95
357.373	4.43
357.584	-1.2
357.796	-0.34
358.008	16.42
358.219	-20.17
358.431	24.24
358.642	25.65
358.854	25.83
359.065	36.98
359.277	30.32
359.488	8.6
359.7	23.47
359.911	10.77
360.123	3.81
360.334	11.56
360.546	6.17
360.757	-6.57
360.969	16.85
361.18	37.43
361.391	44.88
361.603	64.94
361.814	64.99
362.025	70.64
362.237	44.66
362.448	37.29
362.659	40.98
362.871	33.07
363.082	16.57
363.293	19.42
363.504	13.88
363.716	10.18
363.927	36.31
364.138	23
364.349	-1.27
364.56	10.29
364.772	0.09
364.983	-11.94
365.194	-8.22
365.405	20.18
365.616	10.75
365.827	27.86
366.038	26.83
366.25	38.39
366.461	21.83
366.672	22.64
366.883	6.01
367.094	0.37
367.305	3.22
367.516	15.22
367.727	21.17
367.938	34.91
368.149	32.22
368.36	39.67
368.571	55.05
368.781	37.82
368.992	-0.49
369.203	-0.35
369.414	-24.17
369.625	-24.12
369.836	-26.13
370.047	-15.12
370.258	-4.42
370.468	-2.19
370.679	0.31
370.89	6.18
371.101	9.95
371.312	-5.78
371.522	5.22
371.733	13.69
371.944	15.69
372.155	27.27
372.365	24.76
372.576	22.61
372.787	17.53
372.997	33.85
373.208	25.76
373.419	39.84
373.629	41.09
373.84	44.19
374.05	22.76
374.261	21.28
374.472	13.43
374.682	-3.76
374.893	0.9
375.103	1.18
375.314	7.78
375.524	21.3
375.735	32.2
375.945	32.78
376.156	36.72
376.366	32.69
376.577	36.28
376.787	29.67
376.997	32.5
377.208	38.01
377.418	37.17
377.629	32.37
377.839	48.29
378.049	39.63
378.26	29.58
378.47	33.33
378.68	33.41
378.89	16.15
379.101	17.1
379.311	16.59
379.521	11.56
379.732	16.92
379.942	23.71
380.152	22.66
380.362	27.03
380.572	29.79
380.783	14.48
380.993	10.16
381.203	10.5
381.413	5.38
381.623	2.31
381.833	4.6
382.043	4.34
382.253	7.32
382.463	13.49
382.674	15.41
382.884	13.34
383.094	6.76
383.304	-3
383.514	-10.79
383.724	-16
383.934	-9.05
384.144	-4.1
384.353	-0.64
384.563	-2.09
384.773	2.19
384.983	-9.12
385.193	-2.94
385.403	2.15
385.613	7.44
385.823	1.65
386.033	3.37
386.242	0.43
386.452	-0.81
386.662	3.03
386.872	7.63
387.082	12.97
387.291	-1.66
387.501	-0.7
387.711	-2.75
387.921	-4.59
388.13	-5.6
388.34	5.45
388.55	3.54
388.759	1.79
388.969	5.04
389.179	4.17
389.388	4.88
389.598	6.19
389.807	10.02
390.017	7
390.227	8.11
390.436	8.21
390.646	4.82
390.855	1.39
391.065	0.89
391.274	1.05
391.484	0.72
391.693	1.71
391.903	3.17
392.112	5.5
392.322	4.77
392.531	4.52
392.74	4.37
392.95	1.91
393.159	1.11
393.369	1.58
393.578	1.69
393.787	3.34
393.997	5.78
394.206	5.11
394.415	5.04
394.625	6.08
394.834	5.17
395.043	4.2
395.252	5.28
395.462	4.71
395.671	3.88
395.88	4.49
396.089	4.72
396.298	4.58
396.508	5.19
396.717	4.45
396.926	3.82
397.135	3.29
397.344	2.75
397.553	2.64
397.762	2.92
397.971	2.78
398.181	2.61
398.39	2.33
398.599	2.27
398.808	2.32
399.017	2.32
399.226	2.73
399.435	3.07
399.644	3.28
399.853	3.56
400.062	3.75
400.27	3.36
400.479	3.09
400.688	2.75
400.897	2.86
401.106	2.65
401.315	2.61
401.524	2.9
401.733	3.13
401.941	2.93
402.15	2.81
402.359	2.84
402.568	2.64
402.777	2.59
402.985	2.54
403.194	2.5
403.403	2.5
403.612	2.5
403.82	2.51
404.029	2.37
404.238	2.49
404.446	2.62
404.655	2.66
404.864	2.57
405.072	2.57
405.281	2.55
405.489	2.6
405.698	2.81
405.906	2.73
406.115	2.78
406.324	2.91
406.532	2.75
406.741	2.55
406.949	2.37
407.158	2.37
407.366	2.2
407.574	2.33
407.783	2.27
407.991	2.46
408.2	2.44
408.408	2.31
408.617	2.35
408.825	2.35
409.033	2.34
409.242	2.29
409.45	2.29
409.658	2.06
409.867	2.08
410.075	1.98
410.283	2.08
410.491	2.21
410.7	2.26
410.908	2.19
411.116	2.21
411.324	2.13
411.533	2.1
411.741	1.97
411.949	2.01
412.157	2.05
412.365	2.12
412.573	2.05
412.781	2.23
412.99	2.13
413.198	2.36
413.406	2.37
413.614	2.4
413.822	2.44
414.03	2.51
414.238	2.29
414.446	2.32
414.654	2.34
414.862	2.22
415.07	2.26
415.278	2.19
415.486	2.01
415.694	1.97
415.902	1.95
416.109	1.77
416.317	1.89
416.525	1.87
416.733	1.9
416.941	2.07
417.149	2.27
417.357	2.15
417.564	2.04
417.772	1.99
417.98	1.79
418.188	1.63
418.395	1.48
418.603	1.7
418.811	1.67
419.019	1.9
419.226	2.03
419.434	2.13
419.642	2.02
419.849	2.11
420.057	1.89
420.265	1.85
420.472	1.76
420.68	1.75
420.887	1.74
421.095	1.77
421.302	1.67
421.51	1.78
421.717	1.88
421.925	1.76
422.132	1.8
422.34	1.81
422.547	1.78
422.755	1.69
422.962	1.84
423.17	1.79
423.377	1.72
423.585	1.87
423.792	1.83
423.999	1.76
424.207	1.64
424.414	1.59
424.621	1.58
424.829	1.63
425.036	1.7
425.243	1.88
425.451	2.07
425.658	2.07
425.865	1.98
426.072	1.8
426.28	1.67
426.487	1.44
426.694	1.44
426.901	1.6
427.108	1.86
427.315	1.94
427.523	2.03
427.73	1.94
427.937	1.72
428.144	1.6
428.351	1.77
428.558	1.8
428.765	1.66
428.972	1.68
429.179	1.6
429.386	1.48
429.593	1.64
429.8	1.74
430.007	1.86
430.214	1.85
430.421	1.97
430.628	1.81
430.835	1.92
431.042	1.89
431.249	1.89
431.456	1.6
431.662	1.82
431.869	1.77
432.076	1.81
432.283	1.92
432.49	2
432.697	1.96
432.903	1.83
433.11	1.83
433.317	1.8
433.524	1.93
433.73	1.77
433.937	1.78
434.144	1.78
434.35	1.73
434.557	1.59
434.764	1.53
434.97	1.51
435.177	1.58
435.384	1.33
435.59	1.35
435.797	1.56
436.003	1.58
436.21	1.4
436.416	1.54
436.623	1.48
436.829	1.33
437.036	1.34
437.242	1.39
437.449	1.48
437.655	1.59
437.862	1.69
438.068	1.83
438.275	1.86
438.481	1.91
438.687	1.8
438.894	1.91
439.1	1.82
439.307	1.85
439.513	1.84
439.719	1.99
439.926	1.87
440.132	1.85
440.338	1.85
440.544	1.85
440.751	1.76
440.957	1.69
441.163	1.76
441.369	1.76
441.575	1.67
441.782	1.67
441.988	1.69
442.194	1.56
442.4	1.5
442.606	1.53
442.812	1.53
443.018	1.51
443.224	1.52
443.431	1.58
443.637	1.48
443.843	1.42
444.049	1.36
444.255	1.39
444.461	1.32
444.667	1.35
444.873	1.34
445.079	1.31
445.284	1.44
445.49	1.41
445.696	1.57
445.902	1.61
446.108	1.69
446.314	1.48
446.52	1.6
446.726	1.62
446.931	1.71
447.137	1.72
447.343	1.79
447.549	1.66
447.755	1.63
447.96	1.6
448.166	1.61
448.372	1.62
448.578	1.63
448.783	1.63
448.989	1.55
449.195	1.55
449.4	1.55
449.606	1.59
449.812	1.53
450.017	1.61
450.223	1.55
450.428	1.57
450.634	1.56
450.84	1.62
451.045	1.57
451.251	1.65
451.456	1.74
451.662	1.69
451.867	1.68
452.073	1.76
452.278	1.78
452.483	1.73
452.689	1.81
452.894	1.82
453.1	1.83
453.305	1.83
453.51	1.73
453.716	1.75
453.921	1.66
454.127	1.61
454.332	1.54
454.537	1.66
454.742	1.63
454.948	1.59
455.153	1.54
455.358	1.57
455.563	1.55
455.769	1.4
455.974	1.48
456.179	1.41
456.384	1.23
456.589	1.18
456.795	1.32
457	1.31
457.205	1.38
457.41	1.56
457.615	1.58
457.82	1.58
458.025	1.52
458.23	1.49
458.435	1.38
458.64	1.2
458.845	1.28
459.05	1.28
459.255	1.32
459.46	1.38
459.665	1.55
459.87	1.49
460.075	1.54
460.28	1.56
460.485	1.58
460.69	1.49
460.895	1.26
461.099	1.27
461.304	1.29
461.509	1.39
461.714	1.48
461.919	1.66
462.123	1.58
462.328	1.5
462.533	1.43
462.738	1.47
462.942	1.47
463.147	1.57
463.352	1.64
463.556	1.61
463.761	1.42
463.966	1.36
464.17	1.36
464.375	1.35
464.58	1.29
464.784	1.42
464.989	1.54
465.193	1.48
465.398	1.55
465.602	1.77
