Data from Ofav_SP_Phys_4JQ12_Reflection_3.txt Node
Date: Thu Aug 05 17:52:36 EDT 2021
User: Adam
Spectrometer: FLMT01687
Trigger mode: 0
Integration Time (sec): 8.000000E-1
Scans to average: 2
Electric dark correction enabled: true
Nonlinearity correction enabled: false
Boxcar width: 2
XAxis mode: Wavelengths
Number of Pixels in Spectrum: 3648
>>>>>Begin Spectral Data<<<<<
179.494	664.89
179.716	756.67
179.937	631.13
180.158	759.87
180.38	1924.94
180.601	-951.08
180.823	-171.43
181.044	-61.68
181.265	-35.89
181.486	81.38
181.708	-974.5
181.929	-209.6
182.15	-602.45
182.372	-61.32
182.593	11.31
182.814	-103.65
183.035	50.32
183.257	768.68
183.478	-573.56
183.699	390.27
183.92	144.04
184.141	-161.43
184.363	-687.57
184.584	161.05
184.805	105.42
185.026	68.64
185.247	68.44
185.468	57.58
185.689	58.54
185.91	35.22
186.132	23.52
186.353	30.65
186.574	-4.49
186.795	-16.71
187.016	-12.76
187.237	-23.05
187.458	-232.26
187.679	-28.12
187.9	33.41
188.121	59.39
188.342	148.83
188.563	104.38
188.784	148.56
189.005	87.66
189.226	105.08
189.447	63.04
189.667	83.89
189.888	49.56
190.109	142.15
190.33	102.84
190.551	93.82
190.772	102.4
190.993	89.64
191.214	68.55
191.434	60.04
191.655	37.51
191.876	37.77
192.097	29.1
192.318	27.61
192.538	-51.37
192.759	46.77
192.98	42.02
193.201	171.92
193.421	82.83
193.642	81.67
193.863	23.36
194.083	28.21
194.304	4.22
194.525	23.04
194.745	16.73
194.966	23.55
195.187	34.62
195.407	62.2
195.628	28.92
195.848	65.86
196.069	53.08
196.29	28.69
196.51	40.95
196.731	33.23
196.951	33.23
197.172	45.44
197.392	60.33
197.613	49.18
197.833	81.59
198.054	77.38
198.274	25.7
198.495	49.65
198.715	63.67
198.936	41.62
199.156	65.61
199.377	88.33
199.597	81.63
199.817	64.73
200.038	45.89
200.258	47.79
200.479	45.49
200.699	20.39
200.919	8.84
201.14	-4.05
201.36	-66.28
201.58	-39.61
201.801	-106.1
202.021	-48.99
202.241	30.79
202.461	23.35
202.682	-6.76
202.902	0.8
203.122	-87.11
203.342	-91.24
203.563	22.95
203.783	62.06
204.003	67.4
204.223	48.37
204.443	26.53
204.663	22.95
204.884	16.64
205.104	20.36
205.324	27.28
205.544	41.48
205.764	35.11
205.984	0.31
206.204	-36.25
206.424	-30.27
206.644	-43.37
206.864	-29.72
207.084	-7.81
207.304	58.89
207.525	40.29
207.745	49.04
207.964	32.28
208.184	29.65
208.404	-54.71
208.624	-37.47
208.844	-81.07
209.064	-68.88
209.284	-36.03
209.504	-59.86
209.724	-46.79
209.944	-53.99
210.164	-70.94
210.384	-47.77
210.604	-22.42
210.823	10.44
211.043	27.09
211.263	43.08
211.483	48.31
211.703	74.71
211.922	109.09
212.142	131.06
212.362	104.9
212.582	112.61
212.801	130.69
213.021	87.66
213.241	36.64
213.461	19.51
213.68	12.35
213.9	-36.03
214.12	-26.66
214.339	-14.89
214.559	26.47
214.779	35.62
214.998	49.21
215.218	29.32
215.438	100.2
215.657	148.93
215.877	178.68
216.096	145.64
216.316	155.68
216.535	72.3
216.755	5.5
216.974	81.77
217.194	152.56
217.413	79.61
217.633	79.09
217.852	61.91
218.072	34.91
218.291	8.49
218.511	6.99
218.73	-53.4
218.95	-82.73
219.169	-58.4
219.389	14.3
219.608	-35.6
219.827	16.58
220.047	50.51
220.266	49.19
220.485	22.61
220.705	52.71
220.924	57.55
221.143	30.99
221.363	-1.28
221.582	-15.41
221.801	-64.49
222.021	10.01
222.24	30.16
222.459	50.42
222.678	84.93
222.897	92.98
223.117	14.56
223.336	16.57
223.555	36.25
223.774	-23.81
223.993	-18.42
224.213	51.44
224.432	54.66
224.651	48.1
224.87	72.61
225.089	87.05
225.308	55.65
225.527	34.91
225.746	19.48
225.965	-8.28
226.184	-42.82
226.404	-23.52
226.623	-68.7
226.842	-60.07
227.061	-9.41
227.28	8.21
227.499	4.5
227.718	28.47
227.936	56.42
228.155	56.85
228.374	52.53
228.593	63.95
228.812	72.81
229.031	66.29
229.25	64.04
229.469	54.74
229.688	31.21
229.907	20.96
230.125	23.2
230.344	30.74
230.563	9.9
230.782	45.19
231.001	52.42
231.22	42.56
231.438	19.83
231.657	21.41
231.876	-9.01
232.095	2.66
232.313	-26.21
232.532	-24.08
232.751	3.95
232.969	21.72
233.188	34.82
233.407	20.85
233.625	42.83
233.844	-11.49
234.063	-3.94
234.281	-3.1
234.5	36.38
234.719	52.34
234.937	54.77
235.156	17.32
235.374	62
235.593	47.86
235.811	29.08
236.03	60.3
236.249	90.46
236.467	64.73
236.686	85.64
236.904	84.39
237.123	62.54
237.341	68.45
237.559	51.51
237.778	41.08
237.996	35.69
238.215	23.54
238.433	18.18
238.652	12.08
238.87	-7.15
239.088	-18.21
239.307	5.97
239.525	-28.65
239.743	-26.39
239.962	0.77
240.18	-6.45
240.398	-41.31
240.617	-37.51
240.835	21.57
241.053	8.86
241.271	-11.25
241.49	14.67
241.708	-11.84
241.926	-23.47
242.144	-61.81
242.363	-39.02
242.581	-20.48
242.799	10.08
243.017	2.07
243.235	-8.17
243.453	-12.63
243.672	-2.26
243.89	4.67
244.108	27.33
244.326	44.8
244.544	59.33
244.762	23.2
244.98	74.51
245.198	50.21
245.416	73.12
245.634	57.75
245.852	49.9
246.07	16.51
246.288	2.92
246.506	-51.76
246.724	-10.34
246.942	-13.25
247.16	-22.58
247.378	-61.2
247.596	-42.33
247.814	-39.64
248.032	-44.1
248.25	-48.56
248.468	-26.92
248.685	-19.25
248.903	-27.76
249.121	-43.94
249.339	-30.15
249.557	-29.06
249.775	-20.51
249.992	-19.74
250.21	19.27
250.428	-1.17
250.646	-11.41
250.863	-3.86
251.081	15.07
251.299	-5.12
251.517	27.25
251.734	62.95
251.952	32.49
252.17	24.55
252.387	23.48
252.605	23.01
252.823	19.34
253.04	18.75
253.258	48.87
253.475	62.27
253.693	59.51
253.911	70.5
254.128	74.1
254.346	55.15
254.563	57.78
254.781	59.49
254.998	43.83
255.216	24.96
255.433	-3.7
255.651	-73.55
255.868	-117.06
256.086	-123.46
256.303	-89.66
256.521	-119.48
256.738	-134.29
256.956	-230.37
257.173	-21.28
257.39	68.78
257.608	58.51
257.825	49.21
258.043	45.27
258.26	16.51
258.477	-16.87
258.695	0.16
258.912	4.45
259.129	11.19
259.346	27.81
259.564	38.8
259.781	41.03
259.998	35.69
260.216	52.84
260.433	49.2
260.65	42.33
260.867	27.78
261.084	18.67
261.302	2.42
261.519	15.6
261.736	38.8
261.953	30.84
262.17	42.5
262.387	74.58
262.604	69.56
262.822	92.99
263.039	118.09
263.256	132.4
263.473	100.4
263.69	108.25
263.907	80.59
264.124	75.41
264.341	46.71
264.558	36
264.775	8.38
264.992	12.51
265.209	17.19
265.426	2.59
265.643	-3.18
265.86	0.97
266.077	-6.18
266.294	-10.16
266.51	1.24
266.727	26.4
266.944	53.02
267.161	54.04
267.378	57.13
267.595	47.14
267.812	20.45
268.028	9.43
268.245	17.1
268.462	13.75
268.679	19.18
268.896	36.25
269.112	17.15
269.329	40.31
269.546	40.47
269.763	42.77
269.979	51.05
270.196	81.49
270.413	63.95
270.629	73.34
270.846	74.14
271.063	81.26
271.279	61.26
271.496	44.08
271.712	-17.8
271.929	-15.08
272.146	14.88
272.362	41.2
272.579	9.12
272.795	17.68
273.012	30.9
273.228	30.59
273.445	24.97
273.661	61.63
273.878	92.19
274.094	83.7
274.311	57.07
274.527	37.48
274.744	49.9
274.96	22.01
275.177	21.13
275.393	5.89
275.609	-0.89
275.826	-18.94
276.042	-3.76
276.259	1.44
276.475	6.92
276.691	14.67
276.908	14.64
277.124	21.78
277.34	24.54
277.557	5.68
277.773	22.75
277.989	26.46
278.205	13.03
278.422	-9.41
278.638	32.16
278.854	54.47
279.07	56.27
279.286	33.49
279.503	47.62
279.719	37.96
279.935	42.44
280.151	50.06
280.367	94.66
280.583	78.31
280.799	81.42
281.016	82.39
281.232	89.84
281.448	54.09
281.664	37.92
281.88	70.89
282.096	65.47
282.312	57.32
282.528	42.24
282.744	39.06
282.96	30.59
283.176	5.57
283.392	24.31
283.608	38.57
283.824	38.69
284.04	44.36
284.256	48.06
284.471	33.15
284.687	48.05
284.903	56.29
285.119	61.27
285.335	53.53
285.551	39.65
285.767	26.87
285.982	20.3
286.198	-49.27
286.414	-40.76
286.63	-14.26
286.846	-13.44
287.061	-10.92
287.277	12.88
287.493	56.81
287.709	49.28
287.924	54.84
288.14	75.14
288.356	86.77
288.571	73.03
288.787	76.89
289.003	107.13
289.218	126.95
289.434	76.18
289.65	79.48
289.865	74
290.081	53.72
290.296	35.58
290.512	32.26
290.727	34.44
290.943	28
291.159	18.18
291.374	21.58
291.59	19.62
291.805	7.47
292.021	30.84
292.236	51.16
292.451	64.6
292.667	110.23
292.882	91.18
293.098	31.17
293.313	37.51
293.529	54.17
293.744	42.33
293.959	42.75
294.175	60.43
294.39	41.5
294.605	22.56
294.821	24.22
295.036	-5.77
295.251	15.16
295.467	25.79
295.682	11.93
295.897	17.82
296.112	38.71
296.328	14.73
296.543	24.1
296.758	41.9
296.973	21.83
297.188	40.3
297.404	41.77
297.619	30.98
297.834	24.9
298.049	6.2
298.264	-31.94
298.479	-51.91
298.694	-47.33
298.909	5.09
299.125	32.99
299.34	57.44
299.555	62.48
299.77	74.13
299.985	70.09
300.2	66.65
300.415	44.16
300.63	29.56
300.845	19.32
301.06	28.04
301.275	11.63
301.49	28.03
301.704	58.22
301.919	56.33
302.134	28.36
302.349	51.28
302.564	35.37
302.779	38.76
302.994	40.58
303.209	68.91
303.423	40.78
303.638	43.74
303.853	44.93
304.068	20.27
304.283	6.36
304.497	17.57
304.712	14.9
304.927	-0.28
305.142	10.7
305.356	25.16
305.571	33.14
305.786	37.93
306	40
306.215	48.85
306.43	59.34
306.644	73.45
306.859	69.88
307.074	75.84
307.288	75.34
307.503	63.94
307.717	45.87
307.932	35.32
308.147	32.48
308.361	42.16
308.576	20.9
308.79	6.88
309.005	25.79
309.219	4.34
309.434	-26.84
309.648	-28.28
309.863	-20.17
310.077	-85.11
310.292	-34.96
310.506	-39.81
310.72	-9.04
310.935	-29.31
311.149	-1.33
311.364	12.23
311.578	38.41
311.792	47.42
312.007	73.51
312.221	48.45
312.435	59.15
312.649	57.69
312.864	34.77
313.078	25.76
313.292	36.28
313.507	39.53
313.721	40.22
313.935	29.71
314.149	52.18
314.363	63.83
314.578	43.1
314.792	25.88
315.006	47.46
315.22	37.87
315.434	-14.19
315.648	-33.24
315.862	-57.54
316.077	-14.31
316.291	-11.87
316.505	32.62
316.719	48.36
316.933	64.25
317.147	26.46
317.361	15.22
317.575	11.99
317.789	-5.31
318.003	-18.95
318.217	49.82
318.431	67.48
318.645	67.59
318.859	75.96
319.073	74.08
319.287	0.95
319.5	9.75
319.714	-3.53
319.928	5.15
320.142	0.49
320.356	45.82
320.57	25.97
320.784	23.97
320.997	5.15
321.211	27.49
321.425	-14.39
321.639	-32.99
321.853	-10.35
322.066	-4.5
322.28	-11.21
322.494	-10.09
322.707	7
322.921	5.2
323.135	8.81
323.349	17.89
323.562	21.5
323.776	26.47
323.989	-2.63
324.203	-8.53
324.417	-41.32
324.63	-32.72
324.844	-38.61
325.057	-9.03
325.271	-20.56
325.485	6.29
325.698	15.43
325.912	34.34
326.125	36.24
326.339	67.47
326.552	64.47
326.766	39.22
326.979	38.88
327.193	29.97
327.406	12.58
327.619	37.83
327.833	34.86
328.046	52.38
328.26	75.48
328.473	53.21
328.686	24.9
328.9	42.14
329.113	8.41
329.326	6.07
329.54	36.44
329.753	38.27
329.966	41.63
330.179	48.16
330.393	61.21
330.606	51.83
330.819	58.64
331.032	63.1
331.246	103.2
331.459	80.75
331.672	89.86
331.885	82.06
332.098	86.93
332.311	61.53
332.525	65.47
332.738	45.52
332.951	17.3
333.164	9.89
333.377	16.77
333.59	8.24
333.803	10.43
334.016	27.1
334.229	34.32
334.442	36.36
334.655	53.09
334.868	60.89
335.081	61.38
335.294	69.53
335.507	66.66
335.72	64.34
335.933	60.41
336.146	59.96
336.359	41.34
336.572	33.25
336.785	20.31
336.997	24.74
337.21	58.9
337.423	69.01
337.636	65.5
337.849	65.25
338.062	34.4
338.274	-28.16
338.487	-19.97
338.7	-15.38
338.913	-33.98
339.125	-7.26
339.338	4.47
339.551	-7.07
339.763	33.36
339.976	39.56
340.189	42.89
340.402	16.18
340.614	22.28
340.827	19.58
341.039	20.86
341.252	5.22
341.465	25.9
341.677	39.3
341.89	0.7
342.102	25.1
342.315	26.54
342.527	29.39
342.74	10.03
342.952	26.45
343.165	12.96
343.377	29.77
343.59	8
343.802	15.47
344.015	3.87
344.227	5.55
344.44	9.94
344.652	28.93
344.864	35.71
345.077	56.25
345.289	42.25
345.502	46.74
345.714	43.3
345.926	41.03
346.139	33.13
346.351	29.43
346.563	-3.7
346.775	-1.58
346.988	-28.86
347.2	-26.97
347.412	-31.55
347.624	38.49
347.837	32.66
348.049	40.68
348.261	15.05
348.473	37.48
348.685	47.79
348.897	68.45
349.11	64.38
349.322	79.36
349.534	38.25
349.746	41.76
349.958	27
350.17	38.57
350.382	26.46
350.594	26.29
350.806	12.15
351.018	20.13
351.23	9.86
351.442	21.39
351.654	33.95
351.866	27.4
352.078	12.45
352.29	18.05
352.502	22.4
352.714	0.36
352.926	10.9
353.138	14.19
353.35	25.67
353.561	21.51
353.773	33.64
353.985	43.26
354.197	44.55
354.409	20.08
354.621	22.26
354.832	17.64
355.044	13.09
355.256	25.08
355.468	47.4
355.679	52.71
355.891	58.83
356.103	57.88
356.314	64.12
356.526	48.61
356.738	31.77
356.949	16.18
357.161	28.78
357.373	4.33
357.584	24.15
357.796	59.05
358.008	59.11
358.219	48.88
358.431	81.47
358.642	76.33
358.854	53.78
359.065	52.37
359.277	53.23
359.488	33.03
359.7	37.07
359.911	28.13
360.123	41.83
360.334	35.5
360.546	31.58
360.757	27.28
360.969	28.05
361.18	23.1
361.391	23.68
361.603	37.76
361.814	44.95
362.025	50.6
362.237	45.95
362.448	41.93
362.659	39.24
362.871	21.69
363.082	14.18
363.293	-0.19
363.504	1.08
363.716	24.53
363.927	46.28
364.138	63.82
364.349	51.6
364.56	52.31
364.772	33.73
364.983	13.42
365.194	20.85
365.405	27.68
365.616	27.37
365.827	21.13
366.038	39.85
366.25	31.4
366.461	27.94
366.672	20.94
366.883	14.74
367.094	4.45
367.305	12.88
367.516	20.79
367.727	37.42
367.938	49.61
368.149	22.31
368.36	22.47
368.571	17.03
368.781	-20.24
368.992	-26.51
369.203	13.22
369.414	1.92
369.625	3.05
369.836	-0.18
370.047	7.74
370.258	15.3
370.468	14.27
370.679	25.42
370.89	30.07
371.101	27.87
371.312	29.83
371.522	21.02
371.733	4.02
371.944	11.94
372.155	28.08
372.365	4.46
372.576	17.48
372.787	15.33
372.997	32.49
373.208	21.3
373.419	48.66
373.629	32.77
373.84	43.11
374.05	30.22
374.261	36.14
374.472	23.88
374.682	26.68
374.893	26.82
375.103	9.29
375.314	1.16
375.524	6.49
375.735	-0.13
375.945	22.45
376.156	35.37
376.366	40.34
376.577	45.06
376.787	62.92
376.997	43.33
377.208	41.52
377.418	46.91
377.629	41.75
377.839	48.87
378.049	54.28
378.26	44.06
378.47	47.31
378.68	61.36
378.89	43.38
379.101	31.04
379.311	36.43
379.521	23.93
379.732	10.34
379.942	11.29
380.152	16.25
380.362	6.52
380.572	11.36
380.783	8.58
380.993	7.6
381.203	6.85
381.413	14.35
381.623	18.03
381.833	25.2
382.043	31.58
382.253	33.37
382.463	43.42
382.674	41.13
382.884	33.23
383.094	23.35
383.304	22.37
383.514	15.93
383.724	9.82
383.934	19.59
384.144	27.43
384.353	21.35
384.563	14.94
384.773	20.23
384.983	9.95
385.193	7.37
385.403	10.25
385.613	19.34
385.823	10.87
386.033	12.77
386.242	11.19
386.452	8.7
386.662	5.7
386.872	4.5
387.082	6.23
387.291	-7.11
387.501	-4.47
387.711	-4.1
387.921	-2.21
388.13	-4.87
388.34	6.8
388.55	4.72
388.759	-1.93
388.969	-2.32
389.179	-2.22
389.388	0.24
389.598	2.85
389.807	8
390.017	9.9
390.227	9.4
390.436	5
390.646	0.31
390.855	-2.57
391.065	-0.69
391.274	0.72
391.484	3.17
391.693	5.46
391.903	6.72
392.112	6.58
392.322	4.15
392.531	4.08
392.74	3.42
392.95	2.57
393.159	0.52
393.369	1.77
393.578	2.88
393.787	3.23
393.997	3.35
394.206	3.62
394.415	5.25
394.625	5.12
394.834	4.65
395.043	3.73
395.252	4.22
395.462	3.53
395.671	3.19
395.88	4.59
396.089	5.8
396.298	5.67
396.508	5.48
396.717	4.87
396.926	4.2
397.135	3.32
397.344	2.86
397.553	3.35
397.762	3.52
397.971	3.32
398.181	3.49
398.39	3.18
398.599	3.05
398.808	2.93
399.017	2.79
399.226	3.18
399.435	3.74
399.644	3.73
399.853	3.99
400.062	3.99
400.27	3.6
400.479	3.48
400.688	3.14
400.897	3.23
401.106	3.09
401.315	2.86
401.524	2.94
401.733	2.91
401.941	2.76
402.15	2.72
402.359	2.91
402.568	2.77
402.777	2.84
402.985	2.63
403.194	2.74
403.403	2.81
403.612	2.81
403.82	2.82
404.029	2.8
404.238	2.81
404.446	2.77
404.655	2.88
404.864	2.83
405.072	2.95
405.281	2.98
405.489	3.08
405.698	3.06
405.906	3.11
406.115	2.79
406.324	2.89
406.532	2.72
406.741	2.7
406.949	2.55
407.158	2.92
407.366	2.75
407.574	2.91
407.783	2.94
407.991	2.92
408.2	2.63
408.408	2.66
408.617	2.54
408.825	2.43
409.033	2.4
409.242	2.54
409.45	2.35
409.658	2.29
409.867	2.27
410.075	2.33
410.283	2.25
410.491	2.43
410.7	2.54
410.908	2.6
411.116	2.64
411.324	2.74
411.533	2.67
411.741	2.6
411.949	2.59
412.157	2.47
412.365	2.58
412.573	2.42
412.781	2.46
412.99	2.36
413.198	2.66
413.406	2.5
413.614	2.71
413.822	2.69
414.03	2.76
414.238	2.49
414.446	2.51
414.654	2.41
414.862	2.28
415.07	2.26
415.278	2.34
415.486	2.31
415.694	2.4
415.902	2.47
416.109	2.42
416.317	2.48
416.525	2.4
416.733	2.38
416.941	2.49
417.149	2.63
417.357	2.63
417.564	2.6
417.772	2.46
417.98	2.35
418.188	2.17
418.395	2
418.603	2.14
418.811	2.17
419.019	2.41
419.226	2.57
419.434	2.72
419.642	2.57
419.849	2.7
420.057	2.47
420.265	2.44
420.472	2.21
420.68	2.26
420.887	2.05
421.095	2.11
421.302	2.05
421.51	2.04
421.717	2.21
421.925	2.24
422.132	2.33
422.34	2.31
422.547	2.46
422.755	2.15
422.962	2.37
423.17	2.24
423.377	2.22
423.585	2.31
423.792	2.38
423.999	2.29
424.207	2.12
424.414	1.84
424.621	1.83
424.829	1.99
425.036	1.92
425.243	2.15
425.451	2.55
425.658	2.43
425.865	2.35
426.072	2.24
426.28	2.09
426.487	1.95
426.694	1.99
426.901	1.98
427.108	2.15
427.315	2.34
427.523	2.5
427.73	2.34
427.937	2.27
428.144	2.12
428.351	2.02
428.558	1.78
428.765	1.65
428.972	1.67
429.179	1.83
429.386	1.74
429.593	1.88
429.8	2.17
430.007	2.23
430.214	2.16
430.421	2.3
430.628	2.22
430.835	2.27
431.042	2.21
431.249	2.19
431.456	2.14
431.662	2.34
431.869	2.35
432.076	2.32
432.283	2.36
432.49	2.46
432.697	2.39
432.903	2.23
433.11	2.12
433.317	2.09
433.524	2.07
433.73	2.05
433.937	2.02
434.144	2.04
434.35	2.02
434.557	1.94
434.764	1.75
434.97	1.71
435.177	2.1
435.384	1.91
435.59	1.82
435.797	1.99
436.003	1.99
436.21	1.54
436.416	1.68
436.623	1.69
436.829	1.62
437.036	1.6
437.242	1.76
437.449	1.83
437.655	2
437.862	2.21
438.068	2.38
438.275	2.46
438.481	2.48
438.687	2.27
438.894	2.17
439.1	1.97
439.307	1.87
439.513	1.83
439.719	1.9
439.926	1.91
440.132	1.97
440.338	2.1
440.544	2.14
440.751	2.26
440.957	2.2
441.163	2.24
441.369	2.14
441.575	2
441.782	1.94
441.988	1.91
442.194	1.82
442.4	1.83
442.606	1.94
442.812	1.84
443.018	1.87
443.224	1.92
443.431	1.96
443.637	1.84
443.843	1.88
444.049	1.8
444.255	1.85
444.461	1.76
444.667	1.76
444.873	1.79
445.079	1.85
445.284	1.85
445.49	1.84
445.696	1.89
445.902	1.88
446.108	1.86
446.314	1.79
446.52	1.86
446.726	1.89
446.931	1.93
447.137	1.91
447.343	1.92
447.549	1.81
447.755	1.89
447.96	1.93
448.166	1.97
448.372	1.98
448.578	1.99
448.783	2.03
448.989	1.96
449.195	1.98
449.4	2
449.606	2.04
449.812	2.04
450.017	2.1
450.223	2.08
450.428	2.08
450.634	2.04
450.84	1.94
451.045	1.84
451.251	1.88
451.456	1.98
451.662	2.05
451.867	2.05
452.073	2.14
452.278	2.14
452.483	2.09
452.689	2.1
452.894	2.1
453.1	2.07
453.305	2.04
453.51	1.98
453.716	2.05
453.921	2.07
454.127	2
454.332	1.91
454.537	1.93
454.742	1.91
454.948	1.82
455.153	1.82
455.358	1.94
455.563	1.97
455.769	1.84
455.974	1.95
456.179	1.89
456.384	1.65
456.589	1.46
456.795	1.43
457	1.36
457.205	1.43
457.41	1.61
457.615	1.68
457.82	1.76
458.025	1.69
458.23	1.66
458.435	1.59
458.64	1.5
458.845	1.55
459.05	1.55
459.255	1.61
459.46	1.71
459.665	1.88
459.87	1.74
460.075	1.81
460.28	1.74
460.485	1.68
460.69	1.61
460.895	1.6
461.099	1.62
461.304	1.69
461.509	1.82
461.714	1.88
461.919	1.94
462.123	1.9
462.328	1.8
462.533	1.73
462.738	1.81
462.942	1.83
463.147	1.93
463.352	2.07
463.556	2.05
463.761	1.9
463.966	1.85
464.17	1.81
464.375	1.71
464.58	1.69
464.784	1.73
464.989	1.74
465.193	1.64
465.398	1.82
465.602	1.97
465.807	2.09
466.011	2.12
466.216	2.2
466.42	2.09
466.625	2.02
466.829	2.05
