Data from Ofav_SP_Phys_9AZ81_Reflection_1.txt Node
Date: Thu Aug 05 17:50:34 EDT 2021
User: Adam
Spectrometer: FLMT01687
Trigger mode: 0
Integration Time (sec): 8.000000E-1
Scans to average: 2
Electric dark correction enabled: true
Nonlinearity correction enabled: false
Boxcar width: 2
XAxis mode: Wavelengths
Number of Pixels in Spectrum: 3648
>>>>>Begin Spectral Data<<<<<
179.494	552.08
179.716	644.68
179.937	523.01
180.158	634.5
180.38	1643.48
180.601	-926.42
180.823	-115.97
181.044	-75.75
181.265	-29.31
181.486	-9.62
181.708	-712.75
181.929	-49.52
182.15	-320.82
182.372	-38.75
182.593	-40.66
182.814	-337.43
183.035	-212.76
183.257	-365.12
183.478	266.44
183.699	-67.48
183.92	37.6
184.141	-686.1
184.363	723.24
184.584	29.67
184.805	94.19
185.026	93.18
185.247	108.64
185.468	113.71
185.689	113.09
185.91	73.38
186.132	37.07
186.353	12.58
186.574	-64.75
186.795	-101.23
187.016	-99.34
187.237	-47.35
187.458	-212.9
187.679	-1.28
187.9	65.49
188.121	162.53
188.342	140.43
188.563	108.45
188.784	155.62
189.005	131.16
189.226	81.26
189.447	98.67
189.667	211.79
189.888	503.88
190.109	299.82
190.33	240.04
190.551	183.14
190.772	168.73
190.993	105.34
191.214	93.61
191.434	78.98
191.655	64.55
191.876	62.93
192.097	42.13
192.318	30.06
192.538	3.4
192.759	60.42
192.98	36.32
193.201	63.39
193.421	92.67
193.642	81.92
193.863	47.85
194.083	75.17
194.304	93.18
194.525	99.12
194.745	72.53
194.966	80.84
195.187	78.31
195.407	52.46
195.628	34.03
195.848	65.01
196.069	54.78
196.29	42.28
196.51	63.31
196.731	52.7
196.951	71.65
197.172	88.22
197.392	98.66
197.613	88.56
197.833	124.39
198.054	74.44
198.274	30.27
198.495	42.33
198.715	58.84
198.936	45.09
199.156	92.03
199.377	92.22
199.597	66.92
199.817	71.29
200.038	55.75
200.258	55.03
200.479	48.14
200.699	58.16
200.919	43.84
201.14	29.82
201.36	8.65
201.58	58.46
201.801	-44.45
202.021	-7.72
202.241	40.03
202.461	57.15
202.682	17.12
202.902	109.49
203.122	224.53
203.342	311.26
203.563	151.89
203.783	131.58
204.003	107.59
204.223	80.84
204.443	36.65
204.663	39.73
204.884	60.39
205.104	40.11
205.324	53.54
205.544	60.76
205.764	36.96
205.984	20.92
206.204	37.56
206.424	23.34
206.644	27.27
206.864	58.63
207.084	47.77
207.304	56.06
207.525	69.74
207.745	117.57
207.964	105.26
208.184	115.69
208.404	63.76
208.624	48.78
208.844	-26.94
209.064	34.66
209.284	10.27
209.504	18.96
209.724	40.08
209.944	9.89
210.164	-30.77
210.384	31.9
210.604	25.09
210.823	22.95
211.043	44.79
211.263	54.04
211.483	32.31
211.703	55.12
211.922	53.77
212.142	77.79
212.362	47.33
212.582	71.55
212.801	47.78
213.021	64.19
213.241	30.48
213.461	8.8
213.68	5.23
213.9	-8.94
214.12	-22.28
214.339	2.05
214.559	54.05
214.779	59.07
214.998	125.23
215.218	93.45
215.438	136.62
215.657	207.06
215.877	224
216.096	124.87
216.316	148.52
216.535	99.95
216.755	18.89
216.974	105.55
217.194	140.2
217.413	90.18
217.633	82.43
217.852	73.02
218.072	69.11
218.291	49.93
218.511	47.56
218.73	19.27
218.95	18.05
219.169	-13.43
219.389	48.02
219.608	23.39
219.827	73.73
220.047	88.09
220.266	85.59
220.485	85.76
220.705	99.7
220.924	73.36
221.143	53.33
221.363	59.47
221.582	66.71
221.801	76.32
222.021	117.5
222.24	119.25
222.459	176.16
222.678	125.45
222.897	137.36
223.117	126.94
223.336	153.06
223.555	127.01
223.774	68.46
223.993	31.66
224.213	20.33
224.432	-0.53
224.651	20.55
224.87	69.01
225.089	71.3
225.308	76.06
225.527	67.82
225.746	40.74
225.965	10.97
226.184	3.13
226.404	5.61
226.623	-28.36
226.842	-7.15
227.061	25.25
227.28	42.94
227.499	61.58
227.718	70.85
227.936	82.27
228.155	65.19
228.374	52.19
228.593	47.4
228.812	66.96
229.031	60.36
229.25	72.39
229.469	80.8
229.688	76.21
229.907	38.29
230.125	32.64
230.344	38.25
230.563	27.09
230.782	32.66
231.001	94.77
231.22	91.9
231.438	66.7
231.657	44.84
231.876	17.11
232.095	19.52
232.313	23.71
232.532	25.47
232.751	31.48
232.969	48.74
233.188	50.41
233.407	29.32
233.625	46.84
233.844	54.99
234.063	75.02
234.281	75.44
234.5	56.83
234.719	95.45
234.937	34.7
235.156	25.98
235.374	38.78
235.593	57.99
235.811	18.37
236.03	68.64
236.249	69.98
236.467	86.18
236.686	84.82
236.904	96.2
237.123	45.96
237.341	42.91
237.559	17.13
237.778	37.87
237.996	42.08
238.215	72.7
238.433	70.07
238.652	65.47
238.87	38.82
239.088	7.34
239.307	-6.39
239.525	-16.24
239.743	-20.4
239.962	9.11
240.18	31.68
240.398	24.75
240.617	7.54
240.835	49.16
241.053	30.57
241.271	40.07
241.49	76
241.708	91.18
241.926	52.44
242.144	60.5
242.363	118.56
242.581	101.03
242.799	98.27
243.017	79.81
243.235	75.44
243.453	26.34
243.672	19.39
243.89	33.56
244.108	104.01
244.326	72.29
244.544	75.03
244.762	61.68
244.98	77.41
245.198	64.5
245.416	57.26
245.634	86.34
245.852	85.11
246.07	61.28
246.288	42.15
246.506	36.94
246.724	14.28
246.942	1.55
247.16	-5.54
247.378	-21.16
247.596	6.71
247.814	4.69
248.032	8.49
248.25	-10.23
248.468	12.64
248.685	26.24
248.903	48.05
249.121	36.57
249.339	63.47
249.557	65.64
249.775	62.2
249.992	20.45
250.21	50.46
250.428	31.9
250.646	29.81
250.863	44.54
251.081	60.96
251.299	50.2
251.517	70.27
251.734	59.47
251.952	36.77
252.17	53.92
252.387	57.34
252.605	44.42
252.823	63.36
253.04	57.69
253.258	61.48
253.475	74.22
253.693	82.53
253.911	81.55
254.128	97.04
254.346	91.83
254.563	78.42
254.781	64.11
254.998	60.16
255.216	44.83
255.433	13.71
255.651	-21.06
255.868	-37.82
256.086	-42.51
256.303	-46.74
256.521	-34.39
256.738	-35.19
256.956	-6.02
257.173	43.96
257.39	122.05
257.608	79.95
257.825	58.3
258.043	53.61
258.26	37.56
258.477	20.52
258.695	37.74
258.912	55.14
259.129	66.91
259.346	75.9
259.564	57.1
259.781	72.3
259.998	65.73
260.216	63.15
260.433	65.64
260.65	97.41
260.867	87.84
261.084	110.83
261.302	104.28
261.519	106.74
261.736	96.68
261.953	80.14
262.17	74.23
262.387	112.86
262.604	96.9
262.822	103.04
263.039	130.1
263.256	130.43
263.473	68.3
263.69	76.33
263.907	62.72
264.124	57.23
264.341	43.04
264.558	43.35
264.775	48.7
264.992	58.35
265.209	47.54
265.426	60.41
265.643	48.75
265.86	35.27
266.077	30.12
266.294	25.53
266.51	14.14
266.727	30.69
266.944	61.82
267.161	54.87
267.378	41
267.595	32.61
267.812	9.15
268.028	-2.91
268.245	8.04
268.462	21.08
268.679	43.16
268.896	54.87
269.112	47.92
269.329	98.91
269.546	83.08
269.763	88.97
269.979	104.22
270.196	130.01
270.413	104.6
270.629	119.83
270.846	105.22
271.063	89.54
271.279	51.45
271.496	30.7
271.712	-16.53
271.929	-55.7
272.146	-7.04
272.362	-3.51
272.579	-17.86
272.795	-8.71
273.012	25.33
273.228	7.09
273.445	21.96
273.661	43.91
273.878	55.98
274.094	33.16
274.311	27.27
274.527	26.31
274.744	20.06
274.96	12.75
275.177	17.3
275.393	20.48
275.609	38.81
275.826	42.73
276.042	56.36
276.259	81.5
276.475	67.81
276.691	39.52
276.908	43.69
277.124	44.03
277.34	35.04
277.557	7.82
277.773	8.22
277.989	-1.05
278.205	0.93
278.422	9.91
278.638	57.38
278.854	64.7
279.07	58.97
279.286	34.76
279.503	26.75
279.719	-4.33
279.935	6.13
280.151	22.77
280.367	49.67
280.583	62.03
280.799	86.04
281.016	84.87
281.232	70.65
281.448	47.17
281.664	34.84
281.88	48.92
282.096	64.35
282.312	86.77
282.528	97.67
282.744	80.45
282.96	53.17
283.176	49.46
283.392	49.59
283.608	44.7
283.824	45.5
284.04	63.64
284.256	57.98
284.471	52.1
284.687	85.71
284.903	86.12
285.119	84
285.335	74.05
285.551	67.75
285.767	25.07
285.982	16.69
286.198	-32.56
286.414	-35.52
286.63	9.98
286.846	47.06
287.061	37.79
287.277	41.3
287.493	87.22
287.709	70.76
287.924	64.21
288.14	88.53
288.356	96.47
288.571	88.24
288.787	89.6
289.003	115.12
289.218	78.81
289.434	54.25
289.65	26.7
289.865	24.52
290.081	36.87
290.296	31.49
290.512	28.38
290.727	44.86
290.943	45.98
291.159	31.78
291.374	47.49
291.59	43.57
291.805	43.35
292.021	64.49
292.236	94.95
292.451	90.56
292.667	104.47
292.882	42.9
293.098	18.06
293.313	9.38
293.529	30.03
293.744	47.73
293.959	48.6
294.175	68.17
294.39	56.1
294.605	41.94
294.821	29.92
295.036	29.35
295.251	23.47
295.467	39.65
295.682	39.61
295.897	47.59
296.112	56.14
296.328	60.76
296.543	57.64
296.758	38.22
296.973	35.83
297.188	59.85
297.404	55.62
297.619	61.89
297.834	63.43
298.049	59.35
298.264	33.95
298.479	32.32
298.694	38.58
298.909	51.05
299.125	69.04
299.34	62.48
299.555	56.94
299.77	59.01
299.985	75.24
300.2	59.52
300.415	70.06
300.63	55.24
300.845	45.92
301.06	51.55
301.275	42.75
301.49	43.42
301.704	62.05
301.919	47.37
302.134	40.18
302.349	39.6
302.564	28.32
302.779	34.14
302.994	45.55
303.209	51.2
303.423	41.93
303.638	43.84
303.853	30.98
304.068	27.67
304.283	30.54
304.497	17.09
304.712	1.96
304.927	-2.95
305.142	-1.78
305.356	-28.78
305.571	17.91
305.786	44.35
306	57.27
306.215	71
306.43	97.68
306.644	81.96
306.859	76.69
307.074	88.38
307.288	85.31
307.503	78.84
307.717	91.44
307.932	62.42
308.147	56.15
308.361	40.38
308.576	3.94
308.79	1.62
309.005	30.38
309.219	11.55
309.434	-2.26
309.648	8.45
309.863	16.75
310.077	-25.93
310.292	-9.62
310.506	11.61
310.72	51.85
310.935	20.49
311.149	30.01
311.364	24.84
311.578	22.73
311.792	14.16
312.007	50.38
312.221	37.63
312.435	67
312.649	84.22
312.864	71.98
313.078	55.35
313.292	86.68
313.507	86.74
313.721	82.19
313.935	66.49
314.149	67.78
314.363	44.18
314.578	42.34
314.792	28.35
315.006	52.52
315.22	49.81
315.434	12.45
315.648	-40.86
315.862	-43.6
316.077	-61.37
316.291	-87.14
316.505	4.36
316.719	40.26
316.933	45.7
317.147	50.67
317.361	59.27
317.575	38.36
317.789	33.11
318.003	34.08
318.217	74.74
318.431	95.25
318.645	113.34
318.859	110.04
319.073	83.45
319.287	81.97
319.5	64.08
319.714	42.75
319.928	61.47
320.142	74.34
320.356	53.09
320.57	59.63
320.784	60.23
320.997	55.86
321.211	52.05
321.425	42.09
321.639	-11.78
321.853	6.56
322.066	4.22
322.28	-7.39
322.494	-12.53
322.707	4.54
322.921	12.82
323.135	17.27
323.349	35.32
323.562	50.7
323.776	70.36
323.989	51.76
324.203	50.14
324.417	55.63
324.63	52.2
324.844	33.2
325.057	43.89
325.271	34.57
325.485	28.4
325.698	16.29
325.912	35.22
326.125	30.22
326.339	47.02
326.552	44.47
326.766	61.83
326.979	73.62
327.193	93.7
327.406	89.63
327.619	109.93
327.833	78.17
328.046	81.53
328.26	79.02
328.473	36.85
328.686	16.12
328.9	44.05
329.113	36.13
329.326	29.57
329.54	51.75
329.753	78.54
329.966	81.47
330.179	78.2
330.393	104.87
330.606	107.34
330.819	120.15
331.032	150.3
331.246	159.17
331.459	118.14
331.672	109.96
331.885	89.25
332.098	81.82
332.311	80.54
332.525	74.36
332.738	56.03
332.951	38.26
333.164	33.39
333.377	29.21
333.59	21.81
333.803	15.87
334.016	1.83
334.229	-9.68
334.442	13.46
334.655	45.64
334.868	52.96
335.081	56.07
335.294	61.9
335.507	45.51
335.72	45.71
335.933	49.35
336.146	41.62
336.359	28.8
336.572	11
336.785	-6.62
336.997	-16.02
337.21	5.69
337.423	39.35
337.636	47.86
337.849	56.26
338.062	63.53
338.274	25.17
338.487	16.19
338.7	25.8
338.913	32.02
339.125	51.76
339.338	50.13
339.551	54.33
339.763	68.61
339.976	71
340.189	53.74
340.402	49.51
340.614	50.03
340.827	58.03
341.039	36.37
341.252	32.61
341.465	40.07
341.677	47.87
341.89	10.82
342.102	37.16
342.315	31.24
342.527	42.91
342.74	22.69
342.952	46.4
343.165	46.97
343.377	98.3
343.59	62.35
343.802	70.44
344.015	58.81
344.227	51.62
344.44	30.16
344.652	48.35
344.864	58.69
345.077	69.9
345.289	51.37
345.502	46.21
345.714	37.71
345.926	31.51
346.139	14.52
346.351	24.61
346.563	22.13
346.775	23.6
346.988	-5.38
347.2	19.07
347.412	33.44
347.624	42.25
347.837	55.37
348.049	56.5
348.261	46.28
348.473	40.96
348.685	59.56
348.897	86.24
349.11	94.79
349.322	77.22
349.534	79.63
349.746	54.62
349.958	31.06
350.17	31.75
350.382	46.53
350.594	63.51
350.806	68.08
351.018	72.01
351.23	69.61
351.442	77.38
351.654	60.26
351.866	58.7
352.078	43.12
352.29	36.91
352.502	41.61
352.714	26.64
352.926	42.78
353.138	53.89
353.35	57.83
353.561	42.81
353.773	35.68
353.985	17.32
354.197	17.54
354.409	14.33
354.621	23.92
354.832	53.19
355.044	69.58
355.256	76.61
355.468	88.79
355.679	79.38
355.891	89.65
356.103	76.07
356.314	82.56
356.526	75.68
356.738	74.92
356.949	49.12
357.161	46.18
357.373	40.49
357.584	50.81
357.796	64.18
358.008	57.63
358.219	61.69
358.431	83.62
358.642	67.95
358.854	57.12
359.065	80.01
359.277	69.59
359.488	53.61
359.7	55.55
359.911	46.66
360.123	39.44
360.334	43.65
360.546	31.78
360.757	30.46
360.969	33.91
361.18	27.04
361.391	29.81
361.603	55.28
361.814	46.33
362.025	74.21
362.237	67.63
362.448	72.43
362.659	63.01
362.871	50.18
363.082	33.38
363.293	33.58
363.504	28.3
363.716	38
363.927	64.72
364.138	58.65
364.349	33.91
364.56	24.26
364.772	28.11
364.983	4.43
365.194	12.14
365.405	21.33
365.616	29.77
365.827	30.3
366.038	43.56
366.25	50.36
366.461	47.71
366.672	48.19
366.883	45.18
367.094	37.43
367.305	33.38
367.516	34.8
367.727	38.02
367.938	30.33
368.149	23.89
368.36	22.19
368.571	16.59
368.781	5.15
368.992	1.47
369.203	15.94
369.414	13.95
369.625	11.39
369.836	10.61
370.047	14.41
370.258	23.79
370.468	26.36
370.679	23.48
370.89	18.65
371.101	11.75
371.312	2.5
371.522	12.62
371.733	31.63
371.944	46.49
372.155	68.06
372.365	52.76
372.576	52.5
372.787	39.03
372.997	42.74
373.208	29.76
373.419	51.66
373.629	30.32
373.84	42.6
374.05	29.75
374.261	38.45
374.472	30.39
374.682	26.9
374.893	25.92
375.103	23.49
375.314	26.4
375.524	20.03
375.735	37.55
375.945	58.65
376.156	57.94
376.366	47.53
376.577	49.8
376.787	46.82
376.997	32.63
377.208	45.9
377.418	55.15
377.629	61.24
377.839	69.52
378.049	64.95
378.26	47.07
378.47	40.76
378.68	53.78
378.89	33.05
379.101	33.25
379.311	48.47
379.521	53.75
379.732	34.89
379.942	49.01
380.152	43.31
380.362	45.04
380.572	48.51
380.783	39.59
380.993	39.51
381.203	41.83
381.413	32.95
381.623	34.12
381.833	45.42
382.043	43.95
382.253	42.45
382.463	51.26
382.674	45.09
382.884	35.34
383.094	29.86
383.304	27.14
383.514	18.94
383.724	12.5
383.934	20.05
384.144	17.53
384.353	19.97
384.563	16.88
384.773	20.13
384.983	19.29
385.193	22.79
385.403	19.34
385.613	28.71
385.823	35.07
386.033	25.36
386.242	25.39
386.452	30.19
386.662	23.55
386.872	16.31
387.082	20.34
387.291	6.85
387.501	7.34
387.711	6.03
387.921	8.11
388.13	5.27
388.34	13.16
388.55	12.21
388.759	10.34
388.969	9.84
389.179	9.1
389.388	12.42
389.598	9.87
389.807	13.88
390.017	13.69
390.227	14.27
390.436	9.81
390.646	8.67
390.855	6.35
391.065	5.23
391.274	5.73
391.484	8.72
391.693	8.66
391.903	7.36
392.112	9.93
392.322	8.64
392.531	7.35
392.74	6.8
392.95	5.68
393.159	3.27
393.369	4.12
393.578	4.48
393.787	5.14
393.997	6.75
394.206	7.73
394.415	7.74
394.625	8.48
394.834	7.66
395.043	5.85
395.252	5.56
395.462	5.03
395.671	4.16
395.88	5.54
396.089	6.04
396.298	6.71
396.508	7.23
396.717	6.82
396.926	5.66
397.135	5.39
397.344	4.08
397.553	4.21
397.762	4.19
397.971	4.39
398.181	4.44
398.39	4.73
398.599	4.44
398.808	4.45
399.017	4.4
399.226	4.34
399.435	4.14
399.644	4.21
399.853	4.66
400.062	4.54
400.27	4.73
400.479	4.62
400.688	4.28
400.897	3.96
401.106	3.89
401.315	3.6
401.524	3.52
401.733	3.56
401.941	3.49
402.15	3.33
402.359	3.33
402.568	3.6
402.777	3.85
402.985	3.77
403.194	3.89
403.403	4.09
403.612	3.9
403.82	3.75
404.029	3.65
404.238	3.69
404.446	3.54
404.655	3.61
404.864	3.43
405.072	3.45
405.281	3.32
405.489	3.39
405.698	3.49
405.906	3.58
406.115	3.47
406.324	3.6
406.532	3.48
406.741	3.44
406.949	3.08
407.158	3.15
407.366	3.19
407.574	3.28
407.783	3.15
407.991	3.33
408.2	3.18
408.408	3.06
408.617	3.01
408.825	3.03
409.033	2.97
409.242	2.97
409.45	2.79
409.658	2.71
409.867	2.69
410.075	2.79
410.283	2.99
410.491	3.14
410.7	3.3
410.908	3.31
411.116	3.4
411.324	3.34
411.533	3.24
411.741	3.01
411.949	2.94
412.157	2.87
412.365	2.89
412.573	2.9
412.781	3
412.99	3.12
413.198	3.18
413.406	3.19
413.614	3.33
413.822	3.37
414.03	3.43
414.238	3.33
414.446	3.41
414.654	3.3
414.862	3.12
415.07	2.99
415.278	3.06
415.486	2.88
415.694	2.97
415.902	3.02
416.109	2.97
416.317	2.84
416.525	2.85
416.733	2.75
416.941	2.94
417.149	3.07
417.357	3.11
417.564	3.05
417.772	2.94
417.98	2.75
418.188	2.73
418.395	2.66
418.603	2.79
418.811	2.85
419.019	2.93
419.226	2.98
419.434	3.15
419.642	3.11
419.849	3.16
420.057	3.08
420.265	3.02
420.472	2.85
420.68	2.78
420.887	2.84
421.095	2.88
421.302	2.75
421.51	2.79
421.717	2.91
421.925	2.8
422.132	2.86
422.34	2.85
422.547	2.93
422.755	2.89
422.962	3.04
423.17	3.05
423.377	2.98
423.585	2.99
423.792	2.91
423.999	2.81
424.207	2.59
424.414	2.46
424.621	2.61
424.829	2.63
425.036	2.76
425.243	2.97
425.451	3.29
425.658	3.07
425.865	3.15
426.072	2.93
426.28	2.76
426.487	2.53
426.694	2.54
426.901	2.56
427.108	2.68
427.315	2.88
427.523	2.98
427.73	2.94
427.937	2.73
428.144	2.77
428.351	2.83
428.558	2.77
428.765	2.65
428.972	2.75
429.179	2.7
429.386	2.54
429.593	2.69
429.8	2.76
430.007	2.77
430.214	2.63
430.421	2.7
430.628	2.5
430.835	2.63
431.042	2.63
431.249	2.84
431.456	2.81
431.662	3.13
431.869	3.14
432.076	3.06
432.283	2.95
432.49	2.96
432.697	2.82
432.903	2.52
433.11	2.49
433.317	2.41
433.524	2.42
433.73	2.45
433.937	2.53
434.144	2.69
434.35	2.71
434.557	2.68
434.764	2.5
434.97	2.65
435.177	2.78
435.384	2.67
435.59	2.64
435.797	2.83
436.003	2.76
436.21	2.44
436.416	2.49
436.623	2.48
436.829	2.44
437.036	2.31
437.242	2.4
437.449	2.56
437.655	2.67
437.862	2.72
438.068	2.98
438.275	3.04
438.481	3.04
438.687	2.9
438.894	2.93
439.1	2.74
439.307	2.65
439.513	2.57
439.719	2.63
439.926	2.54
440.132	2.65
440.338	2.79
440.544	2.82
440.751	2.92
440.957	2.91
441.163	2.78
441.369	2.82
441.575	2.74
441.782	2.78
441.988	2.72
442.194	2.7
442.4	2.66
442.606	2.72
442.812	2.57
443.018	2.54
443.224	2.61
443.431	2.54
443.637	2.43
443.843	2.45
444.049	2.38
444.255	2.41
444.461	2.36
444.667	2.42
444.873	2.4
445.079	2.49
445.284	2.54
445.49	2.62
445.696	2.63
445.902	2.63
446.108	2.61
446.314	2.42
446.52	2.35
446.726	2.37
446.931	2.39
447.137	2.37
447.343	2.43
447.549	2.44
447.755	2.55
447.96	2.59
448.166	2.68
448.372	2.7
448.578	2.73
448.783	2.74
448.989	2.61
449.195	2.61
449.4	2.62
449.606	2.69
449.812	2.66
450.017	2.77
450.223	2.73
450.428	2.76
450.634	2.72
450.84	2.62
451.045	2.58
451.251	2.67
451.456	2.65
451.662	2.67
451.867	2.74
452.073	2.78
452.278	2.67
452.483	2.6
452.689	2.6
452.894	2.53
453.1	2.54
453.305	2.58
453.51	2.73
453.716	2.72
453.921	2.8
454.127	2.85
454.332	2.79
454.537	2.75
454.742	2.69
454.948	2.63
455.153	2.5
455.358	2.56
455.563	2.58
455.769	2.49
455.974	2.49
456.179	2.44
456.384	2.27
456.589	2.16
456.795	2.25
457	2.23
457.205	2.28
457.41	2.43
457.615	2.53
457.82	2.53
458.025	2.52
458.23	2.47
458.435	2.43
458.64	2.26
458.845	2.35
459.05	2.31
459.255	2.31
459.46	2.38
459.665	2.55
459.87	2.48
460.075	2.54
460.28	2.7
460.485	2.65
460.69	2.59
460.895	2.4
461.099	2.43
461.304	2.37
461.509	2.41
461.714	2.48
461.919	2.7
462.123	2.63
462.328	2.65
462.533	2.58
462.738	2.62
462.942	2.56
463.147	2.64
463.352	2.63
463.556	2.7
463.761	2.62
463.966	2.64
464.17	2.7
464.375	2.76
464.58	2.7
464.784	2.75
464.989	2.73
465.193	2.53
465.398	2.53
465.602	2.76
465.807	2.8
466.011	2.9
466.216	2.99
466.42	2.92
466.625	2.86
