Data from Ofav_PP_Phys_2EV44_Reflection_2.txt Node
Date: Tue Aug 03 18:04:58 EDT 2021
User: Adam
Spectrometer: FLMT01687
Trigger mode: 0
Integration Time (sec): 8.750000E-1
Scans to average: 2
Electric dark correction enabled: true
Nonlinearity correction enabled: false
Boxcar width: 2
XAxis mode: Wavelengths
Number of Pixels in Spectrum: 3648
>>>>>Begin Spectral Data<<<<<
179.494	85.84
179.716	162.12
179.937	227.66
180.158	-203.54
180.38	42.17
180.601	42.38
180.823	31.59
181.044	64.08
181.265	-15.42
181.486	-333.91
181.708	108.54
181.929	105.56
182.15	49.38
182.372	-13.15
182.593	828.67
182.814	162.32
183.035	70.26
183.257	13.81
183.478	29.68
183.699	4.77
183.92	0.14
184.141	13.2
184.363	12.67
184.584	-45.33
184.805	-26.1
185.026	-42.99
185.247	-45.73
185.468	-32.04
185.689	-8.19
185.91	13.29
186.132	14.96
186.353	15.7
186.574	2.27
186.795	13.63
187.016	9.04
187.237	27.94
187.458	38.2
187.679	35.88
187.9	47.71
188.121	36.37
188.342	14.17
188.563	3.52
188.784	8.66
189.005	3.33
189.226	7.28
189.447	-1.05
189.667	-17.73
189.888	-35.13
190.109	-23
190.33	-41.7
190.551	-36.41
190.772	-10.68
190.993	-3.94
191.214	7.39
191.434	20.97
191.655	1.16
191.876	14.89
192.097	20.99
192.318	11.31
192.538	30.81
192.759	61.86
192.98	43.04
193.201	22.9
193.421	32.05
193.642	-19.01
193.863	11.97
194.083	16.96
194.304	21.46
194.525	-4.37
194.745	28.64
194.966	32.23
195.187	38.37
195.407	48.88
195.628	50.77
195.848	39.84
196.069	40.53
196.29	9.28
196.51	-6.08
196.731	2.09
196.951	2.14
197.172	-14.89
197.392	-6.55
197.613	-19.13
197.833	10.14
198.054	6.31
198.274	3.62
198.495	15.63
198.715	31.22
198.936	15.83
199.156	33.98
199.377	27.57
199.597	33.17
199.817	41.51
200.038	39.73
200.258	30.26
200.479	16.79
200.699	16.1
200.919	-16.93
201.14	27.55
201.36	-2.1
201.58	36.69
201.801	9.98
202.021	19.16
202.241	-1.33
202.461	21.74
202.682	20.4
202.902	25.95
203.122	40.37
203.342	41.45
203.563	50.72
203.783	38.43
204.003	34.4
204.223	12.71
204.443	6.72
204.663	7.38
204.884	4.93
205.104	18.03
205.324	30.87
205.544	14.81
205.764	15.77
205.984	1.33
206.204	4.65
206.424	-25.18
206.644	12.21
206.864	10.04
207.084	19.23
207.304	-1.05
207.525	18.6
207.745	15.82
207.964	-3.75
208.184	21.33
208.404	37.22
208.624	23.14
208.844	17.18
209.064	30.93
209.284	19.31
209.504	-7.08
209.724	7.87
209.944	7.58
210.164	-38.07
210.384	-9.07
210.604	10.6
210.823	-8.08
211.043	-11.36
211.263	-6.33
211.483	-2.42
211.703	3.39
211.922	24.1
212.142	43.7
212.362	46.49
212.582	43.95
212.801	20.7
213.021	27.67
213.241	31.35
213.461	40.16
213.68	33.19
213.9	39.12
214.12	23.38
214.339	35.83
214.559	56.12
214.779	60.79
214.998	68.34
215.218	67.63
215.438	41.17
215.657	23.64
215.877	25.07
216.096	19.92
216.316	18.54
216.535	10.88
216.755	1.45
216.974	10.5
217.194	12
217.413	11.49
217.633	28.75
217.852	36.62
218.072	28.65
218.291	20.4
218.511	38.36
218.73	35.6
218.95	33.97
219.169	39.83
219.389	48.25
219.608	38.13
219.827	11.7
220.047	-45
220.266	-30.64
220.485	-8.55
220.705	-3.31
220.924	5.61
221.143	31.05
221.363	35.07
221.582	32.91
221.801	41.64
222.021	32.96
222.24	20.36
222.459	-2.15
222.678	3.78
222.897	-8.01
223.117	-46.34
223.336	-144.38
223.555	-55.8
223.774	-14.43
223.993	-9.44
224.213	-7.1
224.432	6.4
224.651	24.76
224.87	14.08
225.089	3.35
225.308	3.09
225.527	-12.22
225.746	-60.54
225.965	-48.57
226.184	-41.52
226.404	-8.11
226.623	16.48
226.842	25.03
227.061	6.11
227.28	16.62
227.499	11.68
227.718	6.14
227.936	11.74
228.155	26.16
228.374	24.91
228.593	20.36
228.812	1.11
229.031	-14.85
229.25	-0.36
229.469	-7.77
229.688	-33.84
229.907	-68.66
230.125	-42.12
230.344	-61.27
230.563	-32.28
230.782	-10.49
231.001	23.83
231.22	19.56
231.438	10.82
231.657	-8.16
231.876	2.77
232.095	-4.23
232.313	-3.6
232.532	-8.52
232.751	30.8
232.969	23.08
233.188	30.63
233.407	31.95
233.625	30.2
233.844	8.73
234.063	11.79
234.281	12.8
234.5	12.32
234.719	2.03
234.937	20.9
235.156	2.88
235.374	8.67
235.593	18.97
235.811	17.27
236.03	20.29
236.249	37.9
236.467	29.91
236.686	21.44
236.904	29.3
237.123	10.2
237.341	21.9
237.559	30.06
237.778	27.07
237.996	15.79
238.215	21.49
238.433	14.38
238.652	16.57
238.87	23.64
239.088	30.74
239.307	36.03
239.525	31.51
239.743	32.3
239.962	23.78
240.18	37.07
240.398	42.87
240.617	40.58
240.835	24.65
241.053	17.56
241.271	-16.93
241.49	-46.36
241.708	-30.14
241.926	-15.42
242.144	2.88
242.363	15.36
242.581	24.61
242.799	20.04
243.017	18.22
243.235	28.27
243.453	28.48
243.672	33.53
243.89	33.17
244.108	38.58
244.326	8.37
244.544	10.89
244.762	13.73
244.98	1.48
245.198	17.26
245.416	33.22
245.634	22.7
245.852	12.38
246.07	12.56
246.288	-14.13
246.506	0.82
246.724	-3.44
246.942	-5.7
247.16	-1.26
247.378	0.86
247.596	0.93
247.814	5.51
248.032	-0.22
248.25	4.37
248.468	18.62
248.685	22.14
248.903	12.78
249.121	13.88
249.339	10.04
249.557	15.12
249.775	-2.53
249.992	12.72
250.21	24.21
250.428	10.05
250.646	-18.41
250.863	-13.15
251.081	-39.53
251.299	-43.82
251.517	-9.39
251.734	-4.6
251.952	4.49
252.17	23.08
252.387	1.98
252.605	-10.88
252.823	2.5
253.04	1.62
253.258	12.68
253.475	26.39
253.693	18.49
253.911	33.49
254.128	33.88
254.346	37.93
254.563	29.86
254.781	49.56
254.998	10.83
255.216	5.58
255.433	-2.45
255.651	5.06
255.868	-18
256.086	-13.64
256.303	-8.5
256.521	0.48
256.738	-10.46
256.956	-2.42
257.173	8.33
257.39	9.46
257.608	-6.36
257.825	-20.5
258.043	-37.31
258.26	-26.85
258.477	-11.49
258.695	1.21
258.912	-1.44
259.129	11.54
259.346	6.63
259.564	11.95
259.781	22.86
259.998	38.35
260.216	43.46
260.433	45.93
260.65	32.64
260.867	17.86
261.084	11.9
261.302	-10.9
261.519	3.26
261.736	7.12
261.953	24.2
262.17	24.78
262.387	19.76
262.604	24.17
262.822	6.62
263.039	-0.07
263.256	5.78
263.473	21.24
263.69	14.26
263.907	27.31
264.124	15.11
264.341	7.57
264.558	-9.16
264.775	-6.86
264.992	-13.09
265.209	-4.38
265.426	-7.44
265.643	6.41
265.86	3.79
266.077	10.63
266.294	13.73
266.51	21.29
266.727	27.19
266.944	35.71
267.161	41.56
267.378	36.47
267.595	28.72
267.812	22.98
268.028	13.74
268.245	16.16
268.462	35.23
268.679	28.83
268.896	25.42
269.112	24
269.329	12.27
269.546	-40.88
269.763	-17.04
269.979	-16.79
270.196	5.26
270.413	23.4
270.629	28.81
270.846	25.35
271.063	15.32
271.279	1.74
271.496	-5.3
271.712	7.45
271.929	18.66
272.146	51.61
272.362	55.22
272.579	47.11
272.795	43.4
273.012	38
273.228	23.45
273.445	11.83
273.661	25.37
273.878	12.26
274.094	-7.43
274.311	-33.76
274.527	-27.98
274.744	-30.96
274.96	-13.5
275.177	-10.28
275.393	0.1
275.609	10.64
275.826	0.71
276.042	-15.35
276.259	-22.7
276.475	-35
276.691	-42.89
276.908	-28.69
277.124	-11.12
277.34	2.51
277.557	-8.16
277.773	6.51
277.989	12.64
278.205	-0.86
278.422	1.33
278.638	17.01
278.854	-0.19
279.07	-1.91
279.286	17.96
279.503	28.39
279.719	35.71
279.935	47.02
280.151	48.03
280.367	35.7
280.583	7.17
280.799	7.06
281.016	22.26
281.232	-1.05
281.448	0.12
281.664	18.86
281.88	11.2
282.096	3.05
282.312	-3.69
282.528	-13.2
282.744	-18.35
282.96	-18.18
283.176	-3.99
283.392	9
283.608	17.99
283.824	18.64
284.04	20.59
284.256	17.9
284.471	11.11
284.687	16.01
284.903	19.12
285.119	18.89
285.335	11.98
285.551	26.82
285.767	23.35
285.982	16.37
286.198	16.71
286.414	20.28
286.63	17.63
286.846	9.59
287.061	15.45
287.277	13.3
287.493	16.42
287.709	6.43
287.924	12.61
288.14	11.95
288.356	5.75
288.571	6.46
288.787	7.51
289.003	8.34
289.218	-8.15
289.434	8.4
289.65	13.31
289.865	11.41
290.081	-4.99
290.296	11.11
290.512	6.46
290.727	-9.58
290.943	7.04
291.159	28.84
291.374	27.66
291.59	32.49
291.805	30.54
292.021	38.23
292.236	40.13
292.451	31.91
292.667	38.04
292.882	31.59
293.098	10.52
293.313	-1
293.529	3.22
293.744	-8.72
293.959	11.8
294.175	19.44
294.39	23.67
294.605	29.45
294.821	11.38
295.036	7.63
295.251	18.02
295.467	13.34
295.682	22.06
295.897	25.13
296.112	29.51
296.328	-0.98
296.543	14.47
296.758	-6.83
296.973	6.73
297.188	0.65
297.404	24.91
297.619	0.26
297.834	-1.9
298.049	-9.65
298.264	-3.96
298.479	-17.12
298.694	-8.65
298.909	0.82
299.125	6.97
299.34	-12.17
299.555	9.32
299.77	-15.37
299.985	-4.97
300.2	2.65
300.415	7.69
300.63	10.37
300.845	24.44
301.06	13.44
301.275	1.33
301.49	8.71
301.704	-1.19
301.919	8.2
302.134	21.78
302.349	38.66
302.564	53.56
302.779	40.31
302.994	38.31
303.209	37.58
303.423	24.95
303.638	16.09
303.853	26.67
304.068	20.46
304.283	24.27
304.497	32.68
304.712	41.92
304.927	34.34
305.142	33.82
305.356	24.36
305.571	8.25
305.786	5.44
306	20.08
306.215	20.7
306.43	27.99
306.644	36.7
306.859	28.31
307.074	24.57
307.288	33.86
307.503	33.82
307.717	25.09
307.932	21.03
308.147	10.31
308.361	13.96
308.576	0.12
308.79	23.28
309.005	30.54
309.219	22.63
309.434	3.63
309.648	11.94
309.863	-18.71
310.077	-29.31
310.292	-3.77
310.506	16.72
310.72	18.78
310.935	23.39
311.149	19.73
311.364	11.49
311.578	-10.48
311.792	-0.25
312.007	-7.13
312.221	-6.19
312.435	-10.3
312.649	16.33
312.864	2.09
313.078	10.59
313.292	14.83
313.507	18.14
313.721	-7.37
313.935	0.26
314.149	3.58
314.363	-2.77
314.578	-7.29
314.792	-1.43
315.006	-20.65
315.22	-18.26
315.434	-9.03
315.648	-21.71
315.862	9.45
316.077	12.76
316.291	6.8
316.505	7.73
316.719	17.73
316.933	17.63
317.147	14.38
317.361	19.4
317.575	19.3
317.789	20.38
318.003	26.03
318.217	31.24
318.431	42.56
318.645	26.16
318.859	21.29
319.073	7.95
319.287	12.09
319.5	15.54
319.714	36.9
319.928	41.97
320.142	34.9
320.356	35.52
320.57	31.32
320.784	29.59
320.997	32.16
321.211	48.32
321.425	39.57
321.639	27.85
321.853	7.86
322.066	3.06
322.28	-15.42
322.494	-9.9
322.707	-14.4
322.921	4.41
323.135	-0.07
323.349	-5.54
323.562	14.35
323.776	28.67
323.989	24.79
324.203	26.61
324.417	40.75
324.63	37.5
324.844	24.76
325.057	20.22
325.271	8.12
325.485	-2.22
325.698	-30.77
325.912	-25.13
326.125	-23.55
326.339	-27.06
326.552	-32.74
326.766	-2.42
326.979	13.17
327.193	22.23
327.406	29.18
327.619	33.43
327.833	19.25
328.046	18.05
328.26	4.3
328.473	9.08
328.686	18.72
328.9	15.69
329.113	16.49
329.326	35.61
329.54	25.55
329.753	18.34
329.966	32.79
330.179	19.03
330.393	22.47
330.606	36.38
330.819	44.14
331.032	41.98
331.246	50.64
331.459	34.36
331.672	15.38
331.885	4.32
332.098	-11.93
332.311	-1.65
332.525	5.37
332.738	22.15
332.951	28.57
333.164	28.07
333.377	21.56
333.59	18.4
333.803	21.94
334.016	12.4
334.229	28.14
334.442	19.32
334.655	7.24
334.868	-16.69
335.081	-12.02
335.294	-34.17
335.507	-13.81
335.72	-16.57
335.933	-4.28
336.146	12.72
336.359	24.4
336.572	12.5
336.785	23.54
336.997	31.44
337.21	16.33
337.423	17.08
337.636	34.09
337.849	34.85
338.062	32.86
338.274	26.45
338.487	27.43
338.7	20.92
338.913	24.84
339.125	19.24
339.338	11.48
339.551	-1.76
339.763	-5.09
339.976	-8
340.189	-8.29
340.402	6.55
340.614	12.81
340.827	17.68
341.039	19.79
341.252	27.44
341.465	22.8
341.677	20.97
341.89	18.45
342.102	17.78
342.315	18.48
342.527	12.92
342.74	15.42
342.952	10.28
343.165	25.37
343.377	9.18
343.59	17.88
343.802	15.26
344.015	20.88
344.227	-0.39
344.44	15.85
344.652	9.93
344.864	3.83
345.077	1.7
345.289	-0.95
345.502	-21.75
345.714	-17.11
345.926	8.67
346.139	0.73
346.351	10.7
346.563	14.92
346.775	29.24
346.988	14.8
347.2	22.52
347.412	19.76
347.624	16.58
347.837	0.81
348.049	13.92
348.261	2.56
348.473	-4.25
348.685	8.11
348.897	5.72
349.11	3.01
349.322	2.77
349.534	4.58
349.746	-6.45
349.958	-4.78
350.17	-2.35
350.382	-1.8
350.594	1.75
350.806	5.37
351.018	9.37
351.23	-3.03
351.442	-0.6
351.654	-24.64
351.866	-7.45
352.078	-20.89
352.29	-9.02
352.502	-17.22
352.714	5.68
352.926	-11.52
353.138	-14.08
353.35	-6.06
353.561	9.81
353.773	14.04
353.985	16.46
354.197	26.9
354.409	30.22
354.621	27.28
354.832	22.61
355.044	23.62
355.256	22.34
355.468	10.06
355.679	10.38
355.891	18.17
356.103	22.27
356.314	16.86
356.526	14.66
356.738	26.63
356.949	16.42
357.161	2.72
357.373	12.41
357.584	36.74
357.796	31.76
358.008	29
358.219	31.02
358.431	32.25
358.642	13.98
358.854	1.84
359.065	10.02
359.277	21.92
359.488	6.39
359.7	4.04
359.911	-2.92
360.123	7.4
360.334	-3.39
360.546	9
360.757	10.91
360.969	25.77
361.18	22.29
361.391	28.75
361.603	25.36
361.814	16.28
362.025	16.81
362.237	16.71
362.448	12.78
362.659	3.88
362.871	14.54
363.082	7.59
363.293	-6.25
363.504	-6.41
363.716	20.73
363.927	21.12
364.138	28.69
364.349	39.71
364.56	43.35
364.772	37.57
364.983	36.57
365.194	34.59
365.405	25.06
365.616	26.76
365.827	25.53
366.038	20.52
366.25	9.48
366.461	20.48
366.672	9.75
366.883	5.49
367.094	11.3
367.305	21.63
367.516	11.38
367.727	11.3
367.938	16.32
368.149	7.79
368.36	-7.66
368.571	5.99
368.781	10.18
368.992	5.5
369.203	6.62
369.414	26.39
369.625	7.49
369.836	7.88
370.047	-4.58
370.258	-10
370.468	-23.77
370.679	2.24
370.89	3.34
371.101	15.23
371.312	25.19
371.522	27.9
371.733	25.61
371.944	23.23
372.155	31.23
372.365	22.43
372.576	35.15
372.787	24.3
372.997	25.35
373.208	21.21
373.419	22.15
373.629	0.92
373.84	4.88
374.05	-2.35
374.261	-5.3
374.472	-0.89
374.682	0.69
374.893	-2.37
375.103	-1.26
375.314	-0.94
375.524	1.04
375.735	6.32
375.945	10.49
376.156	15.67
376.366	18.15
376.577	19.32
376.787	20.92
376.997	15.72
377.208	18.41
377.418	14.54
377.629	18.8
377.839	11.02
378.049	19.54
378.26	15.66
378.47	22.08
378.68	10.3
378.89	26.29
379.101	21.89
379.311	19.34
379.521	24.09
379.732	32.2
379.942	25.52
380.152	26.15
380.362	28.32
380.572	24.95
380.783	27.84
380.993	19.85
381.203	19.8
381.413	15.29
381.623	10.58
381.833	3.05
382.043	9.12
382.253	4.82
382.463	12.49
382.674	14.33
382.884	17.4
383.094	16.77
383.304	22.15
383.514	12.52
383.724	7.51
383.934	7.21
384.144	5.3
384.353	0.58
384.563	3.67
384.773	0.25
384.983	-1.55
385.193	5.36
385.403	9.82
385.613	9.84
385.823	14.51
386.033	11.33
386.242	12.07
386.452	6.26
386.662	6.41
386.872	7.58
387.082	5.74
387.291	0.17
387.501	3.25
387.711	3.93
387.921	4.56
388.13	6.72
388.34	5.42
388.55	7.68
388.759	4.62
388.969	1.91
389.179	2.15
389.388	2.43
389.598	1.45
389.807	3.49
390.017	3.68
390.227	2.67
390.436	3.62
390.646	1.49
390.855	-0.37
391.065	-0.36
391.274	0.82
391.484	2.95
391.693	3.77
391.903	4.78
392.112	5.28
392.322	4.81
392.531	3.31
392.74	3.48
392.95	4.33
393.159	2.24
393.369	2.55
393.578	1.9
393.787	2.9
393.997	2.59
394.206	4.08
394.415	4.09
394.625	4.73
394.834	3.9
395.043	3.63
395.252	4.31
395.462	3.94
395.671	3.36
395.88	3.34
396.089	3.26
396.298	2.24
396.508	2.72
396.717	3.48
396.926	3.15
397.135	3.05
397.344	3.4
397.553	2.75
397.762	1.95
397.971	1.76
398.181	1.96
398.39	2.05
398.599	2.29
398.808	2.71
399.017	2.71
399.226	2.13
399.435	1.81
399.644	1.7
399.853	1.63
400.062	1.71
400.27	2.17
400.479	2.41
400.688	2.41
400.897	2.66
401.106	2.64
401.315	2.49
401.524	2.48
401.733	2.34
401.941	1.93
402.15	2.05
402.359	2.15
402.568	2.15
402.777	2.17
402.985	2.33
403.194	2.3
403.403	2.24
403.612	2.05
403.82	2.05
404.029	1.96
404.238	2.12
404.446	2.05
404.655	2.12
404.864	2.13
405.072	2.23
405.281	2.1
405.489	2.19
405.698	2.26
405.906	2.36
406.115	2.26
406.324	2.24
406.532	2.27
406.741	2.22
406.949	2.05
407.158	2.25
407.366	2.32
407.574	2.21
407.783	2.34
407.991	2.42
408.2	2.21
408.408	2.08
408.617	2.16
408.825	2.08
409.033	2.09
409.242	2.16
409.45	2.09
409.658	2.14
409.867	2.08
410.075	2.04
410.283	1.97
410.491	2.04
410.7	1.88
410.908	1.85
411.116	1.88
411.324	1.99
411.533	1.95
411.741	2.01
411.949	1.89
412.157	1.89
412.365	1.83
412.573	1.89
412.781	1.86
412.99	1.99
413.198	1.97
413.406	1.95
413.614	1.99
413.822	2
414.03	2.01
414.238	2.01
414.446	1.97
414.654	1.97
414.862	2.11
415.07	1.98
415.278	1.89
415.486	1.93
415.694	1.92
415.902	1.7
416.109	1.77
416.317	1.93
416.525	1.77
416.733	1.79
416.941	1.94
417.149	2.03
417.357	1.93
417.564	2.12
417.772	2.01
417.98	2.09
418.188	2.19
418.395	2.22
418.603	2.22
418.811	2.29
419.019	2.02
419.226	2.03
419.434	1.91
419.642	1.93
419.849	1.91
420.057	2.03
420.265	1.79
420.472	1.93
420.68	1.85
420.887	1.75
421.095	1.62
421.302	1.75
421.51	1.64
421.717	1.57
421.925	1.63
422.132	1.67
422.34	1.62
422.547	1.73
422.755	1.86
422.962	2.01
423.17	2.04
423.377	1.97
423.585	1.85
423.792	1.73
423.999	1.48
424.207	1.59
424.414	1.54
424.621	1.55
424.829	1.67
425.036	1.85
425.243	1.66
425.451	1.65
425.658	1.67
425.865	1.53
426.072	1.39
426.28	1.43
426.487	1.6
426.694	1.55
426.901	1.61
427.108	1.65
427.315	1.89
427.523	1.81
427.73	1.82
427.937	1.82
428.144	1.8
428.351	1.65
428.558	1.55
428.765	1.62
428.972	1.74
429.179	1.71
429.386	1.71
429.593	1.77
429.8	1.84
430.007	1.65
430.214	1.75
430.421	1.82
430.628	1.81
430.835	1.76
431.042	1.89
431.249	1.87
431.456	1.92
431.662	1.99
431.869	2.15
432.076	2.07
432.283	2
432.49	1.93
432.697	1.91
432.903	1.73
433.11	1.61
433.317	1.64
433.524	1.64
433.73	1.72
433.937	1.61
434.144	1.77
434.35	1.75
434.557	1.83
434.764	1.86
434.97	2.06
435.177	2.01
435.384	2
435.59	1.93
435.797	1.73
436.003	1.64
436.21	1.69
436.416	1.81
436.623	1.71
436.829	1.81
437.036	1.9
437.242	1.96
437.449	1.79
437.655	1.82
437.862	1.76
438.068	1.63
438.275	1.65
438.481	1.66
438.687	1.8
438.894	2.01
439.1	2.06
439.307	1.9
439.513	1.91
439.719	1.85
439.926	1.65
440.132	1.75
440.338	1.91
440.544	1.95
440.751	1.9
440.957	1.99
441.163	1.95
441.369	1.89
441.575	1.87
441.782	1.97
441.988	2.05
442.194	2.05
442.4	2.14
442.606	2.19
442.812	2.19
443.018	2.17
443.224	2.13
443.431	2.04
443.637	2.11
443.843	2.06
444.049	2.05
444.255	2.23
444.461	2.43
444.667	2.37
444.873	2.35
445.079	2.28
445.284	2.26
445.49	2.13
445.696	2.22
445.902	2.17
446.108	2.26
446.314	2.18
446.52	2.37
446.726	2.36
446.931	2.45
447.137	2.4
447.343	2.38
447.549	2.23
447.755	2.2
447.96	2.12
448.166	2.13
448.372	2.05
448.578	2.03
448.783	2
448.989	2.14
449.195	2.2
449.4	2.28
449.606	2.23
449.812	2.22
450.017	2.15
450.223	2.14
450.428	2.22
450.634	2.37
450.84	2.39
451.045	2.51
451.251	2.48
451.456	2.45
451.662	2.21
451.867	2.16
452.073	2.09
452.278	2
452.483	1.96
452.689	2.08
452.894	2.17
453.1	2.17
453.305	2.29
453.51	2.32
453.716	2.4
453.921	2.39
454.127	2.37
454.332	2.37
454.537	2.35
454.742	2.27
454.948	2.22
455.153	2.31
455.358	2.25
455.563	2.21
455.769	2.26
455.974	2.26
456.179	2.25
456.384	2.25
456.589	2.37
456.795	2.28
457	2.35
457.205	2.25
457.41	2.21
457.615	2.17
457.82	2.23
458.025	2.23
458.23	2.28
458.435	2.29
458.64	2.23
458.845	2.25
459.05	2.21
459.255	2.25
459.46	2.25
459.665	2.23
459.87	2.23
460.075	2.15
460.28	2.14
460.485	2.18
460.69	2.17
460.895	2.21
461.099	2.23
461.304	2.21
461.509	2.18
461.714	2.29
461.919	2.24
462.123	2.31
462.328	2.37
462.533	2.46
462.738	2.49
462.942	2.46
463.147	2.49
463.352	2.35
463.556	2.32
463.761	2.23
463.966	2.23
464.17	2.22
464.375	2.29
464.58	2.25
464.784	2.17
464.989	2.22
465.193	2.19
465.398	2.16
465.602	2.14
465.807	2.36
466.011	2.36
466.216	2.35
466.42	2.41
466.625	2.58
466.829	2.43
467.034	2.48
467.238	2.47
467.443	2.46
467.647	2.45
467.851	2.52
468.056	2.48
468.26	2.57
468.464	2.6
468.669	2.51
468.873	2.46
469.077	2.45
469.282	2.49
469.486	2.47
