Data from Ofav_PP_Phys_2AZ2_Reflection_3.txt Node
Date: Tue Aug 03 18:08:01 EDT 2021
User: Adam
Spectrometer: FLMT01687
Trigger mode: 0
Integration Time (sec): 8.750000E-1
Scans to average: 2
Electric dark correction enabled: true
Nonlinearity correction enabled: false
Boxcar width: 2
XAxis mode: Wavelengths
Number of Pixels in Spectrum: 3648
>>>>>Begin Spectral Data<<<<<
179.494	99.1
179.716	116.76
179.937	104.35
180.158	283.46
180.38	652.63
180.601	116.96
180.823	71.52
181.044	81.27
181.265	-17.96
181.486	161.19
181.708	134.95
181.929	135.34
182.15	98.74
182.372	298.73
182.593	35.44
182.814	248.35
183.035	55.32
183.257	-376.47
183.478	185.43
183.699	-26.51
183.92	-39.8
184.141	-92.96
184.363	-35.65
184.584	-157.98
184.805	-45.03
185.026	-29.79
185.247	2.07
185.468	-6.54
185.689	7.91
185.91	26.26
186.132	-0.79
186.353	-2.49
186.574	-46.82
186.795	-31.5
187.016	-34.9
187.237	-11.83
187.458	-20.43
187.679	-6.46
187.9	-11.73
188.121	0.52
188.342	-37.97
188.563	-43.18
188.784	-36.06
189.005	-48.19
189.226	-64.4
189.447	-22.81
189.667	-16.56
189.888	17.82
190.109	60.17
190.33	94.56
190.551	86.24
190.772	136.49
190.993	74.55
191.214	67.21
191.434	32.03
191.655	15.69
191.876	-2.39
192.097	26.01
192.318	26.21
192.538	25.66
192.759	18.2
192.98	27.38
193.201	-7.15
193.421	-3.02
193.642	-10.28
193.863	0.85
194.083	25.18
194.304	21.02
194.525	-2.26
194.745	22.68
194.966	23.43
195.187	4.48
195.407	28.53
195.628	41.25
195.848	21.61
196.069	36.29
196.29	1.7
196.51	-37.71
196.731	-34.07
196.951	-7.34
197.172	10.72
197.392	31.63
197.613	27.47
197.833	33.51
198.054	39.6
198.274	-6.19
198.495	9.66
198.715	29.53
198.936	16.74
199.156	-3.48
199.377	4.21
199.597	-4.14
199.817	3.71
200.038	1.96
200.258	-4.29
200.479	-60.22
200.699	-38.26
200.919	-34.04
201.14	33.83
201.36	44.23
201.58	53.15
201.801	32.63
202.021	15.34
202.241	-21.23
202.461	-1.8
202.682	16.15
202.902	0.33
203.122	14.78
203.342	33.17
203.563	-3.9
203.783	20.32
204.003	37.28
204.223	40.55
204.443	23.27
204.663	23.36
204.884	1.45
205.104	-3.3
205.324	-14.85
205.544	-21.92
205.764	0.38
205.984	-32.69
206.204	-17.48
206.424	-76.01
206.644	-25.86
206.864	-39.84
207.084	26.29
207.304	19.69
207.525	34.22
207.745	65.58
207.964	-2.66
208.184	-14.81
208.404	16.81
208.624	28.2
208.844	13.02
209.064	52.38
209.284	56.44
209.504	35.25
209.724	14.77
209.944	5.03
210.164	-28.27
210.384	-4.02
210.604	-39.92
210.823	-73.36
211.043	9.18
211.263	-1.83
211.483	-9.47
211.703	37.72
211.922	27.9
212.142	27.66
212.362	19.97
212.582	0.9
212.801	-20.82
213.021	-8.34
213.241	-29.98
213.461	28.38
213.68	56.79
213.9	38.1
214.12	27.77
214.339	27.67
214.559	25.67
214.779	22.43
214.998	42.46
215.218	44.96
215.438	45.84
215.657	30.28
215.877	23.43
216.096	7.62
216.316	10.26
216.535	-19.96
216.755	-50.82
216.974	-20.78
217.194	-7.92
217.413	12.48
217.633	34.67
217.852	59.83
218.072	56.48
218.291	54.53
218.511	39.7
218.73	50.05
218.95	34.13
219.169	28.57
219.389	21.05
219.608	22.91
219.827	-3.73
220.047	-13.59
220.266	-6.34
220.485	10.99
220.705	21.35
220.924	15.07
221.143	22.31
221.363	41.66
221.582	34.37
221.801	29.24
222.021	22.64
222.24	17.28
222.459	-27.29
222.678	-14.79
222.897	-30.28
223.117	-100.26
223.336	-300.72
223.555	-131.95
223.774	-115.64
223.993	-60.32
224.213	-11.18
224.432	10.15
224.651	17.76
224.87	28.45
225.089	10.53
225.308	9.58
225.527	-14.93
225.746	-49.75
225.965	-69.5
226.184	-105.44
226.404	-45.44
226.623	-2.42
226.842	12.84
227.061	-13.9
227.28	9.22
227.499	24.57
227.718	11.91
227.936	3.33
228.155	21.77
228.374	24.18
228.593	14.75
228.812	-7.21
229.031	-3.09
229.25	16.45
229.469	-14.48
229.688	-70.89
229.907	-69.16
230.125	-81
230.344	-58.82
230.563	-66.33
230.782	-33.48
231.001	4.09
231.22	9.44
231.438	-1.32
231.657	15.33
231.876	14.16
232.095	5.31
232.313	0.85
232.532	-16.74
232.751	23.07
232.969	25.09
233.188	17.67
233.407	20.6
233.625	44.46
233.844	6.36
234.063	-0.72
234.281	16.73
234.5	-2.1
234.719	-17.58
234.937	23.74
235.156	19.05
235.374	3.03
235.593	23.61
235.811	20.96
236.03	10.47
236.249	17.37
236.467	19.27
236.686	8.43
236.904	12.1
237.123	12.44
237.341	21.5
237.559	27.24
237.778	38.69
237.996	29.7
238.215	25.99
238.433	12.13
238.652	14.7
238.87	19.15
239.088	18.18
239.307	19.36
239.525	18.07
239.743	20.86
239.962	19.74
240.18	26.53
240.398	45.1
240.617	42.22
240.835	25.62
241.053	10.38
241.271	-43.09
241.49	-37.67
241.708	2.7
241.926	13.73
242.144	5.85
242.363	35.67
242.581	32.45
242.799	10.25
243.017	5.91
243.235	39.45
243.453	33.5
243.672	17.62
243.89	34.65
244.108	32.19
244.326	-4.06
244.544	-3.43
244.762	12.82
244.98	4.11
245.198	9.66
245.416	22.83
245.634	12.7
245.852	2.26
246.07	9.8
246.288	-10.66
246.506	8.89
246.724	6.34
246.942	7.24
247.16	-3.57
247.378	-6.55
247.596	-4.52
247.814	10.86
248.032	15.04
248.25	13.96
248.468	16.92
248.685	23.26
248.903	-4.26
249.121	-12.92
249.339	2.47
249.557	22.61
249.775	6.2
249.992	33.99
250.21	33.5
250.428	23.77
250.646	-15.6
250.863	-9.68
251.081	-35.92
251.299	-36.48
251.517	-18.65
251.734	-17.64
251.952	-36.92
252.17	-21.29
252.387	-61.69
252.605	-98.38
252.823	-65.45
253.04	-79.56
253.258	-22.26
253.475	24.1
253.693	26.7
253.911	51.63
254.128	88.89
254.346	81.3
254.563	56.11
254.781	59.4
254.998	44.87
255.216	14.5
255.433	-15.59
255.651	-13.68
255.868	-54.97
256.086	-65.84
256.303	-50.73
256.521	-29.5
256.738	-20.54
256.956	16.26
257.173	23.1
257.39	32.19
257.608	25.73
257.825	3.37
258.043	-40.88
258.26	2.2
258.477	8.98
258.695	16.92
258.912	19
259.129	31.31
259.346	26.76
259.564	23.13
259.781	26.15
259.998	43.14
260.216	27.32
260.433	27.36
260.65	23.14
260.867	24.87
261.084	3.13
261.302	2.12
261.519	-4.06
261.736	14.99
261.953	11.02
262.17	-7.32
262.387	-2.93
262.604	1.26
262.822	-1.28
263.039	-5.92
263.256	14.91
263.473	31.75
263.69	24.85
263.907	21.2
264.124	6.22
264.341	-19.15
264.558	-71.88
264.775	-41.66
264.992	-37.59
265.209	-28.14
265.426	-7.93
265.643	12.47
265.86	17.01
266.077	14.36
266.294	8.13
266.51	13.35
266.727	22.97
266.944	17.96
267.161	22.2
267.378	18.36
267.595	12.61
267.812	-2.79
268.028	-10.72
268.245	-2.05
268.462	27.84
268.679	28.95
268.896	6.1
269.112	18.59
269.329	-11.64
269.546	-72.21
269.763	-40.44
269.979	-15.71
270.196	-2.69
270.413	18.4
270.629	23.31
270.846	28.68
271.063	31.87
271.279	26.21
271.496	20.94
271.712	-1.99
271.929	-28.13
272.146	-3.6
272.362	-6.07
272.579	-28.64
272.795	-24.16
273.012	-0.34
273.228	4.53
273.445	-2.26
273.661	9.39
273.878	26.78
274.094	24.22
274.311	16.13
274.527	8.22
274.744	24.69
274.96	6.21
275.177	-29.19
275.393	-7.79
275.609	-9.77
275.826	-6.3
276.042	8.08
276.259	17.13
276.475	6.76
276.691	20.59
276.908	16.55
277.124	5.02
277.34	8.97
277.557	-7.57
277.773	5.38
277.989	7.51
278.205	14.13
278.422	8.2
278.638	27.03
278.854	20.81
279.07	18.5
279.286	10.17
279.503	26.81
279.719	24.14
279.935	16.38
280.151	16.27
280.367	15.25
280.583	-10.42
280.799	-19.19
281.016	-20.84
281.232	-16.36
281.448	-2.22
281.664	-4.77
281.88	-2.03
282.096	8.17
282.312	-7.33
282.528	-4.01
282.744	0.95
282.96	13.38
283.176	16.56
283.392	21.3
283.608	12.8
283.824	18.39
284.04	14.83
284.256	10.63
284.471	13.86
284.687	26.19
284.903	23.53
285.119	3.04
285.335	-12.53
285.551	-22.39
285.767	-28.57
285.982	-40
286.198	-6.74
286.414	-1.14
286.63	-0.33
286.846	-1.46
287.061	9.72
287.277	6.63
287.493	6.88
287.709	-12.45
287.924	-3.83
288.14	-11.37
288.356	-23.85
288.571	-4.3
288.787	12.83
289.003	7.77
289.218	3.69
289.434	17.29
289.65	12.49
289.865	13.57
290.081	-50.45
290.296	-33.2
290.512	-51.23
290.727	-77.91
290.943	-51.26
291.159	6.75
291.374	5.23
291.59	15.38
291.805	32.29
292.021	41.98
292.236	32.34
292.451	29.74
292.667	31.99
292.882	23.09
293.098	4.49
293.313	2.63
293.529	12.56
293.744	4.98
293.959	13.36
294.175	13.18
294.39	15.93
294.605	21.67
294.821	17.06
295.036	5.35
295.251	-0.43
295.467	16.82
295.682	7.17
295.897	-7.12
296.112	-2.65
296.328	2.55
296.543	0.69
296.758	0
296.973	20.77
297.188	16.41
297.404	15.99
297.619	10.29
297.834	8.2
298.049	-2.94
298.264	17.52
298.479	15.56
298.694	10.64
298.909	12.26
299.125	27.92
299.34	1.85
299.555	3.47
299.77	-18.05
299.985	-3.05
300.2	-7.61
300.415	-2.13
300.63	-12.22
300.845	14.44
301.06	-17.9
301.275	-43.78
301.49	-21.48
301.704	-14.27
301.919	-1.94
302.134	20.58
302.349	22.99
302.564	27.68
302.779	20.55
302.994	18.15
303.209	9.34
303.423	15.8
303.638	4.73
303.853	9.06
304.068	7.61
304.283	23.95
304.497	19.08
304.712	23.08
304.927	28.28
305.142	31.53
305.356	17.76
305.571	3.86
305.786	10.01
306	24.89
306.215	20.68
306.43	19.11
306.644	21.72
306.859	17.12
307.074	10.79
307.288	26.02
307.503	29.92
307.717	32.31
307.932	30.6
308.147	25.87
308.361	7.86
308.576	-5.62
308.79	10.06
309.005	19.35
309.219	9.72
309.434	10.17
309.648	19.31
309.863	-4.68
310.077	-27.23
310.292	-17.34
310.506	-10.68
310.72	6.09
310.935	-3.76
311.149	2.58
311.364	-8.34
311.578	-29.58
311.792	-26.27
312.007	-12.48
312.221	-31.64
312.435	-4.48
312.649	24.92
312.864	-4.68
313.078	-2.89
313.292	0.97
313.507	4.37
313.721	-16.48
313.935	-10.32
314.149	0.69
314.363	-5.62
314.578	-10.91
314.792	5.48
315.006	-4.78
315.22	-11.3
315.434	-2.94
315.648	-41.48
315.862	-17.33
316.077	-6.99
316.291	-0.44
316.505	0.95
316.719	18.2
316.933	12.58
317.147	11.61
317.361	16.49
317.575	6.64
317.789	4.69
318.003	15.49
318.217	7.81
318.431	9.84
318.645	1.24
318.859	10.82
319.073	12.84
319.287	32.4
319.5	54.14
319.714	70.15
319.928	63.1
320.142	63.38
320.356	58.03
320.57	31.99
320.784	22.46
320.997	22.28
321.211	31.73
321.425	24.65
321.639	21.19
321.853	1.36
322.066	-8.32
322.28	-11.52
322.494	-24.82
322.707	-32.96
322.921	-1.24
323.135	-3.27
323.349	-11.87
323.562	11.5
323.776	24.32
323.989	20.17
324.203	32.69
324.417	30.82
324.63	34.45
324.844	35.86
325.057	30.09
325.271	24.63
325.485	37.12
325.698	5.32
325.912	-15.49
326.125	4.08
326.339	-1.95
326.552	-43.94
326.766	-16.46
326.979	-0.65
327.193	-10.61
327.406	-17.42
327.619	19.2
327.833	9
328.046	3.69
328.26	22.17
328.473	15.24
328.686	23.65
328.9	24.68
329.113	27
329.326	19.38
329.54	31.92
329.753	15.44
329.966	37.11
330.179	30.61
330.393	27.69
330.606	39.05
330.819	40.74
331.032	28.22
331.246	24
331.459	35.51
331.672	19.11
331.885	33.54
332.098	22.25
332.311	58.19
332.525	44.64
332.738	39.92
332.951	35.09
333.164	26.78
333.377	16.07
333.59	21.66
333.803	24.45
334.016	14.42
334.229	28.68
334.442	7.72
334.655	-23.76
334.868	-35.56
335.081	-24.97
335.294	-30.81
335.507	6.5
335.72	26.33
335.933	28.01
336.146	23.44
336.359	13.92
336.572	4.93
336.785	9.48
336.997	24.36
337.21	18.56
337.423	37.39
337.636	45.18
337.849	40.54
338.062	26.68
338.274	25.82
338.487	29.99
338.7	18.04
338.913	17.99
339.125	13.93
339.338	8.16
339.551	-3.31
339.763	-2.24
339.976	-2.11
340.189	-0.15
340.402	-1.48
340.614	2.03
340.827	5.58
341.039	10.89
341.252	13.93
341.465	23.58
341.677	24.6
341.89	36.38
342.102	29.53
342.315	31.2
342.527	42.31
342.74	36.35
342.952	34.04
343.165	54.89
343.377	27.66
343.59	15.26
343.802	15.63
344.015	-21.65
344.227	-59.66
344.44	-4.99
344.652	-1.84
344.864	-3.11
345.077	11.62
345.289	13.77
345.502	-41.08
345.714	-83.7
345.926	-55.67
346.139	-49.94
346.351	-49.5
346.563	-13.21
346.775	34.26
346.988	23.18
347.2	28.73
347.412	41.59
347.624	40.52
347.837	27.08
348.049	34.19
348.261	1.91
348.473	-12.33
348.685	-2.36
348.897	0.81
349.11	-13.2
349.322	-0.34
349.534	-8.12
349.746	-18.97
349.958	-33.24
350.17	-27.61
350.382	-19.28
350.594	-6.11
350.806	-11.14
351.018	3.01
351.23	15.89
351.442	21.46
351.654	7.87
351.866	24.66
352.078	21.81
352.29	8.47
352.502	-2.55
352.714	8.5
352.926	1.63
353.138	-11.6
353.35	13.99
353.561	27.8
353.773	31.19
353.985	35.42
354.197	40.99
354.409	28.54
354.621	18.62
354.832	26.31
355.044	18.3
355.256	20.84
355.468	6.99
355.679	19.27
355.891	14.75
356.103	29.48
356.314	25.96
356.526	40.15
356.738	43.55
356.949	41.36
357.161	28.33
357.373	34.06
357.584	19.48
357.796	17.44
358.008	-4.02
358.219	-1.76
358.431	3.52
358.642	-0.73
358.854	-21.8
359.065	3.77
359.277	16.85
359.488	6.34
359.7	15.44
359.911	8.09
360.123	4.69
360.334	-0.99
360.546	5.1
360.757	7.27
360.969	6.79
361.18	10.81
361.391	17.97
361.603	10.3
361.814	6.39
362.025	13.59
362.237	20.61
362.448	15.26
362.659	20.24
362.871	12.35
363.082	4.15
363.293	-9.39
363.504	-5.45
363.716	-2.9
363.927	11.24
364.138	12.38
364.349	15.52
364.56	19.07
364.772	29.04
364.983	13.08
365.194	25.69
365.405	22.33
365.616	10.48
365.827	7.4
366.038	20.52
366.25	9.06
366.461	13.89
366.672	-3.91
366.883	-13.3
367.094	-13.91
367.305	7.82
367.516	-1.15
367.727	15.41
367.938	14.38
368.149	6.99
368.36	-3.94
368.571	12.83
368.781	17.4
368.992	26.18
369.203	34.66
369.414	26.35
369.625	20.7
369.836	25.67
370.047	24.42
370.258	11.2
370.468	12.73
370.679	32.54
370.89	27.55
371.101	27.28
371.312	32.88
371.522	32.8
371.733	21.37
371.944	22.98
372.155	24.68
372.365	16.5
372.576	32.15
372.787	19.05
372.997	18.67
373.208	15.38
373.419	14.35
373.629	3.03
373.84	11.92
374.05	-1.76
374.261	-8.22
374.472	7.28
374.682	10.04
374.893	12.58
375.103	21.18
375.314	35.56
375.524	29.29
375.735	18.59
375.945	17.48
376.156	14.33
376.366	5.41
376.577	12.11
376.787	12.99
376.997	12.37
377.208	21.07
377.418	21.55
377.629	12.35
377.839	8.09
378.049	10.69
378.26	6.83
378.47	6.54
378.68	3.67
378.89	10.34
379.101	6.04
379.311	1
379.521	10.58
379.732	19.1
379.942	20.37
380.152	30.24
380.362	30.12
380.572	27.6
380.783	22.66
380.993	18.27
381.203	7.69
381.413	4.92
381.623	1.09
381.833	-1.15
382.043	6.05
382.253	8.04
382.463	13.12
382.674	11.79
382.884	14.07
383.094	5.77
383.304	8.96
383.514	4.4
383.724	3.69
383.934	11.15
384.144	12.66
384.353	6.74
384.563	6.91
384.773	7.89
384.983	3.97
385.193	2.37
385.403	9.41
385.613	14.22
385.823	12.57
386.033	9.18
386.242	11.87
386.452	9.76
386.662	3.33
386.872	4.03
387.082	1.7
387.291	-2.11
387.501	-1.58
387.711	1.42
387.921	6.87
388.13	11.22
388.34	8.95
388.55	9.79
388.759	10.91
388.969	6.83
389.179	6.19
389.388	9.56
389.598	9.75
389.807	7.1
390.017	6.97
390.227	5.39
390.436	4.79
390.646	2.42
390.855	2.69
391.065	2.63
391.274	4.5
391.484	6.15
391.693	7.09
391.903	7.44
392.112	8.58
392.322	7.57
392.531	5.67
392.74	4.12
392.95	4.83
393.159	3.14
393.369	3.45
393.578	3.25
393.787	5.8
393.997	5.83
394.206	6.73
394.415	6.38
394.625	6.91
394.834	5.86
395.043	6.29
395.252	6.18
395.462	6.29
395.671	5.12
395.88	5.36
396.089	4.38
396.298	4.65
396.508	5
396.717	5.73
396.926	5.41
397.135	4.85
397.344	4.63
397.553	4.51
397.762	4.04
397.971	3.93
398.181	4.86
398.39	4.97
398.599	4.55
398.808	5.15
399.017	4.88
399.226	4.64
399.435	4.24
399.644	4.79
399.853	4.74
400.062	5.11
400.27	4.96
400.479	5.38
400.688	5.25
400.897	5.36
401.106	5.18
401.315	5.6
401.524	5.63
401.733	5.22
401.941	4.91
402.15	5.23
402.359	5.15
402.568	5.03
402.777	5.15
402.985	5.24
403.194	5.02
403.403	4.83
403.612	4.79
403.82	4.82
404.029	4.84
404.238	4.89
404.446	4.81
404.655	4.6
404.864	4.55
405.072	4.57
405.281	4.52
405.489	4.64
405.698	4.78
405.906	4.86
406.115	4.9
406.324	4.93
406.532	4.83
406.741	4.93
406.949	4.87
407.158	4.8
407.366	4.81
407.574	4.65
407.783	4.57
407.991	4.61
408.2	4.44
408.408	4.4
408.617	4.56
408.825	4.6
409.033	4.57
409.242	4.63
409.45	4.46
409.658	4.38
409.867	4.28
410.075	4.31
410.283	4.26
410.491	4.35
410.7	4.37
410.908	4.27
411.116	4.14
411.324	4.19
411.533	4.04
411.741	3.98
411.949	3.94
412.157	4.03
412.365	3.96
412.573	4.05
412.781	4.1
412.99	4.29
413.198	4.14
413.406	4.16
413.614	4.09
413.822	4.18
414.03	4.17
414.238	4.25
414.446	4.33
414.654	4.47
414.862	4.51
415.07	4.35
415.278	4.31
415.486	4.27
415.694	4.25
415.902	4.03
416.109	4.13
416.317	4.23
416.525	4.21
416.733	4.21
416.941	4.28
417.149	4.3
417.357	4.16
417.564	4.22
417.772	4.12
417.98	4.21
418.188	4.19
418.395	4.18
418.603	4.1
418.811	4.17
419.019	4.05
419.226	3.99
419.434	3.98
419.642	3.96
419.849	4
420.057	3.94
420.265	3.9
420.472	4.05
420.68	4.03
420.887	3.95
421.095	3.84
421.302	3.91
421.51	3.68
421.717	3.61
421.925	3.39
422.132	3.48
422.34	3.42
422.547	3.36
422.755	3.27
422.962	3.44
423.17	3.45
423.377	3.53
423.585	3.73
423.792	3.76
423.999	3.65
424.207	3.62
424.414	3.36
424.621	3.16
424.829	3.3
425.036	3.4
425.243	3.37
425.451	3.54
425.658	3.63
425.865	3.62
426.072	3.6
426.28	3.65
426.487	3.68
426.694	3.5
426.901	3.46
427.108	3.6
427.315	3.73
427.523	3.57
427.73	3.67
427.937	3.79
428.144	3.65
428.351	3.61
428.558	3.65
428.765	3.9
428.972	3.75
429.179	3.71
429.386	3.61
429.593	3.78
429.8	3.81
430.007	3.92
430.214	4.13
430.421	4.22
430.628	4.11
430.835	3.97
431.042	3.85
431.249	3.71
431.456	3.72
431.662	3.72
431.869	3.74
432.076	3.73
432.283	3.8
432.49	3.78
432.697	3.86
432.903	3.88
433.11	3.82
433.317	3.73
433.524	3.71
433.73	3.69
433.937	3.7
434.144	3.84
434.35	3.86
434.557	3.96
434.764	3.98
434.97	4.05
435.177	4.12
435.384	4.27
435.59	4.15
435.797	4.08
436.003	3.84
436.21	3.84
436.416	3.83
436.623	3.85
436.829	3.84
437.036	4.09
437.242	3.99
437.449	3.86
437.655	3.92
437.862	3.97
438.068	3.89
438.275	3.92
438.481	3.84
438.687	3.83
438.894	3.97
439.1	4
439.307	3.86
439.513	4.02
439.719	3.97
439.926	3.92
440.132	3.97
440.338	4.19
440.544	4.15
440.751	4.27
440.957	4.18
441.163	4.17
441.369	4.23
441.575	4.22
441.782	4.29
441.988	4.4
442.194	4.39
442.4	4.33
442.606	4.35
442.812	4.34
443.018	4.24
443.224	4.27
443.431	4.22
443.637	4.29
443.843	4.19
444.049	4.24
444.255	4.26
444.461	4.38
444.667	4.41
444.873	4.42
445.079	4.48
445.284	4.46
445.49	4.42
445.696	4.44
445.902	4.45
446.108	4.42
446.314	4.43
446.52	4.56
446.726	4.52
446.931	4.62
447.137	4.63
447.343	4.68
447.549	4.55
447.755	4.61
447.96	4.54
448.166	4.5
448.372	4.52
448.578	4.61
448.783	4.56
448.989	4.58
449.195	4.65
449.4	4.63
449.606	4.56
449.812	4.62
450.017	4.6
450.223	4.59
450.428	4.72
450.634	4.71
450.84	4.74
451.045	4.82
451.251	4.85
451.456	4.72
451.662	4.66
451.867	4.56
452.073	4.52
452.278	4.45
452.483	4.48
452.689	4.5
452.894	4.54
453.1	4.55
453.305	4.58
453.51	4.58
453.716	4.62
453.921	4.75
454.127	4.75
454.332	4.83
454.537	4.8
454.742	4.88
454.948	4.77
455.153	4.8
455.358	4.73
455.563	4.68
455.769	4.64
455.974	4.69
456.179	4.7
456.384	4.68
456.589	4.83
456.795	4.77
457	4.75
457.205	4.73
457.41	4.75
457.615	4.73
457.82	4.82
458.025	4.83
458.23	4.94
458.435	4.93
458.64	4.89
458.845	4.95
459.05	4.99
459.255	4.89
459.46	4.97
459.665	4.96
459.87	4.92
460.075	4.88
460.28	5.09
460.485	5.02
460.69	5.03
460.895	5.13
461.099	5.13
461.304	4.92
461.509	4.98
461.714	5.04
461.919	4.88
462.123	4.86
462.328	4.97
462.533	5.04
462.738	5.1
462.942	5.14
463.147	5.23
463.352	5.08
463.556	5.12
463.761	4.98
463.966	4.96
464.17	4.91
464.375	5.04
464.58	5.01
464.784	5
464.989	5.14
465.193	5.12
465.398	5.16
465.602	5.03
465.807	5.09
466.011	5.04
466.216	5.06
466.42	5.05
466.625	5.21
466.829	5.25
467.034	5.25
467.238	5.29
467.443	5.26
467.647	5.26
467.851	5.32
