Data from Ofav_PP_Phys_2JQ31_Reflection_3.txt Node
Date: Tue Aug 03 18:08:54 EDT 2021
User: Adam
Spectrometer: FLMT01687
Trigger mode: 0
Integration Time (sec): 8.750000E-1
Scans to average: 2
Electric dark correction enabled: true
Nonlinearity correction enabled: false
Boxcar width: 2
XAxis mode: Wavelengths
Number of Pixels in Spectrum: 3648
>>>>>Begin Spectral Data<<<<<
179.494	151.8
179.716	187.86
179.937	234.19
180.158	395.67
180.38	1876.32
180.601	240.06
180.823	224.17
181.044	121.18
181.265	179.94
181.486	-132.09
181.708	107.45
181.929	225.19
182.15	121.97
182.372	419.62
182.593	-239.87
182.814	167.58
183.035	-86.17
183.257	44.12
183.478	111.59
183.699	-158.43
183.92	-46.52
184.141	-117.14
184.363	-62.69
184.584	-134.44
184.805	-5.15
185.026	-44.39
185.247	-30.9
185.468	-1.11
185.689	2.72
185.91	16.74
186.132	19.35
186.353	52.9
186.574	23.15
186.795	14.34
187.016	-6.56
187.237	2.18
187.458	-10.28
187.679	-0.4
187.9	2.7
188.121	10.59
188.342	-7.22
188.563	-14.55
188.784	-7.24
189.005	-25.44
189.226	-26.6
189.447	0.51
189.667	-13.6
189.888	-36.55
190.109	7.95
190.33	-28.05
190.551	-39.39
190.772	-22.16
190.993	0.41
191.214	-30.26
191.434	16.52
191.655	4.35
191.876	2.01
192.097	-0.74
192.318	18.85
192.538	4.45
192.759	3.41
192.98	-12.07
193.201	-41.13
193.421	-38.18
193.642	-41.04
193.863	-23.54
194.083	25.53
194.304	39.63
194.525	33.62
194.745	25.11
194.966	20.8
195.187	21.52
195.407	26.66
195.628	17.16
195.848	15.84
196.069	23.14
196.29	1.1
196.51	-12.86
196.731	10.31
196.951	25.49
197.172	51.97
197.392	41.92
197.613	51.55
197.833	65.36
198.054	75.35
198.274	37.61
198.495	47.51
198.715	54.08
198.936	57.47
199.156	35.78
199.377	48.8
199.597	42.69
199.817	37.15
200.038	17.41
200.258	18.34
200.479	-39.46
200.699	-36.2
200.919	-63.24
201.14	1.16
201.36	8.15
201.58	24.8
201.801	-7.09
202.021	-0.36
202.241	-24.31
202.461	-6.71
202.682	13.19
202.902	40.74
203.122	65.11
203.342	80.02
203.563	65.2
203.783	29.97
204.003	35.45
204.223	18.66
204.443	0.65
204.663	0.25
204.884	0.54
205.104	-2.68
205.324	11.72
205.544	29.19
205.764	13.53
205.984	-26.45
206.204	-50.77
206.424	-176.94
206.644	-45.74
206.864	-52.21
207.084	-10.21
207.304	-24.4
207.525	51.07
207.745	-1.53
207.964	-43.35
208.184	-24.22
208.404	8.47
208.624	-9.26
208.844	15.21
209.064	43.73
209.284	28.15
209.504	1.86
209.724	0.72
209.944	-18.21
210.164	-39.35
210.384	-17
210.604	0.47
210.823	-39.96
211.043	-13.67
211.263	-22.21
211.483	-15.19
211.703	27.42
211.922	38.08
212.142	43.03
212.362	26.08
212.582	34.48
212.801	-13.43
213.021	-4.24
213.241	-12.04
213.461	34.69
213.68	28.95
213.9	38.67
214.12	9.41
214.339	16.47
214.559	14.55
214.779	24.96
214.998	15.26
215.218	21.38
215.438	26.69
215.657	19.21
215.877	17.48
216.096	7.27
216.316	8.72
216.535	-22.68
216.755	-47.82
216.974	-17.91
217.194	11.79
217.413	25.54
217.633	33.08
217.852	54.23
218.072	51.31
218.291	36.04
218.511	25.45
218.73	43.47
218.95	34.56
219.169	24.98
219.389	27.19
219.608	31.44
219.827	6.77
220.047	-6.72
220.266	16.59
220.485	27.31
220.705	14.73
220.924	30.19
221.143	20.03
221.363	8.34
221.582	-28.72
221.801	-49.03
222.021	-51.86
222.24	-40.09
222.459	-96.86
222.678	-41.47
222.897	-5.02
223.117	-8.7
223.336	-147.84
223.555	-55.39
223.774	-116.91
223.993	-112.65
224.213	-136.03
224.432	-46.02
224.651	-13.09
224.87	0.48
225.089	-5.93
225.308	-8.8
225.527	-24.91
225.746	-74.54
225.965	-73.48
226.184	-54.3
226.404	18.02
226.623	40.17
226.842	47.28
227.061	25.68
227.28	19.95
227.499	19.99
227.718	11
227.936	5.25
228.155	16.92
228.374	20.29
228.593	20.59
228.812	-8.69
229.031	-20.53
229.25	3.64
229.469	-44.1
229.688	-123.92
229.907	-142.52
230.125	-107.01
230.344	-80.94
230.563	-68.95
230.782	-35.44
231.001	1.89
231.22	-2.9
231.438	-6.97
231.657	-9.04
231.876	0.55
232.095	-12.82
232.313	-25.82
232.532	-49.04
232.751	-14.39
232.969	-6.39
233.188	12.15
233.407	0.36
233.625	15.97
233.844	3.45
234.063	-7.42
234.281	-37.52
234.5	-11.82
234.719	-9.87
234.937	8.25
235.156	4.01
235.374	15.44
235.593	35.48
235.811	22.51
236.03	22.31
236.249	36.54
236.467	44.74
236.686	34.3
236.904	32.13
237.123	40.83
237.341	17.14
237.559	22.53
237.778	20.69
237.996	19.65
238.215	5.71
238.433	13.78
238.652	6.95
238.87	18.83
239.088	9.38
239.307	13.93
239.525	1.74
239.743	9.09
239.962	2.47
240.18	17.79
240.398	31.58
240.617	53.6
240.835	26.76
241.053	14.7
241.271	-45.87
241.49	-65.47
241.708	-56.88
241.926	-35.73
242.144	-26.25
242.363	14.07
242.581	13.71
242.799	19.08
243.017	14.73
243.235	31.64
243.453	24.87
243.672	35.29
243.89	29.95
244.108	30.71
244.326	4.72
244.544	-0.86
244.762	4.32
244.98	-8.15
245.198	-13.56
245.416	7.39
245.634	18.35
245.852	9.55
246.07	11.98
246.288	19.71
246.506	23.68
246.724	20.22
246.942	17.91
247.16	8.7
247.378	-7.52
247.596	-16.19
247.814	-17.6
248.032	-17.07
248.25	-34.25
248.468	-19.85
248.685	-11.06
248.903	-34.74
249.121	-17.58
249.339	-2.42
249.557	11.72
249.775	-4.76
249.992	29.32
250.21	9.31
250.428	20.7
250.646	-1.34
250.863	10.76
251.081	-2.15
251.299	-10.32
251.517	4.56
251.734	-3.91
251.952	-18.03
252.17	-41.9
252.387	-68.66
252.605	-129.94
252.823	-97.53
253.04	-103.19
253.258	-28.4
253.475	-0.41
253.693	0.87
253.911	25.39
254.128	32.25
254.346	30.26
254.563	33.43
254.781	29.96
254.998	17.11
255.216	16.97
255.433	-2.62
255.651	-3.06
255.868	-36.58
256.086	-57.33
256.303	-41.21
256.521	-14.7
256.738	-15.85
256.956	18.86
257.173	38.56
257.39	51.55
257.608	30.47
257.825	5.25
258.043	-56.63
258.26	-20.94
258.477	-28.68
258.695	-28.22
258.912	-0.37
259.129	19.34
259.346	21.41
259.564	22.21
259.781	31.35
259.998	32.12
260.216	36.53
260.433	19.74
260.65	9.84
260.867	6.8
261.084	-6.2
261.302	-30.4
261.519	-7.84
261.736	19.23
261.953	32.04
262.17	17.14
262.387	23.28
262.604	7.76
262.822	8.85
263.039	5.61
263.256	30.49
263.473	38.86
263.69	48.42
263.907	37.4
264.124	13.13
264.341	-16.91
264.558	-53.49
264.775	-18.82
264.992	-24.22
265.209	-19.96
265.426	-21.41
265.643	2.29
265.86	-5.23
266.077	13.54
266.294	17.57
266.51	32.3
266.727	28.62
266.944	16.58
267.161	2.57
267.378	-6.26
267.595	-14.23
267.812	-11.63
268.028	-15.72
268.245	-0.91
268.462	21.54
268.679	26.04
268.896	-4.24
269.112	5.36
269.329	-33.49
269.546	-91.4
269.763	-41.47
269.979	-11.23
270.196	13.3
270.413	20.66
270.629	18.45
270.846	19.31
271.063	11.15
271.279	-2.8
271.496	7.23
271.712	10.16
271.929	-7.9
272.146	27.04
272.362	29.57
272.579	19.14
272.795	12.03
273.012	24.46
273.228	-2.22
273.445	-2.21
273.661	-1.84
273.878	-2.7
274.094	-1.03
274.311	1.02
274.527	-1.84
274.744	15.6
274.96	24.05
275.177	-12.19
275.393	-10.5
275.609	-7.76
275.826	-9.5
276.042	-5.53
276.259	2.14
276.475	-17.27
276.691	-14.48
276.908	-22.15
277.124	-18.79
277.34	-8.74
277.557	-9.33
277.773	-5.66
277.989	0.48
278.205	6.77
278.422	16.64
278.638	26.78
278.854	27.86
279.07	8.62
279.286	17.05
279.503	23.95
279.719	15.93
279.935	10.16
280.151	37.18
280.367	12.21
280.583	-13.76
280.799	15.09
281.016	10.48
281.232	-35.13
281.448	-9.58
281.664	-29.8
281.88	-24.12
282.096	-11.92
282.312	-15.45
282.528	0.05
282.744	16.91
282.96	15.03
283.176	19.13
283.392	36.87
283.608	24.25
283.824	23.21
284.04	22.9
284.256	25.32
284.471	15.56
284.687	18.91
284.903	12.57
285.119	-11.01
285.335	-29.93
285.551	-18.9
285.767	-22.74
285.982	-20.47
286.198	-8.95
286.414	-5.64
286.63	-4.81
286.846	-19.36
287.061	-19.57
287.277	-22.27
287.493	-2.17
287.709	-20.4
287.924	4.15
288.14	-1.98
288.356	-1.78
288.571	-18.85
288.787	-13.75
289.003	-25.79
289.218	-26.75
289.434	-20.51
289.65	-19.11
289.865	-16.28
290.081	-58.59
290.296	-44.55
290.512	-34.95
290.727	-32.97
290.943	10.42
291.159	45.02
291.374	45.38
291.59	55.18
291.805	51.02
292.021	54.77
292.236	40.76
292.451	40.13
292.667	37.27
292.882	20.52
293.098	-2.78
293.313	-7.04
293.529	-21.78
293.744	-18.45
293.959	17.98
294.175	24.9
294.39	28.89
294.605	33.96
294.821	18.66
295.036	13.68
295.251	-1.25
295.467	-1.19
295.682	13.5
295.897	15.6
296.112	7.66
296.328	14.29
296.543	19.39
296.758	10.06
296.973	16.14
297.188	15.27
297.404	35.34
297.619	32.24
297.834	36.53
298.049	30.08
298.264	50.08
298.479	32.9
298.694	23.93
298.909	27.31
299.125	26.96
299.34	0.05
299.555	-3.08
299.77	-13.17
299.985	3.25
300.2	6.23
300.415	-0.8
300.63	-22.69
300.845	-1.96
301.06	-17.84
301.275	-49.7
301.49	-4.12
301.704	13.59
301.919	24.78
302.134	29.73
302.349	40.92
302.564	40.75
302.779	39.29
302.994	29.2
303.209	17.46
303.423	-6.71
303.638	-8.5
303.853	-9.48
304.068	-3.43
304.283	11.12
304.497	27.9
304.712	26.42
304.927	24.6
305.142	30.35
305.356	3.37
305.571	7.56
305.786	2.23
306	5.56
306.215	-13.6
306.43	9.51
306.644	12.73
306.859	14.16
307.074	20.63
307.288	41.72
307.503	34.68
307.717	22
307.932	15.81
308.147	1.74
308.361	-24.84
308.576	-40.29
308.79	-7.54
309.005	0.23
309.219	12.78
309.434	2.72
309.648	5.25
309.863	-27.15
310.077	-27.45
310.292	-34.09
310.506	2.67
310.72	26.9
310.935	51.45
311.149	34.36
311.364	23.49
311.578	-5.31
311.792	-6.13
312.007	-38.71
312.221	-19.89
312.435	0.33
312.649	38.87
312.864	29.57
313.078	19.19
313.292	16.53
313.507	22.13
313.721	0.91
313.935	-3.46
314.149	-5.66
314.363	-21.18
314.578	-20.88
314.792	-10.91
315.006	-40.77
315.22	-34.72
315.434	-25.22
315.648	-56.52
315.862	-31.82
316.077	-4.83
316.291	-1.72
316.505	-0.12
316.719	-3.78
316.933	8.04
317.147	-10.51
317.361	-11.33
317.575	-2.58
317.789	5.86
318.003	1.4
318.217	10.86
318.431	24.93
318.645	-8.14
318.859	7.05
319.073	-18.09
319.287	-8.24
319.5	4.14
319.714	25.84
319.928	25.05
320.142	28.66
320.356	32.52
320.57	22.87
320.784	19.32
320.997	6.69
321.211	18.72
321.425	5.93
321.639	-1.54
321.853	-29.24
322.066	-13.44
322.28	-19.42
322.494	-13.47
322.707	-26.95
322.921	-1.4
323.135	-14.36
323.349	-12.64
323.562	-3.65
323.776	15.18
323.989	19.55
324.203	29.84
324.417	35.83
324.63	46.85
324.844	34.66
325.057	21.89
325.271	10.48
325.485	5.87
325.698	-40.7
325.912	-37.85
326.125	7.53
326.339	-0.59
326.552	-21.46
326.766	14.64
326.979	12.19
327.193	-7.91
327.406	1.85
327.619	14.62
327.833	-14.12
328.046	6.82
328.26	8.4
328.473	-6.01
328.686	-2.05
328.9	2.93
329.113	7.08
329.326	20.74
329.54	39.82
329.753	34.28
329.966	42.62
330.179	16.97
330.393	4.15
330.606	8.66
330.819	21.71
331.032	14.91
331.246	15.53
331.459	23.78
331.672	5.87
331.885	-8.75
332.098	-1.2
332.311	17.73
332.525	21.01
332.738	29.76
332.951	36.16
333.164	30.53
333.377	29.91
333.59	26.43
333.803	11.94
334.016	4.23
334.229	14.23
334.442	-16.74
334.655	-18.22
334.868	-20.99
335.081	-31.21
335.294	-37.45
335.507	-1.97
335.72	-5.19
335.933	-2.38
336.146	13.55
336.359	-4.38
336.572	-4.88
336.785	0.05
336.997	21.05
337.21	-3.28
337.423	31.11
337.636	41.74
337.849	36.04
338.062	20.86
338.274	26.88
338.487	31.49
338.7	22.49
338.913	27.54
339.125	21.47
339.338	19.79
339.551	-1.42
339.763	-9.57
339.976	-10.38
340.189	0.19
340.402	-1
340.614	11.73
340.827	7.52
341.039	10.38
341.252	8.39
341.465	10.62
341.677	-1.18
341.89	22.05
342.102	18.22
342.315	19.14
342.527	28.68
342.74	34.62
342.952	24.08
343.165	29.87
343.377	3.73
343.59	-4.75
343.802	-12.94
344.015	-37.33
344.227	-51.71
344.44	-2.44
344.652	3.74
344.864	-8.56
345.077	-13.61
345.289	-26.92
345.502	-75.25
345.714	-92.44
345.926	-43.49
346.139	-27.34
346.351	-16.81
346.563	0.98
346.775	2.92
346.988	-11.54
347.2	-9.38
347.412	-9.21
347.624	0.86
347.837	7.67
348.049	14.71
348.261	11.72
348.473	13
348.685	16.37
348.897	16.21
349.11	14.16
349.322	6.77
349.534	2.2
349.746	-7
349.958	-4.84
350.17	-10.31
350.382	8.09
350.594	24.18
350.806	36.42
351.018	33.88
351.23	36.75
351.442	29.26
351.654	7.52
351.866	7.73
352.078	8.67
352.29	13.53
352.502	-3.6
352.714	6.96
352.926	-8.39
353.138	-20.48
353.35	-17.85
353.561	8.41
353.773	14.71
353.985	22.57
354.197	29.63
354.409	36.02
354.621	37
354.832	44.02
355.044	42.17
355.256	43.08
355.468	30.65
355.679	23.88
355.891	10.3
356.103	23.88
356.314	11.06
356.526	12.16
356.738	12.29
356.949	21.87
357.161	4.62
357.373	16.34
357.584	29.03
357.796	39.95
358.008	2.92
358.219	-12.97
358.431	-6.35
358.642	-11.2
358.854	-44.44
359.065	-3.4
359.277	23.59
359.488	23.39
359.7	14.4
359.911	20.05
360.123	16.11
360.334	13.46
360.546	5.82
360.757	12.16
360.969	4.95
361.18	-1.33
361.391	-2.85
361.603	-7.79
361.814	-9.1
362.025	-1.45
362.237	6.86
362.448	8.42
362.659	8.69
362.871	11.09
363.082	-4.63
363.293	-15.66
363.504	-14.97
363.716	13.43
363.927	16.47
364.138	23.26
364.349	33.11
364.56	33.81
364.772	40.11
364.983	23.98
365.194	27.32
365.405	22.24
365.616	23.93
365.827	10.09
366.038	19.39
366.25	15.55
366.461	27.96
366.672	14.76
366.883	16.59
367.094	25.46
367.305	28.55
367.516	14.6
367.727	21.16
367.938	16.8
368.149	12.31
368.36	1.53
368.571	-5.16
368.781	-3.35
368.992	-0.13
369.203	6.84
369.414	21.06
369.625	19.08
369.836	24.06
370.047	15.67
370.258	6.76
370.468	1.09
370.679	19.83
370.89	16.34
371.101	28.15
371.312	35.65
371.522	33.07
371.733	38.57
371.944	34.83
372.155	22.05
372.365	14.44
372.576	28.81
372.787	12.08
372.997	14.29
373.208	11.59
373.419	0.16
373.629	-6.81
373.84	-8.94
374.05	-24.64
374.261	-24.25
374.472	-8.21
374.682	-11.13
374.893	-9.13
375.103	-4.35
375.314	11.89
375.524	17.45
375.735	5.76
375.945	11.53
376.156	19.75
376.366	5.44
376.577	-0.65
376.787	2.04
376.997	17.01
377.208	11.37
377.418	14.66
377.629	17.57
377.839	21.1
378.049	5.67
378.26	3.2
378.47	-5.56
378.68	-12.25
378.89	-15.7
379.101	-11.95
379.311	-12.45
379.521	6.04
379.732	11.13
379.942	20.19
380.152	22.33
380.362	21.92
380.572	18.13
380.783	21.19
380.993	14.49
381.203	7.38
381.413	-1.98
381.623	-5.71
381.833	-7.47
382.043	2.57
382.253	7.41
382.463	19.03
382.674	23.69
382.884	21.53
383.094	10.53
383.304	12.73
383.514	10.18
383.724	1.71
383.934	3.05
384.144	6.35
384.353	0.55
384.563	-2.75
384.773	3.25
384.983	-1.24
385.193	0.81
385.403	7.09
385.613	10.04
385.823	10.32
386.033	12.29
386.242	15.49
386.452	10.56
386.662	11.08
386.872	10.09
387.082	10.22
387.291	4.98
387.501	4.72
387.711	2.85
387.921	1.73
388.13	1.85
388.34	-1.02
388.55	4.92
388.759	6.33
388.969	6.96
389.179	6.62
389.388	7.84
389.598	4.92
389.807	5.15
390.017	7.29
390.227	6.04
390.436	7.94
390.646	4.64
390.855	2.84
391.065	0.95
391.274	2.37
391.484	2.92
391.693	5.4
391.903	5.61
392.112	6.27
392.322	5.73
392.531	4.91
392.74	3.99
392.95	5.57
393.159	4.08
393.369	4.99
393.578	4.35
393.787	5.43
393.997	4.76
394.206	6.27
394.415	5.25
394.625	6
394.834	5.72
395.043	5.65
395.252	5.34
395.462	6.41
395.671	5.05
395.88	4.97
396.089	4.83
396.298	4.75
396.508	4
396.717	5
396.926	4.81
397.135	4.38
397.344	4.16
397.553	3.79
397.762	3.56
397.971	3.3
398.181	3.43
398.39	4.04
398.599	4.18
398.808	4.34
399.017	4.32
399.226	4.23
399.435	3.3
399.644	3.45
399.853	3.54
400.062	3.85
400.27	3.97
400.479	4.31
400.688	4.35
400.897	4.25
401.106	4.25
401.315	4.4
401.524	4.74
401.733	4.51
401.941	4.25
402.15	4.07
402.359	4.18
402.568	3.76
402.777	3.82
402.985	4.1
403.194	4.2
403.403	3.9
403.612	4.02
403.82	4.01
404.029	3.98
404.238	4.07
404.446	4.03
404.655	4.08
404.864	4.04
405.072	3.98
405.281	3.96
405.489	4.1
405.698	4.12
405.906	4.17
406.115	4.24
406.324	4.27
406.532	4.25
406.741	4.22
406.949	4.17
407.158	4.12
407.366	4.07
407.574	3.97
407.783	3.92
407.991	3.98
408.2	3.83
408.408	3.74
408.617	3.85
408.825	3.85
409.033	3.9
409.242	3.89
409.45	3.72
409.658	3.74
409.867	3.69
410.075	3.65
410.283	3.78
410.491	3.89
410.7	3.83
410.908	3.67
411.116	3.55
411.324	3.55
411.533	3.55
411.741	3.5
411.949	3.6
412.157	3.7
412.365	3.72
412.573	3.77
412.781	3.77
412.99	3.96
413.198	3.85
413.406	3.73
413.614	3.65
413.822	3.67
414.03	3.57
414.238	3.59
414.446	3.46
414.654	3.55
414.862	3.63
415.07	3.5
415.278	3.47
415.486	3.62
415.694	3.66
415.902	3.51
416.109	3.49
416.317	3.55
416.525	3.51
416.733	3.48
416.941	3.54
417.149	3.66
417.357	3.7
417.564	3.64
417.772	3.5
417.98	3.59
418.188	3.55
418.395	3.4
418.603	3.53
418.811	3.66
419.019	3.48
419.226	3.6
419.434	3.57
419.642	3.45
419.849	3.35
420.057	3.49
420.265	3.21
420.472	3.38
420.68	3.47
420.887	3.47
421.095	3.29
421.302	3.5
421.51	3.23
421.717	3.09
421.925	3.03
422.132	3.07
422.34	3
422.547	3.11
422.755	3.14
422.962	3.25
423.17	3.31
423.377	3.37
423.585	3.41
423.792	3.38
423.999	3.26
424.207	3.28
424.414	3.06
424.621	3.05
424.829	3.12
425.036	3.18
425.243	2.99
425.451	3.1
425.658	3.02
425.865	3.02
426.072	2.97
426.28	3.05
426.487	3.14
426.694	3.08
426.901	3
427.108	3.27
427.315	3.46
427.523	3.33
427.73	3.46
427.937	3.64
428.144	3.47
428.351	3.23
428.558	3.32
428.765	3.42
428.972	3.43
429.179	3.32
429.386	3.44
429.593	3.5
429.8	3.59
430.007	3.6
430.214	3.69
430.421	3.72
430.628	3.62
430.835	3.56
431.042	3.48
431.249	3.45
431.456	3.53
431.662	3.73
431.869	3.81
432.076	3.72
432.283	3.72
432.49	3.75
432.697	3.71
432.903	3.7
433.11	3.76
433.317	3.7
433.524	3.48
433.73	3.5
433.937	3.42
434.144	3.37
434.35	3.5
434.557	3.79
434.764	3.77
434.97	3.88
435.177	4.05
435.384	4.19
435.59	4.21
435.797	4.13
436.003	3.97
436.21	3.94
436.416	3.84
436.623	3.68
436.829	3.72
437.036	3.78
437.242	3.8
437.449	3.74
437.655	3.85
437.862	3.98
438.068	3.97
438.275	3.98
438.481	3.88
438.687	3.9
438.894	3.88
439.1	4.03
439.307	3.92
439.513	4.02
439.719	3.95
439.926	3.89
440.132	3.89
440.338	4.08
440.544	4.02
440.751	4.14
440.957	4.21
441.163	4.19
441.369	4.18
441.575	4.36
441.782	4.41
441.988	4.51
442.194	4.49
442.4	4.49
442.606	4.56
442.812	4.42
443.018	4.15
443.224	4.11
443.431	4.11
443.637	4.12
443.843	4.13
444.049	4.36
444.255	4.53
444.461	4.66
444.667	4.69
444.873	4.63
445.079	4.63
445.284	4.53
445.49	4.56
445.696	4.52
445.902	4.61
446.108	4.58
446.314	4.68
446.52	4.69
446.726	4.67
446.931	4.75
447.137	4.84
447.343	4.85
447.549	4.79
447.755	4.83
447.96	4.74
448.166	4.63
448.372	4.56
448.578	4.49
448.783	4.57
448.989	4.67
449.195	4.65
449.4	4.69
449.606	4.77
449.812	4.68
450.017	4.63
450.223	4.74
450.428	4.86
450.634	4.8
450.84	4.81
451.045	4.87
451.251	4.92
451.456	4.78
451.662	4.73
451.867	4.79
452.073	4.77
452.278	4.7
452.483	4.72
452.689	4.81
452.894	4.83
453.1	4.8
453.305	4.81
453.51	4.9
453.716	4.99
453.921	5.04
454.127	5.13
454.332	5.18
454.537	5.13
454.742	5.15
454.948	5.07
455.153	5.11
455.358	5.08
455.563	5.08
455.769	5.05
455.974	5.1
456.179	5.12
456.384	5.17
456.589	5.28
456.795	5.26
457	5.27
457.205	5.2
457.41	5.25
457.615	5.29
457.82	5.3
458.025	5.36
458.23	5.4
458.435	5.34
458.64	5.27
458.845	5.29
459.05	5.23
459.255	5.31
459.46	5.37
459.665	5.33
459.87	5.32
460.075	5.37
460.28	5.41
460.485	5.4
460.69	5.41
460.895	5.52
461.099	5.53
461.304	5.44
461.509	5.39
461.714	5.44
461.919	5.36
462.123	5.43
462.328	5.56
462.533	5.68
462.738	5.78
462.942	5.83
463.147	5.88
463.352	5.82
463.556	5.84
463.761	5.74
463.966	5.7
464.17	5.58
464.375	5.61
464.58	5.62
464.784	5.68
464.989	5.84
465.193	5.84
465.398	5.88
465.602	5.67
465.807	5.73
466.011	5.65
466.216	5.63
466.42	5.6
466.625	5.84
