Data from Ofav_PP_Phys_4EV14_Reflection_1.txt Node
Date: Tue Aug 03 18:09:24 EDT 2021
User: Adam
Spectrometer: FLMT01687
Trigger mode: 0
Integration Time (sec): 8.750000E-1
Scans to average: 2
Electric dark correction enabled: true
Nonlinearity correction enabled: false
Boxcar width: 2
XAxis mode: Wavelengths
Number of Pixels in Spectrum: 3648
>>>>>Begin Spectral Data<<<<<
179.494	111.56
179.716	141.43
179.937	131.69
180.158	156.82
180.38	932.46
180.601	82.55
180.823	-42.94
181.044	32.04
181.265	103.69
181.486	138.56
181.708	104.81
181.929	63.78
182.15	48.88
182.372	317.51
182.593	1.48
182.814	232.05
183.035	-96.1
183.257	-606.86
183.478	243.16
183.699	85.74
183.92	101.08
184.141	80.36
184.363	63.19
184.584	-61.02
184.805	-11.31
185.026	-61.28
185.247	-50.06
185.468	-31.33
185.689	-27.16
185.91	19.51
186.132	34.41
186.353	36.4
186.574	28.08
186.795	44.75
187.016	30.47
187.237	32.31
187.458	29.4
187.679	13.74
187.9	9.76
188.121	2.87
188.342	-22.48
188.563	-7.61
188.784	7.8
189.005	-1.97
189.226	2.43
189.447	26.36
189.667	9.35
189.888	-7.87
190.109	28.23
190.33	29.49
190.551	15.12
190.772	37.77
190.993	34.35
191.214	46.19
191.434	37.69
191.655	16.14
191.876	15.58
192.097	24.94
192.318	28.41
192.538	32.92
192.759	25.04
192.98	35.44
193.201	19.91
193.421	-4.88
193.642	7.49
193.863	32.31
194.083	10.07
194.304	25.89
194.525	41.27
194.745	12.25
194.966	38.23
195.187	53.31
195.407	76.04
195.628	68.54
195.848	71.12
196.069	70.77
196.29	65.39
196.51	22.7
196.731	13.49
196.951	30.3
197.172	20.47
197.392	34.3
197.613	60.19
197.833	76.64
198.054	83
198.274	78.54
198.495	82.16
198.715	69.53
198.936	69.53
199.156	60.55
199.377	61.83
199.597	38.88
199.817	49.96
200.038	33.73
200.258	3.79
200.479	-61.25
200.699	-46.21
200.919	-68.75
201.14	6.98
201.36	31.77
201.58	48.01
201.801	12.2
202.021	17.53
202.241	8.8
202.461	8.02
202.682	24.24
202.902	42.84
203.122	43.87
203.342	28.72
203.563	13.87
203.783	-2.15
204.003	21.27
204.223	20.2
204.443	-14.33
204.663	-15.78
204.884	-28.88
205.104	-45.51
205.324	-56.89
205.544	-43.14
205.764	-7.84
205.984	-3.55
206.204	1.33
206.424	10.76
206.644	29.65
206.864	22.77
207.084	13.35
207.304	9.88
207.525	36.93
207.745	41.38
207.964	40.61
208.184	54.4
208.404	58.24
208.624	43.63
208.844	41.32
209.064	40.77
209.284	60.75
209.504	42.84
209.724	30.12
209.944	20.02
210.164	10.67
210.384	-3.15
210.604	0.22
210.823	39.06
211.043	71.35
211.263	66.03
211.483	66.13
211.703	80.1
211.922	58.17
212.142	35.1
212.362	23.81
212.582	17.9
212.801	-2.65
213.021	-17.3
213.241	-32.67
213.461	9.07
213.68	20.07
213.9	18.43
214.12	42.35
214.339	70.01
214.559	83.5
214.779	84.66
214.998	87.47
215.218	102.34
215.438	83.17
215.657	80.66
215.877	72.27
216.096	44.85
216.316	20.43
216.535	7.21
216.755	-32.82
216.974	-10.36
217.194	20.17
217.413	46.01
217.633	45.94
217.852	52.41
218.072	48.96
218.291	26.95
218.511	24.03
218.73	35.29
218.95	47.86
219.169	52.46
219.389	64.37
219.608	65.87
219.827	49.59
220.047	30.31
220.266	25.95
220.485	33.08
220.705	31.19
220.924	40.99
221.143	36
221.363	37.88
221.582	41.76
221.801	46.23
222.021	29.18
222.24	48.94
222.459	26.42
222.678	32.31
222.897	17.57
223.117	-4.89
223.336	-190.53
223.555	-76.69
223.774	-84.67
223.993	-51.7
224.213	-55.66
224.432	-13.01
224.651	5.9
224.87	16.17
225.089	13.95
225.308	30.8
225.527	26.58
225.746	-9.43
225.965	-3.48
226.184	-35.2
226.404	-17.2
226.623	-1.46
226.842	17.54
227.061	-4.22
227.28	15.22
227.499	32.14
227.718	31.43
227.936	18.02
228.155	22.54
228.374	32.35
228.593	25.51
228.812	-6.54
229.031	-1.91
229.25	13.97
229.469	-31.78
229.688	-70.59
229.907	-100.57
230.125	-98.08
230.344	-63.36
230.563	-59.02
230.782	-44.37
231.001	18.34
231.22	43.38
231.438	32.84
231.657	51.16
231.876	56.55
232.095	33.83
232.313	12.42
232.532	8.39
232.751	17.13
232.969	17.86
233.188	20.2
233.407	30.21
233.625	52.07
233.844	57.18
234.063	72.76
234.281	70.94
234.5	58.58
234.719	54.92
234.937	37.54
235.156	4.08
235.374	5.76
235.593	11.47
235.811	12.53
236.03	15.33
236.249	26.4
236.467	41.23
236.686	37.77
236.904	30.28
237.123	48.23
237.341	58.25
237.559	45.54
237.778	45.47
237.996	40.03
238.215	21.45
238.433	9.15
238.652	2.23
238.87	11.85
239.088	17.13
239.307	22.11
239.525	18.78
239.743	27.1
239.962	25.21
240.18	33.86
240.398	42.27
240.617	59.85
240.835	36.52
241.053	23.72
241.271	-24.21
241.49	-33.82
241.708	-32.5
241.926	-11.15
242.144	-16.67
242.363	9.97
242.581	20.42
242.799	17.34
243.017	12.15
243.235	40.84
243.453	44.11
243.672	50.79
243.89	54.46
244.108	55.97
244.326	24.69
244.544	15.25
244.762	25.14
244.98	22.23
245.198	29.99
245.416	42.12
245.634	45.77
245.852	13.47
246.07	12.26
246.288	-15.26
246.506	1.07
246.724	-11.87
246.942	-4.93
247.16	-0.08
247.378	-13.8
247.596	0.12
247.814	17.38
248.032	25.51
248.25	28.23
248.468	26.58
248.685	22.13
248.903	8.44
249.121	12.32
249.339	10.48
249.557	19.76
249.775	15.29
249.992	35.05
250.21	24.15
250.428	24.94
250.646	29.01
250.863	21.54
251.081	7.03
251.299	3.35
251.517	22.2
251.734	26.23
251.952	39.86
252.17	48.15
252.387	45.02
252.605	54.1
252.823	20.04
253.04	7.29
253.258	14.92
253.475	41.15
253.693	35.14
253.911	55.87
254.128	49.19
254.346	39.16
254.563	27.23
254.781	31.27
254.998	17.38
255.216	13.01
255.433	19.63
255.651	14.42
255.868	1.18
256.086	-9.05
256.303	10.95
256.521	18.21
256.738	22.49
256.956	23.49
257.173	26.97
257.39	21
257.608	-6.65
257.825	-13.08
258.043	-43.62
258.26	1.12
258.477	8.66
258.695	27.25
258.912	3.11
259.129	18.59
259.346	33.61
259.564	40.74
259.781	50.29
259.998	70.18
260.216	72.13
260.433	31.42
260.65	20.37
260.867	11.08
261.084	6.83
261.302	6.25
261.519	28.77
261.736	43.07
261.953	39.75
262.17	16.4
262.387	11.82
262.604	5.84
262.822	0.84
263.039	5.32
263.256	23.25
263.473	19.8
263.69	36.63
263.907	28.77
264.124	3.13
264.341	-16.83
264.558	-17.44
264.775	-28.83
264.992	-28.45
265.209	-18.1
265.426	-19.23
265.643	7.37
265.86	0.51
266.077	22.45
266.294	32.26
266.51	52.01
266.727	52.58
266.944	61.97
267.161	67.05
267.378	47.99
267.595	22.84
267.812	19.32
268.028	13.25
268.245	-1.49
268.462	21.03
268.679	38.36
268.896	19.57
269.112	33.62
269.329	15.58
269.546	-39.48
269.763	-26.25
269.979	-3.51
270.196	-11.03
270.413	0.09
270.629	18.35
270.846	19.67
271.063	10.67
271.279	18.91
271.496	42.59
271.712	28.47
271.929	22.81
272.146	33.4
272.362	33.93
272.579	12.72
272.795	6.28
273.012	19.02
273.228	18.24
273.445	11.42
273.661	19.06
273.878	30.14
274.094	21.41
274.311	-1.05
274.527	-27.91
274.744	-29.58
274.96	-27.48
275.177	-60.5
275.393	-18.75
275.609	-3.35
275.826	-3.78
276.042	-2.01
276.259	7.91
276.475	-13.18
276.691	-5.33
276.908	-9.17
277.124	6.56
277.34	6.56
277.557	11.83
277.773	16.88
277.989	26.13
278.205	17.09
278.422	26.58
278.638	31.96
278.854	55.55
279.07	50.75
279.286	55.32
279.503	56.06
279.719	57.08
279.935	37.17
280.151	31.81
280.367	3.18
280.583	-32.03
280.799	-22.52
281.016	-15.61
281.232	-9.27
281.448	10.28
281.664	19.72
281.88	26.35
282.096	27.46
282.312	10.17
282.528	4.93
282.744	3.59
282.96	-1.5
283.176	10.19
283.392	18.35
283.608	27.08
283.824	29.28
284.04	22.02
284.256	13.93
284.471	21.15
284.687	19.25
284.903	19.6
285.119	10.82
285.335	3.38
285.551	2.79
285.767	1.23
285.982	12.35
286.198	20.84
286.414	11.67
286.63	2.94
286.846	-3.46
287.061	-7.41
287.277	-22.19
287.493	-9.79
287.709	-26.39
287.924	9.6
288.14	-2.52
288.356	-5.79
288.571	-4.01
288.787	22.39
289.003	12.21
289.218	6.54
289.434	31.24
289.65	53.73
289.865	45.09
290.081	25.25
290.296	55.66
290.512	36.64
290.727	31.23
290.943	26.45
291.159	36.72
291.374	21.55
291.59	32.84
291.805	34.78
292.021	43.29
292.236	45.54
292.451	35.23
292.667	37.82
292.882	18.82
293.098	3.75
293.313	4.58
293.529	30.81
293.744	34.06
293.959	49.7
294.175	49.14
294.39	51.03
294.605	39.86
294.821	35.48
295.036	23.57
295.251	17.72
295.467	15.7
295.682	34.54
295.897	24.66
296.112	38.54
296.328	38.05
296.543	28.91
296.758	2.44
296.973	15.14
297.188	5.95
297.404	18.6
297.619	27.32
297.834	36.42
298.049	14.46
298.264	24.88
298.479	4.72
298.694	0.1
298.909	12.92
299.125	27.52
299.34	22.17
299.555	36.87
299.77	22.37
299.985	30.09
300.2	42.12
300.415	48.8
300.63	32
300.845	64.31
301.06	54.8
301.275	45.75
301.49	53.93
301.704	48.05
301.919	39.38
302.134	44.87
302.349	39.03
302.564	29.62
302.779	29.36
302.994	16.15
303.209	12.35
303.423	14.42
303.638	22.67
303.853	44.12
304.068	61.3
304.283	61.73
304.497	59.65
304.712	60.61
304.927	45.82
305.142	52.18
305.356	30.36
305.571	22.05
305.786	32.5
306	39.21
306.215	25.15
306.43	39.96
306.644	40.07
306.859	26.83
307.074	25.29
307.288	45.97
307.503	51.62
307.717	47.46
307.932	38.65
308.147	35.16
308.361	16.76
308.576	12.66
308.79	39.01
309.005	63.36
309.219	51.9
309.434	57.2
309.648	53.96
309.863	32.91
310.077	-1.25
310.292	11.79
310.506	-2.47
310.72	8.34
310.935	17.52
311.149	30.46
311.364	16.6
311.578	27.56
311.792	41.28
312.007	31.23
312.221	13.39
312.435	24.13
312.649	34.03
312.864	36.65
313.078	31.51
313.292	25.72
313.507	26.41
313.721	7.38
313.935	-9.17
314.149	-16.1
314.363	-20.13
314.578	-16.23
314.792	-9.15
315.006	-3.35
315.22	-8.95
315.434	-4.98
315.648	-3.98
315.862	4.83
316.077	-3.48
316.291	24.59
316.505	45.86
316.719	45.13
316.933	46.12
317.147	45.49
317.361	24.06
317.575	27.53
317.789	18.2
318.003	26.83
318.217	26.34
318.431	43.89
318.645	19.77
318.859	26.96
319.073	13.57
319.287	28.73
319.5	23.21
319.714	42.7
319.928	52.24
320.142	47.14
320.356	23
320.57	25.18
320.784	-2.9
320.997	-27.93
321.211	-3.18
321.425	13.21
321.639	11.79
321.853	16.02
322.066	34.78
322.28	44.94
322.494	50.66
322.707	29.64
322.921	27.63
323.135	37
323.349	14.45
323.562	25.58
323.776	36.22
323.989	35.37
324.203	25.12
324.417	28.64
324.63	42.34
324.844	40.16
325.057	42.1
325.271	26.28
325.485	41.05
325.698	15.19
325.912	1.49
326.125	16.89
326.339	28.88
326.552	4.89
326.766	26.86
326.979	32.32
327.193	40.42
327.406	48.16
327.619	59.13
327.833	28.03
328.046	37.45
328.26	26.69
328.473	28.57
328.686	36.46
328.9	50.05
329.113	54.96
329.326	57.54
329.54	73.39
329.753	77.88
329.966	69.75
330.179	46.04
330.393	39.3
330.606	39.32
330.819	36.68
331.032	52.79
331.246	58.82
331.459	61.56
331.672	61.39
331.885	50.57
332.098	35.55
332.311	56.12
332.525	59.03
332.738	54.01
332.951	66.09
333.164	47.44
333.377	41.13
333.59	26.33
333.803	15.42
334.016	-3.26
334.229	13.23
334.442	-22.8
334.655	-33.18
334.868	-25.59
335.081	-16.2
335.294	-14.02
335.507	11.07
335.72	40.6
335.933	35.82
336.146	38.47
336.359	25.32
336.572	23.37
336.785	13.78
336.997	20.23
337.21	15.55
337.423	43.24
337.636	56.49
337.849	50.17
338.062	36.25
338.274	17.14
338.487	28.61
338.7	32
338.913	42.98
339.125	44.41
339.338	48.9
339.551	36.26
339.763	20.27
339.976	14.88
340.189	29.16
340.402	29.89
340.614	30.24
340.827	30.17
341.039	27.17
341.252	15.34
341.465	12.03
341.677	12.39
341.89	28.04
342.102	20.29
342.315	22.95
342.527	26.3
342.74	28.34
342.952	10.55
343.165	20.23
343.377	-2.79
343.59	7.02
343.802	9.05
344.015	0.64
344.227	-10.1
344.44	29.07
344.652	40.65
344.864	25.05
345.077	23.36
345.289	7.44
345.502	-43.2
345.714	-64.15
345.926	-27.7
346.139	-21.62
346.351	2.13
346.563	5
346.775	13.13
346.988	-2.28
347.2	6.32
347.412	-0.06
347.624	9.94
347.837	4.57
348.049	23.12
348.261	14.47
348.473	20.47
348.685	30.2
348.897	27.74
349.11	1.57
349.322	2.28
349.534	-2.22
349.746	-5.11
349.958	2.74
350.17	12.01
350.382	0.1
350.594	13.93
350.806	24.12
351.018	16.93
351.23	17.14
351.442	43.75
351.654	28.83
351.866	17.44
352.078	13.76
352.29	12.37
352.502	-12.29
352.714	-4.79
352.926	-12.92
353.138	-18.95
353.35	-14.04
353.561	12.13
353.773	12.55
353.985	15.92
354.197	16.67
354.409	25.34
354.621	16.51
354.832	28.78
355.044	35.98
355.256	44.08
355.468	29.31
355.679	32.92
355.891	24.32
356.103	25.35
356.314	19.28
356.526	22.09
356.738	28.61
356.949	28.08
357.161	9.6
357.373	10.75
357.584	17.63
357.796	2.13
358.008	-18.45
358.219	-3.77
358.431	1.85
358.642	-3.34
358.854	-10.99
359.065	13.22
359.277	23.21
359.488	20.28
359.7	29.59
359.911	31.58
360.123	29.72
360.334	25.28
360.546	35.95
360.757	27.56
360.969	20.66
361.18	21.11
361.391	26.96
361.603	17.79
361.814	16.12
362.025	33.18
362.237	36.26
362.448	38.02
362.659	27.32
362.871	30.94
363.082	11.61
363.293	-0.86
363.504	-2.71
363.716	21.31
363.927	22.07
364.138	23.52
364.349	31.78
364.56	28.2
364.772	36.47
364.983	18.8
365.194	17.47
365.405	14.38
365.616	10.9
365.827	0.3
366.038	15.93
366.25	21.63
366.461	20.85
366.672	18.42
366.883	10.96
367.094	3.61
367.305	18.37
367.516	12.47
367.727	16.65
367.938	21.97
368.149	28.8
368.36	10.14
368.571	22.7
368.781	32.73
368.992	34.15
369.203	42.58
369.414	42.13
369.625	30.03
369.836	24.79
370.047	28.55
370.258	8.3
370.468	27.8
370.679	51.47
370.89	54.9
371.101	50.05
371.312	51.12
371.522	31.23
371.733	14.53
371.944	15.31
372.155	22.21
372.365	17.23
372.576	38.6
372.787	38.74
372.997	34.99
373.208	22.45
373.419	20.21
373.629	16.4
373.84	19.17
374.05	19.2
374.261	26.41
374.472	33.77
374.682	25.99
374.893	27.83
375.103	16.09
375.314	27.75
375.524	24.51
375.735	29.99
375.945	29.16
376.156	34.22
376.366	15.76
376.577	21.12
376.787	18.14
376.997	24.45
377.208	23.29
377.418	24.52
377.629	11.26
377.839	3.16
378.049	-1.58
378.26	-2.37
378.47	4.23
378.68	14.75
378.89	27.99
379.101	28.23
379.311	29.81
379.521	43.85
379.732	38.67
379.942	37.6
380.152	41.24
380.362	33.68
380.572	28.09
380.783	38.85
380.993	33.34
381.203	25.96
381.413	26.06
381.623	25.06
381.833	17.15
382.043	22.27
382.253	28.36
382.463	33.92
382.674	36.17
382.884	32.15
383.094	30.15
383.304	19.32
383.514	11.17
383.724	6.27
383.934	10.77
384.144	12.31
384.353	14.6
384.563	12.9
384.773	15.01
384.983	6.94
385.193	4.06
385.403	8.07
385.613	12.71
385.823	12.75
386.033	13.88
386.242	19.57
386.452	19.31
386.662	20.9
386.872	19.58
387.082	18.57
387.291	13.05
387.501	9.88
387.711	9.11
387.921	10.96
388.13	11.46
388.34	7.55
388.55	11.19
388.759	12.12
388.969	9.75
389.179	10.72
389.388	10.63
389.598	11.22
389.807	9.37
390.017	10.97
390.227	9.64
390.436	12.21
390.646	7.46
390.855	8.55
391.065	7.42
391.274	8.59
391.484	9.33
391.693	10.88
391.903	9.08
392.112	10.14
392.322	8.16
392.531	7.46
392.74	7.08
392.95	8.99
393.159	7.42
393.369	8.92
393.578	8.7
393.787	8.86
393.997	7.88
394.206	8.59
394.415	8.22
394.625	7.73
394.834	8.84
395.043	8.79
395.252	8.25
395.462	7.87
395.671	7.35
395.88	7.01
396.089	7.07
396.298	7.52
396.508	8.07
396.717	8.91
396.926	8.41
397.135	7.46
397.344	6.98
397.553	6.24
397.762	5.71
397.971	5.5
398.181	6.04
398.39	6.42
398.599	6.52
398.808	6.65
399.017	6.46
399.226	6.03
399.435	5.35
399.644	5.58
399.853	5.48
400.062	5.68
400.27	6.03
400.479	6.38
400.688	6.34
400.897	6.6
401.106	6.69
401.315	6.83
401.524	7.14
401.733	6.93
401.941	6.79
402.15	6.67
402.359	6.7
402.568	6.29
402.777	6.2
402.985	6.21
403.194	6.32
403.403	6.24
403.612	6.23
403.82	6.38
404.029	6.39
404.238	6.5
404.446	6.38
404.655	6.34
404.864	6.3
405.072	6.35
405.281	6.16
405.489	6.09
405.698	6.26
405.906	6.39
406.115	6.27
406.324	6.26
406.532	6.24
406.741	6.07
406.949	5.86
407.158	5.85
407.366	5.89
407.574	5.8
407.783	5.87
407.991	5.92
408.2	5.79
408.408	5.63
408.617	5.72
408.825	5.64
409.033	5.58
409.242	5.63
409.45	5.64
409.658	5.77
409.867	5.76
410.075	5.81
410.283	5.89
410.491	5.97
410.7	5.85
410.908	5.85
411.116	5.63
411.324	5.56
411.533	5.45
411.741	5.51
411.949	5.47
412.157	5.63
412.365	5.58
412.573	5.6
412.781	5.57
412.99	5.64
413.198	5.63
413.406	5.48
413.614	5.34
413.822	5.3
414.03	5.3
414.238	5.29
414.446	5.45
414.654	5.61
414.862	5.6
415.07	5.41
415.278	5.43
415.486	5.44
415.694	5.47
415.902	5.25
416.109	5.42
416.317	5.45
416.525	5.36
416.733	5.41
416.941	5.54
417.149	5.39
417.357	5.3
417.564	5.36
417.772	5.03
417.98	5.2
418.188	5.33
418.395	5.22
418.603	5.12
418.811	5.37
419.019	5.08
419.226	5.09
419.434	5.08
419.642	5.06
419.849	4.99
420.057	5.07
420.265	4.89
420.472	4.96
420.68	4.95
420.887	4.9
421.095	4.83
421.302	5.12
421.51	4.92
421.717	4.82
421.925	4.77
422.132	4.92
422.34	4.71
422.547	4.87
422.755	4.99
422.962	5.19
423.17	5.21
423.377	5.37
423.585	5.29
423.792	5.27
423.999	5.04
424.207	5.07
424.414	4.71
424.621	4.6
424.829	4.73
425.036	4.83
425.243	4.82
425.451	4.89
425.658	5.01
425.865	4.92
426.072	4.82
426.28	4.63
426.487	4.82
426.694	4.83
426.901	4.82
427.108	4.89
427.315	5.17
427.523	4.92
427.73	5.07
427.937	5.25
428.144	5.25
428.351	5.17
428.558	5.2
428.765	5.11
428.972	5.03
429.179	5.07
429.386	5.03
429.593	5.16
429.8	5.41
430.007	5.39
430.214	5.51
430.421	5.55
430.628	5.52
430.835	5.42
431.042	5.37
431.249	5.29
431.456	5.36
431.662	5.39
431.869	5.37
432.076	5.34
432.283	5.45
432.49	5.52
432.697	5.56
432.903	5.57
433.11	5.55
433.317	5.41
433.524	5.16
433.73	5.3
433.937	5.36
434.144	5.49
434.35	5.66
434.557	5.87
434.764	5.82
434.97	5.85
435.177	5.83
435.384	5.88
435.59	5.85
435.797	5.78
436.003	5.66
436.21	5.8
436.416	5.79
436.623	5.81
436.829	5.86
437.036	6
437.242	5.9
437.449	5.87
437.655	5.88
437.862	5.95
438.068	5.85
438.275	5.83
438.481	5.76
438.687	5.83
438.894	5.92
439.1	6.13
439.307	6.07
439.513	6.13
439.719	6.09
439.926	6.05
440.132	6.05
440.338	6.3
440.544	6.25
440.751	6.37
440.957	6.4
441.163	6.46
441.369	6.4
441.575	6.55
441.782	6.53
441.988	6.59
442.194	6.49
442.4	6.53
442.606	6.48
442.812	6.52
443.018	6.38
443.224	6.45
443.431	6.44
443.637	6.56
443.843	6.55
444.049	6.71
444.255	6.75
444.461	6.85
444.667	6.91
444.873	6.73
445.079	6.69
445.284	6.74
445.49	6.69
445.696	6.62
445.902	6.74
446.108	6.73
446.314	6.69
446.52	6.88
446.726	6.9
446.931	7.01
447.137	7.04
447.343	7.07
447.549	7.02
447.755	7.13
447.96	7.15
448.166	7.22
448.372	7.21
448.578	7.17
448.783	7.09
448.989	7.16
449.195	7.16
449.4	7.2
449.606	7.3
449.812	7.31
450.017	7.23
450.223	7.32
450.428	7.38
450.634	7.38
450.84	7.38
451.045	7.55
451.251	7.59
451.456	7.47
451.662	7.32
451.867	7.33
452.073	7.2
452.278	7.14
452.483	7.14
452.689	7.3
452.894	7.33
453.1	7.4
453.305	7.43
453.51	7.48
453.716	7.49
453.921	7.67
454.127	7.65
454.332	7.74
454.537	7.86
454.742	7.96
454.948	7.83
455.153	7.89
455.358	7.85
455.563	7.8
455.769	7.82
455.974	7.91
456.179	7.93
456.384	7.92
456.589	8.05
456.795	7.97
457	8
457.205	7.97
457.41	7.93
457.615	7.94
457.82	7.97
458.025	7.92
458.23	8
458.435	8.06
458.64	8.08
458.845	8.09
459.05	8.2
459.255	8.26
459.46	8.25
459.665	8.31
459.87	8.32
460.075	8.29
460.28	8.34
460.485	8.39
460.69	8.32
460.895	8.42
461.099	8.46
461.304	8.33
461.509	8.52
461.714	8.61
461.919	8.57
462.123	8.47
462.328	8.64
462.533	8.55
462.738	8.71
462.942	8.75
463.147	8.94
463.352	8.95
463.556	9
463.761	8.83
463.966	8.84
464.17	8.83
464.375	8.91
464.58	8.85
464.784	8.85
464.989	8.96
465.193	9.01
465.398	8.9
465.602	8.95
465.807	9.07
466.011	9.05
466.216	8.95
466.42	8.99
466.625	9.12
466.829	9.05
467.034	9.09
467.238	9.19
467.443	9.28
467.647	9.28
467.851	9.48
