Data from Ofav_PP_Phys_2Z21_Reflection_2.txt Node
Date: Tue Aug 03 18:12:24 EDT 2021
User: Adam
Spectrometer: FLMT01687
Trigger mode: 0
Integration Time (sec): 8.750000E-1
Scans to average: 2
Electric dark correction enabled: true
Nonlinearity correction enabled: false
Boxcar width: 2
XAxis mode: Wavelengths
Number of Pixels in Spectrum: 3648
>>>>>Begin Spectral Data<<<<<
179.494	138.59
179.716	193.45
179.937	221.01
180.158	320.6
180.38	942.98
180.601	136.35
180.823	77.59
181.044	105.24
181.265	192.32
181.486	-324.13
181.708	33.08
181.929	-18.92
182.15	66.46
182.372	375.74
182.593	-183.33
182.814	-5.31
183.035	542.2
183.257	1087.25
183.478	24.61
183.699	-268.47
183.92	-109.87
184.141	-158.14
184.363	-96.93
184.584	-244.68
184.805	-50.41
185.026	-73.66
185.247	-54.19
185.468	-31.62
185.689	-19.25
185.91	-12.87
186.132	-21.38
186.353	20.36
186.574	-10.81
186.795	29
187.016	8.05
187.237	19.32
187.458	10.74
187.679	13.51
187.9	-2.16
188.121	8.23
188.342	-1.93
188.563	-6.1
188.784	6.62
189.005	-7.82
189.226	-37.28
189.447	-13.32
189.667	-43.74
189.888	-49.22
190.109	-12.79
190.33	-21.92
190.551	-16.72
190.772	22.1
190.993	-1.45
191.214	-6.66
191.434	13.16
191.655	-12.67
191.876	-8.36
192.097	16.67
192.318	27.08
192.538	30.17
192.759	37.7
192.98	27.29
193.201	-15
193.421	-18.47
193.642	-33.31
193.863	-13.21
194.083	4.69
194.304	15.38
194.525	-2.79
194.745	7.83
194.966	13.78
195.187	13.31
195.407	43.95
195.628	45.75
195.848	22.07
196.069	24.07
196.29	6.65
196.51	-38.25
196.731	-36.94
196.951	-8.24
197.172	0.73
197.392	6.53
197.613	26.92
197.833	55.7
198.054	88.94
198.274	37.01
198.495	60.49
198.715	52.24
198.936	48.31
199.156	37.03
199.377	51.3
199.597	39.36
199.817	57.37
200.038	40.44
200.258	43.14
200.479	-32.87
200.699	-39.91
200.919	-124.07
201.14	-23.85
201.36	-19.12
201.58	11.36
201.801	-15.96
202.021	8.41
202.241	2.25
202.461	12.76
202.682	36.72
202.902	77.22
203.122	87.22
203.342	101.02
203.563	60.27
203.783	27.16
204.003	29.02
204.223	14.49
204.443	-15.33
204.663	4.43
204.884	-0.58
205.104	-4.24
205.324	3.08
205.544	-3.32
205.764	-27.42
205.984	-71.7
206.204	-73.22
206.424	-168.57
206.644	-44.65
206.864	-40.01
207.084	-25.37
207.304	-45.7
207.525	9.12
207.745	5.94
207.964	-19.25
208.184	21.8
208.404	29.32
208.624	15.67
208.844	7
209.064	33.89
209.284	30.06
209.504	18.44
209.724	15.12
209.944	13.93
210.164	-13.41
210.384	-5.83
210.604	-4.68
210.823	-15.77
211.043	20.87
211.263	34.58
211.483	22.77
211.703	40
211.922	31.18
212.142	25.96
212.362	8.04
212.582	13.85
212.801	11.42
213.021	34.79
213.241	10.07
213.461	39.91
213.68	51.2
213.9	40.3
214.12	8.97
214.339	41.64
214.559	36.74
214.779	22.91
214.998	14.37
215.218	42.08
215.438	37.72
215.657	34.11
215.877	35.16
216.096	39.84
216.316	15.18
216.535	-38.67
216.755	-66.94
216.974	-40.75
217.194	-51.78
217.413	-2.4
217.633	31.08
217.852	41.88
218.072	44.54
218.291	40.91
218.511	38.33
218.73	42.73
218.95	40.76
219.169	37.5
219.389	31.69
219.608	20.06
219.827	-4.58
220.047	-19.92
220.266	-20.03
220.485	-11.07
220.705	-3.89
220.924	-5.87
221.143	-4.15
221.363	12.79
221.582	-15.52
221.801	-42.27
222.021	-4.37
222.24	-11.54
222.459	-99.97
222.678	-50.47
222.897	-20.21
223.117	-61
223.336	-140.17
223.555	46.96
223.774	45.52
223.993	-13.19
224.213	-54.86
224.432	-29.74
224.651	-17.63
224.87	0.98
225.089	-10.2
225.308	-10.64
225.527	-18.95
225.746	-72.44
225.965	-67.07
226.184	-105.68
226.404	-25.3
226.623	-15.46
226.842	-1.83
227.061	-53.94
227.28	-22.57
227.499	-14.79
227.718	-5.46
227.936	-6.54
228.155	25.52
228.374	28.04
228.593	28.68
228.812	15.08
229.031	33.35
229.25	50.2
229.469	19.65
229.688	-67.05
229.907	-98.08
230.125	-87.49
230.344	-88.2
230.563	-56.66
230.782	-0.41
231.001	21
231.22	15.45
231.438	-4.92
231.657	-35.07
231.876	-39.42
232.095	-33.38
232.313	-40.6
232.532	-51.69
232.751	9.78
232.969	-4.93
233.188	1.64
233.407	-4.41
233.625	37.8
233.844	33.85
234.063	34.88
234.281	16.62
234.5	29.24
234.719	-5.44
234.937	-26.31
235.156	-33.08
235.374	-36.49
235.593	-43.78
235.811	-33.24
236.03	-5.03
236.249	22.71
236.467	40.24
236.686	40.1
236.904	33.93
237.123	20.1
237.341	11.38
237.559	13.87
237.778	-0.64
237.996	7.15
238.215	4.72
238.433	-5.56
238.652	-16.73
238.87	-1.16
239.088	-9.24
239.307	-10.37
239.525	2.56
239.743	16.91
239.962	21.05
240.18	37.48
240.398	70.13
240.617	64.38
240.835	40.18
241.053	18.63
241.271	-68.37
241.49	-90.17
241.708	-60.03
241.926	-59.33
242.144	-38.35
242.363	4.26
242.581	6.25
242.799	-4.14
243.017	6.03
243.235	39.74
243.453	54.41
243.672	70.77
243.89	83.66
244.108	71.31
244.326	30.17
244.544	19.94
244.762	2.36
244.98	-23.47
245.198	-4.48
245.416	17.24
245.634	5.94
245.852	0.13
246.07	3.11
246.288	-37.7
246.506	-1.5
246.724	0.36
246.942	16.55
247.16	15.54
247.378	18.13
247.596	9.78
247.814	5.16
248.032	-5.08
248.25	-1.08
248.468	-4.86
248.685	-11.7
248.903	-33.31
249.121	-31.66
249.339	-35.41
249.557	-27.14
249.775	-43.26
249.992	4.27
250.21	6.03
250.428	20.56
250.646	23.42
250.863	34.11
251.081	1.37
251.299	-20.08
251.517	-8.45
251.734	-5.82
251.952	-3.22
252.17	20.56
252.387	15.95
252.605	-15.8
252.823	11.21
253.04	-36.67
253.258	4.12
253.475	19.14
253.693	7.63
253.911	13.65
254.128	6.28
254.346	6.87
254.563	2.08
254.781	28.99
254.998	18.39
255.216	29.93
255.433	25.72
255.651	41.16
255.868	17.18
256.086	5.36
256.303	4.64
256.521	7.98
256.738	-16.02
256.956	15.27
257.173	0.79
257.39	19.66
257.608	-6.41
257.825	-7.37
258.043	-74.92
258.26	-21.84
258.477	-30.17
258.695	-14.47
258.912	-26.13
259.129	2.69
259.346	13.39
259.564	11
259.781	6.13
259.998	29.12
260.216	19.79
260.433	-10.03
260.65	-15.67
260.867	-7.25
261.084	-20.2
261.302	-45.14
261.519	-28.05
261.736	1.71
261.953	6.5
262.17	-10.46
262.387	12.92
262.604	18.94
262.822	10.19
263.039	19.07
263.256	29.12
263.473	22.36
263.69	37.46
263.907	36.94
264.124	3.34
264.341	9.84
264.558	-32.09
264.775	-40.99
264.992	-36.82
265.209	-45.48
265.426	-71.04
265.643	-18.77
265.86	-10.25
266.077	-5.84
266.294	2.09
266.51	20.87
266.727	27
266.944	17.17
267.161	20.79
267.378	19.19
267.595	14.04
267.812	8.64
268.028	10.98
268.245	12.72
268.462	33.16
268.679	40.65
268.896	41.71
269.112	51.8
269.329	32.09
269.546	-31.92
269.763	-17.72
269.979	-5.12
270.196	-6.23
270.413	8.02
270.629	31.27
270.846	40.03
271.063	22.13
271.279	29.74
271.496	41.59
271.712	28.65
271.929	12.92
272.146	40.15
272.362	23.24
272.579	0.1
272.795	-3.89
273.012	1.65
273.228	-19.6
273.445	-17.99
273.661	4.03
273.878	15.21
274.094	15.78
274.311	24.21
274.527	4.13
274.744	9.5
274.96	-11.97
275.177	-43.59
275.393	-33.5
275.609	-6.17
275.826	-14.21
276.042	-3.55
276.259	18
276.475	11.95
276.691	-2.51
276.908	0.92
277.124	6.2
277.34	-5.81
277.557	-14.32
277.773	4.17
277.989	-2.86
278.205	-9.49
278.422	-0.45
278.638	14.77
278.854	8.06
279.07	3.23
279.286	21.49
279.503	23.44
279.719	24.84
279.935	25.11
280.151	29.51
280.367	3.5
280.583	-15.95
280.799	-0.56
281.016	-14.59
281.232	-23.9
281.448	-4.55
281.664	14.95
281.88	5.33
282.096	43.23
282.312	44.73
282.528	29
282.744	13.46
282.96	7.95
283.176	-9.8
283.392	5.7
283.608	19.52
283.824	22.74
284.04	23.41
284.256	17.29
284.471	17.13
284.687	16.03
284.903	6.15
285.119	-18.8
285.335	-22.42
285.551	-38.36
285.767	-26.41
285.982	-22.06
286.198	-7.68
286.414	-3.3
286.63	0.93
286.846	-27.23
287.061	-25.37
287.277	-34.35
287.493	-41.94
287.709	-76.19
287.924	-22.33
288.14	-30.74
288.356	-61.25
288.571	-48.16
288.787	-24.12
289.003	-53.19
289.218	-71.2
289.434	-7.38
289.65	-14.51
289.865	-16.84
290.081	-55.61
290.296	-25.01
290.512	-25.01
290.727	-24.76
290.943	0.95
291.159	30.78
291.374	31.66
291.59	36.49
291.805	47.88
292.021	57.78
292.236	49.43
292.451	42.7
292.667	47.55
292.882	31.89
293.098	7.08
293.313	19.77
293.529	40.49
293.744	20.78
293.959	33.96
294.175	36.96
294.39	34.95
294.605	18.76
294.821	30.22
295.036	37.72
295.251	34.44
295.467	27.74
295.682	37.59
295.897	17.17
296.112	3.41
296.328	13.74
296.543	18.2
296.758	11.99
296.973	17.54
297.188	12.83
297.404	20.6
297.619	21.01
297.834	10.64
298.049	-1.7
298.264	7.04
298.479	-24.48
298.694	-26.93
298.909	-26.61
299.125	-9.66
299.34	-25.29
299.555	-6.84
299.77	-43.32
299.985	0.74
300.2	8.66
300.415	7.78
300.63	-7.05
300.845	34.62
301.06	14.89
301.275	-23.21
301.49	-0.5
301.704	4.5
301.919	1.06
302.134	-6.04
302.349	19.49
302.564	39.6
302.779	24.69
302.994	20.94
303.209	31.86
303.423	10.14
303.638	-8.61
303.853	22.11
304.068	35
304.283	33.35
304.497	48.4
304.712	55.83
304.927	45.99
305.142	54.62
305.356	36.6
305.571	24.69
305.786	16.12
306	6.33
306.215	-8.57
306.43	16.12
306.644	25.99
306.859	19.49
307.074	28.09
307.288	24.49
307.503	26.14
307.717	16.88
307.932	17.89
308.147	19.16
308.361	4.41
308.576	5.77
308.79	20.47
309.005	20.39
309.219	15.86
309.434	12.59
309.648	14.78
309.863	-17.48
310.077	-28.77
310.292	-28.57
310.506	-14.81
310.72	-2.94
310.935	-2.29
311.149	10.87
311.364	10.64
311.578	1.41
311.792	15.76
312.007	9.72
312.221	11.24
312.435	-15.66
312.649	8.5
312.864	0.29
313.078	11.25
313.292	-1.17
313.507	12.15
313.721	-5.02
313.935	-22.82
314.149	-41.47
314.363	-37.22
314.578	-23.43
314.792	-7.25
315.006	-7.91
315.22	-5.41
315.434	-16.34
315.648	-44.86
315.862	-22.76
316.077	-2.34
316.291	9.33
316.505	1.52
316.719	2.73
316.933	13.09
317.147	-19.6
317.361	-7.74
317.575	29.8
317.789	39.87
318.003	41.35
318.217	44.96
318.431	28.85
318.645	4.87
318.859	1.26
319.073	-7.83
319.287	22.43
319.5	28.68
319.714	42.83
319.928	49.1
320.142	54.1
320.356	29.56
320.57	23.12
320.784	26.98
320.997	5.14
321.211	22.18
321.425	33.03
321.639	23.33
321.853	-18.12
322.066	-12.24
322.28	-39.67
322.494	-65.56
322.707	-48.43
322.921	-21.6
323.135	-8.34
323.349	9.74
323.562	24.26
323.776	35.29
323.989	41.7
324.203	37.89
324.417	31.72
324.63	32.75
324.844	31.85
325.057	31.03
325.271	17.86
325.485	25.4
325.698	14.08
325.912	-5.45
326.125	-11.87
326.339	10.07
326.552	-17.53
326.766	6.1
326.979	14.02
327.193	14.96
327.406	-4.29
327.619	20.73
327.833	-17.87
328.046	-10.14
328.26	-19.63
328.473	-7.97
328.686	-4.09
328.9	-3.41
329.113	0.82
329.326	20.25
329.54	25.11
329.753	27.27
329.966	45.72
330.179	36.98
330.393	37.45
330.606	44.39
330.819	38.68
331.032	27.96
331.246	21.89
331.459	-10.2
331.672	-32.9
331.885	-38.29
332.098	-28.42
332.311	13.03
332.525	39.01
332.738	45.23
332.951	39.19
333.164	26.73
333.377	22.3
333.59	1.61
333.803	-20.44
334.016	-25.89
334.229	-19.63
334.442	-71.6
334.655	-53.69
334.868	-57.41
335.081	-55.17
335.294	-26.94
335.507	5.5
335.72	8.03
335.933	18.1
336.146	23.66
336.359	16.8
336.572	13.12
336.785	23.81
336.997	29.94
337.21	23.27
337.423	29.99
337.636	48.04
337.849	18.53
338.062	17.33
338.274	5.16
338.487	22.32
338.7	9.29
338.913	21.59
339.125	16.91
339.338	25.19
339.551	4.98
339.763	-2.79
339.976	6.58
340.189	1.93
340.402	-9.55
340.614	-13.28
340.827	0.09
341.039	-1.55
341.252	5.92
341.465	16.57
341.677	16.19
341.89	20.7
342.102	14.39
342.315	16.64
342.527	1.56
342.74	13.18
342.952	1.34
343.165	7.79
343.377	-42.21
343.59	-9.49
343.802	-20.19
344.015	-37.49
344.227	-20.08
344.44	15.07
344.652	12.2
344.864	3.97
345.077	-4.37
345.289	-37.36
345.502	-44.06
345.714	-80.3
345.926	-38.48
346.139	-7.02
346.351	1.68
346.563	-6.12
346.775	35.71
346.988	29.29
347.2	25.31
347.412	22.61
347.624	38.68
347.837	25.82
348.049	18.43
348.261	-4.67
348.473	-6.66
348.685	-11.09
348.897	-6.37
349.11	-8.88
349.322	-0.41
349.534	-11.17
349.746	-13.53
349.958	-15.85
350.17	-7.49
350.382	-3.09
350.594	11.68
350.806	20.99
351.018	31.64
351.23	22.06
351.442	23.73
351.654	5.23
351.866	4.75
352.078	-1.04
352.29	4.08
352.502	-1.17
352.714	8.59
352.926	13.39
353.138	2.76
353.35	9.09
353.561	24.65
353.773	30.53
353.985	28.28
354.197	33.63
354.409	39.32
354.621	37.73
354.832	44.6
355.044	44.85
355.256	39.01
355.468	24.8
355.679	8.36
355.891	9.44
356.103	18.04
356.314	23.57
356.526	30.72
356.738	37.32
356.949	25.51
357.161	0.78
357.373	-6.04
357.584	-7.65
357.796	-8.39
358.008	-14.05
358.219	1.69
358.431	5.21
358.642	-7.33
358.854	-20.34
359.065	-10.57
359.277	6.79
359.488	-2.74
359.7	17.23
359.911	18.33
360.123	13.99
360.334	-2.55
360.546	3.16
360.757	-4.32
360.969	-15.72
361.18	6.33
361.391	8.47
361.603	7.49
361.814	-6.71
362.025	22.56
362.237	23.13
362.448	30.18
362.659	25.92
362.871	29.19
363.082	7.98
363.293	-9.04
363.504	-10.8
363.716	7.31
363.927	8.7
364.138	19.57
364.349	31.9
364.56	29.73
364.772	29.37
364.983	17.97
365.194	6.1
365.405	-7.33
365.616	2.78
365.827	4.23
366.038	18.84
366.25	23.83
366.461	31.52
366.672	5.65
366.883	-8.99
367.094	-27.08
367.305	-9.26
367.516	-12.96
367.727	-0.75
367.938	12.62
368.149	22.49
368.36	9.87
368.571	8.03
368.781	19.03
368.992	4.89
369.203	13.01
369.414	15.35
369.625	13.33
369.836	9.69
370.047	12.92
370.258	9.35
370.468	19.86
370.679	39.67
370.89	37.89
371.101	36.13
371.312	35.1
371.522	28.05
371.733	29.6
371.944	37.41
372.155	36.97
372.365	34.39
372.576	42.33
372.787	37.7
372.997	27.33
373.208	31.79
373.419	24.62
373.629	19.43
373.84	11.22
374.05	3.88
374.261	0.72
374.472	16.22
374.682	3.17
374.893	4.59
375.103	-1.32
375.314	3.55
375.524	-1.86
375.735	10.26
375.945	1.68
376.156	14.61
376.366	6.89
376.577	10.25
376.787	16.84
376.997	22.39
377.208	18
377.418	21.73
377.629	17.26
377.839	10.74
378.049	12.52
378.26	9.09
378.47	3.76
378.68	-2.46
378.89	6.33
379.101	8.59
379.311	11.65
379.521	23.13
379.732	31.72
379.942	27.12
380.152	33.01
380.362	29.98
380.572	32.44
380.783	31.95
380.993	28.67
381.203	25.21
381.413	16.64
381.623	8.98
381.833	8.07
382.043	16.37
382.253	16.79
382.463	26.77
382.674	19.43
382.884	19.25
383.094	10.56
383.304	8.44
383.514	2.61
383.724	6.12
383.934	9.29
384.144	11.98
384.353	7.58
384.563	5.02
384.773	6.92
384.983	-0.1
385.193	0.43
385.403	3.75
385.613	5.82
385.823	6.02
386.033	7.54
386.242	9.19
386.452	10.39
386.662	12.94
386.872	9.6
387.082	6.4
387.291	5.52
387.501	1.1
387.711	-0.49
387.921	2.33
388.13	3.89
388.34	0.77
388.55	7.67
388.759	9.5
388.969	9.17
389.179	10.33
389.388	10.6
389.598	10.07
389.807	8.72
390.017	9.82
390.227	9.73
390.436	11.04
390.646	7.6
390.855	6.71
391.065	4.71
391.274	4.72
391.484	6.14
391.693	7.03
391.903	6.96
392.112	9.02
392.322	7.79
392.531	6.13
392.74	5.03
392.95	6.1
393.159	3.45
393.369	4
393.578	3.72
393.787	5.07
393.997	4.91
394.206	6.47
394.415	6.38
394.625	6.91
394.834	6.83
395.043	7.32
395.252	7.07
395.462	7.61
395.671	5.9
395.88	5.71
396.089	5.19
396.298	5.15
396.508	5.12
396.717	6.53
396.926	6.4
397.135	5.92
397.344	5.98
397.553	5.26
397.762	4.27
397.971	4.31
398.181	4.77
398.39	5
398.599	5.07
398.808	5.87
399.017	5.98
399.226	5.29
399.435	4.96
399.644	5.2
399.853	5.06
400.062	5.06
400.27	5.55
400.479	5.7
400.688	5.67
400.897	5.88
401.106	5.81
401.315	5.91
401.524	6.11
401.733	5.81
401.941	5.39
402.15	5.47
402.359	5.44
402.568	5.02
402.777	4.99
402.985	5.18
403.194	5.06
403.403	4.83
403.612	5.07
403.82	5.31
404.029	5.37
404.238	5.57
404.446	5.56
404.655	5.37
404.864	5.26
405.072	5.24
405.281	4.96
405.489	5.05
405.698	5.19
405.906	5.2
406.115	5.2
406.324	5.37
406.532	5.42
406.741	5.3
406.949	5.34
407.158	5.38
407.366	5.27
407.574	5.14
407.783	5.14
407.991	5.05
408.2	4.76
408.408	4.69
408.617	4.73
408.825	4.86
409.033	4.9
409.242	5.06
409.45	4.95
409.658	4.97
409.867	4.77
410.075	4.82
410.283	4.79
410.491	4.94
410.7	4.9
410.908	4.92
411.116	4.78
411.324	4.72
411.533	4.57
411.741	4.5
411.949	4.42
412.157	4.48
412.365	4.49
412.573	4.53
412.781	4.51
412.99	4.69
413.198	4.66
413.406	4.67
413.614	4.6
413.822	4.71
414.03	4.67
414.238	4.66
414.446	4.61
414.654	4.82
414.862	4.77
415.07	4.59
415.278	4.45
415.486	4.47
415.694	4.46
415.902	4.36
416.109	4.49
416.317	4.46
416.525	4.5
416.733	4.36
416.941	4.43
417.149	4.42
417.357	4.37
417.564	4.19
417.772	4.17
417.98	4.23
418.188	4.16
418.395	4.26
418.603	4.47
418.811	4.57
419.019	4.41
419.226	4.43
419.434	4.38
419.642	4.3
419.849	4.22
420.057	4.27
420.265	4.23
420.472	4.34
420.68	4.19
420.887	4.1
421.095	3.87
421.302	3.99
421.51	3.69
421.717	3.82
421.925	3.89
422.132	4.04
422.34	3.94
422.547	4.02
422.755	4.03
422.962	4.14
423.17	4.19
423.377	4.22
423.585	4.21
423.792	4
423.999	3.9
424.207	3.8
424.414	3.53
424.621	3.52
424.829	3.65
425.036	3.65
425.243	3.54
425.451	3.81
425.658	3.93
425.865	3.9
426.072	3.83
426.28	3.94
426.487	3.99
426.694	3.94
426.901	3.99
427.108	4.05
427.315	4.31
427.523	4.17
427.73	4.21
427.937	4.33
428.144	4.36
428.351	4.15
428.558	3.9
428.765	3.97
428.972	3.89
429.179	3.68
429.386	3.63
429.593	3.85
429.8	3.94
430.007	4.07
430.214	4.28
430.421	4.28
430.628	4.28
430.835	4.24
431.042	4.08
431.249	4.06
431.456	4.2
431.662	4.29
431.869	4.27
432.076	4.23
432.283	4.27
432.49	4.17
432.697	4.15
432.903	4.14
433.11	4.23
433.317	4.11
433.524	4.1
433.73	4.09
433.937	4.09
434.144	4.05
434.35	4.16
434.557	4.33
434.764	4.44
434.97	4.56
435.177	4.72
435.384	4.8
435.59	4.72
435.797	4.61
436.003	4.48
436.21	4.38
436.416	4.37
436.623	4.34
436.829	4.42
437.036	4.42
437.242	4.39
437.449	4.28
437.655	4.3
437.862	4.34
438.068	4.37
438.275	4.39
438.481	4.34
438.687	4.43
438.894	4.48
439.1	4.57
439.307	4.45
439.513	4.54
439.719	4.4
439.926	4.36
440.132	4.38
440.338	4.61
440.544	4.56
440.751	4.72
440.957	4.74
441.163	4.75
441.369	4.73
441.575	4.97
441.782	4.93
441.988	5.02
442.194	5.06
442.4	5.04
442.606	4.98
442.812	5.06
443.018	4.91
443.224	4.85
443.431	4.84
443.637	4.9
443.843	4.91
444.049	4.94
444.255	5.08
444.461	5.08
444.667	4.96
444.873	4.75
445.079	4.86
445.284	4.8
445.49	4.88
445.696	5
445.902	5.18
446.108	5.18
446.314	5.18
446.52	5.35
446.726	5.31
446.931	5.32
447.137	5.29
447.343	5.28
447.549	5.14
447.755	5.16
447.96	5.08
448.166	5.09
448.372	5.02
448.578	5.04
448.783	5.02
448.989	5.13
449.195	5.08
449.4	5.18
449.606	5.17
449.812	5.21
450.017	5.17
450.223	5.19
450.428	5.33
450.634	5.26
450.84	5.31
451.045	5.32
451.251	5.46
451.456	5.22
451.662	5.19
451.867	5.12
452.073	5.18
452.278	5.09
452.483	5.18
452.689	5.27
452.894	5.2
453.1	5.18
453.305	5.16
453.51	5.16
453.716	5.2
453.921	5.31
454.127	5.24
454.332	5.35
454.537	5.39
454.742	5.39
454.948	5.33
455.153	5.43
455.358	5.36
455.563	5.21
455.769	5.15
455.974	5.2
456.179	5.19
456.384	5.09
456.589	5.23
456.795	5.25
457	5.31
457.205	5.17
457.41	5.25
457.615	5.22
457.82	5.23
458.025	5.22
458.23	5.4
458.435	5.36
458.64	5.43
458.845	5.45
459.05	5.36
459.255	5.29
459.46	5.36
459.665	5.28
459.87	5.29
460.075	5.35
460.28	5.38
460.485	5.33
460.69	5.32
460.895	5.34
461.099	5.44
461.304	5.23
461.509	5.21
461.714	5.35
461.919	5.25
462.123	5.21
462.328	5.45
462.533	5.62
462.738	5.59
462.942	5.66
463.147	5.62
463.352	5.61
463.556	5.54
463.761	5.46
463.966	5.48
464.17	5.51
464.375	5.57
464.58	5.59
464.784	5.65
464.989	5.67
465.193	5.64
465.398	5.6
465.602	5.52
465.807	5.56
466.011	5.66
466.216	5.63
466.42	5.61
466.625	5.74
466.829	5.63
467.034	5.52
467.238	5.59
