Data from Ofav_PP_Phys_3JQ1_Reflection_2.txt Node
Date: Tue Aug 03 18:10:20 EDT 2021
User: Adam
Spectrometer: FLMT01687
Trigger mode: 0
Integration Time (sec): 8.750000E-1
Scans to average: 2
Electric dark correction enabled: true
Nonlinearity correction enabled: false
Boxcar width: 2
XAxis mode: Wavelengths
Number of Pixels in Spectrum: 3648
>>>>>Begin Spectral Data<<<<<
179.494	148.65
179.716	162.43
179.937	206.72
180.158	233.86
180.38	605.26
180.601	55.56
180.823	123.84
181.044	29.68
181.265	115.57
181.486	-132.84
181.708	39.82
181.929	101.5
182.15	27.2
182.372	175.95
182.593	-13.92
182.814	3.3
183.035	593.62
183.257	805.88
183.478	-23.18
183.699	-340.96
183.92	-86.07
184.141	-73.71
184.363	-48.04
184.584	-161.48
184.805	-20.77
185.026	-41.59
185.247	-16.7
185.468	-1.93
185.689	11.37
185.91	15.54
186.132	-6.09
186.353	-0.97
186.574	-32.87
186.795	6.39
187.016	-11.59
187.237	10.77
187.458	17.02
187.679	8.19
187.9	-8.8
188.121	-2.33
188.342	-36.28
188.563	-39.21
188.784	-24.93
189.005	-43.39
189.226	-55.74
189.447	-31.81
189.667	-29.3
189.888	-47.9
190.109	-10.77
190.33	3.94
190.551	6.47
190.772	17.11
190.993	12.64
191.214	-7.99
191.434	-12.55
191.655	-26.68
191.876	-27.53
192.097	-5.42
192.318	14.72
192.538	15.49
192.759	45.4
192.98	55.28
193.201	40.2
193.421	46.16
193.642	35.32
193.863	26.6
194.083	10.04
194.304	23.37
194.525	-23.54
194.745	19.29
194.966	19.52
195.187	41.44
195.407	45.22
195.628	39.21
195.848	37.81
196.069	48.24
196.29	17.83
196.51	-4.76
196.731	29.81
196.951	20.84
197.172	14.25
197.392	40.25
197.613	52.8
197.833	38.57
198.054	64.75
198.274	29.69
198.495	22.69
198.715	32.77
198.936	33.93
199.156	12.05
199.377	-0.75
199.597	13.52
199.817	8.61
200.038	-6.29
200.258	-43.11
200.479	-71.18
200.699	-100
200.919	-143.03
201.14	-24.69
201.36	4.64
201.58	5.38
201.801	-11.06
202.021	-2.8
202.241	-35.52
202.461	-37.77
202.682	-13.02
202.902	-16.36
203.122	-6.4
203.342	2.82
203.563	4.87
203.783	1.02
204.003	17.07
204.223	14.84
204.443	-17.75
204.663	-14.82
204.884	-18.98
205.104	-38.65
205.324	-35.08
205.544	-2.91
205.764	-4.8
205.984	-34.07
206.204	9
206.424	-23.99
206.644	-5.07
206.864	-19.92
207.084	-5.51
207.304	-25.6
207.525	-0.53
207.745	-5.91
207.964	-16.19
208.184	-3.41
208.404	-8.53
208.624	-8.96
208.844	-8.88
209.064	8.39
209.284	16.51
209.504	14.58
209.724	-7.83
209.944	-20.26
210.164	-81.5
210.384	-93.3
210.604	-98.12
210.823	-120.08
211.043	-35.37
211.263	-3.84
211.483	-13.59
211.703	16.6
211.922	5.06
212.142	-6.74
212.362	-20.11
212.582	2.81
212.801	-34.46
213.021	-27.94
213.241	-39.71
213.461	5.47
213.68	5.35
213.9	14.8
214.12	9.75
214.339	6.45
214.559	-9.53
214.779	2.92
214.998	7.6
215.218	31.63
215.438	38.3
215.657	33.26
215.877	28.77
216.096	8.73
216.316	-17.67
216.535	-41.86
216.755	-48.46
216.974	-48.22
217.194	-11.53
217.413	11.59
217.633	7.95
217.852	20.23
218.072	19.4
218.291	-7.31
218.511	-18.04
218.73	-6.13
218.95	1.05
219.169	0.29
219.389	7.11
219.608	6.89
219.827	-6.58
220.047	-29.69
220.266	-4.19
220.485	17.4
220.705	27.93
220.924	24.66
221.143	36.57
221.363	36.48
221.582	-3.76
221.801	-31.38
222.021	-3.33
222.24	-0.89
222.459	-38.96
222.678	9.25
222.897	16.94
223.117	-10.65
223.336	-248.2
223.555	-124.07
223.774	-73.82
223.993	-46.64
224.213	-40.52
224.432	18.79
224.651	23.41
224.87	-0.75
225.089	0.52
225.308	-13.53
225.527	-38.56
225.746	-71.81
225.965	-31.61
226.184	-93.12
226.404	7.67
226.623	39.97
226.842	36.67
227.061	-10.97
227.28	13.18
227.499	5.34
227.718	11.05
227.936	23.2
228.155	44.93
228.374	54.64
228.593	56.12
228.812	32.82
229.031	9.65
229.25	38.5
229.469	-0.95
229.688	-67.09
229.907	-144.86
230.125	-101.25
230.344	-113.51
230.563	-56.68
230.782	-16.74
231.001	26.31
231.22	16.62
231.438	5.6
231.657	-28.14
231.876	-24.3
232.095	-29.32
232.313	-28.1
232.532	-40.74
232.751	-3.68
232.969	-8.4
233.188	3.39
233.407	-10.16
233.625	31.56
233.844	17.71
234.063	33.9
234.281	16.34
234.5	18.51
234.719	8.46
234.937	11.32
235.156	-33.57
235.374	-25.46
235.593	-21.61
235.811	-27.7
236.03	-2.38
236.249	23.56
236.467	18.17
236.686	14.26
236.904	12.78
237.123	2.14
237.341	5.02
237.559	18.13
237.778	29.6
237.996	25.88
238.215	9.63
238.433	14.63
238.652	9.12
238.87	12.92
239.088	22.03
239.307	32.4
239.525	13.98
239.743	25.46
239.962	23.46
240.18	15.59
240.398	38.96
240.617	59.42
240.835	33.03
241.053	19.02
241.271	-31.42
241.49	-40.58
241.708	-19.57
241.926	-12.25
242.144	-4.75
242.363	33.16
242.581	16.14
242.799	4.64
243.017	2.34
243.235	23.11
243.453	10.8
243.672	22.98
243.89	31.22
244.108	32.12
244.326	-8.02
244.544	-11.45
244.762	-7.43
244.98	-32.48
245.198	-12.62
245.416	20.49
245.634	20.56
245.852	0.11
246.07	-6.92
246.288	-26.79
246.506	-13.22
246.724	-12.34
246.942	3.98
247.16	9.31
247.378	-8.7
247.596	-23.95
247.814	-5.92
248.032	-5.62
248.25	0.5
248.468	1.69
248.685	-0.26
248.903	-42.76
249.121	-57.27
249.339	-34.53
249.557	-12.7
249.775	-35.71
249.992	3.31
250.21	8.37
250.428	-2.61
250.646	-31.32
250.863	-14.32
251.081	-17.1
251.299	-37.15
251.517	-15.54
251.734	6.83
251.952	18.29
252.17	-1.35
252.387	-5.3
252.605	-46.93
252.823	-51.17
253.04	-54.29
253.258	5.4
253.475	32.56
253.693	22.56
253.911	38.24
254.128	55.56
254.346	43.09
254.563	34.46
254.781	56.18
254.998	27.31
255.216	15.01
255.433	-16.69
255.651	-13.37
255.868	-65.42
256.086	-69.94
256.303	-48.59
256.521	-29.79
256.738	-56.35
256.956	-16.16
257.173	-0.33
257.39	3
257.608	8.77
257.825	-11.54
258.043	-68.32
258.26	-32.11
258.477	-36.92
258.695	-28.85
258.912	-23.8
259.129	11.44
259.346	9.53
259.564	17.59
259.781	4.39
259.998	42.9
260.216	29.13
260.433	12.95
260.65	-3.67
260.867	-1.16
261.084	-26.7
261.302	-30.86
261.519	-19.05
261.736	4.5
261.953	-1.87
262.17	-5.6
262.387	1.37
262.604	3.32
262.822	-4.31
263.039	11.58
263.256	21.81
263.473	18.74
263.69	38.28
263.907	34.49
264.124	0.32
264.341	-27.76
264.558	-59.4
264.775	-78.27
264.992	-59.83
265.209	-46.77
265.426	-61.73
265.643	-30.56
265.86	-24.73
266.077	-18.23
266.294	-9.3
266.51	9.18
266.727	17.09
266.944	21.78
267.161	20.27
267.378	6.93
267.595	4.9
267.812	6.33
268.028	-7.72
268.245	-0.71
268.462	34.8
268.679	47.83
268.896	38.08
269.112	53.01
269.329	14.75
269.546	-41.02
269.763	-49.11
269.979	-21.05
270.196	-13.54
270.413	14.2
270.629	10.91
270.846	32.92
271.063	18.71
271.279	14.34
271.496	11.47
271.712	3.52
271.929	-9.21
272.146	13.88
272.362	7.1
272.579	-2.81
272.795	-4.45
273.012	1.98
273.228	-1.83
273.445	11.97
273.661	10.33
273.878	24.81
274.094	15.46
274.311	7.09
274.527	-7.69
274.744	22.97
274.96	3.81
275.177	-26.7
275.393	-10.71
275.609	-2.71
275.826	-40.72
276.042	-30.9
276.259	-2.76
276.475	-12.99
276.691	-20.48
276.908	-6.36
277.124	6.55
277.34	-8.16
277.557	-14.34
277.773	1.39
277.989	1.1
278.205	4.96
278.422	17.61
278.638	22.8
278.854	21.1
279.07	33.4
279.286	25.33
279.503	35.45
279.719	43.16
279.935	38.64
280.151	24.73
280.367	21.01
280.583	-14.84
280.799	4.05
281.016	-0.64
281.232	-3.59
281.448	-12.24
281.664	-25.97
281.88	-48.02
282.096	-17.57
282.312	-25.65
282.528	-28.59
282.744	-11.38
282.96	1.87
283.176	-8.73
283.392	4.24
283.608	19.66
283.824	18.48
284.04	16.6
284.256	9.21
284.471	7.28
284.687	6.8
284.903	18.03
285.119	-9.21
285.335	-8.63
285.551	-18.28
285.767	-22.13
285.982	-35.54
286.198	-1.64
286.414	-6.35
286.63	1.92
286.846	-0.24
287.061	-8.71
287.277	-34.14
287.493	-29.83
287.709	-64.59
287.924	-56.32
288.14	-45.18
288.356	-51.27
288.571	-42.56
288.787	-11.79
289.003	-27.01
289.218	-36.53
289.434	-12.2
289.65	-32.19
289.865	-30.22
290.081	-58.14
290.296	-20.1
290.512	-20.69
290.727	-6.24
290.943	-0.13
291.159	24.5
291.374	6.36
291.59	16.37
291.805	32.74
292.021	45.26
292.236	42.74
292.451	44.73
292.667	48.05
292.882	29.12
293.098	1.91
293.313	6.18
293.529	21.94
293.744	23.13
293.959	48.03
294.175	44.62
294.39	30.88
294.605	14.18
294.821	-1.07
295.036	-19.07
295.251	-25.52
295.467	-16.72
295.682	9.78
295.897	-6.47
296.112	0.08
296.328	-3.68
296.543	6.93
296.758	-14.33
296.973	1.13
297.188	-10.04
297.404	14.86
297.619	4.73
297.834	7.28
298.049	2.69
298.264	22.65
298.479	-13.54
298.694	-14.73
298.909	-2.1
299.125	17.75
299.34	1.95
299.555	5.98
299.77	-19.83
299.985	9.38
300.2	9.91
300.415	-3.72
300.63	10.18
300.845	38.62
301.06	1.09
301.275	-28.64
301.49	6.57
301.704	1.37
301.919	9.14
302.134	18.93
302.349	25.12
302.564	18.03
302.779	6.95
302.994	-4.08
303.209	-12.33
303.423	-24.94
303.638	-12.13
303.853	18.03
304.068	25.23
304.283	40.13
304.497	45.5
304.712	45.42
304.927	35.82
305.142	39.98
305.356	29.56
305.571	29.95
305.786	30.48
306	23.73
306.215	7.96
306.43	5.55
306.644	-4.26
306.859	-9.69
307.074	-9.09
307.288	9.55
307.503	14.53
307.717	21.88
307.932	-1.95
308.147	1.96
308.361	-21.8
308.576	-21.07
308.79	2.57
309.005	35.44
309.219	30.43
309.434	31.85
309.648	24.42
309.863	-2.12
310.077	-31.35
310.292	-22.9
310.506	-2.25
310.72	16.03
310.935	6.23
311.149	4.33
311.364	-8.84
311.578	-21.11
311.792	-19.45
312.007	-19.52
312.221	14.29
312.435	8.56
312.649	33.2
312.864	40.95
313.078	31.36
313.292	29.87
313.507	35.65
313.721	25.46
313.935	7.96
314.149	17.03
314.363	8.42
314.578	3.6
314.792	-12.96
315.006	-33.98
315.22	-30.68
315.434	-40.06
315.648	-106.52
315.862	-43.32
316.077	-19.25
316.291	-3.45
316.505	-0.87
316.719	20.32
316.933	16.94
317.147	11.7
317.361	-2.45
317.575	5.68
317.789	-0.24
318.003	1.65
318.217	0.7
318.431	5.88
318.645	-18.51
318.859	-14.32
319.073	-28.64
319.287	-2.43
319.5	7.83
319.714	43.75
319.928	54.87
320.142	52.79
320.356	39.13
320.57	39.94
320.784	8.4
320.997	-4.04
321.211	19.05
321.425	20.96
321.639	7.51
321.853	1.84
322.066	-19.24
322.28	-16.86
322.494	-52.61
322.707	-69.76
322.921	-46.23
323.135	-34.68
323.349	-53.94
323.562	-14.37
323.776	16.01
323.989	9.63
324.203	24.11
324.417	24.96
324.63	27.19
324.844	20.52
325.057	28.89
325.271	10.37
325.485	4.82
325.698	-21.15
325.912	-37.25
326.125	-22.08
326.339	-9.62
326.552	-25.25
326.766	6.64
326.979	12.23
327.193	-14.94
327.406	-14.11
327.619	29.6
327.833	-23.06
328.046	-14.87
328.26	3.84
328.473	2.3
328.686	-11.02
328.9	-1.29
329.113	4.62
329.326	19.44
329.54	15
329.753	12
329.966	36.58
330.179	33.74
330.393	12
330.606	27.3
330.819	38.36
331.032	30.57
331.246	11.49
331.459	-0.64
331.672	-25.86
331.885	-40.02
332.098	-42.6
332.311	0.5
332.525	34.55
332.738	30.79
332.951	35.41
333.164	38.5
333.377	39.11
333.59	16.4
333.803	27.14
334.016	14.17
334.229	6.2
334.442	-49.38
334.655	-36.24
334.868	-52.51
335.081	-53.33
335.294	-54.04
335.507	-3.79
335.72	-2.78
335.933	0.23
336.146	0.93
336.359	-4.18
336.572	-5.81
336.785	-1.37
336.997	31.51
337.21	27.63
337.423	32.34
337.636	19.38
337.849	7.55
338.062	-19.02
338.274	-21.86
338.487	-2.41
338.7	3.44
338.913	17.34
339.125	23.44
339.338	28.11
339.551	18.75
339.763	24.42
339.976	20.91
340.189	7.27
340.402	-1.56
340.614	-9.74
340.827	-0.22
341.039	6.33
341.252	27.41
341.465	32.28
341.677	30.6
341.89	32.08
342.102	25.25
342.315	13.04
342.527	21.4
342.74	31.42
342.952	19.44
343.165	23.15
343.377	-11.14
343.59	-10.76
343.802	-27.72
344.015	-61.62
344.227	-67.94
344.44	-11.03
344.652	-8.7
344.864	-15.93
345.077	3.77
345.289	-20.11
345.502	-65.48
345.714	-73.86
345.926	-27.95
346.139	-13.7
346.351	-16.32
346.563	-11.47
346.775	0.48
346.988	-13.09
347.2	-10.3
347.412	-3.97
347.624	-0.89
347.837	-11.59
348.049	-11.67
348.261	-32.25
348.473	-19.22
348.685	-2.26
348.897	8.49
349.11	-4.31
349.322	1.93
349.534	-18.97
349.746	-20.58
349.958	-21.13
350.17	2.16
350.382	5.28
350.594	19.55
350.806	22.54
351.018	20.81
351.23	1.61
351.442	-6.94
351.654	-17.4
351.866	-17.78
352.078	-24.49
352.29	-19.27
352.502	-21.42
352.714	-17.07
352.926	-21.06
353.138	-27.73
353.35	-15.13
353.561	-0.63
353.773	-4.46
353.985	0.84
354.197	11.21
354.409	26.15
354.621	25.94
354.832	39.67
355.044	49.27
355.256	48.73
355.468	24.63
355.679	27.34
355.891	20.08
356.103	21.99
356.314	19.14
356.526	28.71
356.738	31.58
356.949	29.87
357.161	13.83
357.373	20.58
357.584	24.16
357.796	16.42
358.008	-3.16
358.219	-8.36
358.431	-9.67
358.642	-34.72
358.854	-62.4
359.065	-20.59
359.277	-1.64
359.488	-17.1
359.7	-9.81
359.911	-5.08
360.123	1.59
360.334	-11.68
360.546	-8.41
360.757	-3.53
360.969	11.97
361.18	4.95
361.391	19.08
361.603	22.86
361.814	11.15
362.025	15.75
362.237	15.13
362.448	4.19
362.659	-1.59
362.871	10.89
363.082	-7.71
363.293	-10.13
363.504	-5.52
363.716	17.44
363.927	10.11
364.138	14.85
364.349	10.21
364.56	9.71
364.772	0.7
364.983	-2.68
365.194	2.21
365.405	11.66
365.616	14.07
365.827	20.07
366.038	24.31
366.25	25.05
366.461	27.86
366.672	4.13
366.883	-3.49
367.094	-3.76
367.305	1.45
367.516	-11.31
367.727	6.95
367.938	5.99
368.149	2.76
368.36	-2.24
368.571	-2.67
368.781	1.92
368.992	-3.68
369.203	13
369.414	12.89
369.625	23.53
369.836	22.17
370.047	17.1
370.258	-8.89
370.468	1.57
370.679	16.47
370.89	15.25
371.101	21.5
371.312	35.21
371.522	27.22
371.733	16
371.944	22.79
372.155	20.63
372.365	11.85
372.576	29.2
372.787	28.74
372.997	24.49
373.208	23.08
373.419	13.03
373.629	1.12
373.84	-4.93
374.05	-12.14
374.261	-10.34
374.472	3.48
374.682	-2.17
374.893	-3.9
375.103	-5.25
375.314	7.98
375.524	24
375.735	17
375.945	22.14
376.156	20.33
376.366	10.02
376.577	0.06
376.787	-2.78
376.997	-16.43
377.208	-4.92
377.418	-8.32
377.629	-3.64
377.839	-5.59
378.049	5.23
378.26	-6.52
378.47	-7.91
378.68	-11.65
378.89	1.37
379.101	2.86
379.311	1.95
379.521	13.76
379.732	11.99
379.942	13.73
380.152	9.99
380.362	7.81
380.572	10.4
380.783	9.29
380.993	2.89
381.203	9.65
381.413	4.96
381.623	-0.55
381.833	6.3
382.043	9.12
382.253	9.31
382.463	15.86
382.674	21.65
382.884	19.98
383.094	12.54
383.304	4.12
383.514	3.48
383.724	-9.65
383.934	-4.34
384.144	-2.84
384.353	-7.98
384.563	-10.96
384.773	-9.75
384.983	-17.66
385.193	-14.27
385.403	-2.37
385.613	2.73
385.823	6.46
386.033	8.47
386.242	11.04
386.452	8.06
386.662	8.21
386.872	5.29
387.082	-1.07
387.291	-2.66
387.501	-6.19
387.711	-6.95
387.921	-1
388.13	3.6
388.34	0.05
388.55	5.18
388.759	6.81
388.969	4.15
389.179	2.8
389.388	4.26
389.598	4.63
389.807	2.01
390.017	4.09
390.227	5.31
390.436	4.84
390.646	0.62
390.855	0.88
391.065	-0.69
391.274	0.4
391.484	3.33
391.693	3.83
391.903	3.93
392.112	4.17
392.322	2.76
392.531	0.58
392.74	1.55
392.95	3.04
393.159	2.36
393.369	3.25
393.578	3.18
393.787	3.39
393.997	2.24
394.206	3.55
394.415	2.75
394.625	2.99
394.834	3.66
395.043	3.86
395.252	3.47
395.462	4.03
395.671	3.53
395.88	3.01
396.089	2.86
396.298	2.82
396.508	2.89
396.717	3.84
396.926	3.49
397.135	2.63
397.344	2.48
397.553	1.78
397.762	1.34
397.971	1.26
398.181	1.88
398.39	2.28
398.599	2.7
398.808	2.69
399.017	2.75
399.226	2.41
399.435	1.79
399.644	1.95
399.853	1.98
400.062	2.12
400.27	2.46
400.479	2.76
400.688	2.46
400.897	2.66
401.106	2.61
401.315	2.55
401.524	2.79
401.733	2.48
401.941	2.16
402.15	2.21
402.359	2.47
402.568	2.02
402.777	2.24
402.985	2.25
403.194	2.21
403.403	1.9
403.612	2.21
403.82	2.29
404.029	2.28
404.238	2.52
404.446	2.57
404.655	2.39
404.864	2.44
405.072	2.58
405.281	2.24
405.489	2.27
405.698	2.42
405.906	2.4
406.115	2.24
406.324	2.34
406.532	2.27
406.741	2.24
406.949	2.13
407.158	2.26
407.366	2.22
407.574	2.19
407.783	2.17
407.991	2.27
408.2	2.08
408.408	2
408.617	2.12
408.825	2.15
409.033	2.16
409.242	2.22
409.45	2.11
409.658	2.11
409.867	1.96
410.075	1.9
410.283	1.94
410.491	2.07
410.7	1.99
410.908	2.01
411.116	1.93
411.324	1.95
411.533	1.88
411.741	1.76
411.949	1.73
412.157	1.82
412.365	1.68
412.573	1.75
412.781	1.82
412.99	1.86
413.198	1.89
413.406	1.95
413.614	1.88
413.822	1.97
414.03	1.99
414.238	1.91
414.446	1.98
414.654	2.14
414.862	2.13
415.07	2.07
415.278	2.02
415.486	2.05
415.694	2.02
415.902	1.9
416.109	1.95
416.317	1.96
416.525	1.87
416.733	1.85
416.941	1.91
417.149	1.87
417.357	1.85
417.564	1.83
417.772	1.63
417.98	1.84
418.188	1.9
418.395	1.82
418.603	1.85
418.811	1.99
419.019	1.73
419.226	1.69
419.434	1.75
419.642	1.68
419.849	1.67
420.057	1.74
420.265	1.62
420.472	1.76
420.68	1.7
420.887	1.65
421.095	1.64
421.302	1.83
421.51	1.49
421.717	1.46
421.925	1.43
422.132	1.36
422.34	1.31
422.547	1.35
422.755	1.45
422.962	1.63
423.17	1.71
423.377	1.75
423.585	1.95
423.792	1.83
423.999	1.65
424.207	1.62
424.414	1.26
424.621	1.28
424.829	1.49
425.036	1.58
425.243	1.57
425.451	1.81
425.658	1.82
425.865	1.8
426.072	1.67
426.28	1.56
426.487	1.7
426.694	1.51
426.901	1.39
427.108	1.65
427.315	1.92
427.523	1.66
427.73	1.79
427.937	1.96
428.144	1.73
428.351	1.55
428.558	1.58
428.765	1.5
428.972	1.48
429.179	1.54
429.386	1.44
429.593	1.58
429.8	1.92
430.007	1.9
430.214	1.88
430.421	2
430.628	1.98
430.835	1.84
431.042	1.8
431.249	1.82
431.456	1.93
431.662	1.93
431.869	1.96
432.076	1.97
432.283	1.98
432.49	1.88
432.697	1.93
432.903	1.89
433.11	1.8
433.317	1.8
433.524	1.65
433.73	1.77
433.937	1.59
434.144	1.72
434.35	1.78
434.557	2.08
434.764	2.04
434.97	2.24
435.177	2.23
435.384	2.33
435.59	2.2
435.797	2.12
436.003	1.96
436.21	1.9
436.416	1.77
436.623	1.75
436.829	1.82
437.036	1.99
437.242	2.02
437.449	1.98
437.655	2.02
437.862	1.99
438.068	1.96
438.275	1.9
438.481	1.84
438.687	1.84
438.894	1.95
439.1	2.01
439.307	1.94
439.513	1.99
439.719	2
439.926	1.9
440.132	1.97
440.338	2.2
440.544	2.19
440.751	2.27
440.957	2.3
441.163	2.33
441.369	2.28
441.575	2.52
441.782	2.52
441.988	2.56
442.194	2.54
442.4	2.65
442.606	2.6
442.812	2.62
443.018	2.53
443.224	2.45
443.431	2.31
443.637	2.34
443.843	2.37
444.049	2.47
444.255	2.55
444.461	2.7
444.667	2.68
444.873	2.53
445.079	2.45
445.284	2.48
445.49	2.46
445.696	2.46
445.902	2.48
446.108	2.54
446.314	2.52
446.52	2.58
446.726	2.59
446.931	2.65
447.137	2.65
447.343	2.74
447.549	2.72
447.755	2.68
447.96	2.66
448.166	2.67
448.372	2.49
448.578	2.48
448.783	2.51
448.989	2.56
449.195	2.53
449.4	2.62
449.606	2.59
449.812	2.61
450.017	2.55
450.223	2.58
450.428	2.67
450.634	2.69
450.84	2.65
451.045	2.81
451.251	2.88
451.456	2.85
451.662	2.72
451.867	2.74
452.073	2.64
452.278	2.48
452.483	2.39
452.689	2.48
452.894	2.45
453.1	2.55
453.305	2.71
453.51	2.77
453.716	2.81
453.921	2.93
454.127	2.88
454.332	2.94
454.537	2.99
454.742	3.02
454.948	2.93
455.153	2.93
455.358	2.82
455.563	2.66
455.769	2.67
455.974	2.74
456.179	2.74
456.384	2.71
456.589	2.89
456.795	2.89
457	2.92
457.205	2.88
457.41	2.98
457.615	3.02
457.82	2.96
458.025	2.87
458.23	2.92
458.435	2.87
458.64	2.82
458.845	2.89
459.05	2.98
459.255	3.07
459.46	3.03
459.665	3.05
459.87	3.02
460.075	3
460.28	3.05
460.485	3.14
460.69	3.13
460.895	3.17
461.099	3.19
461.304	3.08
461.509	3.02
461.714	3.13
461.919	3.14
462.123	3.18
462.328	3.19
462.533	3.31
462.738	3.25
462.942	3.26
463.147	3.34
463.352	3.26
463.556	3.21
463.761	3.13
463.966	3.05
464.17	2.97
464.375	3.09
464.58	3.05
464.784	3.09
464.989	3.24
465.193	3.21
465.398	3.26
465.602	3.22
465.807	3.23
466.011	3.16
466.216	3.2
466.42	3.1
466.625	3.27
