Data from Ofav_PP_Phys_9AZ7_Reflection_3.txt Node
Date: Tue Aug 03 18:16:27 EDT 2021
User: Adam
Spectrometer: FLMT01687
Trigger mode: 0
Integration Time (sec): 8.750000E-1
Scans to average: 2
Electric dark correction enabled: true
Nonlinearity correction enabled: false
Boxcar width: 2
XAxis mode: Wavelengths
Number of Pixels in Spectrum: 3648
>>>>>Begin Spectral Data<<<<<
179.494	242.34
179.716	291.33
179.937	386.17
180.158	630.71
180.38	3931.58
180.601	326.9
180.823	392.72
181.044	140.92
181.265	182.63
181.486	195.52
181.708	93.31
181.929	238.35
182.15	134.31
182.372	558.23
182.593	-224.05
182.814	-5.49
183.035	542.55
183.257	723.53
183.478	195.36
183.699	-136.14
183.92	-54.23
184.141	-84.04
184.363	5.74
184.584	-156.03
184.805	14.14
185.026	-12.96
185.247	9.47
185.468	1.93
185.689	29.82
185.91	40.92
186.132	32.81
186.353	65.98
186.574	35.28
186.795	56.32
187.016	17.71
187.237	37.54
187.458	4.67
187.679	6.57
187.9	-13.34
188.121	1.64
188.342	-44.6
188.563	-35.34
188.784	-15.07
189.005	-12.28
189.226	-21.42
189.447	16.99
189.667	19.05
189.888	26.72
190.109	25.47
190.33	21.95
190.551	32.01
190.772	52.99
190.993	26.77
191.214	38.01
191.434	52.96
191.655	19.54
191.876	18.61
192.097	44.43
192.318	42.45
192.538	41.34
192.759	42.43
192.98	37.93
193.201	4.15
193.421	16.23
193.642	-10.45
193.863	1
194.083	13.44
194.304	31.4
194.525	16.38
194.745	41.09
194.966	63.33
195.187	59.04
195.407	60.13
195.628	47.35
195.848	52.41
196.069	44.59
196.29	10.7
196.51	15.05
196.731	56.39
196.951	28.96
197.172	51.2
197.392	107.03
197.613	85.69
197.833	91.62
198.054	143.96
198.274	86.16
198.495	59.59
198.715	47.42
198.936	38.12
199.156	12.05
199.377	36.84
199.597	56.64
199.817	73.51
200.038	36.78
200.258	48.84
200.479	-11.83
200.699	-57.38
200.919	-99.53
201.14	17.33
201.36	14.39
201.58	23.71
201.801	2.12
202.021	21.66
202.241	-10.09
202.461	3.49
202.682	8.93
202.902	25.62
203.122	22.82
203.342	27.03
203.563	-41.13
203.783	-22.79
204.003	4.29
204.223	17.97
204.443	-9.33
204.663	20.12
204.884	20.68
205.104	-8.67
205.324	-27.51
205.544	0.22
205.764	-9.4
205.984	-25.76
206.204	-25.96
206.424	-73.43
206.644	-14.89
206.864	-38.43
207.084	-24.69
207.304	-19.91
207.525	39.75
207.745	41.75
207.964	31.26
208.184	40.44
208.404	63.66
208.624	51.25
208.844	30.18
209.064	52.07
209.284	51.11
209.504	17.29
209.724	-2.09
209.944	8.87
210.164	-22.51
210.384	8.54
210.604	22.41
210.823	102.32
211.043	79.35
211.263	102.19
211.483	85.34
211.703	100.27
211.922	60.85
212.142	41.71
212.362	36.14
212.582	21.71
212.801	8.02
213.021	19.09
213.241	9.41
213.461	27.37
213.68	60.65
213.9	28.96
214.12	30.57
214.339	46.31
214.559	65.44
214.779	22.58
214.998	54.89
215.218	66.63
215.438	63.96
215.657	43.56
215.877	53.33
216.096	40.22
216.316	47.78
216.535	40.11
216.755	3.45
216.974	14.73
217.194	49.05
217.413	46.5
217.633	54.18
217.852	74.6
218.072	76.28
218.291	52.89
218.511	31.7
218.73	49.35
218.95	45.73
219.169	35.76
219.389	42.01
219.608	52.92
219.827	17.02
220.047	4.87
220.266	24.8
220.485	25.33
220.705	3.34
220.924	16.2
221.143	11.35
221.363	24.97
221.582	14.89
221.801	33.72
222.021	16.64
222.24	25.79
222.459	-49.73
222.678	-17.5
222.897	-17.54
223.117	-47.53
223.336	-232.37
223.555	-67.63
223.774	-89.82
223.993	-61.95
224.213	-52.5
224.432	4.8
224.651	11.65
224.87	17.43
225.089	8.77
225.308	18.8
225.527	-8.94
225.746	-30.68
225.965	-41.96
226.184	-69.05
226.404	-15.77
226.623	22.21
226.842	34.49
227.061	10.53
227.28	32.35
227.499	35.95
227.718	26.99
227.936	29.86
228.155	60.73
228.374	53.14
228.593	30.72
228.812	14.03
229.031	-10.17
229.25	2.74
229.469	-37.14
229.688	-34.68
229.907	-96.26
230.125	-69.47
230.344	-67.76
230.563	-40.1
230.782	-42.36
231.001	11.16
231.22	11.5
231.438	17.67
231.657	16.65
231.876	19.9
232.095	6.03
232.313	-7.53
232.532	-34.98
232.751	2.15
232.969	2.88
233.188	-0.15
233.407	-0.14
233.625	34.86
233.844	10.92
234.063	27.38
234.281	24.32
234.5	38.53
234.719	32.67
234.937	49.25
235.156	5.92
235.374	10.51
235.593	5.79
235.811	2.67
236.03	-2.38
236.249	56.57
236.467	56.31
236.686	54.8
236.904	52.55
237.123	54.54
237.341	30.22
237.559	25.26
237.778	33.53
237.996	25.31
238.215	19.04
238.433	7.84
238.652	18.16
238.87	20.69
239.088	32.84
239.307	31.62
239.525	36.99
239.743	48.59
239.962	57.92
240.18	57.97
240.398	89.18
240.617	99.18
240.835	63.95
241.053	39.57
241.271	10.59
241.49	0.15
241.708	29.01
241.926	34.05
242.144	47.87
242.363	57.92
242.581	47.74
242.799	33.28
243.017	34.76
243.235	62.19
243.453	64.48
243.672	63.49
243.89	63.76
244.108	64.46
244.326	23.05
244.544	13.07
244.762	20.04
244.98	5.01
245.198	20.31
245.416	49.24
245.634	46.82
245.852	28.14
246.07	21.83
246.288	-15.85
246.506	-6.2
246.724	-5.55
246.942	-5.67
247.16	0.66
247.378	1.54
247.596	0.1
247.814	4.75
248.032	24.11
248.25	17.45
248.468	17.01
248.685	11.72
248.903	-4.6
249.121	-8.82
249.339	8.21
249.557	36.05
249.775	34.1
249.992	57.51
250.21	42.46
250.428	40.15
250.646	21.07
250.863	27.5
251.081	14.88
251.299	6.26
251.517	18.33
251.734	-8.57
251.952	-11.45
252.17	-16.04
252.387	-36.74
252.605	-63.75
252.823	14.81
253.04	-1.98
253.258	45.01
253.475	69.41
253.693	58.88
253.911	50.54
254.128	45.08
254.346	33.8
254.563	26.72
254.781	46.63
254.998	51.47
255.216	44.01
255.433	55.66
255.651	20.41
255.868	-45.81
256.086	-67.7
256.303	-45.43
256.521	-45.72
256.738	-38.64
256.956	22.19
257.173	31.57
257.39	37.62
257.608	46.9
257.825	43.45
258.043	-16.76
258.26	3.3
258.477	-10.89
258.695	-17.5
258.912	-8.22
259.129	38.52
259.346	41.87
259.564	56.46
259.781	58.41
259.998	51.08
260.216	34.48
260.433	25.18
260.65	14.35
260.867	7.48
261.084	7.71
261.302	6.23
261.519	9.58
261.736	35.86
261.953	42.4
262.17	33.88
262.387	26.99
262.604	25.56
262.822	28.87
263.039	25.67
263.256	32.75
263.473	39.5
263.69	53.13
263.907	37.27
264.124	15.33
264.341	-17.58
264.558	-62.06
264.775	-56.02
264.992	-38.99
265.209	-35.11
265.426	-17.62
265.643	8.57
265.86	12.41
266.077	-0.99
266.294	-4.79
266.51	7.69
266.727	7
266.944	22.13
267.161	34.06
267.378	38.25
267.595	29.46
267.812	38.87
268.028	22.83
268.245	21.07
268.462	50.38
268.679	74
268.896	55.93
269.112	57.1
269.329	57.78
269.546	22.87
269.763	15.27
269.979	25.48
270.196	26.8
270.413	20.22
270.629	18.49
270.846	20.89
271.063	14.77
271.279	22.13
271.496	39.58
271.712	25.2
271.929	24.73
272.146	36.83
272.362	32.8
272.579	16.11
272.795	22.62
273.012	9.72
273.228	27.11
273.445	34.02
273.661	32.54
273.878	36.48
274.094	44.4
274.311	31.39
274.527	2.63
274.744	27.77
274.96	29.2
275.177	-12.44
275.393	-0.42
275.609	18.35
275.826	17.7
276.042	19.35
276.259	33.02
276.475	22.28
276.691	16.45
276.908	16.45
277.124	33.81
277.34	28.25
277.557	24.8
277.773	19.48
277.989	20.53
278.205	3.78
278.422	24.32
278.638	22.94
278.854	20.72
279.07	20.16
279.286	29.89
279.503	19.7
279.719	29.11
279.935	35.22
280.151	25.55
280.367	6.08
280.583	-4.64
280.799	5.66
281.016	16.14
281.232	12.52
281.448	33
281.664	20.2
281.88	24.75
282.096	23.65
282.312	-5.34
282.528	-20.96
282.744	2.31
282.96	2.77
283.176	6.75
283.392	35.95
283.608	55.44
283.824	47.66
284.04	32.97
284.256	26.03
284.471	21.83
284.687	17.92
284.903	13.38
285.119	-10.33
285.335	-9.54
285.551	-6.99
285.767	0.84
285.982	6.94
286.198	33.45
286.414	22.27
286.63	19.33
286.846	2.83
287.061	10.36
287.277	-22.87
287.493	-10.82
287.709	-38.87
287.924	-12.64
288.14	-17.36
288.356	-18.25
288.571	-19.74
288.787	0.88
289.003	-17.62
289.218	-11.19
289.434	23.73
289.65	38.86
289.865	33.62
290.081	25.58
290.296	21.4
290.512	35.17
290.727	46.04
290.943	49.54
291.159	58.39
291.374	50.65
291.59	45.47
291.805	37.32
292.021	46.25
292.236	43.71
292.451	38.47
292.667	39.48
292.882	27.67
293.098	5.9
293.313	-3.55
293.529	16.79
293.744	4.39
293.959	33.03
294.175	36.45
294.39	36.14
294.605	36.28
294.821	34.47
295.036	33.91
295.251	35.94
295.467	47.25
295.682	39.55
295.897	35.71
296.112	36.87
296.328	34.28
296.543	25.33
296.758	5.25
296.973	3.24
297.188	-18.39
297.404	-12.86
297.619	-3.07
297.834	11.8
298.049	11.84
298.264	31.81
298.479	26.42
298.694	3.23
298.909	2.1
299.125	32.04
299.34	20.85
299.555	39.98
299.77	45.86
299.985	57.98
300.2	48.45
300.415	65.57
300.63	43.47
300.845	56.87
301.06	50.91
301.275	13.34
301.49	23.67
301.704	29.19
301.919	27.89
302.134	17.99
302.349	29.8
302.564	34.4
302.779	23.82
302.994	3.43
303.209	-3.41
303.423	-21.98
303.638	-17.32
303.853	-1.33
304.068	19.93
304.283	35.7
304.497	53.33
304.712	57.96
304.927	50.04
305.142	48.82
305.356	43.41
305.571	32.59
305.786	38.67
306	45.78
306.215	27.82
306.43	41.4
306.644	32.06
306.859	7.43
307.074	9.49
307.288	34.67
307.503	11.38
307.717	16.08
307.932	8.35
308.147	7.06
308.361	-18.62
308.576	-9.07
308.79	18.88
309.005	42.33
309.219	25.4
309.434	26.67
309.648	32.78
309.863	1.45
310.077	-38.72
310.292	-18.76
310.506	-15.54
310.72	-1.88
310.935	-1.62
311.149	-2.81
311.364	-31.88
311.578	-45.12
311.792	-32.09
312.007	-48.21
312.221	-18.28
312.435	-6.46
312.649	30.13
312.864	-7.47
313.078	9.44
313.292	-8.39
313.507	6.1
313.721	-8.53
313.935	-10.94
314.149	-25.71
314.363	-2.56
314.578	-10.58
314.792	-5.37
315.006	7.27
315.22	18.27
315.434	7.54
315.648	-14.96
315.862	8.45
316.077	8.2
316.291	12.55
316.505	11.96
316.719	29.27
316.933	47.11
317.147	51.98
317.361	46.22
317.575	61.57
317.789	61.03
318.003	39.59
318.217	21.92
318.431	34.62
318.645	14.53
318.859	14.54
319.073	-10.91
319.287	20.25
319.5	27.6
319.714	40.04
319.928	44.44
320.142	58.29
320.356	37
320.57	41.81
320.784	32.63
320.997	7.64
321.211	22.61
321.425	31.28
321.639	15.57
321.853	-22.79
322.066	-14.74
322.28	-7.64
322.494	-26.38
322.707	-35.32
322.921	19.75
323.135	39.29
323.349	21.39
323.562	36.77
323.776	54.42
323.989	46.61
324.203	41.26
324.417	37.52
324.63	47.63
324.844	42.47
325.057	33.57
325.271	10.99
325.485	21.93
325.698	-18.49
325.912	-32.71
326.125	6.68
326.339	29.08
326.552	15.06
326.766	29.84
326.979	32.96
327.193	15.65
327.406	9.91
327.619	13.96
327.833	-18.34
328.046	-17.33
328.26	-6.92
328.473	-4.87
328.686	15.85
328.9	21.4
329.113	20.76
329.326	24.62
329.54	22.85
329.753	28.74
329.966	49.2
330.179	53.47
330.393	49.74
330.606	53.34
330.819	39.58
331.032	30.57
331.246	23.06
331.459	5.98
331.672	4.47
331.885	5.02
332.098	20.35
332.311	40.02
332.525	57.9
332.738	43.38
332.951	47.37
333.164	33.91
333.377	35.59
333.59	11.06
333.803	20.29
334.016	5.28
334.229	10.23
334.442	-40.98
334.655	-19.39
334.868	-41.29
335.081	-39.09
335.294	-39.63
335.507	16.16
335.72	27.76
335.933	47.31
336.146	53.7
336.359	48.08
336.572	36.95
336.785	21.97
336.997	16.33
337.21	-7.4
337.423	11.97
337.636	33.33
337.849	34.64
338.062	26.4
338.274	19.66
338.487	39.72
338.7	21.09
338.913	35.33
339.125	43.31
339.338	47.36
339.551	24.85
339.763	27.46
339.976	13.06
340.189	16.76
340.402	21.13
340.614	27.18
340.827	31.62
341.039	30.43
341.252	31.25
341.465	40.44
341.677	41.53
341.89	45.82
342.102	37.37
342.315	25.15
342.527	20.1
342.74	32.3
342.952	25.53
343.165	37.42
343.377	13.1
343.59	21
343.802	0.1
344.015	-44.9
344.227	-60.58
344.44	-12.94
344.652	-14.43
344.864	-38.2
345.077	-7.03
345.289	-18.76
345.502	-27.82
345.714	-41.85
345.926	-9.99
346.139	-7.04
346.351	4.55
346.563	3.82
346.775	27.08
346.988	18.08
347.2	20.51
347.412	27.36
347.624	22.25
347.837	-3.96
348.049	15.04
348.261	-3.16
348.473	-2.36
348.685	13.08
348.897	32.26
349.11	18.42
349.322	19.26
349.534	14.83
349.746	-3.44
349.958	-11.36
350.17	-17.52
350.382	-14.33
350.594	-16.49
350.806	-2.35
351.018	8.77
351.23	10.88
351.442	29.13
351.654	17.8
351.866	11.89
352.078	6.92
352.29	7
352.502	6.84
352.714	16.29
352.926	17.07
353.138	11.23
353.35	10.56
353.561	17.75
353.773	27.71
353.985	30.2
354.197	30.03
354.409	44.44
354.621	39.63
354.832	42.46
355.044	51.77
355.256	57.64
355.468	54.78
355.679	58.17
355.891	62.16
356.103	64.65
356.314	57.04
356.526	53.97
356.738	56.56
356.949	56.58
357.161	37.91
357.373	45.12
357.584	43.64
357.796	39.04
358.008	6.41
358.219	13.63
358.431	9.51
358.642	9.52
358.854	-16.8
359.065	16.98
359.277	41.9
359.488	41.28
359.7	40.54
359.911	38.19
360.123	36.07
360.334	21.62
360.546	34.07
360.757	40.26
360.969	43.07
361.18	33.74
361.391	41.77
361.603	41.94
361.814	28.25
362.025	46.26
362.237	43.46
362.448	31.82
362.659	22.47
362.871	14.74
363.082	-0.32
363.293	1.27
363.504	-5.37
363.716	16.72
363.927	30.93
364.138	33.04
364.349	40.79
364.56	53.27
364.772	56.12
364.983	38.61
365.194	44.88
365.405	23.5
365.616	9.01
365.827	1.33
366.038	18.37
366.25	2.68
366.461	22.67
366.672	9.69
366.883	-2.19
367.094	-10.95
367.305	10.41
367.516	-8.5
367.727	9.63
367.938	14.32
368.149	21.58
368.36	5.37
368.571	15.05
368.781	31.49
368.992	30.71
369.203	42.74
369.414	44.56
369.625	33.33
369.836	29.58
370.047	38.87
370.258	17.4
370.468	24.64
370.679	45.49
370.89	44.34
371.101	33.75
371.312	47.28
371.522	37.33
371.733	37.86
371.944	31.56
372.155	36
372.365	26.39
372.576	46.18
372.787	36.55
372.997	42.11
373.208	43.24
373.419	32.16
373.629	17.71
373.84	24.02
374.05	17.83
374.261	1.61
374.472	18.46
374.682	17.54
374.893	13.6
375.103	-6.35
375.314	11.11
375.524	14.24
375.735	10.5
375.945	12.48
376.156	29.15
376.366	20.84
376.577	18.51
376.787	27.7
376.997	30.02
377.208	21.99
377.418	30.09
377.629	26.14
377.839	17.28
378.049	11.22
378.26	5.3
378.47	7.67
378.68	9.01
378.89	18.75
379.101	19.37
379.311	21.89
379.521	25.79
379.732	37.52
379.942	35.2
380.152	41.03
380.362	44.85
380.572	45.23
380.783	37.75
380.993	30.57
381.203	27.37
381.413	16.05
381.623	4.34
381.833	2.86
382.043	15.57
382.253	16.21
382.463	26.84
382.674	33.03
382.884	34.22
383.094	26.93
383.304	26.83
383.514	16.13
383.724	5.5
383.934	10.77
384.144	14.58
384.353	10.05
384.563	9.02
384.773	7.66
384.983	2.54
385.193	-3.06
385.403	6.08
385.613	13.64
385.823	22.51
386.033	21.88
386.242	27.15
386.452	22.74
386.662	21.39
386.872	14.04
387.082	10.19
387.291	7.1
387.501	4.3
387.711	0.24
387.921	4.04
388.13	7.98
388.34	4.6
388.55	8.83
388.759	10.57
388.969	10.62
389.179	10.39
389.388	10.99
389.598	10.29
389.807	10.64
390.017	11.04
390.227	9.66
390.436	10.22
390.646	9.67
390.855	8.01
391.065	6.86
391.274	8.12
391.484	9.9
391.693	8.09
391.903	7.69
392.112	7.99
392.322	6.14
392.531	4.6
392.74	5.31
392.95	7.49
393.159	6.11
393.369	7.03
393.578	6.9
393.787	7.77
393.997	7.8
394.206	9.58
394.415	9.25
394.625	9.82
394.834	9.58
395.043	8.92
395.252	8.51
395.462	8.2
395.671	6.88
395.88	6.93
396.089	6.44
396.298	6.47
396.508	7.28
396.717	7.92
396.926	7.37
397.135	7.03
397.344	6.54
397.553	5.56
397.762	4.93
397.971	5.02
398.181	5.36
398.39	5.81
398.599	6.14
398.808	6.49
399.017	6.01
399.226	5.7
399.435	5.07
399.644	4.95
399.853	5.24
400.062	5.52
400.27	5.54
400.479	5.98
400.688	6.07
400.897	5.91
401.106	5.57
401.315	5.97
401.524	6.1
401.733	5.8
401.941	5.37
402.15	5.56
402.359	5.52
402.568	4.91
402.777	4.69
402.985	4.99
403.194	5.1
403.403	4.85
403.612	5.17
403.82	5.55
404.029	5.5
404.238	5.6
404.446	5.6
404.655	5.5
404.864	5.29
405.072	5.31
405.281	5.12
405.489	5.1
405.698	5.15
405.906	5.26
406.115	5.06
406.324	5.14
406.532	5.09
406.741	5.05
406.949	5.07
407.158	5.32
407.366	5.31
407.574	5.3
407.783	5.27
407.991	5.24
408.2	4.99
408.408	4.92
408.617	5.03
408.825	5.18
409.033	5.27
409.242	5.25
409.45	5.14
409.658	5.15
409.867	4.92
410.075	4.79
410.283	4.84
410.491	4.94
410.7	4.88
410.908	4.78
411.116	4.58
411.324	4.66
411.533	4.55
411.741	4.49
411.949	4.52
412.157	4.65
412.365	4.53
412.573	4.61
412.781	4.63
412.99	4.79
413.198	4.77
413.406	4.75
413.614	4.64
413.822	4.72
414.03	4.64
414.238	4.73
414.446	4.76
414.654	4.87
414.862	4.77
415.07	4.72
415.278	4.54
415.486	4.51
415.694	4.5
415.902	4.44
416.109	4.44
416.317	4.54
416.525	4.55
416.733	4.56
416.941	4.57
417.149	4.46
417.357	4.43
417.564	4.42
417.772	4.23
417.98	4.28
418.188	4.39
418.395	4.34
418.603	4.25
418.811	4.48
419.019	4.35
419.226	4.32
419.434	4.24
419.642	4.36
419.849	4.2
420.057	4.25
420.265	4.21
420.472	4.38
420.68	4.21
420.887	4.37
421.095	4.23
421.302	4.38
421.51	4.14
421.717	4.25
421.925	4.1
422.132	4.17
422.34	4.07
422.547	4.08
422.755	4.02
422.962	4.05
423.17	4.2
423.377	4.29
423.585	4.26
423.792	4.29
423.999	4.15
424.207	4.06
424.414	3.74
424.621	3.73
424.829	3.81
425.036	3.88
425.243	3.79
425.451	3.92
425.658	4.03
425.865	3.96
426.072	3.96
426.28	3.92
426.487	4.05
426.694	3.94
426.901	3.94
427.108	4.1
427.315	4.39
427.523	4.25
427.73	4.37
427.937	4.61
428.144	4.49
428.351	4.33
428.558	4.15
428.765	4.13
428.972	4.02
429.179	3.86
429.386	3.81
429.593	4.08
429.8	4.31
430.007	4.21
430.214	4.4
430.421	4.58
430.628	4.58
430.835	4.49
431.042	4.39
431.249	4.22
431.456	4.27
431.662	4.26
431.869	4.27
432.076	4.22
432.283	4.31
432.49	4.22
432.697	4.21
432.903	4.16
433.11	4.31
433.317	4.36
433.524	4.31
433.73	4.49
433.937	4.41
434.144	4.45
434.35	4.4
434.557	4.59
434.764	4.45
434.97	4.63
435.177	4.63
435.384	4.77
435.59	4.63
435.797	4.54
436.003	4.45
436.21	4.52
436.416	4.48
436.623	4.47
436.829	4.49
437.036	4.52
437.242	4.47
437.449	4.52
437.655	4.58
437.862	4.67
438.068	4.72
438.275	4.78
438.481	4.62
438.687	4.72
438.894	4.8
439.1	4.96
439.307	4.71
439.513	4.77
439.719	4.66
439.926	4.58
440.132	4.57
440.338	4.83
440.544	4.8
440.751	4.89
440.957	4.89
441.163	4.86
441.369	4.86
441.575	5.02
441.782	5.04
441.988	5.27
442.194	5.22
442.4	5.22
442.606	5.13
442.812	5.13
443.018	4.89
443.224	4.82
443.431	4.85
443.637	4.99
443.843	5
444.049	5.02
444.255	5.24
444.461	5.3
444.667	5.32
444.873	5.26
445.079	5.29
445.284	5.2
445.49	5.23
445.696	5.21
445.902	5.27
446.108	5.41
446.314	5.37
446.52	5.4
446.726	5.39
446.931	5.41
447.137	5.3
447.343	5.45
447.549	5.46
447.755	5.48
447.96	5.44
448.166	5.47
448.372	5.43
448.578	5.4
448.783	5.45
448.989	5.47
449.195	5.43
449.4	5.35
449.606	5.42
449.812	5.44
450.017	5.45
450.223	5.65
450.428	5.84
450.634	5.85
450.84	5.93
451.045	6.12
451.251	6.1
451.456	6
451.662	5.77
451.867	5.65
452.073	5.64
452.278	5.55
452.483	5.51
452.689	5.71
452.894	5.71
453.1	5.67
453.305	5.7
453.51	5.73
453.716	5.79
453.921	5.82
454.127	5.73
454.332	5.88
454.537	5.94
454.742	5.95
454.948	5.93
455.153	5.96
455.358	5.96
455.563	5.75
455.769	5.75
455.974	5.84
456.179	5.89
456.384	5.79
456.589	6.05
456.795	6.04
457	6
457.205	5.94
457.41	5.93
457.615	5.94
457.82	5.94
458.025	6.01
458.23	6.16
458.435	6.2
458.64	6.15
458.845	6.14
459.05	6.22
459.255	6.18
459.46	6.14
459.665	6.11
459.87	6.08
460.075	5.99
460.28	5.99
460.485	6.05
460.69	6.09
460.895	6.25
461.099	6.29
461.304	6.17
461.509	6.13
461.714	6.27
461.919	6.21
462.123	6.25
462.328	6.34
462.533	6.54
462.738	6.48
462.942	6.49
463.147	6.46
463.352	6.49
463.556	6.5
463.761	6.45
463.966	6.43
464.17	6.38
464.375	6.42
464.58	6.43
464.784	6.45
464.989	6.53
465.193	6.6
465.398	6.6
465.602	6.47
465.807	6.57
466.011	6.61
466.216	6.53
466.42	6.57
466.625	6.68
466.829	6.65
467.034	6.6
467.238	6.6
467.443	6.63
467.647	6.66
