Data from Ofav_PP_Phys_4JQ12_Reflection_1.txt Node
Date: Tue Aug 03 18:17:21 EDT 2021
User: Adam
Spectrometer: FLMT01687
Trigger mode: 0
Integration Time (sec): 8.750000E-1
Scans to average: 2
Electric dark correction enabled: true
Nonlinearity correction enabled: false
Boxcar width: 2
XAxis mode: Wavelengths
Number of Pixels in Spectrum: 3648
>>>>>Begin Spectral Data<<<<<
179.494	184.38
179.716	189.79
179.937	243.21
180.158	380.58
180.38	680.7
180.601	14.81
180.823	177.04
181.044	55.72
181.265	-12.38
181.486	111.44
181.708	74.37
181.929	191.48
182.15	102.37
182.372	193.25
182.593	191.56
182.814	159.71
183.035	375.89
183.257	803.92
183.478	-26.93
183.699	-480.32
183.92	-119.73
184.141	-132.71
184.363	-31.02
184.584	-107.65
184.805	1.28
185.026	-32.62
185.247	-8.38
185.468	3.17
185.689	-11.97
185.91	-30.34
186.132	-11.13
186.353	1.57
186.574	-51.75
186.795	-4.26
187.016	15.2
187.237	26.9
187.458	17.57
187.679	38.68
187.9	33.43
188.121	31.23
188.342	-2.69
188.563	17.11
188.784	23.78
189.005	-13.18
189.226	-55.98
189.447	-15.36
189.667	-33.73
189.888	-32.38
190.109	32.36
190.33	67.42
190.551	73.19
190.772	93.88
190.993	57.03
191.214	46.55
191.434	48.39
191.655	15.6
191.876	15.38
192.097	27.13
192.318	31.28
192.538	31.29
192.759	41.28
192.98	40.06
193.201	32.24
193.421	28.09
193.642	8.84
193.863	-4.93
194.083	-3.49
194.304	-19.18
194.525	-57
194.745	2.85
194.966	49.8
195.187	85.33
195.407	110.75
195.628	100.32
195.848	77.27
196.069	58.7
196.29	11.09
196.51	-24.51
196.731	28.17
196.951	30.06
197.172	41.37
197.392	63.5
197.613	75.69
197.833	48.75
198.054	69.97
198.274	50.88
198.495	64.91
198.715	65.47
198.936	83.91
199.156	68.7
199.377	67.57
199.597	39.14
199.817	58.45
200.038	7.46
200.258	9.54
200.479	-37.99
200.699	-43.26
200.919	-91.88
201.14	14.1
201.36	17.99
201.58	29.48
201.801	20.26
202.021	29.36
202.241	21.14
202.461	31.04
202.682	46
202.902	52.45
203.122	56.7
203.342	61.25
203.563	16.63
203.783	-3
204.003	38.46
204.223	48.05
204.443	17.39
204.663	27.61
204.884	38.37
205.104	21.09
205.324	-28.04
205.544	11.93
205.764	-2.43
205.984	-57.25
206.204	-55.7
206.424	-72.57
206.644	-13.86
206.864	-24.68
207.084	10.18
207.304	-11.52
207.525	31.61
207.745	18.19
207.964	14.04
208.184	52.64
208.404	54.55
208.624	34.81
208.844	12.7
209.064	41.39
209.284	30.6
209.504	-0.53
209.724	-21.9
209.944	-26.31
210.164	-81.79
210.384	-82.86
210.604	-55.12
210.823	-11.07
211.043	51.88
211.263	61.67
211.483	44.48
211.703	71.09
211.922	45.37
212.142	26.67
212.362	5.96
212.582	18.6
212.801	-20.63
213.021	-4.64
213.241	-20.84
213.461	31.88
213.68	48.48
213.9	59.37
214.12	46.11
214.339	65.81
214.559	60.14
214.779	66.26
214.998	58.54
215.218	93.78
215.438	75.55
215.657	85
215.877	60.67
216.096	45.27
216.316	32.54
216.535	21.25
216.755	-34.97
216.974	-18.71
217.194	30.87
217.413	29.47
217.633	42.24
217.852	69.55
218.072	84.15
218.291	59.03
218.511	46.89
218.73	64.86
218.95	67.24
219.169	82.97
219.389	74.73
219.608	83.92
219.827	62.77
220.047	52.19
220.266	25.52
220.485	46.93
220.705	47.22
220.924	52.15
221.143	32.72
221.363	33.99
221.582	9.38
221.801	-14.94
222.021	-8.61
222.24	-4.91
222.459	-68.34
222.678	-34.52
222.897	-15.09
223.117	-50.56
223.336	-180.34
223.555	-2.77
223.774	12.12
223.993	-26.14
224.213	-34.07
224.432	1.01
224.651	13.99
224.87	19.82
225.089	12.32
225.308	8.3
225.527	-9.87
225.746	-46.88
225.965	-34.5
226.184	-44.32
226.404	-1.54
226.623	38.67
226.842	38.88
227.061	17.95
227.28	40.68
227.499	65.59
227.718	33.37
227.936	38.22
228.155	42.4
228.374	40.42
228.593	30.75
228.812	31.83
229.031	25.4
229.25	46.64
229.469	13.59
229.688	-54.35
229.907	-86.81
230.125	-80.58
230.344	-75.96
230.563	-52.9
230.782	-36.49
231.001	12.21
231.22	2.49
231.438	3.88
231.657	13.57
231.876	27.02
232.095	18.32
232.313	-5.16
232.532	-35.21
232.751	1.94
232.969	9.59
233.188	-16.3
233.407	18.22
233.625	42.39
233.844	13.93
234.063	11.98
234.281	18.19
234.5	33.22
234.719	30.4
234.937	16.28
235.156	-11.69
235.374	4.69
235.593	-0.31
235.811	5.28
236.03	26.58
236.249	57.26
236.467	58.33
236.686	57.88
236.904	59.3
237.123	65.58
237.341	77.12
237.559	80.23
237.778	71.66
237.996	56.19
238.215	47.6
238.433	18.54
238.652	2.07
238.87	4.1
239.088	11.74
239.307	15.25
239.525	23.58
239.743	40.04
239.962	43.92
240.18	63.51
240.398	76.57
240.617	95.91
240.835	56.85
241.053	44.29
241.271	-2.27
241.49	-31.96
241.708	-14.66
241.926	8.79
242.144	25.25
242.363	50.68
242.581	63.82
242.799	43.07
243.017	38.46
243.235	54.55
243.453	55.43
243.672	50.26
243.89	70.3
244.108	70.26
244.326	35.47
244.544	5.53
244.762	18.85
244.98	-8.04
245.198	-13.47
245.416	26.64
245.634	42.77
245.852	30.43
246.07	25.7
246.288	29.64
246.506	17
246.724	2.19
246.942	11.26
247.16	21.76
247.378	14.67
247.596	28.3
247.814	28.45
248.032	35.21
248.25	29.25
248.468	28.39
248.685	31.66
248.903	23.05
249.121	4.64
249.339	17.47
249.557	22.37
249.775	-2.6
249.992	31.85
250.21	33.63
250.428	20.99
250.646	2.48
250.863	19.5
251.081	0.41
251.299	-17.4
251.517	6.36
251.734	17.81
251.952	12.88
252.17	16.39
252.387	7.73
252.605	45.09
252.823	49.18
253.04	-8.06
253.258	22.48
253.475	51.14
253.693	41.3
253.911	55.17
254.128	69.65
254.346	55.44
254.563	51.91
254.781	53.93
254.998	44.4
255.216	35.99
255.433	58.63
255.651	44.91
255.868	12.82
256.086	-34.12
256.303	4.89
256.521	-1.84
256.738	-11.38
256.956	25.88
257.173	57.35
257.39	42.32
257.608	29.63
257.825	1.73
258.043	-54.63
258.26	-13.02
258.477	-1.42
258.695	1.54
258.912	24.05
259.129	45.53
259.346	53.64
259.564	56.69
259.781	69.6
259.998	64.9
260.216	51.13
260.433	34.54
260.65	2.15
260.867	-9.55
261.084	-6.78
261.302	-15.98
261.519	-0.53
261.736	32.5
261.953	50.61
262.17	28.42
262.387	42.03
262.604	33.12
262.822	39.9
263.039	26.23
263.256	34.21
263.473	38.78
263.69	55.82
263.907	34.69
264.124	12.58
264.341	-2.99
264.558	-52.36
264.775	-39.67
264.992	-25.64
265.209	-29.74
265.426	-29.95
265.643	-9.41
265.86	-21.96
266.077	-26.81
266.294	-5.84
266.51	8.46
266.727	24.96
266.944	32.12
267.161	43.34
267.378	35.04
267.595	32.64
267.812	33.8
268.028	27.57
268.245	11.47
268.462	40.34
268.679	52.11
268.896	17.55
269.112	33.84
269.329	30.22
269.546	-51.92
269.763	-50.71
269.979	-14.77
270.196	-13.9
270.413	12
270.629	20.44
270.846	40.97
271.063	43.45
271.279	47.23
271.496	57.76
271.712	48
271.929	25.74
272.146	45.86
272.362	40.97
272.579	13.07
272.795	10.84
273.012	13.53
273.228	2.73
273.445	2.95
273.661	16
273.878	34.96
274.094	22.19
274.311	15.87
274.527	-9.98
274.744	-1.9
274.96	-28.3
275.177	-40.91
275.393	-32.36
275.609	-16.36
275.826	-23.53
276.042	-11.23
276.259	6.98
276.475	-9.79
276.691	-8.75
276.908	-5.92
277.124	16.44
277.34	17.7
277.557	14.55
277.773	15.43
277.989	22.03
278.205	8.52
278.422	15.59
278.638	21.99
278.854	26.62
279.07	19.21
279.286	35.35
279.503	33.54
279.719	37.08
279.935	34.95
280.151	33.31
280.367	4.16
280.583	-32.69
280.799	-11.41
281.016	-17.62
281.232	-19.17
281.448	6.84
281.664	20.24
281.88	14.16
282.096	19.5
282.312	19.41
282.528	9.56
282.744	18.09
282.96	11.54
283.176	24.06
283.392	20.12
283.608	20.15
283.824	7.37
284.04	10.45
284.256	2.78
284.471	3.42
284.687	3.76
284.903	10.69
285.119	-8.38
285.335	5.75
285.551	27.3
285.767	39.9
285.982	45.53
286.198	61.48
286.414	24.39
286.63	7.14
286.846	-5.87
287.061	-7.94
287.277	-24.38
287.493	3.57
287.709	-20.29
287.924	3.75
288.14	-3.93
288.356	-43.9
288.571	-20.08
288.787	6.52
289.003	6.26
289.218	4.35
289.434	55.46
289.65	60.42
289.865	38.11
290.081	5.25
290.296	10.03
290.512	10.61
290.727	-29.45
290.943	-10.71
291.159	24.04
291.374	18.42
291.59	22.04
291.805	32.13
292.021	53.21
292.236	39.72
292.451	34.52
292.667	36.04
292.882	24.35
293.098	-5.87
293.313	-5.13
293.529	8.38
293.744	2.53
293.959	31.05
294.175	34.47
294.39	25.95
294.605	14.35
294.821	7.49
295.036	-0.92
295.251	1.23
295.467	17.58
295.682	42.99
295.897	36.68
296.112	32.75
296.328	30.86
296.543	44.15
296.758	34.25
296.973	36.82
297.188	27.06
297.404	30.74
297.619	24.51
297.834	27.22
298.049	30.64
298.264	50.14
298.479	30.1
298.694	12.85
298.909	16.59
299.125	13.57
299.34	-11.18
299.555	12.95
299.77	12.73
299.985	33.95
300.2	48.64
300.415	60.72
300.63	30.34
300.845	43.26
301.06	11.29
301.275	-20.19
301.49	20.37
301.704	32.14
301.919	45.22
302.134	53.84
302.349	43.73
302.564	41.07
302.779	34.67
302.994	11.49
303.209	4
303.423	0.11
303.638	-3.41
303.853	9.16
304.068	32.53
304.283	48.58
304.497	59.39
304.712	64.41
304.927	63.79
305.142	59.66
305.356	49.11
305.571	47.45
305.786	51.26
306	56.3
306.215	45.64
306.43	52.71
306.644	60.06
306.859	48.86
307.074	52.88
307.288	54.9
307.503	47.2
307.717	35.4
307.932	32.27
308.147	40.11
308.361	28.38
308.576	39
308.79	49.76
309.005	40.12
309.219	12.85
309.434	11.54
309.648	5.32
309.863	-6.32
310.077	-0.09
310.292	12.85
310.506	13.44
310.72	20.71
310.935	-0.74
311.149	-5.97
311.364	-25.09
311.578	-51.52
311.792	-42.71
312.007	-34.35
312.221	-21.3
312.435	-23.8
312.649	22
312.864	-42.36
313.078	-35.75
313.292	-38.44
313.507	-16.23
313.721	-31.12
313.935	7.82
314.149	15.24
314.363	33.13
314.578	13.89
314.792	4.99
315.006	-7.02
315.22	3.47
315.434	-9.66
315.648	-34.77
315.862	23.24
316.077	27.73
316.291	37.96
316.505	26.87
316.719	32.53
316.933	26.26
317.147	6.1
317.361	-7.52
317.575	1.51
317.789	13.85
318.003	4.97
318.217	33.57
318.431	39.09
318.645	43.89
318.859	46.37
319.073	25.21
319.287	28.38
319.5	38.28
319.714	60.98
319.928	64.7
320.142	70.44
320.356	50.7
320.57	35.11
320.784	28.77
320.997	-1.68
321.211	10.92
321.425	25.94
321.639	30.3
321.853	-3.56
322.066	19.05
322.28	21.29
322.494	-22.66
322.707	-44.94
322.921	-17.86
323.135	-16.59
323.349	-18.9
323.562	14.54
323.776	43.81
323.989	41.84
324.203	49.68
324.417	47.86
324.63	61.54
324.844	56.53
325.057	55.31
325.271	32.06
325.485	35.61
325.698	-1.4
325.912	-22.25
326.125	-13.67
326.339	8.14
326.552	-9.36
326.766	8.17
326.979	14.04
327.193	5.42
327.406	11.34
327.619	40.3
327.833	17.25
328.046	20.03
328.26	32.86
328.473	3.8
328.686	7.83
328.9	21.43
329.113	31.79
329.326	37.25
329.54	56.24
329.753	57.05
329.966	61.85
330.179	38.2
330.393	41.98
330.606	37.48
330.819	26.54
331.032	10.66
331.246	22.58
331.459	14.84
331.672	-0.07
331.885	-2.28
332.098	22.17
332.311	46.21
332.525	48.72
332.738	48.36
332.951	46.48
333.164	35.54
333.377	25.57
333.59	12.15
333.803	12.5
334.016	20.23
334.229	7.27
334.442	-18.46
334.655	-22.2
334.868	-45.93
335.081	-51.65
335.294	-22.44
335.507	5.52
335.72	10.24
335.933	25.08
336.146	20.8
336.359	11.41
336.572	14.32
336.785	15.98
336.997	16.89
337.21	13.9
337.423	27.43
337.636	37.4
337.849	41.92
338.062	36.46
338.274	25.09
338.487	34.04
338.7	20.72
338.913	26.53
339.125	30.85
339.338	35.01
339.551	15.33
339.763	1.07
339.976	3.57
340.189	0.1
340.402	-13.24
340.614	0.79
340.827	21.37
341.039	19.29
341.252	31.28
341.465	61.02
341.677	42.93
341.89	42.57
342.102	39.11
342.315	29.1
342.527	18.33
342.74	43.66
342.952	30.86
343.165	41.11
343.377	23.42
343.59	23.75
343.802	-3.93
344.015	-20.25
344.227	-59.22
344.44	-12.14
344.652	-18.08
344.864	-33.61
345.077	-25.55
345.289	-31.94
345.502	-85.69
345.714	-79.39
345.926	-38.23
346.139	-33.63
346.351	-15.17
346.563	14.29
346.775	20.8
346.988	10.12
347.2	17.35
347.412	24.79
347.624	24.6
347.837	9.37
348.049	11.1
348.261	2.81
348.473	-3.15
348.685	-4.59
348.897	12.23
349.11	8.92
349.322	3.14
349.534	-17.95
349.746	-17.65
349.958	-13.77
350.17	-5.41
350.382	-16.15
350.594	7.83
350.806	8.65
351.018	-1.3
351.23	-6.31
351.442	17.79
351.654	-4
351.866	18.89
352.078	24.36
352.29	31.06
352.502	38.04
352.714	49.51
352.926	41.34
353.138	30.43
353.35	40.57
353.561	47.06
353.773	51.95
353.985	44.39
354.197	44.17
354.409	42.24
354.621	43.62
354.832	46.2
355.044	53.45
355.256	59.04
355.468	50.61
355.679	44.21
355.891	37.03
356.103	37.83
356.314	25.39
356.526	26.73
356.738	31.6
356.949	37.08
357.161	14.53
357.373	18.03
357.584	25.97
357.796	12.99
358.008	5.3
358.219	24.39
358.431	30.16
358.642	23.15
358.854	-3.19
359.065	0.11
359.277	12.66
359.488	13.62
359.7	23.73
359.911	30.41
360.123	34.92
360.334	45.18
360.546	49.39
360.757	57.45
360.969	52.91
361.18	46.56
361.391	46.51
361.603	42.23
361.814	20.18
362.025	35.91
362.237	37.95
362.448	19.75
362.659	12.05
362.871	16.85
363.082	0.35
363.293	-8.5
363.504	4.37
363.716	19.63
363.927	28.82
364.138	38.21
364.349	39.44
364.56	37.51
364.772	52.46
364.983	39.6
365.194	37.81
365.405	37.34
365.616	24.56
365.827	20.55
366.038	29
366.25	19.45
366.461	28.3
366.672	23.24
366.883	6.11
367.094	1.55
367.305	16.24
367.516	0.34
367.727	11.64
367.938	15.36
368.149	13.03
368.36	9.06
368.571	15.23
368.781	21.5
368.992	31.08
369.203	46.84
369.414	38.83
369.625	30.46
369.836	19.03
370.047	5.82
370.258	-7.52
370.468	4.74
370.679	33.45
370.89	49.99
371.101	42.4
371.312	38.81
371.522	33.94
371.733	21.82
371.944	17.1
372.155	19.32
372.365	26.54
372.576	34.28
372.787	37.83
372.997	32.06
373.208	40.71
373.419	27.52
373.629	31.82
373.84	32.63
374.05	36.43
374.261	23.85
374.472	36.56
374.682	13.23
374.893	8.98
375.103	-7.27
375.314	14.43
375.524	21.91
375.735	35.35
375.945	33.2
376.156	48.23
376.366	41
376.577	34.94
376.787	37.29
376.997	30.89
377.208	18.01
377.418	17.94
377.629	6.19
377.839	4.32
378.049	5.13
378.26	3.49
378.47	-3.61
378.68	8.57
378.89	8.65
379.101	15.72
379.311	28.82
379.521	41.3
379.732	42.21
379.942	38.91
380.152	42.56
380.362	33.87
380.572	33.06
380.783	32.75
380.993	36.98
381.203	31.48
381.413	21.06
381.623	12.69
381.833	10.99
382.043	14.95
382.253	17.86
382.463	22.08
382.674	27.52
382.884	22.98
383.094	12.56
383.304	5.73
383.514	4.22
383.724	-1.18
383.934	5.69
384.144	10.22
384.353	8.53
384.563	9.66
384.773	5.91
384.983	3.53
385.193	2.68
385.403	8.31
385.613	10.23
385.823	13.24
386.033	12.16
386.242	14.16
386.452	9.14
386.662	8.71
386.872	5.3
387.082	5.57
387.291	3.81
387.501	5.17
387.711	3.69
387.921	8.62
388.13	8.67
388.34	7.41
388.55	9.48
388.759	9.38
388.969	8.75
389.179	6.39
389.388	5.03
389.598	4.31
389.807	5.24
390.017	4.83
390.227	5.24
390.436	5.24
390.646	2.1
390.855	-0.57
391.065	-0.81
391.274	1.51
391.484	2.84
391.693	5.27
391.903	6.4
392.112	6.55
392.322	4.25
392.531	3.03
392.74	1.72
392.95	3.43
393.159	2.1
393.369	3.51
393.578	3.4
393.787	4.24
393.997	3.64
394.206	4.73
394.415	3.83
394.625	4.45
394.834	4.82
395.043	4.84
395.252	4.37
395.462	4.36
395.671	3.33
395.88	2.91
396.089	2.25
396.298	2.63
396.508	2.49
396.717	3.41
396.926	2.99
397.135	2.85
397.344	2.46
397.553	2.21
397.762	1.48
397.971	2.02
398.181	2.42
398.39	2.97
398.599	2.84
398.808	3.3
399.017	2.79
399.226	2.08
399.435	1.36
399.644	1.46
399.853	1.24
400.062	1.04
400.27	1.35
400.479	1.64
400.688	1.78
400.897	1.84
401.106	2.08
401.315	2.38
401.524	2.41
401.733	2.24
401.941	1.99
402.15	2
402.359	2.03
402.568	1.78
402.777	1.62
402.985	1.75
403.194	1.74
403.403	1.41
403.612	1.55
403.82	1.77
404.029	1.72
404.238	1.84
404.446	1.81
404.655	1.66
404.864	1.51
405.072	1.59
405.281	1.38
405.489	1.56
405.698	1.79
405.906	1.89
406.115	1.74
406.324	1.86
406.532	1.69
406.741	1.54
406.949	1.5
407.158	1.69
407.366	1.63
407.574	1.61
407.783	1.61
407.991	1.69
408.2	1.36
408.408	1.23
408.617	1.31
408.825	1.36
409.033	1.31
409.242	1.42
409.45	1.39
409.658	1.48
409.867	1.42
410.075	1.43
410.283	1.49
410.491	1.51
410.7	1.46
410.908	1.41
411.116	1.32
411.324	1.4
411.533	1.43
411.741	1.41
411.949	1.31
412.157	1.38
412.365	1.27
412.573	1.32
412.781	1.26
412.99	1.38
413.198	1.35
413.406	1.36
413.614	1.24
413.822	1.28
414.03	1.4
414.238	1.38
414.446	1.41
414.654	1.6
414.862	1.62
415.07	1.42
415.278	1.23
415.486	1.22
415.694	1.23
415.902	1.16
416.109	1.3
416.317	1.55
416.525	1.52
416.733	1.45
416.941	1.53
417.149	1.43
417.357	1.32
417.564	1.44
417.772	1.44
417.98	1.52
418.188	1.7
418.395	1.74
418.603	1.68
418.811	1.7
419.019	1.55
419.226	1.36
419.434	1.18
419.642	1.19
419.849	1.13
420.057	1.08
420.265	1.03
420.472	1.32
420.68	1.2
420.887	1.31
421.095	1.13
421.302	1.25
421.51	1.01
421.717	1.06
421.925	0.94
422.132	1.07
422.34	1.16
422.547	1.09
422.755	1.03
422.962	1.18
423.17	1.33
423.377	1.18
423.585	1.33
423.792	1.37
423.999	1.13
424.207	1.12
424.414	0.96
424.621	0.8
424.829	0.75
425.036	0.96
425.243	0.92
425.451	1.06
425.658	1.31
425.865	1.37
426.072	1.21
426.28	1.1
426.487	1.11
426.694	0.94
426.901	1.02
427.108	1.06
427.315	1.38
427.523	1.17
427.73	1.11
427.937	1.21
428.144	1.24
428.351	1.02
428.558	1.06
428.765	1.24
428.972	1.15
429.179	1.09
429.386	0.95
429.593	1.13
429.8	1.33
430.007	1.24
430.214	1.18
430.421	1.43
430.628	1.42
430.835	1.32
431.042	1.22
431.249	1.37
431.456	1.33
431.662	1.3
431.869	1.18
432.076	1.33
432.283	1.24
432.49	1.22
432.697	1.22
432.903	1.39
433.11	1.27
433.317	1.12
433.524	0.91
433.73	1.08
433.937	0.84
434.144	0.94
434.35	1.07
434.557	1.3
434.764	1.22
434.97	1.38
435.177	1.36
435.384	1.51
435.59	1.37
435.797	1.22
436.003	0.97
436.21	0.91
436.416	0.82
436.623	0.75
436.829	0.86
437.036	1.03
437.242	1.09
437.449	1.1
437.655	1.18
437.862	1.16
438.068	1.14
438.275	1.08
438.481	0.93
438.687	1.02
438.894	1.14
439.1	1.28
439.307	1.19
439.513	1.3
439.719	1.19
439.926	1.02
440.132	0.94
440.338	1.07
440.544	0.98
440.751	1.1
440.957	1.1
441.163	1.05
441.369	1.07
441.575	1.27
441.782	1.33
441.988	1.49
442.194	1.54
442.4	1.59
442.606	1.44
442.812	1.43
443.018	1.28
443.224	1.19
443.431	0.99
443.637	1.14
443.843	1.07
444.049	1.11
444.255	1.27
444.461	1.46
444.667	1.43
444.873	1.33
445.079	1.35
445.284	1.3
445.49	1.37
445.696	1.43
445.902	1.57
446.108	1.64
446.314	1.59
446.52	1.52
446.726	1.43
446.931	1.38
447.137	1.37
447.343	1.43
447.549	1.47
447.755	1.54
447.96	1.53
448.166	1.5
448.372	1.4
448.578	1.41
448.783	1.33
448.989	1.34
449.195	1.26
449.4	1.39
449.606	1.36
449.812	1.44
450.017	1.42
450.223	1.53
450.428	1.55
450.634	1.45
450.84	1.36
451.045	1.46
451.251	1.54
451.456	1.44
451.662	1.37
451.867	1.36
452.073	1.34
452.278	1.18
452.483	1.1
452.689	1.18
452.894	1.21
453.1	1.16
453.305	1.22
453.51	1.32
453.716	1.38
453.921	1.47
454.127	1.56
454.332	1.57
454.537	1.55
454.742	1.54
454.948	1.42
455.153	1.35
455.358	1.29
455.563	1.2
455.769	1.22
455.974	1.28
456.179	1.35
456.384	1.39
456.589	1.54
456.795	1.56
457	1.55
457.205	1.46
457.41	1.47
457.615	1.46
457.82	1.4
458.025	1.44
458.23	1.46
458.435	1.38
458.64	1.41
458.845	1.37
459.05	1.33
459.255	1.35
459.46	1.41
459.665	1.36
459.87	1.36
460.075	1.33
460.28	1.42
460.485	1.43
460.69	1.4
460.895	1.51
461.099	1.57
461.304	1.4
461.509	1.41
461.714	1.5
461.919	1.43
462.123	1.43
462.328	1.41
462.533	1.44
462.738	1.33
462.942	1.33
463.147	1.31
463.352	1.35
463.556	1.37
463.761	1.37
463.966	1.34
464.17	1.33
464.375	1.38
464.58	1.38
464.784	1.44
464.989	1.57
465.193	1.58
465.398	1.61
465.602	1.48
465.807	1.51
466.011	1.51
466.216	1.45
466.42	1.41
466.625	1.51
466.829	1.5
467.034	1.44
467.238	1.42
467.443	1.42
467.647	1.46
467.851	1.5
