Data from Ofav_PP_Phys_2JQ6_Reflection_3.txt Node
Date: Tue Aug 03 18:14:04 EDT 2021
User: Adam
Spectrometer: FLMT01687
Trigger mode: 0
Integration Time (sec): 8.750000E-1
Scans to average: 2
Electric dark correction enabled: true
Nonlinearity correction enabled: false
Boxcar width: 2
XAxis mode: Wavelengths
Number of Pixels in Spectrum: 3648
>>>>>Begin Spectral Data<<<<<
179.494	260.06
179.716	316.38
179.937	385.51
180.158	601.05
180.38	2049.12
180.601	143.47
180.823	81.68
181.044	36.7
181.265	-36.33
181.486	159.2
181.708	113.88
181.929	173.43
182.15	5.3
182.372	-14.35
182.593	145.99
182.814	212.45
183.035	-92.2
183.257	145.1
183.478	155.85
183.699	57.03
183.92	86.24
184.141	11.89
184.363	71.7
184.584	-48.51
184.805	32.34
185.026	1.03
185.247	16.41
185.468	5.55
185.689	21.31
185.91	25.67
186.132	26.2
186.353	35.59
186.574	-10.79
186.795	10.9
187.016	18.51
187.237	34.66
187.458	41.53
187.679	31.99
187.9	25.29
188.121	24.14
188.342	12.66
188.563	7.23
188.784	22.99
189.005	8.58
189.226	-20.8
189.447	0.61
189.667	-14.28
189.888	1.23
190.109	39.54
190.33	47.15
190.551	53.62
190.772	86.87
190.993	56.38
191.214	53.4
191.434	58.2
191.655	34.14
191.876	22.56
192.097	48.41
192.318	49.7
192.538	59.33
192.759	61.85
192.98	55.31
193.201	43.4
193.421	49.73
193.642	47.98
193.863	59.08
194.083	76.57
194.304	67.96
194.525	67.29
194.745	63.82
194.966	88.51
195.187	88.21
195.407	121.12
195.628	98.42
195.848	86.91
196.069	64.6
196.29	21.28
196.51	-23.75
196.731	-2.16
196.951	-21.06
197.172	-10.81
197.392	17.46
197.613	32.75
197.833	7.91
198.054	56.11
198.274	19.19
198.495	18.64
198.715	5.2
198.936	8.57
199.156	5.42
199.377	15.84
199.597	30.61
199.817	54.75
200.038	42.7
200.258	41.74
200.479	-10.47
200.699	-21.47
200.919	-69.19
201.14	9.19
201.36	3.73
201.58	17.79
201.801	-15.94
202.021	-10.02
202.241	-45.7
202.461	-22.4
202.682	6.17
202.902	44.19
203.122	50.47
203.342	54.62
203.563	41.2
203.783	31.25
204.003	31.55
204.223	28.51
204.443	11.77
204.663	17.6
204.884	2.34
205.104	-15.77
205.324	-17.86
205.544	2.98
205.764	-20.47
205.984	-61.13
206.204	-26.91
206.424	-96.19
206.644	-19.42
206.864	-8.18
207.084	12.67
207.304	22.61
207.525	99.35
207.745	112.29
207.964	104.07
208.184	92.94
208.404	77.54
208.624	45.8
208.844	49.63
209.064	65.66
209.284	78.72
209.504	58
209.724	58.36
209.944	41.24
210.164	13.5
210.384	7.59
210.604	21.72
210.823	40.67
211.043	46.91
211.263	46.31
211.483	22.8
211.703	48.78
211.922	22.42
212.142	19.81
212.362	17
212.582	20.62
212.801	0.75
213.021	20.4
213.241	-16.06
213.461	8.64
213.68	18.35
213.9	7.38
214.12	-19.05
214.339	32.51
214.559	43.12
214.779	27.24
214.998	33.21
215.218	61.1
215.438	49.3
215.657	58.84
215.877	68.92
216.096	47.88
216.316	47.36
216.535	33.16
216.755	-27.34
216.974	-3.82
217.194	30.52
217.413	32.02
217.633	42.45
217.852	63.91
218.072	67.47
218.291	50.96
218.511	47.95
218.73	82.55
218.95	77.02
219.169	67.63
219.389	71.78
219.608	88.58
219.827	27.49
220.047	48.94
220.266	39.11
220.485	54.05
220.705	39.97
220.924	60.82
221.143	26.71
221.363	48.02
221.582	43.75
221.801	61.47
222.021	42.52
222.24	49.98
222.459	3.47
222.678	-11.76
222.897	-18.09
223.117	-50.04
223.336	-246.52
223.555	-62.52
223.774	-14.79
223.993	-42.85
224.213	-87.16
224.432	-9.97
224.651	-0.54
224.87	-7.13
225.089	4.68
225.308	11.66
225.527	-24.07
225.746	-61.14
225.965	-47.44
226.184	-125.69
226.404	-21.23
226.623	38.13
226.842	47.15
227.061	31.42
227.28	51.92
227.499	62.57
227.718	36.25
227.936	24.9
228.155	31.95
228.374	34.99
228.593	23.84
228.812	-6.52
229.031	-6.52
229.25	25.19
229.469	0.63
229.688	-38.14
229.907	-45.69
230.125	-36.97
230.344	-55.48
230.563	-68.81
230.782	-46.39
231.001	10.37
231.22	15.86
231.438	8.27
231.657	23.87
231.876	36.55
232.095	14.64
232.313	13.5
232.532	0.46
232.751	29.83
232.969	52.63
233.188	91.21
233.407	94.9
233.625	94.91
233.844	93.25
234.063	99.32
234.281	93.87
234.5	78.62
234.719	94.42
234.937	80.95
235.156	40.34
235.374	31.56
235.593	32.51
235.811	28.59
236.03	26.96
236.249	48.35
236.467	52.96
236.686	51.06
236.904	61.8
237.123	72.51
237.341	66.9
237.559	50.62
237.778	54.21
237.996	45.23
238.215	31.91
238.433	18.38
238.652	21.55
238.87	17.28
239.088	17.96
239.307	8.69
239.525	5.35
239.743	20.96
239.962	21.76
240.18	17.34
240.398	57.68
240.617	79.44
240.835	67.28
241.053	69.72
241.271	84.98
241.49	56.56
241.708	43.36
241.926	27.64
242.144	1.14
242.363	34.23
242.581	24.03
242.799	29.56
243.017	25.21
243.235	63.68
243.453	42.72
243.672	58.8
243.89	61.16
244.108	63.12
244.326	16.79
244.544	14.01
244.762	4.41
244.98	-16.52
245.198	0.15
245.416	35
245.634	35.02
245.852	24.78
246.07	24.85
246.288	1.87
246.506	15.83
246.724	13.51
246.942	27.91
247.16	25.34
247.378	22.45
247.596	24.39
247.814	26.32
248.032	23.8
248.25	37.02
248.468	42.52
248.685	32.54
248.903	11.15
249.121	16.56
249.339	-1.42
249.557	20.7
249.775	24.95
249.992	66.23
250.21	61.41
250.428	61.04
250.646	22.04
250.863	19.5
251.081	-1.56
251.299	-32.05
251.517	-3.29
251.734	15.57
251.952	30.31
252.17	9.5
252.387	26.98
252.605	37.97
252.823	45.54
253.04	2.93
253.258	55.54
253.475	51.14
253.693	33.56
253.911	30.56
254.128	40.53
254.346	21.29
254.563	14.43
254.781	42.09
254.998	33.64
255.216	6.38
255.433	10.64
255.651	14.65
255.868	-29.25
256.086	-48.53
256.303	-17.66
256.521	-7.74
256.738	-15.23
256.956	22.77
257.173	41.73
257.39	33.22
257.608	16.3
257.825	6.66
258.043	-52.79
258.26	-35.49
258.477	-23.19
258.695	-19.78
258.912	-10.74
259.129	15.84
259.346	35.55
259.564	48.91
259.781	70.24
259.998	68.27
260.216	57.43
260.433	35.79
260.65	42.42
260.867	21.22
261.084	17.58
261.302	21.1
261.519	31.94
261.736	29.3
261.953	37.45
262.17	33.91
262.387	38.55
262.604	44.78
262.822	58.42
263.039	54.08
263.256	53.08
263.473	47.81
263.69	59.49
263.907	26.53
264.124	8.07
264.341	-3.47
264.558	-8.76
264.775	-15.87
264.992	-5.87
265.209	16.39
265.426	15.56
265.643	19.34
265.86	25.35
266.077	54.07
266.294	34.81
266.51	52.21
266.727	70.34
266.944	43.85
267.161	37.29
267.378	37.2
267.595	22.19
267.812	8.16
268.028	18.63
268.245	14.31
268.462	31.1
268.679	44.75
268.896	33.37
269.112	38.13
269.329	47.81
269.546	11.59
269.763	-24.58
269.979	-9.13
270.196	12.23
270.413	21.36
270.629	23.26
270.846	46.21
271.063	43.09
271.279	37.92
271.496	36.22
271.712	42.58
271.929	25.93
272.146	50.06
272.362	35.86
272.579	36.43
272.795	19.92
273.012	13.18
273.228	11.45
273.445	17.09
273.661	1.82
273.878	16.25
274.094	30.57
274.311	18.4
274.527	8.36
274.744	23.7
274.96	5.83
275.177	-16.69
275.393	-3.43
275.609	9.05
275.826	-6.59
276.042	21.69
276.259	30.76
276.475	7.74
276.691	-0.87
276.908	18.5
277.124	23.44
277.34	22.18
277.557	38.53
277.773	42.98
277.989	34.68
278.205	28.03
278.422	19.7
278.638	14.78
278.854	16.21
279.07	22.91
279.286	34.12
279.503	45.7
279.719	59.54
279.935	53.56
280.151	47.6
280.367	15.36
280.583	8.98
280.799	9.87
281.016	6.01
281.232	9.58
281.448	34.78
281.664	17.98
281.88	25.69
282.096	44.76
282.312	27.57
282.528	10.57
282.744	20.31
282.96	23.31
283.176	26.22
283.392	35.33
283.608	53.15
283.824	59
284.04	49.99
284.256	38.29
284.471	33.5
284.687	29.65
284.903	22.58
285.119	2.35
285.335	-2.97
285.551	0.13
285.767	14.32
285.982	5.53
286.198	22.41
286.414	23.44
286.63	20.2
286.846	-3.13
287.061	5.44
287.277	-16.21
287.493	-21.91
287.709	-51.27
287.924	-14.64
288.14	-29.51
288.356	-46.55
288.571	-36.73
288.787	-1.82
289.003	-18.85
289.218	-8.45
289.434	37.78
289.65	33.08
289.865	24.74
290.081	7.39
290.296	11.85
290.512	10.32
290.727	15.74
290.943	24.61
291.159	42.84
291.374	41.79
291.59	42.75
291.805	61.5
292.021	70.55
292.236	70.11
292.451	68.23
292.667	79.29
292.882	58.19
293.098	38.68
293.313	48.77
293.529	66.67
293.744	70.15
293.959	74.23
294.175	83.35
294.39	67.57
294.605	59.68
294.821	43.17
295.036	48.61
295.251	25.77
295.467	40.64
295.682	32.77
295.897	26.74
296.112	34.24
296.328	42.56
296.543	36.88
296.758	25.95
296.973	24.03
297.188	3.32
297.404	20.21
297.619	17.87
297.834	19.36
298.049	22.97
298.264	33.57
298.479	7.81
298.694	0.81
298.909	17.51
299.125	31.23
299.34	11.62
299.555	20.76
299.77	2.03
299.985	12.46
300.2	9.46
300.415	23.52
300.63	31.06
300.845	55.9
301.06	59.65
301.275	29.89
301.49	35.18
301.704	36.17
301.919	41.34
302.134	34.83
302.349	45.93
302.564	54.11
302.779	51.04
302.994	34.56
303.209	30.48
303.423	16.08
303.638	3.76
303.853	0.42
304.068	21.12
304.283	38.68
304.497	63.1
304.712	78.26
304.927	79.54
305.142	75.96
305.356	59.64
305.571	49.27
305.786	38.88
306	33.72
306.215	14.41
306.43	21.6
306.644	6.2
306.859	2.38
307.074	17.92
307.288	36.52
307.503	39.04
307.717	36.81
307.932	34.61
308.147	25.99
308.361	17.15
308.576	24.95
308.79	56.24
309.005	49.24
309.219	38.67
309.434	28.31
309.648	32.25
309.863	-4.76
310.077	-15.13
310.292	-7.59
310.506	3.48
310.72	17.49
310.935	19.58
311.149	26.83
311.364	-0.86
311.578	2.29
311.792	2.15
312.007	3.36
312.221	12.8
312.435	32.32
312.649	48.76
312.864	-11.58
313.078	9.46
313.292	-16.96
313.507	-8.14
313.721	-33.16
313.935	-0.23
314.149	-3.96
314.363	34.84
314.578	24.35
314.792	26.48
315.006	24.03
315.22	19.42
315.434	-2.61
315.648	-14.91
315.862	4.63
316.077	18.14
316.291	20.49
316.505	32.88
316.719	44.12
316.933	58.99
317.147	55.53
317.361	67.45
317.575	71.21
317.789	64.94
318.003	62.08
318.217	45.38
318.431	62.42
318.645	52.34
318.859	55.39
319.073	49.68
319.287	78.25
319.5	67.33
319.714	81.23
319.928	90.47
320.142	98.09
320.356	75.01
320.57	53.82
320.784	55.64
320.997	36.96
321.211	32.57
321.425	46.44
321.639	58.6
321.853	26.71
322.066	47.84
322.28	52.08
322.494	41.09
322.707	21.97
322.921	46.47
323.135	28.37
323.349	29.41
323.562	37.83
323.776	44.34
323.989	42.36
324.203	43.92
324.417	38.85
324.63	49.55
324.844	48.22
325.057	45.8
325.271	34.87
325.485	50.53
325.698	11.22
325.912	7.39
326.125	20.76
326.339	12.25
326.552	-12.76
326.766	11.91
326.979	5.45
327.193	-6.78
327.406	0.33
327.619	21.63
327.833	-2.32
328.046	19.01
328.26	21
328.473	27.12
328.686	19.58
328.9	14.88
329.113	24.02
329.326	30.35
329.54	28.98
329.753	35.84
329.966	70.67
330.179	53.11
330.393	54.91
330.606	60.13
330.819	57.44
331.032	31.92
331.246	35.35
331.459	14.29
331.672	5.12
331.885	5.79
332.098	15.09
332.311	30.52
332.525	47.6
332.738	35.76
332.951	37.64
333.164	38.4
333.377	31.22
333.59	23.14
333.803	28.96
334.016	28.28
334.229	26.99
334.442	11.96
334.655	-11.03
334.868	-20.43
335.081	-40.92
335.294	-22.69
335.507	4.59
335.72	26.61
335.933	30.23
336.146	36.76
336.359	19.77
336.572	35.01
336.785	40.05
336.997	53.78
337.21	60.83
337.423	62.25
337.636	53.2
337.849	35.09
338.062	15.45
338.274	3.66
338.487	27.46
338.7	29.81
338.913	40.29
339.125	43.45
339.338	49.29
339.551	38.39
339.763	28.13
339.976	28.18
340.189	21.53
340.402	11.37
340.614	3.84
340.827	19.61
341.039	21.06
341.252	30.75
341.465	35.32
341.677	30.32
341.89	31.8
342.102	18.75
342.315	19.89
342.527	33.79
342.74	42.78
342.952	43.98
343.165	59.59
343.377	44.47
343.59	35.67
343.802	34.25
344.015	-2.3
344.227	-19.27
344.44	15.85
344.652	19.99
344.864	11.66
345.077	23.38
345.289	23.12
345.502	-37.47
345.714	-50.02
345.926	-28.58
346.139	-32.86
346.351	-22.94
346.563	3.63
346.775	6.25
346.988	0.53
347.2	6.01
347.412	15.84
347.624	26.37
347.837	26.88
348.049	21.52
348.261	-3.7
348.473	-0.27
348.685	4.46
348.897	25.82
349.11	40.64
349.322	32.74
349.534	24.14
349.746	15.56
349.958	0.31
350.17	-0.75
350.382	18.89
350.594	27.46
350.806	19.96
351.018	21.73
351.23	25.1
351.442	34.39
351.654	7.01
351.866	25.32
352.078	22.89
352.29	-2.82
352.502	5.41
352.714	22.13
352.926	14.44
353.138	-0.2
353.35	28.47
353.561	37.76
353.773	40.45
353.985	51.99
354.197	55.93
354.409	54.01
354.621	45.81
354.832	57.1
355.044	51.1
355.256	55.75
355.468	45.48
355.679	50.49
355.891	42.04
356.103	51.73
356.314	50.44
356.526	56.37
356.738	54.98
356.949	54.68
357.161	27.09
357.373	32.23
357.584	40.99
357.796	37.18
358.008	30.37
358.219	37.41
358.431	32.24
358.642	22.79
358.854	-3.41
359.065	15.53
359.277	33.21
359.488	36.31
359.7	43.04
359.911	54.99
360.123	53.33
360.334	53.47
360.546	42.93
360.757	35.65
360.969	28.78
361.18	14.72
361.391	18.58
361.603	27
361.814	8.96
362.025	18.49
362.237	29.06
362.448	25.38
362.659	16.89
362.871	24.77
363.082	13.83
363.293	-3.13
363.504	-5.05
363.716	11.43
363.927	19.95
364.138	23.09
364.349	35.33
364.56	34.45
364.772	35.85
364.983	18.67
365.194	14.27
365.405	11.06
365.616	-1.45
365.827	3.66
366.038	11.97
366.25	15.33
366.461	35.88
366.672	36.61
366.883	26.06
367.094	23.61
367.305	29.11
367.516	1.36
367.727	14.21
367.938	19.13
368.149	28.92
368.36	20.62
368.571	33.56
368.781	39.21
368.992	49.73
369.203	46.16
369.414	43.15
369.625	34.74
369.836	37.29
370.047	22.7
370.258	15.19
370.468	25.87
370.679	48.09
370.89	51.67
371.101	65.92
371.312	67.26
371.522	52.75
371.733	56.29
371.944	47.07
372.155	33.11
372.365	29.82
372.576	40.3
372.787	23.83
372.997	21.99
373.208	20.97
373.419	0.71
373.629	2.46
373.84	14.31
374.05	21.79
374.261	24.49
374.472	47.69
374.682	44.97
374.893	36.32
375.103	20.81
375.314	26.94
375.524	16.22
375.735	20.2
375.945	25.03
376.156	32.91
376.366	31.37
376.577	40.03
376.787	39.54
376.997	31.98
377.208	31.73
377.418	28.55
377.629	19.35
377.839	16.27
378.049	22.04
378.26	16.66
378.47	14
378.68	8.11
378.89	11.4
379.101	12.27
379.311	28.26
379.521	39.52
379.732	47.81
379.942	51.59
380.152	58.43
380.362	43.57
380.572	41.59
380.783	33.76
380.993	29.63
381.203	21.7
381.413	12.14
381.623	12.6
381.833	19.01
382.043	26.97
382.253	30.83
382.463	36.32
382.674	31.48
382.884	24.05
383.094	10.66
383.304	3.57
383.514	7.9
383.724	2.9
383.934	14.03
384.144	20.27
384.353	23.55
384.563	17.05
384.773	11.51
384.983	7.29
385.193	5.71
385.403	10.23
385.613	12.05
385.823	20.41
386.033	18.5
386.242	19.62
386.452	15.32
386.662	17.49
386.872	12.53
387.082	12.25
387.291	11.91
387.501	11.85
387.711	9.54
387.921	11.51
388.13	11.13
388.34	7.12
388.55	11.81
388.759	14.72
388.969	12.29
389.179	9.12
389.388	9.1
389.598	8.79
389.807	7.68
390.017	9.91
390.227	12.15
390.436	12.41
390.646	8.98
390.855	8.2
391.065	7.98
391.274	9.45
391.484	12.21
391.693	12.17
391.903	11.77
392.112	12.52
392.322	10.16
392.531	8.82
392.74	9.26
392.95	10.95
393.159	8.7
393.369	9.89
393.578	9.17
393.787	10.17
393.997	8.76
394.206	9.97
394.415	9.67
394.625	9.79
394.834	9.35
395.043	9.79
395.252	9.41
395.462	8.49
395.671	7.44
395.88	7.58
396.089	7.27
396.298	7.27
396.508	8.05
396.717	9.25
396.926	8.43
397.135	7.64
397.344	7.69
397.553	7.26
397.762	6.76
397.971	7.28
398.181	7.66
398.39	8.24
398.599	8.32
398.808	8.29
399.017	7.63
399.226	7.48
399.435	6.8
399.644	6.86
399.853	7.16
400.062	7.59
400.27	7.92
400.479	8.14
400.688	8.2
400.897	7.97
401.106	7.91
401.315	7.88
401.524	7.84
401.733	7.35
401.941	6.98
402.15	6.95
402.359	6.98
402.568	6.69
402.777	6.74
402.985	7.06
403.194	6.98
403.403	6.75
403.612	7.07
403.82	7.2
404.029	7.19
404.238	7.48
404.446	7.43
404.655	7.24
404.864	7.13
405.072	7.13
405.281	6.81
405.489	7
405.698	7.06
405.906	7.24
406.115	7.26
406.324	7.31
406.532	7.25
406.741	7.13
406.949	7.07
407.158	6.97
407.366	7
407.574	6.82
407.783	6.86
407.991	6.85
408.2	6.68
408.408	6.52
408.617	6.62
408.825	6.66
409.033	6.64
409.242	6.6
409.45	6.65
409.658	6.65
409.867	6.53
410.075	6.58
410.283	6.59
410.491	6.56
410.7	6.58
410.908	6.6
411.116	6.45
411.324	6.63
411.533	6.69
411.741	6.55
411.949	6.47
412.157	6.57
412.365	6.48
412.573	6.43
412.781	6.43
412.99	6.57
413.198	6.53
413.406	6.52
413.614	6.53
413.822	6.61
414.03	6.66
414.238	6.6
414.446	6.57
414.654	6.7
414.862	6.58
415.07	6.27
415.278	6.22
415.486	6.27
415.694	6.2
415.902	6.22
416.109	6.35
416.317	6.41
416.525	6.31
416.733	6.38
416.941	6.36
417.149	6.37
417.357	6.19
417.564	6.09
417.772	5.81
417.98	6
418.188	6.01
418.395	6.08
418.603	6.22
418.811	6.45
419.019	6.25
419.226	6.26
419.434	6.12
419.642	6.1
419.849	5.82
420.057	5.76
420.265	5.5
420.472	5.79
420.68	5.6
420.887	5.78
421.095	5.62
421.302	5.92
421.51	5.56
421.717	5.6
421.925	5.36
422.132	5.65
422.34	5.53
422.547	5.59
422.755	5.69
422.962	5.93
423.17	5.76
423.377	5.88
423.585	5.95
423.792	5.92
423.999	5.79
424.207	5.84
424.414	5.42
424.621	5.4
424.829	5.45
425.036	5.66
425.243	5.84
425.451	6.11
425.658	6.25
425.865	6.13
426.072	5.97
426.28	5.76
426.487	5.86
426.694	5.66
426.901	5.72
427.108	5.84
427.315	6.15
427.523	6.05
427.73	6.2
427.937	6.39
428.144	6.26
428.351	6.04
428.558	5.83
428.765	5.96
428.972	5.96
429.179	5.83
429.386	5.86
429.593	6.16
429.8	6.21
430.007	6.17
430.214	6.44
430.421	6.49
430.628	6.45
430.835	6.33
431.042	6.16
431.249	6
431.456	5.98
431.662	5.99
431.869	6.06
432.076	6.25
432.283	6.45
432.49	6.35
432.697	6.43
432.903	6.47
433.11	6.42
433.317	6.22
433.524	6.18
433.73	6.31
433.937	6.12
434.144	6.17
434.35	6.29
434.557	6.6
434.764	6.52
434.97	6.78
435.177	6.81
435.384	6.92
435.59	6.84
435.797	6.89
436.003	6.64
436.21	6.76
436.416	6.73
436.623	6.77
436.829	6.71
437.036	6.85
437.242	6.77
437.449	6.76
437.655	6.73
437.862	6.77
438.068	6.81
438.275	6.86
438.481	6.91
438.687	6.99
438.894	7.14
439.1	7.29
439.307	7.06
439.513	7.11
439.719	6.96
439.926	6.9
440.132	6.88
440.338	7.12
440.544	7.01
440.751	7.18
440.957	7.11
441.163	7.18
441.369	7.22
441.575	7.32
441.782	7.42
441.988	7.59
442.194	7.46
442.4	7.46
442.606	7.5
442.812	7.44
443.018	7.26
443.224	7.35
443.431	7.25
443.637	7.18
443.843	7.17
444.049	7.22
444.255	7.27
444.461	7.45
444.667	7.62
444.873	7.62
445.079	7.65
445.284	7.6
445.49	7.63
445.696	7.59
445.902	7.61
446.108	7.68
446.314	7.68
446.52	7.74
446.726	7.75
446.931	7.76
447.137	7.72
447.343	7.82
447.549	7.89
447.755	7.85
447.96	7.81
448.166	7.91
448.372	7.75
448.578	7.73
448.783	7.85
448.989	8
449.195	7.88
449.4	8.01
449.606	7.91
449.812	7.96
450.017	7.93
450.223	8.03
450.428	8.11
450.634	8.03
450.84	7.91
451.045	7.97
451.251	8.05
451.456	7.96
451.662	7.91
451.867	7.91
452.073	7.91
452.278	7.76
452.483	7.69
452.689	7.84
452.894	7.92
453.1	7.94
453.305	7.97
453.51	8.11
453.716	8.14
453.921	8.2
454.127	8.19
454.332	8.25
454.537	8.24
454.742	8.27
454.948	8.21
455.153	8.25
455.358	8.22
455.563	8.16
455.769	8.08
455.974	8.18
456.179	8.18
456.384	8.17
456.589	8.35
456.795	8.47
457	8.45
457.205	8.44
457.41	8.51
457.615	8.49
457.82	8.44
458.025	8.42
458.23	8.51
458.435	8.45
458.64	8.49
458.845	8.46
459.05	8.53
459.255	8.54
459.46	8.57
459.665	8.53
459.87	8.7
460.075	8.72
460.28	8.78
460.485	8.82
460.69	8.82
460.895	8.8
461.099	8.82
461.304	8.76
461.509	8.74
461.714	8.9
461.919	8.94
462.123	8.97
462.328	9
462.533	9.2
462.738	9.21
462.942	9.22
463.147	9.24
463.352	9.21
463.556	9.27
463.761	9.2
463.966	9.15
464.17	9.13
464.375	9.17
464.58	9.02
464.784	9.05
464.989	9.17
465.193	9.19
465.398	9.29
465.602	9.29
465.807	9.35
466.011	9.38
466.216	9.46
466.42	9.5
466.625	9.67
466.829	9.69
467.034	9.65
467.238	9.55
467.443	9.49
467.647	9.52
467.851	9.64
