Data from Ofav_PP_Phys_4JQ12_Reflection_2.txt Node
Date: Tue Aug 03 18:17:30 EDT 2021
User: Adam
Spectrometer: FLMT01687
Trigger mode: 0
Integration Time (sec): 8.750000E-1
Scans to average: 2
Electric dark correction enabled: true
Nonlinearity correction enabled: false
Boxcar width: 2
XAxis mode: Wavelengths
Number of Pixels in Spectrum: 3648
>>>>>Begin Spectral Data<<<<<
179.494	290.39
179.716	303.28
179.937	359.55
180.158	532.02
180.38	1356.14
180.601	-57.5
180.823	10.38
181.044	40.25
181.265	-3.79
181.486	167.66
181.708	43.26
181.929	34.84
182.15	58.72
182.372	289.03
182.593	151.48
182.814	327.11
183.035	128.37
183.257	213.73
183.478	79.25
183.699	-400.4
183.92	-244.94
184.141	-282.79
184.363	-172.31
184.584	-277.17
184.805	-65.33
185.026	-70.47
185.247	-28.28
185.468	12.13
185.689	-3.35
185.91	-12.76
186.132	-26
186.353	-3.37
186.574	-70.63
186.795	-3.62
187.016	-0.04
187.237	22.66
187.458	16.86
187.679	30.18
187.9	10.94
188.121	20.71
188.342	-3.94
188.563	-7.34
188.784	1.15
189.005	-5.89
189.226	-24.73
189.447	11.36
189.667	6.26
189.888	25.83
190.109	61.48
190.33	42.71
190.551	21.84
190.772	61.37
190.993	29.83
191.214	1.25
191.434	30.54
191.655	-5.18
191.876	-15.71
192.097	-5.55
192.318	2.44
192.538	-13.05
192.759	-0.63
192.98	-22.4
193.201	-47.54
193.421	-35.26
193.642	-31.23
193.863	-5.74
194.083	36.45
194.304	44.21
194.525	43.25
194.745	31.76
194.966	49.52
195.187	48.59
195.407	62.51
195.628	58.84
195.848	62.73
196.069	62.96
196.29	48.5
196.51	27.75
196.731	30.61
196.951	22.5
197.172	23.37
197.392	48.1
197.613	22.76
197.833	14.6
198.054	30.43
198.274	-5.53
198.495	-16.15
198.715	23.01
198.936	13.4
199.156	1.11
199.377	23.11
199.597	27.49
199.817	39.16
200.038	22.05
200.258	34.65
200.479	-38.35
200.699	-1.53
200.919	-78.09
201.14	26.15
201.36	17.08
201.58	34.78
201.801	1.08
202.021	16.96
202.241	-25.99
202.461	-11.09
202.682	15.68
202.902	19.78
203.122	33.44
203.342	52.68
203.563	12.02
203.783	-39.53
204.003	-12.81
204.223	-24.18
204.443	-52.99
204.663	-27.12
204.884	-23.74
205.104	-44.61
205.324	-36.44
205.544	-34.97
205.764	-48.43
205.984	-114.77
206.204	-73.61
206.424	-157.32
206.644	-29.19
206.864	-49.97
207.084	-32.39
207.304	-56.09
207.525	-13.96
207.745	-14.32
207.964	-20.03
208.184	35.51
208.404	65.97
208.624	59.22
208.844	38.3
209.064	54.97
209.284	66.02
209.504	21.88
209.724	6.36
209.944	-2.69
210.164	-34.61
210.384	-26.19
210.604	-16.64
210.823	32.3
211.043	79.09
211.263	74.89
211.483	40.25
211.703	66.62
211.922	24.71
212.142	-8.04
212.362	-28.16
212.582	-8.59
212.801	-43.65
213.021	-13.95
213.241	-35.78
213.461	23.87
213.68	17.89
213.9	5.88
214.12	4.76
214.339	34.43
214.559	37.31
214.779	12.85
214.998	16.85
215.218	20.59
215.438	16.81
215.657	12.12
215.877	39.52
216.096	32.26
216.316	30.52
216.535	26.56
216.755	-22.93
216.974	-9.04
217.194	15.78
217.413	30.53
217.633	32.58
217.852	62.06
218.072	63.89
218.291	45.33
218.511	38.6
218.73	64.09
218.95	54.62
219.169	44.26
219.389	63.13
219.608	69.95
219.827	22.57
220.047	-10.68
220.266	7.66
220.485	15.23
220.705	15.98
220.924	36.91
221.143	39.35
221.363	63.25
221.582	50.35
221.801	15.14
222.021	16.47
222.24	29.69
222.459	-49.25
222.678	-23.94
222.897	5.35
223.117	-39.57
223.336	-188.73
223.555	-44.12
223.774	-101.21
223.993	-78.96
224.213	-86.69
224.432	-50.25
224.651	-19.88
224.87	-3.89
225.089	-7.46
225.308	-24.95
225.527	-29.91
225.746	-103.87
225.965	-79.17
226.184	-121.01
226.404	-9.02
226.623	12.34
226.842	11.06
227.061	-24.57
227.28	-24.73
227.499	-21.38
227.718	-35.96
227.936	-20.22
228.155	-17.32
228.374	13.28
228.593	7.63
228.812	-2.87
229.031	1.5
229.25	41.44
229.469	3.75
229.688	-71.48
229.907	-137.8
230.125	-168.33
230.344	-139.51
230.563	-103.27
230.782	-58.27
231.001	5.9
231.22	-3.97
231.438	-12.33
231.657	-33.57
231.876	-44
232.095	-42.93
232.313	-40.12
232.532	-67.54
232.751	-22.6
232.969	-4.87
233.188	-14.78
233.407	-8.63
233.625	28.15
233.844	7.39
234.063	17.57
234.281	16.17
234.5	-4.46
234.719	-34.88
234.937	-12.6
235.156	-33.72
235.374	-16.5
235.593	-1.93
235.811	-0.25
236.03	9.29
236.249	33.41
236.467	17.25
236.686	14.32
236.904	19.18
237.123	31.16
237.341	36.27
237.559	34.34
237.778	49.14
237.996	30.55
238.215	9.39
238.433	-14.09
238.652	-21.46
238.87	-16.83
239.088	-4.45
239.307	7.47
239.525	15.11
239.743	36.35
239.962	19.37
240.18	24.95
240.398	43.6
240.617	56.4
240.835	29.43
241.053	20.31
241.271	-69
241.49	-76.93
241.708	-47.01
241.926	-24.81
242.144	-4.43
242.363	51.05
242.581	62.31
242.799	37.08
243.017	32.59
243.235	55.31
243.453	51.03
243.672	43.57
243.89	53.44
244.108	52.67
244.326	21.29
244.544	23.41
244.762	21.13
244.98	9.97
245.198	6.77
245.416	19.54
245.634	15.46
245.852	8.1
246.07	14.45
246.288	0.51
246.506	23.35
246.724	4.04
246.942	11.3
247.16	11.45
247.378	8.36
247.596	-8.67
247.814	0.16
248.032	15.53
248.25	18.51
248.468	37.78
248.685	32.57
248.903	9.39
249.121	-33.58
249.339	-31.98
249.557	-22.09
249.775	-25.76
249.992	18.29
250.21	27.16
250.428	21.03
250.646	-9.12
250.863	9.03
251.081	-13.33
251.299	-28.27
251.517	-18.9
251.734	-23.64
251.952	-77.66
252.17	-72.31
252.387	-119.91
252.605	-160.63
252.823	-162.68
253.04	-116.56
253.258	-61.27
253.475	2.05
253.693	-13.66
253.911	22.4
254.128	11.45
254.346	-3.52
254.563	-1.73
254.781	7.65
254.998	1.39
255.216	4.2
255.433	15.55
255.651	-2.11
255.868	-37.46
256.086	-67.37
256.303	-46.49
256.521	-21.47
256.738	-30.08
256.956	24.63
257.173	51.45
257.39	52.57
257.608	24.76
257.825	17.08
258.043	-48.31
258.26	-20.07
258.477	-29.22
258.695	-19.97
258.912	-9.85
259.129	16.19
259.346	21.14
259.564	29.12
259.781	28.69
259.998	33.01
260.216	17.73
260.433	13.02
260.65	11.09
260.867	22.09
261.084	7.11
261.302	4.72
261.519	16.2
261.736	33.33
261.953	28.95
262.17	32.11
262.387	28.7
262.604	25.44
262.822	23.07
263.039	17.03
263.256	16.79
263.473	22.7
263.69	24.66
263.907	8.66
264.124	-14.18
264.341	-39.8
264.558	-87.91
264.775	-65.76
264.992	-52.24
265.209	-40.85
265.426	-15.91
265.643	15.9
265.86	4.46
266.077	19.85
266.294	22.91
266.51	25.36
266.727	27.05
266.944	36.24
267.161	39.33
267.378	39.03
267.595	19.23
267.812	16.9
268.028	18.49
268.245	17.81
268.462	29.47
268.679	50.99
268.896	26.4
269.112	13.45
269.329	0.5
269.546	-36.36
269.763	-39.39
269.979	-3.46
270.196	19.95
270.413	19.16
270.629	20.47
270.846	31.12
271.063	13.4
271.279	15.92
271.496	13.73
271.712	0.51
271.929	-2.94
272.146	36.58
272.362	28.7
272.579	32.54
272.795	36.85
273.012	40.38
273.228	26.65
273.445	25.6
273.661	14.66
273.878	19.2
274.094	21.3
274.311	4.83
274.527	-8.25
274.744	-0.72
274.96	-4
275.177	-63.07
275.393	-35.37
275.609	-18.28
275.826	-26.96
276.042	-22.36
276.259	3.2
276.475	-12.71
276.691	-31.32
276.908	-18.8
277.124	0.15
277.34	2.12
277.557	-14.28
277.773	-4.43
277.989	-2.67
278.205	-3.9
278.422	-24.08
278.638	2.61
278.854	-9.87
279.07	-4.12
279.286	-4.76
279.503	18.64
279.719	31.91
279.935	39.44
280.151	34.16
280.367	14.25
280.583	-9.1
280.799	-2.12
281.016	9.87
281.232	-6.98
281.448	11.58
281.664	-0.54
281.88	-3.88
282.096	-5.92
282.312	-8.83
282.528	-16.88
282.744	3.16
282.96	3.54
283.176	18.33
283.392	38.24
283.608	41.15
283.824	47.01
284.04	41.06
284.256	27.55
284.471	19.1
284.687	15.19
284.903	9.93
285.119	-7.87
285.335	-11.47
285.551	-20.13
285.767	-5.07
285.982	11.16
286.198	17.6
286.414	18.74
286.63	13.19
286.846	-0.67
287.061	-8.1
287.277	-21.47
287.493	-10.75
287.709	-36.56
287.924	-16.39
288.14	-39.22
288.356	-57.73
288.571	-49.8
288.787	-19.43
289.003	-34.36
289.218	-40.39
289.434	5.35
289.65	-2.19
289.865	4.84
290.081	-26.18
290.296	6.18
290.512	-4.1
290.727	-19.28
290.943	-5.62
291.159	26
291.374	10.26
291.59	19.47
291.805	30.37
292.021	36.14
292.236	38.03
292.451	37.55
292.667	37.21
292.882	22.34
293.098	-3.52
293.313	-15.03
293.529	-9.51
293.744	-12.14
293.959	14.61
294.175	22.49
294.39	12
294.605	10.67
294.821	-1.02
295.036	-20.74
295.251	-34.56
295.467	-15.4
295.682	-3.08
295.897	8.22
296.112	23.17
296.328	22.63
296.543	30.31
296.758	26.13
296.973	19.69
297.188	0.42
297.404	22.23
297.619	20.72
297.834	23.91
298.049	23.32
298.264	47.96
298.479	13.03
298.694	7.64
298.909	16.99
299.125	27.39
299.34	-6.89
299.555	18.36
299.77	-6.75
299.985	7.67
300.2	19.8
300.415	56.29
300.63	34.69
300.845	48.51
301.06	29.46
301.275	8.05
301.49	-6.08
301.704	-5.89
301.919	18.73
302.134	24.17
302.349	18.97
302.564	32.71
302.779	32.96
302.994	15.92
303.209	12.94
303.423	1.12
303.638	-5.98
303.853	11.06
304.068	28.26
304.283	41.81
304.497	61.06
304.712	70.38
304.927	53.32
305.142	44.91
305.356	28.26
305.571	20.88
305.786	29.27
306	44.06
306.215	15.48
306.43	25.81
306.644	0.14
306.859	-34.09
307.074	-34
307.288	-1.85
307.503	-2.03
307.717	13.62
307.932	12.31
308.147	6.61
308.361	-1.15
308.576	3.53
308.79	14.26
309.005	32.71
309.219	28.81
309.434	22.45
309.648	24.11
309.863	17.8
310.077	15.27
310.292	32.56
310.506	36.97
310.72	32.74
310.935	15
311.149	16.22
311.364	-28.83
311.578	-53.63
311.792	-54.07
312.007	-59.27
312.221	-57.5
312.435	-30.87
312.649	0.99
312.864	-0.57
313.078	-0.99
313.292	-6.54
313.507	6.02
313.721	-6.15
313.935	-18.58
314.149	-17.87
314.363	-9.32
314.578	-20.97
314.792	-22.8
315.006	-30.87
315.22	-34.15
315.434	-52.73
315.648	-81.23
315.862	-13.08
316.077	0.95
316.291	4.38
316.505	13.12
316.719	14.36
316.933	10.41
317.147	-11.11
317.361	-9.45
317.575	-6.67
317.789	10
318.003	20.1
318.217	19.19
318.431	19.83
318.645	16.6
318.859	-1.62
319.073	-27.76
319.287	1.05
319.5	28.57
319.714	46.57
319.928	52.27
320.142	45.41
320.356	33.69
320.57	16.99
320.784	-0.56
320.997	-14.05
321.211	3.83
321.425	3.73
321.639	-3.35
321.853	-24.86
322.066	-28.83
322.28	-14.9
322.494	-26.28
322.707	-61.5
322.921	-22.37
323.135	-6.76
323.349	-19.89
323.562	16.04
323.776	47.15
323.989	40.44
324.203	45.19
324.417	51.43
324.63	52.47
324.844	41.83
325.057	41.42
325.271	25.38
325.485	9.07
325.698	-27.94
325.912	-35.02
326.125	-6.15
326.339	-9.77
326.552	-27.67
326.766	-3.02
326.979	2.89
327.193	-6.93
327.406	19.99
327.619	49.21
327.833	22.01
328.046	22.32
328.26	19.94
328.473	8.78
328.686	8.02
328.9	19.78
329.113	20.67
329.326	34.62
329.54	22.43
329.753	31.22
329.966	43.02
330.179	25.95
330.393	16.38
330.606	33.78
330.819	19.81
331.032	0.16
331.246	12.4
331.459	-16.04
331.672	-28.9
331.885	-29.66
332.098	-29.88
332.311	6.52
332.525	39.21
332.738	27.86
332.951	28.05
333.164	25.52
333.377	18.18
333.59	-9.33
333.803	-10.62
334.016	-16.29
334.229	-4.51
334.442	-55.66
334.655	-54.04
334.868	-63.9
335.081	-51.38
335.294	-43.02
335.507	-4.67
335.72	5.2
335.933	9.21
336.146	6.88
336.359	-24.27
336.572	-21.71
336.785	-16.99
336.997	9.15
337.21	-5.04
337.423	24.7
337.636	40.92
337.849	34.51
338.062	16.24
338.274	11.28
338.487	34.06
338.7	18.93
338.913	33.73
339.125	34.38
339.338	36.56
339.551	7
339.763	-11.4
339.976	-14.36
340.189	-9.67
340.402	-17.37
340.614	-6.8
340.827	16.12
341.039	19.17
341.252	22.14
341.465	25.22
341.677	25.49
341.89	26.52
342.102	21.42
342.315	22.99
342.527	19.99
342.74	8.95
342.952	1.22
343.165	-5.89
343.377	-51.94
343.59	-27.62
343.802	-30.69
344.015	-62.77
344.227	-97.81
344.44	-49.31
344.652	-39.75
344.864	-53.69
345.077	-31.84
345.289	-20.29
345.502	-60.25
345.714	-78.76
345.926	-27.2
346.139	-38.2
346.351	-37.11
346.563	-13.25
346.775	-4.82
346.988	-21.81
347.2	-2.1
347.412	6.19
347.624	14.9
347.837	-2.27
348.049	3.94
348.261	-16.49
348.473	-13.81
348.685	-0.62
348.897	33.6
349.11	35.53
349.322	27.39
349.534	8.92
349.746	-6.61
349.958	-17.12
350.17	-11.59
350.382	-9.42
350.594	5.44
350.806	7.98
351.018	4.75
351.23	9.43
351.442	19.45
351.654	10.59
351.866	6.4
352.078	-12.39
352.29	-23.88
352.502	-34.67
352.714	-26.78
352.926	-15.55
353.138	-5.38
353.35	4.28
353.561	29.85
353.773	36.8
353.985	28.05
354.197	28.21
354.409	41.1
354.621	27.9
354.832	33.07
355.044	43.91
355.256	45.35
355.468	19.09
355.679	24.96
355.891	29.48
356.103	32.57
356.314	22.95
356.526	33
356.738	35.28
356.949	28.49
357.161	17.27
357.373	37.75
357.584	42.95
357.796	42.08
358.008	33.27
358.219	19.85
358.431	7.17
358.642	-10.18
358.854	-34.3
359.065	-15.78
359.277	12.54
359.488	-2.2
359.7	-1.88
359.911	2.77
360.123	-14.76
360.334	-34.16
360.546	-10.73
360.757	-20.42
360.969	-21.14
361.18	-2.16
361.391	12.04
361.603	4.78
361.814	1.8
362.025	21.72
362.237	25.86
362.448	18.95
362.659	14.49
362.871	21.88
363.082	-4.04
363.293	-20.14
363.504	-25.19
363.716	1.07
363.927	0.93
364.138	13.68
364.349	23.71
364.56	35.41
364.772	37.39
364.983	31.36
365.194	26.73
365.405	24.04
365.616	3.98
365.827	-3.14
366.038	7.33
366.25	3.68
366.461	2.78
366.672	16.5
366.883	-0.68
367.094	-8.98
367.305	4.27
367.516	-0.15
367.727	2.2
367.938	12.07
368.149	15.42
368.36	2.42
368.571	6.09
368.781	19.68
368.992	22.73
369.203	26.65
369.414	39.43
369.625	43.32
369.836	26.47
370.047	30.12
370.258	28.06
370.468	17.2
370.679	24.93
370.89	36.1
371.101	22.66
371.312	23.29
371.522	23.14
371.733	22.46
371.944	13.19
372.155	12.93
372.365	0.63
372.576	7.2
372.787	6.87
372.997	15.19
373.208	18.23
373.419	7.41
373.629	18.28
373.84	23.68
374.05	15.44
374.261	12.18
374.472	28.66
374.682	14.61
374.893	-4.12
375.103	-23.56
375.314	-17.15
375.524	-23.62
375.735	-13.77
375.945	1.71
376.156	18.27
376.366	18.72
376.577	23.41
376.787	21.95
376.997	19.26
377.208	17.49
377.418	19.08
377.629	10.14
377.839	8.46
378.049	7.61
378.26	-0.75
378.47	-21.08
378.68	-18.03
378.89	-9.03
379.101	-11.78
379.311	-2.47
379.521	18.37
379.732	26.55
379.942	19.55
380.152	30.22
380.362	24.74
380.572	22.01
380.783	22.96
380.993	24.9
381.203	18.04
381.413	6.49
381.623	6.39
381.833	1.48
382.043	14.08
382.253	16.32
382.463	27.02
382.674	25.72
382.884	28.29
383.094	15.6
383.304	11.82
383.514	2.55
383.724	-8.78
383.934	-6.01
384.144	-3.6
384.353	-9.16
384.563	-5.82
384.773	3.09
384.983	-0.57
385.193	-5.48
385.403	5.62
385.613	8.42
385.823	8.09
386.033	7.11
386.242	13.04
386.452	6.82
386.662	5.71
386.872	1.41
387.082	2.65
387.291	2.68
387.501	0.46
387.711	-3.32
387.921	5.38
388.13	5.49
388.34	1.73
388.55	6.1
388.759	8.79
388.969	4.8
389.179	5.54
389.388	4.72
389.598	4.83
389.807	4.39
390.017	7.23
390.227	7.11
390.436	7.97
390.646	5.5
390.855	3.56
391.065	0.8
391.274	1.72
391.484	3.54
391.693	3.83
391.903	5.1
392.112	6.11
392.322	3.22
392.531	1.4
392.74	1.45
392.95	1.71
393.159	0.04
393.369	2.01
393.578	2.19
393.787	3.17
393.997	2.12
394.206	3.57
394.415	3.05
394.625	3.13
394.834	2.88
395.043	3.72
395.252	3.72
395.462	3.77
395.671	2.3
395.88	2.3
396.089	1.54
396.298	1.22
396.508	0.9
396.717	2.15
396.926	2.09
397.135	1.8
397.344	1.9
397.553	1.51
397.762	0.98
397.971	0.93
398.181	1.54
398.39	1.97
398.599	1.92
398.808	1.89
399.017	1.25
399.226	0.84
399.435	-0.17
399.644	0.18
399.853	0.72
400.062	0.98
400.27	1.46
400.479	2.03
400.688	2.25
400.897	2.17
401.106	2.35
401.315	2.49
401.524	2.57
401.733	2.09
401.941	1.84
402.15	1.79
402.359	1.82
402.568	1.3
402.777	1.22
402.985	1.3
403.194	1.3
403.403	1.06
403.612	1.36
403.82	1.62
404.029	1.67
404.238	1.81
404.446	1.77
404.655	1.69
404.864	1.62
405.072	1.66
405.281	1.42
405.489	1.49
405.698	1.51
405.906	1.55
406.115	1.47
406.324	1.53
406.532	1.48
406.741	1.47
406.949	1.47
407.158	1.48
407.366	1.57
407.574	1.49
407.783	1.55
407.991	1.57
408.2	1.34
408.408	1.19
408.617	1.29
408.825	1.3
409.033	1.23
409.242	1.29
409.45	1.26
409.658	1.33
409.867	1.25
410.075	1.31
410.283	1.42
410.491	1.42
410.7	1.37
410.908	1.24
411.116	1.11
411.324	1.07
411.533	1.05
411.741	0.97
411.949	0.96
412.157	1.07
412.365	1.01
412.573	1.07
412.781	1.1
412.99	1.34
413.198	1.22
413.406	1.27
413.614	1.24
413.822	1.18
414.03	1.16
414.238	1.32
414.446	1.31
414.654	1.44
414.862	1.46
415.07	1.3
415.278	1.13
415.486	1.24
415.694	1.29
415.902	1.35
416.109	1.39
416.317	1.47
416.525	1.32
416.733	1.31
416.941	1.31
417.149	1.25
417.357	1.21
417.564	1.26
417.772	1.02
417.98	1.14
418.188	1.22
418.395	1.23
418.603	1.28
418.811	1.35
419.019	1.12
419.226	1.09
419.434	0.99
419.642	1.04
419.849	1.08
420.057	1.15
420.265	1.03
420.472	1.33
420.68	1.2
420.887	1.27
421.095	1.19
421.302	1.41
421.51	1.12
421.717	1.16
421.925	1
422.132	1.04
422.34	1.03
422.547	0.98
422.755	1.05
422.962	1.2
423.17	1.36
423.377	1.36
423.585	1.52
423.792	1.35
423.999	1.18
424.207	1.05
424.414	0.77
424.621	0.6
424.829	0.79
425.036	0.97
425.243	0.97
425.451	1.08
425.658	1.29
425.865	1.16
426.072	0.98
426.28	0.83
426.487	0.94
426.694	0.71
426.901	0.79
427.108	0.87
427.315	1.23
427.523	1.06
427.73	1.16
427.937	1.22
428.144	1.12
428.351	0.94
428.558	0.77
428.765	0.87
428.972	0.82
429.179	0.82
429.386	0.79
429.593	1.05
429.8	1.25
430.007	1.27
430.214	1.36
430.421	1.38
430.628	1.35
430.835	1.23
431.042	1.04
431.249	1.08
431.456	1.21
431.662	1.15
431.869	1.14
432.076	1.07
432.283	0.98
432.49	0.82
432.697	0.96
432.903	0.97
433.11	1.11
433.317	1.1
433.524	0.94
433.73	0.95
433.937	0.87
434.144	0.91
434.35	0.96
434.557	1.21
434.764	1.13
434.97	1.13
435.177	1.11
435.384	1.25
435.59	1.16
435.797	1.09
436.003	1.04
436.21	1.02
436.416	0.85
436.623	0.84
436.829	0.85
437.036	1.02
437.242	1.08
437.449	1.09
437.655	1.12
437.862	1.11
438.068	1.01
438.275	0.99
438.481	0.92
438.687	0.91
438.894	1.13
439.1	1.22
439.307	1.07
439.513	1.1
439.719	1.01
439.926	0.88
440.132	0.89
440.338	1.11
440.544	1.03
440.751	1.2
440.957	1.15
441.163	1.08
441.369	1.1
441.575	1.3
441.782	1.23
441.988	1.33
442.194	1.37
442.4	1.32
442.606	1.25
442.812	1.33
443.018	1.22
443.224	1.12
443.431	0.97
443.637	1.07
443.843	0.96
444.049	1.07
444.255	1.21
444.461	1.36
444.667	1.41
444.873	1.41
445.079	1.44
445.284	1.41
445.49	1.46
445.696	1.38
445.902	1.43
446.108	1.41
446.314	1.34
446.52	1.4
446.726	1.39
446.931	1.39
447.137	1.39
447.343	1.44
447.549	1.35
447.755	1.37
447.96	1.39
448.166	1.34
448.372	1.29
448.578	1.37
448.783	1.26
448.989	1.29
449.195	1.28
449.4	1.32
449.606	1.29
449.812	1.35
450.017	1.3
450.223	1.36
450.428	1.46
450.634	1.44
450.84	1.48
451.045	1.54
451.251	1.52
451.456	1.42
451.662	1.22
451.867	1.2
452.073	1.17
452.278	1.1
452.483	1.01
452.689	1.19
452.894	1.19
453.1	1.16
453.305	1.24
453.51	1.3
453.716	1.34
453.921	1.42
454.127	1.31
454.332	1.35
454.537	1.48
454.742	1.41
454.948	1.32
455.153	1.47
455.358	1.37
455.563	1.14
455.769	1.12
455.974	1.16
456.179	1.14
456.384	1.09
456.589	1.25
456.795	1.3
457	1.35
457.205	1.23
457.41	1.31
457.615	1.34
457.82	1.27
458.025	1.2
458.23	1.28
458.435	1.27
458.64	1.26
458.845	1.26
459.05	1.25
459.255	1.25
459.46	1.19
459.665	1.14
459.87	1.22
460.075	1.22
460.28	1.29
460.485	1.26
460.69	1.28
460.895	1.29
461.099	1.37
461.304	1.22
461.509	1.25
461.714	1.34
461.919	1.19
462.123	1.2
462.328	1.28
462.533	1.41
462.738	1.37
462.942	1.49
463.147	1.48
463.352	1.38
463.556	1.38
463.761	1.29
463.966	1.2
464.17	1.16
464.375	1.29
464.58	1.24
464.784	1.29
464.989	1.43
465.193	1.47
465.398	1.42
465.602	1.34
465.807	1.39
466.011	1.32
