Data from Ofav_PP_Phys_2AZ2_Reflection_2.txt Node
Date: Tue Aug 03 18:07:51 EDT 2021
User: Adam
Spectrometer: FLMT01687
Trigger mode: 0
Integration Time (sec): 8.750000E-1
Scans to average: 2
Electric dark correction enabled: true
Nonlinearity correction enabled: false
Boxcar width: 2
XAxis mode: Wavelengths
Number of Pixels in Spectrum: 3648
>>>>>Begin Spectral Data<<<<<
179.494	56.46
179.716	64.35
179.937	66.93
180.158	54.59
180.38	91.23
180.601	-29.63
180.823	16.78
181.044	34.39
181.265	34.33
181.486	263.68
181.708	105.98
181.929	162.91
182.15	50.49
182.372	-6.75
182.593	257.38
182.814	403.66
183.035	-309.22
183.257	50.98
183.478	76.38
183.699	-77.91
183.92	36.48
184.141	-6.89
184.363	-10.47
184.584	-162.91
184.805	-14.78
185.026	-52.35
185.247	-29.03
185.468	11.19
185.689	4.5
185.91	-16.78
186.132	-8.38
186.353	1.57
186.574	-44.52
186.795	-17.34
187.016	-20.21
187.237	-8.6
187.458	-12.44
187.679	7.07
187.9	25.48
188.121	20.17
188.342	15.78
188.563	-6.95
188.784	-18.98
189.005	-44.99
189.226	-37.54
189.447	-20.37
189.667	4.64
189.888	11.65
190.109	37.49
190.33	11.51
190.551	11.17
190.772	-31.07
190.993	-34.26
191.214	-25.23
191.434	-8.75
191.655	-13.79
191.876	13.86
192.097	36.58
192.318	31.85
192.538	29.82
192.759	20.51
192.98	21.87
193.201	-11.83
193.421	-8.64
193.642	-0.11
193.863	20.96
194.083	22.25
194.304	31.44
194.525	18.33
194.745	11.68
194.966	14.15
195.187	4.37
195.407	14.15
195.628	14.56
195.848	-4.77
196.069	4.97
196.29	-21.17
196.51	-41.65
196.731	-10.34
196.951	6.99
197.172	12.04
197.392	24.49
197.613	18.05
197.833	22.92
198.054	35.91
198.274	-4.86
198.495	-7.71
198.715	4.72
198.936	-3.09
199.156	-16.06
199.377	11.33
199.597	21.36
199.817	41.5
200.038	23.96
200.258	7.39
200.479	-53.05
200.699	-84.91
200.919	-167.06
201.14	-56.57
201.36	-20.06
201.58	-17.26
201.801	-17.5
202.021	0.55
202.241	-25.51
202.461	-17.89
202.682	5.53
202.902	9.81
203.122	30.43
203.342	32.73
203.563	-18.06
203.783	-19.84
204.003	-3
204.223	4.18
204.443	4.95
204.663	17.4
204.884	-9.03
205.104	-24.3
205.324	-49.88
205.544	-110.22
205.764	-99.55
205.984	-137.03
206.204	-81.41
206.424	-139.73
206.644	-12.55
206.864	-31.52
207.084	-6.87
207.304	-71.92
207.525	-6.54
207.745	-31.09
207.964	-15.67
208.184	24.2
208.404	62.46
208.624	34.33
208.844	31.64
209.064	35.12
209.284	24.88
209.504	-3.24
209.724	9.85
209.944	-8.57
210.164	-23.5
210.384	-14.85
210.604	0.63
210.823	-59.72
211.043	5.61
211.263	-15.84
211.483	-14.15
211.703	2.3
211.922	12.3
212.142	15.7
212.362	19.62
212.582	24.22
212.801	-2.91
213.021	-4.89
213.241	-7.12
213.461	28.53
213.68	40.02
213.9	49.34
214.12	26.35
214.339	19.38
214.559	26.34
214.779	9.42
214.998	22.6
215.218	63.42
215.438	58.5
215.657	48.34
215.877	38.55
216.096	12.37
216.316	-15.58
216.535	-48.1
216.755	-70.9
216.974	-37.31
217.194	8.49
217.413	25.9
217.633	36.67
217.852	49.8
218.072	55.61
218.291	32.86
218.511	27.04
218.73	44.36
218.95	32.53
219.169	36.94
219.389	27.82
219.608	23.05
219.827	-31.88
220.047	-21.07
220.266	-17.52
220.485	0.34
220.705	-1.02
220.924	2
221.143	-19.85
221.363	-15.27
221.582	-51.17
221.801	-98.77
222.021	-50.95
222.24	-41.76
222.459	-145.54
222.678	-84.59
222.897	-47.48
223.117	-129
223.336	-468.11
223.555	-125.59
223.774	-113.7
223.993	-124.98
224.213	-93.15
224.432	-20.39
224.651	-16.22
224.87	-4.99
225.089	3.85
225.308	-7.98
225.527	-19.42
225.746	-59.15
225.965	-65.56
226.184	-97.61
226.404	-20.65
226.623	-1.17
226.842	2.1
227.061	-14.62
227.28	3.44
227.499	14.64
227.718	-7.94
227.936	-10.48
228.155	0.14
228.374	8.93
228.593	-2.12
228.812	-33.81
229.031	-30.2
229.25	-12.24
229.469	-93.84
229.688	-152.57
229.907	-144.76
230.125	-137.28
230.344	-131.3
230.563	-93.51
230.782	-73.17
231.001	-20.13
231.22	-5.57
231.438	2.12
231.657	-1.76
231.876	17.26
232.095	7.29
232.313	-7.71
232.532	-38.77
232.751	9.55
232.969	15.8
233.188	6.38
233.407	1.05
233.625	21.35
233.844	1.63
234.063	-12.87
234.281	-10.38
234.5	-7.76
234.719	8.51
234.937	21.46
235.156	28.03
235.374	8.81
235.593	23.06
235.811	13.19
236.03	22.58
236.249	22.51
236.467	52.76
236.686	47.65
236.904	36.63
237.123	29.29
237.341	33.95
237.559	28.93
237.778	27.01
237.996	18.41
238.215	13.84
238.433	7.87
238.652	6.5
238.87	27.04
239.088	32.05
239.307	35.23
239.525	18.17
239.743	18.05
239.962	11.89
240.18	26.13
240.398	30.37
240.617	47.31
240.835	33.06
241.053	14.38
241.271	-21.3
241.49	-42.37
241.708	-32.48
241.926	-37.51
242.144	-43.44
242.363	-14.78
242.581	3.87
242.799	2.87
243.017	5.03
243.235	40.85
243.453	35.86
243.672	22.83
243.89	29.84
244.108	35.48
244.326	5.41
244.544	12.74
244.762	25.97
244.98	20.2
245.198	25.17
245.416	39.08
245.634	26.19
245.852	20.72
246.07	16.97
246.288	3.27
246.506	10.21
246.724	26.43
246.942	21.87
247.16	21.76
247.378	1.36
247.596	-4.8
247.814	-11.51
248.032	-2.48
248.25	-2.26
248.468	15.06
248.685	14.21
248.903	5.99
249.121	-1.57
249.339	-6.37
249.557	6.05
249.775	-14.54
249.992	14.86
250.21	8.8
250.428	-11.33
250.646	-39.66
250.863	-22.93
251.081	-51.5
251.299	-52.55
251.517	-3.07
251.734	24.76
251.952	36.47
252.17	10.99
252.387	-1.31
252.605	-64.94
252.823	-96.8
253.04	-83.22
253.258	-9.93
253.475	4.09
253.693	10.86
253.911	21.87
254.128	31.08
254.346	27.1
254.563	30.39
254.781	41.88
254.998	37.09
255.216	30.14
255.433	23.3
255.651	11.74
255.868	-17.63
256.086	-26.42
256.303	-0.53
256.521	13.7
256.738	30.47
256.956	38.66
257.173	38.21
257.39	14.13
257.608	-15.98
257.825	-32.51
258.043	-99.2
258.26	-59.91
258.477	-51.48
258.695	-24.18
258.912	-26.75
259.129	8.87
259.346	22.26
259.564	19.95
259.781	19.44
259.998	26.09
260.216	20.76
260.433	27.91
260.65	24.18
260.867	9.41
261.084	16.46
261.302	2.83
261.519	-9.55
261.736	8.52
261.953	25.72
262.17	26.79
262.387	25.37
262.604	32.23
262.822	30.74
263.039	25.01
263.256	22.94
263.473	30.95
263.69	25.8
263.907	22.36
264.124	-5.86
264.341	-31.35
264.558	-85.64
264.775	-58.56
264.992	-43.25
265.209	-45.46
265.426	-58.19
265.643	-40.06
265.86	-40.34
266.077	-33.89
266.294	-19.21
266.51	-3.03
266.727	32.24
266.944	18.96
267.161	14.24
267.378	8.94
267.595	4.43
267.812	-10.24
268.028	-19.55
268.245	-11.26
268.462	3.54
268.679	13.19
268.896	-0.08
269.112	20.97
269.329	-10.1
269.546	-54.57
269.763	-31.18
269.979	-16.38
270.196	-18.51
270.413	-2.75
270.629	2.92
270.846	11.82
271.063	-5.79
271.279	4.31
271.496	2.92
271.712	-3.67
271.929	-12.87
272.146	15.55
272.362	8.09
272.579	-4.83
272.795	3.75
273.012	-9.52
273.228	-0.93
273.445	-0.82
273.661	11.9
273.878	15.05
274.094	38.79
274.311	32.39
274.527	18.26
274.744	17.07
274.96	15.42
275.177	-41.57
275.393	-30.69
275.609	-24.83
275.826	-25.7
276.042	-25.47
276.259	-18.9
276.475	-45.48
276.691	-39.62
276.908	-44.87
277.124	-33.42
277.34	-31.81
277.557	-26.75
277.773	-21.08
277.989	-23.01
278.205	-26.3
278.422	-34.73
278.638	-8.09
278.854	-11.79
279.07	-5.52
279.286	-2.86
279.503	17.78
279.719	-4.48
279.935	-4.37
280.151	2.57
280.367	-10.11
280.583	-49
280.799	-3.55
281.016	-22.96
281.232	-38.74
281.448	-20.6
281.664	-7.61
281.88	-20.41
282.096	15.51
282.312	23.18
282.528	11.17
282.744	12.04
282.96	5.11
283.176	3.18
283.392	1.39
283.608	8.74
283.824	-1.65
284.04	6.59
284.256	-7.58
284.471	-11.69
284.687	-19.36
284.903	-16.59
285.119	-25.03
285.335	-20.77
285.551	-14.61
285.767	9.46
285.982	19.62
286.198	10.14
286.414	6.19
286.63	17.18
286.846	-8.46
287.061	-6.29
287.277	-10.46
287.493	-2.29
287.709	-50.71
287.924	-20.77
288.14	-22
288.356	-32.48
288.571	-27
288.787	-14.97
289.003	-33.3
289.218	-31.08
289.434	-7.36
289.65	-18.37
289.865	-9.19
290.081	-57.72
290.296	-55.86
290.512	-52.19
290.727	-68.24
290.943	-48.43
291.159	17.14
291.374	11.28
291.59	13.05
291.805	25.13
292.021	36.99
292.236	25.25
292.451	25.73
292.667	33.1
292.882	22.32
293.098	14.41
293.313	20.2
293.529	22.18
293.744	4.67
293.959	14.39
294.175	18.96
294.39	22.49
294.605	24.19
294.821	30.09
295.036	26.69
295.251	8.61
295.467	11.56
295.682	14.29
295.897	-10.93
296.112	3.26
296.328	16
296.543	15.33
296.758	9.19
296.973	24.48
297.188	17.68
297.404	28.07
297.619	15.71
297.834	13.33
298.049	11.7
298.264	25.68
298.479	-3.52
298.694	-0.41
298.909	7.44
299.125	7.51
299.34	-13.04
299.555	-6.13
299.77	-20.22
299.985	2.35
300.2	10.26
300.415	4.61
300.63	2.08
300.845	21.4
301.06	-12.66
301.275	-51.97
301.49	-1.32
301.704	17.32
301.919	23.87
302.134	34.67
302.349	47.72
302.564	51.32
302.779	33.93
302.994	25.23
303.209	12.64
303.423	-7.79
303.638	-13.02
303.853	-7.55
304.068	-3.2
304.283	27
304.497	44.43
304.712	32.92
304.927	37.71
305.142	41.53
305.356	21.59
305.571	11.51
305.786	9.95
306	9.01
306.215	-14.96
306.43	8.67
306.644	5.85
306.859	20.63
307.074	22.51
307.288	35.06
307.503	19.42
307.717	10.14
307.932	-5.98
308.147	-16.06
308.361	-12.22
308.576	-19.5
308.79	5.51
309.005	19.1
309.219	22.24
309.434	8.86
309.648	10.15
309.863	-6.76
310.077	-15.41
310.292	-7.07
310.506	-0.79
310.72	8
310.935	7.12
311.149	0.86
311.364	-22.71
311.578	-28.15
311.792	-27.34
312.007	-47.9
312.221	-25.6
312.435	-3.51
312.649	8.51
312.864	29.28
313.078	38.41
313.292	32.25
313.507	37.47
313.721	29.56
313.935	8.34
314.149	0.38
314.363	0.65
314.578	-5.31
314.792	6.46
315.006	-6.37
315.22	-4.95
315.434	-11.43
315.648	-41.58
315.862	-8.63
316.077	-1.03
316.291	8.17
316.505	11.51
316.719	9.49
316.933	3.81
317.147	3.46
317.361	4.06
317.575	0.47
317.789	10.13
318.003	17.75
318.217	1.13
318.431	-1.03
318.645	-17.47
318.859	-7.97
319.073	-12.91
319.287	15.24
319.5	29.46
319.714	44.03
319.928	51.37
320.142	39.72
320.356	23.72
320.57	3.49
320.784	-3.77
320.997	-16.05
321.211	2.62
321.425	15.49
321.639	16.07
321.853	-3.94
322.066	-16.5
322.28	-17.45
322.494	-20.97
322.707	-44.69
322.921	-17.44
323.135	-14.09
323.349	-3.55
323.562	-0.34
323.776	19.49
323.989	26.07
324.203	36.28
324.417	33.51
324.63	33.9
324.844	27.63
325.057	26.07
325.271	13.51
325.485	3.94
325.698	-15.58
325.912	-21.98
326.125	-12.76
326.339	-21.69
326.552	-30.65
326.766	-14.28
326.979	-9.12
327.193	-8.72
327.406	-5.27
327.619	1.72
327.833	-16.27
328.046	2.39
328.26	-1.61
328.473	6
328.686	22.79
328.9	30.87
329.113	32.97
329.326	31.01
329.54	30.74
329.753	29.33
329.966	29.3
330.179	-9.73
330.393	-7.66
330.606	11.78
330.819	17.01
331.032	12.54
331.246	24.11
331.459	13.74
331.672	-14.81
331.885	-35.09
332.098	-21.07
332.311	22.77
332.525	55.55
332.738	51.33
332.951	44.66
333.164	35.42
333.377	29.96
333.59	-5.09
333.803	-2.5
334.016	2.12
334.229	6.52
334.442	-38.67
334.655	-24.84
334.868	-33.53
335.081	-36.95
335.294	-24.43
335.507	2.73
335.72	5.18
335.933	19.18
336.146	19.08
336.359	14.2
336.572	14.91
336.785	11.79
336.997	11.77
337.21	-0.49
337.423	7.25
337.636	22.34
337.849	16.27
338.062	19.05
338.274	24.92
338.487	30.09
338.7	26.04
338.913	42.52
339.125	38.24
339.338	39.22
339.551	27.52
339.763	19
339.976	8.25
340.189	5.76
340.402	-1.83
340.614	-3.1
340.827	10.81
341.039	3.9
341.252	12.7
341.465	19.45
341.677	10.73
341.89	18.53
342.102	26.21
342.315	22.79
342.527	18.5
342.74	28.35
342.952	15.72
343.165	17.51
343.377	3.59
343.59	10.17
343.802	6.23
344.015	-22.71
344.227	-26.11
344.44	3.39
344.652	22.45
344.864	10.22
345.077	9.31
345.289	-6.03
345.502	-39.18
345.714	-77.63
345.926	-48.78
346.139	-28.25
346.351	-12.28
346.563	-39.01
346.775	-20.16
346.988	-26.84
347.2	-6.12
347.412	-17.23
347.624	4.33
347.837	1.89
348.049	6.26
348.261	-11.36
348.473	-2.12
348.685	7.8
348.897	20.8
349.11	14.24
349.322	6.84
349.534	0.77
349.746	1.33
349.958	-7.39
350.17	-0.58
350.382	-10.62
350.594	1.23
350.806	-3.19
351.018	-3.6
351.23	-1.58
351.442	9.68
351.654	-10.29
351.866	-6.32
352.078	-7.38
352.29	-14.75
352.502	-18.66
352.714	-0.21
352.926	-6.26
353.138	-17.3
353.35	-10.8
353.561	9.04
353.773	4.73
353.985	11.29
354.197	21.63
354.409	26.29
354.621	24.18
354.832	33.31
355.044	30.58
355.256	30.66
355.468	21.39
355.679	16.8
355.891	22.66
356.103	26.92
356.314	13.84
356.526	19.97
356.738	26.09
356.949	22.05
357.161	-2.09
357.373	14.64
357.584	21.66
357.796	18.02
358.008	-0.45
358.219	9.44
358.431	16.25
358.642	20.07
358.854	5.04
359.065	8.81
359.277	25.65
359.488	17.13
359.7	10.45
359.911	9.37
360.123	16.68
360.334	11.54
360.546	-1.42
360.757	-1.68
360.969	-3.08
361.18	9.7
361.391	18.32
361.603	26.31
361.814	14.96
362.025	23.68
362.237	9.1
362.448	3.25
362.659	-1.06
362.871	-1.32
363.082	-10.15
363.293	-10.51
363.504	-9.47
363.716	15.05
363.927	21.49
364.138	20.02
364.349	20.38
364.56	11.85
364.772	14.92
364.983	-2.94
365.194	3.03
365.405	3.54
365.616	6.91
365.827	-8.02
366.038	8.24
366.25	7.23
366.461	27.74
366.672	11.22
366.883	11.3
367.094	9.86
367.305	7.15
367.516	-12.44
367.727	2.88
367.938	7.83
368.149	6.05
368.36	-6.84
368.571	-3.26
368.781	3.34
368.992	4.56
369.203	10.14
369.414	17.52
369.625	7.27
369.836	0.37
370.047	-8.7
370.258	-25.89
370.468	-16.38
370.679	0.9
370.89	10.49
371.101	13.31
371.312	24.23
371.522	17.13
371.733	14.41
371.944	10.24
372.155	9.64
372.365	0.22
372.576	15.25
372.787	9.37
372.997	8.98
373.208	6.44
373.419	-1.93
373.629	-11.1
373.84	-2.86
374.05	-7.5
374.261	-9.42
374.472	2.96
374.682	0.08
374.893	-0.46
375.103	-22.17
375.314	-20.47
375.524	-12.26
375.735	3.78
375.945	6.06
376.156	13.85
376.366	14.26
376.577	15.02
376.787	7.17
376.997	-3.19
377.208	7.2
377.418	5.43
377.629	0.54
377.839	-7.88
378.049	-6.38
378.26	-8.45
378.47	-15.51
378.68	-15.99
378.89	-7.73
379.101	-0.14
379.311	4.09
379.521	16.79
379.732	18.23
379.942	16.14
380.152	19.35
380.362	15.67
380.572	20.52
380.783	29.14
380.993	23.94
381.203	20.62
381.413	11.81
381.623	8.81
381.833	4.11
382.043	17.74
382.253	11.95
382.463	16.59
382.674	13.66
382.884	5.52
383.094	-12.53
383.304	-5.46
383.514	-1.31
383.724	-8.95
383.934	-4.89
384.144	6.9
384.353	5.85
384.563	4.82
384.773	11.24
384.983	8.96
385.193	3.08
385.403	5.97
385.613	3.95
385.823	7.84
386.033	8.38
386.242	11.22
386.452	10.9
386.662	10.42
386.872	3.19
387.082	1.25
387.291	0.6
387.501	-2.41
387.711	-0.88
387.921	4.87
388.13	7.44
388.34	3.86
388.55	10.26
388.759	10.81
388.969	8.96
389.179	6.57
389.388	7.35
389.598	4.74
389.807	3.27
390.017	4.21
390.227	4.65
390.436	4.85
390.646	2.86
390.855	2.52
391.065	2.36
391.274	3.18
391.484	4.93
391.693	5.49
391.903	5.11
392.112	4.79
392.322	4.02
392.531	2.96
392.74	2.49
392.95	3.32
393.159	2.57
393.369	4.26
393.578	3.57
393.787	4.43
393.997	4
394.206	4.92
394.415	3.31
394.625	4.03
394.834	3.98
395.043	4.28
395.252	3.98
395.462	4.66
395.671	3.39
395.88	3.76
396.089	3.6
396.298	3.65
396.508	3.56
396.717	4.14
396.926	3.55
397.135	3.01
397.344	2.71
397.553	2.53
397.762	2.17
397.971	2.2
398.181	2.52
398.39	2.99
398.599	2.94
398.808	3.3
399.017	3.25
399.226	2.95
399.435	2.5
399.644	2.53
399.853	2.39
400.062	2.26
400.27	2.58
400.479	2.6
400.688	2.79
400.897	3.19
401.106	3.35
401.315	3.44
401.524	3.73
401.733	3.46
401.941	3.2
402.15	3.23
402.359	3.32
402.568	3.07
402.777	3.05
402.985	3.18
403.194	3.17
403.403	2.82
403.612	2.77
403.82	3.02
404.029	2.8
404.238	2.86
404.446	2.92
404.655	2.88
404.864	2.7
405.072	2.9
405.281	2.82
405.489	2.87
405.698	3
405.906	3
406.115	2.84
406.324	2.87
406.532	2.86
406.741	2.83
406.949	2.78
407.158	2.94
407.366	2.94
407.574	2.85
407.783	2.82
407.991	2.88
408.2	2.69
408.408	2.59
408.617	2.8
408.825	2.93
409.033	2.99
409.242	3.03
409.45	3.08
409.658	2.96
409.867	2.81
410.075	2.81
410.283	2.79
410.491	2.76
410.7	2.82
410.908	2.81
411.116	2.7
411.324	2.77
411.533	2.66
411.741	2.58
411.949	2.61
412.157	2.7
412.365	2.64
412.573	2.78
412.781	2.84
412.99	2.91
413.198	2.84
413.406	2.95
413.614	2.78
413.822	2.89
414.03	2.87
414.238	2.83
414.446	2.59
414.654	2.72
414.862	2.54
415.07	2.35
415.278	2.34
415.486	2.54
415.694	2.61
415.902	2.57
416.109	2.73
416.317	2.77
416.525	2.62
416.733	2.54
416.941	2.6
417.149	2.55
417.357	2.57
417.564	2.6
417.772	2.5
417.98	2.58
418.188	2.63
418.395	2.5
418.603	2.59
418.811	2.78
419.019	2.62
419.226	2.65
419.434	2.69
419.642	2.58
419.849	2.46
420.057	2.5
420.265	2.34
420.472	2.49
420.68	2.47
420.887	2.51
421.095	2.39
421.302	2.55
421.51	2.18
421.717	2.23
421.925	2.11
422.132	2.15
422.34	2.03
422.547	2.18
422.755	2.14
422.962	2.32
423.17	2.41
423.377	2.49
423.585	2.62
423.792	2.61
423.999	2.4
424.207	2.35
424.414	2.13
424.621	1.92
424.829	1.98
425.036	2.23
425.243	2.2
425.451	2.19
425.658	2.28
425.865	2.19
426.072	2
426.28	2.06
426.487	2.21
426.694	2.12
426.901	2.16
427.108	2.25
427.315	2.4
427.523	2.24
427.73	2.25
427.937	2.33
428.144	2.23
428.351	2.06
428.558	2.08
428.765	2.16
428.972	2.24
429.179	2.17
429.386	2.13
429.593	2.29
429.8	2.42
430.007	2.38
430.214	2.58
430.421	2.61
430.628	2.41
430.835	2.33
431.042	2.26
431.249	2.15
431.456	2.15
431.662	2.27
431.869	2.35
432.076	2.28
432.283	2.32
432.49	2.37
432.697	2.37
432.903	2.35
433.11	2.43
433.317	2.23
433.524	2.27
433.73	2.39
433.937	2.33
434.144	2.34
434.35	2.58
434.557	2.55
434.764	2.39
434.97	2.51
435.177	2.61
435.384	2.58
435.59	2.59
435.797	2.65
436.003	2.43
436.21	2.34
436.416	2.36
436.623	2.3
436.829	2.31
437.036	2.46
437.242	2.48
437.449	2.44
437.655	2.58
437.862	2.63
438.068	2.54
438.275	2.45
438.481	2.39
438.687	2.36
438.894	2.43
439.1	2.55
439.307	2.48
439.513	2.51
439.719	2.41
439.926	2.31
440.132	2.29
440.338	2.52
440.544	2.47
440.751	2.53
440.957	2.53
441.163	2.51
441.369	2.49
441.575	2.67
441.782	2.71
441.988	2.8
442.194	2.79
442.4	2.77
442.606	2.72
442.812	2.71
443.018	2.58
443.224	2.63
443.431	2.57
443.637	2.7
443.843	2.67
444.049	2.86
444.255	2.99
444.461	3.07
444.667	3.03
444.873	2.99
445.079	2.94
445.284	2.82
445.49	2.93
445.696	2.78
445.902	2.8
446.108	2.78
446.314	2.81
446.52	2.83
446.726	2.98
446.931	3.03
447.137	2.97
447.343	2.96
447.549	2.84
447.755	2.8
447.96	2.8
448.166	2.77
448.372	2.75
448.578	2.79
448.783	2.76
448.989	2.78
449.195	2.85
449.4	2.87
449.606	2.8
449.812	2.86
450.017	2.87
450.223	2.93
450.428	3.06
450.634	3.1
450.84	3.09
451.045	3.21
451.251	3.26
451.456	3.14
451.662	3.12
451.867	3.07
452.073	3.01
452.278	2.8
452.483	2.8
452.689	2.89
452.894	2.92
453.1	2.81
453.305	2.99
453.51	3.01
453.716	2.96
453.921	3.01
454.127	3.07
454.332	3.01
454.537	2.99
454.742	2.99
454.948	2.97
455.153	2.97
455.358	2.91
455.563	2.85
455.769	2.86
455.974	2.91
456.179	2.87
456.384	2.89
456.589	2.99
456.795	2.91
457	2.85
457.205	2.81
457.41	2.84
457.615	2.81
457.82	2.84
458.025	2.91
458.23	2.99
458.435	2.98
458.64	3.03
458.845	3.11
459.05	2.99
459.255	3.01
459.46	3.07
459.665	2.99
459.87	2.97
460.075	3.05
460.28	3
460.485	3.02
460.69	3.06
460.895	3.08
461.099	3.09
461.304	3.01
461.509	2.96
461.714	3.04
461.919	2.98
462.123	2.94
462.328	3.08
462.533	3.15
462.738	3.12
462.942	3.17
463.147	3.27
463.352	3.22
463.556	3.18
463.761	3.19
463.966	3.15
464.17	3.04
464.375	3.18
464.58	3.17
464.784	3.09
464.989	3.18
465.193	3.24
465.398	3.16
465.602	3.17
465.807	3.28
466.011	3.33
466.216	3.22
466.42	3.24
466.625	3.38
466.829	3.31
