Data from Ofav_PP_Phys_3JQ1_Reflection_1.txt Node
Date: Tue Aug 03 18:10:11 EDT 2021
User: Adam
Spectrometer: FLMT01687
Trigger mode: 0
Integration Time (sec): 8.750000E-1
Scans to average: 2
Electric dark correction enabled: true
Nonlinearity correction enabled: false
Boxcar width: 2
XAxis mode: Wavelengths
Number of Pixels in Spectrum: 3648
>>>>>Begin Spectral Data<<<<<
179.494	178.98
179.716	171.29
179.937	202.11
180.158	323.88
180.38	1238.6
180.601	190.25
180.823	304.19
181.044	139.87
181.265	174.45
181.486	-40.8
181.708	74.37
181.929	239.6
182.15	136.68
182.372	448.95
182.593	-188.19
182.814	-207.33
183.035	550.35
183.257	909.8
183.478	6.18
183.699	-205.62
183.92	-14.26
184.141	-63.22
184.363	-44.31
184.584	-138
184.805	-22.45
185.026	-60.48
185.247	-27.65
185.468	-3.67
185.689	4.17
185.91	17.36
186.132	29.73
186.353	21.76
186.574	-9.06
186.795	32.59
187.016	20.3
187.237	38.34
187.458	61.45
187.679	62.21
187.9	53.11
188.121	53.18
188.342	45.69
188.563	24.63
188.784	20.43
189.005	-20.9
189.226	-27.61
189.447	-2.36
189.667	-12.7
189.888	2.58
190.109	45.01
190.33	52.03
190.551	53.62
190.772	76.98
190.993	31.75
191.214	31.54
191.434	25.01
191.655	3.61
191.876	0.36
192.097	17.87
192.318	16.46
192.538	21.75
192.759	20.9
192.98	14.35
193.201	-22.7
193.421	4.7
193.642	-12.38
193.863	14.13
194.083	37.53
194.304	100.32
194.525	78.22
194.745	78.25
194.966	76.97
195.187	102.93
195.407	87.74
195.628	110.09
195.848	128.08
196.069	130.43
196.29	123.83
196.51	112.25
196.731	110.96
196.951	57.84
197.172	65.63
197.392	82.84
197.613	62.54
197.833	14.89
198.054	55.71
198.274	51.61
198.495	24.21
198.715	63.79
198.936	100.65
199.156	83.21
199.377	75.99
199.597	68.62
199.817	44.15
200.038	37.67
200.258	65.71
200.479	21.36
200.699	22.11
200.919	-14.34
201.14	6.46
201.36	0.16
201.58	15.73
201.801	3.72
202.021	18.38
202.241	6.47
202.461	9.39
202.682	4.02
202.902	24.35
203.122	38.31
203.342	39.36
203.563	0.65
203.783	21.38
204.003	31.55
204.223	22.8
204.443	23.6
204.663	36.24
204.884	43.69
205.104	35.95
205.324	44.15
205.544	56.23
205.764	47.86
205.984	-7.39
206.204	-10.45
206.424	-78.47
206.644	-7.97
206.864	-15.02
207.084	16.58
207.304	15.61
207.525	54.43
207.745	43.86
207.964	42.42
208.184	37.53
208.404	50.1
208.624	37.67
208.844	28.56
209.064	34.51
209.284	57.91
209.504	45.35
209.724	46.23
209.944	58.19
210.164	52.94
210.384	54.16
210.604	50.72
210.823	72.33
211.043	59.91
211.263	106.64
211.483	85.39
211.703	81.72
211.922	80.01
212.142	76.04
212.362	57.47
212.582	45.82
212.801	36.19
213.021	35.57
213.241	31.79
213.461	32.33
213.68	49.48
213.9	47.53
214.12	19.67
214.339	19.38
214.559	36.51
214.779	-7.48
214.998	10.05
215.218	43.72
215.438	50.08
215.657	45.86
215.877	55.05
216.096	46.07
216.316	37.1
216.535	42.62
216.755	6.05
216.974	12.92
217.194	38.44
217.413	63.86
217.633	57.93
217.852	75.76
218.072	88.17
218.291	94.8
218.511	62.04
218.73	71.09
218.95	63.98
219.169	50.75
219.389	37.98
219.608	37.47
219.827	14.33
220.047	2.26
220.266	23.71
220.485	30.86
220.705	35.78
220.924	43.48
221.143	49.79
221.363	47.1
221.582	15.6
221.801	13.13
222.021	8.7
222.24	0.17
222.459	-17.35
222.678	24.37
222.897	43.38
223.117	33.59
223.336	0.96
223.555	31.26
223.774	43.39
223.993	32.79
224.213	22.62
224.432	47.1
224.651	57.59
224.87	53.62
225.089	29.86
225.308	22.67
225.527	-7.18
225.746	-46.21
225.965	-35.61
226.184	-71.25
226.404	20.74
226.623	44.59
226.842	37.14
227.061	-0.07
227.28	25.93
227.499	18.46
227.718	15.11
227.936	31.98
228.155	54.14
228.374	50.92
228.593	45.13
228.812	44.96
229.031	24.62
229.25	30.67
229.469	1.4
229.688	-21.94
229.907	-94.91
230.125	-102.39
230.344	-42.41
230.563	-9.93
230.782	-6.5
231.001	47.01
231.22	45.95
231.438	36.59
231.657	36.81
231.876	45.58
232.095	34.25
232.313	23.68
232.532	9.79
232.751	21.72
232.969	23.63
233.188	1.67
233.407	6.49
233.625	39.83
233.844	7.78
234.063	9.57
234.281	2.49
234.5	22.27
234.719	7.85
234.937	32.38
235.156	15.02
235.374	22.03
235.593	20.94
235.811	14.05
236.03	28.1
236.249	47.27
236.467	36.28
236.686	26.49
236.904	36.44
237.123	39.69
237.341	42.94
237.559	51.73
237.778	47.08
237.996	28.94
238.215	20.26
238.433	18.38
238.652	24.74
238.87	46.19
239.088	50.89
239.307	43.98
239.525	42.11
239.743	41.98
239.962	37
240.18	39.05
240.398	49.98
240.617	49.36
240.835	38.55
241.053	35.74
241.271	-2.99
241.49	-18.79
241.708	-9
241.926	-3.05
242.144	-4.71
242.363	24.18
242.581	35.13
242.799	24.03
243.017	23.58
243.235	54.19
243.453	62.9
243.672	61.16
243.89	78.04
244.108	73.6
244.326	34.86
244.544	20.86
244.762	26.99
244.98	-8.04
245.198	6.51
245.416	27.45
245.634	38.46
245.852	27.95
246.07	30.81
246.288	14.77
246.506	22.38
246.724	16.23
246.942	17.05
247.16	32.3
247.378	15.9
247.596	14.32
247.814	24.18
248.032	24.49
248.25	12.1
248.468	18.24
248.685	16.86
248.903	-19.38
249.121	-25.42
249.339	-9.75
249.557	9.39
249.775	0.84
249.992	44.7
250.21	56.09
250.428	63.96
250.646	49.05
250.863	53.28
251.081	33.62
251.299	20.95
251.517	11.5
251.734	17.06
251.952	20.06
252.17	-8.2
252.387	-40.21
252.605	-63.65
252.823	-26.67
253.04	-43.22
253.258	8.4
253.475	33.06
253.693	37.29
253.911	47.93
254.128	52.02
254.346	43.59
254.563	31.6
254.781	37.52
254.998	22.88
255.216	24.1
255.433	32.32
255.651	30.4
255.868	-2.92
256.086	-14.74
256.303	-3.68
256.521	8.39
256.738	11.98
256.956	42.31
257.173	60.65
257.39	52.76
257.608	39.92
257.825	31.82
258.043	-33.64
258.26	-7.65
258.477	-0.3
258.695	3.63
258.912	8.89
259.129	39.69
259.346	47.87
259.564	50.08
259.781	47.95
259.998	51.27
260.216	42.53
260.433	29.57
260.65	21.28
260.867	30.49
261.084	24.95
261.302	27.73
261.519	16.38
261.736	24.11
261.953	23.41
262.17	1.15
262.387	-1.16
262.604	8.19
262.822	21.94
263.039	25.88
263.256	46.74
263.473	51.12
263.69	59.33
263.907	40.78
264.124	38.51
264.341	14.71
264.558	0.55
264.775	-2.67
264.992	8.95
265.209	-15.29
265.426	-15.25
265.643	12.93
265.86	23
266.077	43.68
266.294	53.96
266.51	69.26
266.727	71.27
266.944	74.25
267.161	65.88
267.378	57.37
267.595	40.61
267.812	35.77
268.028	20.09
268.245	19.99
268.462	32.76
268.679	55.71
268.896	30.43
269.112	40.38
269.329	35.09
269.546	1.76
269.763	-2.84
269.979	13.83
270.196	16.46
270.413	12.32
270.629	27.72
270.846	34.8
271.063	39.87
271.279	39.25
271.496	46.39
271.712	21.26
271.929	16.81
272.146	35.66
272.362	36.66
272.579	21.94
272.795	35.18
273.012	45.17
273.228	36.73
273.445	32.74
273.661	48.62
273.878	48.18
274.094	28.89
274.311	27.73
274.527	19.53
274.744	9.52
274.96	12.32
275.177	-11.72
275.393	-23.18
275.609	-12.88
275.826	-1.38
276.042	-5.65
276.259	9.45
276.475	-10.63
276.691	-26.51
276.908	-26.71
277.124	-11.72
277.34	-21.05
277.557	3.01
277.773	25.37
277.989	21.58
278.205	20.97
278.422	44.86
278.638	30.86
278.854	16.4
279.07	17.27
279.286	20.8
279.503	24.69
279.719	33.26
279.935	39.41
280.151	41.36
280.367	35.31
280.583	19.4
280.799	26.05
281.016	19.74
281.232	4.63
281.448	-10.71
281.664	-5.35
281.88	6.25
282.096	30.52
282.312	21.71
282.528	34.04
282.744	17.61
282.96	12.61
283.176	11.82
283.392	34.37
283.608	33.72
283.824	47.86
284.04	52.3
284.256	45.28
284.471	42.37
284.687	38.43
284.903	37.45
285.119	20.92
285.335	2.85
285.551	-3.13
285.767	13.94
285.982	9.88
286.198	11.18
286.414	3.73
286.63	-0.39
286.846	-12.18
287.061	-13.63
287.277	-21.95
287.493	7.01
287.709	-1.75
287.924	20.09
288.14	7.85
288.356	-0.68
288.571	1.06
288.787	18.07
289.003	11.68
289.218	19.6
289.434	40.09
289.65	33.51
289.865	22.83
290.081	-1.55
290.296	-3.46
290.512	-10.23
290.727	-2.47
290.943	3.63
291.159	21.47
291.374	16.16
291.59	35.75
291.805	32.38
292.021	47.76
292.236	48.96
292.451	56.19
292.667	49.22
292.882	45.41
293.098	26.88
293.313	38.03
293.529	30.62
293.744	13.44
293.959	29.77
294.175	39.81
294.39	41.72
294.605	35.16
294.821	44.02
295.036	41.01
295.251	34.24
295.467	16.96
295.682	32.94
295.897	22.43
296.112	29.61
296.328	27.26
296.543	42.78
296.758	32.21
296.973	28.09
297.188	13.58
297.404	26.87
297.619	10.4
297.834	17.68
298.049	22.48
298.264	36.1
298.479	1.86
298.694	0.64
298.909	8.91
299.125	18.11
299.34	9.39
299.555	37.06
299.77	19.45
299.985	26.89
300.2	37.22
300.415	45.63
300.63	24.11
300.845	51.29
301.06	44.66
301.275	18.79
301.49	45.81
301.704	50.81
301.919	58.8
302.134	46.92
302.349	50.47
302.564	43.07
302.779	41.68
302.994	21.08
303.209	19.05
303.423	11.3
303.638	7.42
303.853	15.09
304.068	33.03
304.283	52.87
304.497	65.02
304.712	83.04
304.927	80.55
305.142	70.17
305.356	52.23
305.571	43.79
305.786	29.97
306	44.56
306.215	42.74
306.43	62.54
306.644	39.21
306.859	45.47
307.074	36.3
307.288	45.98
307.503	34.74
307.717	35.87
307.932	16.81
308.147	18.16
308.361	0.87
308.576	-14.64
308.79	11.1
309.005	21.52
309.219	12.35
309.434	15.82
309.648	21.67
309.863	-17.02
310.077	-21.94
310.292	4.83
310.506	10.6
310.72	30.38
310.935	33.08
311.149	25.46
311.364	-4.44
311.578	-1.36
311.792	-3.8
312.007	1.51
312.221	22.02
312.435	16.78
312.649	18.73
312.864	-36.24
313.078	-17
313.292	-9.47
313.507	9.98
313.721	1.99
313.935	33.89
314.149	49.75
314.363	32.15
314.578	18.47
314.792	7.73
315.006	12.31
315.22	-7.16
315.434	-10.25
315.648	-58.77
315.862	-22.75
316.077	-16.46
316.291	8.9
316.505	8.18
316.719	12.72
316.933	20.11
317.147	3.11
317.361	1.7
317.575	12.17
317.789	33.25
318.003	36.14
318.217	50.78
318.431	42.75
318.645	31.47
318.859	31.72
319.073	18.89
319.287	30.9
319.5	37.06
319.714	51.31
319.928	58.54
320.142	55.89
320.356	39.69
320.57	38.29
320.784	16.21
320.997	-0.42
321.211	11.96
321.425	16.97
321.639	5.16
321.853	-1.81
322.066	10.95
322.28	20.87
322.494	29.53
322.707	12.06
322.921	34.06
323.135	20.88
323.349	6.28
323.562	17.05
323.776	40.89
323.989	37.45
324.203	49.55
324.417	54.5
324.63	64.69
324.844	59.8
325.057	52.9
325.271	27.7
325.485	32.15
325.698	-7.38
325.912	-27.59
326.125	5.81
326.339	16.79
326.552	1.96
326.766	27.07
326.979	22.29
327.193	24.52
327.406	34.17
327.619	45.81
327.833	19.05
328.046	32.55
328.26	25.83
328.473	15
328.686	29.87
328.9	32.39
329.113	36.49
329.326	27.83
329.54	33.31
329.753	17.8
329.966	46.49
330.179	25.51
330.393	20.65
330.606	20.57
330.819	21.78
331.032	25.53
331.246	38.92
331.459	49.25
331.672	40.84
331.885	56.96
332.098	19.89
332.311	38.66
332.525	42.36
332.738	40.86
332.951	39.33
333.164	42.61
333.377	25.57
333.59	10.02
333.803	10.7
334.016	4.14
334.229	-0.35
334.442	-21.87
334.655	-16.11
334.868	-24.41
335.081	-35.55
335.294	-25.18
335.507	9.54
335.72	11.42
335.933	16.6
336.146	13.9
336.359	9.12
336.572	-2.63
336.785	-1.52
336.997	13.53
337.21	3.48
337.423	9.23
337.636	30.24
337.849	17.3
338.062	-3.85
338.274	1.97
338.487	24.09
338.7	20.46
338.913	36.53
339.125	42.48
339.338	54.39
339.551	45.68
339.763	27.01
339.976	18.52
340.189	16.63
340.402	3.95
340.614	-7.51
340.827	22.84
341.039	30.59
341.252	39.24
341.465	39.25
341.677	38.83
341.89	29.46
342.102	19.22
342.315	13.41
342.527	32.82
342.74	35.86
342.952	38.36
343.165	47.88
343.377	20.24
343.59	4.53
343.802	1.76
344.015	-22.71
344.227	-32.94
344.44	19.69
344.652	31.25
344.864	2.08
345.077	20.93
345.289	30.68
345.502	-11.51
345.714	-35.63
345.926	14.52
346.139	-8.02
346.351	-11.62
346.563	30.98
346.775	43.38
346.988	21.11
347.2	33.79
347.412	39.37
347.624	30.34
347.837	21.34
348.049	32.23
348.261	27.69
348.473	12.68
348.685	-0.46
348.897	17.08
349.11	2.69
349.322	-8.13
349.534	-0.88
349.746	13.57
349.958	11.96
350.17	16.16
350.382	16.21
350.594	15.39
350.806	3.42
351.018	-6.79
351.23	-6.87
351.442	15.99
351.654	1.31
351.866	4.77
352.078	15.41
352.29	38.14
352.502	14.89
352.714	21.03
352.926	28.33
353.138	19.28
353.35	12.46
353.561	36.72
353.773	32.5
353.985	28.93
354.197	29.43
354.409	31.76
354.621	31.58
354.832	50.99
355.044	53.31
355.256	52.73
355.468	38.02
355.679	21.37
355.891	24.2
356.103	23.45
356.314	25.91
356.526	34.48
356.738	34.46
356.949	33.48
357.161	26.75
357.373	23.19
357.584	29.69
357.796	29.33
358.008	17.93
358.219	24.04
358.431	28.24
358.642	30.58
358.854	25.06
359.065	28.82
359.277	36.35
359.488	21.8
359.7	15.55
359.911	28.35
360.123	28.4
360.334	19.83
360.546	34.44
360.757	40.7
360.969	25.01
361.18	14.57
361.391	22.51
361.603	16.43
361.814	6.87
362.025	21.95
362.237	36.79
362.448	36.52
362.659	27.33
362.871	33.51
363.082	17.46
363.293	1.03
363.504	1.28
363.716	21.93
363.927	18.77
364.138	25.06
364.349	32.36
364.56	33.27
364.772	35.98
364.983	23.9
365.194	16.68
365.405	15.87
365.616	5.61
365.827	5.75
366.038	11.74
366.25	17.52
366.461	26.34
366.672	23.54
366.883	5.3
367.094	7.94
367.305	15.86
367.516	4.43
367.727	15.84
367.938	26.43
368.149	25.2
368.36	9.47
368.571	12.48
368.781	17.65
368.992	17.56
369.203	41.91
369.414	49.77
369.625	43.43
369.836	45.39
370.047	43.5
370.258	29.97
370.468	31.11
370.679	44.02
370.89	35.79
371.101	39.9
371.312	44.31
371.522	41.58
371.733	36.65
371.944	35.01
372.155	34.44
372.365	31.52
372.576	42.95
372.787	36.22
372.997	36.36
373.208	34.87
373.419	27.14
373.629	13.12
373.84	22.25
374.05	17.85
374.261	8.05
374.472	20.4
374.682	20.17
374.893	16.22
375.103	13.75
375.314	33.53
375.524	32
375.735	38.66
375.945	33.89
376.156	32.36
376.366	22.16
376.577	19.43
376.787	20.04
376.997	24.82
377.208	27.62
377.418	30.34
377.629	25.7
377.839	26.8
378.049	24.51
378.26	22.38
378.47	25.18
378.68	24.63
378.89	19.75
379.101	19.61
379.311	22.25
379.521	26.15
379.732	23.84
379.942	19.74
380.152	24.58
380.362	30.73
380.572	22.26
380.783	31.8
380.993	37.14
381.203	33.07
381.413	25.4
381.623	34.41
381.833	32.85
382.043	37.33
382.253	37.97
382.463	44.03
382.674	34.94
382.884	27.94
383.094	17.57
383.304	17.49
383.514	8.06
383.724	5.43
383.934	10.28
384.144	12.51
384.353	4.59
384.563	4.33
384.773	5.98
384.983	2.9
385.193	-1.41
385.403	8.37
385.613	13.76
385.823	15.45
386.033	15.4
386.242	18.67
386.452	20.24
386.662	18.93
386.872	15.97
387.082	10.81
387.291	9.05
387.501	2.21
387.711	-1.61
387.921	5.14
388.13	10.92
388.34	10.14
388.55	14.01
388.759	15.5
388.969	12.41
389.179	12.44
389.388	10.91
389.598	10.59
389.807	10
390.017	11.93
390.227	9.97
390.436	12.28
390.646	9.5
390.855	8.68
391.065	6.22
391.274	7.61
391.484	8.11
391.693	9.84
391.903	10.53
392.112	11.3
392.322	11.04
392.531	10.13
392.74	8.71
392.95	8.69
393.159	7.54
393.369	7.39
393.578	7
393.787	9.01
393.997	8.79
394.206	10.37
394.415	9.67
394.625	9.91
394.834	9.25
395.043	9.71
395.252	8.99
395.462	9.02
395.671	8.2
395.88	7.68
396.089	7.48
396.298	7.76
396.508	7.8
396.717	8.24
396.926	8.37
397.135	7.66
397.344	7.41
397.553	7.16
397.762	6.77
397.971	6.8
398.181	7.42
398.39	8.1
398.599	7.77
398.808	8.31
399.017	7.7
399.226	6.76
399.435	5.68
399.644	6.04
399.853	6.05
400.062	6.28
400.27	6.81
400.479	7.18
400.688	7.32
400.897	7.23
401.106	7.25
401.315	7.59
401.524	7.83
401.733	7.47
401.941	7.41
402.15	7.59
402.359	7.38
402.568	6.98
402.777	7
402.985	7.06
403.194	6.75
403.403	6.41
403.612	6.46
403.82	6.66
404.029	6.5
404.238	6.78
404.446	7
404.655	6.87
404.864	6.73
405.072	6.77
405.281	6.59
405.489	6.61
405.698	6.78
405.906	6.92
406.115	6.9
406.324	6.95
406.532	6.82
406.741	6.66
406.949	6.54
407.158	6.55
407.366	6.52
407.574	6.43
407.783	6.58
407.991	6.48
408.2	6.24
408.408	6.2
408.617	6.38
408.825	6.25
409.033	6.33
409.242	6.44
409.45	6.27
409.658	6.17
409.867	6.14
410.075	6.23
410.283	6.27
410.491	6.35
410.7	6.43
410.908	6.32
411.116	6.14
411.324	6.14
411.533	6.15
411.741	6.04
411.949	6.2
412.157	6.17
412.365	6.18
412.573	6.23
412.781	6.27
412.99	6.35
413.198	6.3
413.406	6.23
413.614	6.08
413.822	6
414.03	5.94
414.238	5.97
414.446	6.06
414.654	6.13
414.862	6.1
415.07	5.91
415.278	5.89
415.486	5.82
415.694	5.94
415.902	5.91
416.109	5.98
416.317	6.06
416.525	6
416.733	5.92
416.941	5.91
417.149	6
417.357	5.88
417.564	5.84
417.772	5.7
417.98	5.94
418.188	5.87
418.395	5.86
418.603	5.98
418.811	6.13
419.019	5.96
419.226	5.97
419.434	5.89
419.642	5.81
419.849	5.7
420.057	5.64
420.265	5.59
420.472	5.67
420.68	5.59
420.887	5.45
421.095	5.36
421.302	5.47
421.51	5.32
421.717	5.41
421.925	5.47
422.132	5.64
422.34	5.4
422.547	5.52
422.755	5.44
422.962	5.66
423.17	5.64
423.377	5.8
423.585	5.75
423.792	5.71
423.999	5.48
424.207	5.39
424.414	5.12
424.621	5.02
424.829	5.04
425.036	5.17
425.243	5.22
425.451	5.31
425.658	5.37
425.865	5.5
426.072	5.45
426.28	5.36
426.487	5.4
426.694	5.53
426.901	5.45
427.108	5.43
427.315	5.55
427.523	5.41
427.73	5.29
427.937	5.52
428.144	5.58
428.351	5.55
428.558	5.72
428.765	5.8
428.972	5.78
429.179	5.69
429.386	5.64
429.593	5.68
429.8	5.89
430.007	5.78
430.214	5.95
430.421	6.05
430.628	6.14
430.835	6.08
431.042	5.98
431.249	5.89
431.456	6
431.662	5.94
431.869	6.02
432.076	6
432.283	6.05
432.49	6.01
432.697	6.13
432.903	6.07
433.11	6.18
433.317	6.16
433.524	6.08
433.73	6.16
433.937	6.08
434.144	6.06
434.35	6.15
434.557	6.36
434.764	6.29
434.97	6.36
435.177	6.56
435.384	6.67
435.59	6.57
435.797	6.57
436.003	6.39
436.21	6.28
436.416	6.11
436.623	5.94
436.829	5.95
437.036	6.2
437.242	6.22
437.449	6.28
437.655	6.49
437.862	6.44
438.068	6.39
438.275	6.43
438.481	6.39
438.687	6.41
438.894	6.56
439.1	6.6
439.307	6.59
439.513	6.63
439.719	6.61
439.926	6.54
440.132	6.62
440.338	6.71
440.544	6.72
440.751	6.79
440.957	6.84
441.163	6.87
441.369	6.86
441.575	6.97
441.782	7.05
441.988	7.1
442.194	7.05
442.4	7.04
442.606	7.02
442.812	6.94
443.018	6.95
443.224	6.88
443.431	6.84
443.637	6.95
443.843	6.92
444.049	6.95
444.255	7.11
444.461	7.26
444.667	7.25
444.873	7.23
445.079	7.16
445.284	7.14
445.49	7.22
445.696	7.18
445.902	7.29
446.108	7.44
446.314	7.47
446.52	7.43
446.726	7.55
446.931	7.5
447.137	7.37
447.343	7.36
447.549	7.32
447.755	7.28
447.96	7.4
448.166	7.47
448.372	7.42
448.578	7.46
448.783	7.49
448.989	7.41
449.195	7.43
449.4	7.45
449.606	7.51
449.812	7.52
450.017	7.49
450.223	7.54
450.428	7.74
450.634	7.73
450.84	7.83
451.045	8.02
451.251	8.12
451.456	8.05
451.662	7.9
451.867	7.8
452.073	7.76
452.278	7.65
452.483	7.58
452.689	7.77
452.894	7.8
453.1	7.85
453.305	7.95
453.51	8.12
453.716	8.11
453.921	8.18
454.127	8.15
454.332	8.22
454.537	8.26
454.742	8.37
454.948	8.45
455.153	8.6
455.358	8.57
455.563	8.46
455.769	8.48
455.974	8.52
456.179	8.5
456.384	8.39
456.589	8.56
456.795	8.54
457	8.48
457.205	8.47
457.41	8.66
457.615	8.7
457.82	8.68
458.025	8.8
458.23	8.91
458.435	8.93
458.64	8.89
458.845	8.96
459.05	8.89
459.255	8.88
459.46	8.82
459.665	8.86
459.87	8.96
460.075	9.07
460.28	9.17
460.485	9.23
460.69	9.22
460.895	9.28
461.099	9.28
461.304	9.31
461.509	9.38
461.714	9.52
461.919	9.52
462.123	9.52
462.328	9.51
462.533	9.63
462.738	9.57
462.942	9.62
463.147	9.67
463.352	9.68
463.556	9.61
463.761	9.62
463.966	9.56
464.17	9.64
464.375	9.64
464.58	9.7
464.784	9.76
464.989	9.91
465.193	9.89
465.398	9.97
465.602	9.92
465.807	10.05
466.011	10.01
466.216	9.98
466.42	10.06
466.625	10.28
466.829	10.21
467.034	10.21
467.238	10.24
467.443	10.24
467.647	10.22
467.851	10.33
468.056	10.37
