Data from Ofav_PP_Phys_2EV44_Reflection_1.txt Node
Date: Tue Aug 03 18:04:33 EDT 2021
User: Adam
Spectrometer: FLMT01687
Trigger mode: 0
Integration Time (sec): 8.750000E-1
Scans to average: 2
Electric dark correction enabled: true
Nonlinearity correction enabled: false
Boxcar width: 2
XAxis mode: Wavelengths
Number of Pixels in Spectrum: 3648
>>>>>Begin Spectral Data<<<<<
179.494	96.42
179.716	157.2
179.937	275.09
180.158	-1043.43
180.38	-165.32
180.601	-789.52
180.823	379.6
181.044	176.6
181.265	21.33
181.486	-295.4
181.708	167.62
181.929	193.27
182.15	220.25
182.372	137.68
182.593	-358.67
182.814	60.83
183.035	102.09
183.257	21.75
183.478	36.18
183.699	16.22
183.92	14.44
184.141	-20.26
184.363	-10.91
184.584	-37.43
184.805	-17.7
185.026	-19.4
185.247	-9.84
185.468	-7.11
185.689	-15.57
185.91	-2.52
186.132	-18.44
186.353	4.48
186.574	-17.21
186.795	-4.98
187.016	-17.98
187.237	10.62
187.458	9.98
187.679	12.55
187.9	23.32
188.121	38.96
188.342	24.95
188.563	25.27
188.784	25.26
189.005	25.18
189.226	10.22
189.447	20.59
189.667	7.87
189.888	7.98
190.109	17.58
190.33	23.09
190.551	25.96
190.772	19.96
190.993	27.35
191.214	31.33
191.434	12.34
191.655	0.04
191.876	-5.14
192.097	22.59
192.318	22.35
192.538	36.74
192.759	67.75
192.98	85.72
193.201	38.63
193.421	34.41
193.642	31.12
193.863	15.88
194.083	15.68
194.304	21.6
194.525	0.61
194.745	24.14
194.966	35.23
195.187	37.49
195.407	19.32
195.628	17.99
195.848	8.03
196.069	14.48
196.29	1.49
196.51	2.49
196.731	18.48
196.951	23.45
197.172	23.8
197.392	39.24
197.613	28.33
197.833	41.9
198.054	50.34
198.274	24.39
198.495	40.21
198.715	44.17
198.936	47.6
199.156	25.17
199.377	52.71
199.597	47.84
199.817	63.93
200.038	35.95
200.258	43.27
200.479	42.05
200.699	25.39
200.919	-32.28
201.14	78.37
201.36	67.06
201.58	69.16
201.801	66.24
202.021	56.16
202.241	28.02
202.461	9.12
202.682	8.15
202.902	-4.26
203.122	17.38
203.342	7.3
203.563	35.8
203.783	35.87
204.003	45.25
204.223	40.03
204.443	27.23
204.663	22.8
204.884	17.48
205.104	12.98
205.324	11.8
205.544	9.98
205.764	21.26
205.984	4.57
206.204	22.57
206.424	7.07
206.644	42.34
206.864	8.82
207.084	14.56
207.304	-11.04
207.525	-8.42
207.745	-20.54
207.964	-22.32
208.184	0.94
208.404	2.11
208.624	29.42
208.844	40.99
209.064	58.79
209.284	44.54
209.504	51.6
209.724	40.64
209.944	29.09
210.164	-58.58
210.384	-29.16
210.604	-14.97
210.823	-18.02
211.043	1.02
211.263	28.88
211.483	43.01
211.703	74.4
211.922	42.49
212.142	32.08
212.362	22.59
212.582	27.1
212.801	15.12
213.021	26.11
213.241	11.8
213.461	25.01
213.68	17.68
213.9	14.57
214.12	8.2
214.339	8.82
214.559	28.17
214.779	32.42
214.998	44.66
215.218	50.72
215.438	49.15
215.657	40.03
215.877	42.11
216.096	40.79
216.316	21.68
216.535	11.47
216.755	-11.92
216.974	-5.39
217.194	-10.24
217.413	13.4
217.633	28.22
217.852	37.28
218.072	37.88
218.291	36.22
218.511	50.48
218.73	34.75
218.95	28
219.169	36.23
219.389	41.77
219.608	5.34
219.827	16.12
220.047	17.9
220.266	-5.38
220.485	17.18
220.705	24.29
220.924	25.52
221.143	11.9
221.363	15.5
221.582	4.37
221.801	11.9
222.021	-0.94
222.24	24.63
222.459	-1.56
222.678	2.55
222.897	5.23
223.117	-4.78
223.336	-84.16
223.555	-8.85
223.774	5.64
223.993	-11.24
224.213	8.37
224.432	19.4
224.651	37.92
224.87	34.83
225.089	49.32
225.308	25.08
225.527	7.06
225.746	-39.02
225.965	-30.69
226.184	-31.76
226.404	-7.09
226.623	18.94
226.842	37.25
227.061	27.12
227.28	28.87
227.499	35.79
227.718	19.66
227.936	3.49
228.155	8.93
228.374	11.63
228.593	14.94
228.812	-1.66
229.031	3.6
229.25	25.64
229.469	26.59
229.688	2.94
229.907	-18.72
230.125	-2.59
230.344	-38.22
230.563	-49.52
230.782	-42.62
231.001	5.17
231.22	0.96
231.438	11.56
231.657	6.83
231.876	17.38
232.095	25.16
232.313	23.32
232.532	-2.85
232.751	7.92
232.969	6.94
233.188	0.66
233.407	5.9
233.625	34.56
233.844	22.93
234.063	17.74
234.281	7.25
234.5	-1.44
234.719	-27.38
234.937	10.11
235.156	-11.16
235.374	13.96
235.593	27.24
235.811	34.54
236.03	38.21
236.249	72.22
236.467	65.82
236.686	55.45
236.904	46.27
237.123	48.39
237.341	43.35
237.559	31.31
237.778	33.01
237.996	28.36
238.215	18.31
238.433	9.97
238.652	21.1
238.87	23.43
239.088	30.28
239.307	34.3
239.525	45.74
239.743	36.73
239.962	37.11
240.18	32.28
240.398	32.75
240.617	17.49
240.835	14.79
241.053	0.2
241.271	-27.87
241.49	-19.52
241.708	-3.14
241.926	-0.38
242.144	10.51
242.363	23.82
242.581	24.55
242.799	36.32
243.017	34.91
243.235	40.88
243.453	48.75
243.672	43.03
243.89	31.95
244.108	33.76
244.326	14.71
244.544	7.58
244.762	16.31
244.98	4.08
245.198	15.83
245.416	47.49
245.634	50.67
245.852	36.26
246.07	38.96
246.288	25.47
246.506	14.36
246.724	-3.35
246.942	-8.82
247.16	-0.12
247.378	-1.06
247.596	-2.81
247.814	19.6
248.032	23.16
248.25	16.11
248.468	21.9
248.685	33.51
248.903	12.85
249.121	10.34
249.339	4.52
249.557	13.19
249.775	3.07
249.992	19.41
250.21	25.87
250.428	20.88
250.646	-15.23
250.863	-1.52
251.081	-19.4
251.299	-15.38
251.517	15.1
251.734	27.71
251.952	3.47
252.17	13.91
252.387	-65.59
252.605	-56.47
252.823	-47.38
253.04	-38.16
253.258	-7.03
253.475	25.74
253.693	20.68
253.911	36.11
254.128	44.94
254.346	53.8
254.563	47.68
254.781	60.81
254.998	42.61
255.216	25.59
255.433	19.21
255.651	27.32
255.868	2.62
256.086	-0.62
256.303	15.89
256.521	18.79
256.738	10.04
256.956	30.35
257.173	23.11
257.39	15.31
257.608	4.6
257.825	-4.69
258.043	-43.29
258.26	-13.87
258.477	-1.15
258.695	5.6
258.912	4.82
259.129	13.37
259.346	9.99
259.564	18.78
259.781	10.13
259.998	24.5
260.216	28.69
260.433	31.69
260.65	22.18
260.867	34.32
261.084	24.19
261.302	16.68
261.519	4.01
261.736	2.97
261.953	3.22
262.17	-3.07
262.387	14.17
262.604	21.56
262.822	33.86
263.039	32.02
263.256	39.88
263.473	46.52
263.69	50.06
263.907	37.59
264.124	29.72
264.341	34.43
264.558	3.06
264.775	9.01
264.992	4.43
265.209	-0.29
265.426	-4.74
265.643	0.29
265.86	-0.57
266.077	14.09
266.294	12.96
266.51	19.79
266.727	33.74
266.944	27.28
267.161	28.34
267.378	36.4
267.595	25.07
267.812	13.2
268.028	2.54
268.245	1.12
268.462	3.08
268.679	-6.11
268.896	-13.19
269.112	20.11
269.329	5.17
269.546	-8.35
269.763	19.19
269.979	16.48
270.196	9.17
270.413	26.7
270.629	26.86
270.846	37.67
271.063	46.76
271.279	31.73
271.496	20.7
271.712	3.89
271.929	6.27
272.146	18.45
272.362	1.14
272.579	7.73
272.795	23.53
273.012	8.43
273.228	16.09
273.445	27.29
273.661	31.03
273.878	23.95
274.094	33.33
274.311	11.49
274.527	-5.71
274.744	-7.64
274.96	5.22
275.177	-17.41
275.393	0.9
275.609	6.75
275.826	7.35
276.042	-7.13
276.259	9.75
276.475	-2.49
276.691	10.38
276.908	3.88
277.124	19.33
277.34	0.51
277.557	3.5
277.773	3.97
277.989	12.26
278.205	14.82
278.422	21.53
278.638	26.73
278.854	20.06
279.07	19.84
279.286	11.09
279.503	14.74
279.719	7.61
279.935	-1.49
280.151	-18.2
280.367	-22.8
280.583	-46.26
280.799	-30.58
281.016	-28.88
281.232	-29.14
281.448	-11.62
281.664	-14.27
281.88	-19.48
282.096	-1.53
282.312	-4.51
282.528	-5.58
282.744	13.92
282.96	19.31
283.176	23.73
283.392	36.6
283.608	39.44
283.824	33.51
284.04	36.97
284.256	30
284.471	20.4
284.687	15.12
284.903	25.97
285.119	20.47
285.335	26.64
285.551	30.05
285.767	29.73
285.982	21.38
286.198	22.33
286.414	14.54
286.63	10.58
286.846	19.17
287.061	15.39
287.277	16.43
287.493	13.41
287.709	10.23
287.924	9.2
288.14	-0.96
288.356	-18.62
288.571	-5.22
288.787	4.36
289.003	-8.72
289.218	0.2
289.434	16.43
289.65	20.39
289.865	14.6
290.081	10.04
290.296	22.4
290.512	19.27
290.727	-1.82
290.943	14.28
291.159	26.93
291.374	8.72
291.59	19.72
291.805	38.78
292.021	42.09
292.236	46.12
292.451	46.03
292.667	37.98
292.882	20.84
293.098	-3.9
293.313	-19.21
293.529	-3.26
293.744	-9.78
293.959	11.72
294.175	24.78
294.39	29.05
294.605	33.38
294.821	26.18
295.036	22.29
295.251	19.16
295.467	30.45
295.682	36.24
295.897	45
296.112	42.55
296.328	59.03
296.543	55.1
296.758	45.83
296.973	59.63
297.188	59.21
297.404	52.74
297.619	44.05
297.834	38.89
298.049	14.49
298.264	16.8
298.479	19.01
298.694	21.64
298.909	35.52
299.125	45.76
299.34	35.29
299.555	32.66
299.77	16.46
299.985	7.47
300.2	15.32
300.415	15.58
300.63	20.92
300.845	37.73
301.06	22.27
301.275	8.9
301.49	30.69
301.704	20.14
301.919	17.23
302.134	26.45
302.349	28.92
302.564	32.76
302.779	24.22
302.994	25.94
303.209	21.03
303.423	27.95
303.638	22.99
303.853	29.77
304.068	30.53
304.283	40.97
304.497	38.79
304.712	32.05
304.927	41.02
305.142	40.14
305.356	25.94
305.571	26.89
305.786	38.06
306	30.09
306.215	36.4
306.43	29.28
306.644	10.43
306.859	-1.84
307.074	-12.95
307.288	-15.98
307.503	-0.86
307.717	2.67
307.932	14.11
308.147	31.95
308.361	18.48
308.576	18.83
308.79	22.25
309.005	27.42
309.219	17.39
309.434	8.7
309.648	13.08
309.863	0.65
310.077	-16.72
310.292	-3.86
310.506	5.86
310.72	16.14
310.935	21.24
311.149	20.37
311.364	7.62
311.578	-3.68
311.792	-21.43
312.007	-20.18
312.221	-12.78
312.435	8.41
312.649	21.68
312.864	46.13
313.078	41.39
313.292	37.98
313.507	25.92
313.721	33.28
313.935	24.52
314.149	24.39
314.363	29.68
314.578	39.07
314.792	39.79
315.006	17.45
315.22	25.19
315.434	14.5
315.648	-3.45
315.862	-3.24
316.077	22.23
316.291	21.1
316.505	25.84
316.719	31.15
316.933	42.11
317.147	10.41
317.361	15.32
317.575	14.22
317.789	12.5
318.003	5.31
318.217	6.92
318.431	11.08
318.645	10.58
318.859	20.74
319.073	18.82
319.287	37.84
319.5	33.47
319.714	43.15
319.928	42.55
320.142	37.02
320.356	25.33
320.57	23.14
320.784	12.46
320.997	3.85
321.211	21.68
321.425	30.11
321.639	22.38
321.853	19.68
322.066	19.76
322.28	12.34
322.494	9.48
322.707	14.92
322.921	18.68
323.135	23.16
323.349	14.55
323.562	22.35
323.776	41.66
323.989	40.85
324.203	43.25
324.417	51.24
324.63	48.14
324.844	34.82
325.057	40.71
325.271	26.81
325.485	16.44
325.698	7.48
325.912	9.65
326.125	11.68
326.339	13.44
326.552	-10.17
326.766	5.62
326.979	7.76
327.193	-5.45
327.406	-0.99
327.619	28.67
327.833	13.41
328.046	4.7
328.26	6.04
328.473	9.73
328.686	1.45
328.9	13.5
329.113	22.35
329.326	28.76
329.54	21.34
329.753	15.59
329.966	14.1
330.179	-6.39
330.393	-7.66
330.606	1.27
330.819	10.77
331.032	7.84
331.246	18.2
331.459	24.02
331.672	12.15
331.885	8.37
332.098	1.38
332.311	17.91
332.525	19.28
332.738	22.93
332.951	30.57
333.164	32.91
333.377	20.53
333.59	12.34
333.803	11.12
334.016	6.67
334.229	9.6
334.442	-25.15
334.655	-7.28
334.868	-15.61
335.081	-20.72
335.294	-23.84
335.507	5.22
335.72	1.96
335.933	23.18
336.146	27.65
336.359	21.25
336.572	18.25
336.785	19.7
336.997	21.93
337.21	25.72
337.423	22.45
337.636	31.19
337.849	28.89
338.062	28.06
338.274	12.31
338.487	23.43
338.7	32.35
338.913	36.03
339.125	25.49
339.338	21.89
339.551	8.82
339.763	-13.3
339.976	-11.87
340.189	-9.8
340.402	1.46
340.614	2.29
340.827	8.82
341.039	4.25
341.252	8.73
341.465	22.57
341.677	20.31
341.89	30.41
342.102	29.19
342.315	34.11
342.527	13.59
342.74	21.75
342.952	12.96
343.165	19.27
343.377	11.16
343.59	16.23
343.802	15.2
344.015	10.42
344.227	0.35
344.44	9.13
344.652	3.82
344.864	-16.86
345.077	-30.63
345.289	-31.05
345.502	-66.25
345.714	-97.42
345.926	-36.67
346.139	-11.81
346.351	-8.74
346.563	8.35
346.775	36.68
346.988	16.47
347.2	13.9
347.412	21.52
347.624	22.95
347.837	14.43
348.049	28.31
348.261	29.76
348.473	18.41
348.685	23.18
348.897	30.71
349.11	30.76
349.322	32.03
349.534	34.7
349.746	25.22
349.958	15.62
350.17	7.49
350.382	-9.23
350.594	-10.41
350.806	-12.88
351.018	-11.2
351.23	-11.15
351.442	-1.02
351.654	-16.61
351.866	-11.11
352.078	-7.37
352.29	1.07
352.502	13.2
352.714	39.38
352.926	31.09
353.138	29.22
353.35	21.41
353.561	23.9
353.773	11.05
353.985	20.45
354.197	19.48
354.409	28.1
354.621	24.18
354.832	28.35
355.044	29.88
355.256	32.28
355.468	29.2
355.679	29.59
355.891	33.79
356.103	37.58
356.314	31.68
356.526	27.4
356.738	28.62
356.949	28.86
357.161	25.46
357.373	38.45
357.584	44.3
357.796	52.85
358.008	29.99
358.219	16.96
358.431	8.14
358.642	6.73
358.854	-19.12
359.065	-2.77
359.277	12.16
359.488	0.83
359.7	6.32
359.911	10.32
360.123	12.71
360.334	-3.8
360.546	1.02
360.757	1.62
360.969	8.7
361.18	22.66
361.391	46.69
361.603	42.07
361.814	35.67
362.025	40.73
362.237	37.35
362.448	20.58
362.659	17.88
362.871	21.93
363.082	9.87
363.293	1.67
363.504	8.33
363.716	18.41
363.927	17.23
364.138	27.09
364.349	31.37
364.56	23.25
364.772	27.38
364.983	27.36
365.194	21.01
365.405	8.09
365.616	25.82
365.827	34.37
366.038	26.9
366.25	22.99
366.461	37.48
366.672	16.24
366.883	6.85
367.094	2.31
367.305	14.43
367.516	6.59
367.727	13.22
367.938	14.06
368.149	14.19
368.36	2.19
368.571	14.46
368.781	11.35
368.992	7.29
369.203	14.64
369.414	21.32
369.625	8.06
369.836	9.36
370.047	10.67
370.258	9.96
370.468	5.72
370.679	19.5
370.89	24.92
371.101	27.67
371.312	35.5
371.522	29.28
371.733	26.81
371.944	27.35
372.155	31.29
372.365	21.81
372.576	30.61
372.787	27.44
372.997	26.23
373.208	25.25
373.419	20.72
373.629	15.59
373.84	20.47
374.05	15.95
374.261	10.22
374.472	15.64
374.682	20.95
374.893	10.57
375.103	-9.02
375.314	-6.37
375.524	-1.71
375.735	-8.15
375.945	0.12
376.156	14.84
376.366	14.33
376.577	18.95
376.787	18.6
376.997	10.63
377.208	11.3
377.418	0.12
377.629	-9.81
377.839	-13.71
378.049	-10.89
378.26	-11.38
378.47	-6.72
378.68	0.38
378.89	12.96
379.101	12.23
379.311	9.25
379.521	11.98
379.732	12.07
379.942	7.84
380.152	19.47
380.362	15.97
380.572	25.46
380.783	29.55
380.993	29.71
381.203	22.09
381.413	28.88
381.623	21.7
381.833	16.8
382.043	18.56
382.253	16.21
382.463	15.43
382.674	16.38
382.884	13.61
383.094	6.21
383.304	5.89
383.514	3.33
383.724	0.4
383.934	2.38
384.144	10.22
384.353	7.2
384.563	7.28
384.773	6.9
384.983	11.99
385.193	8.27
385.403	13.05
385.613	12.36
385.823	12.81
386.033	7.54
386.242	12.35
386.452	13.16
386.662	18.22
386.872	17.49
387.082	17
387.291	10.99
387.501	8.13
387.711	3.69
387.921	5.65
388.13	7.57
388.34	4.84
388.55	5.66
388.759	4.2
388.969	5.46
389.179	5.87
389.388	7.55
389.598	6.89
389.807	7.81
390.017	7.12
390.227	5.38
390.436	5.79
390.646	5.68
390.855	4.85
391.065	4.27
391.274	5.05
391.484	7.37
391.693	7.87
391.903	7.39
392.112	8.07
392.322	8.07
392.531	6.18
392.74	4.32
392.95	5.43
393.159	3.14
393.369	3.47
393.578	2.58
393.787	4.22
393.997	4.13
394.206	5.33
394.415	4.59
394.625	4.91
394.834	4.11
395.043	3.76
395.252	3.95
395.462	4.31
395.671	3.65
395.88	3.56
396.089	3.36
396.298	3.05
396.508	2.22
396.717	3.3
396.926	3.62
397.135	2.93
397.344	2.99
397.553	3
397.762	2.37
397.971	1.83
398.181	2.64
398.39	2.88
398.599	2.58
398.808	2.99
399.017	2.93
399.226	2.57
399.435	2.32
399.644	2.72
399.853	2.26
400.062	2.6
400.27	2.92
400.479	2.83
400.688	2.84
400.897	3.12
401.106	3.05
401.315	2.82
401.524	3.14
401.733	2.91
401.941	2.74
402.15	2.7
402.359	2.76
402.568	2.45
402.777	2.48
402.985	2.47
403.194	2.51
403.403	2.42
403.612	2.4
403.82	2.48
404.029	2.53
404.238	2.67
404.446	2.7
404.655	2.57
404.864	2.6
405.072	2.68
405.281	2.44
405.489	2.32
405.698	2.45
405.906	2.54
406.115	2.42
406.324	2.43
406.532	2.49
406.741	2.53
406.949	2.39
407.158	2.42
407.366	2.45
407.574	2.39
407.783	2.35
407.991	2.29
408.2	2.12
408.408	2.05
408.617	2.12
408.825	2.13
409.033	2.16
409.242	2.29
409.45	2.33
409.658	2.37
409.867	2.37
410.075	2.41
410.283	2.41
410.491	2.26
410.7	2.23
410.908	2.25
411.116	2.23
411.324	2.15
411.533	2.18
411.741	2.23
411.949	2.15
412.157	2.18
412.365	2.16
412.573	2.27
412.781	2.22
412.99	2.21
413.198	2.19
413.406	2.24
413.614	2.13
413.822	2.12
414.03	2.16
414.238	2.15
414.446	2.19
414.654	2.36
414.862	2.34
415.07	2.13
415.278	2.07
415.486	2.1
415.694	2.03
415.902	1.92
416.109	2.11
416.317	2.1
416.525	1.9
416.733	1.95
416.941	2.09
417.149	2.03
417.357	2.01
417.564	2.19
417.772	2.19
417.98	2.2
418.188	2.22
418.395	2.28
418.603	2.16
418.811	2.2
419.019	2.03
419.226	2.04
419.434	1.94
419.642	2.05
419.849	1.82
420.057	1.95
420.265	1.8
420.472	2
420.68	1.87
420.887	1.96
421.095	1.71
421.302	1.88
421.51	1.58
421.717	1.64
421.925	1.58
422.132	1.72
422.34	1.68
422.547	1.85
422.755	1.88
422.962	2.04
423.17	2.15
423.377	2.22
423.585	2.28
423.792	2.22
423.999	2.08
424.207	2.03
424.414	1.95
424.621	1.82
424.829	1.87
425.036	1.99
425.243	1.98
425.451	1.95
425.658	2.03
425.865	2.09
426.072	1.99
426.28	2.02
426.487	1.92
426.694	1.88
426.901	1.77
427.108	1.91
427.315	2.12
427.523	2.09
427.73	2.02
427.937	2.21
428.144	2.06
428.351	1.82
428.558	1.95
428.765	2.1
428.972	2.01
429.179	1.99
429.386	2.1
429.593	2.1
429.8	2.13
430.007	1.98
430.214	2.12
430.421	2.07
430.628	2.05
430.835	2.02
431.042	2.17
431.249	2.07
431.456	2.2
431.662	2.12
431.869	2.11
432.076	1.94
432.283	1.93
432.49	1.8
432.697	1.91
432.903	1.92
433.11	2.01
433.317	2.04
433.524	2.08
433.73	2.22
433.937	2.23
434.144	2.27
434.35	2.32
434.557	2.33
434.764	2.34
434.97	2.33
435.177	2.33
435.384	2.27
435.59	2.32
435.797	2.13
436.003	1.99
436.21	1.98
436.416	2.03
436.623	1.93
436.829	2
437.036	2.14
437.242	2.15
437.449	2.06
437.655	2.07
437.862	2.07
438.068	2.05
438.275	2.04
438.481	2
438.687	2
438.894	2.04
439.1	2.12
439.307	2.02
439.513	2.06
439.719	2
439.926	1.93
440.132	1.88
440.338	1.98
440.544	1.95
440.751	2.04
440.957	1.97
441.163	1.9
441.369	1.99
441.575	2.1
441.782	2.12
441.988	2.23
442.194	2.29
442.4	2.21
442.606	2.27
442.812	2.22
443.018	2.18
443.224	2.25
443.431	2.24
443.637	2.26
443.843	2.26
444.049	2.33
444.255	2.39
444.461	2.55
444.667	2.52
444.873	2.46
445.079	2.39
445.284	2.26
445.49	2.18
445.696	2.11
445.902	2.15
446.108	2.2
446.314	2.26
446.52	2.26
446.726	2.3
446.931	2.34
447.137	2.37
447.343	2.39
447.549	2.37
447.755	2.43
447.96	2.39
448.166	2.35
448.372	2.19
448.578	2.16
448.783	2.14
448.989	2.23
449.195	2.23
449.4	2.35
449.606	2.5
449.812	2.52
450.017	2.46
450.223	2.47
450.428	2.6
450.634	2.56
450.84	2.54
451.045	2.61
451.251	2.6
451.456	2.51
451.662	2.32
451.867	2.28
452.073	2.22
452.278	2.26
452.483	2.3
452.689	2.33
452.894	2.35
453.1	2.35
453.305	2.29
453.51	2.19
453.716	2.22
453.921	2.32
454.127	2.36
454.332	2.45
454.537	2.47
454.742	2.56
454.948	2.61
455.153	2.55
455.358	2.48
455.563	2.47
455.769	2.43
455.974	2.31
456.179	2.29
456.384	2.23
456.589	2.34
456.795	2.35
457	2.45
457.205	2.51
457.41	2.47
457.615	2.47
457.82	2.42
458.025	2.37
458.23	2.39
458.435	2.45
458.64	2.32
458.845	2.42
459.05	2.41
459.255	2.45
459.46	2.45
459.665	2.4
459.87	2.4
460.075	2.31
460.28	2.35
460.485	2.34
460.69	2.48
460.895	2.41
461.099	2.5
461.304	2.44
461.509	2.49
461.714	2.53
461.919	2.56
462.123	2.49
462.328	2.48
462.533	2.49
462.738	2.44
462.942	2.47
463.147	2.55
463.352	2.52
463.556	2.57
463.761	2.52
463.966	2.49
464.17	2.5
464.375	2.54
464.58	2.52
464.784	2.5
464.989	2.6
465.193	2.62
465.398	2.72
465.602	2.64
465.807	2.77
466.011	2.83
466.216	2.72
466.42	2.67
466.625	2.85
466.829	2.77
467.034	2.67
467.238	2.73
467.443	2.7
467.647	2.64
467.851	2.78
468.056	2.74
468.26	2.8
468.464	2.71
468.669	2.64
468.873	2.52
469.077	2.59
469.282	2.62
