Data from Ofav_PP_Phys_4EV14_Reflection_2.txt Node
Date: Tue Aug 03 18:09:34 EDT 2021
User: Adam
Spectrometer: FLMT01687
Trigger mode: 0
Integration Time (sec): 8.750000E-1
Scans to average: 2
Electric dark correction enabled: true
Nonlinearity correction enabled: false
Boxcar width: 2
XAxis mode: Wavelengths
Number of Pixels in Spectrum: 3648
>>>>>Begin Spectral Data<<<<<
179.494	184.83
179.716	204.24
179.937	269.5
180.158	473.88
180.38	2062.28
180.601	180.02
180.823	70.09
181.044	25.89
181.265	-46.81
181.486	459.95
181.708	145.95
181.929	138.47
182.15	61.16
182.372	50.84
182.593	237.76
182.814	248.17
183.035	-386.88
183.257	-1599.02
183.478	243.6
183.699	243.17
183.92	161.11
184.141	63.77
184.363	53.12
184.584	-8.63
184.805	11.84
185.026	-23.63
185.247	4.79
185.468	-1.51
185.689	-14.52
185.91	10.9
186.132	-11.43
186.353	10.77
186.574	-21.03
186.795	-7.45
187.016	-18.11
187.237	5.42
187.458	-8.09
187.679	2.75
187.9	8.12
188.121	17.27
188.342	16.36
188.563	1.27
188.784	6.29
189.005	13.08
189.226	7.07
189.447	39.89
189.667	45.18
189.888	73.59
190.109	47.49
190.33	71.64
190.551	48.07
190.772	73.78
190.993	47.26
191.214	81.87
191.434	66.93
191.655	29.65
191.876	16.96
192.097	32.89
192.318	33.22
192.538	26.57
192.759	30.65
192.98	37.6
193.201	36.31
193.421	28.41
193.642	40.44
193.863	66.26
194.083	63.63
194.304	45.62
194.525	54.21
194.745	42.39
194.966	23.06
195.187	33.57
195.407	28.5
195.628	21.14
195.848	20.71
196.069	66.92
196.29	53.96
196.51	76.16
196.731	107.3
196.951	115.57
197.172	110.27
197.392	159.2
197.613	152.39
197.833	126.67
198.054	125.91
198.274	93.96
198.495	53.86
198.715	54.72
198.936	59.17
199.156	43.23
199.377	29.75
199.597	37.74
199.817	79.18
200.038	64.59
200.258	78.68
200.479	56.74
200.699	71.63
200.919	-36.92
201.14	24.81
201.36	14.01
201.58	32.28
201.801	16.07
202.021	35.42
202.241	9.94
202.461	19.15
202.682	24.96
202.902	45.92
203.122	58.43
203.342	50.72
203.563	22.58
203.783	15.07
204.003	27
204.223	26.71
204.443	14.63
204.663	27.07
204.884	19.33
205.104	3
205.324	-16.62
205.544	-21.07
205.764	-11.55
205.984	-49.35
206.204	-49.91
206.424	-83.46
206.644	-12.79
206.864	-21.76
207.084	13.11
207.304	35.41
207.525	64.5
207.745	112.8
207.964	127.24
208.184	90.94
208.404	80.82
208.624	67.36
208.844	36.9
209.064	32.95
209.284	34.57
209.504	22.81
209.724	11.67
209.944	6.34
210.164	-19.23
210.384	0.31
210.604	14.66
210.823	66.34
211.043	61.92
211.263	73.46
211.483	53.72
211.703	42.21
211.922	31.03
212.142	23.3
212.362	27.05
212.582	41.83
212.801	30.92
213.021	41.95
213.241	42.72
213.461	45.34
213.68	44.56
213.9	49.91
214.12	23.74
214.339	37.26
214.559	50.3
214.779	56.81
214.998	53.54
215.218	71.82
215.438	67.56
215.657	42.62
215.877	28.66
216.096	10.01
216.316	-5.95
216.535	-31.9
216.755	-10.56
216.974	26.02
217.194	81.21
217.413	84.56
217.633	78.83
217.852	77.31
218.072	73.15
218.291	51.67
218.511	53.98
218.73	61.09
218.95	39.87
219.169	34.88
219.389	28.42
219.608	10.59
219.827	-1.76
220.047	21.25
220.266	25.8
220.485	46.58
220.705	56.23
220.924	62.52
221.143	59.93
221.363	76.85
221.582	84.1
221.801	86.52
222.021	72.68
222.24	57.67
222.459	26.54
222.678	38.38
222.897	37.16
223.117	20.22
223.336	22.9
223.555	91.22
223.774	105.39
223.993	80.24
224.213	48.67
224.432	58.14
224.651	68.95
224.87	53.89
225.089	45.8
225.308	31.6
225.527	2.67
225.746	-41.49
225.965	-14.08
226.184	-21.25
226.404	10.4
226.623	47.08
226.842	51.12
227.061	7.8
227.28	6.62
227.499	33.82
227.718	7.86
227.936	-0.64
228.155	16.84
228.374	38.6
228.593	36.21
228.812	37.3
229.031	38.59
229.25	68.39
229.469	43.4
229.688	3
229.907	-1.3
230.125	9.29
230.344	-7.44
230.563	7.76
230.782	-2.35
231.001	43.38
231.22	34.79
231.438	31.38
231.657	41.18
231.876	69.82
232.095	40.23
232.313	29.46
232.532	16.71
232.751	13.41
232.969	11.72
233.188	10.28
233.407	13.42
233.625	31.46
233.844	36.46
234.063	31.1
234.281	33.18
234.5	49.81
234.719	63.99
234.937	51.55
235.156	58.28
235.374	54.8
235.593	66.8
235.811	51.11
236.03	51.74
236.249	47.54
236.467	64.33
236.686	54.33
236.904	52.24
237.123	52.38
237.341	44.92
237.559	34.51
237.778	37.81
237.996	45.84
238.215	37.93
238.433	39.6
238.652	43.74
238.87	41.18
239.088	44.05
239.307	43.7
239.525	52.5
239.743	55.93
239.962	59.73
240.18	52.35
240.398	63.05
240.617	61.77
240.835	48.84
241.053	19.92
241.271	-28.4
241.49	-38.31
241.708	-19.73
241.926	-19.13
242.144	27.75
242.363	48.12
242.581	53.1
242.799	29.44
243.017	39.13
243.235	41.81
243.453	41.36
243.672	56.3
243.89	70.7
244.108	54.81
244.326	30.44
244.544	14.95
244.762	16.46
244.98	12.82
245.198	30.72
245.416	58.49
245.634	69.52
245.852	61.45
246.07	57.28
246.288	47.1
246.506	52.14
246.724	49.81
246.942	47.51
247.16	36.3
247.378	31.1
247.596	15.81
247.814	15.5
248.032	16.58
248.25	22.32
248.468	23.47
248.685	11.79
248.903	-8.55
249.121	1.47
249.339	-16.44
249.557	4.06
249.775	-0.48
249.992	34.17
250.21	21.66
250.428	30.64
250.646	10.23
250.863	25.11
251.081	5.64
251.299	-23.72
251.517	0.2
251.734	3.21
251.952	-16.44
252.17	-17.42
252.387	-7.89
252.605	-44.71
252.823	-62.38
253.04	-54.98
253.258	-0.03
253.475	27.56
253.693	35.76
253.911	79.11
254.128	108.79
254.346	93.83
254.563	77.37
254.781	69.76
254.998	43.43
255.216	21.94
255.433	14.35
255.651	19.46
255.868	-3.63
256.086	-32.07
256.303	-14.22
256.521	1.56
256.738	0.75
256.956	37.43
257.173	76.77
257.39	75.68
257.608	58.46
257.825	48.49
258.043	-11.45
258.26	-3.68
258.477	3.8
258.695	13.42
258.912	27.94
259.129	45.08
259.346	47.72
259.564	48.19
259.781	39
259.998	29.98
260.216	25.39
260.433	7.86
260.65	2.43
260.867	16.42
261.084	17.64
261.302	14.81
261.519	39.67
261.736	44.74
261.953	54.21
262.17	51.66
262.387	52.87
262.604	47.34
262.822	50.21
263.039	46.81
263.256	51.06
263.473	47.69
263.69	58.7
263.907	44.29
264.124	19.7
264.341	11.37
264.558	-6.02
264.775	-8.56
264.992	10.94
265.209	13.16
265.426	6.51
265.643	23.36
265.86	22.47
266.077	5.51
266.294	12.27
266.51	25.38
266.727	38.64
266.944	38.03
267.161	50.62
267.378	62.81
267.595	38.49
267.812	26.94
268.028	10.71
268.245	14.04
268.462	11.7
268.679	28.6
268.896	6.53
269.112	41.86
269.329	34.35
269.546	16.98
269.763	8.23
269.979	14.08
270.196	7.86
270.413	12.68
270.629	15.87
270.846	35.3
271.063	39.2
271.279	36.83
271.496	41.86
271.712	29.25
271.929	18.61
272.146	39.3
272.362	42.13
272.579	31.87
272.795	52.48
273.012	45.9
273.228	46.89
273.445	43.15
273.661	62.15
273.878	59.73
274.094	49.34
274.311	43.91
274.527	38.13
274.744	28.1
274.96	36.08
275.177	44.42
275.393	23.62
275.609	23
275.826	2.37
276.042	-2.13
276.259	7.03
276.475	-2.76
276.691	-2.44
276.908	5.23
277.124	13.98
277.34	5.19
277.557	18.2
277.773	29.16
277.989	32.95
278.205	35.31
278.422	40.43
278.638	32.01
278.854	34.23
279.07	30.75
279.286	37.32
279.503	35.23
279.719	43.07
279.935	30.52
280.151	30.22
280.367	7.45
280.583	0.66
280.799	14.78
281.016	21.58
281.232	14.85
281.448	23.96
281.664	26.33
281.88	12.41
282.096	34.74
282.312	40.4
282.528	40.3
282.744	33.88
282.96	48.33
283.176	47.51
283.392	46.9
283.608	53.19
283.824	52.15
284.04	33.04
284.256	23.12
284.471	16.62
284.687	10.23
284.903	18.74
285.119	23.05
285.335	24.69
285.551	38.64
285.767	52.83
285.982	45.37
286.198	35.77
286.414	28.04
286.63	14.55
286.846	1.6
287.061	-9.91
287.277	-29.19
287.493	-17.81
287.709	-31.56
287.924	0.74
288.14	-2.86
288.356	14.66
288.571	6.53
288.787	19.39
289.003	5.95
289.218	33.19
289.434	21.89
289.65	30.77
289.865	25.01
290.081	-8.62
290.296	-17.4
290.512	7.79
290.727	15.15
290.943	44.33
291.159	50.59
291.374	57.88
291.59	54.37
291.805	57.2
292.021	56.09
292.236	63.21
292.451	61.4
292.667	59.23
292.882	53.44
293.098	36.23
293.313	18.63
293.529	13.37
293.744	22.04
293.959	15.72
294.175	24.17
294.39	40.56
294.605	46.32
294.821	39.79
295.036	54.52
295.251	62.31
295.467	45.47
295.682	65.28
295.897	54.34
296.112	52.18
296.328	50.1
296.543	59.43
296.758	35.54
296.973	54.31
297.188	45.7
297.404	57.55
297.619	59.07
297.834	55.89
298.049	38.68
298.264	45.61
298.479	28.99
298.694	29.63
298.909	36.58
299.125	39.18
299.34	26.49
299.555	29.3
299.77	23.07
299.985	36.88
300.2	41.7
300.415	47.17
300.63	30.4
300.845	36.49
301.06	15.94
301.275	-2.72
301.49	22.92
301.704	26.15
301.919	32.16
302.134	38.48
302.349	51.61
302.564	49.76
302.779	49.59
302.994	37.71
303.209	36.36
303.423	23.85
303.638	16.92
303.853	26.53
304.068	46.47
304.283	58.08
304.497	57.5
304.712	74.68
304.927	74.5
305.142	58.17
305.356	44.28
305.571	48.92
305.786	41.48
306	43.36
306.215	33.49
306.43	40.57
306.644	32.65
306.859	29.9
307.074	19.16
307.288	38.75
307.503	43.51
307.717	38.89
307.932	24.19
308.147	31.3
308.361	22.81
308.576	13.01
308.79	29.93
309.005	35.33
309.219	45.08
309.434	42.45
309.648	38.8
309.863	6.45
310.077	14.16
310.292	-3.9
310.506	-2.39
310.72	7.33
310.935	32.61
311.149	32.64
311.364	17.46
311.578	19.49
311.792	41.37
312.007	13.52
312.221	3.35
312.435	2.09
312.649	31.85
312.864	-5.06
313.078	10.46
313.292	5.81
313.507	24.65
313.721	-2.93
313.935	17.13
314.149	21.92
314.363	41.74
314.578	26.15
314.792	21.48
315.006	11.71
315.22	1.09
315.434	6.06
315.648	-15.43
315.862	28
316.077	29.72
316.291	38.14
316.505	32.61
316.719	38.29
316.933	43.45
317.147	43.43
317.361	45.71
317.575	45.23
317.789	45.9
318.003	37.54
318.217	46.03
318.431	57.46
318.645	63.58
318.859	59.51
319.073	52.38
319.287	42.83
319.5	47.74
319.714	58.63
319.928	59.2
320.142	62.56
320.356	58.55
320.57	40.77
320.784	17.67
320.997	20.47
321.211	26.82
321.425	30.8
321.639	29.39
321.853	32.77
322.066	38.68
322.28	38.31
322.494	49.91
322.707	25.01
322.921	32.04
323.135	26.11
323.349	32.33
323.562	38.31
323.776	55.67
323.989	52.22
324.203	50.83
324.417	51.92
324.63	64.22
324.844	57.38
325.057	54.92
325.271	45.35
325.485	47.48
325.698	3.53
325.912	-1.36
326.125	2.7
326.339	23.33
326.552	-16.33
326.766	11.96
326.979	18.29
327.193	23.68
327.406	15.8
327.619	36.96
327.833	17.75
328.046	26.85
328.26	33.13
328.473	34.7
328.686	41.5
328.9	49.34
329.113	41.81
329.326	35.95
329.54	30.62
329.753	34.03
329.966	46.83
330.179	38.25
330.393	32.19
330.606	38.19
330.819	29.35
331.032	-4.91
331.246	6.96
331.459	11.76
331.672	-16.01
331.885	-16.67
332.098	4.28
332.311	12.89
332.525	24.29
332.738	45.28
332.951	40.66
333.164	40.91
333.377	44.06
333.59	49.26
333.803	33.56
334.016	29.99
334.229	21.65
334.442	-5.01
334.655	-8.75
334.868	-2.12
335.081	13.98
335.294	38.24
335.507	40.05
335.72	46.4
335.933	45.86
336.146	35.21
336.359	27.01
336.572	32.1
336.785	19.13
336.997	35.29
337.21	39.4
337.423	36.98
337.636	44.8
337.849	32.45
338.062	35.75
338.274	24.63
338.487	45.34
338.7	44.38
338.913	54.78
339.125	49.41
339.338	47.15
339.551	31.8
339.763	17.92
339.976	12.82
340.189	3.97
340.402	2.21
340.614	10.99
340.827	16.13
341.039	18.5
341.252	33.43
341.465	47.15
341.677	39.62
341.89	54.63
342.102	49.4
342.315	34.43
342.527	43.27
342.74	45.9
342.952	27.15
343.165	36.03
343.377	28.62
343.59	10.85
343.802	20.29
344.015	7.36
344.227	-6.33
344.44	11.49
344.652	22.3
344.864	11.48
345.077	21.39
345.289	14.01
345.502	-16.57
345.714	-13.24
345.926	-6.08
346.139	10.22
346.351	21.07
346.563	18.52
346.775	5.73
346.988	-11.01
347.2	-9.91
347.412	-4.06
347.624	16.14
347.837	21.08
348.049	28.31
348.261	22.19
348.473	22.39
348.685	25.35
348.897	36.85
349.11	21.98
349.322	31.78
349.534	21.86
349.746	16.05
349.958	-4.33
350.17	13.79
350.382	-12.08
350.594	-5.32
350.806	-5.58
351.018	-9.23
351.23	-24.8
351.442	-2.18
351.654	-9.06
351.866	-11.45
352.078	3.24
352.29	6.04
352.502	11.11
352.714	28.15
352.926	34.28
353.138	24.97
353.35	28.77
353.561	37.21
353.773	29.71
353.985	21.88
354.197	24.26
354.409	31.32
354.621	30.38
354.832	21.52
355.044	32.84
355.256	35.9
355.468	24.54
355.679	28.82
355.891	35.4
356.103	32.11
356.314	32.18
356.526	45.39
356.738	46.98
356.949	59.98
357.161	48.33
357.373	46.31
357.584	33.15
357.796	28.74
358.008	3.24
358.219	12.65
358.431	15.17
358.642	11.23
358.854	-11.14
359.065	9.5
359.277	27.4
359.488	24.34
359.7	36.44
359.911	34.13
360.123	43.5
360.334	40.91
360.546	31.25
360.757	19.76
360.969	10.16
361.18	4.1
361.391	15.2
361.603	26.48
361.814	24.26
362.025	39.89
362.237	47.38
362.448	45.62
362.659	30.29
362.871	29.93
363.082	27.47
363.293	19.17
363.504	10
363.716	35.11
363.927	43.28
364.138	43.61
364.349	55.21
364.56	65.44
364.772	56.55
364.983	44.72
365.194	35.57
365.405	21.95
365.616	18.71
365.827	26.94
366.038	36.84
366.25	40.48
366.461	52.06
366.672	42.81
366.883	36.16
367.094	27.48
367.305	37.21
367.516	23.38
367.727	31.51
367.938	28.4
368.149	22.86
368.36	16.17
368.571	21.53
368.781	21.85
368.992	34.03
369.203	57.42
369.414	49.23
369.625	39.88
369.836	39.25
370.047	29.86
370.258	27.17
370.468	32.5
370.679	47.18
370.89	55.93
371.101	59
371.312	51.04
371.522	41.38
371.733	46.31
371.944	42.66
372.155	40.16
372.365	34.57
372.576	48.88
372.787	40.61
372.997	37.01
373.208	36.07
373.419	27.05
373.629	18.95
373.84	21.9
374.05	3.24
374.261	-0.78
374.472	17.11
374.682	14.87
374.893	0.95
375.103	9.24
375.314	16.12
375.524	26.67
375.735	20.23
375.945	28.4
376.156	35.47
376.366	37.13
376.577	30.66
376.787	41.57
376.997	43.29
377.208	39.97
377.418	39.3
377.629	26.42
377.839	20.03
378.049	18.43
378.26	11.08
378.47	1.54
378.68	3.09
378.89	10.33
379.101	6.57
379.311	13.14
379.521	23.72
379.732	39.33
379.942	31.74
380.152	45.09
380.362	34.91
380.572	32.12
380.783	28.53
380.993	23.24
381.203	14.03
381.413	11.5
381.623	11.45
381.833	9.25
382.043	19.43
382.253	23.96
382.463	34.03
382.674	29.27
382.884	28.13
383.094	27.91
383.304	23.5
383.514	14.16
383.724	10.14
383.934	15.88
384.144	12.07
384.353	9.08
384.563	5.94
384.773	7.55
384.983	-0.91
385.193	0.72
385.403	3.65
385.613	10.36
385.823	13.01
386.033	14.33
386.242	19.95
386.452	17.42
386.662	16.19
386.872	14.38
387.082	12.87
387.291	7.96
387.501	6.85
387.711	7.79
387.921	11.52
388.13	15.45
388.34	12.03
388.55	15.34
388.759	12.4
388.969	10.21
389.179	5.36
389.388	6.99
389.598	6.2
389.807	8.13
390.017	9.18
390.227	11.68
390.436	10.35
390.646	9.34
390.855	6.46
391.065	5.46
391.274	6.57
391.484	8.72
391.693	9.69
391.903	11.56
392.112	11.78
392.322	10.09
392.531	8.91
392.74	6.84
392.95	7.13
393.159	5.4
393.369	6.35
393.578	5.69
393.787	7.2
393.997	6
394.206	7.69
394.415	7.25
394.625	8.51
394.834	7.82
395.043	8.08
395.252	7.79
395.462	7.9
395.671	5.93
395.88	6.11
396.089	6.15
396.298	5.86
396.508	5.87
396.717	7.2
396.926	7.08
397.135	6.05
397.344	5.98
397.553	5.36
397.762	4.75
397.971	4.52
398.181	5.45
398.39	5.94
398.599	5.69
398.808	5.92
399.017	5.81
399.226	5.25
399.435	4.65
399.644	4.82
399.853	4.91
400.062	5.1
400.27	5.47
400.479	5.61
400.688	5.61
400.897	5.85
401.106	5.73
401.315	5.9
401.524	6.15
401.733	6.04
401.941	5.71
402.15	5.75
402.359	5.64
402.568	5.35
402.777	5.43
402.985	5.46
403.194	5.43
403.403	5.32
403.612	5.38
403.82	5.41
404.029	5.47
404.238	5.68
404.446	5.57
404.655	5.49
404.864	5.45
405.072	5.37
405.281	5.07
405.489	5.23
405.698	5.33
405.906	5.32
406.115	5.31
406.324	5.34
406.532	5.23
406.741	5.17
406.949	5.14
407.158	5.1
407.366	5.18
407.574	5.22
407.783	5.3
407.991	5.36
408.2	5.16
408.408	5.01
408.617	5.02
408.825	4.93
409.033	4.79
409.242	4.92
409.45	4.87
409.658	4.92
409.867	4.76
410.075	4.75
410.283	4.77
410.491	4.84
410.7	4.78
410.908	4.84
411.116	4.81
411.324	4.93
411.533	4.84
411.741	4.75
411.949	4.69
412.157	4.68
412.365	4.49
412.573	4.54
412.781	4.51
412.99	4.67
413.198	4.71
413.406	4.77
413.614	4.65
413.822	4.78
414.03	4.75
414.238	4.79
414.446	4.75
414.654	4.92
414.862	4.8
415.07	4.6
415.278	4.41
415.486	4.41
415.694	4.4
415.902	4.29
416.109	4.5
416.317	4.67
416.525	4.68
416.733	4.68
416.941	4.73
417.149	4.61
417.357	4.45
417.564	4.42
417.772	4.27
417.98	4.47
418.188	4.5
418.395	4.5
418.603	4.43
418.811	4.64
419.019	4.37
419.226	4.32
419.434	4.3
419.642	4.36
419.849	4.34
420.057	4.36
420.265	4.29
420.472	4.49
420.68	4.51
420.887	4.37
421.095	4.29
421.302	4.37
421.51	4.08
421.717	3.97
421.925	3.89
422.132	4.01
422.34	3.95
422.547	4.09
422.755	4.03
422.962	4.11
423.17	4.1
423.377	4.19
423.585	4.16
423.792	4.21
423.999	4.16
424.207	4.07
424.414	3.74
424.621	3.62
424.829	3.77
425.036	3.96
425.243	4.08
425.451	4.28
425.658	4.37
425.865	4.18
426.072	4.12
426.28	4.11
426.487	4.33
426.694	4.31
426.901	4.32
427.108	4.25
427.315	4.39
427.523	4.12
427.73	4.17
427.937	4.35
428.144	4.34
428.351	4.24
428.558	4.33
428.765	4.39
428.972	4.36
429.179	4.31
429.386	4.36
429.593	4.36
429.8	4.54
430.007	4.52
430.214	4.73
430.421	4.8
430.628	4.81
430.835	4.68
431.042	4.63
431.249	4.46
431.456	4.48
431.662	4.53
431.869	4.52
432.076	4.6
432.283	4.61
432.49	4.58
432.697	4.68
432.903	4.77
433.11	4.74
433.317	4.79
433.524	4.65
433.73	4.82
433.937	4.68
434.144	4.69
434.35	4.86
434.557	4.95
434.764	4.8
434.97	4.97
435.177	5.07
435.384	5.02
435.59	5.04
435.797	5.11
436.003	4.98
436.21	4.9
436.416	4.98
436.623	4.91
436.829	4.83
437.036	5.04
437.242	5.16
437.449	5.15
437.655	5.31
437.862	5.4
438.068	5.28
438.275	5.19
438.481	5.2
438.687	5.19
438.894	5.32
439.1	5.5
439.307	5.52
439.513	5.59
439.719	5.62
439.926	5.49
440.132	5.54
440.338	5.61
440.544	5.56
440.751	5.61
440.957	5.7
441.163	5.69
441.369	5.83
441.575	5.94
441.782	5.96
441.988	6.08
442.194	5.97
442.4	5.95
442.606	5.86
442.812	5.91
443.018	5.7
443.224	5.79
443.431	5.74
443.637	5.89
443.843	5.85
444.049	6.05
444.255	6.2
444.461	6.37
444.667	6.38
444.873	6.32
445.079	6.28
445.284	6.22
445.49	6.18
445.696	6.09
445.902	6.13
446.108	6.22
446.314	6.22
446.52	6.31
446.726	6.43
446.931	6.55
447.137	6.48
447.343	6.5
447.549	6.5
447.755	6.55
447.96	6.54
448.166	6.64
448.372	6.61
448.578	6.68
448.783	6.63
448.989	6.69
449.195	6.73
449.4	6.73
449.606	6.69
449.812	6.72
450.017	6.7
450.223	6.65
450.428	6.81
450.634	6.74
450.84	6.77
451.045	6.88
451.251	7.06
451.456	7
451.662	6.91
451.867	6.94
452.073	7.01
452.278	6.77
452.483	6.68
452.689	6.85
452.894	6.78
453.1	6.64
453.305	6.84
453.51	6.91
453.716	6.99
453.921	7.1
454.127	7.19
454.332	7.31
454.537	7.35
454.742	7.39
454.948	7.37
455.153	7.34
455.358	7.21
455.563	7.2
455.769	7.22
455.974	7.27
456.179	7.36
456.384	7.27
456.589	7.46
456.795	7.46
457	7.48
457.205	7.42
457.41	7.59
457.615	7.6
457.82	7.61
458.025	7.63
458.23	7.79
458.435	7.84
458.64	7.76
458.845	7.73
459.05	7.8
459.255	7.81
459.46	7.68
459.665	7.7
459.87	7.73
460.075	7.66
460.28	7.63
460.485	7.74
460.69	7.77
460.895	7.86
461.099	7.98
461.304	7.98
461.509	7.94
461.714	8.14
461.919	8.11
462.123	8.12
462.328	8.18
462.533	8.29
462.738	8.24
462.942	8.32
463.147	8.41
463.352	8.43
463.556	8.55
463.761	8.52
463.966	8.53
464.17	8.53
464.375	8.62
464.58	8.64
464.784	8.62
464.989	8.7
465.193	8.66
465.398	8.64
465.602	8.58
465.807	8.7
466.011	8.77
466.216	8.73
466.42	8.79
466.625	8.87
466.829	8.86
467.034	8.74
467.238	8.8
467.443	8.82
467.647	8.86
467.851	8.93
468.056	8.93
468.26	9.05
468.464	9.05
