Data from Ofav_PP_Phys_4JQ12_Reflection_3.txt Node
Date: Tue Aug 03 18:17:42 EDT 2021
User: Adam
Spectrometer: FLMT01687
Trigger mode: 0
Integration Time (sec): 8.750000E-1
Scans to average: 2
Electric dark correction enabled: true
Nonlinearity correction enabled: false
Boxcar width: 2
XAxis mode: Wavelengths
Number of Pixels in Spectrum: 3648
>>>>>Begin Spectral Data<<<<<
179.494	250.15
179.716	291.52
179.937	437.29
180.158	650.66
180.38	2907.02
180.601	180.31
180.823	254.53
181.044	122.29
181.265	269.66
181.486	-394.53
181.708	-32.93
181.929	-34.84
182.15	57.6
182.372	455.27
182.593	-336.29
182.814	-65.57
183.035	684.4
183.257	2327.45
183.478	-1.1
183.699	-170.68
183.92	-49.59
184.141	20.81
184.363	79.86
184.584	-20.88
184.805	16.81
185.026	-25.08
185.247	-34.02
185.468	-23.43
185.689	-6.86
185.91	20.64
186.132	23.64
186.353	39.05
186.574	15.55
186.795	24.72
187.016	18.9
187.237	32.43
187.458	22.99
187.679	12.5
187.9	-0.35
188.121	8.67
188.342	-22.32
188.563	-11.78
188.784	-12.78
189.005	-16.34
189.226	-44.21
189.447	-13.19
189.667	-32.81
189.888	3.42
190.109	10.66
190.33	30.83
190.551	58.1
190.772	66.46
190.993	13.85
191.214	14.08
191.434	11.88
191.655	-7.94
191.876	10.05
192.097	48.31
192.318	64.42
192.538	65.11
192.759	57.4
192.98	50.61
193.201	31.81
193.421	15.64
193.642	15.31
193.863	-0.24
194.083	21.55
194.304	26.6
194.525	30.95
194.745	36.87
194.966	91.74
195.187	92.85
195.407	107.02
195.628	104.52
195.848	89.68
196.069	80.78
196.29	56.76
196.51	33.97
196.731	34.13
196.951	27.04
197.172	42.36
197.392	69.65
197.613	68.92
197.833	81.04
198.054	134.32
198.274	79.84
198.495	59.49
198.715	71.83
198.936	75.69
199.156	57.23
199.377	73.43
199.597	87.74
199.817	89.32
200.038	47.88
200.258	55.16
200.479	19.86
200.699	-23.16
200.919	-47.2
201.14	29.24
201.36	16.92
201.58	28.45
201.801	11.43
202.021	-9.91
202.241	-28
202.461	-5.37
202.682	-5.35
202.902	9.97
203.122	52.6
203.342	49.81
203.563	7.47
203.783	12.53
204.003	22.86
204.223	28.42
204.443	7.66
204.663	25.35
204.884	32.45
205.104	3.62
205.324	-5.19
205.544	17.08
205.764	2.75
205.984	-43.12
206.204	19.62
206.424	-36.04
206.644	23.3
206.864	9.73
207.084	37
207.304	3.57
207.525	60.67
207.745	26.95
207.964	-11.01
208.184	8.94
208.404	34.65
208.624	23.46
208.844	20.87
209.064	63.13
209.284	74.43
209.504	49.53
209.724	24.95
209.944	30.24
210.164	14.02
210.384	7.76
210.604	1.95
210.823	30.24
211.043	29.51
211.263	44.3
211.483	40.36
211.703	65.12
211.922	57.63
212.142	48.5
212.362	22.91
212.582	34.91
212.801	20.3
213.021	48.84
213.241	33.55
213.461	45.18
213.68	58.57
213.9	34.79
214.12	-4.49
214.339	30.99
214.559	35.11
214.779	-6.4
214.998	30.92
215.218	57.28
215.438	36.47
215.657	44.94
215.877	59.08
216.096	42.76
216.316	13.26
216.535	9.52
216.755	-26.07
216.974	-11.42
217.194	-2.35
217.413	34.18
217.633	39.46
217.852	55.16
218.072	50.49
218.291	35.59
218.511	13.48
218.73	42.45
218.95	29.95
219.169	30.71
219.389	40.29
219.608	55.39
219.827	17.68
220.047	-0.54
220.266	2.3
220.485	16.51
220.705	12.42
220.924	19.85
221.143	20.79
221.363	36.63
221.582	28.21
221.801	-13.97
222.021	-1.82
222.24	20.63
222.459	-46.98
222.678	-11.62
222.897	28.24
223.117	-3.55
223.336	-133.57
223.555	19.23
223.774	-47.88
223.993	-44.47
224.213	-41.45
224.432	0.05
224.651	13.42
224.87	35.33
225.089	26.87
225.308	24.71
225.527	10.32
225.746	-30.13
225.965	-38.02
226.184	-40.59
226.404	31.6
226.623	59.8
226.842	62.5
227.061	27.83
227.28	33.58
227.499	26.02
227.718	16.94
227.936	23.55
228.155	43.79
228.374	58.14
228.593	55.31
228.812	39.17
229.031	27.84
229.25	61.78
229.469	37.02
229.688	5.15
229.907	-17.96
230.125	3.84
230.344	-53.96
230.563	-44.61
230.782	-21.2
231.001	34.43
231.22	31.3
231.438	29.89
231.657	4.11
231.876	5.41
232.095	-7.52
232.313	-18.42
232.532	-33.7
232.751	24.88
232.969	47.68
233.188	41.58
233.407	40.68
233.625	69.93
233.844	56.24
234.063	49.74
234.281	61.82
234.5	50.1
234.719	18.96
234.937	19.69
235.156	-10.41
235.374	-13.4
235.593	-6.1
235.811	4.1
236.03	10.69
236.249	45.64
236.467	37.37
236.686	27.65
236.904	27.31
237.123	45.91
237.341	36.33
237.559	50.38
237.778	57.77
237.996	45.16
238.215	30.05
238.433	19.11
238.652	8.36
238.87	28.03
239.088	36.23
239.307	26.72
239.525	29.37
239.743	36.41
239.962	30.68
240.18	39.65
240.398	66.21
240.617	68.62
240.835	44.13
241.053	24.25
241.271	-29.38
241.49	-52.94
241.708	-26.14
241.926	-30.1
242.144	-17.74
242.363	5.05
242.581	12.5
242.799	0.03
243.017	33.88
243.235	58.48
243.453	55.53
243.672	59.79
243.89	70.04
244.108	49.38
244.326	17.9
244.544	21.49
244.762	29.94
244.98	13.65
245.198	16.5
245.416	35.3
245.634	27.59
245.852	5.24
246.07	7.7
246.288	-4.16
246.506	23.2
246.724	37.41
246.942	49.5
247.16	48.76
247.378	34.83
247.596	7.85
247.814	7.79
248.032	22.5
248.25	0.83
248.468	10.78
248.685	18.88
248.903	-12.31
249.121	-31.26
249.339	6.79
249.557	20.61
249.775	2.33
249.992	47.81
250.21	55.8
250.428	32.99
250.646	5.86
250.863	39.58
251.081	13.33
251.299	-26.32
251.517	12.9
251.734	13.71
251.952	-9.17
252.17	-24.54
252.387	-29.8
252.605	-63.32
252.823	-46.15
253.04	-50.48
253.258	13.48
253.475	42.22
253.693	40.1
253.911	67.83
254.128	52.15
254.346	45.8
254.563	45.26
254.781	63.59
254.998	47.75
255.216	45.75
255.433	54.85
255.651	34.85
255.868	-4.34
256.086	-16.6
256.303	6.58
256.521	4.75
256.738	8.52
256.956	23.96
257.173	32.16
257.39	24.9
257.608	30.45
257.825	5.75
258.043	-48.56
258.26	-25.36
258.477	2.28
258.695	-2.97
258.912	11.35
259.129	34.09
259.346	61.05
259.564	41.04
259.781	46.98
259.998	56
260.216	49.7
260.433	18.69
260.65	14.05
260.867	14.58
261.084	9.42
261.302	-10.02
261.519	2.52
261.736	35.8
261.953	29.01
262.17	18.75
262.387	32.97
262.604	26.04
262.822	11.58
263.039	22.48
263.256	30
263.473	35.84
263.69	62.75
263.907	53.72
264.124	31.12
264.341	7.56
264.558	-21.91
264.775	-53.51
264.992	-30.04
265.209	-37.98
265.426	-38
265.643	-11.75
265.86	1.79
266.077	15.95
266.294	32.01
266.51	58.97
266.727	76.6
266.944	81.45
267.161	74.71
267.378	71.5
267.595	44.84
267.812	41.44
268.028	30.08
268.245	31.6
268.462	45.23
268.679	61.68
268.896	22.64
269.112	23.32
269.329	-24.85
269.546	-102.39
269.763	-69.28
269.979	-19.5
270.196	-0.93
270.413	20.17
270.629	24.67
270.846	41.66
271.063	38.7
271.279	36.12
271.496	56.46
271.712	46.64
271.929	30.1
272.146	43.84
272.362	30.83
272.579	7.7
272.795	18.38
273.012	11.89
273.228	15.9
273.445	28.5
273.661	34.36
273.878	43.81
274.094	40.24
274.311	48.23
274.527	15
274.744	23.35
274.96	2.59
275.177	-16.53
275.393	-42.23
275.609	-3.87
275.826	-18.64
276.042	6.38
276.259	20.96
276.475	15.87
276.691	13.76
276.908	29.5
277.124	19.76
277.34	21.73
277.557	23.84
277.773	29.2
277.989	26.96
278.205	28.46
278.422	30.04
278.638	34.26
278.854	26.14
279.07	24.96
279.286	21.94
279.503	28.91
279.719	23.86
279.935	26.53
280.151	28.79
280.367	25.33
280.583	8.42
280.799	19.92
281.016	19.61
281.232	-1.45
281.448	-0.95
281.664	1.8
281.88	9.08
282.096	20.54
282.312	7.78
282.528	1.24
282.744	8.46
282.96	-4.61
283.176	2.73
283.392	25.17
283.608	33.33
283.824	36.1
284.04	38.48
284.256	31.23
284.471	27.88
284.687	33.97
284.903	21.35
285.119	1.79
285.335	-7.6
285.551	-11.83
285.767	-10.05
285.982	-0.38
286.198	33.05
286.414	20.32
286.63	5.55
286.846	-15.66
287.061	-13.35
287.277	-69.58
287.493	-30.7
287.709	-64.13
287.924	-23.46
288.14	-27.38
288.356	-21.37
288.571	-37.39
288.787	4.68
289.003	-4.13
289.218	-22.1
289.434	15.02
289.65	24.15
289.865	3.64
290.081	-71.14
290.296	-21.23
290.512	3.52
290.727	15.91
290.943	38.82
291.159	70.39
291.374	70.47
291.59	65.68
291.805	65.76
292.021	70.24
292.236	61.05
292.451	49.63
292.667	47.37
292.882	22.39
293.098	-2.96
293.313	-9.08
293.529	11.36
293.744	4.55
293.959	37.91
294.175	34.39
294.39	38.79
294.605	29.39
294.821	23.34
295.036	18.15
295.251	18.71
295.467	6.89
295.682	5.95
295.897	6.22
296.112	7.98
296.328	11.13
296.543	29.67
296.758	22.27
296.973	7.85
297.188	0.9
297.404	21.07
297.619	12.14
297.834	27.64
298.049	33.66
298.264	53.06
298.479	30
298.694	8.22
298.909	1.49
299.125	21.9
299.34	7.45
299.555	21.02
299.77	25.22
299.985	56.64
300.2	65.69
300.415	70.39
300.63	51.78
300.845	61.82
301.06	35.83
301.275	-9.55
301.49	9
301.704	26.56
301.919	31.55
302.134	32.55
302.349	44.62
302.564	50.32
302.779	44.21
302.994	41.24
303.209	41.56
303.423	34.92
303.638	29.16
303.853	41.71
304.068	47.67
304.283	47.33
304.497	52.32
304.712	65.98
304.927	55.57
305.142	59.43
305.356	58.96
305.571	54.25
305.786	44.43
306	64.92
306.215	52.15
306.43	64.82
306.644	54.94
306.859	45.37
307.074	38.39
307.288	48.8
307.503	25.36
307.717	17.12
307.932	4.55
308.147	14.33
308.361	-13.44
308.576	-13.24
308.79	28.42
309.005	48.03
309.219	26.68
309.434	28.4
309.648	43.67
309.863	20.1
310.077	9.98
310.292	19.19
310.506	37.29
310.72	39.42
310.935	22.23
311.149	12.93
311.364	-11.88
311.578	-34.26
311.792	-44.82
312.007	-32.09
312.221	5.89
312.435	-9.97
312.649	12.29
312.864	10.83
313.078	13.81
313.292	-9.12
313.507	9.53
313.721	5.71
313.935	-0.32
314.149	-14.36
314.363	19.58
314.578	15.3
314.792	18.79
315.006	8.29
315.22	6.24
315.434	-19.95
315.648	-35.8
315.862	-6.6
316.077	5.71
316.291	25.41
316.505	36.29
316.719	37.59
316.933	35.19
317.147	26.41
317.361	12.99
317.575	32.17
317.789	33.17
318.003	42.05
318.217	39.87
318.431	40.15
318.645	2.28
318.859	0.49
319.073	-15.05
319.287	7.05
319.5	23.3
319.714	50.19
319.928	66.02
320.142	65.99
320.356	42.62
320.57	40.44
320.784	28.68
320.997	3.8
321.211	13.81
321.425	19.58
321.639	21.84
321.853	0.42
322.066	2.06
322.28	4.01
322.494	3.43
322.707	-33.66
322.921	-21.48
323.135	-9.19
323.349	4.33
323.562	26.85
323.776	53.84
323.989	53.42
324.203	55.37
324.417	42.94
324.63	46.08
324.844	36.83
325.057	36.93
325.271	23.41
325.485	34.79
325.698	-7.49
325.912	-35.2
326.125	-2.91
326.339	-13.37
326.552	-41.64
326.766	-10.45
326.979	2.94
327.193	-24.2
327.406	-16.38
327.619	10.34
327.833	-17.74
328.046	2.5
328.26	38.89
328.473	25.74
328.686	37.19
328.9	45.87
329.113	41.4
329.326	32.8
329.54	45.42
329.753	28.5
329.966	44.44
330.179	18.16
330.393	10.5
330.606	3.24
330.819	3.25
331.032	-18.22
331.246	1.22
331.459	-7.7
331.672	-17.62
331.885	2.49
332.098	15.97
332.311	30.02
332.525	55.47
332.738	55.37
332.951	43.69
333.164	48.63
333.377	42.96
333.59	11.16
333.803	8.01
334.016	10.59
334.229	-2.22
334.442	-23.12
334.655	-6.06
334.868	-3.7
335.081	-1.13
335.294	1.04
335.507	12.4
335.72	13.36
335.933	21.37
336.146	18.43
336.359	17.23
336.572	24.47
336.785	29.93
336.997	37.63
337.21	23.39
337.423	31.49
337.636	32.72
337.849	24.85
338.062	20.09
338.274	11.84
338.487	25.19
338.7	19.23
338.913	30.71
339.125	26.19
339.338	29.59
339.551	8.77
339.763	-6.38
339.976	-10.09
340.189	-9.31
340.402	-6.94
340.614	13.91
340.827	47.71
341.039	48.35
341.252	60.01
341.465	70.02
341.677	51.2
341.89	46.08
342.102	39.5
342.315	28.67
342.527	34.04
342.74	57.71
342.952	36.09
343.165	51.81
343.377	36.03
343.59	24.28
343.802	-13.98
344.015	-37.11
344.227	-75.12
344.44	-34.68
344.652	-12.25
344.864	-7.62
345.077	-4.04
345.289	-6.97
345.502	-29.34
345.714	-61.92
345.926	-37.45
346.139	-8.92
346.351	3.81
346.563	13.94
346.775	14.96
346.988	10.42
347.2	12.32
347.412	22.41
347.624	28.22
347.837	24.71
348.049	13.52
348.261	-11.07
348.473	-29.36
348.685	-22.98
348.897	-2.72
349.11	3.15
349.322	7.77
349.534	12.12
349.746	6.15
349.958	11.11
350.17	15.21
350.382	23.5
350.594	17.4
350.806	32.58
351.018	23.24
351.23	19.33
351.442	18.43
351.654	6.33
351.866	1.82
352.078	-13.32
352.29	-17.78
352.502	-14.74
352.714	-9.1
352.926	-16.09
353.138	-8.75
353.35	2.17
353.561	21.39
353.773	34.39
353.985	39.69
354.197	45.47
354.409	47.31
354.621	39.72
354.832	37.23
355.044	38.69
355.256	38.68
355.468	36.7
355.679	30.86
355.891	28.37
356.103	36.21
356.314	33.51
356.526	27.91
356.738	32.23
356.949	31.62
357.161	-6.42
357.373	4.06
357.584	16.83
357.796	8.67
358.008	3.67
358.219	23.6
358.431	14.89
358.642	14.35
358.854	7.6
359.065	19.39
359.277	41.57
359.488	33.06
359.7	36.47
359.911	33.14
360.123	16.6
360.334	-6.27
360.546	14.64
360.757	1.04
360.969	8.89
361.18	23.03
361.391	34.38
361.603	27.06
361.814	19.07
362.025	22.87
362.237	26.81
362.448	11.57
362.659	8.55
362.871	8.64
363.082	1.45
363.293	-10.84
363.504	9.3
363.716	23.92
363.927	37.28
364.138	36.73
364.349	48.96
364.56	43.22
364.772	53.54
364.983	36.22
365.194	29.72
365.405	16.43
365.616	6.38
365.827	2.1
366.038	13.55
366.25	20.75
366.461	40.16
366.672	35.79
366.883	25.98
367.094	25.45
367.305	27.91
367.516	9.09
367.727	25.24
367.938	26.37
368.149	25.48
368.36	12.53
368.571	18.82
368.781	15.88
368.992	18.16
369.203	28.41
369.414	39.19
369.625	42.4
369.836	40.93
370.047	43.85
370.258	36.47
370.468	40.92
370.679	51.82
370.89	55.96
371.101	51.66
371.312	51.07
371.522	46.11
371.733	39.06
371.944	38.37
372.155	38.74
372.365	36.43
372.576	40.6
372.787	35.82
372.997	31.59
373.208	26.44
373.419	10.59
373.629	10.42
373.84	19.11
374.05	18.19
374.261	12.87
374.472	33.4
374.682	31.89
374.893	28.73
375.103	19.79
375.314	36.41
375.524	33.39
375.735	29.68
375.945	22.56
376.156	31.64
376.366	16.69
376.577	10.43
376.787	12.42
376.997	14.94
377.208	12.98
377.418	25.37
377.629	26.33
377.839	18.13
378.049	18.69
378.26	17.94
378.47	4.66
378.68	1.05
378.89	9.25
379.101	11.89
379.311	23.86
379.521	36.01
379.732	45.17
379.942	49.64
380.152	52.25
380.362	43.43
380.572	41.29
380.783	38.19
380.993	32.75
381.203	27.51
381.413	14.27
381.623	18.04
381.833	16.32
382.043	11.88
382.253	13.31
382.463	17.83
382.674	14.28
382.884	8.62
383.094	4.84
383.304	9.53
383.514	8.18
383.724	-7.37
383.934	3.82
384.144	12.28
384.353	7.22
384.563	9.41
384.773	17.55
384.983	9.35
385.193	8.97
385.403	11.76
385.613	13.4
385.823	16.9
386.033	17.05
386.242	18.47
386.452	15.76
386.662	17.33
386.872	9.95
387.082	6.03
387.291	2.07
387.501	2.28
387.711	-1.28
387.921	7.23
388.13	11.91
388.34	10.94
388.55	12.66
388.759	13.81
388.969	9.04
389.179	7.15
389.388	4.22
389.598	4.62
389.807	3.67
390.017	4.58
390.227	4.38
390.436	6.27
390.646	2.37
390.855	0.6
391.065	0.45
391.274	1.82
391.484	2.38
391.693	3.87
391.903	4.53
392.112	5.56
392.322	4.26
392.531	3.7
392.74	2.21
392.95	3.23
393.159	1.17
393.369	2.33
393.578	1.77
393.787	4.3
393.997	4.23
394.206	5.61
394.415	4
394.625	4.77
394.834	4.24
395.043	4.4
395.252	3.98
395.462	4.64
395.671	3.31
395.88	3.13
396.089	2.69
396.298	2.66
396.508	2.59
396.717	3.8
396.926	3.27
397.135	2.53
397.344	2.34
397.553	1.91
397.762	1.15
397.971	1.21
398.181	1.67
398.39	2.22
398.599	2.58
398.808	2.79
399.017	2.49
399.226	2.02
399.435	1.39
399.644	1.27
399.853	1.16
400.062	1.32
400.27	1.65
400.479	1.94
400.688	2.09
400.897	2.22
401.106	2.26
401.315	2.45
401.524	2.71
401.733	2.25
401.941	2.15
402.15	2.24
402.359	2.22
402.568	1.78
402.777	1.88
402.985	2.04
403.194	1.94
403.403	1.83
403.612	1.93
403.82	1.98
404.029	1.82
404.238	2.08
404.446	1.97
404.655	1.98
404.864	1.91
405.072	2.11
405.281	1.89
405.489	2.12
405.698	2.07
405.906	2.21
406.115	2.06
406.324	2.12
406.532	1.86
406.741	1.84
406.949	1.93
407.158	1.95
407.366	1.95
407.574	1.97
407.783	2.02
407.991	1.94
408.2	1.74
408.408	1.64
408.617	1.71
408.825	1.7
409.033	1.65
409.242	1.7
409.45	1.52
409.658	1.7
409.867	1.76
410.075	1.79
410.283	1.91
410.491	2.11
410.7	1.98
410.908	1.83
411.116	1.72
411.324	1.73
411.533	1.61
411.741	1.55
411.949	1.5
412.157	1.53
412.365	1.49
412.573	1.66
412.781	1.7
412.99	1.93
413.198	1.98
413.406	1.89
413.614	1.72
413.822	1.7
414.03	1.65
414.238	1.63
414.446	1.71
414.654	1.83
414.862	1.88
415.07	1.67
415.278	1.65
415.486	1.7
415.694	1.76
415.902	1.68
416.109	1.85
416.317	1.87
416.525	1.79
416.733	1.77
416.941	1.77
417.149	1.65
417.357	1.58
417.564	1.51
417.772	1.36
417.98	1.44
418.188	1.59
418.395	1.64
418.603	1.75
418.811	1.87
419.019	1.84
419.226	1.71
419.434	1.53
419.642	1.62
419.849	1.53
420.057	1.48
420.265	1.43
420.472	1.72
420.68	1.53
420.887	1.49
421.095	1.35
421.302	1.56
421.51	1.33
421.717	1.32
421.925	1.3
422.132	1.49
422.34	1.39
422.547	1.37
422.755	1.36
422.962	1.44
423.17	1.4
423.377	1.47
423.585	1.5
423.792	1.49
423.999	1.43
424.207	1.44
424.414	1.13
424.621	1.04
424.829	1.15
425.036	1.27
425.243	1.15
425.451	1.31
425.658	1.38
425.865	1.32
426.072	1.2
426.28	1.23
426.487	1.28
426.694	1.2
426.901	1.18
427.108	1.26
427.315	1.47
427.523	1.37
427.73	1.46
427.937	1.63
428.144	1.55
428.351	1.32
428.558	1.19
428.765	1.19
428.972	1.17
429.179	1.16
429.386	1.11
429.593	1.39
429.8	1.65
430.007	1.6
430.214	1.69
430.421	1.89
430.628	1.81
430.835	1.78
431.042	1.7
431.249	1.71
431.456	1.74
431.662	1.77
431.869	1.77
432.076	1.67
432.283	1.57
432.49	1.51
432.697	1.5
432.903	1.44
433.11	1.58
433.317	1.44
433.524	1.31
433.73	1.48
433.937	1.28
434.144	1.32
434.35	1.44
434.557	1.61
434.764	1.55
434.97	1.81
435.177	1.79
435.384	1.97
435.59	1.84
435.797	1.74
436.003	1.5
436.21	1.41
436.416	1.28
436.623	1.31
436.829	1.32
437.036	1.47
437.242	1.55
437.449	1.52
437.655	1.65
437.862	1.63
438.068	1.52
438.275	1.53
438.481	1.51
438.687	1.52
438.894	1.67
439.1	1.8
439.307	1.69
439.513	1.76
439.719	1.63
439.926	1.59
440.132	1.62
440.338	1.82
440.544	1.72
440.751	1.87
440.957	1.7
441.163	1.64
441.369	1.54
441.575	1.69
441.782	1.7
441.988	1.9
442.194	2
442.4	2.01
442.606	2.02
442.812	2
443.018	1.83
443.224	1.77
443.431	1.67
443.637	1.71
443.843	1.74
444.049	1.76
444.255	1.86
444.461	2.04
444.667	1.98
444.873	1.74
445.079	1.79
445.284	1.73
445.49	1.76
445.696	1.79
445.902	1.98
446.108	2.07
446.314	2.08
446.52	2.14
446.726	2.13
446.931	2.11
447.137	2.05
447.343	2.03
447.549	1.98
447.755	2.03
447.96	1.95
448.166	2.02
448.372	1.93
448.578	1.9
448.783	1.9
448.989	2.03
449.195	1.88
449.4	1.98
449.606	1.98
449.812	1.99
450.017	1.87
450.223	2.04
450.428	2.16
450.634	2.17
450.84	2.1
451.045	2.26
451.251	2.27
451.456	2.12
451.662	1.87
451.867	1.85
452.073	1.78
452.278	1.66
452.483	1.6
452.689	1.84
452.894	1.85
453.1	1.82
453.305	1.9
453.51	2
453.716	1.94
453.921	1.94
454.127	1.98
454.332	2.04
454.537	2.06
454.742	2.11
454.948	2.17
455.153	2.19
455.358	2.04
455.563	1.93
455.769	1.85
455.974	1.87
456.179	1.83
456.384	1.8
456.589	1.96
456.795	2.03
457	2.03
457.205	1.95
457.41	2
457.615	1.97
457.82	1.95
458.025	1.9
458.23	2.03
458.435	2.04
458.64	2.03
458.845	2.03
459.05	1.98
459.255	2.01
459.46	1.99
459.665	1.95
459.87	2
460.075	2.02
460.28	2
460.485	2.05
460.69	2
460.895	2.05
461.099	2.12
461.304	2.04
461.509	1.99
461.714	2.08
461.919	1.94
462.123	1.91
462.328	1.96
462.533	2.05
462.738	2.06
462.942	2.16
463.147	2.19
463.352	2.08
463.556	2.13
463.761	2.12
463.966	2.07
464.17	2.04
464.375	2.18
464.58	2.19
464.784	2.19
464.989	2.2
465.193	2.25
465.398	2.24
465.602	2.05
465.807	2.1
466.011	2.16
466.216	2.1
466.42	2.15
466.625	2.3
466.829	2.15
467.034	2.09
467.238	2.03
467.443	1.98
467.647	1.98
467.851	2.17
468.056	2.16
468.26	2.3
468.464	2.29
