Data from Ofav_PP_Phys_2JQ6_Reflection_2.txt Node
Date: Tue Aug 03 18:13:48 EDT 2021
User: Adam
Spectrometer: FLMT01687
Trigger mode: 0
Integration Time (sec): 8.750000E-1
Scans to average: 2
Electric dark correction enabled: true
Nonlinearity correction enabled: false
Boxcar width: 2
XAxis mode: Wavelengths
Number of Pixels in Spectrum: 3648
>>>>>Begin Spectral Data<<<<<
179.494	224.62
179.716	248.94
179.937	303.82
180.158	424.15
180.38	1445.61
180.601	-5.46
180.823	5.74
181.044	4.23
181.265	-17.56
181.486	157.21
181.708	55.12
181.929	40.1
182.15	-48.81
182.372	-33.76
182.593	127.43
182.814	218.32
183.035	-5.67
183.257	-62.75
183.478	132.89
183.699	277.91
183.92	148.59
184.141	120.5
184.363	107.75
184.584	36.06
184.805	18.27
185.026	-3.35
185.247	-1.26
185.468	9.91
185.689	23.5
185.91	44.78
186.132	66.14
186.353	55.14
186.574	33.16
186.795	23.87
187.016	9.51
187.237	9.76
187.458	17.49
187.679	8.15
187.9	17.85
188.121	26.16
188.342	15.43
188.563	3.94
188.784	13.07
189.005	29.55
189.226	39.53
189.447	52.3
189.667	48.97
189.888	58.26
190.109	55.5
190.33	38.77
190.551	31.95
190.772	73.54
190.993	75.97
191.214	74.5
191.434	73.98
191.655	30.34
191.876	8.78
192.097	9.13
192.318	14.31
192.538	20.23
192.759	40.42
192.98	51.06
193.201	55.03
193.421	47.88
193.642	44.22
193.863	27.69
194.083	37.72
194.304	40.2
194.525	29.5
194.745	17.77
194.966	61.57
195.187	43.95
195.407	48.41
195.628	51.11
195.848	67.25
196.069	62.54
196.29	66.67
196.51	62.22
196.731	60.76
196.951	50.42
197.172	70.33
197.392	93.61
197.613	75.95
197.833	73.76
198.054	95.97
198.274	51.85
198.495	51.34
198.715	57.94
198.936	74.54
199.156	85.44
199.377	72.58
199.597	67.56
199.817	77.97
200.038	58.55
200.258	9.06
200.479	-20.07
200.699	-45.84
200.919	-84.48
201.14	-3.18
201.36	29.81
201.58	42.69
201.801	19.74
202.021	30.74
202.241	24.73
202.461	24.43
202.682	48.3
202.902	85.4
203.122	77.61
203.342	69.1
203.563	34.05
203.783	17.8
204.003	40.49
204.223	40.25
204.443	28.95
204.663	44.42
204.884	15.07
205.104	-27.42
205.324	-27.56
205.544	-58.02
205.764	-54.38
205.984	-67.96
206.204	-40.96
206.424	-65.44
206.644	30.22
206.864	17.44
207.084	58.38
207.304	92.05
207.525	81.4
207.745	79.97
207.964	83.52
208.184	65.88
208.404	62.13
208.624	53.37
208.844	39.61
209.064	44.35
209.284	40.92
209.504	30.13
209.724	24.77
209.944	30.29
210.164	3.96
210.384	22.89
210.604	21.22
210.823	60.49
211.043	41.43
211.263	78
211.483	97.51
211.703	107.13
211.922	79.49
212.142	65.9
212.362	48.18
212.582	34.72
212.801	27.1
213.021	38.52
213.241	32.32
213.461	52.59
213.68	55.13
213.9	28.91
214.12	28.39
214.339	57.29
214.559	55.23
214.779	40.35
214.998	66.67
215.218	82.12
215.438	72.94
215.657	90.49
215.877	96.78
216.096	83.32
216.316	66.44
216.535	75.42
216.755	34.24
216.974	30.18
217.194	55.88
217.413	89.51
217.633	72.72
217.852	77.77
218.072	76.25
218.291	64.85
218.511	22.06
218.73	58.56
218.95	56.25
219.169	54.71
219.389	57.13
219.608	71.54
219.827	28.41
220.047	22.85
220.266	16.61
220.485	22.24
220.705	32.48
220.924	42.38
221.143	37.31
221.363	73.03
221.582	61.97
221.801	48.47
222.021	34.44
222.24	36.43
222.459	-33.27
222.678	7.78
222.897	20.49
223.117	-4.5
223.336	-45.56
223.555	63.35
223.774	71.52
223.993	38.21
224.213	48.84
224.432	42.89
224.651	48.29
224.87	45.42
225.089	48.78
225.308	18.52
225.527	13.06
225.746	-35.71
225.965	-47.57
226.184	-95.51
226.404	24.41
226.623	56.62
226.842	76.68
227.061	52.19
227.28	49.28
227.499	52.43
227.718	42.14
227.936	30.87
228.155	44.68
228.374	46.17
228.593	33.49
228.812	16.56
229.031	2.15
229.25	28.21
229.469	31.75
229.688	14.35
229.907	-35.93
230.125	31.36
230.344	8.42
230.563	-1.24
230.782	12.32
231.001	54.52
231.22	39
231.438	47.71
231.657	38.16
231.876	36.71
232.095	23.15
232.313	12.37
232.532	-13.9
232.751	17.57
232.969	29.77
233.188	34.56
233.407	54.17
233.625	77.83
233.844	81.51
234.063	72.22
234.281	69.33
234.5	51.3
234.719	25.32
234.937	1.46
235.156	1.24
235.374	-6.43
235.593	4.8
235.811	-11.69
236.03	22.14
236.249	59.36
236.467	65.01
236.686	69.66
236.904	91.9
237.123	82.23
237.341	61.2
237.559	59.59
237.778	56.34
237.996	44.17
238.215	43.96
238.433	39.18
238.652	42.4
238.87	39.81
239.088	51.49
239.307	54.07
239.525	50.55
239.743	68.28
239.962	80.23
240.18	70
240.398	82.74
240.617	110.06
240.835	82.4
241.053	76.77
241.271	98.5
241.49	79.12
241.708	68.92
241.926	49.08
242.144	40.28
242.363	55.47
242.581	52.32
242.799	35.69
243.017	40.03
243.235	62.34
243.453	47.09
243.672	38.21
243.89	37
244.108	49.41
244.326	18.95
244.544	29.28
244.762	43.81
244.98	41.93
245.198	46.83
245.416	59.4
245.634	43.99
245.852	30.81
246.07	28.19
246.288	-3.27
246.506	15.05
246.724	17.29
246.942	23
247.16	45.41
247.378	47.15
247.596	43.65
247.814	56.32
248.032	59
248.25	57.89
248.468	59.37
248.685	51.69
248.903	25.22
249.121	40.08
249.339	38.32
249.557	38.62
249.775	21.2
249.992	72.4
250.21	54.45
250.428	46.99
250.646	42.69
250.863	61.65
251.081	24.68
251.299	8.61
251.517	23.22
251.734	15.24
251.952	10.03
252.17	14.49
252.387	6.81
252.605	8.63
252.823	44.33
253.04	-3.37
253.258	26.95
253.475	41.79
253.693	16.11
253.911	25.41
254.128	36.61
254.346	40.96
254.563	33.7
254.781	56.35
254.998	52.86
255.216	39.34
255.433	32.72
255.651	42.14
255.868	12.22
256.086	-17.06
256.303	19.69
256.521	29.37
256.738	27.04
256.956	56.32
257.173	74.44
257.39	60.9
257.608	43.82
257.825	48.59
258.043	1.96
258.26	8.14
258.477	-6.66
258.695	-0.62
258.912	-8.68
259.129	29.25
259.346	40.87
259.564	60.71
259.781	68.24
259.998	70.62
260.216	54.12
260.433	39.65
260.65	22.77
260.867	19.67
261.084	2.31
261.302	-25.87
261.519	-9.39
261.736	26.64
261.953	35.44
262.17	37.71
262.387	53.67
262.604	72.35
262.822	72.47
263.039	63.77
263.256	61.75
263.473	65.06
263.69	63.44
263.907	51.14
264.124	28.15
264.341	25.54
264.558	1.44
264.775	-4.57
264.992	-2.29
265.209	24.17
265.426	15.95
265.643	34.69
265.86	49.92
266.077	58.42
266.294	55.16
266.51	61.04
266.727	71.58
266.944	57.13
267.161	61.96
267.378	60.19
267.595	61.47
267.812	49.52
268.028	46.2
268.245	39.36
268.462	47.74
268.679	56.47
268.896	40.53
269.112	38.68
269.329	26.07
269.546	-23.69
269.763	-18.07
269.979	14.77
270.196	29.65
270.413	34.15
270.629	31.82
270.846	46
271.063	33.9
271.279	41.47
271.496	54.5
271.712	32.22
271.929	4.91
272.146	38.01
272.362	24.79
272.579	5.34
272.795	25.49
273.012	32.22
273.228	22.55
273.445	16.84
273.661	32.17
273.878	40.74
274.094	27.01
274.311	10.95
274.527	7.02
274.744	8.53
274.96	9.4
275.177	26.98
275.393	25.96
275.609	20.05
275.826	17.88
276.042	20.08
276.259	20.81
276.475	16.33
276.691	13.19
276.908	23.07
277.124	9.93
277.34	12.97
277.557	28.37
277.773	41.78
277.989	37.14
278.205	53.71
278.422	53.56
278.638	25.55
278.854	4.98
279.07	5.91
279.286	10.58
279.503	24.93
279.719	40.23
279.935	51.28
280.151	47.38
280.367	37.85
280.583	17.52
280.799	20.19
281.016	21.69
281.232	11.24
281.448	0.33
281.664	11.88
281.88	20.87
282.096	26.46
282.312	22.48
282.528	-0.53
282.744	1.64
282.96	-5.29
283.176	-7.32
283.392	1.97
283.608	31.35
283.824	30.65
284.04	30.94
284.256	26.41
284.471	20.97
284.687	24.63
284.903	21.76
285.119	9.02
285.335	3.88
285.551	1.4
285.767	1.56
285.982	20.79
286.198	30.14
286.414	19.78
286.63	16.96
286.846	1.35
287.061	-8
287.277	-40.37
287.493	-13.89
287.709	-20.65
287.924	10.3
288.14	-13.33
288.356	-20.12
288.571	-18.65
288.787	-16.31
289.003	-37.34
289.218	-38.79
289.434	9.67
289.65	21.17
289.865	46.09
290.081	59.87
290.296	41.85
290.512	40.62
290.727	42.27
290.943	42.32
291.159	48.89
291.374	49.06
291.59	57.63
291.805	55.22
292.021	62.7
292.236	57.3
292.451	51.7
292.667	57.24
292.882	46.67
293.098	17.35
293.313	32.08
293.529	55.68
293.744	26.65
293.959	31.17
294.175	39.09
294.39	23.04
294.605	26.42
294.821	28.05
295.036	28.53
295.251	44.59
295.467	46.18
295.682	38.8
295.897	31.18
296.112	34.85
296.328	18.5
296.543	31.89
296.758	12.74
296.973	15.25
297.188	15.14
297.404	35.89
297.619	36.9
297.834	54.11
298.049	62.91
298.264	81.98
298.479	62.7
298.694	36.33
298.909	42.51
299.125	31.85
299.34	-13.84
299.555	6.48
299.77	-3.71
299.985	27
300.2	50.96
300.415	97.63
300.63	91.34
300.845	101.17
301.06	69.97
301.275	38.48
301.49	34.48
301.704	46.54
301.919	49.04
302.134	53.16
302.349	58.27
302.564	54.87
302.779	46.32
302.994	32.58
303.209	28.62
303.423	8.78
303.638	12.41
303.853	13.95
304.068	21.06
304.283	38.33
304.497	61.68
304.712	71.12
304.927	76.6
305.142	79.72
305.356	68.16
305.571	54.28
305.786	37.55
306	32.95
306.215	23.03
306.43	34.46
306.644	22.47
306.859	19.44
307.074	19.45
307.288	40.64
307.503	30.68
307.717	36.44
307.932	31.12
308.147	38.7
308.361	14.66
308.576	39.42
308.79	48.34
309.005	61.46
309.219	50.35
309.434	64.29
309.648	67.47
309.863	70.53
310.077	53.43
310.292	69.17
310.506	53.93
310.72	54.13
310.935	27.38
311.149	36.35
311.364	6.82
311.578	0.5
311.792	-5.37
312.007	1.15
312.221	-0.82
312.435	14.58
312.649	34.8
312.864	-15.24
313.078	-1.33
313.292	-8.69
313.507	-1.11
313.721	-13.08
313.935	13.36
314.149	9.68
314.363	34.03
314.578	28.86
314.792	34.21
315.006	7.02
315.22	24.22
315.434	0.85
315.648	-12.64
315.862	4.35
316.077	26.37
316.291	26.46
316.505	25.55
316.719	29.98
316.933	30.21
317.147	26.27
317.361	21.26
317.575	40.23
317.789	45.81
318.003	50.21
318.217	48.11
318.431	50.98
318.645	33.62
318.859	10.67
319.073	-10.33
319.287	14.1
319.5	27.12
319.714	56.03
319.928	67.8
320.142	74.75
320.356	53.12
320.57	45.53
320.784	26.58
320.997	10.3
321.211	28.66
321.425	40.23
321.639	34.68
321.853	-4.59
322.066	-8.47
322.28	-13.54
322.494	-42.78
322.707	-63.61
322.921	-16.06
323.135	3.71
323.349	-8.53
323.562	19.65
323.776	57.32
323.989	52.14
324.203	49.26
324.417	53.63
324.63	58.46
324.844	46.94
325.057	51.43
325.271	47.13
325.485	59.02
325.698	31.97
325.912	18.25
326.125	29.97
326.339	21.69
326.552	22.95
326.766	46.09
326.979	52.52
327.193	38.61
327.406	49.92
327.619	40.77
327.833	1.65
328.046	-3.42
328.26	16.54
328.473	16.59
328.686	34.33
328.9	41.18
329.113	53.02
329.326	55.25
329.54	63.41
329.753	57.74
329.966	71.08
330.179	65.73
330.393	57.09
330.606	51.45
330.819	49.24
331.032	45.97
331.246	46.18
331.459	47.16
331.672	29.98
331.885	22.85
332.098	22.08
332.311	30.85
332.525	31.03
332.738	39.68
332.951	47.09
333.164	36.62
333.377	36.2
333.59	29.49
333.803	32.17
334.016	26.04
334.229	20.81
334.442	-18.77
334.655	-29.37
334.868	-31.97
335.081	-35.39
335.294	-16.07
335.507	13.04
335.72	28.07
335.933	24.12
336.146	26.22
336.359	37.4
336.572	38.69
336.785	38.89
336.997	58.84
337.21	60.13
337.423	58.03
337.636	74.81
337.849	72.04
338.062	45.47
338.274	32.29
338.487	38.38
338.7	33.92
338.913	45.66
339.125	46.32
339.338	50.52
339.551	39.01
339.763	21.99
339.976	8.5
340.189	19.48
340.402	2.42
340.614	7.17
340.827	32.04
341.039	42.52
341.252	40.26
341.465	55.53
341.677	50.01
341.89	46.27
342.102	46.67
342.315	49.5
342.527	51.8
342.74	54.65
342.952	54.7
343.165	50.93
343.377	26.27
343.59	35.39
343.802	19.56
344.015	-20.34
344.227	-59.83
344.44	-18.92
344.652	-14.26
344.864	-17.41
345.077	13.32
345.289	36.26
345.502	10.08
345.714	7.73
345.926	23.19
346.139	28.51
346.351	24.71
346.563	49.9
346.775	45.81
346.988	36.63
347.2	46.02
347.412	53.91
347.624	47.68
347.837	45.52
348.049	38.79
348.261	8.29
348.473	0.48
348.685	7.15
348.897	8.95
349.11	8.68
349.322	19.74
349.534	19.44
349.746	13.52
349.958	10.2
350.17	12.48
350.382	-7.82
350.594	-11.05
350.806	-2.03
351.018	5.9
351.23	15.2
351.442	45.15
351.654	34.28
351.866	30.98
352.078	17.63
352.29	7.49
352.502	5.17
352.714	18.15
352.926	3.45
353.138	2.73
353.35	12.42
353.561	27.61
353.773	32.21
353.985	40.87
354.197	48.59
354.409	57.23
354.621	49.74
354.832	55.46
355.044	60.34
355.256	53.1
355.468	35.79
355.679	38.02
355.891	34.3
356.103	41.26
356.314	37.29
356.526	38.69
356.738	45.43
356.949	51.04
357.161	19.56
357.373	26.69
357.584	28.9
357.796	10.42
358.008	-13.14
358.219	4.1
358.431	8.53
358.642	12.57
358.854	4.52
359.065	32.54
359.277	48.87
359.488	52.27
359.7	54.11
359.911	45.97
360.123	29.01
360.334	15.47
360.546	12.97
360.757	17.83
360.969	33.05
361.18	33.87
361.391	42.8
361.603	54.4
361.814	36.83
362.025	39.45
362.237	47.82
362.448	44.17
362.659	21.18
362.871	19.72
363.082	17.54
363.293	13.46
363.504	17.86
363.716	34.2
363.927	46.52
364.138	51
364.349	50.24
364.56	54.19
364.772	70.81
364.983	56.07
365.194	41.78
365.405	35.45
365.616	21.93
365.827	12.99
366.038	22.9
366.25	23.52
366.461	38.22
366.672	37.77
366.883	22.93
367.094	22.6
367.305	38.53
367.516	21.51
367.727	28.99
367.938	34.95
368.149	41.28
368.36	26.97
368.571	36.87
368.781	48.4
368.992	74.82
369.203	77.37
369.414	79.39
369.625	73.89
369.836	66.21
370.047	51.83
370.258	38.74
370.468	33.01
370.679	53.6
370.89	55
371.101	41.24
371.312	32.68
371.522	33.43
371.733	26.35
371.944	28.99
372.155	34.77
372.365	40.78
372.576	49.29
372.787	39.74
372.997	39.47
373.208	43.64
373.419	28.49
373.629	23.35
373.84	34.38
374.05	28.93
374.261	21.62
374.472	43.37
374.682	43.69
374.893	37.23
375.103	32.68
375.314	43.18
375.524	35.2
375.735	27.03
375.945	23.04
376.156	24.61
376.366	21.15
376.577	22.11
376.787	21.42
376.997	22.36
377.208	25
377.418	21.59
377.629	11.46
377.839	14.17
378.049	10.14
378.26	-1.06
378.47	-3.65
378.68	4.28
378.89	12.46
379.101	9.64
379.311	20.43
379.521	28.78
379.732	33.35
379.942	31.79
380.152	46.24
380.362	40.12
380.572	44.96
380.783	43.22
380.993	37.12
381.203	29.2
381.413	23.87
381.623	15.44
381.833	17.31
382.043	21.69
382.253	25.55
382.463	33.82
382.674	38.05
382.884	30.15
383.094	27.39
383.304	22.02
383.514	13.31
383.724	0.03
383.934	3.69
384.144	10.14
384.353	9.77
384.563	11.84
384.773	18.91
384.983	22.11
385.193	14.91
385.403	18.9
385.613	17.82
385.823	16.96
386.033	12.05
386.242	15.63
386.452	15.86
386.662	16.48
386.872	14.76
387.082	16.03
387.291	15.45
387.501	11.71
387.711	9.74
387.921	11.81
388.13	11.37
388.34	8.5
388.55	12.25
388.759	13.64
388.969	11.98
389.179	11.3
389.388	9.77
389.598	7.03
389.807	7.52
390.017	10.72
390.227	10.05
390.436	10.26
390.646	6.46
390.855	3.72
391.065	0.81
391.274	3.14
391.484	5.8
391.693	7.68
391.903	8.43
392.112	9.65
392.322	8.78
392.531	7.39
392.74	7.57
392.95	9.33
393.159	7.13
393.369	7.13
393.578	6.12
393.787	6.19
393.997	5.06
394.206	7.1
394.415	6.28
394.625	6.91
394.834	7
395.043	7.2
395.252	6.54
395.462	6.91
395.671	6.16
395.88	5.97
396.089	5.76
396.298	5.71
396.508	5.6
396.717	6.5
396.926	6.21
397.135	5.49
397.344	5.79
397.553	5.68
397.762	4.7
397.971	4.7
398.181	5.04
398.39	5.06
398.599	5.15
398.808	5.43
399.017	5.18
399.226	4.91
399.435	4.46
399.644	4.34
399.853	4.31
400.062	4.66
400.27	5.03
400.479	5.03
400.688	5.06
400.897	5.34
401.106	5.06
401.315	5.27
401.524	5.6
401.733	5.31
401.941	4.68
402.15	4.88
402.359	4.76
402.568	4.33
402.777	4.38
402.985	4.83
403.194	4.81
403.403	4.55
403.612	4.81
403.82	4.93
404.029	4.84
404.238	4.96
404.446	4.93
404.655	4.64
404.864	4.49
405.072	4.6
405.281	4.45
405.489	4.58
405.698	4.8
405.906	4.96
406.115	4.89
406.324	4.9
406.532	4.81
406.741	4.67
406.949	4.6
407.158	4.67
407.366	4.63
407.574	4.66
407.783	4.7
407.991	4.67
408.2	4.32
408.408	4.26
408.617	4.24
408.825	4.24
409.033	4.27
409.242	4.31
409.45	4.21
409.658	4.22
409.867	4.14
410.075	4.1
410.283	4.22
410.491	4.26
410.7	4.23
410.908	4.17
411.116	4.04
411.324	4.05
411.533	4.04
411.741	3.91
411.949	3.87
412.157	3.9
412.365	3.84
412.573	3.86
412.781	3.87
412.99	4.04
413.198	4.04
413.406	3.95
413.614	3.84
413.822	3.99
414.03	3.95
414.238	3.98
414.446	4.06
414.654	4.25
414.862	4.28
415.07	4.14
415.278	4.13
415.486	4.1
415.694	4.1
415.902	3.94
416.109	4.01
416.317	4.05
416.525	3.97
416.733	3.94
416.941	3.91
417.149	3.76
417.357	3.62
417.564	3.67
417.772	3.48
417.98	3.71
418.188	3.93
418.395	3.88
418.603	3.88
418.811	4.18
419.019	3.88
419.226	3.81
419.434	3.77
419.642	3.77
419.849	3.5
420.057	3.63
420.265	3.58
420.472	3.77
420.68	3.64
420.887	3.71
421.095	3.5
421.302	3.68
421.51	3.5
421.717	3.55
421.925	3.48
422.132	3.69
422.34	3.64
422.547	3.6
422.755	3.69
422.962	3.81
423.17	3.81
423.377	3.77
423.585	3.93
423.792	3.86
423.999	3.67
424.207	3.59
424.414	3.31
424.621	3.14
424.829	3.33
425.036	3.5
425.243	3.44
425.451	3.46
425.658	3.63
425.865	3.41
426.072	3.38
426.28	3.39
426.487	3.56
426.694	3.34
426.901	3.27
427.108	3.33
427.315	3.56
427.523	3.49
427.73	3.67
427.937	4.04
428.144	3.98
428.351	3.74
428.558	3.68
428.765	3.63
428.972	3.53
429.179	3.5
429.386	3.55
429.593	3.73
429.8	3.97
430.007	3.92
430.214	3.85
430.421	3.9
430.628	3.93
430.835	3.93
431.042	3.84
431.249	3.97
431.456	4.05
431.662	3.96
431.869	3.88
432.076	3.87
432.283	3.91
432.49	3.81
432.697	3.91
432.903	3.96
433.11	3.98
433.317	3.85
433.524	3.82
433.73	3.95
433.937	3.92
434.144	4.04
434.35	4.06
434.557	4.22
434.764	4.24
434.97	4.28
435.177	4.34
435.384	4.48
435.59	4.51
435.797	4.4
436.003	4.31
436.21	4.27
436.416	4.26
436.623	4.13
436.829	4
437.036	4.14
437.242	4.09
437.449	4.16
437.655	4.25
437.862	4.43
438.068	4.38
438.275	4.44
438.481	4.39
438.687	4.38
438.894	4.39
439.1	4.47
439.307	4.36
439.513	4.37
439.719	4.3
439.926	4.31
440.132	4.24
440.338	4.43
440.544	4.43
440.751	4.6
440.957	4.61
441.163	4.65
441.369	4.66
441.575	4.71
441.782	4.81
441.988	4.91
442.194	4.92
442.4	4.94
442.606	4.92
442.812	4.9
443.018	4.81
443.224	4.76
443.431	4.74
443.637	4.82
443.843	4.75
444.049	4.79
444.255	4.95
444.461	4.96
444.667	5.04
444.873	4.98
445.079	5
445.284	4.96
445.49	5.07
445.696	5.1
445.902	5.18
446.108	5.29
446.314	5.38
446.52	5.38
446.726	5.3
446.931	5.41
447.137	5.39
447.343	5.36
447.549	5.39
447.755	5.36
447.96	5.27
448.166	5.31
448.372	5.26
448.578	5.23
448.783	5.27
448.989	5.29
449.195	5.22
449.4	5.27
449.606	5.33
449.812	5.36
450.017	5.42
450.223	5.45
450.428	5.53
450.634	5.45
450.84	5.48
451.045	5.57
451.251	5.64
451.456	5.5
451.662	5.34
451.867	5.35
452.073	5.21
452.278	5.11
452.483	5.15
452.689	5.31
452.894	5.29
453.1	5.31
453.305	5.43
453.51	5.52
453.716	5.58
453.921	5.62
454.127	5.73
454.332	5.83
454.537	5.77
454.742	5.78
454.948	5.75
455.153	5.7
455.358	5.56
455.563	5.44
455.769	5.44
455.974	5.45
456.179	5.47
456.384	5.46
456.589	5.68
456.795	5.67
457	5.71
457.205	5.61
457.41	5.67
457.615	5.66
457.82	5.64
458.025	5.65
458.23	5.79
458.435	5.72
458.64	5.71
458.845	5.64
459.05	5.66
459.255	5.66
459.46	5.7
459.665	5.65
459.87	5.71
460.075	5.68
460.28	5.71
460.485	5.77
460.69	5.74
460.895	5.85
461.099	5.89
461.304	5.7
461.509	5.69
461.714	5.89
461.919	5.87
462.123	5.89
462.328	5.97
462.533	6.09
462.738	6.08
462.942	6.1
463.147	6.13
463.352	6.05
463.556	6.02
463.761	5.97
463.966	5.95
464.17	5.91
464.375	6.13
464.58	6.18
464.784	6.16
464.989	6.33
465.193	6.34
465.398	6.36
465.602	6.18
465.807	6.34
466.011	6.19
466.216	6.29
466.42	6.3
466.625	6.47
466.829	6.36
467.034	6.43
467.238	6.26
467.443	6.27
467.647	6.35
467.851	6.42
468.056	6.34
468.26	6.52
