Data from Ofav_PP_Phys_2JQ31_Reflection_2.txt Node
Date: Tue Aug 03 18:08:42 EDT 2021
User: Adam
Spectrometer: FLMT01687
Trigger mode: 0
Integration Time (sec): 8.750000E-1
Scans to average: 2
Electric dark correction enabled: true
Nonlinearity correction enabled: false
Boxcar width: 2
XAxis mode: Wavelengths
Number of Pixels in Spectrum: 3648
>>>>>Begin Spectral Data<<<<<
179.494	198.8
179.716	237.76
179.937	250.33
180.158	287.66
180.38	522.81
180.601	-30.8
180.823	-75.94
181.044	34.97
181.265	82.24
181.486	-58.71
181.708	26.95
181.929	-53.63
182.15	-17.29
182.372	51.48
182.593	67.51
182.814	98.17
183.035	397.16
183.257	956.86
183.478	88.3
183.699	1.61
183.92	14.59
184.141	41.94
184.363	41.49
184.584	-87.42
184.805	1.98
185.026	-1.68
185.247	-9.75
185.468	-8.12
185.689	5.16
185.91	-3.21
186.132	12.05
186.353	34.49
186.574	11.93
186.795	30.51
187.016	23.61
187.237	15.07
187.458	-0.84
187.679	17.45
187.9	19.43
188.121	17.57
188.342	17.6
188.563	15.4
188.784	8.21
189.005	-3.82
189.226	-1.8
189.447	23.87
189.667	30.66
189.888	64.09
190.109	73.05
190.33	64.79
190.551	39.03
190.772	33.26
190.993	-25.73
191.214	-16.1
191.434	-17.41
191.655	-15.5
191.876	2.54
192.097	24.96
192.318	26.53
192.538	44.49
192.759	42.07
192.98	21.46
193.201	23.94
193.421	12.24
193.642	-13.38
193.863	-1.23
194.083	36.12
194.304	49.42
194.525	58.25
194.745	59.11
194.966	57.95
195.187	31.25
195.407	26.15
195.628	10.49
195.848	16.55
196.069	26.07
196.29	18.56
196.51	18.16
196.731	41.11
196.951	31.11
197.172	41.65
197.392	82.48
197.613	57.9
197.833	72.83
198.054	96.9
198.274	61.08
198.495	39.43
198.715	51.78
198.936	58.79
199.156	49.54
199.377	59.15
199.597	64.96
199.817	75.67
200.038	57.81
200.258	80.02
200.479	70.39
200.699	59.4
200.919	-28.53
201.14	14.1
201.36	-4.12
201.58	-11.53
201.801	-21.08
202.021	-2.56
202.241	-14.77
202.461	-3.91
202.682	10.05
202.902	-2.75
203.122	16.31
203.342	2.54
203.563	21.31
203.783	35.03
204.003	47.68
204.223	49.52
204.443	55.3
204.663	30.36
204.884	30.87
205.104	20.54
205.324	15.62
205.544	-20.73
205.764	-1.66
205.984	-91.04
206.204	-68.04
206.424	-125.71
206.644	3.82
206.864	-5.37
207.084	26.88
207.304	35.3
207.525	48.72
207.745	25.93
207.964	25.13
208.184	52.94
208.404	58.01
208.624	60.85
208.844	54.83
209.064	63.43
209.284	65.71
209.504	48.51
209.724	21.76
209.944	5.47
210.164	-39.56
210.384	-38.3
210.604	-57
210.823	-77.48
211.043	9.82
211.263	52.53
211.483	51.81
211.703	72.42
211.922	64.72
212.142	54.1
212.362	37.23
212.582	36.37
212.801	18.47
213.021	5.48
213.241	32.75
213.461	60.26
213.68	62.93
213.9	43.93
214.12	42.63
214.339	31.57
214.559	33.21
214.779	7.27
214.998	25.01
215.218	43.26
215.438	28.53
215.657	15.38
215.877	25.43
216.096	22.6
216.316	13.15
216.535	-11.68
216.755	-24.08
216.974	5.17
217.194	8.49
217.413	40.17
217.633	46.78
217.852	51.87
218.072	59.63
218.291	40.06
218.511	18.5
218.73	33.7
218.95	22.95
219.169	17.58
219.389	39.83
219.608	37.26
219.827	12.09
220.047	14.67
220.266	9.89
220.485	12.34
220.705	21.1
220.924	29.03
221.143	33.88
221.363	42.5
221.582	33.61
221.801	35.35
222.021	51.58
222.24	45.66
222.459	-7.3
222.678	5.88
222.897	6.8
223.117	-45.37
223.336	-209.11
223.555	-35.96
223.774	-72.97
223.993	-68.37
224.213	-103.93
224.432	-33.01
224.651	-7.69
224.87	3.35
225.089	-14.1
225.308	17.17
225.527	6.04
225.746	-48.2
225.965	-37.09
226.184	-13.94
226.404	1.64
226.623	4.22
226.842	30.61
227.061	5.36
227.28	25.19
227.499	36.39
227.718	34.71
227.936	21.37
228.155	34.51
228.374	10.81
228.593	-7.72
228.812	-32.52
229.031	-4.46
229.25	15.18
229.469	-21.46
229.688	-47.76
229.907	-69.99
230.125	-85.57
230.344	-63.33
230.563	7.67
230.782	37.75
231.001	50.49
231.22	48.12
231.438	47.35
231.657	26.99
231.876	19.21
232.095	-13.76
232.313	-34.43
232.532	-62.64
232.751	-15.8
232.969	-17.34
233.188	-8.64
233.407	6.2
233.625	35.07
233.844	15.41
234.063	37.31
234.281	54.48
234.5	22.51
234.719	15.81
234.937	29.65
235.156	-3.1
235.374	-7.66
235.593	18.58
235.811	14.9
236.03	20.87
236.249	35.98
236.467	44.03
236.686	53.03
236.904	43.55
237.123	37.65
237.341	35.71
237.559	31.46
237.778	22.79
237.996	14.8
238.215	7.42
238.433	1.08
238.652	-1.12
238.87	10.96
239.088	11.41
239.307	11.5
239.525	22.65
239.743	18.22
239.962	13.8
240.18	29.74
240.398	41.74
240.617	43.39
240.835	36.72
241.053	18.85
241.271	-17.35
241.49	-27.67
241.708	-27.35
241.926	-18.66
242.144	-6.66
242.363	27.65
242.581	32.74
242.799	23.7
243.017	24.19
243.235	48.52
243.453	36.46
243.672	45.17
243.89	60.63
244.108	58.57
244.326	27.14
244.544	14.19
244.762	10.11
244.98	-13.95
245.198	4.1
245.416	34.79
245.634	29.21
245.852	27.27
246.07	29.11
246.288	15.9
246.506	10.68
246.724	26.43
246.942	23.8
247.16	33.24
247.378	24.7
247.596	22.75
247.814	26.9
248.032	19.99
248.25	10.9
248.468	7.89
248.685	13.16
248.903	-5.69
249.121	4.64
249.339	3.52
249.557	27
249.775	27.02
249.992	52.44
250.21	43.48
250.428	30.38
250.646	12.03
250.863	11.47
251.081	-24.44
251.299	-41.37
251.517	5.93
251.734	8.36
251.952	5.7
252.17	8.3
252.387	10.87
252.605	-46.82
252.823	-42.25
253.04	-64.32
253.258	0.87
253.475	27.96
253.693	37.29
253.911	52.27
254.128	59.43
254.346	35.93
254.563	15.64
254.781	20.7
254.998	13.13
255.216	11.61
255.433	7.71
255.651	20.03
255.868	-4.99
256.086	-31.64
256.303	-19.92
256.521	-4.98
256.738	-15.49
256.956	24.05
257.173	55.81
257.39	47.21
257.608	43.66
257.825	8.21
258.043	-56.48
258.26	-45.01
258.477	-26.56
258.695	-16.76
258.912	10.17
259.129	36.77
259.346	43.82
259.564	43.28
259.781	36.37
259.998	45.66
260.216	33.17
260.433	20.66
260.65	10.83
260.867	20.79
261.084	10.43
261.302	5.74
261.519	8.27
261.736	31.5
261.953	35.67
262.17	30.65
262.387	24.28
262.604	34.74
262.822	20.47
263.039	7.77
263.256	16.76
263.473	19.36
263.69	26.63
263.907	19.92
264.124	-1.79
264.341	-2.75
264.558	-8.43
264.775	-18.46
264.992	7.88
265.209	27.29
265.426	7.86
265.643	16.05
265.86	26.33
266.077	40.81
266.294	30.29
266.51	31.26
266.727	40.09
266.944	38.7
267.161	24.33
267.378	33.24
267.595	40.28
267.812	32.48
268.028	21.72
268.245	28.2
268.462	32.62
268.679	33.8
268.896	8.74
269.112	22.2
269.329	2.07
269.546	-33.02
269.763	-17.15
269.979	3.36
270.196	7.43
270.413	8.83
270.629	20.59
270.846	24.78
271.063	28.05
271.279	35.64
271.496	52.58
271.712	31.01
271.929	20.89
272.146	43.46
272.362	29.48
272.579	19.89
272.795	12.47
273.012	21.61
273.228	-5.11
273.445	-2.89
273.661	-2.79
273.878	14.71
274.094	12.9
274.311	12.76
274.527	-16.72
274.744	-14.93
274.96	-21.53
275.177	-39.25
275.393	-16.23
275.609	6.01
275.826	14.04
276.042	12.06
276.259	18.01
276.475	10.7
276.691	7.6
276.908	-4.1
277.124	9.09
277.34	10.88
277.557	6.25
277.773	16.73
277.989	25.26
278.205	18.45
278.422	10.38
278.638	17.28
278.854	15.07
279.07	13.57
279.286	29.21
279.503	35.61
279.719	31.42
279.935	40.9
280.151	32.32
280.367	13.57
280.583	-6.19
280.799	13.56
281.016	11.35
281.232	28.17
281.448	44.17
281.664	37.31
281.88	35.18
282.096	29
282.312	22.76
282.528	21.6
282.744	41.79
282.96	44.01
283.176	50.53
283.392	51.35
283.608	47.13
283.824	33.89
284.04	26.82
284.256	15.02
284.471	2.17
284.687	6.97
284.903	17.41
285.119	-2.94
285.335	-2.6
285.551	6.44
285.767	-3.98
285.982	-19.34
286.198	12.04
286.414	4.87
286.63	-3.74
286.846	-7.81
287.061	-0.43
287.277	-9.36
287.493	3.17
287.709	-2.31
287.924	5.79
288.14	-3.32
288.356	-15.77
288.571	-14.09
288.787	-4.7
289.003	-9.45
289.218	-24.19
289.434	8.77
289.65	22.1
289.865	37.26
290.081	24.21
290.296	43.23
290.512	29.14
290.727	-18.66
290.943	-14.96
291.159	8.78
291.374	3.95
291.59	23.71
291.805	38.36
292.021	58.91
292.236	64.15
292.451	58.24
292.667	52.29
292.882	40.91
293.098	9.75
293.313	2.77
293.529	-1.92
293.744	1.11
293.959	34.16
294.175	28.13
294.39	28.95
294.605	33.88
294.821	31.79
295.036	14.78
295.251	21.43
295.467	25.89
295.682	31.33
295.897	20.56
296.112	24.8
296.328	28.46
296.543	35.51
296.758	27.67
296.973	24.33
297.188	18.12
297.404	23.01
297.619	9.24
297.834	1.12
298.049	-1.52
298.264	14.94
298.479	-0.83
298.694	-3.72
298.909	8.36
299.125	17.1
299.34	-2.84
299.555	10.87
299.77	7.28
299.985	20.96
300.2	36.27
300.415	41.8
300.63	21.72
300.845	39.85
301.06	32.08
301.275	-2.8
301.49	17.66
301.704	25.56
301.919	32.12
302.134	35.14
302.349	38.22
302.564	39.48
302.779	28.27
302.994	18.23
303.209	10.41
303.423	2.91
303.638	4.07
303.853	22.74
304.068	26.74
304.283	36.17
304.497	45.66
304.712	60.95
304.927	58.54
305.142	66.06
305.356	61.98
305.571	60.85
305.786	46.53
306	49.01
306.215	33.44
306.43	39.79
306.644	23.57
306.859	3.51
307.074	-8.46
307.288	9.77
307.503	12.26
307.717	10.14
307.932	24.93
308.147	28.2
308.361	14.9
308.576	33.89
308.79	53.56
309.005	44.59
309.219	41.02
309.434	38.12
309.648	42.84
309.863	28.24
310.077	36.22
310.292	55.28
310.506	60.18
310.72	42.91
310.935	20.78
311.149	-0.2
311.364	-33.83
311.578	-64.17
311.792	-64.77
312.007	-33.02
312.221	5.73
312.435	26.53
312.649	41.2
312.864	39.18
313.078	19.66
313.292	12.84
313.507	11
313.721	9.58
313.935	-3.56
314.149	31.01
314.363	47.05
314.578	43.11
314.792	59.78
315.006	47.48
315.22	22.74
315.434	2.68
315.648	-10.77
315.862	-13.55
316.077	-0.7
316.291	15.95
316.505	30.98
316.719	26.36
316.933	28.83
317.147	18.59
317.361	3.47
317.575	-5.47
317.789	4.8
318.003	12.91
318.217	24.36
318.431	16.71
318.645	-0.83
318.859	-0.98
319.073	-16.99
319.287	2.46
319.5	23.98
319.714	42.05
319.928	49.36
320.142	45.22
320.356	39.16
320.57	35.11
320.784	26.47
320.997	11.62
321.211	20.85
321.425	12.01
321.639	10.22
321.853	-14.42
322.066	0.82
322.28	17.73
322.494	27.55
322.707	-3.8
322.921	21.23
323.135	3.97
323.349	-11.12
323.562	0.54
323.776	28.93
323.989	20
324.203	36.03
324.417	32.56
324.63	43.74
324.844	30.49
325.057	44.1
325.271	23.17
325.485	29.78
325.698	-3.17
325.912	-0.36
326.125	-9.59
326.339	4.68
326.552	-14.35
326.766	4.05
326.979	9.34
327.193	6.66
327.406	8.94
327.619	37.27
327.833	16.35
328.046	14.91
328.26	19.03
328.473	11.51
328.686	5.26
328.9	14.27
329.113	15.36
329.326	35.52
329.54	44.21
329.753	48.31
329.966	59.87
330.179	58.74
330.393	22.7
330.606	24.63
330.819	35.31
331.032	29.29
331.246	41.48
331.459	42.99
331.672	27.76
331.885	7.51
332.098	-9.95
332.311	9.86
332.525	27.75
332.738	40.72
332.951	42.71
333.164	58.24
333.377	47.42
333.59	46.78
333.803	27.33
334.016	22.91
334.229	15.19
334.442	-9.84
334.655	-20.78
334.868	-16.45
335.081	-21.78
335.294	-37.85
335.507	-3.45
335.72	-7.99
335.933	-0.66
336.146	4.55
336.359	3.88
336.572	4.86
336.785	24.92
336.997	36.66
337.21	46.65
337.423	67
337.636	75.79
337.849	57.64
338.062	40.43
338.274	15.81
338.487	18.39
338.7	1.38
338.913	21.24
339.125	13.16
339.338	11.81
339.551	-4.55
339.763	-25.67
339.976	-26.92
340.189	-13.21
340.402	-11.61
340.614	-15.64
340.827	20.79
341.039	16.7
341.252	22.65
341.465	27.92
341.677	34.27
341.89	34.45
342.102	29.47
342.315	26.03
342.527	39.49
342.74	47.49
342.952	33.52
343.165	55.02
343.377	43.25
343.59	26.05
343.802	15.16
344.015	8.28
344.227	-30.31
344.44	-9.46
344.652	-2.32
344.864	-23.55
345.077	-12.3
345.289	0.45
345.502	-27.48
345.714	-41.51
345.926	-17.81
346.139	-11.61
346.351	-28.26
346.563	7.34
346.775	20.41
346.988	15.72
347.2	11.76
347.412	21.18
347.624	18.02
347.837	13.41
348.049	19.03
348.261	16.78
348.473	27.48
348.685	28.06
348.897	34.87
349.11	33.67
349.322	15.59
349.534	5.41
349.746	-3.57
349.958	-11.52
350.17	-16.28
350.382	3.46
350.594	8.8
350.806	9.52
351.018	13.76
351.23	23.21
351.442	25.55
351.654	8.98
351.866	24.25
352.078	11.01
352.29	0.81
352.502	-10.27
352.714	9.55
352.926	-7.14
353.138	-11.65
353.35	6.81
353.561	20.18
353.773	22.22
353.985	31.64
354.197	30.05
354.409	25.7
354.621	18.57
354.832	20.82
355.044	15.75
355.256	32.31
355.468	31.81
355.679	43.78
355.891	35.36
356.103	39.62
356.314	31.11
356.526	29.6
356.738	32.74
356.949	38.88
357.161	38.96
357.373	49.5
357.584	45.9
357.796	28.86
358.008	17.16
358.219	19.64
358.431	10.5
358.642	0.48
358.854	-2.52
359.065	7.33
359.277	22.51
359.488	25.3
359.7	36.55
359.911	25.85
360.123	18.69
360.334	10.05
360.546	-5.15
360.757	-8.14
360.969	-8.17
361.18	4.37
361.391	5.86
361.603	23.43
361.814	18.35
362.025	32.94
362.237	40.65
362.448	39.54
362.659	26.31
362.871	22.68
363.082	11.1
363.293	-14.67
363.504	-15.5
363.716	-0.16
363.927	2.44
364.138	9.94
364.349	23.24
364.56	27.98
364.772	27.35
364.983	18.67
365.194	18.95
365.405	10.08
365.616	2.79
365.827	9.1
366.038	18.27
366.25	10.66
366.461	27.46
366.672	21.89
366.883	5.95
367.094	9.7
367.305	18.89
367.516	-0.43
367.727	13.5
367.938	10.91
368.149	3.57
368.36	-0.45
368.571	-2.8
368.781	-5.9
368.992	3.54
369.203	20.84
369.414	30.62
369.625	40.81
369.836	34.82
370.047	34.85
370.258	23.85
370.468	6.09
370.679	18.53
370.89	25.25
371.101	24.03
371.312	29.49
371.522	37
371.733	40.6
371.944	42.88
372.155	45.69
372.365	42
372.576	52.22
372.787	38.4
372.997	34.89
373.208	33.92
373.419	32.93
373.629	20.76
373.84	46.47
374.05	35.07
374.261	24.49
374.472	23.83
374.682	21.41
374.893	-2.78
375.103	0.42
375.314	17.23
375.524	23.05
375.735	21.35
375.945	24.8
376.156	28.06
376.366	17.51
376.577	15.92
376.787	22.05
376.997	24.22
377.208	27.19
377.418	21.51
377.629	18.2
377.839	6.12
378.049	1.72
378.26	-1.63
378.47	5.55
378.68	8.11
378.89	12.83
379.101	16.37
379.311	11.77
379.521	19.02
379.732	20.31
379.942	30.52
380.152	29.5
380.362	27.22
380.572	22.7
380.783	26.87
380.993	19.59
381.203	15.77
381.413	13.64
381.623	11.42
381.833	10.81
382.043	15.11
382.253	18.36
382.463	21.76
382.674	21.91
382.884	12.14
383.094	-0.32
383.304	2.69
383.514	3.81
383.724	-1.95
383.934	5.69
384.144	8.98
384.353	3.98
384.563	-3.89
384.773	-5.49
384.983	-8.17
385.193	-1.27
385.403	7.59
385.613	13.26
385.823	17.76
386.033	19.09
386.242	16.14
386.452	11.97
386.662	13.21
386.872	12.08
387.082	7.97
387.291	7.9
387.501	5.51
387.711	2.87
387.921	1.63
388.13	4.66
388.34	2.47
388.55	7.38
388.759	8.34
388.969	8.12
389.179	8.97
389.388	9.64
389.598	9.47
389.807	9.58
390.017	11.88
390.227	9.99
390.436	9.59
390.646	5.85
390.855	3.54
391.065	2.24
391.274	2.56
391.484	4.32
391.693	4.53
391.903	4.41
392.112	5.04
392.322	4.14
392.531	2.71
392.74	1.69
392.95	3.9
393.159	2.73
393.369	3.96
393.578	4.41
393.787	6.4
393.997	6.21
394.206	7.1
394.415	6.43
394.625	7.06
394.834	6.73
395.043	6.33
395.252	6.15
395.462	6.42
395.671	4.31
395.88	4.42
396.089	4.67
396.298	4.42
396.508	4.57
396.717	5.49
396.926	5.3
397.135	4.55
397.344	4.55
397.553	3.86
397.762	3.33
397.971	3.07
398.181	3.18
398.39	3.57
398.599	3.79
398.808	4.14
399.017	3.95
399.226	3.71
399.435	3.4
399.644	3.63
399.853	3.53
400.062	3.7
400.27	4.07
400.479	4.11
400.688	3.89
400.897	4.17
401.106	4.46
401.315	4.31
401.524	4.66
401.733	4.55
401.941	4.4
402.15	4.16
402.359	4.47
402.568	4.06
402.777	4.09
402.985	4.04
403.194	4.24
403.403	3.94
403.612	4.03
403.82	4.09
404.029	4.07
404.238	3.99
404.446	3.91
404.655	3.78
404.864	3.79
405.072	3.85
405.281	3.8
405.489	3.87
405.698	3.96
405.906	4.05
406.115	4.02
406.324	3.98
406.532	4.04
406.741	3.91
406.949	3.81
407.158	3.91
407.366	3.85
407.574	3.7
407.783	3.77
407.991	3.76
408.2	3.49
408.408	3.36
408.617	3.42
408.825	3.47
409.033	3.42
409.242	3.52
409.45	3.55
409.658	3.6
409.867	3.49
410.075	3.54
410.283	3.49
410.491	3.51
410.7	3.47
410.908	3.45
411.116	3.3
411.324	3.37
411.533	3.36
411.741	3.36
411.949	3.3
412.157	3.42
412.365	3.4
412.573	3.45
412.781	3.37
412.99	3.55
413.198	3.54
413.406	3.49
413.614	3.38
413.822	3.48
414.03	3.38
414.238	3.29
414.446	3.33
414.654	3.55
414.862	3.46
415.07	3.39
415.278	3.34
415.486	3.33
415.694	3.27
415.902	3.26
416.109	3.35
416.317	3.38
416.525	3.27
416.733	3.37
416.941	3.41
417.149	3.5
417.357	3.59
417.564	3.69
417.772	3.47
417.98	3.66
418.188	3.6
418.395	3.51
418.603	3.43
418.811	3.42
419.019	3.05
419.226	2.9
419.434	2.89
419.642	2.93
419.849	2.95
420.057	3.08
420.265	3.05
420.472	3.12
420.68	3.05
420.887	3.15
421.095	3.02
421.302	3.15
421.51	2.98
421.717	3.04
421.925	2.89
422.132	3.11
422.34	3.13
422.547	3.18
422.755	3.18
422.962	3.36
423.17	3.39
423.377	3.4
423.585	3.4
423.792	3.39
423.999	3.21
424.207	3.04
424.414	2.92
424.621	2.74
424.829	2.64
425.036	2.82
425.243	2.8
425.451	2.83
425.658	3.19
425.865	3.35
426.072	3.17
426.28	3.21
426.487	3.27
426.694	3.05
426.901	2.96
427.108	3.09
427.315	3.22
427.523	3.05
427.73	3.09
427.937	3.19
428.144	3.09
428.351	2.97
428.558	3.02
428.765	3.02
428.972	3.13
429.179	3.01
429.386	3
429.593	3.1
429.8	3.28
430.007	3.08
430.214	3.35
430.421	3.55
430.628	3.54
430.835	3.51
431.042	3.54
431.249	3.53
431.456	3.42
431.662	3.44
431.869	3.58
432.076	3.56
432.283	3.57
432.49	3.55
432.697	3.67
432.903	3.57
433.11	3.6
433.317	3.52
433.524	3.5
433.73	3.39
433.937	3.36
434.144	3.45
434.35	3.47
434.557	3.55
434.764	3.64
434.97	3.72
435.177	3.67
435.384	3.74
435.59	3.72
435.797	3.62
436.003	3.52
436.21	3.6
436.416	3.62
436.623	3.54
436.829	3.55
437.036	3.62
437.242	3.6
437.449	3.49
437.655	3.65
437.862	3.66
438.068	3.58
438.275	3.54
438.481	3.6
438.687	3.57
438.894	3.8
439.1	3.88
439.307	3.8
439.513	3.7
439.719	3.67
439.926	3.49
440.132	3.46
440.338	3.6
440.544	3.62
440.751	3.65
440.957	3.67
441.163	3.8
441.369	3.83
441.575	4.01
441.782	4.1
441.988	4.2
442.194	4.09
442.4	4.1
442.606	3.97
442.812	3.94
443.018	3.83
443.224	3.89
443.431	3.79
443.637	3.94
443.843	3.91
444.049	3.98
444.255	4.06
444.461	4.2
444.667	4.25
444.873	4.11
445.079	4.07
445.284	4.02
445.49	4.04
445.696	4.02
445.902	4.19
446.108	4.28
446.314	4.27
446.52	4.29
446.726	4.29
446.931	4.3
447.137	4.32
447.343	4.38
447.549	4.38
447.755	4.32
447.96	4.3
448.166	4.27
448.372	4.23
448.578	4.21
448.783	4.24
448.989	4.26
449.195	4.29
449.4	4.35
449.606	4.33
449.812	4.37
450.017	4.4
450.223	4.42
450.428	4.48
450.634	4.51
450.84	4.46
451.045	4.53
451.251	4.61
451.456	4.5
451.662	4.41
451.867	4.39
452.073	4.32
452.278	4.09
452.483	4.18
452.689	4.28
452.894	4.34
453.1	4.35
453.305	4.56
453.51	4.56
453.716	4.61
453.921	4.72
454.127	4.75
454.332	4.82
454.537	4.84
454.742	4.87
454.948	4.83
455.153	4.82
455.358	4.71
455.563	4.51
455.769	4.5
455.974	4.51
456.179	4.55
456.384	4.54
456.589	4.8
456.795	4.78
457	4.71
457.205	4.66
457.41	4.68
457.615	4.61
457.82	4.64
458.025	4.69
458.23	4.75
458.435	4.67
458.64	4.74
458.845	4.68
459.05	4.7
459.255	4.76
459.46	4.85
459.665	4.74
459.87	4.77
460.075	4.79
460.28	4.8
460.485	4.81
460.69	4.88
460.895	4.87
461.099	4.85
461.304	4.78
461.509	4.81
461.714	4.94
461.919	4.89
462.123	5.03
462.328	5.08
462.533	5.12
462.738	5.14
462.942	5.16
463.147	5.14
463.352	5.06
463.556	5.18
463.761	5.05
463.966	5.11
464.17	5.05
464.375	5.17
464.58	5.07
464.784	5.17
464.989	5.23
465.193	5.3
465.398	5.29
465.602	5.24
465.807	5.26
466.011	5.24
466.216	5.13
466.42	5.21
466.625	5.36
466.829	5.3
467.034	5.32
467.238	5.44
467.443	5.35
467.647	5.37
467.851	5.47
468.056	5.51
468.26	5.47
468.464	5.45
468.669	5.39
