Data from Ofav_PP_Phys_4EV14_Reflection_3.txt Node
Date: Tue Aug 03 18:09:46 EDT 2021
User: Adam
Spectrometer: FLMT01687
Trigger mode: 0
Integration Time (sec): 8.750000E-1
Scans to average: 2
Electric dark correction enabled: true
Nonlinearity correction enabled: false
Boxcar width: 2
XAxis mode: Wavelengths
Number of Pixels in Spectrum: 3648
>>>>>Begin Spectral Data<<<<<
179.494	115.17
179.716	148.94
179.937	133.27
180.158	194.62
180.38	279.82
180.601	52.14
180.823	32.56
181.044	36.07
181.265	23.45
181.486	147.51
181.708	89.61
181.929	185.59
182.15	33.82
182.372	170.68
182.593	160.97
182.814	-69.05
183.035	393.26
183.257	1051.96
183.478	4.75
183.699	-343.17
183.92	-48.18
184.141	-111.19
184.363	-70.95
184.584	-233.01
184.805	-72.05
185.026	-93.39
185.247	-62.11
185.468	-50.64
185.689	-44.29
185.91	-18.13
186.132	-11.17
186.353	20.63
186.574	17.41
186.795	55.75
187.016	34.54
187.237	31.54
187.458	12
187.679	-11.63
187.9	-8.4
188.121	-5.6
188.342	-6.87
188.563	0.13
188.784	23.17
189.005	10.9
189.226	5.56
189.447	11.76
189.667	5.41
189.888	31.79
190.109	49.77
190.33	36.24
190.551	26.4
190.772	39.42
190.993	-39.22
191.214	-52.34
191.434	-23.5
191.655	-36.35
191.876	-28.38
192.097	11.54
192.318	18.34
192.538	20.27
192.759	23.26
192.98	18.93
193.201	1.31
193.421	0.4
193.642	-21.7
193.863	-12.64
194.083	-1.82
194.304	-5.92
194.525	-27.65
194.745	-2.48
194.966	-4.56
195.187	-3.01
195.407	3.75
195.628	29.47
195.848	38.13
196.069	51.36
196.29	34.49
196.51	39.84
196.731	49.94
196.951	37.37
197.172	57.15
197.392	91.24
197.613	81.85
197.833	58.14
198.054	76.27
198.274	38.1
198.495	25.94
198.715	43.6
198.936	38.44
199.156	23.39
199.377	30.55
199.597	38.63
199.817	46.25
200.038	43.8
200.258	34.56
200.479	-30.72
200.699	-51.05
200.919	-138.26
201.14	-48.68
201.36	-39.34
201.58	-10.4
201.801	-16.63
202.021	4.27
202.241	-11.12
202.461	-14.07
202.682	2.28
202.902	4.49
203.122	16.28
203.342	13.46
203.563	37.26
203.783	28.04
204.003	43.26
204.223	44.72
204.443	32.61
204.663	9.93
204.884	-6.87
205.104	-43.31
205.324	-77.85
205.544	-108.02
205.764	-50.83
205.984	-109.93
206.204	-102.53
206.424	-153.81
206.644	-31.23
206.864	-54.49
207.084	-36.38
207.304	-42.63
207.525	10.19
207.745	10.83
207.964	32.19
208.184	28.02
208.404	53.05
208.624	63.46
208.844	48.9
209.064	41.98
209.284	59.45
209.504	29.06
209.724	-9.79
209.944	-14.68
210.164	-39.59
210.384	-8.85
210.604	-10.7
210.823	-0.32
211.043	20.11
211.263	28.73
211.483	18.19
211.703	43.71
211.922	42.43
212.142	32.13
212.362	8.56
212.582	5.76
212.801	-31.9
213.021	-16.03
213.241	-24.69
213.461	-0.09
213.68	-3.34
213.9	12.76
214.12	6.3
214.339	12.8
214.559	44.37
214.779	57.32
214.998	52.73
215.218	60.39
215.438	55.16
215.657	52.23
215.877	38.91
216.096	25.99
216.316	24.76
216.535	18.42
216.755	-14.31
216.974	10.41
217.194	41.51
217.413	50.34
217.633	51.31
217.852	63.7
218.072	62.63
218.291	40.91
218.511	25.74
218.73	33.69
218.95	40.38
219.169	31.56
219.389	39.07
219.608	42.33
219.827	30.95
220.047	-6.92
220.266	8.97
220.485	8.87
220.705	1.83
220.924	-1.12
221.143	-7.06
221.363	-10.22
221.582	-16.5
221.801	-39.15
222.021	-20.08
222.24	12.6
222.459	-19.54
222.678	-0.4
222.897	1.37
223.117	-34.5
223.336	-212.11
223.555	-112.38
223.774	-113.76
223.993	-60.05
224.213	-61.24
224.432	-16.58
224.651	-10.02
224.87	-11.21
225.089	-16.8
225.308	-53.75
225.527	-84.31
225.746	-124.18
225.965	-136.57
226.184	-145.22
226.404	-12.86
226.623	17.92
226.842	38.65
227.061	16.2
227.28	14.49
227.499	22.27
227.718	19.9
227.936	0.12
228.155	29.15
228.374	26.35
228.593	16.54
228.812	5.81
229.031	10.96
229.25	13.01
229.469	-2.06
229.688	-0.21
229.907	-40.13
230.125	-25.18
230.344	-9.33
230.563	-29.92
230.782	-11.77
231.001	20.39
231.22	6.8
231.438	-9.53
231.657	-18.78
231.876	-17.2
232.095	-24.8
232.313	-23.84
232.532	-44.01
232.751	-11.51
232.969	-14.6
233.188	-4.84
233.407	8.18
233.625	37.8
233.844	21.33
234.063	34.4
234.281	38.76
234.5	27.38
234.719	12.47
234.937	30.99
235.156	-7.53
235.374	-20.68
235.593	-13.56
235.811	-21.91
236.03	-15.3
236.249	8.16
236.467	19.58
236.686	14.28
236.904	29.31
237.123	31.11
237.341	31.12
237.559	35.25
237.778	43.28
237.996	38.15
238.215	29.06
238.433	17.88
238.652	16.58
238.87	25.76
239.088	32.86
239.307	40.84
239.525	40.09
239.743	32.92
239.962	32.31
240.18	32.31
240.398	34.75
240.617	39.67
240.835	33.96
241.053	10.09
241.271	-59.75
241.49	-42.7
241.708	-19.01
241.926	-9.53
242.144	8.18
242.363	37.16
242.581	21.45
242.799	15.72
243.017	5.83
243.235	21.48
243.453	8.8
243.672	22.27
243.89	30.71
244.108	42.61
244.326	4.79
244.544	12.55
244.762	24.74
244.98	-1.39
245.198	-11.29
245.416	22.95
245.634	15.2
245.852	-2.13
246.07	5.02
246.288	-15.83
246.506	-8.75
246.724	6.25
246.942	9.07
247.16	19.49
247.378	34.31
247.596	44.72
247.814	41.24
248.032	35.02
248.25	25.84
248.468	18.03
248.685	4.86
248.903	-21.64
249.121	-10.54
249.339	-2.34
249.557	14.01
249.775	-10.66
249.992	18.05
250.21	-0.87
250.428	-6.55
250.646	-43.17
250.863	-13.68
251.081	-43.4
251.299	-52.57
251.517	-20.45
251.734	-20.72
251.952	-22.71
252.17	-11.22
252.387	-13.92
252.605	-23.57
252.823	6.02
253.04	-35.79
253.258	-10.94
253.475	10.1
253.693	-4.12
253.911	11.48
254.128	18.54
254.346	9.89
254.563	33.03
254.781	44.98
254.998	33.82
255.216	25.29
255.433	32.54
255.651	9.24
255.868	-23.33
256.086	-41.59
256.303	-10.92
256.521	9.36
256.738	19.92
256.956	50.88
257.173	81.54
257.39	71.61
257.608	57.91
257.825	30.76
258.043	-28.15
258.26	-10.6
258.477	1.03
258.695	-7.98
258.912	-5.64
259.129	5.29
259.346	5.69
259.564	7.11
259.781	25.42
259.998	41.31
260.216	46.53
260.433	34.53
260.65	29.5
260.867	36.58
261.084	23.59
261.302	5.45
261.519	15.69
261.736	19.1
261.953	2.06
262.17	0.32
262.387	4.68
262.604	18.04
262.822	14.59
263.039	12.81
263.256	32.45
263.473	44.33
263.69	39.3
263.907	36.94
264.124	14.27
264.341	-21.43
264.558	-51.72
264.775	-51.08
264.992	-43.48
265.209	-25.2
265.426	-20.17
265.643	8.76
265.86	10.87
266.077	24.88
266.294	16.37
266.51	29.02
266.727	23.08
266.944	22.86
267.161	16.25
267.378	23.69
267.595	13.71
267.812	5.03
268.028	-4.78
268.245	-0.07
268.462	3.94
268.679	3.37
268.896	-22.92
269.112	-6.83
269.329	-28.53
269.546	-64.81
269.763	-39.45
269.979	-13.98
270.196	-16.6
270.413	0.89
270.629	11.22
270.846	17.82
271.063	6.91
271.279	24.61
271.496	19.06
271.712	3.36
271.929	-15.02
272.146	18.69
272.362	8.07
272.579	-7.4
272.795	-1.53
273.012	-4.54
273.228	-11.41
273.445	-16.48
273.661	4.71
273.878	13.49
274.094	23.85
274.311	13.72
274.527	8.13
274.744	8.36
274.96	-10.27
275.177	-41.27
275.393	-31.27
275.609	-16.38
275.826	-18.33
276.042	-1.43
276.259	16.1
276.475	6.88
276.691	-10.17
276.908	-13
277.124	-6.35
277.34	-6.71
277.557	4.61
277.773	21.12
277.989	25.99
278.205	29.2
278.422	32.91
278.638	26.97
278.854	30.38
279.07	19.39
279.286	7.81
279.503	9.48
279.719	10.94
279.935	9.77
280.151	8.48
280.367	-0.07
280.583	-18.44
280.799	-12.58
281.016	-24.76
281.232	-25.88
281.448	-17.41
281.664	-5.63
281.88	-6.65
282.096	5.24
282.312	-2.81
282.528	6.74
282.744	16
282.96	25.08
283.176	40.25
283.392	49.73
283.608	41.88
283.824	24.33
284.04	22.02
284.256	12.99
284.471	11.72
284.687	12.52
284.903	13.65
285.119	-6.95
285.335	-10.61
285.551	-19.79
285.767	-11.28
285.982	-16.25
286.198	0.79
286.414	4.85
286.63	16.67
286.846	-1.85
287.061	7.62
287.277	-2.3
287.493	-10.6
287.709	-62.91
287.924	-12.62
288.14	-17.34
288.356	-32.3
288.571	-35.44
288.787	-10.81
289.003	-32.6
289.218	-42.91
289.434	-12.38
289.65	5.51
289.865	6.06
290.081	-6.95
290.296	22.2
290.512	25.35
290.727	14.36
290.943	26.72
291.159	40.9
291.374	21.03
291.59	29.64
291.805	40.51
292.021	44.41
292.236	39.1
292.451	42.33
292.667	52.92
292.882	42.35
293.098	27.86
293.313	19.57
293.529	40.49
293.744	19.59
293.959	42.38
294.175	50.31
294.39	53.88
294.605	29.88
294.821	30.36
295.036	6.66
295.251	-1.39
295.467	0.54
295.682	20.01
295.897	-1.2
296.112	13.68
296.328	20.19
296.543	18.47
296.758	-3.67
296.973	9.57
297.188	5.21
297.404	16.47
297.619	16.03
297.834	24.87
298.049	12.01
298.264	16.35
298.479	-2
298.694	-6.35
298.909	-3.37
299.125	9.52
299.34	-11.01
299.555	-3.02
299.77	-13.31
299.985	19.66
300.2	35.78
300.415	51.77
300.63	32.24
300.845	36.63
301.06	11.99
301.275	-42.1
301.49	-4.47
301.704	-1.91
301.919	13.51
302.134	10.3
302.349	33.53
302.564	31.35
302.779	38.96
302.994	32.35
303.209	34.51
303.423	22.48
303.638	26.63
303.853	30.85
304.068	31.03
304.283	38.08
304.497	51.14
304.712	51.21
304.927	36.85
305.142	41.67
305.356	29.38
305.571	17.38
305.786	5.93
306	17.35
306.215	0.95
306.43	17.58
306.644	8.79
306.859	1.43
307.074	-10.67
307.288	17.21
307.503	13.97
307.717	11.07
307.932	12.89
308.147	16.1
308.361	-7.56
308.576	-8.02
308.79	19.12
309.005	23.74
309.219	24.07
309.434	14.91
309.648	32.05
309.863	12.84
310.077	17.75
310.292	35.34
310.506	52.57
310.72	24.99
310.935	18.03
311.149	13.76
311.364	2.3
311.578	-19.38
311.792	-3.33
312.007	-32.25
312.221	-13.34
312.435	-29.36
312.649	4.2
312.864	16.85
313.078	31.64
313.292	14.77
313.507	26.92
313.721	20.8
313.935	-4.27
314.149	-14.95
314.363	17.97
314.578	0.13
314.792	-7.67
315.006	-13.34
315.22	-19.8
315.434	-41.22
315.648	-86.64
315.862	-33.89
316.077	-22.33
316.291	4.19
316.505	5.48
316.719	24
316.933	25.67
317.147	15.93
317.361	5.61
317.575	8.31
317.789	10.93
318.003	8.63
318.217	28.95
318.431	31.55
318.645	17.29
318.859	-1
319.073	2.36
319.287	14.33
319.5	29.75
319.714	55.8
319.928	67.45
320.142	53.77
320.356	54.58
320.57	40.33
320.784	31.05
320.997	20.77
321.211	44.12
321.425	26.2
321.639	25.23
321.853	14.08
322.066	6.66
322.28	3.47
322.494	3.27
322.707	-31.08
322.921	-28.21
323.135	-17.18
323.349	-28.74
323.562	2.59
323.776	37.29
323.989	38.6
324.203	37.89
324.417	29.94
324.63	27.2
324.844	12.21
325.057	5.48
325.271	-12.22
325.485	-2.26
325.698	-26.89
325.912	-10.53
326.125	7.38
326.339	26.94
326.552	12.14
326.766	13.58
326.979	-0.07
327.193	-6.44
327.406	1.92
327.619	20.19
327.833	14.3
328.046	17.97
328.26	20.76
328.473	13.33
328.686	11.52
328.9	5.12
329.113	9.77
329.326	16.93
329.54	13.08
329.753	12.02
329.966	32.33
330.179	12.2
330.393	8.74
330.606	11.43
330.819	12.23
331.032	5.75
331.246	18.65
331.459	1.58
331.672	-1.33
331.885	-4.75
332.098	-4.15
332.311	20.37
332.525	40.12
332.738	36.88
332.951	45.69
333.164	27.97
333.377	20.66
333.59	14.89
333.803	14.11
334.016	3.45
334.229	25.78
334.442	-9.4
334.655	-1.3
334.868	-11.79
335.081	-19
335.294	-35.38
335.507	8.6
335.72	-4.63
335.933	-1.12
336.146	4.54
336.359	7.14
336.572	-5.6
336.785	6.49
336.997	22.17
337.21	28.48
337.423	40.27
337.636	58.33
337.849	56.17
338.062	37.57
338.274	17.65
338.487	20.13
338.7	18.25
338.913	26.99
339.125	31.81
339.338	34.87
339.551	21.15
339.763	2.01
339.976	-5.65
340.189	-12.76
340.402	-12.96
340.614	-0.75
340.827	18.87
341.039	21.73
341.252	33.65
341.465	32.74
341.677	20.74
341.89	26.48
342.102	19.98
342.315	6.92
342.527	21.09
342.74	27.61
342.952	10.86
343.165	29.38
343.377	25.6
343.59	16.21
343.802	19
344.015	-3.55
344.227	-40.32
344.44	-0.27
344.652	1.55
344.864	-13.51
345.077	-18.23
345.289	-30.88
345.502	-82
345.714	-99.39
345.926	-52.84
346.139	-28.02
346.351	-16.07
346.563	8.48
346.775	23.84
346.988	12.1
347.2	21.48
347.412	21.02
347.624	18.56
347.837	8.91
348.049	15.49
348.261	-14.05
348.473	-18.17
348.685	-17.39
348.897	-0.71
349.11	-17.67
349.322	-4.95
349.534	3.24
349.746	4.37
349.958	0.86
350.17	5.45
350.382	10.66
350.594	10.87
350.806	17.51
351.018	16.76
351.23	25.84
351.442	21.02
351.654	-2.44
351.866	-4.54
352.078	-4.62
352.29	-9.75
352.502	1.38
352.714	13
352.926	4.96
353.138	4.85
353.35	0.89
353.561	14.89
353.773	16.22
353.985	25.96
354.197	24.1
354.409	32.1
354.621	26.64
354.832	35.96
355.044	31.82
355.256	31.75
355.468	29.77
355.679	29.35
355.891	25.09
356.103	30.51
356.314	23.57
356.526	28.59
356.738	24.94
356.949	22.68
357.161	14.18
357.373	23.82
357.584	20.01
357.796	12.19
358.008	-11.75
358.219	-11.51
358.431	7.13
358.642	-6.24
358.854	-30.35
359.065	2.56
359.277	16.5
359.488	-4.91
359.7	1.63
359.911	6.71
360.123	-2.41
360.334	-11.17
360.546	-8.06
360.757	-0.08
360.969	3.88
361.18	5.12
361.391	10.7
361.603	8.73
361.814	-3.97
362.025	13.41
362.237	22.48
362.448	22.07
362.659	13.95
362.871	16.84
363.082	4.87
363.293	-5.15
363.504	-1.83
363.716	17.81
363.927	20.18
364.138	20.78
364.349	26.42
364.56	24.32
364.772	27.34
364.983	25.96
365.194	30.18
365.405	20.31
365.616	16.78
365.827	9.21
366.038	12.9
366.25	3.24
366.461	23.66
366.672	21.58
366.883	9.99
367.094	7.61
367.305	22.16
367.516	1.86
367.727	12.79
367.938	24.48
368.149	22.49
368.36	11.5
368.571	9.41
368.781	5.32
368.992	4.89
369.203	16.41
369.414	28.59
369.625	35.28
369.836	21.91
370.047	16.13
370.258	5.46
370.468	-0.81
370.679	18.25
370.89	31.14
371.101	41.42
371.312	37.01
371.522	40.75
371.733	38.74
371.944	37.66
372.155	28.26
372.365	27.06
372.576	27.16
372.787	21.75
372.997	18
373.208	19.27
373.419	15.55
373.629	10.87
373.84	20.96
374.05	10.93
374.261	5.6
374.472	18.36
374.682	7.88
374.893	-4.98
375.103	-4.14
375.314	13.43
375.524	21.74
375.735	33.81
375.945	27.32
376.156	39.62
376.366	22.37
376.577	19.19
376.787	23.1
376.997	27.6
377.208	23.08
377.418	21.73
377.629	14.49
377.839	10.86
378.049	3.12
378.26	-3.22
378.47	2.69
378.68	-0.51
378.89	7.65
379.101	12.8
379.311	18
379.521	26.81
379.732	28.5
379.942	19.63
380.152	27.38
380.362	26.29
380.572	20.77
380.783	21.37
380.993	17.84
381.203	13.76
381.413	4.55
381.623	6.53
381.833	11.51
382.043	14.3
382.253	15.15
382.463	20.17
382.674	15.88
382.884	12.46
383.094	5.36
383.304	5.08
383.514	1.01
383.724	-1.65
383.934	6.25
384.144	11.46
384.353	4.98
384.563	8.96
384.773	12.18
384.983	4.36
385.193	4.91
385.403	12.26
385.613	13.2
385.823	15.84
386.033	17.41
386.242	21.06
386.452	19.82
386.662	17.08
386.872	13.54
387.082	6.7
387.291	-0.63
387.501	-0.83
387.711	-1.57
387.921	1.55
388.13	7.19
388.34	8.9
388.55	10.39
388.759	11.08
388.969	9.26
389.179	7.87
389.388	7.51
389.598	7.77
389.807	7.58
390.017	7.59
390.227	7.45
390.436	7.77
390.646	4.78
390.855	4.63
391.065	4.75
391.274	6.56
391.484	7.82
391.693	9.27
391.903	9.46
392.112	11.26
392.322	9.08
392.531	8.53
392.74	7.73
392.95	7.67
393.159	4.37
393.369	5.04
393.578	4.73
393.787	5.53
393.997	5.93
394.206	7.62
394.415	7.95
394.625	8.04
394.834	8.08
395.043	7.54
395.252	7.46
395.462	7.39
395.671	6.67
395.88	6.41
396.089	6.9
396.298	6.83
396.508	7.17
396.717	7.71
396.926	7.36
397.135	6.44
397.344	6.33
397.553	5.58
397.762	5.42
397.971	5.62
398.181	5.79
398.39	6.24
398.599	6.13
398.808	6.24
399.017	5.84
399.226	5.48
399.435	4.96
399.644	5.41
399.853	5.26
400.062	5.56
400.27	6
400.479	6.23
400.688	6.16
400.897	6.23
401.106	6.01
401.315	6.44
401.524	6.43
401.733	5.99
401.941	5.88
402.15	5.93
402.359	5.7
402.568	5.55
402.777	5.63
402.985	5.69
403.194	5.75
403.403	5.53
403.612	5.51
403.82	5.58
404.029	5.52
404.238	5.66
404.446	5.68
404.655	5.57
404.864	5.48
405.072	5.45
405.281	5.35
405.489	5.55
405.698	5.72
405.906	5.95
406.115	6.09
406.324	6.05
406.532	5.78
406.741	5.67
406.949	5.42
407.158	5.48
407.366	5.52
407.574	5.6
407.783	5.71
407.991	5.84
408.2	5.55
408.408	5.46
408.617	5.44
408.825	5.34
409.033	5.28
409.242	5.34
409.45	5.21
409.658	5.28
409.867	5.2
410.075	5.23
410.283	5.21
410.491	5.3
410.7	5.18
410.908	5.19
411.116	5
411.324	5.16
411.533	5.08
411.741	5.03
411.949	5
412.157	5.15
412.365	4.98
412.573	4.99
412.781	4.94
412.99	5.03
413.198	5
413.406	5.02
413.614	4.93
413.822	5.01
414.03	5.02
414.238	5.01
414.446	4.97
414.654	5.12
414.862	5.18
415.07	5.08
415.278	5.01
415.486	4.98
415.694	5.03
415.902	4.87
416.109	4.88
416.317	4.95
416.525	4.96
416.733	4.97
416.941	5
417.149	5.06
417.357	4.99
417.564	5.01
417.772	4.75
417.98	4.92
418.188	4.87
418.395	4.8
418.603	4.71
418.811	4.9
419.019	4.63
419.226	4.56
419.434	4.58
419.642	4.61
419.849	4.42
420.057	4.54
420.265	4.53
420.472	4.69
420.68	4.62
420.887	4.69
421.095	4.54
421.302	4.72
421.51	4.38
421.717	4.38
421.925	4.29
422.132	4.36
422.34	4.22
422.547	4.42
422.755	4.44
422.962	4.59
423.17	4.7
423.377	4.85
423.585	4.81
423.792	4.74
423.999	4.64
424.207	4.54
424.414	4.24
424.621	4.12
424.829	4.32
425.036	4.47
425.243	4.39
425.451	4.44
425.658	4.54
425.865	4.35
426.072	4.3
426.28	4.39
426.487	4.48
426.694	4.39
426.901	4.53
427.108	4.52
427.315	4.61
427.523	4.52
427.73	4.65
427.937	4.82
428.144	4.78
428.351	4.7
428.558	4.53
428.765	4.52
428.972	4.34
429.179	4.25
429.386	4.24
429.593	4.42
429.8	4.63
430.007	4.71
430.214	4.89
430.421	4.88
430.628	4.86
430.835	4.65
431.042	4.6
431.249	4.57
431.456	4.68
431.662	4.7
431.869	4.85
432.076	4.78
432.283	4.88
432.49	4.86
432.697	4.91
432.903	4.79
433.11	4.84
433.317	4.67
433.524	4.7
433.73	4.87
433.937	4.74
434.144	4.79
434.35	4.96
434.557	5.01
434.764	4.97
434.97	5.23
435.177	5.31
435.384	5.28
435.59	5.29
435.797	5.3
436.003	5.18
436.21	5.2
436.416	5.24
436.623	5.25
436.829	5.19
437.036	5.24
437.242	5.23
437.449	5.1
437.655	5.07
437.862	4.99
438.068	5
438.275	5
438.481	5.03
438.687	5.09
438.894	5.39
439.1	5.41
439.307	5.26
439.513	5.33
439.719	5.19
439.926	5.14
440.132	5.26
440.338	5.44
440.544	5.47
440.751	5.59
440.957	5.59
441.163	5.55
441.369	5.53
441.575	5.55
441.782	5.67
441.988	5.73
442.194	5.8
442.4	5.91
442.606	5.94
442.812	5.9
443.018	5.78
443.224	5.72
443.431	5.61
443.637	5.76
443.843	5.73
444.049	5.84
444.255	5.96
444.461	6.18
444.667	6.1
444.873	6
445.079	5.98
445.284	5.99
445.49	5.97
445.696	6.01
445.902	6.11
446.108	6.18
446.314	6.15
446.52	6.22
446.726	6.15
446.931	6.24
447.137	6.19
447.343	6.22
447.549	6.09
447.755	6.23
447.96	6.2
448.166	6.15
448.372	6.11
448.578	6.2
448.783	6.12
448.989	6.16
449.195	6.28
449.4	6.32
449.606	6.35
449.812	6.38
450.017	6.37
450.223	6.31
450.428	6.52
450.634	6.4
450.84	6.43
451.045	6.53
451.251	6.59
451.456	6.37
451.662	6.29
451.867	6.3
452.073	6.24
452.278	6.2
452.483	6.18
452.689	6.34
452.894	6.31
453.1	6.31
453.305	6.32
453.51	6.39
453.716	6.36
453.921	6.5
454.127	6.55
454.332	6.67
454.537	6.72
454.742	6.88
454.948	6.72
455.153	6.69
455.358	6.62
455.563	6.44
455.769	6.31
455.974	6.48
456.179	6.51
456.384	6.52
456.589	6.76
456.795	6.81
457	6.8
457.205	6.79
457.41	6.77
457.615	6.75
457.82	6.82
458.025	6.83
458.23	6.9
458.435	6.95
458.64	6.99
458.845	7
459.05	7
459.255	7
459.46	6.98
459.665	7.03
459.87	7
460.075	6.9
460.28	7
460.485	7.08
460.69	6.94
460.895	6.97
461.099	7.1
461.304	6.95
461.509	6.92
461.714	7.09
461.919	7.11
462.123	7.07
462.328	7.25
462.533	7.3
462.738	7.34
462.942	7.36
463.147	7.5
463.352	7.4
463.556	7.49
463.761	7.4
463.966	7.4
464.17	7.34
464.375	7.41
464.58	7.35
464.784	7.39
464.989	7.41
465.193	7.43
465.398	7.4
465.602	7.33
465.807	7.41
466.011	7.51
466.216	7.47
466.42	7.47
466.625	7.64
466.829	7.56
467.034	7.53
467.238	7.53
467.443	7.63
467.647	7.57
467.851	7.6
