Data from Ofav_PP_Phys_2AZ2_Reflection_1.txt Node
Date: Tue Aug 03 18:07:33 EDT 2021
User: Adam
Spectrometer: FLMT01687
Trigger mode: 0
Integration Time (sec): 8.750000E-1
Scans to average: 2
Electric dark correction enabled: true
Nonlinearity correction enabled: false
Boxcar width: 2
XAxis mode: Wavelengths
Number of Pixels in Spectrum: 3648
>>>>>Begin Spectral Data<<<<<
179.494	160.96
179.716	153.37
179.937	181.55
180.158	207.35
180.38	449.12
180.601	76.8
180.823	112.14
181.044	48.22
181.265	65.47
181.486	72.64
181.708	67.68
181.929	72.68
182.15	-23.15
182.372	31.22
182.593	82.7
182.814	-40.29
183.035	533.33
183.257	1839.22
183.478	-30.91
183.699	-133.33
183.92	14.59
184.141	-13.46
184.363	0.4
184.584	-48.51
184.805	7.56
185.026	-36.11
185.247	-20.77
185.468	-7.83
185.689	5.16
185.91	15.61
186.132	16.37
186.353	38.64
186.574	18.47
186.795	4.06
187.016	7.3
187.237	33.69
187.458	30.18
187.679	37.06
187.9	27.18
188.121	30.71
188.342	13.96
188.563	25.06
188.784	16.88
189.005	23.78
189.226	-3.22
189.447	9.96
189.667	-26.11
189.888	-28.01
190.109	-39.43
190.33	-34.27
190.551	-34.6
190.772	-26.94
190.993	-26.05
191.214	-8.92
191.434	-1.54
191.655	-3.23
191.876	6.46
192.097	26.14
192.318	32.8
192.538	33.12
192.759	17.54
192.98	17.28
193.201	-6.39
193.421	-11.15
193.642	-26.98
193.863	24.66
194.083	37.53
194.304	43.89
194.525	34.53
194.745	29.65
194.966	9.39
195.187	34.13
195.407	49.16
195.628	51.74
195.848	54.5
196.069	57.85
196.29	16.53
196.51	-14.22
196.731	8.06
196.951	4.89
197.172	27.83
197.392	28
197.613	45.13
197.833	23.97
198.054	44.22
198.274	10.08
198.495	14.84
198.715	1.84
198.936	6.48
199.156	9.48
199.377	14.34
199.597	21.6
199.817	31.7
200.038	20.05
200.258	17.05
200.479	-36.27
200.699	-21.95
200.919	-55.48
201.14	-0.91
201.36	-1.74
201.58	17.56
201.801	-11.92
202.021	12.16
202.241	5.42
202.461	-2.1
202.682	-4.59
202.902	13.44
203.122	7.12
203.342	0.88
203.563	-4.42
203.783	-16.64
204.003	-6.56
204.223	-1.35
204.443	-10.1
204.663	-9.49
204.884	4.51
205.104	-14.95
205.324	-24.26
205.544	-65.47
205.764	-42.35
205.984	-107.66
206.204	-67.52
206.424	-127.92
206.644	-11.57
206.864	-26.29
207.084	-1.89
207.304	-14.59
207.525	18.78
207.745	6.79
207.964	-9.02
208.184	13.23
208.404	17.96
208.624	7.09
208.844	7.73
209.064	19.95
209.284	20.72
209.504	26.14
209.724	18.23
209.944	1.77
210.164	-25.95
210.384	-34.95
210.604	-43.44
210.823	-49.68
211.043	-6.25
211.263	15.97
211.483	23.1
211.703	20.36
211.922	6
212.142	-2.13
212.362	-6.13
212.582	11.85
212.801	19.6
213.021	28.99
213.241	49.34
213.461	49.31
213.68	28.06
213.9	4.29
214.12	-6.23
214.339	-2.89
214.559	9.83
214.779	16.49
214.998	23.8
215.218	43.96
215.438	35.39
215.657	27.74
215.877	28.24
216.096	17.59
216.316	-3.5
216.535	-9.22
216.755	-47.31
216.974	-30.49
217.194	-10.1
217.413	29.21
217.633	32.95
217.852	54.69
218.072	58.83
218.291	47.04
218.511	22.77
218.73	28.27
218.95	13.17
219.169	12.59
219.389	16
219.608	19.87
219.827	0.91
220.047	-18.41
220.266	-11.4
220.485	2.58
220.705	1.08
220.924	13.97
221.143	18.36
221.363	21.56
221.582	12
221.801	-4.03
222.021	-6.48
222.24	22.28
222.459	-27.77
222.678	-28.26
222.897	-12.99
223.117	-50.56
223.336	-318.47
223.555	-113.97
223.774	-42.42
223.993	-37.28
224.213	-51.63
224.432	-22.04
224.651	7.07
224.87	5.49
225.089	17.89
225.308	19.08
225.527	13.87
225.746	-33.61
225.965	-21.2
226.184	-74.12
226.404	-10.52
226.623	4.76
226.842	25.83
227.061	-0.94
227.28	15.05
227.499	27.32
227.718	25.68
227.936	25.95
228.155	43.26
228.374	43.61
228.593	22.35
228.812	-1.63
229.031	-7.55
229.25	13.51
229.469	-26.03
229.688	-49.79
229.907	-52.54
230.125	-53.79
230.344	-84.68
230.563	-56.63
230.782	-23.97
231.001	0.96
231.22	1.9
231.438	2.12
231.657	-10.38
231.876	-14.98
232.095	-11.3
232.313	-19.58
232.532	-46.46
232.751	-6.68
232.969	-2.38
233.188	17.57
233.407	15.36
233.625	42.76
233.844	-2.4
234.063	-4.42
234.281	-25.05
234.5	-14.51
234.719	-37.26
234.937	11.1
235.156	-14.71
235.374	-19.14
235.593	-15.43
235.811	-15.47
236.03	-2.73
236.249	23.16
236.467	37.07
236.686	27.92
236.904	36.44
237.123	30.92
237.341	33.25
237.559	36.05
237.778	46.93
237.996	33.98
238.215	28.78
238.433	24.68
238.652	19.07
238.87	20.36
239.088	15.67
239.307	10.56
239.525	13.69
239.743	14.01
239.962	11.37
240.18	24.23
240.398	45.95
240.617	35.77
240.835	27.2
241.053	14.38
241.271	-18.79
241.49	-11.43
241.708	0.99
241.926	-2.78
242.144	6.25
242.363	16.74
242.581	18.05
242.799	19.8
243.017	22.77
243.235	37.75
243.453	44.13
243.672	38.27
243.89	37.23
244.108	46.57
244.326	27.34
244.544	21.94
244.762	26.59
244.98	9.93
245.198	12
245.416	23.38
245.634	35.45
245.852	26.37
246.07	12.07
246.288	-13.84
246.506	1.33
246.724	-16.16
246.942	-24.69
247.16	0.69
247.378	3
247.596	-4.39
247.814	-12.48
248.032	-2.13
248.25	-6.45
248.468	-12.01
248.685	-0.76
248.903	-20.05
249.121	-21.7
249.339	-17.85
249.557	-6.18
249.775	-26.94
249.992	-1.2
250.21	-13.66
250.428	-11.54
250.646	-21.27
250.863	-17.58
251.081	-18.04
251.299	-28.32
251.517	5.72
251.734	0.41
251.952	-23.7
252.17	-32.78
252.387	-57.5
252.605	-161.38
252.823	-89.52
253.04	-44.1
253.258	23.79
253.475	41.41
253.693	42.63
253.911	44.31
254.128	63.26
254.346	59.62
254.563	60.62
254.781	77.6
254.998	65.11
255.216	54.51
255.433	35
255.651	26.25
255.868	-12.22
256.086	-27.41
256.303	-16.54
256.521	12.13
256.738	17.37
256.956	24.96
257.173	37.11
257.39	17.46
257.608	-1.01
257.825	-23.17
258.043	-66.79
258.26	-30.36
258.477	-20.05
258.695	-30.67
258.912	-26.97
259.129	6.76
259.346	5.71
259.564	27.73
259.781	40.01
259.998	58.49
260.216	48.26
260.433	35.37
260.65	6.82
260.867	0.14
261.084	-24.43
261.302	-35.06
261.519	-9.32
261.736	15.72
261.953	13.1
262.17	12.55
262.387	25.19
262.604	19.85
262.822	12.59
263.039	21.7
263.256	31.51
263.473	13.49
263.69	12.79
263.907	2.72
264.124	-19.58
264.341	-25.29
264.558	-44.7
264.775	-32.17
264.992	-27.78
265.209	-20.62
265.426	-45.59
265.643	-8.54
265.86	-8.47
266.077	2.58
266.294	-0.96
266.51	27.56
266.727	33.74
266.944	28.03
267.161	34.93
267.378	36.3
267.595	13.22
267.812	5.86
268.028	3.68
268.245	-6.05
268.462	7.26
268.679	10.41
268.896	-10.47
269.112	1.97
269.329	-11.19
269.546	-37.93
269.763	-12.2
269.979	-6.92
270.196	4.93
270.413	8.04
270.629	2.18
270.846	5.81
271.063	1.91
271.279	11.52
271.496	30.64
271.712	39.69
271.929	17.39
272.146	34.46
272.362	21.5
272.579	0.8
272.795	-9.87
273.012	4.93
273.228	4.48
273.445	-6.47
273.661	6.95
273.878	3.38
274.094	12.44
274.311	0.91
274.527	2.25
274.744	-6.93
274.96	0.19
275.177	-33.28
275.393	4.91
275.609	-7.67
275.826	-16.79
276.042	-12.96
276.259	0.51
276.475	-27.53
276.691	-16.62
276.908	-7.13
277.124	-1.14
277.34	-6.88
277.557	-4.57
277.773	-1.85
277.989	8.78
278.205	16.6
278.422	21
278.638	27.81
278.854	29.64
279.07	25.45
279.286	24.83
279.503	36.3
279.719	32.8
279.935	27.95
280.151	26.73
280.367	13.73
280.583	-17.29
280.799	-14.87
281.016	-10
281.232	-23.87
281.448	-13.43
281.664	-5.86
281.88	3.77
282.096	19.5
282.312	6.84
282.528	3.54
282.744	9.02
282.96	14.04
283.176	12.72
283.392	38.06
283.608	22.92
283.824	27
284.04	18.48
284.256	11.39
284.471	-5.17
284.687	6.53
284.903	7.58
285.119	-10.46
285.335	-4.6
285.551	14.86
285.767	21.41
285.982	1.8
286.198	23.97
286.414	11.5
286.63	0.61
286.846	-15.25
287.061	-8.31
287.277	-25.71
287.493	-1.89
287.709	-24.16
287.924	-8.77
288.14	-1.69
288.356	-4.35
288.571	-5.11
288.787	3.31
289.003	2.29
289.218	-11.64
289.434	10.31
289.65	-2.01
289.865	10.75
290.081	8.83
290.296	16.52
290.512	0.77
290.727	-3.82
290.943	9.47
291.159	26.45
291.374	28.19
291.59	38.64
291.805	50.43
292.021	62
292.236	49.32
292.451	43.67
292.667	40.26
292.882	29
293.098	-1.22
293.313	8.04
293.529	24.65
293.744	16.29
293.959	20.98
294.175	31.97
294.39	34.36
294.605	21.76
294.821	22.7
295.036	17.54
295.251	24.03
295.467	21.74
295.682	25.59
295.897	17.74
296.112	24.47
296.328	14.2
296.543	15.19
296.758	15.3
296.973	19.36
297.188	15.34
297.404	29.94
297.619	28.99
297.834	14.5
298.049	15.29
298.264	23.15
298.479	3.2
298.694	11.1
298.909	14.76
299.125	26.02
299.34	-0.25
299.555	8.09
299.77	-20.22
299.985	2.67
300.2	5.66
300.415	13.53
300.63	-8.46
300.845	9.16
301.06	-5.64
301.275	-36.98
301.49	0.97
301.704	28.67
301.919	36.65
302.134	49.59
302.349	47.17
302.564	43.47
302.779	35.9
302.994	30.94
303.209	22.67
303.423	41.59
303.638	48
303.853	51.31
304.068	51.23
304.283	54.2
304.497	45.53
304.712	39.35
304.927	44.65
305.142	49.76
305.356	40.72
305.571	35.47
305.786	23.23
306	15.05
306.215	4.07
306.43	20.14
306.644	3.59
306.859	-3.07
307.074	-5.46
307.288	0.49
307.503	0.67
307.717	5.75
307.932	7.91
308.147	6.75
308.361	4.99
308.576	6.3
308.79	28.08
309.005	26.17
309.219	28.11
309.434	15.64
309.648	8.48
309.863	-5.87
310.077	-3.22
310.292	-4.74
310.506	26.49
310.72	40.58
310.935	18.39
311.149	10.58
311.364	-7.02
311.578	-32.01
311.792	-40.97
312.007	-37.54
312.221	-6.86
312.435	-2.99
312.649	18.11
312.864	21.9
313.078	27.93
313.292	12.01
313.507	14.47
313.721	3.6
313.935	-25.26
314.149	-45.1
314.363	-28.41
314.578	-23.85
314.792	-16.51
315.006	-2.03
315.22	-0.3
315.434	-1.44
315.648	0.79
315.862	23.67
316.077	22.53
316.291	35.17
316.505	34.47
316.719	32.67
316.933	30.55
317.147	19.47
317.361	19.37
317.575	15.14
317.789	6.58
318.003	-6.84
318.217	1.53
318.431	10.16
318.645	-4.55
318.859	11.88
319.073	5.64
319.287	25.86
319.5	21.55
319.714	35.96
319.928	35.28
320.142	25.82
320.356	2.96
320.57	2.37
320.784	-2.71
320.997	8.57
321.211	33.75
321.425	43.49
321.639	43.43
321.853	27.09
322.066	11.4
322.28	-6.77
322.494	-34.23
322.707	-54.85
322.921	-32.75
323.135	-31.38
323.349	-32
323.562	-5.06
323.776	23.88
323.989	20.25
324.203	29.51
324.417	33.75
324.63	42.36
324.844	28.99
325.057	40.83
325.271	30.03
325.485	35.24
325.698	-11.15
325.912	-10.24
326.125	12.38
326.339	14.2
326.552	-11.17
326.766	34.55
326.979	29.1
327.193	16.92
327.406	20.55
327.619	33.19
327.833	-3
328.046	0.75
328.26	-11.27
328.473	-2.27
328.686	10.24
328.9	20.21
329.113	23.43
329.326	34.99
329.54	38.76
329.753	39.01
329.966	48.62
330.179	36.19
330.393	28.85
330.606	35.78
330.819	24.24
331.032	14.42
331.246	22.75
331.459	11.9
331.672	-16.06
331.885	-5.47
332.098	-7.92
332.311	17.41
332.525	29.18
332.738	41.28
332.951	33.1
333.164	20.29
333.377	11.63
333.59	8.34
333.803	-0.87
334.016	1.45
334.229	20.86
334.442	14.23
334.655	5.41
334.868	3.9
335.081	-1.94
335.294	-20.21
335.507	3.51
335.72	1.46
335.933	0.71
336.146	6.57
336.359	15.51
336.572	11.17
336.785	19.45
336.997	37.36
337.21	32.26
337.423	36.33
337.636	47.32
337.849	34.88
338.062	34.75
338.274	26.1
338.487	26.87
338.7	13.58
338.913	23.71
339.125	15.59
339.338	21.75
339.551	4.73
339.763	5.07
339.976	1.61
340.189	-4.49
340.402	-16.95
340.614	-11.74
340.827	-7.09
341.039	-3.18
341.252	-2.03
341.465	14.16
341.677	13.01
341.89	19.46
342.102	17.97
342.315	18.19
342.527	14.43
342.74	24.82
342.952	21.81
343.165	37.63
343.377	40.07
343.59	49.67
343.802	47.04
344.015	32.64
344.227	28.03
344.44	49.03
344.652	50.09
344.864	47.82
345.077	42.95
345.289	28.79
345.502	-14.93
345.714	-62.36
345.926	-45.64
346.139	-28.51
346.351	-20.94
346.563	0.15
346.775	23.48
346.988	27.11
347.2	18.62
347.412	18.15
347.624	12
347.837	8.03
348.049	8.46
348.261	-4.08
348.473	-4.39
348.685	18.42
348.897	30.34
349.11	21.39
349.322	18.28
349.534	14.53
349.746	2.4
349.958	-10.02
350.17	-2.65
350.382	-1.4
350.594	8.15
350.806	16.65
351.018	29.52
351.23	29.27
351.442	28.61
351.654	29.24
351.866	19.78
352.078	14.27
352.29	13.94
352.502	15.98
352.714	11.12
352.926	2.91
353.138	-17.6
353.35	-2.06
353.561	18.34
353.773	21.86
353.985	22.11
354.197	27.82
354.409	28.85
354.621	21.72
354.832	12.71
355.044	13.95
355.256	28.88
355.468	12.07
355.679	14.23
355.891	30.62
356.103	39.98
356.314	30.46
356.526	27.6
356.738	30.68
356.949	26.29
357.161	12.16
357.373	16.09
357.584	23.74
357.796	14.56
358.008	-13.27
358.219	-17.47
358.431	-14.76
358.642	-0.79
358.854	-30.77
359.065	-0.38
359.277	25.08
359.488	10.95
359.7	4.89
359.911	19.23
360.123	15.84
360.334	-14.31
360.546	-3.63
360.757	-15.2
360.969	-30.22
361.18	-13.3
361.391	9.79
361.603	12.45
361.814	8.83
362.025	28
362.237	29.58
362.448	29.92
362.659	11.67
362.871	15.1
363.082	1.77
363.293	-13.46
363.504	-15.65
363.716	3.46
363.927	11.67
364.138	15.2
364.349	24.26
364.56	17.38
364.772	25.83
364.983	6.7
365.194	15.34
365.405	16.12
365.616	13.03
365.827	12.11
366.038	19.9
366.25	12.86
366.461	15.67
366.672	32.86
366.883	18.76
367.094	23.13
367.305	27.72
367.516	17.72
367.727	7.78
367.938	16.51
368.149	4.81
368.36	-8.75
368.571	-4.63
368.781	-3.75
368.992	-5.02
369.203	19.99
369.414	28.17
369.625	15.83
369.836	9.56
370.047	1.63
370.258	-4.68
370.468	-1.1
370.679	17.72
370.89	28.06
371.101	36.98
371.312	27.81
371.522	23.83
371.733	16.76
371.944	18.24
372.155	14.48
372.365	6.11
372.576	17.54
372.787	21.42
372.997	18.42
373.208	13.97
373.419	15.57
373.629	8.38
373.84	5.47
374.05	3.34
374.261	13.44
374.472	26.82
374.682	23.64
374.893	22.51
375.103	18.46
375.314	9.49
375.524	-0.05
375.735	-1.06
375.945	5.14
376.156	14.95
376.366	12.2
376.577	14.22
376.787	19.57
376.997	18.39
377.208	14.77
377.418	13.36
377.629	8.04
377.839	8.56
378.049	7.95
378.26	1.06
378.47	7.57
378.68	9.14
378.89	8.98
379.101	3.31
379.311	3.19
379.521	6.54
379.732	9.1
379.942	11.75
380.152	22.27
380.362	27.22
380.572	30.62
380.783	27.65
380.993	18.16
381.203	11.17
381.413	8.06
381.623	-0.87
381.833	0.68
382.043	12.16
382.253	19.92
382.463	20.25
382.674	20.67
382.884	12.72
383.094	4.13
383.304	2.77
383.514	2.21
383.724	3.97
383.934	9.44
384.144	12.9
384.353	6.92
384.563	2.19
384.773	0.38
384.983	0.53
385.193	0.18
385.403	4.06
385.613	8.03
385.823	9.46
386.033	6.71
386.242	8.97
386.452	8.21
386.662	6.51
386.872	3.83
387.082	2.34
387.291	-1.11
387.501	-2.76
387.711	-5.27
387.921	-0.44
388.13	4
388.34	3.72
388.55	6.77
388.759	9.26
388.969	5.76
389.179	4.52
389.388	2.34
389.598	1.11
389.807	1.13
390.017	3.8
390.227	4.58
390.436	6.3
390.646	6.87
390.855	5.26
391.065	4.07
391.274	3.92
391.484	4.5
391.693	3.01
391.903	3.71
392.112	4.22
392.322	2.58
392.531	2
392.74	1.81
392.95	2.65
393.159	1.55
393.369	3.18
393.578	3.43
393.787	4.8
393.997	4.41
394.206	5.2
394.415	4.26
394.625	4.2
394.834	3.91
395.043	3.67
395.252	3.68
395.462	4.18
395.671	3.06
395.88	3.35
396.089	3.66
396.298	3.65
396.508	3.81
396.717	4.61
396.926	4.03
397.135	3.18
397.344	2.98
397.553	2.28
397.762	2.29
397.971	2.39
398.181	2.99
398.39	3.49
398.599	3.77
398.808	3.85
399.017	3.68
399.226	3.31
399.435	2.73
399.644	2.69
399.853	2.33
400.062	2.3
400.27	2.45
400.479	2.6
400.688	2.53
400.897	2.78
401.106	2.79
401.315	2.97
401.524	3.05
401.733	2.79
401.941	2.62
402.15	2.71
402.359	2.66
402.568	2.37
402.777	2.44
402.985	2.5
403.194	2.56
403.403	2.42
403.612	2.75
403.82	2.81
404.029	2.81
404.238	2.96
404.446	3.02
404.655	2.84
404.864	2.92
405.072	2.95
405.281	2.64
405.489	2.61
405.698	2.59
405.906	2.62
406.115	2.64
406.324	2.77
406.532	2.68
406.741	2.65
406.949	2.52
407.158	2.51
407.366	2.56
407.574	2.51
407.783	2.65
407.991	2.7
408.2	2.48
408.408	2.3
408.617	2.46
408.825	2.31
409.033	2.29
409.242	2.44
409.45	2.44
409.658	2.38
409.867	2.35
410.075	2.28
410.283	2.24
410.491	2.24
410.7	2.18
410.908	2.17
411.116	2.12
411.324	2.14
411.533	2.13
411.741	2.23
411.949	2.19
412.157	2.3
412.365	2.28
412.573	2.23
412.781	2.18
412.99	2.36
413.198	2.28
413.406	2.24
413.614	2.28
413.822	2.31
414.03	2.31
414.238	2.38
414.446	2.4
414.654	2.5
414.862	2.56
415.07	2.35
415.278	2.2
415.486	2.34
415.694	2.4
415.902	2.27
416.109	2.36
416.317	2.42
416.525	2.27
416.733	2.16
416.941	2.23
417.149	2.23
417.357	2.3
417.564	2.28
417.772	2.27
417.98	2.36
418.188	2.43
418.395	2.38
418.603	2.43
418.811	2.56
419.019	2.33
419.226	2.29
419.434	2.16
419.642	2.09
419.849	1.97
420.057	2.11
420.265	2.04
420.472	2.42
420.68	2.32
420.887	2.35
421.095	2.11
421.302	2.25
421.51	1.87
421.717	2.1
421.925	1.93
422.132	2.14
422.34	2.13
422.547	2.13
422.755	2
422.962	2.19
423.17	2.16
423.377	2.19
423.585	2.32
423.792	2.3
423.999	2.1
424.207	1.96
424.414	1.61
424.621	1.49
424.829	1.52
425.036	1.69
425.243	1.72
425.451	1.88
425.658	2.03
425.865	2
426.072	1.92
426.28	1.88
426.487	2.05
426.694	1.92
426.901	1.96
427.108	2.01
427.315	2.25
427.523	2.09
427.73	2.12
427.937	2.19
428.144	2.15
428.351	2.03
428.558	1.96
428.765	2.05
428.972	2.1
429.179	2.04
429.386	2.02
429.593	2.07
429.8	2.24
430.007	2.05
430.214	2.23
430.421	2.28
430.628	2.33
430.835	2.23
431.042	2.16
431.249	2.12
431.456	2.27
431.662	2.26
431.869	2.37
432.076	2.44
432.283	2.3
432.49	2.17
432.697	2.17
432.903	2.07
433.11	2.07
433.317	2.11
433.524	2.01
433.73	2.08
433.937	2.02
434.144	2.08
434.35	2.21
434.557	2.36
434.764	2.36
434.97	2.51
435.177	2.5
435.384	2.55
435.59	2.49
435.797	2.39
436.003	2.22
436.21	2.21
436.416	2.15
436.623	2.08
436.829	2.1
437.036	2.24
437.242	2.31
437.449	2.22
437.655	2.3
437.862	2.26
438.068	2.18
438.275	2.15
438.481	2.03
438.687	2.06
438.894	2.31
439.1	2.43
439.307	2.37
439.513	2.48
439.719	2.43
439.926	2.23
440.132	2.14
440.338	2.3
440.544	2.24
440.751	2.2
440.957	2.26
441.163	2.25
441.369	2.23
441.575	2.33
441.782	2.48
441.988	2.55
442.194	2.52
442.4	2.48
442.606	2.45
442.812	2.42
443.018	2.3
443.224	2.35
443.431	2.33
443.637	2.42
443.843	2.45
444.049	2.51
444.255	2.66
444.461	2.8
444.667	2.75
444.873	2.63
445.079	2.64
445.284	2.58
445.49	2.53
445.696	2.49
445.902	2.5
446.108	2.51
446.314	2.41
446.52	2.53
446.726	2.6
446.931	2.69
447.137	2.63
447.343	2.77
447.549	2.68
447.755	2.69
447.96	2.5
448.166	2.58
448.372	2.4
448.578	2.41
448.783	2.41
448.989	2.6
449.195	2.53
449.4	2.64
449.606	2.6
449.812	2.6
450.017	2.51
450.223	2.58
450.428	2.66
450.634	2.68
450.84	2.73
451.045	2.83
451.251	2.88
451.456	2.78
451.662	2.65
451.867	2.58
452.073	2.52
452.278	2.41
452.483	2.41
452.689	2.51
452.894	2.66
453.1	2.62
453.305	2.74
453.51	2.75
453.716	2.75
453.921	2.67
454.127	2.71
454.332	2.74
454.537	2.76
454.742	2.8
454.948	2.82
455.153	2.91
455.358	2.79
455.563	2.74
455.769	2.74
455.974	2.75
456.179	2.65
456.384	2.6
456.589	2.75
456.795	2.7
457	2.73
457.205	2.68
457.41	2.82
457.615	2.8
457.82	2.81
458.025	2.72
458.23	2.78
458.435	2.69
458.64	2.62
458.845	2.57
459.05	2.64
459.255	2.68
459.46	2.67
459.665	2.68
459.87	2.72
460.075	2.73
460.28	2.75
460.485	2.75
460.69	2.77
460.895	2.8
461.099	2.78
461.304	2.68
461.509	2.76
461.714	2.79
461.919	2.75
462.123	2.72
462.328	2.81
462.533	2.84
462.738	2.85
462.942	2.86
463.147	2.95
463.352	2.87
463.556	2.89
463.761	2.91
463.966	2.88
464.17	2.84
464.375	2.99
464.58	2.98
464.784	2.92
464.989	3.08
465.193	3.14
465.398	3.08
465.602	2.95
465.807	3.05
466.011	3
466.216	2.99
466.42	2.97
466.625	3.15
466.829	3.09
467.034	3.05
467.238	3.04
467.443	3.05
467.647	3.02
467.851	3.08
468.056	3.06
468.26	3.08
468.464	3.05
