Data from Ofav_PP_Phys_2EV44_Reflection_3.txt Node
Date: Tue Aug 03 18:05:10 EDT 2021
User: Adam
Spectrometer: FLMT01687
Trigger mode: 0
Integration Time (sec): 8.750000E-1
Scans to average: 2
Electric dark correction enabled: true
Nonlinearity correction enabled: false
Boxcar width: 2
XAxis mode: Wavelengths
Number of Pixels in Spectrum: 3648
>>>>>Begin Spectral Data<<<<<
179.494	177.24
179.716	270.08
179.937	466.12
180.158	-600.51
180.38	-48.43
180.601	-189.05
180.823	343.53
181.044	233.64
181.265	212.53
181.486	338.51
181.708	97.43
181.929	150.16
182.15	263.4
182.372	152.69
182.593	-303.33
182.814	111.35
183.035	90.26
183.257	36.16
183.478	27.33
183.699	7.72
183.92	-4.7
184.141	-24.72
184.363	-32.05
184.584	-47.19
184.805	-12.13
185.026	-32.47
185.247	-9.86
185.468	-4.75
185.689	-13.97
185.91	-2.83
186.132	-1.11
186.353	7.24
186.574	-3.43
186.795	19.84
187.016	5.17
187.237	31.26
187.458	22.32
187.679	21.02
187.9	8.03
188.121	12.75
188.342	9.69
188.563	24.41
188.784	32.99
189.005	40.48
189.226	31.44
189.447	18.44
189.667	-13.2
189.888	-25.97
190.109	2.94
190.33	-9.51
190.551	-19.31
190.772	8.77
190.993	9.01
191.214	-17.42
191.434	1.53
191.655	-6.79
191.876	-3.8
192.097	11.41
192.318	32.45
192.538	36.39
192.759	44.72
192.98	12.37
193.201	-15.87
193.421	-21.79
193.642	-22.15
193.863	15.28
194.083	39.39
194.304	23.07
194.525	13.92
194.745	33.39
194.966	11.66
195.187	18.37
195.407	30.28
195.628	26.95
195.848	0.55
196.069	41.15
196.29	17.29
196.51	4.09
196.731	19.83
196.951	31.65
197.172	24.75
197.392	33.85
197.613	38.57
197.833	37.11
198.054	48.42
198.274	26.85
198.495	45.61
198.715	67.64
198.936	61.84
199.156	59.87
199.377	68.82
199.597	70.01
199.817	52.41
200.038	57.95
200.258	53.92
200.479	44.23
200.699	51.45
200.919	22.99
201.14	55.52
201.36	24.27
201.58	26.9
201.801	-29.63
202.021	-15.8
202.241	-32.46
202.461	10.08
202.682	21.58
202.902	33.47
203.122	42.56
203.342	57.45
203.563	28.37
203.783	33.84
204.003	48.6
204.223	40.02
204.443	19.85
204.663	32.79
204.884	14.63
205.104	17.49
205.324	27.26
205.544	11.62
205.764	6.45
205.984	-7.13
206.204	-26.26
206.424	-52.39
206.644	-20.53
206.864	-16.99
207.084	11.4
207.304	1.57
207.525	11.03
207.745	10.2
207.964	9.12
208.184	11.29
208.404	23.44
208.624	16.62
208.844	23.69
209.064	30.26
209.284	31.26
209.504	13.97
209.724	29.41
209.944	7.73
210.164	-45.69
210.384	-15.47
210.604	-3.07
210.823	-12.73
211.043	7.85
211.263	12.72
211.483	7.92
211.703	48.53
211.922	29.68
212.142	43.32
212.362	33.23
212.582	40.83
212.801	16.93
213.021	26.82
213.241	-5.5
213.461	26.02
213.68	19.9
213.9	15.47
214.12	-3.69
214.339	34.04
214.559	54.54
214.779	36.79
214.998	55.03
215.218	69.42
215.438	42.76
215.657	30.8
215.877	27.57
216.096	9.61
216.316	-5.76
216.535	-24.9
216.755	-45.23
216.974	-23.01
217.194	-0.99
217.413	31.63
217.633	46.64
217.852	42.18
218.072	34.21
218.291	26.14
218.511	20.84
218.73	20.07
218.95	32.87
219.169	45.93
219.389	48.14
219.608	35.8
219.827	6.53
220.047	-25.4
220.266	-12.67
220.485	30.83
220.705	36.31
220.924	31.54
221.143	22.63
221.363	24.35
221.582	-4.89
221.801	-20.28
222.021	3.9
222.24	28.59
222.459	3.67
222.678	35.91
222.897	31.66
223.117	5.62
223.336	-114.88
223.555	-26.72
223.774	-14.09
223.993	-18.7
224.213	-7.02
224.432	0.84
224.651	10.13
224.87	11.57
225.089	25.85
225.308	17.57
225.527	23.35
225.746	7.55
225.965	9.42
226.184	5.97
226.404	26.13
226.623	34.06
226.842	37.5
227.061	23.95
227.28	25.58
227.499	28.82
227.718	20.82
227.936	5.84
228.155	28.27
228.374	29.18
228.593	29.84
228.812	15.05
229.031	38.14
229.25	29.88
229.469	8.98
229.688	-27.58
229.907	-34.59
230.125	-25.76
230.344	-33.77
230.563	-25.27
230.782	7.73
231.001	30.06
231.22	28
231.438	5.7
231.657	-4.52
231.876	-4.66
232.095	-10.63
232.313	-23.76
232.532	-45.23
232.751	-21.71
232.969	-20.15
233.188	-23.39
233.407	-4.8
233.625	26.73
233.844	17.11
234.063	21.9
234.281	20.5
234.5	10.53
234.719	-8.91
234.937	17.44
235.156	0.25
235.374	8.37
235.593	21.78
235.811	26.75
236.03	24.74
236.249	42.25
236.467	50.06
236.686	31.19
236.904	20.94
237.123	29.78
237.341	26.86
237.559	25.36
237.778	27.87
237.996	36.81
238.215	29.92
238.433	13.89
238.652	13.06
238.87	19.52
239.088	8.5
239.307	15.42
239.525	21.16
239.743	19.49
239.962	21.65
240.18	29.98
240.398	33.95
240.617	33.5
240.835	18.37
241.053	7.1
241.271	-21.47
241.49	-31.28
241.708	-23.9
241.926	3.96
242.144	8.7
242.363	26.11
242.581	13.19
242.799	13.52
243.017	4.89
243.235	18.66
243.453	18.79
243.672	29.09
243.89	34.92
244.108	43.28
244.326	13.18
244.544	7.92
244.762	5.37
244.98	-0.65
245.198	12.25
245.416	39.5
245.634	32.98
245.852	28.43
246.07	26.48
246.288	8.21
246.506	15.23
246.724	22.08
246.942	31.71
247.16	33.12
247.378	36.67
247.596	37.88
247.814	31.52
248.032	27
248.25	16.1
248.468	18.02
248.685	15.88
248.903	3.47
249.121	3.22
249.339	8.83
249.557	6.83
249.775	-3.91
249.992	12.22
250.21	4.71
250.428	-6.37
250.646	-38.59
250.863	-43.79
251.081	-55.43
251.299	-52.45
251.517	-28.08
251.734	-7.05
251.952	-8.23
252.17	-24.02
252.387	-32.79
252.605	-48.27
252.823	-72.83
253.04	-45.71
253.258	2.43
253.475	7.8
253.693	5.07
253.911	18.62
254.128	6.6
254.346	3.92
254.563	5.68
254.781	22.66
254.998	14.43
255.216	17.9
255.433	13.9
255.651	29.79
255.868	28.5
256.086	31.71
256.303	54.76
256.521	52.2
256.738	16.33
256.956	21.54
257.173	17.12
257.39	13.98
257.608	0.59
257.825	-0.41
258.043	-39.39
258.26	-8.2
258.477	1.36
258.695	-6.03
258.912	-6.49
259.129	26.26
259.346	19.67
259.564	13.93
259.781	19.51
259.998	36.74
260.216	31.51
260.433	26.62
260.65	21.72
260.867	35.4
261.084	10.84
261.302	-8.41
261.519	-5.64
261.736	9.26
261.953	4.33
262.17	7.27
262.387	6.63
262.604	-10.85
262.822	-5.27
263.039	-7.53
263.256	-2.25
263.473	13.41
263.69	29.4
263.907	19.02
264.124	-4.32
264.341	-9.89
264.558	-48.3
264.775	-32.29
264.992	-18.13
265.209	-3.34
265.426	4.01
265.643	27.35
265.86	26.66
266.077	32.98
266.294	27.3
266.51	19.3
266.727	14.49
266.944	5.97
267.161	0.18
267.378	8.62
267.595	18.38
267.812	19.97
268.028	25.42
268.245	26.27
268.462	35.92
268.679	34.07
268.896	3.6
269.112	9.58
269.329	-10.02
269.546	-49.12
269.763	-34.42
269.979	-15.4
270.196	-2.66
270.413	8.48
270.629	16.44
270.846	0.22
271.063	31.55
271.279	22.29
271.496	14.26
271.712	16.54
271.929	19.85
272.146	22.34
272.362	21.78
272.579	14.92
272.795	10.21
273.012	9.21
273.228	12.83
273.445	3.98
273.661	10.46
273.878	15.25
274.094	15.79
274.311	-8.74
274.527	-19.26
274.744	-5.88
274.96	-2.13
275.177	-33.43
275.393	-8.34
275.609	13.64
275.826	20.39
276.042	12.46
276.259	39.91
276.475	30.09
276.691	22.67
276.908	4.03
277.124	21.02
277.34	5
277.557	1.67
277.773	-1.14
277.989	4.72
278.205	-5.08
278.422	11.46
278.638	22.42
278.854	19.66
279.07	31.52
279.286	37.8
279.503	34.21
279.719	30.19
279.935	24.33
280.151	2.73
280.367	-11.21
280.583	-54.04
280.799	-35.74
281.016	-37.65
281.232	-26.55
281.448	-9.83
281.664	-2.58
281.88	0.01
282.096	10.2
282.312	5.15
282.528	11.82
282.744	32.93
282.96	27.19
283.176	23.43
283.392	31.94
283.608	33.06
283.824	21.94
284.04	25.13
284.256	32.02
284.471	30.81
284.687	22.82
284.903	29.79
285.119	33.32
285.335	33.99
285.551	23.31
285.767	27.53
285.982	13.56
286.198	5.68
286.414	-3.01
286.63	-12.18
286.846	-9.06
287.061	-4.46
287.277	-2.42
287.493	4.42
287.709	-2.15
287.924	-3.82
288.14	-0.48
288.356	-2.55
288.571	9.56
288.787	16.87
289.003	-4.7
289.218	-14.21
289.434	-13.18
289.65	-29.58
289.865	-29.46
290.081	-47.38
290.296	-45.86
290.512	-49.06
290.727	-52.82
290.943	-24.82
291.159	12.16
291.374	12.32
291.59	27.71
291.805	26.06
292.021	21.99
292.236	12.36
292.451	22.81
292.667	24.44
292.882	31.1
293.098	23.07
293.313	33.13
293.529	23.02
293.744	-5.01
293.959	5.45
294.175	28.02
294.39	44
294.605	50.33
294.821	65.07
295.036	57.67
295.251	47.85
295.467	31
295.682	44.93
295.897	33.56
296.112	36.68
296.328	44.72
296.543	60.59
296.758	39.75
296.973	34.45
297.188	31.98
297.404	48.08
297.619	40.9
297.834	39.03
298.049	42.58
298.264	40.16
298.479	12.24
298.694	5.64
298.909	20.32
299.125	25.24
299.34	29.06
299.555	32.64
299.77	23.28
299.985	6.76
300.2	6.2
300.415	-10.87
300.63	1.35
300.845	14.24
301.06	8.91
301.275	-0.99
301.49	15.86
301.704	-2.72
301.919	7.13
302.134	5.09
302.349	10.14
302.564	17.47
302.779	29.36
302.994	29.22
303.209	29.04
303.423	33.27
303.638	34.11
303.853	39.76
304.068	38.41
304.283	44.69
304.497	41.09
304.712	33.79
304.927	33.53
305.142	35.17
305.356	33.67
305.571	38.22
305.786	41.05
306	38.99
306.215	33.38
306.43	37.82
306.644	25.84
306.859	25.79
307.074	24.29
307.288	39.86
307.503	32.49
307.717	42.25
307.932	33.84
308.147	32.62
308.361	3.75
308.576	5.72
308.79	15.21
309.005	29.2
309.219	28.65
309.434	27.16
309.648	26.3
309.863	6.57
310.077	-14.25
310.292	-6.94
310.506	7.9
310.72	14.41
310.935	10.34
311.149	11.22
311.364	-3.78
311.578	-1.66
311.792	7.75
312.007	14.32
312.221	16.77
312.435	18.62
312.649	18.27
312.864	-8.31
313.078	9.98
313.292	19.33
313.507	30.21
313.721	21.19
313.935	37.16
314.149	23.71
314.363	17.87
314.578	7.58
314.792	14.29
315.006	12.43
315.22	7.73
315.434	0.8
315.648	-11.35
315.862	4.41
316.077	7.82
316.291	12.84
316.505	20.92
316.719	27.61
316.933	30.05
317.147	19.11
317.361	-1.26
317.575	14.35
317.789	13.98
318.003	6.42
318.217	11.93
318.431	24.01
318.645	-9.14
318.859	-9.23
319.073	-11.06
319.287	-3.44
319.5	4.37
319.714	19.51
319.928	25.36
320.142	18.63
320.356	10.62
320.57	13.17
320.784	13.91
320.997	11.23
321.211	26.59
321.425	35.34
321.639	28.54
321.853	24.46
322.066	27.72
322.28	18.38
322.494	24.3
322.707	26.97
322.921	21.9
323.135	22.81
323.349	23.07
323.562	26.62
323.776	31.52
323.989	47.42
324.203	46.17
324.417	42.07
324.63	43.68
324.844	42.56
325.057	41.88
325.271	27.47
325.485	32.55
325.698	15.63
325.912	3.17
326.125	8.34
326.339	20.47
326.552	13.15
326.766	22.82
326.979	30.64
327.193	19.29
327.406	17.61
327.619	21.93
327.833	3.66
328.046	19.3
328.26	17.02
328.473	8.01
328.686	6.8
328.9	29.63
329.113	29.16
329.326	35.81
329.54	47.21
329.753	48.84
329.966	44.73
330.179	23.58
330.393	18.08
330.606	19.22
330.819	14.5
331.032	11.01
331.246	11.29
331.459	17.55
331.672	4.7
331.885	11.37
332.098	5.12
332.311	26.12
332.525	28.35
332.738	42.86
332.951	39.08
333.164	38.84
333.377	30.46
333.59	29.92
333.803	19.27
334.016	18.14
334.229	24.27
334.442	1.46
334.655	-7.12
334.868	-16.94
335.081	-18.61
335.294	-25.56
335.507	-3.36
335.72	-6.23
335.933	4.39
336.146	8.03
336.359	9.74
336.572	-1.87
336.785	6.34
336.997	19.91
337.21	15.14
337.423	5.78
337.636	21.14
337.849	9.79
338.062	8.16
338.274	12.15
338.487	28.85
338.7	26.04
338.913	35.3
339.125	27.15
339.338	20.82
339.551	5.69
339.763	-11.07
339.976	-13.56
340.189	-6.2
340.402	0.44
340.614	1.23
340.827	28.42
341.039	40.04
341.252	50.89
341.465	46.06
341.677	44.34
341.89	33.81
342.102	34.75
342.315	9.65
342.527	22.33
342.74	18.61
342.952	13.7
343.165	15.68
343.377	21.06
343.59	12.56
343.802	15.89
344.015	11.2
344.227	-2.24
344.44	4.23
344.652	13.24
344.864	5.17
345.077	8.92
345.289	-0.41
345.502	-21.61
345.714	-34.25
345.926	-9.58
346.139	-9.99
346.351	-1.99
346.563	12.5
346.775	15.26
346.988	8.08
347.2	18.17
347.412	20.77
347.624	8.26
347.837	0.37
348.049	4.67
348.261	-8.83
348.473	-5.33
348.685	0.88
348.897	8.43
349.11	5.43
349.322	-3.19
349.534	-17.32
349.746	-14.09
349.958	-5.84
350.17	-2.27
350.382	0.88
350.594	7.74
350.806	8.57
351.018	1.12
351.23	10.04
351.442	12.09
351.654	-2.97
351.866	-0.43
352.078	8.38
352.29	-0.61
352.502	6.5
352.714	25.71
352.926	22
353.138	10.69
353.35	16.61
353.561	28.6
353.773	30.44
353.985	27.29
354.197	28.21
354.409	27.05
354.621	24.17
354.832	22.67
355.044	27.18
355.256	29.87
355.468	28.93
355.679	33.72
355.891	31.48
356.103	34.63
356.314	19.85
356.526	13.7
356.738	19.46
356.949	13.7
357.161	-17.87
357.373	2.02
357.584	5.7
357.796	2.72
358.008	-5.62
358.219	11.36
358.431	14.69
358.642	18.53
358.854	9.76
359.065	20.18
359.277	39.27
359.488	28.1
359.7	16.69
359.911	2.23
360.123	4.53
360.334	-11.96
360.546	-6.09
360.757	-11.68
360.969	-1.37
361.18	12.12
361.391	20.53
361.603	27.82
361.814	43.3
362.025	49.22
362.237	42.05
362.448	34.4
362.659	28.64
362.871	21.34
363.082	5.07
363.293	6.34
363.504	8.64
363.716	22.46
363.927	20.64
364.138	31.02
364.349	18.27
364.56	22.41
364.772	20.28
364.983	10.33
365.194	2.46
365.405	8.08
365.616	16.12
365.827	21.96
366.038	31.81
366.25	25.3
366.461	26.71
366.672	2.4
366.883	-7.37
367.094	-14.2
367.305	-4.9
367.516	-11.9
367.727	8.28
367.938	7.72
368.149	14.18
368.36	-0.14
368.571	10.41
368.781	12.57
368.992	19.25
369.203	23.95
369.414	38.7
369.625	22.52
369.836	13.26
370.047	9.53
370.258	-6.03
370.468	-5.17
370.679	16.56
370.89	14.85
371.101	14.64
371.312	26.68
371.522	23.35
371.733	18.24
371.944	20.86
372.155	20.78
372.365	11.19
372.576	19.24
372.787	10.54
372.997	11.23
373.208	20.3
373.419	10.48
373.629	-1.32
373.84	12.64
374.05	9.06
374.261	-0.26
374.472	14.66
374.682	14.13
374.893	8.76
375.103	1.7
375.314	4.04
375.524	5.09
375.735	15.18
375.945	18.32
376.156	27.63
376.366	22.33
376.577	24.75
376.787	26.7
376.997	24.22
377.208	26.07
377.418	22.89
377.629	18.34
377.839	1.67
378.049	-4.11
378.26	-13.84
378.47	-3.63
378.68	-11.17
378.89	9.35
379.101	16.4
379.311	13.28
379.521	12.39
379.732	20.39
379.942	14.31
380.152	15.51
380.362	15.16
380.572	16.42
380.783	21.66
380.993	20.61
381.203	9.32
381.413	13.62
381.623	11.69
381.833	5.85
382.043	15.18
382.253	19.27
382.463	19.04
382.674	17.56
382.884	12.59
383.094	-3.13
383.304	-0.54
383.514	4.22
383.724	-1.47
383.934	5.67
384.144	8.91
384.353	4.91
384.563	-1.38
384.773	-1.99
384.983	-4.13
385.193	-0.55
385.403	7.16
385.613	13.27
385.823	19.57
386.033	16.1
386.242	18.62
386.452	17.38
386.662	14.38
386.872	8.77
387.082	5.72
387.291	2.73
387.501	-2.63
387.711	-5.02
387.921	1.89
388.13	6.04
388.34	3.65
388.55	9.11
388.759	11.47
388.969	9.62
389.179	9.66
389.388	7.4
389.598	4.91
389.807	1.68
390.017	1.02
390.227	0.42
390.436	3.26
390.646	0.34
390.855	1.16
391.065	0.61
391.274	3.03
391.484	3.36
391.693	5.28
391.903	5.82
392.112	7.41
392.322	4.84
392.531	3.72
392.74	3.55
392.95	5.11
393.159	3
393.369	5.15
393.578	5.72
393.787	5.86
393.997	4.17
394.206	4.79
394.415	3.26
394.625	3.21
394.834	3.61
395.043	4.36
395.252	4.48
395.462	4.81
395.671	4.03
395.88	3.56
396.089	3.24
396.298	3.18
396.508	2.86
396.717	3.32
396.926	2.68
397.135	2.09
397.344	1.98
397.553	1.88
397.762	1.78
397.971	2.29
398.181	2.51
398.39	2.88
398.599	2.9
398.808	3.3
399.017	2.91
399.226	2.83
399.435	2.37
399.644	2.58
399.853	2.18
400.062	2.38
400.27	2.51
400.479	2.48
400.688	2.19
400.897	2.62
401.106	2.62
401.315	2.59
401.524	2.67
401.733	2.54
401.941	2.28
402.15	2.27
402.359	2.43
402.568	2.34
402.777	2.53
402.985	2.51
403.194	2.61
403.403	2.33
403.612	2.3
403.82	2.23
404.029	2.25
404.238	2.33
404.446	2.26
404.655	2.31
404.864	2.32
405.072	2.2
405.281	2.12
405.489	2.3
405.698	2.29
405.906	2.41
406.115	2.5
406.324	2.42
406.532	2.3
406.741	2.36
406.949	2.21
407.158	2.28
407.366	2.33
407.574	2.36
407.783	2.33
407.991	2.32
408.2	2.18
408.408	2.01
408.617	2.02
408.825	2.02
409.033	2.1
409.242	2.19
409.45	2.22
409.658	2.26
409.867	2.27
410.075	2.21
410.283	2.08
410.491	2
410.7	1.98
410.908	1.93
411.116	1.89
411.324	1.92
411.533	1.94
411.741	1.99
411.949	1.96
412.157	1.98
412.365	1.94
412.573	2.09
412.781	2.09
412.99	2.14
413.198	2.14
413.406	2.17
413.614	2.04
413.822	2.02
414.03	1.96
414.238	2.02
414.446	2.03
414.654	2.04
414.862	2.03
415.07	1.97
415.278	1.89
415.486	1.91
415.694	2.05
415.902	1.92
416.109	1.94
416.317	2
416.525	1.9
416.733	1.95
416.941	2.02
417.149	2.03
417.357	1.96
417.564	2.07
417.772	1.96
417.98	2.13
418.188	2.21
418.395	2.19
418.603	2.09
418.811	2.06
419.019	1.77
419.226	1.75
419.434	1.67
419.642	1.64
419.849	1.6
420.057	1.78
420.265	1.63
420.472	1.84
420.68	1.9
420.887	1.95
421.095	1.71
421.302	1.95
421.51	1.64
421.717	1.75
421.925	1.57
422.132	1.72
422.34	1.68
422.547	1.81
422.755	1.61
422.962	1.8
423.17	1.9
423.377	1.86
423.585	2
423.792	2.01
423.999	1.84
424.207	1.76
424.414	1.5
424.621	1.39
424.829	1.52
425.036	1.77
425.243	1.65
425.451	1.72
425.658	1.71
425.865	1.64
426.072	1.49
426.28	1.45
426.487	1.44
426.694	1.4
426.901	1.4
427.108	1.51
427.315	1.82
427.523	1.88
427.73	1.91
427.937	2.12
428.144	1.9
428.351	1.85
428.558	1.99
428.765	2.01
428.972	1.81
429.179	1.78
429.386	1.62
429.593	1.48
429.8	1.44
430.007	1.41
430.214	1.58
430.421	1.74
430.628	1.65
430.835	1.77
431.042	1.82
431.249	1.76
431.456	1.78
431.662	1.91
431.869	1.92
432.076	1.75
432.283	1.78
432.49	1.74
432.697	1.82
432.903	1.74
433.11	1.76
433.317	1.81
433.524	1.74
433.73	1.66
433.937	1.71
434.144	1.84
434.35	1.66
434.557	1.7
434.764	1.75
434.97	1.74
435.177	1.76
435.384	1.95
435.59	1.95
435.797	1.84
436.003	1.78
436.21	1.75
436.416	1.78
436.623	1.66
436.829	1.72
437.036	1.8
437.242	1.8
437.449	1.69
437.655	1.78
437.862	1.8
438.068	1.73
438.275	1.76
438.481	1.77
438.687	1.82
438.894	1.97
439.1	2.01
439.307	1.96
439.513	2.06
439.719	2.03
439.926	1.88
440.132	1.94
440.338	2
440.544	1.88
440.751	1.81
440.957	1.64
441.163	1.64
441.369	1.62
441.575	1.68
441.782	1.85
441.988	2.03
442.194	2.01
442.4	2.07
442.606	2.12
442.812	2.08
443.018	1.97
443.224	1.92
443.431	1.89
443.637	1.89
443.843	1.87
444.049	2.03
444.255	2.17
444.461	2.27
444.667	2.16
444.873	2.13
445.079	2.03
445.284	1.97
445.49	1.91
445.696	1.95
445.902	2.03
446.108	2.08
446.314	2.09
446.52	2.2
446.726	2.32
446.931	2.3
447.137	2.28
447.343	2.33
447.549	2.2
447.755	2.16
447.96	2.09
448.166	1.98
448.372	1.83
448.578	1.85
448.783	1.82
448.989	1.9
449.195	2.01
449.4	2.12
449.606	2.04
449.812	2.02
450.017	2.01
450.223	2.04
450.428	2.09
450.634	2.17
450.84	2.21
451.045	2.24
451.251	2.22
451.456	2.24
451.662	2.14
451.867	2.04
452.073	2.04
452.278	1.96
452.483	1.94
452.689	1.94
452.894	2
453.1	1.9
453.305	1.97
453.51	1.94
453.716	1.99
453.921	2.02
454.127	2.08
454.332	2.15
454.537	2.16
454.742	2.23
454.948	2.26
455.153	2.28
455.358	2.19
455.563	2.05
455.769	2.1
455.974	2.08
456.179	2.07
456.384	2.07
456.589	2.24
456.795	2.12
457	2.15
457.205	2.12
457.41	2.09
457.615	2.02
457.82	2.03
458.025	2.03
458.23	2.01
458.435	2.08
458.64	2.11
458.845	2.11
459.05	2.06
459.255	2.01
459.46	1.98
459.665	1.89
459.87	1.92
460.075	1.88
460.28	2.06
460.485	2.13
460.69	2.17
460.895	2.09
461.099	2.12
461.304	1.97
461.509	2.01
461.714	2.07
461.919	2.12
462.123	2.18
462.328	2.32
462.533	2.28
462.738	2.25
462.942	2.3
463.147	2.47
463.352	2.33
463.556	2.36
463.761	2.32
463.966	2.23
464.17	2.1
464.375	2.2
464.58	2.2
464.784	2.17
464.989	2.23
465.193	2.26
465.398	2.29
465.602	2.21
465.807	2.38
466.011	2.38
466.216	2.31
466.42	2.23
466.625	2.3
466.829	2.17
467.034	2.2
467.238	2.17
467.443	2.14
467.647	2.15
467.851	2.25
468.056	2.27
468.26	2.36
468.464	2.39
468.669	2.4
468.873	2.25
469.077	2.12
