Data from Ofav_PP_Phys_3JQ1_Reflection_3.txt Node
Date: Tue Aug 03 18:10:32 EDT 2021
User: Adam
Spectrometer: FLMT01687
Trigger mode: 0
Integration Time (sec): 8.750000E-1
Scans to average: 2
Electric dark correction enabled: true
Nonlinearity correction enabled: false
Boxcar width: 2
XAxis mode: Wavelengths
Number of Pixels in Spectrum: 3648
>>>>>Begin Spectral Data<<<<<
179.494	154.5
179.716	155.49
179.937	211.66
180.158	335.04
180.38	1565.79
180.601	114.33
180.823	204.97
181.044	47.69
181.265	21.26
181.486	254.48
181.708	104.1
181.929	242.48
182.15	21.97
182.372	66.46
182.593	82.91
182.814	197.25
183.035	150
183.257	1073.53
183.478	-45.36
183.699	-152.41
183.92	-86.82
184.141	-64.08
184.363	-9.82
184.584	-74.9
184.805	-23.82
185.026	-46.52
185.247	-35.89
185.468	-34.84
185.689	-61.7
185.91	-47.37
186.132	-20.53
186.353	-2.84
186.574	-27.62
186.795	6.76
187.016	3.25
187.237	4.41
187.458	-2.59
187.679	1.79
187.9	3.93
188.121	-9.03
188.342	-32.31
188.563	-21.11
188.784	-24.09
189.005	-42.63
189.226	-48.01
189.447	-24.91
189.667	-44.74
189.888	-52.52
190.109	-31.54
190.33	-59.01
190.551	-23.63
190.772	-19.9
190.993	-22.74
191.214	-12.15
191.434	5.7
191.655	-43.15
191.876	-40.32
192.097	-17.98
192.318	-10.11
192.538	-4.63
192.759	1.93
192.98	35.48
193.201	18.81
193.421	15.79
193.642	11.86
193.863	29.52
194.083	-5.45
194.304	6.29
194.525	-0.85
194.745	6.7
194.966	22.67
195.187	44.4
195.407	75.45
195.628	52.58
195.848	46.06
196.069	49.44
196.29	8.06
196.51	-26
196.731	10.14
196.951	27.98
197.172	42.81
197.392	100.44
197.613	89.26
197.833	58.9
198.054	63.66
198.274	20.67
198.495	8.71
198.715	28.27
198.936	37.59
199.156	27.5
199.377	11.35
199.597	15.53
199.817	19.54
200.038	-5.38
200.258	-21.56
200.479	-44.41
200.699	-36.44
200.919	-84.75
201.14	5.93
201.36	17.54
201.58	15.52
201.801	-16.37
202.021	-7.51
202.241	-48.82
202.461	-43.35
202.682	-25.67
202.902	-35.45
203.122	-15.85
203.342	3.57
203.563	5.75
203.783	29.83
204.003	37.02
204.223	30.92
204.443	25.23
204.663	24.09
204.884	-1.75
205.104	-4.47
205.324	-16.08
205.544	-35.91
205.764	-46.55
205.984	-53.88
206.204	-51.03
206.424	-124.91
206.644	-33.14
206.864	-38.73
207.084	-54.09
207.304	-53.06
207.525	2.41
207.745	-24.13
207.964	-24.94
208.184	8.81
208.404	2.9
208.624	1.61
208.844	8.93
209.064	19.16
209.284	39.21
209.504	29.32
209.724	23.54
209.944	21.13
210.164	-0.09
210.384	-6.45
210.604	-41.15
210.823	-133.01
211.043	-36.42
211.263	-57.13
211.483	-40.38
211.703	12.95
211.922	8.27
212.142	-13.31
212.362	4.4
212.582	11.42
212.801	19.9
213.021	33.57
213.241	49.36
213.461	50.67
213.68	42.28
213.9	10.49
214.12	11.15
214.339	36.05
214.559	45.17
214.779	39.55
214.998	35.16
215.218	49.07
215.438	29.92
215.657	26.73
215.877	37.44
216.096	33.05
216.316	16.36
216.535	2.01
216.755	-33.12
216.974	-7.52
217.194	7.49
217.413	44.78
217.633	43.5
217.852	66.93
218.072	58.64
218.291	44.44
218.511	8.7
218.73	22.06
218.95	11.65
219.169	11.84
219.389	14.91
219.608	17.97
219.827	-9.01
220.047	-12.48
220.266	9.46
220.485	33.72
220.705	45.33
220.924	51.96
221.143	50.39
221.363	45.51
221.582	26.1
221.801	-21.93
222.021	1
222.24	0.19
222.459	-67.95
222.678	-33.64
222.897	-15.07
223.117	-54.68
223.336	-318.35
223.555	-119.71
223.774	-124.55
223.993	-86.89
224.213	-99.5
224.432	-37.38
224.651	6.86
224.87	14.28
225.089	10.47
225.308	13.83
225.527	-3.98
225.746	-78.36
225.965	-70.33
226.184	-102.15
226.404	-11.07
226.623	37.08
226.842	55.22
227.061	14.06
227.28	24.84
227.499	21.3
227.718	-7.54
227.936	-15.45
228.155	11.26
228.374	19.82
228.593	18.63
228.812	4.05
229.031	0.71
229.25	17.82
229.469	-25.62
229.688	-92.28
229.907	-159.03
230.125	-167.13
230.344	-130.39
230.563	-100.59
230.782	-72.85
231.001	-15.61
231.22	-8.31
231.438	-19.81
231.657	-31.2
231.876	-28.14
232.095	-18.64
232.313	-22.53
232.532	-45.06
232.751	-2.85
232.969	20.89
233.188	20.84
233.407	11.37
233.625	41.13
233.844	23.06
234.063	4.52
234.281	-6.5
234.5	-2.15
234.719	-20.65
234.937	-5.8
235.156	-21.2
235.374	-27.79
235.593	-23.2
235.811	-19.09
236.03	-17.75
236.249	6.03
236.467	33.71
236.686	37.09
236.904	27.43
237.123	33.79
237.341	32.56
237.559	27.2
237.778	22.22
237.996	15.97
238.215	12.96
238.433	-5.86
238.652	-3.94
238.87	9.17
239.088	9.46
239.307	3.71
239.525	20.81
239.743	18.39
239.962	19
240.18	29.93
240.398	63.93
240.617	58.86
240.835	35.64
241.053	15.41
241.271	-21.99
241.49	-44.79
241.708	-24.09
241.926	-24.29
242.144	-32.22
242.363	-5.41
242.581	-8.07
242.799	-11.11
243.017	-4.33
243.235	34.11
243.453	34.06
243.672	46.09
243.89	44.28
244.108	47.65
244.326	14.57
244.544	22.32
244.762	16.63
244.98	8.41
245.198	12.9
245.416	36.65
245.634	22.55
245.852	1.53
246.07	1.01
246.288	-49.16
246.506	-41.93
246.724	-62.34
246.942	-63.75
247.16	-43.7
247.378	-45.7
247.596	-41.98
247.814	-38.07
248.032	-20.1
248.25	-27.77
248.468	-17.76
248.685	-22.78
248.903	-33.5
249.121	-27.39
249.339	3.99
249.557	14.41
249.775	13.49
249.992	39.05
250.21	37.78
250.428	18.72
250.646	-4.25
250.863	-0.26
251.081	-12.85
251.299	-39.48
251.517	-27.06
251.734	-24.16
251.952	-29.15
252.17	-28.26
252.387	-51.18
252.605	-90.78
252.823	-84.81
253.04	-87.58
253.258	-20.7
253.475	15.01
253.693	16.49
253.911	34.44
254.128	40.04
254.346	23.87
254.563	11.79
254.781	29.23
254.998	23.5
255.216	20.69
255.433	19.18
255.651	23.37
255.868	-36.19
256.086	-53.23
256.303	-35.01
256.521	-24.24
256.738	-41.4
256.956	19.68
257.173	12.05
257.39	-1.61
257.608	-10.58
257.825	-51.69
258.043	-150.74
258.26	-42.06
258.477	-19.58
258.695	-23.23
258.912	-9.45
259.129	26.4
259.346	30.37
259.564	43.1
259.781	60.61
259.998	67.96
260.216	43.89
260.433	6.79
260.65	-29.2
260.867	-39.88
261.084	-37.15
261.302	-43.77
261.519	-16.07
261.736	12.94
261.953	18.09
262.17	-6.97
262.387	16.61
262.604	13.95
262.822	13.89
263.039	1.17
263.256	19.31
263.473	11.55
263.69	19.97
263.907	5.52
264.124	8.52
264.341	10.12
264.558	-15.39
264.775	-5.24
264.992	-0.91
265.209	-10.2
265.426	-32.96
265.643	-21
265.86	-36.22
266.077	-25.69
266.294	-17.39
266.51	-21.73
266.727	10.97
266.944	20.76
267.161	18.8
267.378	14.36
267.595	13.9
267.812	1.27
268.028	-10.11
268.245	-8.72
268.462	5.89
268.679	19.58
268.896	11.47
269.112	20.38
269.329	-14.14
269.546	-45.46
269.763	-22.63
269.979	-19.79
270.196	-11.38
270.413	11.86
270.629	13.47
270.846	25.4
271.063	19.11
271.279	24.64
271.496	26.07
271.712	28.68
271.929	7.9
272.146	32.52
272.362	16.72
272.579	4.39
272.795	3.95
273.012	13.54
273.228	16.17
273.445	13.52
273.661	21.14
273.878	21.76
274.094	11.84
274.311	-6.07
274.527	-28.29
274.744	-31.6
274.96	-33.64
275.177	-60.12
275.393	-38.18
275.609	1.68
275.826	3.85
276.042	-6.4
276.259	6.8
276.475	-27.51
276.691	-25.68
276.908	-41.22
277.124	-35.2
277.34	-36.46
277.557	-18.98
277.773	-10.47
277.989	8.35
278.205	16.44
278.422	17.66
278.638	31.84
278.854	34.39
279.07	35.98
279.286	37.64
279.503	39.77
279.719	25.63
279.935	26.62
280.151	17.54
280.367	4.34
280.583	-22.93
280.799	-15.32
281.016	-15.82
281.232	-19.39
281.448	-22.31
281.664	-30.18
281.88	-7.29
282.096	-0.43
282.312	-6.54
282.528	2.76
282.744	22.24
282.96	27.61
283.176	25.7
283.392	27.02
283.608	27.72
283.824	17.29
284.04	18.96
284.256	17.99
284.471	23.11
284.687	19.86
284.903	29.83
285.119	4.92
285.335	-14.21
285.551	-11.72
285.767	2.38
285.982	5.54
286.198	18.97
286.414	26.49
286.63	9.67
286.846	-1.98
287.061	-23.33
287.277	-53.98
287.493	-35.24
287.709	-38.8
287.924	-17.18
288.14	-4.31
288.356	6.68
288.571	6.13
288.787	13.11
289.003	0.32
289.218	-19.5
289.434	-7.16
289.65	-17.06
289.865	-24.66
290.081	-71.65
290.296	-36.9
290.512	-44.65
290.727	-55.06
290.943	-16.27
291.159	17.47
291.374	11.29
291.59	28.29
291.805	21.46
292.021	17.31
292.236	15.29
292.451	8.76
292.667	3.68
292.882	-5.12
293.098	-23.48
293.313	-34.09
293.529	-20.03
293.744	-29.72
293.959	4.71
294.175	19.14
294.39	15.74
294.605	24.06
294.821	14.89
295.036	5.31
295.251	-12.21
295.467	-5.66
295.682	5.52
295.897	5.01
296.112	27.8
296.328	37.02
296.543	36.75
296.758	13.59
296.973	26.15
297.188	2.01
297.404	12.89
297.619	9.42
297.834	27.74
298.049	19.71
298.264	32.16
298.479	-0.05
298.694	2.05
298.909	-12.12
299.125	-4.75
299.34	-9.13
299.555	19.04
299.77	16.32
299.985	33.8
300.2	41.83
300.415	36.93
300.63	17.43
300.845	34.25
301.06	8.16
301.275	-28.56
301.49	0.57
301.704	-2.06
301.919	-0.36
302.134	14.73
302.349	21.58
302.564	32.7
302.779	35.17
302.994	18.5
303.209	18.36
303.423	16.58
303.638	3.93
303.853	13.39
304.068	26.59
304.283	37.51
304.497	43.34
304.712	65.58
304.927	61.6
305.142	65.16
305.356	35.46
305.571	21.68
305.786	-1.5
306	-3.6
306.215	-21.98
306.43	8.51
306.644	15.07
306.859	8.42
307.074	20.33
307.288	22.52
307.503	22.3
307.717	8.12
307.932	-1.91
308.147	-12.13
308.361	-21.56
308.576	-29.18
308.79	-6.76
309.005	19.67
309.219	5.32
309.434	-0.94
309.648	-4.5
309.863	-18.34
310.077	-26.74
310.292	-4.98
310.506	2.31
310.72	13.21
310.935	5.25
311.149	0.42
311.364	-29.25
311.578	-31.56
311.792	-38.97
312.007	-43.89
312.221	-46.47
312.435	-21.15
312.649	-0.05
312.864	-37.31
313.078	-13.96
313.292	-17.22
313.507	-8.9
313.721	-33.15
313.935	-19.29
314.149	-40.51
314.363	-21.06
314.578	-21.43
314.792	-9.54
315.006	-16.78
315.22	-8.47
315.434	-14.94
315.648	-64.67
315.862	-14.81
316.077	8.57
316.291	11.41
316.505	7.56
316.719	23.44
316.933	22.55
317.147	10.69
317.361	14.67
317.575	7.99
317.789	12.73
318.003	4.6
318.217	-5.26
318.431	9.21
318.645	6.89
318.859	4
319.073	-10.45
319.287	11.12
319.5	4.22
319.714	24.98
319.928	28.38
320.142	32.13
320.356	20.01
320.57	16.23
320.784	-2.34
320.997	-10.83
321.211	7.52
321.425	16.71
321.639	15.77
321.853	2.86
322.066	8.72
322.28	3.3
322.494	-17
322.707	-21.13
322.921	-12.46
323.135	-11.38
323.349	-7.83
323.562	13.52
323.776	28.01
323.989	31.77
324.203	37.54
324.417	25.58
324.63	23.69
324.844	17.28
325.057	16.71
325.271	0.12
325.485	10.51
325.698	-25.53
325.912	-31.58
326.125	-15.46
326.339	-2.22
326.552	-21.8
326.766	23.15
326.979	12.27
327.193	6.5
327.406	11.16
327.619	32.67
327.833	-10.18
328.046	-6
328.26	2.14
328.473	-0.78
328.686	-3.9
328.9	15.5
329.113	29.16
329.326	32.88
329.54	28.67
329.753	27.86
329.966	37.53
330.179	15.46
330.393	17.38
330.606	39.69
330.819	31.32
331.032	26.11
331.246	38.77
331.459	17.62
331.672	-5.04
331.885	-0.31
332.098	-26.36
332.311	-7.6
332.525	9.49
332.738	14.83
332.951	17.38
333.164	17.45
333.377	8.38
333.59	0.88
333.803	-15.2
334.016	-20.16
334.229	-12.43
334.442	-65.21
334.655	-63.6
334.868	-50.58
335.081	-53.5
335.294	-43.79
335.507	8.47
335.72	5.7
335.933	4.05
336.146	14.34
336.359	13.55
336.572	6.06
336.785	34.23
336.997	49.38
337.21	30.19
337.423	26.26
337.636	33.01
337.849	13.39
338.062	-11.02
338.274	-2.07
338.487	4.94
338.7	1.14
338.913	5.26
339.125	9.42
339.338	8.51
339.551	4.08
339.763	-1
339.976	3.74
340.189	6.24
340.402	-1.07
340.614	8.26
340.827	24.76
341.039	30.6
341.252	37.92
341.465	46.83
341.677	39.9
341.89	40.24
342.102	22.8
342.315	14.62
342.527	21.11
342.74	18.65
342.952	0.9
343.165	5.63
343.377	-39.47
343.59	-32.45
343.802	-39.44
344.015	-95.02
344.227	-89.95
344.44	-18.46
344.652	-8.65
344.864	-1.02
345.077	38.07
345.289	30.16
345.502	-4.07
345.714	-24.74
345.926	-4.32
346.139	-8
346.351	-15.59
346.563	-9.79
346.775	-1
346.988	-18.23
347.2	-5.47
347.412	8.34
347.624	9.82
347.837	5.2
348.049	11.41
348.261	-6.75
348.473	-19.99
348.685	-9.69
348.897	6.91
349.11	-17.64
349.322	-23.25
349.534	-26.22
349.746	-20.7
349.958	-31.6
350.17	-9.36
350.382	1.8
350.594	16.85
350.806	12.32
351.018	6.33
351.23	-2.89
351.442	-1.49
351.654	-26.2
351.866	-21.85
352.078	-26.24
352.29	-20.61
352.502	-6.79
352.714	3.11
352.926	2.18
353.138	5.32
353.35	15.7
353.561	19.5
353.773	23.82
353.985	26.37
354.197	29.57
354.409	33.4
354.621	36.11
354.832	40.9
355.044	46.53
355.256	37.39
355.468	18.45
355.679	18.95
355.891	15.88
356.103	11.35
356.314	12.82
356.526	16.85
356.738	24.38
356.949	23.35
357.161	9.63
357.373	19.81
357.584	33.27
357.796	29.65
358.008	33.06
358.219	40.59
358.431	35.61
358.642	35.86
358.854	2.39
359.065	15.38
359.277	25.8
359.488	32.15
359.7	29.15
359.911	37.2
360.123	24.56
360.334	22.99
360.546	17.12
360.757	11.65
360.969	13.15
361.18	15.35
361.391	22.79
361.603	23.16
361.814	10.67
362.025	16.28
362.237	18.51
362.448	9.31
362.659	4.81
362.871	11.97
363.082	-1.07
363.293	-13.31
363.504	-13.87
363.716	2.02
363.927	6
364.138	11.15
364.349	26.1
364.56	22.81
364.772	26.6
364.983	29.15
365.194	33.41
365.405	26
365.616	21.28
365.827	21.95
366.038	20.96
366.25	19.05
366.461	16.11
366.672	14.99
366.883	-2.47
367.094	-4.84
367.305	12.33
367.516	-2.72
367.727	5.58
367.938	11.27
368.149	7.3
368.36	-6.7
368.571	14.02
368.781	11.66
368.992	13.99
369.203	25.62
369.414	25.59
369.625	16.67
369.836	19.46
370.047	24.67
370.258	22.82
370.468	21.54
370.679	34.27
370.89	46.06
371.101	40.74
371.312	38.94
371.522	38.54
371.733	38.88
371.944	28.16
372.155	29.73
372.365	12.8
372.576	25.38
372.787	9.84
372.997	17.7
373.208	8.57
373.419	11.17
373.629	5.37
373.84	21.62
374.05	-1.39
374.261	-1.45
374.472	17.2
374.682	-5.11
374.893	-14.8
375.103	-18.24
375.314	0.95
375.524	-3.13
375.735	15.37
375.945	22.17
376.156	39.42
376.366	22.71
376.577	13.33
376.787	17.93
376.997	14.16
377.208	5.48
377.418	13.37
377.629	10.01
377.839	13.07
378.049	12.77
378.26	11.67
378.47	2.59
378.68	9.95
378.89	5.69
379.101	7.96
379.311	8.11
379.521	19.69
379.732	18.97
379.942	19.85
380.152	16.95
380.362	16.88
380.572	15.04
380.783	11.98
380.993	8.44
381.203	10.26
381.413	-1.69
381.623	-3.98
381.833	-6.28
382.043	4.44
382.253	-0.35
382.463	16.6
382.674	8.31
382.884	8.67
383.094	-0.78
383.304	3.98
383.514	-1.3
383.724	-4.48
383.934	3.65
384.144	-0.47
384.353	-6.23
384.563	-12.05
384.773	-8.92
384.983	-16.18
385.193	-9.9
385.403	-0.73
385.613	1.64
385.823	7.65
386.033	10.25
386.242	13.71
386.452	10.12
386.662	12.95
386.872	9.29
387.082	3.48
387.291	-0.49
387.501	-3.57
387.711	-6.51
387.921	1.83
388.13	7.12
388.34	4.39
388.55	8.97
388.759	10.82
388.969	8.85
389.179	7.64
389.388	7.55
389.598	6.09
389.807	4.41
390.017	3.06
390.227	3.17
390.436	3.46
390.646	3.09
390.855	1.98
391.065	1.72
391.274	2.15
391.484	4.73
391.693	4.07
391.903	4.89
392.112	7.06
392.322	5.89
392.531	4.53
392.74	4.14
392.95	5.78
393.159	3.1
393.369	3.43
393.578	2.64
393.787	2.9
393.997	1.35
394.206	2.26
394.415	1.96
394.625	2.23
394.834	3.08
395.043	4.3
395.252	4.32
395.462	4.54
395.671	3.93
395.88	3.52
396.089	2.8
396.298	3.27
396.508	3.28
396.717	3.84
396.926	3.67
397.135	2.58
397.344	2.02
397.553	1.51
397.762	1.11
397.971	1.02
398.181	1.97
398.39	2.09
398.599	2.35
398.808	2.67
399.017	2.55
399.226	2.03
399.435	2.05
399.644	2.1
399.853	2.12
400.062	2.33
400.27	2.68
400.479	2.6
400.688	2.73
400.897	2.87
401.106	2.85
401.315	2.99
401.524	3.15
401.733	2.9
401.941	2.61
402.15	2.67
402.359	2.66
402.568	2.42
402.777	2.4
402.985	2.59
403.194	2.43
403.403	2.19
403.612	2.16
403.82	2.35
404.029	2.33
404.238	2.44
404.446	2.41
404.655	2.43
404.864	2.3
405.072	2.43
405.281	2.25
405.489	2.28
405.698	2.42
405.906	2.45
406.115	2.34
406.324	2.5
406.532	2.49
406.741	2.38
406.949	2.33
407.158	2.39
407.366	2.37
407.574	2.32
407.783	2.38
407.991	2.42
408.2	2.2
408.408	2.08
408.617	2.27
408.825	2.18
409.033	2.16
409.242	2.21
409.45	2.15
409.658	2.13
409.867	2.15
410.075	2.2
410.283	2.22
410.491	2.25
410.7	2.18
410.908	2.04
411.116	1.87
411.324	1.93
411.533	1.89
411.741	1.83
411.949	1.82
412.157	1.97
412.365	1.91
412.573	2.04
412.781	2.07
412.99	2.29
413.198	2.16
413.406	2.21
413.614	2.07
413.822	2.05
414.03	2.07
414.238	2.21
414.446	2.22
414.654	2.39
414.862	2.51
415.07	2.29
415.278	2.14
415.486	1.99
415.694	2.03
415.902	1.84
416.109	1.95
416.317	2.1
416.525	2.16
416.733	2
416.941	2.08
417.149	1.94
417.357	1.76
417.564	1.71
417.772	1.73
417.98	1.77
418.188	2
418.395	2.08
418.603	2.21
418.811	2.31
419.019	2.14
419.226	2.1
419.434	1.93
419.642	1.81
419.849	1.86
420.057	1.95
420.265	1.82
420.472	1.93
420.68	1.92
420.887	1.88
421.095	1.69
421.302	1.78
421.51	1.65
421.717	1.68
421.925	1.45
422.132	1.6
422.34	1.58
422.547	1.75
422.755	1.65
422.962	1.93
423.17	1.95
423.377	2.02
423.585	1.95
423.792	1.93
423.999	1.64
424.207	1.68
424.414	1.55
424.621	1.54
424.829	1.74
425.036	1.92
425.243	1.79
425.451	1.75
425.658	1.91
425.865	1.78
426.072	1.7
426.28	1.68
426.487	1.78
426.694	1.61
426.901	1.64
427.108	1.73
427.315	2.07
427.523	1.97
427.73	1.95
427.937	2.11
428.144	2.14
428.351	1.91
428.558	1.85
428.765	1.97
428.972	1.92
429.179	1.8
429.386	1.81
429.593	2.01
429.8	2.14
430.007	2.08
430.214	2.2
430.421	2.2
430.628	2.08
430.835	2.04
431.042	1.95
431.249	1.91
431.456	1.97
431.662	2.03
431.869	1.93
432.076	1.92
432.283	1.9
432.49	1.92
432.697	1.99
432.903	2.15
433.11	2.15
433.317	2.12
433.524	1.99
433.73	2.02
433.937	1.79
434.144	1.95
434.35	2.06
434.557	2.24
434.764	2.24
434.97	2.39
435.177	2.28
435.384	2.28
435.59	2.26
435.797	2.26
436.003	2.15
436.21	2.28
436.416	2.31
436.623	2.29
436.829	2.2
437.036	2.23
437.242	2.24
437.449	2.15
437.655	2.2
437.862	2.25
438.068	2.27
438.275	2.14
438.481	2.13
438.687	2.17
438.894	2.27
439.1	2.36
439.307	2.32
439.513	2.41
439.719	2.32
439.926	2.26
440.132	2.35
440.338	2.49
440.544	2.46
440.751	2.52
440.957	2.47
441.163	2.38
441.369	2.46
441.575	2.6
441.782	2.57
441.988	2.73
442.194	2.77
442.4	2.73
442.606	2.59
442.812	2.62
443.018	2.45
443.224	2.46
443.431	2.45
443.637	2.55
443.843	2.54
444.049	2.53
444.255	2.66
444.461	2.71
444.667	2.72
444.873	2.59
445.079	2.63
445.284	2.54
445.49	2.54
445.696	2.49
445.902	2.55
446.108	2.65
446.314	2.65
446.52	2.73
446.726	2.83
446.931	2.94
447.137	2.92
447.343	2.94
447.549	2.89
447.755	2.89
447.96	2.9
448.166	2.93
448.372	2.83
448.578	2.87
448.783	2.91
448.989	2.87
449.195	2.8
449.4	2.87
449.606	2.81
449.812	2.75
450.017	2.8
450.223	2.85
450.428	2.94
450.634	2.99
450.84	2.96
451.045	2.95
451.251	3.02
451.456	2.97
451.662	2.81
451.867	2.88
452.073	2.93
452.278	2.86
452.483	2.8
452.689	2.85
452.894	2.84
453.1	2.82
453.305	2.88
453.51	3
453.716	3.13
453.921	3.24
454.127	3.26
454.332	3.21
454.537	3.22
454.742	3.18
454.948	3.08
455.153	3.05
455.358	3.02
455.563	2.87
455.769	2.95
455.974	2.96
456.179	3.06
456.384	3.04
456.589	3.18
456.795	3.13
457	3.19
457.205	3.12
457.41	3.23
457.615	3.22
457.82	3.16
458.025	3.04
458.23	3.07
458.435	3.04
458.64	3.01
458.845	3.16
459.05	3.25
459.255	3.22
459.46	3.17
459.665	3.16
459.87	3.07
460.075	3.04
460.28	3.14
460.485	3.16
460.69	3.16
460.895	3.23
461.099	3.3
461.304	3.18
461.509	3.19
461.714	3.32
461.919	3.29
462.123	3.24
462.328	3.33
462.533	3.42
462.738	3.39
462.942	3.41
463.147	3.44
463.352	3.4
463.556	3.47
463.761	3.38
463.966	3.34
464.17	3.38
464.375	3.39
464.58	3.36
464.784	3.38
464.989	3.43
465.193	3.35
465.398	3.4
465.602	3.32
465.807	3.49
466.011	3.52
466.216	3.6
466.42	3.62
