Data from Ofav_PP_Phys_2JQ6_Reflection_1.txt Node
Date: Tue Aug 03 18:13:34 EDT 2021
User: Adam
Spectrometer: FLMT01687
Trigger mode: 0
Integration Time (sec): 8.750000E-1
Scans to average: 2
Electric dark correction enabled: true
Nonlinearity correction enabled: false
Boxcar width: 2
XAxis mode: Wavelengths
Number of Pixels in Spectrum: 3648
>>>>>Begin Spectral Data<<<<<
179.494	283.18
179.716	283.04
179.937	384.85
180.158	554.07
180.38	1503.51
180.601	30.21
180.823	30.24
181.044	-1.83
181.265	-4.99
181.486	30.35
181.708	26.24
181.929	-83.96
182.15	-20.78
182.372	53.59
182.593	100.84
182.814	138.1
183.035	68.79
183.257	-633.33
183.478	232.89
183.699	100.8
183.92	84.41
184.141	30.83
184.363	47.03
184.584	-43.71
184.805	47.41
185.026	-4.71
185.247	-18.3
185.468	-11.05
185.689	-44.54
185.91	-92.41
186.132	-52.32
186.353	22.08
186.574	7.17
186.795	31.75
187.016	29.51
187.237	31.2
187.458	12.32
187.679	11.26
187.9	26.84
188.121	32.99
188.342	22.32
188.563	11.35
188.784	9.82
189.005	-8.46
189.226	-34.94
189.447	6.35
189.667	2.06
189.888	13.05
190.109	38.23
190.33	77.99
190.551	39.08
190.772	72.92
190.993	52.16
191.214	62.59
191.434	25.64
191.655	4.8
191.876	-4.17
192.097	12.38
192.318	8.9
192.538	23.8
192.759	34.78
192.98	20.65
193.201	-1.76
193.421	1.47
193.642	1.93
193.863	-12.28
194.083	30.79
194.304	39.51
194.525	25.93
194.745	27.93
194.966	77.7
195.187	74.51
195.407	55.05
195.628	50.43
195.848	29.73
196.069	13.74
196.29	-4.47
196.51	24.7
196.731	46.96
196.951	58.41
197.172	76.96
197.392	121.56
197.613	118.31
197.833	98.72
198.054	121.52
198.274	83.36
198.495	47.39
198.715	29.25
198.936	52.57
199.156	40.01
199.377	44.76
199.597	55.75
199.817	84.99
200.038	50.02
200.258	36.43
200.479	-5.23
200.699	-49.48
200.919	-108.83
201.14	-13.69
201.36	6.62
201.58	29.74
201.801	28.79
202.021	39.14
202.241	33.25
202.461	23.41
202.682	29.89
202.902	7.88
203.122	13.74
203.342	7.24
203.563	-10.2
203.783	1.69
204.003	33.68
204.223	42.73
204.443	22.03
204.663	32.55
204.884	37.44
205.104	3.81
205.324	-7.62
205.544	-0.97
205.764	5.69
205.984	-44.97
206.204	24.08
206.424	-34.81
206.644	20.89
206.864	-4.09
207.084	2.07
207.304	-42.09
207.525	-4.69
207.745	-4.14
207.964	-16.48
208.184	20.69
208.404	42.23
208.624	34.61
208.844	33.57
209.064	49.11
209.284	31.43
209.504	23.01
209.724	18.04
209.944	3.4
210.164	-20.65
210.384	7.98
210.604	5.96
210.823	12.23
211.043	57.3
211.263	47.84
211.483	40.25
211.703	63.17
211.922	49.46
212.142	20.3
212.362	17.83
212.582	37.53
212.801	-7.36
213.021	7.04
213.241	19.72
213.461	40.41
213.68	28.1
213.9	45.52
214.12	46.68
214.339	48.5
214.559	51.8
214.779	32.21
214.998	35.18
215.218	60.45
215.438	45.02
215.657	48.16
215.877	60.14
216.096	52.12
216.316	34.85
216.535	52.83
216.755	29.7
216.974	27.24
217.194	71.89
217.413	64.16
217.633	58.17
217.852	72.41
218.072	75.14
218.291	49.25
218.511	43.93
218.73	69.11
218.95	55.77
219.169	64.97
219.389	74.58
219.608	73.56
219.827	42.69
220.047	40.72
220.266	50.7
220.485	44.93
220.705	39.05
220.924	44.75
221.143	44.2
221.363	34.25
221.582	27.77
221.801	53.74
222.021	56.15
222.24	78.99
222.459	41.23
222.678	54.86
222.897	61.42
223.117	2.51
223.336	-175.78
223.555	13.97
223.774	-1.58
223.993	-37.2
224.213	-1.26
224.432	38.64
224.651	41.48
224.87	42.96
225.089	58.58
225.308	51.7
225.527	26.4
225.746	-2.71
225.965	29.51
226.184	7.35
226.404	29.18
226.623	51.37
226.842	56.76
227.061	7.56
227.28	18.03
227.499	31.18
227.718	12.84
227.936	6.42
228.155	25.58
228.374	38.77
228.593	29.85
228.812	6.39
229.031	24.41
229.25	42.87
229.469	-1.21
229.688	-24.89
229.907	-52.44
230.125	-33.13
230.344	-50.62
230.563	-23.41
230.782	-13.15
231.001	31.49
231.22	3.9
231.438	7.87
231.657	-16.57
231.876	-14.94
232.095	-8.61
232.313	1.45
232.532	-25.56
232.751	30.88
232.969	47.83
233.188	56.21
233.407	45.73
233.625	76.09
233.844	80.35
234.063	72.09
234.281	61.48
234.5	55.14
234.719	45.38
234.937	16.6
235.156	7.39
235.374	6.03
235.593	21.92
235.811	22.42
236.03	30.42
236.249	36.88
236.467	46.04
236.686	39.79
236.904	49.73
237.123	51.14
237.341	60.76
237.559	72.66
237.778	61.65
237.996	39.05
238.215	38.96
238.433	26.65
238.652	9.36
238.87	30.68
239.088	21.92
239.307	12
239.525	17.43
239.743	30.21
239.962	29.41
240.18	69.57
240.398	97.68
240.617	105.42
240.835	81.4
241.053	63.04
241.271	35.13
241.49	6.38
241.708	38.28
241.926	23.1
242.144	40.4
242.363	56.25
242.581	52.58
242.799	22.27
243.017	37.27
243.235	50.38
243.453	41.34
243.672	60.28
243.89	86.16
244.108	78.49
244.326	52.35
244.544	48.3
244.762	50.42
244.98	23.58
245.198	34.87
245.416	61.33
245.634	44.74
245.852	31.15
246.07	35.11
246.288	2.48
246.506	11.42
246.724	2
246.942	-1.49
247.16	4.11
247.378	10.41
247.596	3.25
247.814	15.29
248.032	16.39
248.25	18.91
248.468	10.71
248.685	11.07
248.903	-24.06
249.121	-27.62
249.339	-14.21
249.557	4.79
249.775	5.24
249.992	43.78
250.21	42.13
250.428	18.53
250.646	-0.04
250.863	6.35
251.081	-8.9
251.299	-13.36
251.517	12.61
251.734	30.77
251.952	21.14
252.17	21.24
252.387	18.4
252.605	15.43
252.823	-47.36
253.04	-21.17
253.258	24.82
253.475	44.23
253.693	48.29
253.911	76.68
254.128	67.65
254.346	63.61
254.563	52.44
254.781	64.76
254.998	70.02
255.216	60.59
255.433	46.98
255.651	51.36
255.868	10.28
256.086	-14.2
256.303	-2.07
256.521	13.93
256.738	2.78
256.956	35.22
257.173	31.21
257.39	45.47
257.608	42.77
257.825	35.24
258.043	3.99
258.26	21.69
258.477	0.86
258.695	-0.73
258.912	0.18
259.129	15.54
259.346	13.44
259.564	19.79
259.781	15.4
259.998	25.8
260.216	21.36
260.433	19.86
260.65	9.75
260.867	9.87
261.084	12.92
261.302	14.26
261.519	18.68
261.736	46.92
261.953	55.79
262.17	39.23
262.387	33.46
262.604	26.34
262.822	28.75
263.039	19.29
263.256	35.66
263.473	37.15
263.69	46.18
263.907	30.03
264.124	18.83
264.341	10.63
264.558	14.92
264.775	18.59
264.992	11.78
265.209	8.83
265.426	-9.84
265.643	-5.92
265.86	-15.48
266.077	-1.58
266.294	7.02
266.51	12.94
266.727	30.78
266.944	31.44
267.161	34.45
267.378	30.93
267.595	31.01
267.812	27.75
268.028	24.83
268.245	27.6
268.462	35.95
268.679	42.33
268.896	40.19
269.112	59.62
269.329	37.57
269.546	6.36
269.763	7.66
269.979	-3.05
270.196	8.23
270.413	19.64
270.629	25.66
270.846	41.92
271.063	39.36
271.279	38.71
271.496	38.85
271.712	35.92
271.929	-5.85
272.146	21.88
272.362	7.16
272.579	-1.9
272.795	-3.3
273.012	17.68
273.228	15.49
273.445	30.32
273.661	36.18
273.878	54.56
274.094	57.71
274.311	55.56
274.527	17.88
274.744	40.88
274.96	24.49
275.177	-23.6
275.393	-4.78
275.609	7.78
275.826	-25.44
276.042	-11.2
276.259	13.29
276.475	-0.46
276.691	15.1
276.908	39.12
277.124	29.21
277.34	27.59
277.557	27.92
277.773	20.02
277.989	11.01
278.205	20.16
278.422	11.53
278.638	10.51
278.854	-0.98
279.07	16.91
279.286	23.81
279.503	33.01
279.719	37.87
279.935	49.57
280.151	45.82
280.367	25.6
280.583	14.68
280.799	25.86
281.016	20.54
281.232	18.79
281.448	14.3
281.664	0.71
281.88	13.97
282.096	22
282.312	-3.8
282.528	-3.04
282.744	11.75
282.96	1.4
283.176	2.49
283.392	15.67
283.608	21.25
283.824	28.62
284.04	29.78
284.256	23.25
284.471	28.25
284.687	30.99
284.903	22.6
285.119	9.74
285.335	16.86
285.551	23.32
285.767	30.22
285.982	29.81
286.198	38.86
286.414	35.8
286.63	12.52
286.846	-8.27
287.061	10.97
287.277	-2.25
287.493	-8.73
287.709	-15.26
287.924	37.25
288.14	4.23
288.356	-28.37
288.571	-33.15
288.787	-19.27
289.003	-43.39
289.218	-62.77
289.434	8.42
289.65	20.85
289.865	26.26
290.081	-10.79
290.296	11.37
290.512	16.16
290.727	14.11
290.943	36.08
291.159	52.99
291.374	47.4
291.59	44
291.805	53.38
292.021	52.73
292.236	42.41
292.451	32.97
292.667	37.21
292.882	26.26
293.098	13.44
293.313	35.22
293.529	62.99
293.744	46.94
293.959	60.54
294.175	51.52
294.39	47.76
294.605	53.29
294.821	45.89
295.036	44.15
295.251	55.34
295.467	52.92
295.682	37.82
295.897	33.52
296.112	20.35
296.328	17.68
296.543	20.98
296.758	17.36
296.973	20.29
297.188	22.1
297.404	39.15
297.619	50.93
297.834	47.5
298.049	42.75
298.264	61.22
298.479	31.86
298.694	6.6
298.909	2.9
299.125	16.96
299.34	-12.64
299.555	0.14
299.77	-16.61
299.985	15.05
300.2	20.12
300.415	22.49
300.63	19.36
300.845	45.5
301.06	26.08
301.275	3.25
301.49	16.02
301.704	23.39
301.919	33.12
302.134	38.31
302.349	48.57
302.564	62.52
302.779	68.29
302.994	57.27
303.209	47.5
303.423	35.69
303.638	11.72
303.853	1.22
304.068	13.04
304.283	34.57
304.497	45.41
304.712	55.21
304.927	58.06
305.142	52.68
305.356	42.11
305.571	41.18
305.786	47.83
306	47.08
306.215	22.1
306.43	26.72
306.644	20.65
306.859	7.49
307.074	2.36
307.288	35.64
307.503	40.35
307.717	38.88
307.932	32.76
308.147	33.84
308.361	10.45
308.576	6.09
308.79	18.51
309.005	34.57
309.219	34.17
309.434	36.9
309.648	39.34
309.863	22.71
310.077	0.52
310.292	12.12
310.506	26.06
310.72	25.4
310.935	29.18
311.149	34.75
311.364	14.47
311.578	-0.04
311.792	11.85
312.007	-16.51
312.221	-19.41
312.435	-6.63
312.649	23.46
312.864	-3.63
313.078	12.52
313.292	0.95
313.507	13.21
313.721	-6.3
313.935	-13.5
314.149	-27.24
314.363	-0.77
314.578	-20.32
314.792	-11.84
315.006	-8.72
315.22	-5.13
315.434	-25.69
315.648	-35.9
315.862	-3.89
316.077	13.95
316.291	16.12
316.505	22.14
316.719	16.12
316.933	19.99
317.147	-0.03
317.361	-5.92
317.575	17.09
317.789	26.33
318.003	13.71
318.217	26.79
318.431	53.01
318.645	15.61
318.859	14.62
319.073	7.1
319.287	-0.57
319.5	3.32
319.714	37.04
319.928	43.6
320.142	38.78
320.356	35.11
320.57	19.43
320.784	10.23
320.997	-3.62
321.211	20.29
321.425	42.17
321.639	46.93
321.853	23.05
322.066	32.58
322.28	42.06
322.494	40.01
322.707	3.43
322.921	36.16
323.135	34.74
323.349	28.42
323.562	32.99
323.776	64.7
323.989	54.92
324.203	62.1
324.417	44.08
324.63	39.98
324.844	26.83
325.057	29.36
325.271	0.6
325.485	19.08
325.698	-6.9
325.912	-4.85
326.125	2.68
326.339	24.18
326.552	2.45
326.766	30.46
326.979	16.65
327.193	17.3
327.406	22.39
327.619	41.04
327.833	4.01
328.046	33.61
328.26	31.14
328.473	21.46
328.686	20.73
328.9	35.47
329.113	26.39
329.326	32.49
329.54	26.28
329.753	37.92
329.966	50.77
330.179	42.06
330.393	42.84
330.606	53.9
330.819	37.79
331.032	17.28
331.246	15.97
331.459	-8.49
331.672	-16.23
331.885	-21.58
332.098	-20.78
332.311	10.1
332.525	31.59
332.738	30.69
332.951	32.73
333.164	28.25
333.377	32.12
333.59	4.25
333.803	8.45
334.016	8.52
334.229	17.6
334.442	-19.33
334.655	12.15
334.868	-11.73
335.081	-18.71
335.294	-18.92
335.507	12.97
335.72	14.82
335.933	26.92
336.146	25.43
336.359	32.24
336.572	32.48
336.785	35.89
336.997	52.57
337.21	64.2
337.423	69.21
337.636	86.65
337.849	91.8
338.062	76.03
338.274	62.59
338.487	65.37
338.7	46.96
338.913	50.42
339.125	51.1
339.338	47.14
339.551	34.57
339.763	23.35
339.976	15.52
340.189	7.47
340.402	1.31
340.614	6.58
340.827	23.75
341.039	29.11
341.252	29.44
341.465	42.45
341.677	27.01
341.89	39.94
342.102	31.68
342.315	26.06
342.527	31.06
342.74	37.8
342.952	17.46
343.165	8.39
343.377	-10.57
343.59	-18.22
343.802	-18.71
344.015	-43.58
344.227	-30.27
344.44	4.38
344.652	18.39
344.864	-7.47
345.077	17.91
345.289	11.02
345.502	-6.32
345.714	-12.97
345.926	20.61
346.139	7.13
346.351	-13.13
346.563	2.51
346.775	6.48
346.988	-11.22
347.2	6.04
347.412	27.41
347.624	25.17
347.837	17.33
348.049	24.77
348.261	10.69
348.473	-6.82
348.685	-10.06
348.897	8.54
349.11	-1.86
349.322	-0.03
349.534	1.46
349.746	7.93
349.958	14.99
350.17	20.68
350.382	18.25
350.594	24.75
350.806	16.86
351.018	5.28
351.23	10.19
351.442	9.53
351.654	1.54
351.866	17.49
352.078	8.6
352.29	13.63
352.502	17.65
352.714	14.14
352.926	-1.06
353.138	-2.7
353.35	-0.16
353.561	21.58
353.773	24.69
353.985	34.49
354.197	38.49
354.409	41.56
354.621	25.85
354.832	36.39
355.044	44.33
355.256	51.66
355.468	41
355.679	45.94
355.891	41.67
356.103	46.83
356.314	33.85
356.526	41.13
356.738	41.59
356.949	39.03
357.161	12.52
357.373	21.28
357.584	19.16
357.796	16.94
358.008	4.94
358.219	2.43
358.431	7.81
358.642	14.11
358.854	-9.83
359.065	15.07
359.277	38.23
359.488	33.33
359.7	28.39
359.911	36.03
360.123	42.32
360.334	33.61
360.546	48.06
360.757	54.86
360.969	43.7
361.18	22.98
361.391	30.54
361.603	21.12
361.814	9.11
362.025	21.47
362.237	32.17
362.448	29.81
362.659	25.57
362.871	36.32
363.082	21.49
363.293	9.23
363.504	6.3
363.716	22.43
363.927	16.66
364.138	30.34
364.349	41.62
364.56	47.07
364.772	57.56
364.983	53.11
365.194	54.69
365.405	41.44
365.616	25.17
365.827	17.68
366.038	22.14
366.25	8.35
366.461	17.94
366.672	22.81
366.883	16.36
367.094	26.19
367.305	38.59
367.516	28.99
367.727	35.94
367.938	37.74
368.149	32.21
368.36	22.41
368.571	17.24
368.781	14.29
368.992	3.39
369.203	7.11
369.414	14.37
369.625	27.31
369.836	25.23
370.047	27.19
370.258	22.23
370.468	30.09
370.679	35.64
370.89	37.64
371.101	39.78
371.312	46.48
371.522	48.78
371.733	49.02
371.944	49.63
372.155	44.87
372.365	39.93
372.576	34.66
372.787	32.11
372.997	34.59
373.208	39.13
373.419	23.64
373.629	26.05
373.84	22.53
374.05	13.54
374.261	-2.46
374.472	19.14
374.682	14.61
374.893	16.38
375.103	8.76
375.314	37.01
375.524	26.34
375.735	17.04
375.945	16.43
376.156	27.97
376.366	11.46
376.577	16.17
376.787	20.18
376.997	17.57
377.208	17.05
377.418	21.42
377.629	14.75
377.839	10
378.049	5.73
378.26	-6.97
378.47	-8.59
378.68	-3.58
378.89	11.2
379.101	17.04
379.311	29.06
379.521	36.3
379.732	43.37
379.942	37.73
380.152	42.88
380.362	38.51
380.572	39.25
380.783	33.93
380.993	29.48
381.203	21.97
381.413	17.33
381.623	20.03
381.833	25.72
382.043	34.4
382.253	32.81
382.463	32.99
382.674	25.88
382.884	23.98
383.094	10.49
383.304	19.74
383.514	16.95
383.724	12.21
383.934	10.79
384.144	14.67
384.353	8.34
384.563	6.49
384.773	13.34
384.983	7.93
385.193	5.79
385.403	7.96
385.613	12.06
385.823	12.12
386.033	11.58
386.242	17.78
386.452	19.78
386.662	22.35
386.872	20.1
387.082	21.64
387.291	17.19
387.501	14.17
387.711	10.62
387.921	12.18
388.13	13.71
388.34	11.6
388.55	15.66
388.759	16.16
388.969	11.87
389.179	9.12
389.388	7.86
389.598	5.79
389.807	4.49
390.017	8.43
390.227	9.49
390.436	11.74
390.646	7.8
390.855	6.79
391.065	4.45
391.274	5.33
391.484	5.97
391.693	7.65
391.903	9.01
392.112	11.03
392.322	9.19
392.531	6.98
392.74	7.21
392.95	8.27
393.159	6.54
393.369	6.51
393.578	7.37
393.787	7.88
393.997	6.7
394.206	6.74
394.415	6.79
394.625	6.53
394.834	6.26
395.043	6.3
395.252	6.59
395.462	6.6
395.671	5.45
395.88	5.17
396.089	4.95
396.298	5.16
396.508	5.02
396.717	6.27
396.926	6.03
397.135	5.39
397.344	5.45
397.553	4.92
397.762	4.41
397.971	4.25
398.181	4.35
398.39	4.3
398.599	4.54
398.808	4.68
399.017	4.31
399.226	4.13
399.435	3.53
399.644	3.53
399.853	3.16
400.062	3.58
400.27	4.06
400.479	4.5
400.688	4.63
400.897	5.07
401.106	5.11
401.315	5.11
401.524	5.29
401.733	4.84
401.941	4.37
402.15	4.33
402.359	4.24
402.568	3.6
402.777	3.6
402.985	3.93
403.194	3.92
403.403	3.84
403.612	4.01
403.82	4.18
404.029	4.08
404.238	4.21
404.446	4.13
404.655	3.99
404.864	3.94
405.072	4.04
405.281	3.85
405.489	4.02
405.698	4.24
405.906	4.5
406.115	4.38
406.324	4.47
406.532	4.34
406.741	4.17
406.949	3.89
407.158	3.94
407.366	3.81
407.574	3.74
407.783	3.84
407.991	3.92
408.2	3.64
408.408	3.61
408.617	3.72
408.825	3.75
409.033	3.74
409.242	3.9
409.45	3.83
409.658	3.82
409.867	3.78
410.075	3.76
410.283	3.82
410.491	4
410.7	3.98
410.908	3.88
411.116	3.73
411.324	3.68
411.533	3.49
411.741	3.38
411.949	3.22
412.157	3.3
412.365	3.31
412.573	3.48
412.781	3.44
412.99	3.74
413.198	3.7
413.406	3.66
413.614	3.51
413.822	3.59
414.03	3.46
414.238	3.56
414.446	3.5
414.654	3.66
414.862	3.57
415.07	3.52
415.278	3.4
415.486	3.46
415.694	3.49
415.902	3.58
416.109	3.57
416.317	3.63
416.525	3.55
416.733	3.37
416.941	3.31
417.149	3.33
417.357	3.24
417.564	3.21
417.772	3.14
417.98	3.23
418.188	3.3
418.395	3.38
418.603	3.42
418.811	3.61
419.019	3.51
419.226	3.34
419.434	3.16
419.642	3.16
419.849	3
420.057	2.95
420.265	2.98
420.472	3.21
420.68	3.14
420.887	3.34
421.095	3.19
421.302	3.26
421.51	3.06
421.717	3.17
421.925	2.9
422.132	3.03
422.34	3.13
422.547	3.17
422.755	3.09
422.962	3.24
423.17	3.33
423.377	3.35
423.585	3.38
423.792	3.37
423.999	3.21
424.207	3.18
424.414	2.88
424.621	2.64
424.829	2.65
425.036	2.88
425.243	2.89
425.451	2.98
425.658	3.25
425.865	3.33
426.072	3.09
426.28	2.97
426.487	2.99
426.694	2.9
426.901	2.84
427.108	3.06
427.315	3.26
427.523	3.19
427.73	3.26
427.937	3.4
428.144	3.34
428.351	3.13
428.558	3.15
428.765	3.14
428.972	3.01
429.179	2.81
429.386	2.89
429.593	3.09
429.8	3.28
430.007	3.34
430.214	3.46
430.421	3.56
430.628	3.35
430.835	3.34
431.042	3.27
431.249	3.23
431.456	3.22
431.662	3.37
431.869	3.34
432.076	3.41
432.283	3.4
432.49	3.34
432.697	3.41
432.903	3.45
433.11	3.41
433.317	3.44
433.524	3.41
433.73	3.52
433.937	3.17
434.144	3.19
434.35	3.17
434.557	3.37
434.764	3.37
434.97	3.85
435.177	3.93
435.384	4.01
435.59	4.03
435.797	3.84
436.003	3.52
436.21	3.46
436.416	3.46
436.623	3.31
436.829	3.21
437.036	3.25
437.242	3.35
437.449	3.17
437.655	3.25
437.862	3.39
438.068	3.47
438.275	3.44
438.481	3.61
438.687	3.71
438.894	3.87
439.1	3.92
439.307	3.8
439.513	3.82
439.719	3.78
439.926	3.66
440.132	3.76
440.338	3.88
440.544	3.79
440.751	3.82
440.957	3.79
441.163	3.7
441.369	3.71
441.575	3.94
441.782	3.98
441.988	4.2
442.194	4.23
442.4	4.3
442.606	4.18
442.812	4.26
443.018	4.05
443.224	3.98
443.431	3.85
443.637	3.99
443.843	3.96
444.049	4.03
444.255	4.3
444.461	4.46
444.667	4.45
444.873	4.33
445.079	4.42
445.284	4.23
445.49	4.24
445.696	4.27
445.902	4.33
446.108	4.36
446.314	4.39
446.52	4.46
446.726	4.52
446.931	4.53
447.137	4.55
447.343	4.59
447.549	4.61
447.755	4.51
447.96	4.55
448.166	4.52
448.372	4.44
448.578	4.35
448.783	4.41
448.989	4.46
449.195	4.48
449.4	4.59
449.606	4.68
449.812	4.7
450.017	4.6
450.223	4.59
450.428	4.68
450.634	4.65
450.84	4.66
451.045	4.81
451.251	4.91
451.456	4.84
451.662	4.68
451.867	4.56
452.073	4.54
452.278	4.44
452.483	4.33
452.689	4.47
452.894	4.6
453.1	4.52
453.305	4.62
453.51	4.78
453.716	4.85
453.921	4.88
454.127	4.89
454.332	4.9
454.537	4.78
454.742	4.71
454.948	4.67
455.153	4.77
455.358	4.69
455.563	4.59
455.769	4.61
455.974	4.55
456.179	4.44
456.384	4.44
456.589	4.69
456.795	4.7
457	4.8
457.205	4.84
457.41	4.9
457.615	4.84
457.82	4.81
458.025	4.76
458.23	4.8
458.435	4.68
458.64	4.72
458.845	4.73
459.05	4.68
459.255	4.71
459.46	4.82
459.665	4.79
459.87	4.88
460.075	4.95
460.28	5.01
460.485	4.97
460.69	4.96
460.895	4.97
461.099	4.91
461.304	4.81
461.509	4.86
461.714	4.94
461.919	4.91
462.123	5.02
462.328	5.08
462.533	5.13
462.738	5.12
462.942	5.11
463.147	5.15
463.352	4.97
463.556	5.04
463.761	4.99
463.966	4.95
464.17	4.91
464.375	5.16
464.58	5.14
464.784	5.18
464.989	5.33
465.193	5.35
465.398	5.36
465.602	5.26
465.807	5.32
466.011	5.22
466.216	5.22
466.42	5.16
466.625	5.28
466.829	5.32
467.034	5.42
467.238	5.4
467.443	5.5
467.647	5.48
467.851	5.52
468.056	5.52
468.26	5.62
