Data from Ofav_PP_Phys_2EV3_Reflection_1.txt Node
Date: Tue Aug 03 18:14:55 EDT 2021
User: Adam
Spectrometer: FLMT01687
Trigger mode: 0
Integration Time (sec): 8.750000E-1
Scans to average: 2
Electric dark correction enabled: true
Nonlinearity correction enabled: false
Boxcar width: 2
XAxis mode: Wavelengths
Number of Pixels in Spectrum: 3648
>>>>>Begin Spectral Data<<<<<
179.494	227.03
179.716	234.68
179.937	211.86
180.158	322.83
180.38	1168.42
180.601	72.51
180.823	59.6
181.044	73.2
181.265	79.04
181.486	358.21
181.708	190.88
181.929	329.32
182.15	147.28
182.372	465.82
182.593	63.29
182.814	307.69
183.035	-276.6
183.257	-1223.53
183.478	258.28
183.699	106.02
183.92	123.38
184.141	70.42
184.363	87.61
184.584	23.35
184.805	71.9
185.026	22.44
185.247	42.34
185.468	40.71
185.689	43.49
185.91	57.33
186.132	87.62
186.353	62.52
186.574	39.24
186.795	35.66
187.016	20.64
187.237	26.96
187.458	37.07
187.679	14.99
187.9	17.03
188.121	25.24
188.342	4.16
188.563	-15.04
188.784	15.57
189.005	16.14
189.226	1.7
189.447	26.23
189.667	37.84
189.888	26.89
190.109	43.08
190.33	12.01
190.551	23.55
190.772	84.54
190.993	81.77
191.214	74.06
191.434	101.01
191.655	62.2
191.876	27.86
192.097	35.86
192.318	36.47
192.538	36.85
192.759	37.19
192.98	34.27
193.201	31.47
193.421	53.58
193.642	36.48
193.863	44.95
194.083	54.03
194.304	47.86
194.525	-4.52
194.745	7.36
194.966	19.02
195.187	34.88
195.407	57.7
195.628	71.1
195.848	75.91
196.069	77.92
196.29	71.31
196.51	47.24
196.731	59.28
196.951	48.49
197.172	61.78
197.392	68.19
197.613	73.11
197.833	56.2
198.054	58.61
198.274	18.21
198.495	13.76
198.715	4.08
198.936	8.07
199.156	23.8
199.377	41.2
199.597	42.14
199.817	76.82
200.038	60.42
200.258	39.36
200.479	-50.32
200.699	-46.49
200.919	-113.48
201.14	-21.56
201.36	11.18
201.58	40.78
201.801	0.45
202.021	9.53
202.241	-21.23
202.461	-25.93
202.682	-9.69
202.902	14.21
203.122	15.11
203.342	52.07
203.563	24.95
203.783	8.13
204.003	12.57
204.223	15.67
204.443	-10.63
204.663	-7.26
204.884	-19.83
205.104	-44.02
205.324	-37.26
205.544	-55.03
205.764	-34.93
205.984	-41.55
206.204	-8.23
206.424	-76.01
206.644	-12.44
206.864	8.85
207.084	24.16
207.304	27.13
207.525	67.02
207.745	78.62
207.964	40.8
208.184	41.19
208.404	75.15
208.624	48.03
208.844	37.87
209.064	44.49
209.284	66.58
209.504	20.79
209.724	26.9
209.944	25.43
210.164	22.34
210.384	-12.06
210.604	-23.35
210.823	-15.44
211.043	26.77
211.263	27.42
211.483	45.8
211.703	88.98
211.922	64.34
212.142	46.4
212.362	38.11
212.582	41.84
212.801	5.91
213.021	29.84
213.241	33.81
213.461	58.1
213.68	53.3
213.9	47.1
214.12	5.87
214.339	30.25
214.559	40.91
214.779	40.86
214.998	45.11
215.218	78.56
215.438	70.71
215.657	62
215.877	55.3
216.096	43.73
216.316	36.72
216.535	14.01
216.755	-22.5
216.974	6.2
217.194	53.36
217.413	49.17
217.633	59.24
217.852	65.1
218.072	68.54
218.291	38.39
218.511	24.55
218.73	30.15
218.95	38.16
219.169	33.75
219.389	52.26
219.608	58.96
219.827	38.01
220.047	22.75
220.266	21.97
220.485	22.99
220.705	16.59
220.924	24.36
221.143	18.82
221.363	26.24
221.582	26.51
221.801	46
222.021	39.41
222.24	57.94
222.459	25.85
222.678	17.07
222.897	18.89
223.117	-5.19
223.336	-155.4
223.555	-48.13
223.774	17.45
223.993	-25.99
224.213	-45.51
224.432	21.4
224.651	19.84
224.87	26.31
225.089	26.83
225.308	37.13
225.527	-12.97
225.746	-29.85
225.965	-49.91
226.184	-60.74
226.404	2.89
226.623	51.14
226.842	53.75
227.061	33.88
227.28	42.58
227.499	43.71
227.718	38.04
227.936	29.76
228.155	35.22
228.374	42.36
228.593	26.33
228.812	-23.94
229.031	-19.82
229.25	4.05
229.469	-62.86
229.688	-108.35
229.907	-102.8
230.125	-73.52
230.344	-91.07
230.563	-68.7
230.782	-65.5
231.001	-1.23
231.22	-4.92
231.438	-5.27
231.657	-4.31
231.876	5.13
232.095	-17.57
232.313	-12.51
232.532	-22.77
232.751	18
232.969	49.48
233.188	79.23
233.407	54.08
233.625	70.08
233.844	47.93
234.063	38.84
234.281	28.57
234.5	35.39
234.719	19.57
234.937	24.01
235.156	9.29
235.374	8.88
235.593	12.28
235.811	0.86
236.03	17.32
236.249	35.18
236.467	39.52
236.686	42.87
236.904	50.91
237.123	57.08
237.341	55.86
237.559	49.72
237.778	48.44
237.996	49.75
238.215	40.18
238.433	27.65
238.652	35.78
238.87	37.4
239.088	24.08
239.307	22.01
239.525	22.08
239.743	38.8
239.962	40.35
240.18	50.13
240.398	80.48
240.617	92.48
240.835	53.98
241.053	32.76
241.271	-6.46
241.49	-45.02
241.708	-5.4
241.926	-4.31
242.144	17.78
242.363	56.1
242.581	60.8
242.799	40.2
243.017	46.48
243.235	54.25
243.453	31.48
243.672	35.79
243.89	40.28
244.108	53.76
244.326	40.41
244.544	46.53
244.762	57.17
244.98	54.17
245.198	34.25
245.416	56.88
245.634	49.3
245.852	20.56
246.07	19.6
246.288	0.28
246.506	23.39
246.724	17.44
246.942	34.5
247.16	27.66
247.378	22.31
247.596	1.03
247.814	8.73
248.032	14.87
248.25	24.73
248.468	44.58
248.685	30.13
248.903	4.26
249.121	0.75
249.339	7.65
249.557	17.05
249.775	16.3
249.992	61
250.21	52.61
250.428	44.42
250.646	17.69
250.863	30.07
251.081	6.64
251.299	-20.24
251.517	0.86
251.734	-3.23
251.952	0.68
252.17	-8.1
252.387	-9.04
252.605	12.3
252.823	16.62
253.04	-13.19
253.258	28.15
253.475	62.11
253.693	42.19
253.911	55.01
254.128	44.44
254.346	36.7
254.563	19.11
254.781	45.69
254.998	37.36
255.216	36.86
255.433	31.18
255.651	26.94
255.868	-12.13
256.086	-20.62
256.303	8.79
256.521	26.16
256.738	26.96
256.956	52.97
257.173	49.06
257.39	39.07
257.608	11.7
257.825	7.78
258.043	-73.66
258.26	-17.34
258.477	-27.16
258.695	-15.99
258.912	-10.03
259.129	18
259.346	17.71
259.564	31.68
259.781	23.37
259.998	25.5
260.216	13.56
260.433	13.06
260.65	15.35
260.867	0.84
261.084	14.3
261.302	3.44
261.519	13.3
261.736	19.18
261.953	32.18
262.17	14.65
262.387	24.7
262.604	30.49
262.822	19.62
263.039	43.17
263.256	59
263.473	67.42
263.69	66.89
263.907	55.43
264.124	31.73
264.341	1.7
264.558	-46.26
264.775	-39.84
264.992	-22.13
265.209	-31.69
265.426	-38.04
265.643	-7.62
265.86	1.96
266.077	14.36
266.294	10.84
266.51	28.73
266.727	38.66
266.944	26.31
267.161	40.71
267.378	60.85
267.595	56.1
267.812	56.53
268.028	51.5
268.245	31.57
268.462	39.42
268.679	37.61
268.896	9.72
269.112	12.87
269.329	6.22
269.546	-65.41
269.763	-35.49
269.979	-17.93
270.196	3.46
270.413	5.71
270.629	16.63
270.846	39.63
271.063	47.09
271.279	44.82
271.496	61.22
271.712	43.9
271.929	1.55
272.146	21.61
272.362	7.82
272.579	-14.83
272.795	-21.44
273.012	-0.52
273.228	-2.96
273.445	-7.54
273.661	7.86
273.878	32.96
274.094	34.73
274.311	21.96
274.527	20.02
274.744	12.57
274.96	9.59
275.177	-25.21
275.393	5.56
275.609	-1.74
275.826	3.04
276.042	4.43
276.259	18.84
276.475	-13.73
276.691	-15.14
276.908	-11.71
277.124	-9.15
277.34	-22.24
277.557	-11.72
277.773	2.44
277.989	10.45
278.205	11.27
278.422	19.38
278.638	18.85
278.854	19.11
279.07	22.98
279.286	23.84
279.503	37.87
279.719	38.5
279.935	37.53
280.151	42.73
280.367	14.76
280.583	-14.27
280.799	-13.41
281.016	-19.31
281.232	-34.7
281.448	-10.14
281.664	3.51
281.88	34.12
282.096	44.82
282.312	20.94
282.528	12.24
282.744	13.05
282.96	3.39
283.176	17.28
283.392	27.54
283.608	43.95
283.824	51.46
284.04	44.63
284.256	26.63
284.471	30.63
284.687	32.33
284.903	16.16
285.119	-10.57
285.335	-7.27
285.551	-12.44
285.767	-9.71
285.982	2.9
286.198	36.65
286.414	17.63
286.63	19.75
286.846	22.31
287.061	20.71
287.277	4.64
287.493	34.18
287.709	21.58
287.924	9.71
288.14	5.89
288.356	-22.22
288.571	-28.81
288.787	2.89
289.003	-10.84
289.218	-25.34
289.434	27.47
289.65	27.99
289.865	12.3
290.081	-11.45
290.296	7
290.512	6.08
290.727	16.53
290.943	35.59
291.159	61.37
291.374	56.67
291.59	54.68
291.805	56.07
292.021	61.42
292.236	56.66
292.451	58.28
292.667	58.61
292.882	48.08
293.098	31.92
293.313	19.66
293.529	30.07
293.744	24.67
293.959	33.3
294.175	30.36
294.39	35.31
294.605	31.93
294.821	28.43
295.036	36.58
295.251	59.93
295.467	59.4
295.682	56.32
295.897	50.23
296.112	53.52
296.328	48.61
296.543	61.22
296.758	61.71
296.973	68.92
297.188	53.33
297.404	51.57
297.619	40.17
297.834	39.33
298.049	27.1
298.264	40.09
298.479	19.79
298.694	19.88
298.909	14.46
299.125	30.95
299.34	4.26
299.555	16.13
299.77	-7.56
299.985	11.07
300.2	15.7
300.415	11.26
300.63	-22.28
300.845	-1.2
301.06	-1.69
301.275	-13.49
301.49	15.43
301.704	52.52
301.919	60.95
302.134	54.99
302.349	44.74
302.564	52.96
302.779	45.05
302.994	28.9
303.209	22.16
303.423	9.05
303.638	1.53
303.853	4.37
304.068	20.18
304.283	27.94
304.497	41.59
304.712	52.93
304.927	42.85
305.142	48.13
305.356	40.78
305.571	34.11
305.786	32.94
306	41.07
306.215	34.13
306.43	44.59
306.644	46.39
306.859	28.79
307.074	22.58
307.288	19.65
307.503	22.48
307.717	21.49
307.932	17.8
308.147	18.04
308.361	13.1
308.576	12.26
308.79	21.9
309.005	37.95
309.219	35.54
309.434	42.11
309.648	32.5
309.863	11.59
310.077	-19.01
310.292	-22.25
310.506	-28.47
310.72	3.4
310.935	-15.71
311.149	-14.43
311.364	-41.91
311.578	-60.24
311.792	-62.21
312.007	-50.46
312.221	-13.21
312.435	-10.28
312.649	22.27
312.864	9.36
313.078	21.78
313.292	-1.52
313.507	19.91
313.721	10.07
313.935	7.17
314.149	12.57
314.363	20.51
314.578	9.81
314.792	-5.48
315.006	-11.73
315.22	-42.3
315.434	-48.38
315.648	-100.44
315.862	-16.68
316.077	-17.38
316.291	12.62
316.505	23.91
316.719	46.37
316.933	40.17
317.147	49.08
317.361	42
317.575	53.45
317.789	44.3
318.003	52.47
318.217	46.85
318.431	50.14
318.645	21.61
318.859	20.52
319.073	11.01
319.287	28.62
319.5	39.24
319.714	67.37
319.928	79.82
320.142	75.99
320.356	61.4
320.57	56.88
320.784	25.64
320.997	-5.39
321.211	13.94
321.425	25.45
321.639	22.45
321.853	1.75
322.066	10.57
322.28	-2.93
322.494	-12.98
322.707	-28.25
322.921	16.75
323.135	10.57
323.349	3.48
323.562	22.11
323.776	37.34
323.989	33.74
324.203	53.35
324.417	57.85
324.63	62.97
324.844	69.39
325.057	73.81
325.271	45.21
325.485	52.41
325.698	33.44
325.912	12.55
326.125	31.26
326.339	41.73
326.552	21.29
326.766	34.42
326.979	31.26
327.193	19.81
327.406	21.62
327.619	48
327.833	15.3
328.046	42.67
328.26	41.27
328.473	36.55
328.686	38.46
328.9	37.93
329.113	33.46
329.326	44.19
329.54	55.81
329.753	61.21
329.966	80.91
330.179	70.9
330.393	61.13
330.606	52.75
330.819	40.74
331.032	33.68
331.246	31.32
331.459	15.64
331.672	-8.93
331.885	-12.48
332.098	-15.42
332.311	15.89
332.525	38.92
332.738	45.72
332.951	39.38
333.164	27.28
333.377	34.15
333.59	11.29
333.803	1.63
334.016	6.87
334.229	21.81
334.442	-21.34
334.655	-13.81
334.868	9.12
335.081	7.47
335.294	4.22
335.507	18.56
335.72	30.38
335.933	24.68
336.146	22
336.359	14.91
336.572	23.65
336.785	19.14
336.997	28.95
337.21	32.33
337.423	46.09
337.636	51.42
337.849	40.95
338.062	33.68
338.274	28.35
338.487	39.65
338.7	31.41
338.913	49.27
339.125	48.33
339.338	40.79
339.551	16.7
339.763	-8.49
339.976	-15.09
340.189	-15.91
340.402	-20.31
340.614	-17.1
340.827	2.05
341.039	8.17
341.252	10.62
341.465	16.78
341.677	27.03
341.89	49.96
342.102	42.42
342.315	43.82
342.527	48.49
342.74	49.74
342.952	39.5
343.165	55.63
343.377	40.88
343.59	51.83
343.802	24.16
344.015	-1.72
344.227	-42.58
344.44	-12.46
344.652	-10.44
344.864	-1.68
345.077	-2.24
345.289	3.24
345.502	-28.82
345.714	-55.8
345.926	-26.94
346.139	-23.56
346.351	-13.54
346.563	-9.97
346.775	2.49
346.988	-14.79
347.2	13.57
347.412	16.75
347.624	25.87
347.837	22.29
348.049	29.93
348.261	6.12
348.473	-3.7
348.685	10.42
348.897	11.48
349.11	2.75
349.322	-6.9
349.534	-5.97
349.746	1.99
349.958	4.88
350.17	9.15
350.382	16.43
350.594	35.88
350.806	29.59
351.018	27.64
351.23	35.57
351.442	57.35
351.654	31.86
351.866	9.83
352.078	18.55
352.29	22.47
352.502	3.46
352.714	13.38
352.926	26.61
353.138	17.55
353.35	17.48
353.561	37.22
353.773	43.06
353.985	44.17
354.197	52.01
354.409	53.7
354.621	43.26
354.832	38.27
355.044	45.74
355.256	51.82
355.468	48.8
355.679	54.1
355.891	62.35
356.103	65.07
356.314	55.16
356.526	49.53
356.738	43.9
356.949	38.15
357.161	24.94
357.373	17.11
357.584	20.67
357.796	32.36
358.008	9.57
358.219	5.1
358.431	16.79
358.642	9.07
358.854	-21.58
359.065	15.09
359.277	38.26
359.488	35.2
359.7	31.2
359.911	29.58
360.123	20.92
360.334	10.6
360.546	15.12
360.757	25.03
360.969	19.79
361.18	20.56
361.391	19.54
361.603	16.06
361.814	7.83
362.025	14.58
362.237	20.99
362.448	14.57
362.659	-0.89
362.871	0.82
363.082	-8.04
363.293	-33.13
363.504	-36.06
363.716	9.66
363.927	27.79
364.138	44.82
364.349	58.53
364.56	62.63
364.772	54.41
364.983	33.17
365.194	22.07
365.405	14.56
365.616	16.95
365.827	14.46
366.038	26.12
366.25	19.08
366.461	38.18
366.672	17.13
366.883	2.76
367.094	4.96
367.305	30.54
367.516	7.8
367.727	24.87
367.938	40.27
368.149	36.62
368.36	15.09
368.571	19.71
368.781	26.33
368.992	21.56
369.203	36.36
369.414	39.02
369.625	39.34
369.836	31.85
370.047	30.7
370.258	9.26
370.468	15.43
370.679	38.92
370.89	45.82
371.101	32.85
371.312	41
371.522	37.98
371.733	30.39
371.944	22.98
372.155	32.3
372.365	27.9
372.576	30.58
372.787	33.85
372.997	34.5
373.208	29.18
373.419	11.45
373.629	13.69
373.84	7.94
374.05	4.2
374.261	-2.31
374.472	18.3
374.682	9.42
374.893	6.84
375.103	-5.96
375.314	13.5
375.524	19.04
375.735	24.44
375.945	25.88
376.156	41.21
376.366	24.8
376.577	34.3
376.787	32.96
376.997	21.35
377.208	18.37
377.418	33.61
377.629	13.73
377.839	16.44
378.049	17.5
378.26	2.19
378.47	-3.09
378.68	6.31
378.89	5.61
379.101	14.68
379.311	37.66
379.521	42.45
379.732	42.97
379.942	38.84
380.152	37.17
380.362	26.14
380.572	21.42
380.783	22.11
380.993	26.57
381.203	26.49
381.413	18.01
381.623	18.36
381.833	11.81
382.043	20.15
382.253	19.04
382.463	23.94
382.674	26.8
382.884	32.11
383.094	18.84
383.304	17.51
383.514	11.84
383.724	-6.07
383.934	-1.84
384.144	8.03
384.353	8.48
384.563	10.23
384.773	15.38
384.983	6.97
385.193	1.05
385.403	6.89
385.613	10.25
385.823	17.28
386.033	21.36
386.242	21.98
386.452	18.86
386.662	18.45
386.872	16.9
387.082	11.43
387.291	10.51
387.501	10.92
387.711	10.97
387.921	15.43
388.13	16.83
388.34	13.74
388.55	14.02
388.759	12.7
388.969	7.28
389.179	6.67
389.388	5.49
389.598	6.5
389.807	6.73
390.017	7.57
390.227	7.53
390.436	9.9
390.646	6.18
390.855	6.38
391.065	6.2
391.274	6.64
391.484	7.24
391.693	7.07
391.903	5.63
392.112	5.18
392.322	4.52
392.531	2.67
392.74	2.78
392.95	4.14
393.159	3.35
393.369	4.02
393.578	4.69
393.787	5.73
393.997	5.11
394.206	6.27
394.415	5.9
394.625	5.72
394.834	5.95
395.043	6.34
395.252	6.32
395.462	6.14
395.671	5.36
395.88	5.15
396.089	4.78
396.298	4.37
396.508	4.71
396.717	5.51
396.926	4.83
397.135	3.97
397.344	4.13
397.553	3.34
397.762	3.15
397.971	3.67
398.181	4.17
398.39	4.56
398.599	4.83
398.808	4.88
399.017	4.33
399.226	4
399.435	3.39
399.644	3.42
399.853	3.26
400.062	3.65
400.27	3.66
400.479	3.74
400.688	3.86
400.897	4.08
401.106	3.86
401.315	4.33
401.524	4.72
401.733	4.51
401.941	4.14
402.15	4.4
402.359	4.47
402.568	4.09
402.777	3.79
402.985	4.13
403.194	3.98
403.403	3.66
403.612	3.73
403.82	3.98
404.029	3.91
404.238	3.98
404.446	3.9
404.655	3.88
404.864	3.87
405.072	3.88
405.281	3.83
405.489	3.99
405.698	4.08
405.906	4.15
406.115	4.05
406.324	4.03
406.532	3.95
406.741	3.87
406.949	3.82
407.158	3.83
407.366	3.91
407.574	3.96
407.783	3.95
407.991	3.91
408.2	3.77
408.408	3.58
408.617	3.62
408.825	3.68
409.033	3.79
409.242	3.78
409.45	3.67
409.658	3.6
409.867	3.56
410.075	3.52
410.283	3.57
410.491	3.66
410.7	3.7
410.908	3.57
411.116	3.45
411.324	3.54
411.533	3.48
411.741	3.32
411.949	3.31
412.157	3.43
412.365	3.31
412.573	3.4
412.781	3.36
412.99	3.46
413.198	3.4
413.406	3.46
413.614	3.37
413.822	3.53
414.03	3.46
414.238	3.46
414.446	3.41
414.654	3.56
414.862	3.59
415.07	3.49
415.278	3.45
415.486	3.52
415.694	3.53
415.902	3.37
416.109	3.52
416.317	3.39
416.525	3.4
416.733	3.42
416.941	3.6
417.149	3.5
417.357	3.53
417.564	3.46
417.772	3.3
417.98	3.35
418.188	3.52
418.395	3.59
418.603	3.56
418.811	3.7
419.019	3.51
419.226	3.35
419.434	3.36
419.642	3.54
419.849	3.51
420.057	3.54
420.265	3.5
420.472	3.57
420.68	3.22
420.887	3.28
421.095	3.13
421.302	3.31
421.51	3.02
421.717	3.05
421.925	2.81
422.132	2.96
422.34	2.9
422.547	2.91
422.755	3.09
422.962	3.35
423.17	3.28
423.377	3.21
423.585	3.47
423.792	3.32
423.999	3.17
424.207	3.28
424.414	3.1
424.621	2.88
424.829	2.93
425.036	2.95
425.243	2.8
425.451	2.97
425.658	3.16
425.865	3.21
426.072	3.12
426.28	3.07
426.487	3.23
426.694	2.94
426.901	2.95
427.108	3
427.315	3.38
427.523	3.05
427.73	3.14
427.937	3.3
428.144	3.32
428.351	3.14
428.558	3.06
428.765	3.29
428.972	3.26
429.179	3.08
429.386	2.9
429.593	3.13
429.8	3.22
430.007	3.03
430.214	3.23
430.421	3.33
430.628	3.35
430.835	3.29
431.042	3.35
431.249	3.33
431.456	3.48
431.662	3.54
431.869	3.6
432.076	3.59
432.283	3.6
432.49	3.52
432.697	3.52
432.903	3.5
433.11	3.58
433.317	3.45
433.524	3.32
433.73	3.42
433.937	3.26
434.144	3.26
434.35	3.38
434.557	3.54
434.764	3.53
434.97	3.72
435.177	3.72
435.384	3.8
435.59	3.81
435.797	3.64
436.003	3.45
436.21	3.36
436.416	3.36
436.623	3.29
436.829	3.35
437.036	3.53
437.242	3.66
437.449	3.41
437.655	3.55
437.862	3.57
438.068	3.43
438.275	3.38
438.481	3.44
438.687	3.41
438.894	3.49
439.1	3.54
439.307	3.38
439.513	3.57
439.719	3.57
439.926	3.46
440.132	3.52
440.338	3.77
440.544	3.62
440.751	3.6
440.957	3.64
441.163	3.71
441.369	3.71
441.575	3.73
441.782	3.81
441.988	4.02
442.194	4.04
442.4	4.01
442.606	4.1
442.812	4.09
443.018	3.88
443.224	3.76
443.431	3.7
443.637	3.69
443.843	3.67
444.049	3.75
444.255	3.95
444.461	4.11
444.667	4.17
444.873	4.09
445.079	4.07
445.284	3.95
445.49	3.94
445.696	3.98
445.902	4.07
446.108	4.1
446.314	4.05
446.52	4.16
446.726	4.17
446.931	4.15
447.137	4.2
447.343	4.22
447.549	4.2
447.755	4.15
447.96	4.14
448.166	4.12
448.372	4.11
448.578	4.02
448.783	4.09
448.989	4.16
449.195	4.08
449.4	4.13
449.606	4.18
449.812	4.14
450.017	4.11
450.223	4.22
450.428	4.35
450.634	4.32
450.84	4.31
451.045	4.41
451.251	4.4
451.456	4.25
451.662	4.03
451.867	4.07
452.073	4
452.278	3.91
452.483	3.91
452.689	4.13
452.894	4.12
453.1	4.15
453.305	4.24
453.51	4.27
453.716	4.2
453.921	4.25
454.127	4.21
454.332	4.22
454.537	4.27
454.742	4.38
454.948	4.35
455.153	4.46
455.358	4.41
455.563	4.25
455.769	4.28
455.974	4.23
456.179	4.16
456.384	4.08
456.589	4.27
456.795	4.25
457	4.23
457.205	4.15
457.41	4.2
457.615	4.25
457.82	4.2
458.025	4.24
458.23	4.38
458.435	4.39
458.64	4.32
458.845	4.35
459.05	4.37
459.255	4.42
459.46	4.41
459.665	4.42
459.87	4.46
460.075	4.38
460.28	4.41
460.485	4.44
460.69	4.46
460.895	4.43
461.099	4.53
461.304	4.37
461.509	4.38
461.714	4.47
461.919	4.46
462.123	4.43
462.328	4.46
462.533	4.57
462.738	4.5
462.942	4.5
463.147	4.63
463.352	4.59
463.556	4.55
463.761	4.56
463.966	4.55
464.17	4.42
464.375	4.58
464.58	4.59
464.784	4.53
464.989	4.62
465.193	4.66
465.398	4.62
465.602	4.47
465.807	4.63
466.011	4.61
466.216	4.6
466.42	4.6
466.625	4.84
466.829	4.73
467.034	4.76
467.238	4.77
467.443	4.76
467.647	4.75
467.851	4.8
468.056	4.77
