Data from Ofav_PP_Phys_2EV3_Reflection_2.txt Node
Date: Tue Aug 03 18:15:21 EDT 2021
User: Adam
Spectrometer: FLMT01687
Trigger mode: 0
Integration Time (sec): 8.750000E-1
Scans to average: 2
Electric dark correction enabled: true
Nonlinearity correction enabled: false
Boxcar width: 2
XAxis mode: Wavelengths
Number of Pixels in Spectrum: 3648
>>>>>Begin Spectral Data<<<<<
179.494	282.43
179.716	284.39
179.937	272.53
180.158	292.52
180.38	-150
180.601	-128.95
180.823	-99.67
181.044	33.29
181.265	138.62
181.486	-270.9
181.708	28.12
181.929	33.46
182.15	75.52
182.372	362.66
182.593	-114.56
182.814	188.46
183.035	86.17
183.257	-726.47
183.478	157.28
183.699	103.01
183.92	69.4
184.141	25.12
184.363	78.4
184.584	-1.75
184.805	26.44
185.026	-39.17
185.247	-31.76
185.468	-37.22
185.689	-52.14
185.91	-70.57
186.132	-21.71
186.353	13.49
186.574	-7.31
186.795	21.03
187.016	11.15
187.237	25.95
187.458	21.12
187.679	16.78
187.9	2.98
188.121	-2.46
188.342	-55.72
188.563	-50.75
188.784	-42.41
189.005	-40.53
189.226	-40.35
189.447	-11.69
189.667	-5.85
189.888	-6.81
190.109	39.91
190.33	26.17
190.551	45.02
190.772	72.47
190.993	65.27
191.214	57.34
191.434	79.29
191.655	47
191.876	25.19
192.097	30.69
192.318	20.09
192.538	11.32
192.759	13.2
192.98	30.67
193.201	24.54
193.421	34.91
193.642	25.12
193.863	51.71
194.083	52.83
194.304	66.04
194.525	43.6
194.745	63.84
194.966	71.56
195.187	64.24
195.407	48.22
195.628	74.83
195.848	66.5
196.069	76.72
196.29	40.66
196.51	47.52
196.731	46.59
196.951	30.34
197.172	29.83
197.392	81.11
197.613	71.08
197.833	58.55
198.054	94.55
198.274	60.75
198.495	49.71
198.715	48.2
198.936	51.64
199.156	60.3
199.377	56.77
199.597	52.31
199.817	98.21
200.038	72.66
200.258	78.26
200.479	43.76
200.699	27
200.919	-68.68
201.14	14.94
201.36	21.82
201.58	39.58
201.801	23.85
202.021	16.11
202.241	-11.86
202.461	-2.09
202.682	8.77
202.902	8.84
203.122	49.84
203.342	66.58
203.563	-6.73
203.783	-10.23
204.003	23.19
204.223	14.88
204.443	-10.28
204.663	19.58
204.884	14.93
205.104	-16.3
205.324	-29.18
205.544	-32.77
205.764	-30.42
205.984	-87.67
206.204	-61.31
206.424	-85.06
206.644	-6.96
206.864	-42.35
207.084	-17.5
207.304	-33.81
207.525	12.75
207.745	15.78
207.964	38.91
208.184	51.19
208.404	78.8
208.624	56.33
208.844	58.4
209.064	66.48
209.284	80.3
209.504	27.97
209.724	9.21
209.944	-17.28
210.164	-56.28
210.384	-35.59
210.604	-35.88
210.823	6.76
211.043	28.59
211.263	25.87
211.483	-1.3
211.703	33.13
211.922	16.37
212.142	8.4
212.362	7.29
212.582	24.02
212.801	15.68
213.021	32.3
213.241	41.71
213.461	55.14
213.68	53.99
213.9	61.45
214.12	29.31
214.339	56.21
214.559	48.22
214.779	46.31
214.998	23.1
215.218	53.94
215.438	34.23
215.657	42.17
215.877	40.82
216.096	38.26
216.316	26.85
216.535	-17.95
216.755	-31.67
216.974	6.12
217.194	56.37
217.413	84.78
217.633	95.3
217.852	90.83
218.072	83.37
218.291	57.52
218.511	29.4
218.73	50.8
218.95	48.66
219.169	55.56
219.389	46.12
219.608	39.82
219.827	-1.8
220.047	-21.34
220.266	-30.63
220.485	-9
220.705	-0.81
220.924	22.03
221.143	6.94
221.363	45.51
221.582	27.74
221.801	35.38
222.021	21.77
222.24	67.28
222.459	18.22
222.678	19.27
222.897	48.2
223.117	70
223.336	14.03
223.555	60.37
223.774	90.73
223.993	-15.43
224.213	-43.21
224.432	-5.28
224.651	1.79
224.87	11.28
225.089	3.66
225.308	-4.37
225.527	-19.4
225.746	-49.5
225.965	-55.18
226.184	-67.19
226.404	8.9
226.623	27.93
226.842	18.44
227.061	-14.6
227.28	9.72
227.499	-1.46
227.718	-8.31
227.936	-1.09
228.155	17.24
228.374	13.26
228.593	14.71
228.812	-9.85
229.031	-18.08
229.25	3.04
229.469	-53.43
229.688	-112.53
229.907	-189.56
230.125	-112.93
230.344	-53.7
230.563	-42.72
230.782	-28.02
231.001	22.26
231.22	10.77
231.438	-8.84
231.657	-0.3
231.876	20.21
232.095	9.75
232.313	-10.45
232.532	-32.72
232.751	-1.33
232.969	14.44
233.188	32.62
233.407	41.99
233.625	63.63
233.844	56.79
234.063	55.19
234.281	37.26
234.5	27.65
234.719	18.49
234.937	-1.16
235.156	-22.82
235.374	-22.37
235.593	-10.92
235.811	-13.53
236.03	15.18
236.249	34.47
236.467	49.8
236.686	47.49
236.904	41.64
237.123	43.37
237.341	48.06
237.559	36.7
237.778	36.47
237.996	38.46
238.215	30.28
238.433	19.36
238.652	24.4
238.87	26.87
239.088	27.81
239.307	26.81
239.525	26.83
239.743	32.3
239.962	41.52
240.18	48.19
240.398	63.57
240.617	71.63
240.835	31.43
241.053	3.61
241.271	-34.2
241.49	-44.18
241.708	-36.5
241.926	3.97
242.144	15.77
242.363	23.16
242.581	22.67
242.799	16.07
243.017	5.25
243.235	36.85
243.453	22.15
243.672	39.37
243.89	43.4
244.108	52.35
244.326	9.7
244.544	19.97
244.762	4.22
244.98	-11.1
245.198	2.14
245.416	38.48
245.634	35.9
245.852	45.14
246.07	32.32
246.288	-1.47
246.506	19.12
246.724	20.1
246.942	18.76
247.16	27.8
247.378	34.14
247.596	14.54
247.814	9.46
248.032	14.82
248.25	7.93
248.468	0.75
248.685	1.72
248.903	-26.54
249.121	-38.82
249.339	-16.93
249.557	9.41
249.775	2.24
249.992	44.52
250.21	53.74
250.428	43.95
250.646	19.73
250.863	9.84
251.081	-22.45
251.299	-50.4
251.517	-14.2
251.734	0.43
251.952	23.5
252.17	38.01
252.387	23.48
252.605	12.78
252.823	-13.64
253.04	-24.73
253.258	11.7
253.475	59.97
253.693	55.74
253.911	62.42
254.128	54.09
254.346	44.08
254.563	23.88
254.781	52.28
254.998	45.23
255.216	37.81
255.433	30.63
255.651	17.77
255.868	-44.19
256.086	-50
256.303	-21.48
256.521	-9.49
256.738	-11.1
256.956	27.72
257.173	28.77
257.39	24.81
257.608	22.87
257.825	14.2
258.043	-45.4
258.26	-1.53
258.477	11.17
258.695	11.99
258.912	20.44
259.129	50.24
259.346	45.57
259.564	42.13
259.781	47.53
259.998	29.79
260.216	11.6
260.433	9.48
260.65	-9.4
260.867	-15.23
261.084	-10.78
261.302	-27.09
261.519	-18.32
261.736	17.13
261.953	20.58
262.17	6.05
262.387	17.7
262.604	13.41
262.822	13.89
263.039	5.35
263.256	36.12
263.473	42.7
263.69	51.5
263.907	18.9
264.124	12.81
264.341	-19.94
264.558	-79.62
264.775	-67.34
264.992	-29.05
265.209	-19.58
265.426	-17.09
265.643	3.07
265.86	10.7
266.077	16.52
266.294	16.94
266.51	32.76
266.727	51.68
266.944	60.04
267.161	53.78
267.378	45.32
267.595	17.72
267.812	17.21
268.028	10.36
268.245	17.8
268.462	41.73
268.679	61.12
268.896	40.85
269.112	36.31
269.329	19.15
269.546	-30.72
269.763	-16.57
269.979	-3.47
270.196	13.4
270.413	18.99
270.629	31.89
270.846	39.59
271.063	34.51
271.279	29.77
271.496	43.62
271.712	18.2
271.929	6.16
272.146	37.17
272.362	35.71
272.579	15.98
272.795	11.4
273.012	19.05
273.228	8.5
273.445	6.17
273.661	10.72
273.878	21.59
274.094	24.03
274.311	15.69
274.527	3.53
274.744	10.23
274.96	11.78
275.177	-13.02
275.393	-18.71
275.609	-28.28
275.826	-34.36
276.042	-25.65
276.259	-6.71
276.475	-6.6
276.691	-0.45
276.908	26.19
277.124	22.2
277.34	21.3
277.557	24.12
277.773	34.52
277.989	25.57
278.205	24.68
278.422	31.08
278.638	33.51
278.854	23.79
279.07	11.83
279.286	37.82
279.503	31.76
279.719	32.96
279.935	43.6
280.151	52.71
280.367	20.56
280.583	-7.76
280.799	-7.69
281.016	-16.84
281.232	-23.85
281.448	9.83
281.664	12.99
281.88	32.03
282.096	44.78
282.312	24.03
282.528	1.76
282.744	13.64
282.96	12.44
283.176	15.44
283.392	36.31
283.608	33.58
283.824	33.38
284.04	13.71
284.256	8.71
284.471	4.4
284.687	7.57
284.903	9.02
285.119	-7.73
285.335	-15.67
285.551	-19.76
285.767	0.33
285.982	-7.31
286.198	23.81
286.414	11.52
286.63	3.14
286.846	-6.67
287.061	5.82
287.277	-24.81
287.493	-5.51
287.709	-27.73
287.924	-12.32
288.14	-25.23
288.356	-32.06
288.571	-21.38
288.787	17.76
289.003	5.01
289.218	11.25
289.434	54.13
289.65	60.23
289.865	46.39
290.081	33.18
290.296	25.36
290.512	24.53
290.727	10.03
290.943	17.99
291.159	42.69
291.374	39.89
291.59	36.21
291.805	37.6
292.021	48.76
292.236	47.51
292.451	36.21
292.667	28.25
292.882	15.07
293.098	-32.29
293.313	-44.43
293.529	-24.77
293.744	-33.75
293.959	8.19
294.175	29.65
294.39	23.85
294.605	17.07
294.821	17.87
295.036	4.27
295.251	-12
295.467	-0.88
295.682	21.3
295.897	25.07
296.112	35.75
296.328	58.33
296.543	58.3
296.758	46.32
296.973	44.51
297.188	29.27
297.404	26.35
297.619	31.16
297.834	39.12
298.049	31.14
298.264	44
298.479	22.05
298.694	7.45
298.909	9.29
299.125	9.38
299.34	-11.54
299.555	11.93
299.77	-4.46
299.985	24.34
300.2	53.41
300.415	84.75
300.63	58.86
300.845	83.2
301.06	53.39
301.275	9.52
301.49	3.91
301.704	16.42
301.919	14.19
302.134	23.37
302.349	23.5
302.564	36.03
302.779	35.91
302.994	20.97
303.209	21.99
303.423	16.26
303.638	3.47
303.853	5.58
304.068	25.1
304.283	34.41
304.497	43.62
304.712	43.65
304.927	45.17
305.142	48.55
305.356	36.44
305.571	26.55
305.786	46.72
306	59.87
306.215	46.07
306.43	48.73
306.644	62.68
306.859	54.7
307.074	40.31
307.288	57.1
307.503	44.06
307.717	35.73
307.932	14.95
308.147	16.3
308.361	0.33
308.576	2.75
308.79	27.21
309.005	58.93
309.219	53.1
309.434	40.63
309.648	53.99
309.863	41.42
310.077	23.48
310.292	36.42
310.506	48.1
310.72	38.09
310.935	11.74
311.149	7.56
311.364	-29.25
311.578	-35.85
311.792	-43.43
312.007	-39.91
312.221	-27.73
312.435	-26.68
312.649	6.69
312.864	-26.15
313.078	-18.64
313.292	-29.7
313.507	-1.45
313.721	-20.46
313.935	-6.52
314.149	9.31
314.363	17.77
314.578	4.31
314.792	7.11
315.006	6.24
315.22	4.37
315.434	-10.04
315.648	-47.19
315.862	-13.32
316.077	-0.85
316.291	6.86
316.505	11.05
316.719	8.18
316.933	11.12
317.147	-14.29
317.361	-16.14
317.575	-5.28
317.789	19.2
318.003	24.35
318.217	30.18
318.431	35.05
318.645	25.78
318.859	12.8
319.073	-21.66
319.287	7.88
319.5	17.6
319.714	39.54
319.928	46.1
320.142	59.78
320.356	55.5
320.57	50.65
320.784	47.52
320.997	26.37
321.211	32.13
321.425	31.58
321.639	25.57
321.853	-13.24
322.066	14.12
322.28	6.44
322.494	-19.53
322.707	-41.45
322.921	-7.5
323.135	-6.58
323.349	-11.72
323.562	19.86
323.776	50.6
323.989	45.6
324.203	46.31
324.417	40.28
324.63	51.7
324.844	39.64
325.057	49.22
325.271	39.09
325.485	58.55
325.698	28.52
325.912	34.38
326.125	35.28
326.339	18.54
326.552	-1.42
326.766	10.43
326.979	-4.57
327.193	-11.01
327.406	6.16
327.619	29.82
327.833	-0.06
328.046	26.41
328.26	26.29
328.473	22.73
328.686	22
328.9	34.39
329.113	29.31
329.326	35.53
329.54	41.02
329.753	46.09
329.966	53.5
330.179	46.68
330.393	49.79
330.606	38.67
330.819	31.48
331.032	24.04
331.246	27.53
331.459	4.92
331.672	-3.17
331.885	-23.32
332.098	-20.29
332.311	14.45
332.525	35.7
332.738	29.55
332.951	41.16
333.164	34.31
333.377	22.44
333.59	-4.46
333.803	-6.07
334.016	-19.15
334.229	-5.27
334.442	-39.78
334.655	-12.44
334.868	8.6
335.081	22.35
335.294	16.34
335.507	45.75
335.72	45.53
335.933	30.55
336.146	35.77
336.359	35.34
336.572	22.02
336.785	24.38
336.997	42.5
337.21	23.51
337.423	22.5
337.636	38.34
337.849	41.11
338.062	35.34
338.274	21.73
338.487	29.96
338.7	21.77
338.913	29.72
339.125	22.86
339.338	34.89
339.551	26.61
339.763	15.01
339.976	2.68
340.189	10.06
340.402	4.26
340.614	16.05
340.827	32.54
341.039	48.03
341.252	54.25
341.465	67.38
341.677	62.53
341.89	68.35
342.102	56.68
342.315	55.71
342.527	56.1
342.74	50.88
342.952	43.52
343.165	47.35
343.377	25.4
343.59	16.88
343.802	5.03
344.015	-25.4
344.227	-54.47
344.44	-23.83
344.652	-19.5
344.864	-32.16
345.077	-24.11
345.289	-32.46
345.502	-56.28
345.714	-62.04
345.926	-28.56
346.139	-12.61
346.351	-4.5
346.563	4.58
346.775	-0.43
346.988	1.95
347.2	0.6
347.412	8.05
347.624	17.62
347.837	24.05
348.049	17.72
348.261	5.89
348.473	-5.6
348.685	-6.34
348.897	10.15
349.11	9.49
349.322	11.9
349.534	21.5
349.746	25.52
349.958	7.09
350.17	8.58
350.382	3.65
350.594	-1.97
350.806	-18.32
351.018	-18.11
351.23	-14.81
351.442	0.68
351.654	1.33
351.866	24.44
352.078	32.67
352.29	19.66
352.502	23.29
352.714	25.77
352.926	14.3
353.138	5.46
353.35	23.91
353.561	31.79
353.773	33.98
353.985	42.21
354.197	42.32
354.409	42.84
354.621	38.02
354.832	50.07
355.044	49.03
355.256	43.15
355.468	36.95
355.679	39.51
355.891	29.09
356.103	31.13
356.314	36.83
356.526	33.99
356.738	37.56
356.949	30.03
357.161	17.94
357.373	24.17
357.584	33.57
357.796	24.47
358.008	13.54
358.219	14.56
358.431	14.99
358.642	3.76
358.854	-10.73
359.065	9.31
359.277	18.38
359.488	7.96
359.7	14.32
359.911	18.51
360.123	20.71
360.334	21.17
360.546	24.26
360.757	28.81
360.969	22.57
361.18	16.11
361.391	18.98
361.603	8.61
361.814	-4.86
362.025	4.54
362.237	8.34
362.448	0.38
362.659	6.59
362.871	12.32
363.082	-0.42
363.293	-6.34
363.504	2.61
363.716	21.45
363.927	19.72
364.138	32.52
364.349	39.56
364.56	32.93
364.772	43.98
364.983	43.19
365.194	42.51
365.405	35.75
365.616	25.99
365.827	13.85
366.038	20.15
366.25	11.5
366.461	26.63
366.672	40.98
366.883	28.35
367.094	32.09
367.305	39.59
367.516	16.58
367.727	14.8
367.938	20.96
368.149	17.66
368.36	7.04
368.571	6.53
368.781	8.58
368.992	13.3
369.203	10.49
369.414	16.23
369.625	16.8
369.836	16.85
370.047	8.62
370.258	0.26
370.468	4.61
370.679	26.81
370.89	34.26
371.101	39.35
371.312	42.65
371.522	33.83
371.733	22.45
371.944	11.14
372.155	11.58
372.365	16.86
372.576	28.27
372.787	33.25
372.997	37.1
373.208	44.54
373.419	35.71
373.629	35.39
373.84	35.59
374.05	33.59
374.261	27.84
374.472	41.06
374.682	29.73
374.893	30.18
375.103	19.57
375.314	16.91
375.524	12.82
375.735	14.86
375.945	11.7
376.156	21.24
376.366	11.02
376.577	5.86
376.787	12.61
376.997	6.76
377.208	11.64
377.418	18.62
377.629	16.59
377.839	22.06
378.049	19.11
378.26	8.74
378.47	6.04
378.68	8.58
378.89	5.8
379.101	7.64
379.311	11.45
379.521	13.45
379.732	18.24
379.942	16.95
380.152	25.19
380.362	17.44
380.572	16.35
380.783	10.56
380.993	13.11
381.203	9.26
381.413	7.23
381.623	12.36
381.833	13.99
382.043	14.72
382.253	15.65
382.463	28.85
382.674	19.36
382.884	21.74
383.094	10.01
383.304	12.85
383.514	-1.14
383.724	-4.86
383.934	-4.18
384.144	6.05
384.353	1.59
384.563	5.38
384.773	4.91
384.983	1.65
385.193	-4.56
385.403	-2.35
385.613	2.3
385.823	9.91
386.033	11.33
386.242	15.43
386.452	15.46
386.662	15.96
386.872	13.32
387.082	9.28
387.291	9.09
387.501	10.74
387.711	8.42
387.921	11.36
388.13	13.09
388.34	9.15
388.55	12.3
388.759	10.85
388.969	6.34
389.179	6.93
389.388	4.66
389.598	2.97
389.807	4.41
390.017	7.26
390.227	5.55
390.436	9.92
390.646	6.76
390.855	4.04
391.065	3.17
391.274	5.31
391.484	5.43
391.693	5.25
391.903	6.36
392.112	6.6
392.322	4.48
392.531	4.24
392.74	5.96
392.95	7.23
393.159	6.68
393.369	7.74
393.578	7.39
393.787	7.4
393.997	7.03
394.206	7.66
394.415	7.97
394.625	7.78
394.834	7.54
395.043	7.33
395.252	6.78
395.462	6.16
395.671	4.61
395.88	4.28
396.089	3.93
396.298	3.95
396.508	4.1
396.717	5.33
396.926	5.33
397.135	4.83
397.344	4.84
397.553	4.15
397.762	3.67
397.971	3.48
398.181	3.9
398.39	4.23
398.599	4.6
398.808	4.88
399.017	4.62
399.226	4.24
399.435	3.6
399.644	3.64
399.853	3.48
400.062	3.58
400.27	3.84
400.479	4.19
400.688	4.18
400.897	4.28
401.106	4.27
401.315	4.41
401.524	4.47
401.733	4.18
401.941	3.93
402.15	4.01
402.359	4.06
402.568	3.76
402.777	3.79
402.985	4.04
403.194	3.93
403.403	3.63
403.612	3.74
403.82	3.84
404.029	3.66
404.238	3.9
404.446	3.89
404.655	3.92
404.864	3.93
405.072	4.02
405.281	3.79
405.489	3.94
405.698	3.91
405.906	4.04
406.115	4.03
406.324	4.1
406.532	4
406.741	3.91
406.949	3.82
407.158	3.76
407.366	3.73
407.574	3.66
407.783	3.78
407.991	3.64
408.2	3.41
408.408	3.36
408.617	3.47
408.825	3.53
409.033	3.71
409.242	3.8
409.45	3.84
409.658	3.96
409.867	3.74
410.075	3.74
410.283	3.88
410.491	3.81
410.7	3.72
410.908	3.67
411.116	3.43
411.324	3.44
411.533	3.42
411.741	3.36
411.949	3.37
412.157	3.58
412.365	3.44
412.573	3.51
412.781	3.49
412.99	3.72
413.198	3.56
413.406	3.57
413.614	3.44
413.822	3.48
414.03	3.38
414.238	3.48
414.446	3.52
414.654	3.77
414.862	3.73
415.07	3.66
415.278	3.52
415.486	3.56
415.694	3.45
415.902	3.5
416.109	3.54
416.317	3.63
416.525	3.54
416.733	3.58
416.941	3.49
417.149	3.4
417.357	3.33
417.564	3.29
417.772	3.04
417.98	3.24
418.188	3.31
418.395	3.4
418.603	3.46
418.811	3.68
419.019	3.47
419.226	3.33
419.434	3.18
419.642	3.27
419.849	3.15
420.057	3.18
420.265	3.2
420.472	3.37
420.68	3.12
420.887	3.16
421.095	3.06
421.302	3.18
421.51	2.92
421.717	3.04
421.925	2.92
422.132	2.97
422.34	2.93
422.547	3.08
422.755	3.11
422.962	3.32
423.17	3.37
423.377	3.48
423.585	3.51
423.792	3.45
423.999	3.33
424.207	3.3
424.414	2.92
424.621	2.68
424.829	2.7
425.036	2.69
425.243	2.58
425.451	2.86
425.658	3.03
425.865	3.03
426.072	2.97
426.28	2.99
426.487	3.04
426.694	2.96
426.901	3.05
427.108	3.25
427.315	3.51
427.523	3.29
427.73	3.39
427.937	3.46
428.144	3.34
428.351	3.12
428.558	3.08
428.765	3.13
428.972	3.14
429.179	3.08
429.386	3.07
429.593	3.27
429.8	3.35
430.007	3.23
430.214	3.26
430.421	3.32
430.628	3.36
430.835	3.39
431.042	3.38
431.249	3.42
431.456	3.54
431.662	3.44
431.869	3.34
432.076	3.32
432.283	3.21
432.49	3.03
432.697	3.11
432.903	3.23
433.11	3.23
433.317	3.33
433.524	3.36
433.73	3.57
433.937	3.46
434.144	3.57
434.35	3.6
434.557	3.78
434.764	3.59
434.97	3.69
435.177	3.56
435.384	3.66
435.59	3.59
435.797	3.6
436.003	3.45
436.21	3.51
436.416	3.52
436.623	3.52
436.829	3.51
437.036	3.54
437.242	3.55
437.449	3.43
437.655	3.44
437.862	3.42
438.068	3.45
438.275	3.5
438.481	3.51
438.687	3.54
438.894	3.66
439.1	3.73
439.307	3.55
439.513	3.52
439.719	3.45
439.926	3.32
440.132	3.42
440.338	3.61
440.544	3.65
440.751	3.73
440.957	3.86
441.163	3.81
441.369	3.84
441.575	3.98
441.782	4.01
441.988	4.08
442.194	4.05
442.4	4.15
442.606	4.04
442.812	4.08
443.018	3.93
443.224	3.94
443.431	3.71
443.637	3.8
443.843	3.76
444.049	3.75
444.255	3.77
444.461	4
444.667	4.01
444.873	3.93
445.079	4.03
445.284	4
445.49	3.93
445.696	3.96
445.902	3.98
446.108	4.09
446.314	4.18
446.52	4.21
446.726	4.13
446.931	4.26
447.137	4.12
447.343	4.15
447.549	4.2
447.755	4.24
447.96	4.16
448.166	4.19
448.372	4.01
448.578	3.97
448.783	3.94
448.989	4.03
449.195	4.03
449.4	4.14
449.606	4.13
449.812	4.21
450.017	4.11
450.223	4.13
450.428	4.34
450.634	4.29
450.84	4.27
451.045	4.37
451.251	4.4
451.456	4.25
451.662	4.09
451.867	4.01
452.073	4.03
452.278	4.05
452.483	4.01
452.689	4.2
452.894	4.26
453.1	4.21
453.305	4.2
453.51	4.23
453.716	4.32
453.921	4.4
454.127	4.4
454.332	4.52
454.537	4.53
454.742	4.52
454.948	4.4
455.153	4.42
455.358	4.27
455.563	4.19
455.769	4.14
455.974	4.22
456.179	4.35
456.384	4.33
456.589	4.47
456.795	4.49
457	4.48
457.205	4.19
457.41	4.24
457.615	4.26
457.82	4.21
458.025	4.25
458.23	4.55
458.435	4.46
458.64	4.44
458.845	4.49
459.05	4.51
459.255	4.42
459.46	4.58
459.665	4.56
459.87	4.57
460.075	4.52
460.28	4.55
460.485	4.53
460.69	4.47
460.895	4.59
461.099	4.57
461.304	4.41
461.509	4.37
461.714	4.57
461.919	4.46
462.123	4.56
462.328	4.68
462.533	4.78
462.738	4.65
462.942	4.76
463.147	4.77
463.352	4.71
463.556	4.74
463.761	4.74
463.966	4.65
464.17	4.63
464.375	4.76
464.58	4.7
464.784	4.79
464.989	4.91
465.193	4.94
465.398	4.85
465.602	4.79
465.807	4.76
466.011	4.8
466.216	4.77
466.42	4.88
466.625	5
466.829	5
467.034	4.89
467.238	4.89
467.443	4.81
467.647	4.83
467.851	4.92
468.056	4.93
