Data from Ofav_PP_Phys_2JQ31_Reflection_1.txt Node
Date: Tue Aug 03 18:08:33 EDT 2021
User: Adam
Spectrometer: FLMT01687
Trigger mode: 0
Integration Time (sec): 8.750000E-1
Scans to average: 2
Electric dark correction enabled: true
Nonlinearity correction enabled: false
Boxcar width: 2
XAxis mode: Wavelengths
Number of Pixels in Spectrum: 3648
>>>>>Begin Spectral Data<<<<<
179.494	149.7
179.716	171.87
179.937	182.94
180.158	291.99
180.38	835.96
180.601	58.97
180.823	54.86
181.044	61.34
181.265	131.04
181.486	-141.54
181.708	27.71
181.929	27.94
182.15	-19.6
182.372	340.72
182.593	-155.91
182.814	-1.28
183.035	215.25
183.257	700.98
183.478	103.86
183.699	249.2
183.92	132.75
184.141	107.43
184.363	66.11
184.584	15.89
184.805	-2.3
185.026	-55.93
185.247	-61.47
185.468	-43.86
185.689	-39.07
185.91	-25.64
186.132	18.63
186.353	44.93
186.574	20.11
186.795	38.16
187.016	24.56
187.237	27.04
187.458	23.56
187.679	15.78
187.9	17.87
188.121	26
188.342	2.97
188.563	7.39
188.784	22.35
189.005	1.03
189.226	-25.98
189.447	-1.96
189.667	-20.65
189.888	0.81
190.109	42.88
190.33	47.06
190.551	53.21
190.772	82.65
190.993	19.51
191.214	6.33
191.434	9.64
191.655	-22.99
191.876	-31.25
192.097	-3.66
192.318	-6.19
192.538	-6.52
192.759	2.65
192.98	4.06
193.201	-13.33
193.421	0.1
193.642	-8.15
193.863	3.82
194.083	40.29
194.304	64.85
194.525	69.08
194.745	60.8
194.966	87.07
195.187	74.37
195.407	64.96
195.628	68.23
195.848	78.37
196.069	85.35
196.29	73.83
196.51	30.63
196.731	27.06
196.951	38.38
197.172	30.58
197.392	56.39
197.613	99.19
197.833	82.52
198.054	104.32
198.274	77.02
198.495	52.24
198.715	35.15
198.936	39.59
199.156	35.24
199.377	26.59
199.597	36.64
199.817	53.62
200.038	33.96
200.258	20.9
200.479	-15.73
200.699	-12.39
200.919	-79.71
201.14	4.48
201.36	-2.75
201.58	21.17
201.801	3.89
202.021	18.32
202.241	-10.64
202.461	5.05
202.682	19.47
202.902	-2.84
203.122	-3.48
203.342	13.41
203.563	-19.72
203.783	-29.2
204.003	22.5
204.223	42.1
204.443	39.4
204.663	42.28
204.884	68.06
205.104	58.44
205.324	28.36
205.544	31.06
205.764	40.47
205.984	-20.27
206.204	-21.38
206.424	6.95
206.644	39.74
206.864	42.82
207.084	46.68
207.304	61.01
207.525	57.19
207.745	41.72
207.964	58.28
208.184	62.94
208.404	55.97
208.624	53.62
208.844	47.67
209.064	52.86
209.284	54.46
209.504	39.87
209.724	26.77
209.944	34.55
210.164	12.01
210.384	23.59
210.604	28.41
210.823	72.91
211.043	36.49
211.263	20.63
211.483	25.17
211.703	54.83
211.922	52.29
212.142	41.24
212.362	56.35
212.582	50.71
212.801	34.44
213.021	33.99
213.241	46.07
213.461	58.42
213.68	64.11
213.9	35.89
214.12	12.13
214.339	27.06
214.559	18.91
214.779	13.34
214.998	34.84
215.218	56.88
215.438	47.68
215.657	36.34
215.877	40
216.096	25.16
216.316	6.94
216.535	-14.92
216.755	-33.97
216.974	-9.17
217.194	22.17
217.413	50.3
217.633	52.51
217.852	64.05
218.072	71.04
218.291	51.34
218.511	42.99
218.73	41.29
218.95	27.69
219.169	17.72
219.389	18.73
219.608	13.24
219.827	5.82
220.047	25.23
220.266	13.23
220.485	26.94
220.705	38.21
220.924	43.43
221.143	31.12
221.363	46.13
221.582	35.82
221.801	2.5
222.021	3.04
222.24	1.88
222.459	-51.56
222.678	-11.83
222.897	1.32
223.117	-32.51
223.336	-133.21
223.555	-7.95
223.774	-0.42
223.993	-27.18
224.213	-22.19
224.432	11.64
224.651	10.02
224.87	0.09
225.089	-0.74
225.308	-17.39
225.527	-21.2
225.746	-49.61
225.965	-19.81
226.184	-51.34
226.404	42.09
226.623	63.64
226.842	78.65
227.061	37.88
227.28	52.43
227.499	37.75
227.718	17.95
227.936	-1.37
228.155	30.61
228.374	28.94
228.593	25.85
228.812	19.15
229.031	20.18
229.25	34.19
229.469	-1.37
229.688	-20.04
229.907	-72.01
230.125	-74.51
230.344	-81.3
230.563	-38.44
230.782	-16.47
231.001	23.63
231.22	16.4
231.438	7.99
231.657	-0.62
231.876	1.81
232.095	-18.71
232.313	-21.97
232.532	-35.28
232.751	1.37
232.969	3.78
233.188	13.38
233.407	16.43
233.625	37.59
233.844	38.26
234.063	33.63
234.281	55.19
234.5	55.98
234.719	66.14
234.937	43.77
235.156	29.6
235.374	20.46
235.593	36.7
235.811	7.79
236.03	6.74
236.249	33.75
236.467	35.04
236.686	29.85
236.904	45.42
237.123	54.52
237.341	35.67
237.559	42.03
237.778	38.75
237.996	31.49
238.215	29.94
238.433	37.42
238.652	27.53
238.87	33.68
239.088	42.82
239.307	46.59
239.525	43.31
239.743	55.04
239.962	59.12
240.18	63.29
240.398	73.59
240.617	71.15
240.835	41.25
241.053	22.87
241.271	-14.21
241.49	-43.67
241.708	-19.59
241.926	-15.23
242.144	4.49
242.363	22.76
242.581	32.35
242.799	25.45
243.017	36.99
243.235	66.74
243.453	62.85
243.672	54.93
243.89	56.01
244.108	60.05
244.326	13.49
244.544	12.16
244.762	23.08
244.98	14.23
245.198	-9.79
245.416	10.28
245.634	8.27
245.852	-7.36
246.07	5.41
246.288	10.78
246.506	44.31
246.724	48.34
246.942	62.1
247.16	36.58
247.378	28.74
247.596	5.02
247.814	7.45
248.032	3.18
248.25	-4.5
248.468	-9.67
248.685	-12.79
248.903	-48.84
249.121	-54.06
249.339	-30.73
249.557	-8.82
249.775	-6.1
249.992	28.03
250.21	19.2
250.428	14.06
250.646	-5.96
250.863	-3
251.081	-13.18
251.299	-3.62
251.517	4.81
251.734	17.74
251.952	29.2
252.17	19.02
252.387	-11.23
252.605	-2.32
252.823	6.45
253.04	-31.9
253.258	-13.28
253.475	18.87
253.693	10.53
253.911	3.72
254.128	13.39
254.346	32.15
254.563	12.43
254.781	28.12
254.998	35.21
255.216	19.42
255.433	-1.85
255.651	17.08
255.868	-39.38
256.086	-58.03
256.303	-21.33
256.521	-0.51
256.738	-19.66
256.956	37.52
257.173	58.18
257.39	40.71
257.608	20.92
257.825	17.75
258.043	-26.73
258.26	18.91
258.477	22.09
258.695	36.25
258.912	43.85
259.129	49.22
259.346	30.49
259.564	55.47
259.781	55.61
259.998	57.65
260.216	53.37
260.433	47.55
260.65	16.78
260.867	31.7
261.084	11.94
261.302	3.82
261.519	10.69
261.736	40.44
261.953	28.7
262.17	36.3
262.387	37.77
262.604	45.99
262.822	32.71
263.039	27.23
263.256	25.44
263.473	25.19
263.69	31.76
263.907	30.13
264.124	17.24
264.341	9.8
264.558	-1.86
264.775	7.61
264.992	11.69
265.209	15.82
265.426	22.97
265.643	45.27
265.86	42.31
266.077	61.75
266.294	70.36
266.51	69.59
266.727	66.37
266.944	66.74
267.161	45.82
267.378	41.66
267.595	33.26
267.812	19.79
268.028	-4.16
268.245	0.86
268.462	6.95
268.679	12.01
268.896	6.2
269.112	39.31
269.329	36.65
269.546	-4
269.763	-10.34
269.979	-5.15
270.196	3.73
270.413	12.91
270.629	22.04
270.846	40.31
271.063	39.47
271.279	32.56
271.496	35.18
271.712	24.28
271.929	20.06
272.146	33.67
272.362	29.91
272.579	33.49
272.795	26.42
273.012	21.91
273.228	23.09
273.445	14.22
273.661	14.42
273.878	29.94
274.094	17.73
274.311	5.52
274.527	-3.28
274.744	-18.42
274.96	-21.32
275.177	-42.65
275.393	-11.57
275.609	-5.56
275.826	-3.17
276.042	-5.89
276.259	4.84
276.475	-18.07
276.691	-7.99
276.908	3.31
277.124	21.42
277.34	18.19
277.557	15.76
277.773	23.21
277.989	26.55
278.205	21.26
278.422	31.95
278.638	34.43
278.854	18.81
279.07	10.6
279.286	10.94
279.503	20.65
279.719	17.18
279.935	27.61
280.151	34.09
280.367	34.46
280.583	8.25
280.799	24.84
281.016	24.25
281.232	7.29
281.448	-7.56
281.664	13.91
281.88	17.04
282.096	28.38
282.312	19.98
282.528	13.12
282.744	8.5
282.96	-0.82
283.176	-0.47
283.392	17.36
283.608	27.97
283.824	24.3
284.04	34.66
284.256	22.65
284.471	6.71
284.687	5.18
284.903	13.24
285.119	-15.31
285.335	-20.45
285.551	0.46
285.767	18.57
285.982	21.85
286.198	37.76
286.414	46.33
286.63	32.87
286.846	10.09
287.061	0.08
287.277	-16.26
287.493	-20.95
287.709	-46.91
287.924	-22.88
288.14	-14.74
288.356	-12.15
288.571	0.45
288.787	3.6
289.003	-11.31
289.218	-11.46
289.434	6.42
289.65	13.44
289.865	18.75
290.081	28.06
290.296	6.85
290.512	13.15
290.727	-4.58
290.943	24.55
291.159	30.43
291.374	52.91
291.59	47.28
291.805	56
292.021	58.5
292.236	60.11
292.451	44.36
292.667	47.91
292.882	38.26
293.098	6.05
293.313	3.33
293.529	16.77
293.744	13.15
293.959	22.58
294.175	33.93
294.39	28.76
294.605	21.01
294.821	10.72
295.036	2.49
295.251	3.35
295.467	7.56
295.682	37.38
295.897	46.19
296.112	53.59
296.328	57.68
296.543	53.45
296.758	37.5
296.973	35.58
297.188	28.49
297.404	36.3
297.619	38.08
297.834	29.86
298.049	27.82
298.264	28.48
298.479	6.42
298.694	4.78
298.909	20.94
299.125	20.93
299.34	9.35
299.555	17.42
299.77	-3.48
299.985	3.27
300.2	17.35
300.415	14.12
300.63	-3.97
300.845	35.19
301.06	42.66
301.275	5.22
301.49	28.45
301.704	46.19
301.919	52.29
302.134	55.53
302.349	64.89
302.564	62.86
302.779	57.9
302.994	36.48
303.209	29.74
303.423	14.72
303.638	20.2
303.853	15.52
304.068	37.62
304.283	41.75
304.497	55.1
304.712	51.51
304.927	49.01
305.142	35.86
305.356	27.2
305.571	19.17
305.786	32.47
306	33.5
306.215	37.11
306.43	35.74
306.644	34.48
306.859	26.23
307.074	33.45
307.288	41.39
307.503	34.85
307.717	27.36
307.932	23.64
308.147	21.69
308.361	9.99
308.576	7.26
308.79	31.82
309.005	30.96
309.219	31.92
309.434	21.66
309.648	29.6
309.863	-2.58
310.077	-18.89
310.292	-33.79
310.506	-16.27
310.72	5.63
310.935	18.35
311.149	14.34
311.364	24.71
311.578	13.38
311.792	29.6
312.007	12.06
312.221	11.19
312.435	15.13
312.649	29.5
312.864	9.44
313.078	23.9
313.292	28.47
313.507	18.17
313.721	17.13
313.935	11.97
314.149	2.61
314.363	3.76
314.578	14.92
314.792	12.31
315.006	-15.98
315.22	-7.22
315.434	9.88
315.648	-12.91
315.862	3.3
316.077	22.98
316.291	25.74
316.505	9.73
316.719	25.15
316.933	28.65
317.147	21.18
317.361	12.05
317.575	19.29
317.789	9.12
318.003	0.27
318.217	6.29
318.431	5.48
318.645	-26.48
318.859	-19.75
319.073	-27.23
319.287	-8.57
319.5	9.95
319.714	39.1
319.928	45.68
320.142	44.69
320.356	34.5
320.57	41.99
320.784	28.9
320.997	14.27
321.211	33.57
321.425	33.55
321.639	29
321.853	16.96
322.066	30.24
322.28	12.23
322.494	2.94
322.707	-22.7
322.921	-6.33
323.135	-17.21
323.349	4.18
323.562	15.83
323.776	33.28
323.989	29.66
324.203	43.26
324.417	26.72
324.63	42.32
324.844	21.46
325.057	13.83
325.271	-3.21
325.485	-2.29
325.698	-43.54
325.912	-26.59
326.125	-1.04
326.339	-4.67
326.552	-4.21
326.766	11.68
326.979	15.45
327.193	6.62
327.406	17.3
327.619	29.76
327.833	0.09
328.046	-3.2
328.26	-6.06
328.473	-1.39
328.686	-0.42
328.9	12.55
329.113	25.74
329.326	36.15
329.54	46.26
329.753	65.19
329.966	83.11
330.179	69.77
330.393	71.06
330.606	62.79
330.819	50.18
331.032	30.75
331.246	37.69
331.459	33.01
331.672	9.43
331.885	16.75
332.098	7.69
332.311	31.86
332.525	49.15
332.738	48.75
332.951	47.75
333.164	50.39
333.377	47.64
333.59	36.68
333.803	41.63
334.016	24.04
334.229	19.48
334.442	-21.93
334.655	-25.09
334.868	-39.67
335.081	-33.04
335.294	-33.44
335.507	13.06
335.72	14.42
335.933	19.75
336.146	16.59
336.359	19.07
336.572	6.19
336.785	14.11
336.997	23.9
337.21	28.24
337.423	27.38
337.636	35.15
337.849	18.91
338.062	22.6
338.274	21.84
338.487	35.32
338.7	32.24
338.913	42.14
339.125	35.67
339.338	38.42
339.551	21.26
339.763	9.51
339.976	6.86
340.189	7.41
340.402	6.44
340.614	12.77
340.827	21.04
341.039	21.16
341.252	31.77
341.465	29.39
341.677	34.54
341.89	35.35
342.102	22.91
342.315	22.58
342.527	15.69
342.74	11.98
342.952	11.62
343.165	39.23
343.377	10.63
343.59	20.78
343.802	19.37
344.015	-9.98
344.227	-27.22
344.44	-2.8
344.652	3.36
344.864	-0.86
345.077	26.59
345.289	1.73
345.502	-17.86
345.714	-21.02
345.926	-7.99
346.139	-26.78
346.351	-0.8
346.563	13.31
346.775	15.96
346.988	19.06
347.2	39.65
347.412	32.7
347.624	28.26
347.837	16.82
348.049	20.6
348.261	-0.88
348.473	-10.4
348.685	-3.85
348.897	19.63
349.11	3.01
349.322	9.32
349.534	12.99
349.746	12.76
349.958	5.34
350.17	10.94
350.382	3.76
350.594	12.94
350.806	19.22
351.018	26.29
351.23	21.46
351.442	31.09
351.654	20.73
351.866	14.55
352.078	6.09
352.29	12.35
352.502	0.08
352.714	4.47
352.926	2.87
353.138	1.4
353.35	2.48
353.561	24.63
353.773	31.98
353.985	40.62
354.197	34.85
354.409	43.5
354.621	35.51
354.832	34.47
355.044	33.74
355.256	30.49
355.468	15.45
355.679	21.19
355.891	25.58
356.103	35.76
356.314	52.1
356.526	55.84
356.738	52.66
356.949	50.15
357.161	34.51
357.373	21.86
357.584	28.02
357.796	21.59
358.008	22.66
358.219	23.82
358.431	20.85
358.642	12.59
358.854	4.76
359.065	0.4
359.277	18.05
359.488	26.09
359.7	24.77
359.911	36.71
360.123	34.88
360.334	24.1
360.546	24.71
360.757	45.49
360.969	32.69
361.18	45
361.391	46.35
361.603	38.63
361.814	23.15
362.025	16.85
362.237	18.6
362.448	12.15
362.659	16.48
362.871	17.64
363.082	20.4
363.293	5.82
363.504	11.25
363.716	22.98
363.927	25.48
364.138	27.55
364.349	31.99
364.56	24.89
364.772	31
364.983	20.57
365.194	17.18
365.405	15.97
365.616	21.94
365.827	9.07
366.038	18.01
366.25	14.06
366.461	22.23
366.672	18.54
366.883	17.42
367.094	24.85
367.305	33.24
367.516	19.09
367.727	30.29
367.938	30.4
368.149	18.19
368.36	14.06
368.571	20.54
368.781	8.22
368.992	0.41
369.203	18.42
369.414	22.38
369.625	9.86
369.836	13.37
370.047	20.85
370.258	14.55
370.468	18.64
370.679	41.14
370.89	38.85
371.101	38.47
371.312	29.82
371.522	17.57
371.733	21.42
371.944	27.23
372.155	20.14
372.365	20.49
372.576	37.26
372.787	22.08
372.997	15.15
373.208	16.81
373.419	6.35
373.629	-4.03
373.84	-0.72
374.05	-7.81
374.261	-3.16
374.472	12.99
374.682	10.22
374.893	6.89
375.103	11.2
375.314	27.06
375.524	36.36
375.735	26.28
375.945	34.09
376.156	34.98
376.366	17.48
376.577	7.4
376.787	9.38
376.997	2.84
377.208	6.64
377.418	2.5
377.629	1.89
377.839	11.74
378.049	13.44
378.26	-0.56
378.47	9.57
378.68	10.15
378.89	13.46
379.101	16.34
379.311	23.22
379.521	30.02
379.732	29.73
379.942	23.21
380.152	28.47
380.362	26.92
380.572	17.97
380.783	24.96
380.993	19.57
381.203	11.32
381.413	-1.8
381.623	1.38
381.833	-5.08
382.043	1.87
382.253	1.43
382.463	20.07
382.674	15.21
382.884	14.02
383.094	12.44
383.304	16.67
383.514	9.4
383.724	11.49
383.934	10.76
384.144	11.97
384.353	5.44
384.563	4.04
384.773	0.84
384.983	0.93
385.193	-3.14
385.403	2
385.613	2.89
385.823	7.93
386.033	8.86
386.242	12.52
386.452	9.17
386.662	13.92
386.872	10.69
387.082	4.99
387.291	3.93
387.501	4.04
387.711	-1.06
387.921	2.75
388.13	8.55
388.34	6.76
388.55	11.38
388.759	13.25
388.969	11.74
389.179	11.1
389.388	9.94
389.598	10.45
389.807	8.8
390.017	9.62
390.227	8.19
390.436	9.56
390.646	5.68
390.855	5.33
391.065	3.02
391.274	3.7
391.484	5.34
391.693	5.95
391.903	5.76
392.112	8.35
392.322	7.64
392.531	5.79
392.74	5.68
392.95	7.66
393.159	5.3
393.369	5.93
393.578	5.99
393.787	6.32
393.997	4.67
394.206	6.17
394.415	6.15
394.625	6.64
394.834	6.97
395.043	7.42
395.252	6.91
395.462	6.36
395.671	5.17
395.88	4.48
396.089	4.45
396.298	4.43
396.508	4.52
396.717	4.94
396.926	4.69
397.135	3.96
397.344	3.95
397.553	3.64
397.762	3.47
397.971	3.58
398.181	3.86
398.39	4.29
398.599	4.28
398.808	4.62
399.017	4.31
399.226	4.22
399.435	3.61
399.644	3.91
399.853	3.84
400.062	4.25
400.27	4.21
400.479	4.4
400.688	4.44
400.897	4.57
401.106	4.51
401.315	4.8
401.524	4.85
401.733	4.32
401.941	3.98
402.15	4.07
402.359	4.11
402.568	3.97
402.777	4.22
402.985	4.48
403.194	4.45
403.403	4.27
403.612	4.26
403.82	4.19
404.029	4.1
404.238	4.16
404.446	4
404.655	3.94
404.864	3.9
405.072	3.95
405.281	3.89
405.489	3.97
405.698	4.02
405.906	4.17
406.115	4.2
406.324	4.16
406.532	4.11
406.741	4.08
406.949	4.06
407.158	3.94
407.366	4.03
407.574	4.05
407.783	4.09
407.991	4.03
408.2	3.92
408.408	3.76
408.617	3.82
408.825	3.76
409.033	3.75
409.242	3.81
409.45	3.64
409.658	3.71
409.867	3.79
410.075	3.85
410.283	3.87
410.491	4
410.7	3.98
410.908	3.84
411.116	3.71
411.324	3.66
411.533	3.58
411.741	3.48
411.949	3.47
412.157	3.52
412.365	3.53
412.573	3.68
412.781	3.73
412.99	3.88
413.198	3.88
413.406	3.94
413.614	3.84
413.822	3.84
414.03	3.76
414.238	3.76
414.446	3.69
414.654	3.75
414.862	3.75
415.07	3.69
415.278	3.65
415.486	3.66
415.694	3.75
415.902	3.7
416.109	3.7
416.317	3.65
416.525	3.59
416.733	3.54
416.941	3.47
417.149	3.55
417.357	3.51
417.564	3.52
417.772	3.32
417.98	3.53
418.188	3.64
418.395	3.76
418.603	3.77
418.811	3.98
419.019	3.7
419.226	3.42
419.434	3.28
419.642	3.23
419.849	3.06
420.057	3.18
420.265	3.17
420.472	3.29
420.68	3.34
420.887	3.34
421.095	3.21
421.302	3.31
421.51	3.09
421.717	3.09
421.925	3
422.132	3.1
422.34	3.09
422.547	3.25
422.755	3.11
422.962	3.27
423.17	3.24
423.377	3.31
423.585	3.34
423.792	3.33
423.999	3.26
424.207	3.2
424.414	2.93
424.621	2.65
424.829	2.69
425.036	2.75
425.243	2.81
425.451	2.99
425.658	3.26
425.865	3.39
426.072	3.26
426.28	3.19
426.487	3.27
426.694	3.16
426.901	3.16
427.108	3.3
427.315	3.61
427.523	3.5
427.73	3.58
427.937	3.75
428.144	3.66
428.351	3.52
428.558	3.38
428.765	3.35
428.972	3.21
429.179	3.14
429.386	2.97
429.593	3.24
429.8	3.45
430.007	3.44
430.214	3.6
430.421	3.83
430.628	3.8
430.835	3.79
431.042	3.68
431.249	3.72
431.456	3.75
431.662	3.85
431.869	3.88
432.076	3.91
432.283	3.85
432.49	3.84
432.697	3.72
432.903	3.69
433.11	3.66
433.317	3.73
433.524	3.69
433.73	3.78
433.937	3.73
434.144	3.84
434.35	3.68
434.557	3.72
434.764	3.67
434.97	3.79
435.177	3.81
435.384	4.1
435.59	4.07
435.797	4.05
436.003	3.9
436.21	3.9
436.416	3.86
436.623	3.81
436.829	3.96
437.036	3.97
437.242	3.96
437.449	3.91
437.655	3.89
437.862	3.87
438.068	3.83
438.275	3.86
438.481	3.74
438.687	3.83
438.894	3.91
439.1	3.99
439.307	3.88
439.513	3.96
439.719	3.89
439.926	3.8
440.132	3.91
440.338	4.1
440.544	4.1
440.751	4.3
440.957	4.26
441.163	4.24
441.369	4.29
441.575	4.42
441.782	4.41
441.988	4.51
442.194	4.47
442.4	4.33
442.606	4.37
442.812	4.33
443.018	4.26
443.224	4.21
443.431	4.21
443.637	4.22
443.843	4.24
444.049	4.23
444.255	4.42
444.461	4.49
444.667	4.52
444.873	4.42
445.079	4.47
445.284	4.36
445.49	4.44
445.696	4.33
445.902	4.37
446.108	4.45
446.314	4.5
446.52	4.57
446.726	4.63
446.931	4.82
447.137	4.8
447.343	4.8
447.549	4.73
447.755	4.75
447.96	4.57
448.166	4.56
448.372	4.61
448.578	4.63
448.783	4.6
448.989	4.67
449.195	4.61
449.4	4.6
449.606	4.58
449.812	4.65
450.017	4.73
450.223	4.85
450.428	4.99
450.634	4.96
450.84	4.97
451.045	5.04
451.251	5.07
451.456	4.96
451.662	4.82
451.867	4.72
452.073	4.58
452.278	4.54
452.483	4.58
452.689	4.73
452.894	4.83
453.1	4.8
453.305	4.81
453.51	4.8
453.716	4.82
453.921	4.91
454.127	4.95
454.332	4.93
454.537	4.96
454.742	5.12
454.948	5.08
455.153	5.15
455.358	5.23
455.563	5.04
455.769	4.93
455.974	4.94
456.179	4.93
456.384	4.85
456.589	5.11
456.795	5.08
457	5.07
457.205	5.03
457.41	5.17
457.615	5.12
457.82	5.11
458.025	5.12
458.23	5.19
458.435	5.01
458.64	5.06
458.845	5.19
459.05	5.24
459.255	5.21
459.46	5.27
459.665	5.23
459.87	5.18
460.075	5.19
460.28	5.32
460.485	5.37
460.69	5.38
460.895	5.41
461.099	5.38
461.304	5.23
461.509	5.21
461.714	5.28
461.919	5.22
462.123	5.24
462.328	5.29
462.533	5.35
462.738	5.37
462.942	5.42
463.147	5.48
463.352	5.5
463.556	5.55
463.761	5.48
463.966	5.4
464.17	5.43
464.375	5.49
464.58	5.49
464.784	5.52
464.989	5.68
465.193	5.61
465.398	5.55
465.602	5.44
465.807	5.52
466.011	5.45
466.216	5.52
466.42	5.64
466.625	5.79
466.829	5.75
467.034	5.79
467.238	5.72
467.443	5.66
467.647	5.62
467.851	5.68
468.056	5.7
468.26	5.79
468.464	5.81
