Data from Ofav_PP_Phys_2EV3_Reflection_3.txt Node
Date: Tue Aug 03 18:15:36 EDT 2021
User: Adam
Spectrometer: FLMT01687
Trigger mode: 0
Integration Time (sec): 8.750000E-1
Scans to average: 2
Electric dark correction enabled: true
Nonlinearity correction enabled: false
Boxcar width: 2
XAxis mode: Wavelengths
Number of Pixels in Spectrum: 3648
>>>>>Begin Spectral Data<<<<<
179.494	286.34
179.716	321.77
179.937	484.26
180.158	659.19
180.38	2174.56
180.601	115.3
180.823	142.49
181.044	-7.73
181.265	94.11
181.486	-261.44
181.708	-5.83
181.929	-68.55
182.15	-119.32
182.372	44.09
182.593	1.48
182.814	144.14
183.035	129.43
183.257	299.02
183.478	304.08
183.699	317.07
183.92	132.92
184.141	82.24
184.363	107.3
184.584	-19.78
184.805	53.61
185.026	45.87
185.247	43.23
185.468	34.05
185.689	27.21
185.91	28.26
186.132	18.3
186.353	45.53
186.574	10.87
186.795	50.99
187.016	39.13
187.237	48.03
187.458	55.88
187.679	54.81
187.9	38.52
188.121	39.17
188.342	19.92
188.563	14.3
188.784	15.68
189.005	14.17
189.226	32.51
189.447	46.88
189.667	42.2
189.888	54.99
190.109	86.01
190.33	68.89
190.551	96.38
190.772	126.01
190.993	113.82
191.214	111.77
191.434	107.24
191.655	63.79
191.876	46.05
192.097	60.41
192.318	55.57
192.538	49.97
192.759	65.4
192.98	78.91
193.201	78.85
193.421	67.32
193.642	81.45
193.863	73.57
194.083	64.66
194.304	79.83
194.525	86.85
194.745	98.26
194.966	111.57
195.187	128.51
195.407	95.81
195.628	84.83
195.848	83.97
196.069	98.62
196.29	59.28
196.51	69.94
196.731	86.4
196.951	57.03
197.172	89.59
197.392	154.51
197.613	171.21
197.833	142.96
198.054	170.92
198.274	85.82
198.495	72.79
198.715	72.89
198.936	90.16
199.156	85.22
199.377	60.33
199.597	66.16
199.817	63.73
200.038	45.76
200.258	46.72
200.479	34.66
200.699	16.75
200.919	-31.4
201.14	31.26
201.36	20.11
201.58	48.93
201.801	20.91
202.021	36.18
202.241	22.7
202.461	38.69
202.682	65.57
202.902	123.83
203.122	125.31
203.342	145.14
203.563	124.2
203.783	67.51
204.003	48.5
204.223	44.16
204.443	12.55
204.663	23.86
204.884	17.8
205.104	2.64
205.324	-2.16
205.544	-1.08
205.764	5.98
205.984	0.32
206.204	0.3
206.424	-17.28
206.644	45.04
206.864	34.04
207.084	66.64
207.304	64.15
207.525	88.62
207.745	113.48
207.964	104.92
208.184	67.43
208.404	100.02
208.624	79.23
208.844	63.1
209.064	77.97
209.284	96.38
209.504	62.96
209.724	48.2
209.944	44.92
210.164	20.8
210.384	39.06
210.604	16.04
210.823	83.85
211.043	55.67
211.263	72.97
211.483	58.5
211.703	93.65
211.922	74.6
212.142	69.85
212.362	62.7
212.582	46.25
212.801	38.98
213.021	51.47
213.241	44.21
213.461	64.71
213.68	75.11
213.9	60.64
214.12	55.43
214.339	69.54
214.559	83.76
214.779	90.81
214.998	102.67
215.218	110.91
215.438	101
215.657	95.49
215.877	91.39
216.096	74.54
216.316	59.2
216.535	69.21
216.755	54.66
216.974	65.92
217.194	109.67
217.413	147.41
217.633	122.1
217.852	127.49
218.072	118.51
218.291	83.22
218.511	46.23
218.73	72.28
218.95	61.86
219.169	69.34
219.389	81.36
219.608	89.63
219.827	49.09
220.047	40.05
220.266	35.01
220.485	57.9
220.705	56.74
220.924	71.12
221.143	55.21
221.363	85.29
221.582	79.73
221.801	59.1
222.021	54.22
222.24	76.9
222.459	32.17
222.678	38.57
222.897	86.83
223.117	92.77
223.336	-49.52
223.555	0.48
223.774	-35.21
223.993	-71.66
224.213	-56.85
224.432	36.92
224.651	30.12
224.87	30.29
225.089	14.16
225.308	10.92
225.527	-15.52
225.746	-35.63
225.965	-36.75
226.184	-81.61
226.404	-30.8
226.623	-7.65
226.842	22.54
227.061	-0.96
227.28	25.18
227.499	45.64
227.718	31.04
227.936	24.05
228.155	55.62
228.374	56.53
228.593	42.5
228.812	27.43
229.031	2.98
229.25	11.34
229.469	-28.35
229.688	-77.68
229.907	-103.06
230.125	-84.99
230.344	-33.3
230.563	-30.26
230.782	-5.94
231.001	40.04
231.22	49.48
231.438	41.18
231.657	41.34
231.876	36.77
232.095	22.39
232.313	12.21
232.532	-12.46
232.751	23.72
232.969	35.58
233.188	31.98
233.407	29.92
233.625	47.32
233.844	26
234.063	20.89
234.281	7.1
234.5	5.49
234.719	-5.44
234.937	2.34
235.156	-14.5
235.374	0.13
235.593	14.78
235.811	17.66
236.03	35.32
236.249	73.09
236.467	67.84
236.686	59.84
236.904	53.52
237.123	53.74
237.341	55.08
237.559	62.17
237.778	61.32
237.996	45.94
238.215	36.08
238.433	18.85
238.652	18.53
238.87	24.68
239.088	42.19
239.307	41.15
239.525	50.59
239.743	54.9
239.962	71.79
240.18	88.47
240.398	121.83
240.617	113.2
240.835	81.17
241.053	51.8
241.271	-18.82
241.49	-45.15
241.708	5.02
241.926	-3.61
242.144	-4.49
242.363	24.34
242.581	22.3
242.799	6.6
243.017	17.04
243.235	42.3
243.453	48.96
243.672	63.14
243.89	72.75
244.108	82.25
244.326	67.73
244.544	66.11
244.762	69.09
244.98	41.23
245.198	21.86
245.416	45.99
245.634	44.9
245.852	39.91
246.07	61.89
246.288	68.33
246.506	60.96
246.724	51.09
246.942	47.19
247.16	33.98
247.378	10.76
247.596	17.59
247.814	18.54
248.032	30.35
248.25	43.19
248.468	54.25
248.685	35.7
248.903	14.72
249.121	-1.35
249.339	-5.49
249.557	16.42
249.775	13.22
249.992	55.07
250.21	47.8
250.428	44.33
250.646	24.12
250.863	26.69
251.081	4.82
251.299	7.61
251.517	38.07
251.734	61.26
251.952	68.58
252.17	51.45
252.387	35.59
252.605	-31.34
252.823	-68.79
253.04	-30.07
253.258	26.7
253.475	65.26
253.693	67.18
253.911	83.61
254.128	90.32
254.346	54.72
254.563	45.36
254.781	56.2
254.998	54.94
255.216	29.32
255.433	39.61
255.651	30.17
255.868	-6.82
256.086	-40.35
256.303	-16.55
256.521	9.36
256.738	8.88
256.956	55.27
257.173	79.78
257.39	95.8
257.608	91.36
257.825	58.52
258.043	44.41
258.26	51.42
258.477	43.68
258.695	33.28
258.912	56.9
259.129	41.29
259.346	54.59
259.564	38.79
259.781	42.35
259.998	48.85
260.216	49.78
260.433	31.42
260.65	43.29
260.867	40.38
261.084	34.77
261.302	31.41
261.519	37.79
261.736	58.06
261.953	60.01
262.17	59.73
262.387	72.93
262.604	73.47
262.822	65.55
263.039	69.03
263.256	72.57
263.473	69.76
263.69	76.49
263.907	75.51
264.124	45.57
264.341	33.84
264.558	49.11
264.775	47.5
264.992	48.46
265.209	73.15
265.426	51.01
265.643	29.71
265.86	25.14
266.077	20.02
266.294	23.23
266.51	39.59
266.727	47.35
266.944	53.44
267.161	36.77
267.378	38.99
267.595	37.28
267.812	40.85
268.028	30.96
268.245	51.87
268.462	60.18
268.679	58.8
268.896	47.36
269.112	52.21
269.329	37.78
269.546	-18.3
269.763	15.57
269.979	21.67
270.196	17.6
270.413	17.54
270.629	33.94
270.846	41.72
271.063	38.24
271.279	55.38
271.496	72.9
271.712	63.34
271.929	41.43
272.146	52.75
272.362	47.98
272.579	24.65
272.795	13.91
273.012	24.52
273.228	28.7
273.445	21.79
273.661	32.04
273.878	57.95
274.094	51.27
274.311	55.31
274.527	40.8
274.744	48.13
274.96	32.32
275.177	21.42
275.393	9.34
275.609	9.46
275.826	3.38
276.042	11.47
276.259	24.28
276.475	8.36
276.691	0.12
276.908	13.84
277.124	14.45
277.34	8.18
277.557	12.91
277.773	37.58
277.989	48.65
278.205	55.44
278.422	76.34
278.638	69.24
278.854	87.72
279.07	65.74
279.286	59.7
279.503	42.1
279.719	56.62
279.935	44.91
280.151	47.92
280.367	31.08
280.583	16.21
280.799	12.16
281.016	36.74
281.232	20.47
281.448	34.51
281.664	51.59
281.88	36.97
282.096	25.75
282.312	52.27
282.528	52.67
282.744	40.67
282.96	42.92
283.176	51.05
283.392	36.76
283.608	34.32
283.824	43.25
284.04	39.47
284.256	22.81
284.471	24.06
284.687	24.52
284.903	17.53
285.119	-6.47
285.335	-0.26
285.551	7.96
285.767	15.98
285.982	8.62
286.198	42.11
286.414	33.29
286.63	7.96
286.846	-4.76
287.061	5.24
287.277	-13.35
287.493	15.08
287.709	8.74
287.924	52
288.14	31.39
288.356	20.51
288.571	4.79
288.787	27.68
289.003	6.79
289.218	24.01
289.434	44.68
289.65	50.93
289.865	40
290.081	22.03
290.296	11.57
290.512	19.27
290.727	24.82
290.943	47.43
291.159	62.42
291.374	54.16
291.59	61.47
291.805	69.11
292.021	69.92
292.236	68.64
292.451	67.14
292.667	63.03
292.882	49.76
293.098	30.85
293.313	33.76
293.529	43.37
293.744	35.01
293.959	36.7
294.175	52.14
294.39	50.43
294.605	58.1
294.821	50.83
295.036	53.94
295.251	45.73
295.467	31.27
295.682	32.39
295.897	41.72
296.112	52.62
296.328	49.45
296.543	55.67
296.758	40.19
296.973	29.13
297.188	18.55
297.404	34.99
297.619	34.95
297.834	47.29
298.049	43.52
298.264	54.71
298.479	30.08
298.694	15.79
298.909	3.77
299.125	27.68
299.34	7.34
299.555	28.38
299.77	19.64
299.985	51.9
300.2	46.56
300.415	67.29
300.63	48.04
300.845	87.78
301.06	69.55
301.275	65.24
301.49	64.98
301.704	76.59
301.919	57.17
302.134	67.02
302.349	59.96
302.564	70.34
302.779	59.15
302.994	43.63
303.209	34.65
303.423	37.96
303.638	19.62
303.853	23.82
304.068	46.91
304.283	65.57
304.497	73.79
304.712	78.25
304.927	86.47
305.142	80.36
305.356	68.21
305.571	59
305.786	53.79
306	46.15
306.215	41.9
306.43	45.78
306.644	35.55
306.859	27.77
307.074	31.09
307.288	50.15
307.503	36.73
307.717	47.93
307.932	43.81
308.147	54.57
308.361	38.65
308.576	60.43
308.79	57.11
309.005	62.81
309.219	46.2
309.434	33.47
309.648	34.46
309.863	22.43
310.077	20.87
310.292	38.44
310.506	30.03
310.72	38.78
310.935	26.74
311.149	25.6
311.364	5.88
311.578	32.49
311.792	32.36
312.007	45.57
312.221	62.54
312.435	44.42
312.649	38.73
312.864	17.03
313.078	20.34
313.292	14.5
313.507	23.58
313.721	11.9
313.935	21.97
314.149	17.96
314.363	22.12
314.578	6.45
314.792	12.35
315.006	18.58
315.22	23.16
315.434	15.2
315.648	30.99
315.862	34.78
316.077	27.55
316.291	41.91
316.505	40.63
316.719	44.69
316.933	53.84
317.147	43.37
317.361	40.55
317.575	43.25
317.789	36.8
318.003	30.12
318.217	44.76
318.431	34.06
318.645	19.28
318.859	31.92
319.073	26.42
319.287	35.39
319.5	55.75
319.714	73.8
319.928	84.42
320.142	92.41
320.356	78.72
320.57	61.85
320.784	47.85
320.997	25.8
321.211	33.59
321.425	42.54
321.639	42.62
321.853	31.54
322.066	39.28
322.28	44.73
322.494	50.09
322.707	26.17
322.921	43.55
323.135	40.27
323.349	35.33
323.562	45.19
323.776	67.19
323.989	67.17
324.203	74.59
324.417	68.12
324.63	81.97
324.844	77.93
325.057	71.34
325.271	60.42
325.485	68.35
325.698	19.18
325.912	0.69
326.125	19.84
326.339	16.56
326.552	-14.82
326.766	26.86
326.979	39.93
327.193	36
327.406	38.76
327.619	69.97
327.833	40.63
328.046	31.09
328.26	19.01
328.473	16.64
328.686	21.49
328.9	34.36
329.113	36.62
329.326	53.96
329.54	70.98
329.753	79.74
329.966	81.91
330.179	85.92
330.393	87.5
330.606	73.3
330.819	65.58
331.032	55.42
331.246	68.87
331.459	56.04
331.672	35.43
331.885	43.96
332.098	64.88
332.311	42.42
332.525	46.32
332.738	46.79
332.951	41.79
333.164	32.56
333.377	37.74
333.59	29.53
333.803	30.58
334.016	20.72
334.229	17.86
334.442	-11.45
334.655	-11.66
334.868	-19.98
335.081	-16.67
335.294	-19.48
335.507	13.7
335.72	27.78
335.933	42.33
336.146	48.68
336.359	62.34
336.572	59.82
336.785	60.27
336.997	74.42
337.21	63.52
337.423	58.28
337.636	65.12
337.849	48.31
338.062	28.87
338.274	33.52
338.487	44.71
338.7	37.84
338.913	52.74
339.125	49.74
339.338	43.29
339.551	32.81
339.763	29.72
339.976	15.33
340.189	15.7
340.402	18.17
340.614	28.55
340.827	40
341.039	38.75
341.252	52.1
341.465	64.18
341.677	61.29
341.89	64.26
342.102	71.57
342.315	65.74
342.527	55.26
342.74	53.07
342.952	36.31
343.165	43.66
343.377	11.16
343.59	26.45
343.802	9.66
344.015	-8.22
344.227	-40.06
344.44	32.52
344.652	33.28
344.864	26.73
345.077	41.51
345.289	36.59
345.502	-35.78
345.714	-43.88
345.926	0.58
346.139	15
346.351	21.22
346.563	33.28
346.775	36.09
346.988	24.89
347.2	21.48
347.412	28.97
347.624	30.06
347.837	32.25
348.049	16.08
348.261	1.26
348.473	2.79
348.685	24.7
348.897	29.68
349.11	48.87
349.322	43.16
349.534	45.17
349.746	28.55
349.958	18.33
350.17	14.08
350.382	12
350.594	16.34
350.806	16.46
351.018	21.18
351.23	23.76
351.442	42.31
351.654	21.16
351.866	34.96
352.078	30.04
352.29	30.01
352.502	29.82
352.714	41.48
352.926	35.42
353.138	25.66
353.35	27.25
353.561	36.94
353.773	42.27
353.985	49.14
354.197	55.18
354.409	69.03
354.621	64.01
354.832	64.8
355.044	59.54
355.256	64.78
355.468	46.56
355.679	44.91
355.891	41.13
356.103	45.85
356.314	42.13
356.526	45.35
356.738	57.14
356.949	54.54
357.161	44.88
357.373	43.52
357.584	37.26
357.796	32.93
358.008	37.05
358.219	33.88
358.431	37.66
358.642	44.17
358.854	21.04
359.065	26.84
359.277	55.47
359.488	48.8
359.7	48.12
359.911	54.39
360.123	51.65
360.334	34.73
360.546	47.68
360.757	52.79
360.969	42.33
361.18	38.17
361.391	35.75
361.603	31.38
361.814	33.47
362.025	49.11
362.237	63.95
362.448	64.82
362.659	44.12
362.871	40.84
363.082	24.18
363.293	2.49
363.504	7.44
363.716	34.59
363.927	32.36
364.138	43.46
364.349	54.37
364.56	55.75
364.772	57.4
364.983	47.43
365.194	36.06
365.405	24.38
365.616	24.67
365.827	21.58
366.038	41
366.25	47.3
366.461	60.99
366.672	55.23
366.883	48.76
367.094	36.06
367.305	41.59
367.516	34.58
367.727	40.35
367.938	48.9
368.149	54.6
368.36	49.3
368.571	44.24
368.781	44.43
368.992	50.74
369.203	49.04
369.414	58.26
369.625	55.01
369.836	44.28
370.047	32.32
370.258	16.07
370.468	15.22
370.679	36.42
370.89	47.73
371.101	60.21
371.312	63.91
371.522	48.04
371.733	51.34
371.944	47.57
372.155	43.63
372.365	47.75
372.576	63.29
372.787	56.52
372.997	48.62
373.208	44.73
373.419	30.53
373.629	27.99
373.84	23.27
374.05	26.93
374.261	26.54
374.472	39.01
374.682	29.46
374.893	28.38
375.103	18.76
375.314	25.94
375.524	31.99
375.735	34.57
375.945	41.01
376.156	52.63
376.366	38.5
376.577	36.96
376.787	40.23
376.997	26.15
377.208	23.08
377.418	29.1
377.629	28.11
377.839	24.48
378.049	27.31
378.26	29.44
378.47	21.96
378.68	19.34
378.89	26.01
379.101	25.64
379.311	26.69
379.521	41.18
379.732	48.11
379.942	49.78
380.152	63.04
380.362	56.59
380.572	53.77
380.783	46.38
380.993	44.65
381.203	36.82
381.413	27.98
381.623	25.14
381.833	22.18
382.043	20.76
382.253	22.7
382.463	27
382.674	31.88
382.884	29.51
383.094	21.45
383.304	17.96
383.514	16.61
383.724	1.81
383.934	7.88
384.144	14.85
384.353	10.72
384.563	7.44
384.773	14.07
384.983	8.05
385.193	7.22
385.403	11.54
385.613	17.23
385.823	17.36
386.033	18.98
386.242	18.53
386.452	18.28
386.662	17.53
386.872	15.14
387.082	10.76
387.291	11.99
387.501	10.65
387.711	6.61
387.921	8.77
388.13	13.45
388.34	7.51
388.55	10.84
388.759	13.2
388.969	13.71
389.179	13.47
389.388	13.91
389.598	13.54
389.807	11.66
390.017	11.47
390.227	10.13
390.436	12.49
390.646	7.94
390.855	7.1
391.065	5.95
391.274	6.04
391.484	7.02
391.693	9.34
391.903	9.48
392.112	9.95
392.322	8.26
392.531	6.78
392.74	6.16
392.95	7.52
393.159	6.43
393.369	7.41
393.578	6.99
393.787	8.25
393.997	7.38
394.206	7.82
394.415	7.97
394.625	8.26
394.834	8.14
395.043	8.48
395.252	7.58
395.462	7.13
395.671	6.16
395.88	5.76
396.089	5.32
396.298	6.37
396.508	6.51
396.717	7.46
396.926	6.67
397.135	5.98
397.344	5.71
397.553	5.17
397.762	4.47
397.971	4.72
398.181	4.98
398.39	4.98
398.599	4.99
398.808	5.39
399.017	5.17
399.226	4.7
399.435	4.33
399.644	4.52
399.853	4.43
400.062	4.58
400.27	4.8
400.479	4.93
400.688	5.03
400.897	4.81
401.106	4.84
401.315	5.32
401.524	5.57
401.733	5.13
401.941	5.21
402.15	5.07
402.359	4.98
402.568	4.5
402.777	4.59
402.985	4.63
403.194	4.82
403.403	4.51
403.612	4.69
403.82	4.69
404.029	4.56
404.238	4.57
404.446	4.55
404.655	4.48
404.864	4.52
405.072	4.68
405.281	4.41
405.489	4.61
405.698	4.7
405.906	4.8
406.115	4.71
406.324	4.82
406.532	4.66
406.741	4.6
406.949	4.49
407.158	4.51
407.366	4.56
407.574	4.53
407.783	4.54
407.991	4.6
408.2	4.37
408.408	4.26
408.617	4.4
408.825	4.42
409.033	4.39
409.242	4.5
409.45	4.37
409.658	4.34
409.867	4.21
410.075	4.22
410.283	4.14
410.491	4.19
410.7	4.2
410.908	4.19
411.116	3.98
411.324	4.09
411.533	4.07
411.741	3.87
411.949	3.79
412.157	3.95
412.365	3.84
412.573	3.92
412.781	4.01
412.99	4.24
413.198	4.17
413.406	4.17
413.614	4.06
413.822	4.1
414.03	3.97
414.238	4.06
414.446	4.12
414.654	4.33
414.862	4.28
415.07	4.21
415.278	4.17
415.486	4.19
415.694	4.14
415.902	4.15
416.109	4.19
416.317	4.11
416.525	3.99
416.733	3.93
416.941	3.87
417.149	3.91
417.357	3.98
417.564	3.96
417.772	3.84
417.98	3.94
418.188	3.98
418.395	3.85
418.603	3.84
418.811	4.03
419.019	3.93
419.226	3.9
419.434	3.77
419.642	3.92
419.849	3.67
420.057	3.69
420.265	3.47
420.472	3.79
420.68	3.61
420.887	3.79
421.095	3.58
421.302	3.71
421.51	3.45
421.717	3.53
421.925	3.32
422.132	3.62
422.34	3.67
422.547	3.82
422.755	3.77
422.962	4.05
423.17	4.01
423.377	4.1
423.585	4.04
423.792	4.06
423.999	3.84
424.207	3.79
424.414	3.52
424.621	3.42
424.829	3.47
425.036	3.59
425.243	3.47
425.451	3.65
425.658	3.72
425.865	3.75
426.072	3.65
426.28	3.69
426.487	3.68
426.694	3.54
426.901	3.39
427.108	3.57
427.315	3.77
427.523	3.57
427.73	3.82
427.937	3.94
428.144	3.9
428.351	3.77
428.558	3.73
428.765	3.7
428.972	3.77
429.179	3.61
429.386	3.41
429.593	3.62
429.8	3.84
430.007	3.74
430.214	3.86
430.421	4.11
430.628	4.12
430.835	4.02
431.042	3.89
431.249	3.93
431.456	4.12
431.662	4.17
431.869	4.08
432.076	4.07
432.283	4
432.49	3.92
432.697	4
432.903	4.25
433.11	4.37
433.317	4.27
433.524	4.07
433.73	4.12
433.937	3.85
434.144	3.94
434.35	3.99
434.557	4.23
434.764	4.24
434.97	4.37
435.177	4.37
435.384	4.53
435.59	4.48
435.797	4.39
436.003	4.11
436.21	4.05
436.416	4
436.623	3.91
436.829	3.84
437.036	4.04
437.242	4.08
437.449	4.07
437.655	4.13
437.862	4.18
438.068	4.18
438.275	4.22
438.481	4.14
438.687	4.18
438.894	4.27
439.1	4.33
439.307	4.04
439.513	4.09
439.719	4.11
439.926	4.13
440.132	4.24
440.338	4.63
440.544	4.58
440.751	4.58
440.957	4.44
441.163	4.43
441.369	4.35
441.575	4.51
441.782	4.64
441.988	4.82
442.194	4.8
442.4	4.82
442.606	4.69
442.812	4.56
443.018	4.36
443.224	4.32
443.431	4.25
443.637	4.46
443.843	4.47
444.049	4.66
444.255	4.82
444.461	4.92
444.667	4.89
444.873	4.79
445.079	4.74
445.284	4.64
445.49	4.68
445.696	4.69
445.902	4.75
446.108	4.83
446.314	4.88
446.52	4.9
446.726	4.95
446.931	5.05
447.137	4.96
447.343	4.89
447.549	4.97
447.755	4.92
447.96	4.95
448.166	5.05
448.372	4.97
448.578	4.95
448.783	5.01
448.989	4.99
449.195	4.9
449.4	4.92
449.606	4.9
449.812	4.93
450.017	4.9
450.223	5.02
450.428	5.23
450.634	5.12
450.84	5.08
451.045	5.18
451.251	5.15
451.456	5.07
451.662	4.94
451.867	4.83
452.073	4.83
452.278	4.8
452.483	4.71
452.689	4.96
452.894	5.03
453.1	5.01
453.305	5.16
453.51	5.25
453.716	5.32
453.921	5.45
454.127	5.45
454.332	5.44
454.537	5.42
454.742	5.37
454.948	5.26
455.153	5.32
455.358	5.19
455.563	5.17
455.769	5.16
455.974	5.23
456.179	5.23
456.384	5.18
456.589	5.3
456.795	5.29
457	5.37
457.205	5.24
457.41	5.38
457.615	5.35
457.82	5.35
458.025	5.34
458.23	5.42
458.435	5.34
458.64	5.34
458.845	5.29
459.05	5.21
459.255	5.22
459.46	5.27
459.665	5.28
459.87	5.39
460.075	5.47
460.28	5.53
460.485	5.51
460.69	5.52
460.895	5.51
461.099	5.53
461.304	5.47
461.509	5.56
461.714	5.58
461.919	5.57
462.123	5.53
462.328	5.55
462.533	5.58
462.738	5.64
462.942	5.64
463.147	5.71
463.352	5.6
463.556	5.64
463.761	5.51
463.966	5.47
464.17	5.51
464.375	5.67
464.58	5.68
464.784	5.76
464.989	5.9
465.193	5.91
465.398	5.86
465.602	5.7
465.807	5.79
466.011	5.67
466.216	5.52
466.42	5.6
466.625	5.72
466.829	5.71
467.034	5.76
467.238	5.8
467.443	5.73
467.647	5.81
