Data from Ofav_PP_Phys_9AZ7_Reflection_2.txt Node
Date: Tue Aug 03 18:16:17 EDT 2021
User: Adam
Spectrometer: FLMT01687
Trigger mode: 0
Integration Time (sec): 8.750000E-1
Scans to average: 2
Electric dark correction enabled: true
Nonlinearity correction enabled: false
Boxcar width: 2
XAxis mode: Wavelengths
Number of Pixels in Spectrum: 3648
>>>>>Begin Spectral Data<<<<<
179.494	186.64
179.716	217.53
179.937	241.04
180.158	398.29
180.38	462.28
180.601	19.79
180.823	18.43
181.044	25.31
181.265	-31.24
181.486	-71.39
181.708	49.9
181.929	135.46
182.15	26.01
182.372	314.14
182.593	75.74
182.814	292.12
183.035	-250.71
183.257	-551.96
183.478	303.2
183.699	16.67
183.92	22.8
184.141	18.7
184.363	69.44
184.584	-30.42
184.805	25.8
185.026	-18.21
185.247	-1.06
185.468	4.43
185.689	4.59
185.91	-17.1
186.132	-38.54
186.353	-18
186.574	-76.1
186.795	-44.3
187.016	-12.25
187.237	22.29
187.458	29.99
187.679	41.27
187.9	26.47
188.121	20.04
188.342	-7.04
188.563	-24.29
188.784	-23.86
189.005	-29.03
189.226	-28.68
189.447	-10.28
189.667	-7.64
189.888	7.03
190.109	49.54
190.33	62.26
190.551	101.46
190.772	132.34
190.993	117.54
191.214	93.94
191.434	66.64
191.655	23.94
191.876	16.09
192.097	7.27
192.318	10.05
192.538	19.42
192.759	14.62
192.98	-4.62
193.201	-23.2
193.421	-13.1
193.642	-19.26
193.863	3.96
194.083	82.86
194.304	75.5
194.525	95.64
194.745	70.37
194.966	86.56
195.187	75.49
195.407	81.66
195.628	75.15
195.848	69.76
196.069	65.52
196.29	12.54
196.51	10.25
196.731	20.07
196.951	10.2
197.172	19.16
197.392	36.88
197.613	36.33
197.833	20.22
198.054	93.43
198.274	64.45
198.495	65.86
198.715	60.96
198.936	87.27
199.156	40.03
199.377	54.41
199.597	52.35
199.817	70.71
200.038	38.86
200.258	67.23
200.479	1.25
200.699	-13.6
200.919	-72.85
201.14	-8.48
201.36	-15.95
201.58	2.04
201.801	-23.48
202.021	-2.09
202.241	-5
202.461	-0.47
202.682	27.75
202.902	43.61
203.122	30.19
203.342	42.43
203.563	-10.56
203.783	-35.44
204.003	1.66
204.223	14.36
204.443	-21.68
204.663	13.33
204.884	34.08
205.104	15.38
205.324	20.65
205.544	75.13
205.764	66.38
205.984	16.02
206.204	38
206.424	-59.1
206.644	-1.01
206.864	-0.03
207.084	33.72
207.304	16.59
207.525	80.54
207.745	75.73
207.964	34.11
208.184	30.79
208.404	39.53
208.624	25.55
208.844	10.63
209.064	25.87
209.284	28.85
209.504	22.81
209.724	6.6
209.944	26.73
210.164	21.61
210.384	29.45
210.604	27.09
210.823	90.28
211.043	67.65
211.263	62.86
211.483	55.24
211.703	69.83
211.922	57.12
212.142	21.47
212.362	12.86
212.582	16.63
212.801	0.54
213.021	2.76
213.241	-1.62
213.461	34.62
213.68	45.31
213.9	25.98
214.12	-1.89
214.339	14.75
214.559	5.32
214.779	-27.37
214.998	-1.95
215.218	39.61
215.438	30.54
215.657	28.82
215.877	36.72
216.096	28.67
216.316	4.77
216.535	-3.88
216.755	-19.27
216.974	0.59
217.194	25.79
217.413	62.91
217.633	62.93
217.852	63.39
218.072	72.75
218.291	46.66
218.511	18.77
218.73	51.64
218.95	54.63
219.169	46.01
219.389	61.48
219.608	65.09
219.827	41.72
220.047	18.59
220.266	15.38
220.485	21.35
220.705	30.11
220.924	23.1
221.143	35.29
221.363	47.39
221.582	22.56
221.801	-0.81
222.021	20.48
222.24	17.51
222.459	-67.53
222.678	-17.95
222.897	-12.02
223.117	-91.47
223.336	-308.03
223.555	-28.28
223.774	-52.42
223.993	-22.78
224.213	-10.01
224.432	17.81
224.651	32.05
224.87	39.98
225.089	12.37
225.308	7.17
225.527	-33.8
225.746	-107.82
225.965	-94.67
226.184	-150.76
226.404	-57.91
226.623	7.78
226.842	36.54
227.061	2.37
227.28	21.55
227.499	47.31
227.718	34.18
227.936	35.99
228.155	47.79
228.374	60.15
228.593	41.25
228.812	26.23
229.031	23.66
229.25	46.7
229.469	13.3
229.688	-24.85
229.907	-64.85
230.125	-78.56
230.344	-88.05
230.563	-70.42
230.782	-55.63
231.001	-0.43
231.22	2.34
231.438	6.13
231.657	-5.77
231.876	4.38
232.095	-12.89
232.313	-39.04
232.532	-73
232.751	-17.51
232.969	-2.32
233.188	6.46
233.407	22.01
233.625	48.48
233.844	30.1
234.063	16.39
234.281	-7.74
234.5	-7.47
234.719	-36.84
234.937	-22.94
235.156	-19.53
235.374	-7.17
235.593	5.18
235.811	16.02
236.03	23.01
236.249	38.64
236.467	49.44
236.686	47.16
236.904	51.09
237.123	55.64
237.341	46.33
237.559	38.47
237.778	38.24
237.996	19.74
238.215	2.23
238.433	-3.89
238.652	-17.91
238.87	-0.74
239.088	0.97
239.307	17.32
239.525	7.09
239.743	30.54
239.962	17.13
240.18	22.55
240.398	36.47
240.617	51.89
240.835	7.12
241.053	-10.8
241.271	-54.97
241.49	-84.25
241.708	-51.57
241.926	-19.67
242.144	-11.47
242.363	11.07
242.581	17.58
242.799	10.56
243.017	12.83
243.235	36.15
243.453	28.44
243.672	35.23
243.89	38.86
244.108	31.73
244.326	5.47
244.544	5.76
244.762	18.9
244.98	9.73
245.198	28.74
245.416	51.77
245.634	63.06
245.852	39.98
246.07	29.8
246.288	17.09
246.506	13.31
246.724	2.02
246.942	15.18
247.16	25.57
247.378	25.57
247.596	18.28
247.814	38.39
248.032	36.29
248.25	30.09
248.468	14.71
248.685	8.09
248.903	-45.14
249.121	-36.29
249.339	-31.51
249.557	-11.32
249.775	-8.74
249.992	29.45
250.21	16.54
250.428	29.6
250.646	26.76
250.863	41.38
251.081	44.01
251.299	16.76
251.517	17.56
251.734	18.61
251.952	-6.18
252.17	-22.51
252.387	-24.79
252.605	-29.18
252.823	-9.39
253.04	-38.28
253.258	-8.21
253.475	26.63
253.693	-5.63
253.911	6.49
254.128	7.39
254.346	7.18
254.563	-4.13
254.781	29.68
254.998	22.32
255.216	20.73
255.433	37.98
255.651	31.07
255.868	-13.44
256.086	-47.47
256.303	-13.55
256.521	-12.41
256.738	-10.8
256.956	21.9
257.173	45.09
257.39	30.17
257.608	21.5
257.825	3.87
258.043	-32.81
258.26	-0.02
258.477	-2.94
258.695	3.92
258.912	-4.93
259.129	26.43
259.346	42.52
259.564	61.21
259.781	58.29
259.998	70.4
260.216	47.36
260.433	15.94
260.65	-8.03
260.867	-5.5
261.084	-11.42
261.302	1.04
261.519	1.79
261.736	31.35
261.953	39.63
262.17	21.75
262.387	30.91
262.604	36.4
262.822	30.05
263.039	26.62
263.256	37.26
263.473	44.08
263.69	60.37
263.907	33.52
264.124	13.06
264.341	7.49
264.558	-39.3
264.775	-30.29
264.992	-12.91
265.209	-12.19
265.426	-34.09
265.643	-8.5
265.86	-7.25
266.077	22.74
266.294	23.29
266.51	50.59
266.727	52.27
266.944	49.41
267.161	43.89
267.378	38.33
267.595	29.2
267.812	40.58
268.028	36.87
268.245	32.19
268.462	47.4
268.679	55.1
268.896	18.74
269.112	13.47
269.329	-7.6
269.546	-67.71
269.763	-26.98
269.979	4.21
270.196	18.81
270.413	16.48
270.629	33.25
270.846	32.68
271.063	25.95
271.279	31.7
271.496	54.62
271.712	50.21
271.929	36.26
272.146	46.8
272.362	45.8
272.579	22.66
272.795	14.7
273.012	25.95
273.228	24.75
273.445	24.3
273.661	47.12
273.878	62.99
274.094	47.51
274.311	41.38
274.527	8.62
274.744	-0.02
274.96	-16.95
275.177	-24.9
275.393	-7.26
275.609	5.85
275.826	7.37
276.042	4.22
276.259	10.45
276.475	-18.6
276.691	-11.52
276.908	-9.91
277.124	-0.01
277.34	2.32
277.557	14.77
277.773	19.71
277.989	14.12
278.205	4.53
278.422	10.8
278.638	22.44
278.854	35.94
279.07	46.33
279.286	66.42
279.503	54.03
279.719	49.8
279.935	36.77
280.151	33.35
280.367	4.2
280.583	-19.95
280.799	-13.66
281.016	-15.01
281.232	-26.04
281.448	-13.37
281.664	-19.85
281.88	-5.67
282.096	3.21
282.312	10.03
282.528	5.6
282.744	21.94
282.96	24.25
283.176	35.27
283.392	31.53
283.608	38.85
283.824	35.53
284.04	38.91
284.256	29.31
284.471	29.23
284.687	19.45
284.903	18.22
285.119	-1.45
285.335	-1.47
285.551	-8.25
285.767	18.66
285.982	14.91
286.198	30.06
286.414	1.31
286.63	-0.52
286.846	-16.18
287.061	-16.88
287.277	-34.94
287.493	10.9
287.709	1.91
287.924	24.24
288.14	2.42
288.356	-19.79
288.571	-34.44
288.787	-7.71
289.003	-27.3
289.218	-17.49
289.434	32.64
289.65	41.32
289.865	26.49
290.081	-5.75
290.296	9.06
290.512	-8.13
290.727	-18.58
290.943	6.35
291.159	29.87
291.374	16.03
291.59	24.51
291.805	27.45
292.021	34.91
292.236	46.56
292.451	45.99
292.667	49.13
292.882	55.62
293.098	37.39
293.313	29.16
293.529	43.86
293.744	52.89
293.959	51.59
294.175	55.2
294.39	57.69
294.605	52.02
294.821	28.84
295.036	25.52
295.251	14.75
295.467	11.61
295.682	25.1
295.897	26.41
296.112	25.84
296.328	37.8
296.543	39.66
296.758	16.43
296.973	19.1
297.188	6.29
297.404	17.71
297.619	13.43
297.834	43.17
298.049	35.41
298.264	51.29
298.479	44.36
298.694	37.47
298.909	32.37
299.125	48.43
299.34	21.86
299.555	32.77
299.77	20.76
299.985	39.12
300.2	39.96
300.415	58.43
300.63	22.02
300.845	37.09
301.06	-5.58
301.275	-46.5
301.49	-11.28
301.704	5.84
301.919	16.32
302.134	25.6
302.349	29.58
302.564	33.79
302.779	24.73
302.994	3.49
303.209	-2.52
303.423	-16.64
303.638	-19.08
303.853	9.35
304.068	40.02
304.283	49.8
304.497	63.68
304.712	72.37
304.927	57.56
305.142	52.84
305.356	33.74
305.571	22.72
305.786	26.01
306	27.01
306.215	6.19
306.43	37.84
306.644	37.69
306.859	20.68
307.074	30.75
307.288	54.22
307.503	37.64
307.717	44.07
307.932	43.86
308.147	36.24
308.361	25.99
308.576	26.29
308.79	45.12
309.005	57.1
309.219	55.48
309.434	39.95
309.648	45.67
309.863	12.47
310.077	10.47
310.292	9.55
310.506	17.77
310.72	30.42
310.935	28.17
311.149	15.78
311.364	-10.34
311.578	-16.1
311.792	-18.61
312.007	-31.36
312.221	-19.07
312.435	-2.13
312.649	22.45
312.864	3.77
313.078	16.39
313.292	5.67
313.507	16.69
313.721	4.22
313.935	8.21
314.149	-1.16
314.363	21.47
314.578	6.96
314.792	12.21
315.006	2.59
315.22	8.4
315.434	-5.11
315.648	-21.65
315.862	6.4
316.077	10.55
316.291	17.45
316.505	18.04
316.719	21.85
316.933	32.01
317.147	29.18
317.361	34.33
317.575	33.87
317.789	38.79
318.003	20.89
318.217	23.61
318.431	22.16
318.645	1.72
318.859	17.57
319.073	10.99
319.287	19.07
319.5	29.49
319.714	54.39
319.928	48.89
320.142	41.86
320.356	26.6
320.57	23.37
320.784	12.01
320.997	-9.9
321.211	14.67
321.425	29.33
321.639	28.13
321.853	9.49
322.066	35.3
322.28	21.97
322.494	0.26
322.707	-17.37
322.921	11.77
323.135	20.73
323.349	15.54
323.562	35.21
323.776	58.99
323.989	56.36
324.203	52.96
324.417	57.13
324.63	64.6
324.844	49.61
325.057	36.89
325.271	22.9
325.485	12
325.698	-28.81
325.912	-22.19
326.125	19.91
326.339	13.39
326.552	5.64
326.766	23.74
326.979	9.38
327.193	-9.74
327.406	5.99
327.619	38.21
327.833	4.03
328.046	17.83
328.26	25.67
328.473	21.84
328.686	22.35
328.9	33.65
329.113	36.52
329.326	37.55
329.54	38.16
329.753	40.36
329.966	53.52
330.179	29.19
330.393	31.78
330.606	40.05
330.819	34.88
331.032	32.16
331.246	42.71
331.459	14.34
331.672	-6.04
331.885	-6.63
332.098	-15.7
332.311	9.52
332.525	44.47
332.738	46.98
332.951	45.08
333.164	43.39
333.377	42.55
333.59	26.68
333.803	19.06
334.016	7.87
334.229	7.75
334.442	-34.3
334.655	-32.1
334.868	-27.62
335.081	-26.39
335.294	-18.9
335.507	19.32
335.72	31.88
335.933	29.81
336.146	25.58
336.359	19.48
336.572	-0.61
336.785	-1.66
336.997	1.4
337.21	-8.78
337.423	5.72
337.636	35.98
337.849	30.39
338.062	24.96
338.274	23.45
338.487	38.91
338.7	29.19
338.913	40.91
339.125	41.06
339.338	43.84
339.551	18.68
339.763	3.35
339.976	-14.96
340.189	-14.7
340.402	-16.17
340.614	-4.76
340.827	13.49
341.039	21.36
341.252	23.74
341.465	26.29
341.677	23.98
341.89	22.16
342.102	25.63
342.315	30.16
342.527	30.25
342.74	34.42
342.952	30.59
343.165	30.73
343.377	5.37
343.59	2.91
343.802	-14.23
344.015	-58.57
344.227	-78.34
344.44	-23.22
344.652	-13.53
344.864	-9.12
345.077	13.64
345.289	2.68
345.502	-51.09
345.714	-59.64
345.926	-31.44
346.139	-22.3
346.351	-2.68
346.563	19.91
346.775	32.9
346.988	16.77
347.2	23.77
347.412	35.51
347.624	44.34
347.837	40.23
348.049	44.74
348.261	35.39
348.473	27.32
348.685	30.47
348.897	40.25
349.11	38.85
349.322	30.77
349.534	24.01
349.746	15.75
349.958	12.57
350.17	5.51
350.382	10.55
350.594	15.59
350.806	5.38
351.018	-3.56
351.23	3.96
351.442	8.28
351.654	-2.97
351.866	10.35
352.078	8.94
352.29	8.11
352.502	18.03
352.714	19.18
352.926	11.81
353.138	2.22
353.35	12.77
353.561	8.84
353.773	7.08
353.985	7.85
354.197	14.48
354.409	17.7
354.621	36.27
354.832	49.42
355.044	57.23
355.256	64.83
355.468	63.39
355.679	47.95
355.891	39.12
356.103	45.53
356.314	42.3
356.526	42.77
356.738	56.15
356.949	60.23
357.161	53.59
357.373	47.77
357.584	49.06
357.796	29.68
358.008	20.27
358.219	4.56
358.431	17.57
358.642	18.3
358.854	-8.25
359.065	22.79
359.277	49.81
359.488	37.68
359.7	37.36
359.911	55.18
360.123	45.01
360.334	35.78
360.546	44.34
360.757	46.6
360.969	25.43
361.18	16.13
361.391	27.14
361.603	23.05
361.814	18.38
362.025	33.22
362.237	44.55
362.448	29.68
362.659	20.49
362.871	24.57
363.082	8.28
363.293	-17.45
363.504	-10.02
363.716	17.61
363.927	15.48
364.138	27.83
364.349	47
364.56	51.9
364.772	58.07
364.983	49.13
365.194	38.12
365.405	35.65
365.616	22.59
365.827	21.97
366.038	28.79
366.25	26.89
366.461	26.94
366.672	14.26
366.883	-11.53
367.094	-25.27
367.305	-6.19
367.516	-16.37
367.727	-0.36
367.938	11.17
368.149	22.75
368.36	21.06
368.571	23.52
368.781	28.16
368.992	19.32
369.203	25.64
369.414	36.71
369.625	43.05
369.836	36.91
370.047	32.09
370.258	23.89
370.468	21.26
370.679	36.19
370.89	42.29
371.101	48.56
371.312	46.97
371.522	41.38
371.733	38.41
371.944	35.67
372.155	27.33
372.365	25.14
372.576	34.43
372.787	33.38
372.997	30.72
373.208	32.99
373.419	25.67
373.629	23.03
373.84	21
374.05	24.26
374.261	21.06
374.472	30.49
374.682	17.84
374.893	9.15
375.103	0.3
375.314	14.47
375.524	15.93
375.735	21.12
375.945	27.25
376.156	32.39
376.366	23.92
376.577	10.97
376.787	17.12
376.997	6.3
377.208	8.2
377.418	11.16
377.629	28.84
377.839	18.23
378.049	22.77
378.26	10.59
378.47	3.08
378.68	-13.32
378.89	-0.89
379.101	4.96
379.311	21.83
379.521	35.42
379.732	48.56
379.942	42.83
380.152	43.99
380.362	33.16
380.572	33.25
380.783	30.33
380.993	31.31
381.203	24.65
381.413	18.5
381.623	14.98
381.833	12.33
382.043	18.63
382.253	20.76
382.463	28.06
382.674	27.62
382.884	30.94
383.094	22.8
383.304	15.27
383.514	10.08
383.724	6.68
383.934	7.27
384.144	12.2
384.353	17.96
384.563	17.14
384.773	15.98
384.983	14.07
385.193	8.96
385.403	13.06
385.613	14.1
385.823	20.52
386.033	21.8
386.242	27.85
386.452	24.62
386.662	26.68
386.872	18.86
387.082	11.52
387.291	7.21
387.501	4.45
387.711	0.99
387.921	6.99
388.13	12.05
388.34	4.72
388.55	9.78
388.759	11.75
388.969	9.21
389.179	7.11
389.388	10.72
389.598	10.65
389.807	9.9
390.017	12.41
390.227	13.8
390.436	14.23
390.646	10.52
390.855	9.9
391.065	7.53
391.274	7.28
391.484	8.51
391.693	9.67
391.903	9.91
392.112	10.94
392.322	11.05
392.531	10.27
392.74	9.48
392.95	10.69
393.159	8.73
393.369	8.99
393.578	8.04
393.787	9.93
393.997	9.53
394.206	11.15
394.415	11.07
394.625	11.81
394.834	10.89
395.043	11.02
395.252	10.26
395.462	9.42
395.671	8.13
395.88	8.07
396.089	7.79
396.298	7.91
396.508	8.02
396.717	8.6
396.926	8.4
397.135	7.88
397.344	7.82
397.553	7.81
397.762	7.54
397.971	7.55
398.181	7.9
398.39	8.42
398.599	8.39
398.808	8.62
399.017	8.08
399.226	7.62
399.435	7
399.644	7.2
399.853	7.19
400.062	7.53
400.27	7.79
400.479	7.84
400.688	7.76
400.897	7.77
401.106	7.65
401.315	7.7
401.524	8.08
401.733	7.65
401.941	7.47
402.15	7.46
402.359	7.56
402.568	6.9
402.777	7.04
402.985	7.13
403.194	7.28
403.403	6.91
403.612	7.16
403.82	7.19
404.029	7.27
404.238	7.37
404.446	7.39
404.655	7.31
404.864	7.34
405.072	7.28
405.281	7.16
405.489	7.31
405.698	7.6
405.906	7.63
406.115	7.53
406.324	7.49
406.532	7.42
406.741	7.28
406.949	7.22
407.158	7.38
407.366	7.38
407.574	7.27
407.783	7.34
407.991	7.4
408.2	7.1
408.408	7.07
408.617	7.26
408.825	7.12
409.033	7.07
409.242	7.23
409.45	7.04
409.658	7.06
409.867	7
410.075	7.09
410.283	7.04
410.491	7.11
410.7	7.07
410.908	7.08
411.116	6.85
411.324	6.89
411.533	6.83
411.741	6.65
411.949	6.53
412.157	6.7
412.365	6.67
412.573	6.69
412.781	6.73
412.99	6.87
413.198	6.68
413.406	6.64
413.614	6.52
413.822	6.58
414.03	6.57
414.238	6.54
414.446	6.51
414.654	6.8
414.862	6.73
415.07	6.63
415.278	6.58
415.486	6.58
415.694	6.38
415.902	6.33
416.109	6.35
416.317	6.46
416.525	6.47
416.733	6.58
416.941	6.49
417.149	6.43
417.357	6.34
417.564	6.28
417.772	6
417.98	6.12
418.188	6.11
418.395	6.17
418.603	6.22
418.811	6.43
419.019	6.33
419.226	6.22
419.434	6.09
419.642	6
419.849	5.81
420.057	5.83
420.265	5.93
420.472	6.13
420.68	6.06
420.887	6.2
421.095	5.99
421.302	5.95
421.51	5.6
421.717	5.65
421.925	5.39
422.132	5.6
422.34	5.61
422.547	5.61
422.755	5.59
422.962	5.9
423.17	5.99
423.377	6.05
423.585	6.15
423.792	6.21
423.999	6.01
424.207	5.89
424.414	5.61
424.621	5.52
424.829	5.57
425.036	5.74
425.243	5.79
425.451	6
425.658	6.07
425.865	6
426.072	5.74
426.28	5.58
426.487	5.67
426.694	5.53
426.901	5.55
427.108	5.76
427.315	6.03
427.523	5.75
427.73	5.83
427.937	5.93
428.144	5.91
428.351	5.79
428.558	5.73
428.765	5.71
428.972	5.75
429.179	5.64
429.386	5.4
429.593	5.62
429.8	5.75
430.007	5.62
430.214	5.63
430.421	5.82
430.628	5.83
430.835	5.93
431.042	5.79
431.249	5.68
431.456	5.8
431.662	5.85
431.869	5.9
432.076	6.01
432.283	6.15
432.49	6.03
432.697	6.01
432.903	5.95
433.11	5.95
433.317	5.87
433.524	5.78
433.73	5.87
433.937	5.76
434.144	5.88
434.35	6
434.557	6.15
434.764	6.12
434.97	6.32
435.177	6.24
435.384	6.37
435.59	6.45
435.797	6.39
436.003	6.12
436.21	6.24
436.416	6.11
436.623	5.92
436.829	5.91
437.036	6.05
437.242	5.97
437.449	5.93
437.655	6.12
437.862	6.21
438.068	6.18
438.275	6.25
438.481	6.21
438.687	6.23
438.894	6.3
439.1	6.43
439.307	6.19
439.513	6.37
439.719	6.24
439.926	6.17
440.132	6.17
440.338	6.46
440.544	6.34
440.751	6.55
440.957	6.5
441.163	6.58
441.369	6.54
441.575	6.61
441.782	6.58
441.988	6.71
442.194	6.71
442.4	6.67
442.606	6.65
442.812	6.59
443.018	6.43
443.224	6.35
443.431	6.3
443.637	6.42
443.843	6.42
444.049	6.58
444.255	6.71
444.461	6.81
444.667	6.76
444.873	6.65
445.079	6.58
445.284	6.53
445.49	6.57
445.696	6.67
445.902	6.79
446.108	6.86
446.314	6.81
446.52	6.88
446.726	6.67
446.931	6.69
447.137	6.65
447.343	6.68
447.549	6.61
447.755	6.83
447.96	6.81
448.166	6.85
448.372	6.88
448.578	6.92
448.783	6.86
448.989	6.86
449.195	6.79
449.4	6.75
449.606	6.66
449.812	6.68
450.017	6.73
450.223	6.76
450.428	6.89
450.634	6.9
450.84	6.93
451.045	7.01
451.251	7.12
451.456	6.99
451.662	6.87
451.867	6.82
452.073	6.74
452.278	6.59
452.483	6.53
452.689	6.66
452.894	6.58
453.1	6.56
453.305	6.66
453.51	6.76
453.716	6.83
453.921	6.93
454.127	6.98
454.332	7.09
454.537	7.14
454.742	7.13
454.948	7.16
455.153	7.16
455.358	7.07
455.563	6.87
455.769	6.8
455.974	6.75
456.179	6.71
456.384	6.56
456.589	6.77
456.795	6.84
457	6.84
457.205	6.82
457.41	6.98
457.615	6.93
457.82	6.86
458.025	6.96
458.23	7.01
458.435	6.97
458.64	6.97
458.845	6.95
459.05	6.9
459.255	6.98
459.46	6.95
459.665	6.83
459.87	6.81
460.075	6.83
460.28	6.82
460.485	6.85
460.69	6.98
460.895	7.1
461.099	7.26
461.304	7.23
461.509	7.27
461.714	7.35
461.919	7.33
462.123	7.18
462.328	7.11
462.533	7.16
462.738	7.05
462.942	7.13
463.147	7.14
463.352	7.06
463.556	7.12
463.761	7.11
463.966	6.96
464.17	6.96
464.375	7.12
464.58	7.04
464.784	7.01
464.989	7.23
465.193	7.29
465.398	7.26
465.602	7.17
465.807	7.29
466.011	7.22
466.216	7.12
466.42	7.2
466.625	7.34
466.829	7.32
467.034	7.33
467.238	7.36
467.443	7.34
