Data from Ofav_PP_Phys_9AZ7_Reflection_1.txt Node
Date: Tue Aug 03 18:16:04 EDT 2021
User: Adam
Spectrometer: FLMT01687
Trigger mode: 0
Integration Time (sec): 8.750000E-1
Scans to average: 2
Electric dark correction enabled: true
Nonlinearity correction enabled: false
Boxcar width: 2
XAxis mode: Wavelengths
Number of Pixels in Spectrum: 3648
>>>>>Begin Spectral Data<<<<<
179.494	229.58
179.716	249.52
179.937	303.62
180.158	466.27
180.38	1537.72
180.601	159.16
180.823	159.05
181.044	91.69
181.265	115.07
181.486	-179.35
181.708	81.41
181.929	124.69
182.15	46.79
182.372	333.97
182.593	-194.73
182.814	-43.77
183.035	127.3
183.257	1587.25
183.478	38.52
183.699	-349.2
183.92	-100.41
184.141	-234.66
184.363	-48.29
184.584	-231.84
184.805	-40.81
185.026	-81.59
185.247	-35.77
185.468	-23.75
185.689	3.98
185.91	-12.65
186.132	19.68
186.353	39.3
186.574	7.95
186.795	40.74
187.016	47.92
187.237	38.04
187.458	25.24
187.679	31.85
187.9	18.18
188.121	12.46
188.342	-6.48
188.563	-21.68
188.784	-28.75
189.005	-68.05
189.226	-79.13
189.447	-43.99
189.667	-62.26
189.888	-59.47
190.109	-4.76
190.33	-17.6
190.551	-7.6
190.772	38.38
190.993	36.81
191.214	23.52
191.434	43.31
191.655	27.7
191.876	34.84
192.097	49.87
192.318	51.11
192.538	42.91
192.759	51.85
192.98	31.78
193.201	-7.7
193.421	13.86
193.642	34.52
193.863	21.08
194.083	57.17
194.304	71.12
194.525	53.52
194.745	31.84
194.966	92.73
195.187	89.63
195.407	132.93
195.628	122.95
195.848	121.19
196.069	92.01
196.29	54.02
196.51	-5.68
196.731	38.87
196.951	42.22
197.172	37.82
197.392	92.82
197.613	96.36
197.833	79.26
198.054	102.61
198.274	87.1
198.495	54.49
198.715	57.4
198.936	60.71
199.156	49.66
199.377	65.59
199.597	54.1
199.817	51.41
200.038	10.65
200.258	12.91
200.479	-62.76
200.699	-87.61
200.919	-147.01
201.14	-10.35
201.36	-14.72
201.58	8.04
201.801	-13.39
202.021	18.46
202.241	-11.51
202.461	-5.39
202.682	9.71
202.902	20.85
203.122	49.29
203.342	61.39
203.563	21.86
203.783	15.7
204.003	27.87
204.223	7.2
204.443	-25.46
204.663	-4.11
204.884	-4.33
205.104	3.32
205.324	27.97
205.544	46.12
205.764	34.96
205.984	-38.73
206.204	-66.28
206.424	-203.63
206.644	-43.84
206.864	-24.51
207.084	26.67
207.304	56.93
207.525	100.56
207.745	85.98
207.964	54.14
208.184	44.47
208.404	60.09
208.624	54.5
208.844	63.45
209.064	75.45
209.284	95.99
209.504	55.61
209.724	32.43
209.944	5.06
210.164	-36.62
210.384	-46.54
210.604	-40.27
210.823	-66.34
211.043	45.16
211.263	67.67
211.483	76.36
211.703	90.86
211.922	78.53
212.142	44.36
212.362	18.16
212.582	11.72
212.801	-23.61
213.021	-11.1
213.241	-20.39
213.461	14.32
213.68	13.97
213.9	14.44
214.12	-0.78
214.339	27.69
214.559	50.34
214.779	50.41
214.998	48.03
215.218	80.67
215.438	62.31
215.657	45.13
215.877	52.31
216.096	28.9
216.316	9.6
216.535	-10.48
216.755	-21.02
216.974	-3.7
217.194	49.94
217.413	57.86
217.633	64.83
217.852	78.47
218.072	83.23
218.291	67.19
218.511	55.09
218.73	80.82
218.95	65.79
219.169	56.78
219.389	60.22
219.608	53.68
219.827	15.67
220.047	2.98
220.266	4.1
220.485	13.45
220.705	21.18
220.924	32.22
221.143	28.53
221.363	44.44
221.582	32.76
221.801	-16.34
222.021	-26.88
222.24	-5.82
222.459	-101.94
222.678	-56.31
222.897	-17.67
223.117	-36.32
223.336	-202.76
223.555	43.22
223.774	-12.3
223.993	-15.74
224.213	10.41
224.432	25.81
224.651	25.62
224.87	54.78
225.089	44.39
225.308	23.73
225.527	-2.18
225.746	-31.15
225.965	-35.09
226.184	-69.87
226.404	-13.87
226.623	18.6
226.842	37.45
227.061	0.67
227.28	23.24
227.499	42.11
227.718	37.67
227.936	25.82
228.155	36.09
228.374	20.07
228.593	7.3
228.812	-33.18
229.031	-41.16
229.25	-7.37
229.469	-43.02
229.688	-99.2
229.907	-90.29
230.125	-74.71
230.344	-63.14
230.563	-41.6
230.782	-15.11
231.001	37.89
231.22	33.45
231.438	27.68
231.657	34.99
231.876	32.99
232.095	-4.68
232.313	-10.8
232.532	-20
232.751	-13.16
232.969	-7.35
233.188	6.8
233.407	-8.27
233.625	15.02
233.844	21.01
234.063	32.83
234.281	29.37
234.5	36.81
234.719	45.14
234.937	24.31
235.156	6.76
235.374	0.02
235.593	19.85
235.811	17.99
236.03	18.86
236.249	35.63
236.467	45.1
236.686	32.12
236.904	23.26
237.123	48.74
237.341	34.9
237.559	32.79
237.778	40.88
237.996	46.15
238.215	33.02
238.433	33.32
238.652	29.42
238.87	33.8
239.088	26.22
239.307	18.9
239.525	21.63
239.743	36.39
239.962	33.09
240.18	41.7
240.398	69.49
240.617	70.25
240.835	52.9
241.053	36.64
241.271	-27.62
241.49	-26.93
241.708	2.45
241.926	-10.21
242.144	5.14
242.363	38.46
242.581	24.95
242.799	11.08
243.017	20.81
243.235	45.49
243.453	30.29
243.672	31.62
243.89	38.36
244.108	34.79
244.326	-5.06
244.544	7.77
244.762	16.7
244.98	6.18
245.198	6.6
245.416	26.52
245.634	20.9
245.852	12.45
246.07	2.57
246.288	-11.48
246.506	12.42
246.724	22.9
246.942	20.04
247.16	31.06
247.378	24.17
247.596	7.21
247.814	3.9
248.032	8.48
248.25	-4.77
248.468	-14.31
248.685	-4.74
248.903	-24.9
249.121	-34.51
249.339	-9.21
249.557	19.11
249.775	2.09
249.992	33.07
250.21	44.15
250.428	39.43
250.646	13.29
250.863	32.97
251.081	1.99
251.299	-9.03
251.517	7.95
251.734	16.92
251.952	2.08
252.17	18.92
252.387	-3.11
252.605	-44.61
252.823	-43.07
253.04	-87.44
253.258	-65.44
253.475	-6.93
253.693	-22.14
253.911	-0.22
254.128	28.12
254.346	44.15
254.563	40.65
254.781	66.06
254.998	64.38
255.216	54.8
255.433	59.95
255.651	23.23
255.868	-38.43
256.086	-68.8
256.303	-44.85
256.521	-35.78
256.738	-29.76
256.956	20.11
257.173	31.26
257.39	47.74
257.608	32.77
257.825	8.58
258.043	-48.22
258.26	-2.67
258.477	-24.67
258.695	-19.22
258.912	7.27
259.129	36.83
259.346	39.48
259.564	51.33
259.781	55.97
259.998	47.49
260.216	38.22
260.433	26.34
260.65	22.93
260.867	22.99
261.084	26.61
261.302	14.59
261.519	25.05
261.736	34.58
261.953	37.35
262.17	25.04
262.387	35.15
262.604	30.33
262.822	37.41
263.039	30.48
263.256	42.36
263.473	39.14
263.69	56.56
263.907	46.06
264.124	38.6
264.341	21.35
264.558	5.35
264.775	-5.93
264.992	-12.44
265.209	-15.69
265.426	-20.75
265.643	-9.86
265.86	-12.89
266.077	-5.29
266.294	2.91
266.51	15.59
266.727	33.82
266.944	30.95
267.161	27.43
267.378	25.76
267.595	19.76
267.812	24.83
268.028	17.24
268.245	21.48
268.462	33.92
268.679	42.53
268.896	2.73
269.112	11.66
269.329	-20.82
269.546	-70.67
269.763	-30.79
269.979	14.52
270.196	33.06
270.413	37.6
270.629	52.87
270.846	55.06
271.063	46.39
271.279	47.12
271.496	57.24
271.712	33.98
271.929	9.91
272.146	21.92
272.362	12.94
272.579	-1.35
272.795	-4.16
273.012	10.5
273.228	12.74
273.445	9.82
273.661	25.63
273.878	42.42
274.094	29.72
274.311	23.15
274.527	19.2
274.744	20.36
274.96	1.43
275.177	-2.96
275.393	11.71
275.609	0.24
275.826	-24.3
276.042	2.33
276.259	20.19
276.475	10.37
276.691	20
276.908	33.72
277.124	28.89
277.34	15.98
277.557	7.05
277.773	13.38
277.989	20.17
278.205	8.26
278.422	23.69
278.638	22.74
278.854	15.34
279.07	20.07
279.286	32.62
279.503	35.95
279.719	50.74
279.935	54.82
280.151	46.52
280.367	19.8
280.583	-7
280.799	-5.99
281.016	-15.99
281.232	-22.53
281.448	-5.67
281.664	-15.29
281.88	-0.43
282.096	15.59
282.312	14.26
282.528	15.86
282.744	18.47
282.96	16.79
283.176	25.76
283.392	36.04
283.608	41.03
283.824	46.35
284.04	41.4
284.256	30.27
284.471	7.63
284.687	2.65
284.903	5.57
285.119	-21.76
285.335	-37.95
285.551	-21.23
285.767	-2.41
285.982	3.33
286.198	20.93
286.414	26.56
286.63	25.96
286.846	-5.32
287.061	-14.47
287.277	-45.73
287.493	-42.45
287.709	-92.92
287.924	-39.83
288.14	-38.36
288.356	-29.75
288.571	-21.87
288.787	-0.15
289.003	-23.65
289.218	-19.41
289.434	9.62
289.65	-0.41
289.865	8.29
290.081	-3.19
290.296	-6.72
290.512	6.68
290.727	11.83
290.943	28.71
291.159	54.79
291.374	44.13
291.59	44.8
291.805	59.9
292.021	65.64
292.236	51.68
292.451	56.24
292.667	52.09
292.882	38.79
293.098	12.65
293.313	15.21
293.529	14.44
293.744	5
293.959	28.56
294.175	32.87
294.39	31.72
294.605	35.36
294.821	33.13
295.036	14.16
295.251	22.6
295.467	19.54
295.682	30.51
295.897	30.38
296.112	44.42
296.328	42.32
296.543	54.92
296.758	39.95
296.973	41.4
297.188	19.94
297.404	27.59
297.619	22.59
297.834	26.96
298.049	11.44
298.264	34.58
298.479	5.97
298.694	5.07
298.909	0.2
299.125	23.23
299.34	-3.69
299.555	16.32
299.77	-29.15
299.985	17.01
300.2	24.6
300.415	42.95
300.63	21.1
300.845	69.83
301.06	48.39
301.275	24.61
301.49	17.74
301.704	34.6
301.919	29.76
302.134	31.75
302.349	33.18
302.564	48.31
302.779	40.01
302.994	30.21
303.209	18.69
303.423	15.32
303.638	4.28
303.853	24.53
304.068	37.9
304.283	56.63
304.497	55.33
304.712	53.11
304.927	44.21
305.142	35.2
305.356	14.46
305.571	16.87
305.786	20.03
306	21.7
306.215	20.49
306.43	39.51
306.644	35.81
306.859	24.29
307.074	19.2
307.288	35.5
307.503	16.76
307.717	15.39
307.932	8.6
308.147	8.87
308.361	-3.54
308.576	12.54
308.79	30.86
309.005	54.9
309.219	46.62
309.434	19.82
309.648	26.39
309.863	6.26
310.077	-12.46
310.292	11.92
310.506	53.4
310.72	48.72
310.935	42.71
311.149	36.61
311.364	24.25
311.578	0.88
311.792	8.2
312.007	-5.02
312.221	20.92
312.435	16.89
312.649	33.11
312.864	20.36
313.078	24.41
313.292	7.77
313.507	10.03
313.721	8.47
313.935	0.89
314.149	13.96
314.363	29.57
314.578	20.52
314.792	7.39
315.006	2.62
315.22	-34.75
315.434	-39.94
315.648	-68.72
315.862	-12.82
316.077	0.66
316.291	25.25
316.505	34.53
316.719	28.63
316.933	24.89
317.147	-1.57
317.361	-9.99
317.575	5.78
317.789	20.87
318.003	25.19
318.217	35.85
318.431	31.07
318.645	4.74
318.859	0.7
319.073	-4.26
319.287	8.84
319.5	34.99
319.714	53.35
319.928	60.73
320.142	40.92
320.356	29.83
320.57	11.8
320.784	-0.34
320.997	-11.84
321.211	15.13
321.425	27.74
321.639	35.74
321.853	13.01
322.066	19.82
322.28	12.79
322.494	-10.7
322.707	-57.72
322.921	-7.43
323.135	2.71
323.349	-0.19
323.562	20.35
323.776	41.47
323.989	20.18
324.203	15.41
324.417	24.43
324.63	31.05
324.844	35.32
325.057	40.75
325.271	27.76
325.485	19.12
325.698	-2.64
325.912	-8.26
326.125	17.46
326.339	16.45
326.552	2.96
326.766	18.91
326.979	15.72
327.193	7.26
327.406	24.64
327.619	52.46
327.833	21.17
328.046	28.32
328.26	32.07
328.473	36.01
328.686	23.67
328.9	36.72
329.113	36.11
329.326	45.66
329.54	44.92
329.753	42.99
329.966	55.07
330.179	44.73
330.393	46.58
330.606	36.02
330.819	42.44
331.032	31.62
331.246	27.93
331.459	5.17
331.672	8.95
331.885	11.28
332.098	24.29
332.311	49.67
332.525	60.86
332.738	46.86
332.951	42.77
333.164	33.49
333.377	28.76
333.59	12.06
333.803	7.51
334.016	-3.84
334.229	-8.2
334.442	-41.98
334.655	-36.94
334.868	-34.6
335.081	-22.85
335.294	-17.62
335.507	9.29
335.72	12
335.933	8.95
336.146	16.98
336.359	13.94
336.572	3.56
336.785	16.42
336.997	29.85
337.21	5.23
337.423	6.94
337.636	36.2
337.849	15.12
338.062	20.07
338.274	12.84
338.487	31.32
338.7	13.51
338.913	31.29
339.125	25.57
339.338	34.05
339.551	30.1
339.763	28.36
339.976	20.39
340.189	19.91
340.402	9.06
340.614	5.43
340.827	18.5
341.039	26.97
341.252	35.71
341.465	54.13
341.677	58.63
341.89	65.74
342.102	50.52
342.315	54.23
342.527	47.86
342.74	38.13
342.952	20.15
343.165	44.48
343.377	-9.28
343.59	-13.36
343.802	-29.42
344.015	-63.69
344.227	-103.26
344.44	-38.33
344.652	-16.36
344.864	-9.8
345.077	-2.02
345.289	-27.78
345.502	-55.33
345.714	-90.72
345.926	-51.83
346.139	-33.78
346.351	-3.98
346.563	19.49
346.775	33.89
346.988	23.19
347.2	21.88
347.412	18.78
347.624	18.49
347.837	11.23
348.049	12.78
348.261	4.04
348.473	2.48
348.685	6.51
348.897	21.84
349.11	28.06
349.322	23.4
349.534	21.22
349.746	7.97
349.958	5.09
350.17	-7.41
350.382	-17.25
350.594	-12.54
350.806	-4.16
351.018	-1.93
351.23	-2.44
351.442	31.57
351.654	31.09
351.866	38.44
352.078	27.52
352.29	43.06
352.502	23.35
352.714	21.89
352.926	20.41
353.138	15.92
353.35	28.26
353.561	38.38
353.773	47.1
353.985	45.6
354.197	49.17
354.409	49.98
354.621	60.52
354.832	56.49
355.044	66.4
355.256	65.67
355.468	53.94
355.679	43.69
355.891	41.7
356.103	35.84
356.314	27.66
356.526	26.53
356.738	25.91
356.949	28.14
357.161	29.02
357.373	50.7
357.584	45.37
357.796	43.22
358.008	33.51
358.219	12.68
358.431	-7.02
358.642	-8.69
358.854	-23.34
359.065	2.31
359.277	36.27
359.488	48.72
359.7	45.11
359.911	43.43
360.123	48.88
360.334	30.01
360.546	29.92
360.757	29.48
360.969	35.64
361.18	31.54
361.391	33.45
361.603	29.66
361.814	25.45
362.025	31.39
362.237	22.42
362.448	27.78
362.659	20.76
362.871	25.52
363.082	21.66
363.293	5.51
363.504	1.04
363.716	19.08
363.927	13.73
364.138	18.09
364.349	33.32
364.56	35.21
364.772	44.15
364.983	39.24
365.194	36.27
365.405	24.19
365.616	10.13
365.827	-2.42
366.038	11.79
366.25	7.84
366.461	15.45
366.672	6.47
366.883	6.18
367.094	1.77
367.305	15.53
367.516	9.6
367.727	26.28
367.938	28.53
368.149	34.71
368.36	20.54
368.571	36.22
368.781	36.04
368.992	44.15
369.203	39.27
369.414	49.69
369.625	43.21
369.836	41.47
370.047	33.51
370.258	32.72
370.468	29.08
370.679	45.71
370.89	60.03
371.101	55.82
371.312	53.09
371.522	49.75
371.733	43.12
371.944	29.98
372.155	31.83
372.365	28.3
372.576	33.12
372.787	33.17
372.997	37.97
373.208	37.25
373.419	17.63
373.629	16.73
373.84	13.08
374.05	3.67
374.261	-2.43
374.472	12.53
374.682	-0.11
374.893	-7.1
375.103	-31.36
375.314	-15.62
375.524	-2.59
375.735	8.79
375.945	16.23
376.156	36.37
376.366	25.13
376.577	21.51
376.787	21.75
376.997	12.26
377.208	2.49
377.418	4.25
377.629	-0.68
377.839	-13.35
378.049	-9.5
378.26	-10.59
378.47	-14.86
378.68	-12.73
378.89	1.11
379.101	2.28
379.311	14.49
379.521	31.32
379.732	34.99
379.942	33.76
380.152	38.38
380.362	25.41
380.572	17.42
380.783	21.17
380.993	18.27
381.203	14.47
381.413	10.51
381.623	6.83
381.833	2.21
382.043	6.22
382.253	7.8
382.463	18.85
382.674	22.69
382.884	25.08
383.094	20.17
383.304	20.8
383.514	19.77
383.724	7.39
383.934	8.55
384.144	14.82
384.353	12.69
384.563	6.5
384.773	11.27
384.983	5.72
385.193	0.93
385.403	0.48
385.613	7.61
385.823	12.62
386.033	13.07
386.242	17.52
386.452	17.66
386.662	16.47
386.872	14.84
387.082	12.83
387.291	8.93
387.501	7.89
387.711	6.98
387.921	9.81
388.13	13.03
388.34	8.2
388.55	13.53
388.759	12.17
388.969	7.5
389.179	6.08
389.388	8.72
389.598	7.16
389.807	9.31
390.017	11.48
390.227	12.16
390.436	13.67
390.646	10.04
390.855	6.8
391.065	4.84
391.274	6.46
391.484	7.23
391.693	8.08
391.903	9.57
392.112	11.75
392.322	10.06
392.531	9.22
392.74	8.73
392.95	10.1
393.159	8.52
393.369	9.78
393.578	8.98
393.787	9.84
393.997	8.93
394.206	10.24
394.415	9.11
394.625	9.86
394.834	10.22
395.043	10.46
395.252	9.16
395.462	9.53
395.671	7.89
395.88	7.94
396.089	6.81
396.298	7.82
396.508	7.52
396.717	8.75
396.926	8.04
397.135	8.23
397.344	8.15
397.553	7.39
397.762	6.75
397.971	6.89
398.181	6.94
398.39	7.29
398.599	7.92
398.808	8.24
399.017	8
399.226	7.65
399.435	6.96
399.644	7.01
399.853	7.19
400.062	7.3
400.27	7.64
400.479	7.72
400.688	7.64
400.897	7.71
401.106	7.58
401.315	7.88
401.524	8.17
401.733	7.89
401.941	7.53
402.15	7.79
402.359	7.7
402.568	7.36
402.777	7.53
402.985	7.62
403.194	7.41
403.403	7.37
403.612	7.47
403.82	7.47
404.029	7.47
404.238	7.7
404.446	7.45
404.655	7.35
404.864	7.12
405.072	7.23
405.281	7.06
405.489	7.22
405.698	7.42
405.906	7.62
406.115	7.49
406.324	7.54
406.532	7.41
406.741	7.22
406.949	7.33
407.158	7.43
407.366	7.4
407.574	7.45
407.783	7.53
407.991	7.42
408.2	7.1
408.408	7.1
408.617	7.15
408.825	7.21
409.033	7.14
409.242	7.28
409.45	7.09
409.658	7.14
409.867	6.97
410.075	7
410.283	7.02
410.491	7.07
410.7	6.97
410.908	6.85
411.116	6.68
411.324	6.65
411.533	6.55
411.741	6.53
411.949	6.56
412.157	6.59
412.365	6.59
412.573	6.69
412.781	6.63
412.99	6.72
413.198	6.66
413.406	6.6
413.614	6.43
413.822	6.49
414.03	6.45
414.238	6.58
414.446	6.54
414.654	6.73
414.862	6.63
415.07	6.48
415.278	6.29
415.486	6.36
415.694	6.4
415.902	6.44
416.109	6.52
416.317	6.59
416.525	6.5
416.733	6.37
416.941	6.18
417.149	6.19
417.357	6.03
417.564	6
417.772	5.77
417.98	5.96
418.188	5.9
418.395	6
418.603	6.08
418.811	6.31
419.019	6.18
419.226	6.14
419.434	5.96
419.642	5.93
419.849	5.82
420.057	5.78
420.265	5.79
420.472	6.16
420.68	6.02
420.887	6.11
421.095	5.88
421.302	6.09
421.51	5.78
421.717	5.73
421.925	5.6
422.132	5.97
422.34	5.77
422.547	5.71
422.755	5.75
422.962	5.93
423.17	5.91
423.377	6.1
423.585	6.17
423.792	6.17
423.999	6
424.207	5.87
424.414	5.57
424.621	5.41
424.829	5.33
425.036	5.46
425.243	5.36
425.451	5.53
425.658	5.77
425.865	5.8
426.072	5.69
426.28	5.74
426.487	5.71
426.694	5.5
426.901	5.54
427.108	5.7
427.315	5.87
427.523	5.69
427.73	5.86
427.937	6.12
428.144	6.03
428.351	6.01
428.558	6.02
428.765	6.05
428.972	6.07
429.179	6.07
429.386	5.94
429.593	6.07
429.8	6.11
430.007	5.93
430.214	5.99
430.421	6.01
430.628	6.05
430.835	6.16
431.042	6.15
431.249	6.11
431.456	6.35
431.662	6.43
431.869	6.44
432.076	6.34
432.283	6.33
432.49	6.21
432.697	6.21
432.903	6.21
433.11	6.36
433.317	6.4
433.524	6.27
433.73	6.5
433.937	6.41
434.144	6.53
434.35	6.53
434.557	6.79
434.764	6.7
434.97	6.86
435.177	6.8
435.384	6.99
435.59	6.85
435.797	6.74
436.003	6.49
436.21	6.47
436.416	6.37
436.623	6.39
436.829	6.51
437.036	6.63
437.242	6.68
437.449	6.71
437.655	6.69
437.862	6.62
438.068	6.7
438.275	6.65
438.481	6.56
438.687	6.67
438.894	6.8
439.1	6.86
439.307	6.86
439.513	7.01
439.719	6.95
439.926	6.94
440.132	7.09
440.338	7.17
440.544	7.1
440.751	7.25
440.957	7.18
441.163	7.07
441.369	7.14
441.575	7.33
441.782	7.42
441.988	7.64
442.194	7.68
442.4	7.66
442.606	7.51
442.812	7.42
443.018	7.13
443.224	7.06
443.431	7.01
443.637	7.2
443.843	7.29
444.049	7.43
444.255	7.61
444.461	7.77
444.667	7.74
444.873	7.61
445.079	7.66
445.284	7.66
445.49	7.67
445.696	7.67
445.902	7.78
446.108	7.86
446.314	7.86
446.52	7.95
446.726	7.88
446.931	8
447.137	7.97
447.343	7.97
447.549	8.03
447.755	8.12
447.96	7.96
448.166	7.99
448.372	7.88
448.578	7.81
448.783	7.75
448.989	7.83
449.195	7.74
449.4	7.93
449.606	8.03
449.812	8.18
450.017	8.23
450.223	8.34
450.428	8.48
450.634	8.33
450.84	8.35
451.045	8.43
451.251	8.62
451.456	8.35
451.662	8.26
451.867	8.2
452.073	8.26
452.278	8.03
452.483	8.11
452.689	8.34
452.894	8.43
453.1	8.41
453.305	8.53
453.51	8.63
453.716	8.68
453.921	8.8
454.127	8.73
454.332	8.76
454.537	8.83
454.742	8.89
454.948	8.71
455.153	8.72
455.358	8.69
455.563	8.46
455.769	8.42
455.974	8.51
456.179	8.6
456.384	8.59
456.589	8.9
456.795	8.87
457	8.98
457.205	8.92
457.41	8.97
457.615	8.96
457.82	8.95
458.025	8.91
458.23	9.02
458.435	9.02
458.64	9.02
458.845	9.05
459.05	9.15
459.255	9.06
459.46	9.17
459.665	9.16
459.87	9.23
460.075	9.14
460.28	9.31
460.485	9.25
460.69	9.32
460.895	9.45
461.099	9.58
461.304	9.45
461.509	9.56
461.714	9.59
461.919	9.57
462.123	9.59
462.328	9.71
462.533	9.75
462.738	9.82
462.942	9.76
463.147	9.74
463.352	9.62
463.556	9.77
463.761	9.75
463.966	9.75
464.17	9.74
464.375	9.9
464.58	9.89
464.784	9.88
464.989	9.96
465.193	10.08
465.398	10.16
465.602	9.95
465.807	10.02
466.011	10.12
466.216	9.99
466.42	10.06
466.625	10.26
466.829	10.28
467.034	10.26
