Data from Ofra_2a_PS_6CX18_Reflection_3.txt Node
Date: Tue Jul 20 09:52:21 EDT 2021
User: Adam
Spectrometer: FLMT01687
Trigger mode: 0
Integration Time (sec): 9.450000E-1
Scans to average: 3
Electric dark correction enabled: true
Nonlinearity correction enabled: false
Boxcar width: 3
XAxis mode: Wavelengths
Number of Pixels in Spectrum: 3648
>>>>>Begin Spectral Data<<<<<
179.494	885.21
179.716	406.78
179.937	522.53
180.158	1813.67
180.38	-885.76
180.601	-73.51
180.823	-13.08
181.044	65.84
181.265	-182.18
181.486	50.53
181.708	-1564.13
181.929	43.37
182.15	96.02
182.372	-46.66
182.593	-66.87
182.814	443.86
183.035	327.38
183.257	185.78
183.478	93.99
183.699	87
183.92	66.47
184.141	58.92
184.363	44.71
184.584	33.99
184.805	45.81
185.026	30.34
185.247	2.59
185.468	21.28
185.689	41.82
185.91	38.1
186.132	36.06
186.353	26.41
186.574	35.16
186.795	23.11
187.016	16.68
187.237	12.55
187.458	7.17
187.679	-13.16
187.9	1.69
188.121	9.25
188.342	43.94
188.563	59.8
188.784	56.85
189.005	64.45
189.226	70.83
189.447	57.76
189.667	52.37
189.888	55.04
190.109	39.18
190.33	33.7
190.551	29.96
190.772	24.09
190.993	37.3
191.214	32.94
191.434	29
191.655	38.44
191.876	37.41
192.097	41.88
192.318	48.82
192.538	49.98
192.759	50.98
192.98	40.3
193.201	52.08
193.421	52.7
193.642	42.16
193.863	36.62
194.083	24.48
194.304	30.3
194.525	51.44
194.745	23.74
194.966	27.55
195.187	44.94
195.407	40.91
195.628	38.54
195.848	41.76
196.069	37.04
196.29	31.03
196.51	22.96
196.731	18.31
196.951	11.94
197.172	9.63
197.392	15.21
197.613	5.89
197.833	15.52
198.054	14.77
198.274	6.37
198.495	25.61
198.715	6.81
198.936	6.62
199.156	27.18
199.377	25.24
199.597	35.68
199.817	42.24
200.038	29.4
200.258	35.98
200.479	37.65
200.699	23.1
200.919	13.35
201.14	13.03
201.36	9.25
201.58	10.9
201.801	15.27
202.021	22.42
202.241	26.88
202.461	37.15
202.682	46.31
202.902	42.96
203.122	44.48
203.342	56.76
203.563	50.55
203.783	57.47
204.003	53.84
204.223	39.46
204.443	37.92
204.663	41.38
204.884	36.73
205.104	33.35
205.324	38.45
205.544	38.8
205.764	48.6
205.984	55.23
206.204	54.61
206.424	43.29
206.644	43.2
206.864	39.89
207.084	44.63
207.304	39.89
207.525	45.57
207.745	43.46
207.964	49.96
208.184	45.38
208.404	37.44
208.624	20.25
208.844	14.19
209.064	7.99
209.284	18.67
209.504	20.75
209.724	23.19
209.944	24.87
210.164	25.91
210.384	49.57
210.604	54.45
210.823	36.44
211.043	27.95
211.263	28.96
211.483	29.57
211.703	45.6
211.922	40.35
212.142	40.94
212.362	45.04
212.582	48.9
212.801	44.3
213.021	50.08
213.241	38.05
213.461	34.49
213.68	32.12
213.9	34.94
214.12	33.21
214.339	40
214.559	52.42
214.779	60.88
214.998	51.64
215.218	54.89
215.438	50.46
215.657	50.87
215.877	47.52
216.096	32.06
216.316	25.91
216.535	31.7
216.755	21.62
216.974	24.01
217.194	24.25
217.413	33.82
217.633	32.06
217.852	42.59
218.072	36.38
218.291	46.93
218.511	43.83
218.73	39.4
218.95	33.73
219.169	51.01
219.389	42.21
219.608	63.77
219.827	62.96
220.047	78.91
220.266	79.92
220.485	82.95
220.705	53.15
220.924	49.58
221.143	31.54
221.363	34.91
221.582	27.85
221.801	25.37
222.021	13.75
222.24	25.97
222.459	30.2
222.678	23.43
222.897	20.19
223.117	10.85
223.336	-2.39
223.555	-3.22
223.774	-2.55
223.993	14.06
224.213	30.22
224.432	30.94
224.651	46.33
224.87	61.33
225.089	63.63
225.308	66.77
225.527	56.03
225.746	47.06
225.965	39.41
226.184	29.8
226.404	12.33
226.623	17.3
226.842	2.59
227.061	16.99
227.28	23.62
227.499	31.87
227.718	31.37
227.936	35.09
228.155	28.05
228.374	34.84
228.593	21.08
228.812	19.27
229.031	10.93
229.25	21.57
229.469	28.46
229.688	40.04
229.907	36.57
230.125	45.32
230.344	47.6
230.563	59.03
230.782	48.51
231.001	52.28
231.22	49.02
231.438	45.55
231.657	45.55
231.876	43.63
232.095	37.26
232.313	43.51
232.532	36.03
232.751	37.57
232.969	45.6
233.188	40.49
233.407	37.18
233.625	33.54
233.844	36.59
234.063	36.51
234.281	26
234.5	22.02
234.719	17.29
234.937	21.47
235.156	25.2
235.374	15.22
235.593	13.16
235.811	23.03
236.03	19.88
236.249	38.3
236.467	30.97
236.686	33.99
236.904	34.88
237.123	38.49
237.341	36.27
237.559	41.88
237.778	41.08
237.996	42.54
238.215	38.84
238.433	42.62
238.652	36.06
238.87	42.3
239.088	36.05
239.307	32.97
239.525	24.17
239.743	19.91
239.962	14.95
240.18	25.68
240.398	13.34
240.617	19.85
240.835	21.24
241.053	29.36
241.271	38.35
241.49	28.24
241.708	25.58
241.926	22.13
242.144	26.33
242.363	22.25
242.581	28.52
242.799	15.08
243.017	24.73
243.235	20.77
243.453	28.36
243.672	27.87
243.89	32.88
244.108	32.3
244.326	27.19
244.544	33.43
244.762	42.9
244.98	34.34
245.198	24.09
245.416	24.08
245.634	26.71
245.852	49.15
246.07	57.23
246.288	43.81
246.506	61.59
246.724	72.48
246.942	68.64
247.16	69.34
247.378	45.71
247.596	31.98
247.814	25.52
248.032	22.56
248.25	22.65
248.468	26.12
248.685	20.67
248.903	29.45
249.121	31.83
249.339	49.3
249.557	49.17
249.775	25.08
249.992	19.09
250.21	13.49
250.428	14.7
250.646	20
250.863	10.04
251.081	14.15
251.299	41.53
251.517	47.92
251.734	46.73
251.952	47.11
252.17	34.14
252.387	29.85
252.605	17.19
252.823	-0.11
253.04	-7.25
253.258	-4.65
253.475	2.09
253.693	21.41
253.911	30.93
254.128	35.76
254.346	36.45
254.563	40.57
254.781	43.28
254.998	41.38
255.216	33.71
255.433	36.2
255.651	31.43
255.868	37.92
256.086	30.88
256.303	37.93
256.521	33.14
256.738	40.95
256.956	30.32
257.173	30.32
257.39	28.33
257.608	35.92
257.825	23.67
258.043	28.96
258.26	28.27
258.477	35.16
258.695	36.4
258.912	46.85
259.129	27.42
259.346	35.71
259.564	38.36
259.781	39.22
259.998	34.14
260.216	40.16
260.433	27.98
260.65	41.48
260.867	28.83
261.084	25.94
261.302	13.19
261.519	4.01
261.736	-6.27
261.953	2.13
262.17	6.5
262.387	6.66
262.604	-1.01
262.822	16.72
263.039	29.84
263.256	34.98
263.473	29.92
263.69	34.16
263.907	47.88
264.124	39.94
264.341	33.58
264.558	30.73
264.775	31.7
264.992	24.04
265.209	28.93
265.426	23.05
265.643	29.81
265.86	24.61
266.077	24.99
266.294	27.53
266.51	40.15
266.727	35.73
266.944	32.25
267.161	28
267.378	43.26
267.595	28.3
267.812	12.35
268.028	8.96
268.245	10.71
268.462	21.85
268.679	25.57
268.896	14.23
269.112	27.44
269.329	37.68
269.546	31.33
269.763	33.82
269.979	32
270.196	35.11
270.413	43.8
270.629	43.14
270.846	39.84
271.063	39.19
271.279	34.7
271.496	29.91
271.712	22.11
271.929	27.74
272.146	26.91
272.362	19.03
272.579	23.99
272.795	15.68
273.012	13.52
273.228	20.53
273.445	11.29
273.661	7.01
273.878	15.87
274.094	13.62
274.311	22.77
274.527	26.26
274.744	23.3
274.96	28.85
275.177	30.45
275.393	32.53
275.609	46.7
275.826	40.25
276.042	46.42
276.259	44.5
276.475	42.09
276.691	46.41
276.908	37.2
277.124	30.33
277.34	29.94
277.557	35.08
277.773	27.87
277.989	25.07
278.205	3.85
278.422	9.81
278.638	12.04
278.854	15.82
279.07	-0.41
279.286	9.09
279.503	15.06
279.719	42.3
279.935	43.01
280.151	47.42
280.367	51.06
280.583	56.05
280.799	56.01
281.016	51.77
281.232	43.45
281.448	33.35
281.664	24.72
281.88	35.04
282.096	41.87
282.312	38.04
282.528	37.41
282.744	33.6
282.96	47.43
283.176	48.94
283.392	54.8
283.608	47.83
283.824	46.4
284.04	44.82
284.256	51.96
284.471	47.43
284.687	43.57
284.903	29.75
285.119	13.3
285.335	14.28
285.551	24.35
285.767	27.61
285.982	25.55
286.198	21.55
286.414	23.95
286.63	42.73
286.846	44.36
287.061	38.88
287.277	33.17
287.493	34.38
287.709	33.81
287.924	41.69
288.14	37.49
288.356	39.11
288.571	28.6
288.787	27.77
289.003	24.52
289.218	34.84
289.434	32.86
289.65	40.43
289.865	50.02
290.081	48.35
290.296	47.75
290.512	56.71
290.727	63.8
290.943	49.46
291.159	39.9
291.374	34.47
291.59	27.6
291.805	28.84
292.021	16.66
292.236	8.04
292.451	21.96
292.667	24.59
292.882	15.24
293.098	15.65
293.313	10.03
293.529	10.39
293.744	6.8
293.959	7.69
294.175	7.2
294.39	15.74
294.605	30.84
294.821	26.01
295.036	36.86
295.251	39.24
295.467	34.51
295.682	29.71
295.897	21.92
296.112	23.24
296.328	29.81
296.543	29.15
296.758	26.5
296.973	38.46
297.188	36.41
297.404	37.63
297.619	36.49
297.834	40.53
298.049	29.76
298.264	33.32
298.479	12.86
298.694	23.63
298.909	28.93
299.125	25.53
299.34	17.31
299.555	23.31
299.77	18.64
299.985	24.33
300.2	22.92
300.415	23.48
300.63	19.41
300.845	30.56
301.06	22.8
301.275	30.93
301.49	34.44
301.704	24.24
301.919	18.6
302.134	20.35
302.349	2.15
302.564	10.32
302.779	2.09
302.994	-8.14
303.209	-1.8
303.423	10.27
303.638	14.03
303.853	34.39
304.068	29.98
304.283	34.58
304.497	41.61
304.712	41.62
304.927	28.36
305.142	27
305.356	26.22
305.571	26.2
305.786	13.39
306	25.42
306.215	24.95
306.43	42.14
306.644	44.45
306.859	42.6
307.074	39.45
307.288	52.9
307.503	41.23
307.717	42.35
307.932	36.19
308.147	34.32
308.361	34.14
308.576	35.33
308.79	33.45
309.005	39.26
309.219	42.92
309.434	39.86
309.648	36.04
309.863	32.38
310.077	27.79
310.292	22.57
310.506	26.99
310.72	22.59
310.935	31.46
311.149	32.84
311.364	40.25
311.578	42.37
311.792	40.31
312.007	31.98
312.221	33.85
312.435	28.16
312.649	-1.15
312.864	-10.04
313.078	6.01
313.292	4.58
313.507	26.14
313.721	20.7
313.935	34.06
314.149	59.23
314.363	60.91
314.578	74.37
314.792	78.82
315.006	70.86
315.22	72.81
315.434	58.86
315.648	56.08
315.862	52.18
316.077	35.75
316.291	43.51
316.505	40.08
316.719	21.99
316.933	32.69
317.147	28.86
317.361	27.64
317.575	36.79
317.789	30.93
318.003	29.05
318.217	42.33
318.431	40.25
318.645	42.59
318.859	33.1
319.073	22.27
319.287	20.36
319.5	15.94
319.714	10.35
319.928	10.53
320.142	14.34
320.356	37.63
320.57	38.26
320.784	41.87
320.997	47.91
321.211	49.66
321.425	49.01
321.639	38.82
321.853	25.95
322.066	30.27
322.28	34.89
322.494	31.6
322.707	32.04
322.921	29.13
323.135	44.18
323.349	42.26
323.562	39.69
323.776	36.61
323.989	32.83
324.203	37.87
324.417	37.27
324.63	27.67
324.844	29.28
325.057	33.43
325.271	25.27
325.485	34.89
325.698	32.16
325.912	36.05
326.125	42.21
326.339	46.84
326.552	46.72
326.766	57.93
326.979	59.94
327.193	62.91
327.406	60.84
327.619	38.87
327.833	38.28
328.046	35.54
328.26	22.53
328.473	27.79
328.686	33.38
328.9	29.16
329.113	35.94
329.326	31.5
329.54	33.55
329.753	39.28
329.966	32.65
330.179	25.49
330.393	28.38
330.606	41.85
330.819	45.99
331.032	46.72
331.246	48.34
331.459	47.97
331.672	51.3
331.885	44.06
332.098	41.71
332.311	31.67
332.525	29.37
332.738	23.88
332.951	21.36
333.164	8.15
333.377	12.91
333.59	19.68
333.803	23.27
334.016	20.67
334.229	33.49
334.442	49.14
334.655	59.57
334.868	63.74
335.081	56.52
335.294	57.3
335.507	52.43
335.72	36.91
335.933	33.79
336.146	28.83
336.359	22.23
336.572	17.98
336.785	20.49
336.997	13.7
337.21	21.8
337.423	10.61
337.636	14.41
337.849	17.93
338.062	24.09
338.274	26.19
338.487	33.56
338.7	31.6
338.913	31.42
339.125	36.03
339.338	44.33
339.551	42.38
339.763	37.54
339.976	35.41
340.189	34.98
340.402	38.58
340.614	38.82
340.827	27.94
341.039	26.4
341.252	26.19
341.465	24.34
341.677	13.99
341.89	12.3
342.102	9.58
342.315	16.75
342.527	13.99
342.74	19.77
342.952	23.52
343.165	39.8
343.377	45.74
343.59	50.92
343.802	48.04
344.015	46.03
344.227	32.4
344.44	30.55
344.652	30.75
344.864	26.38
345.077	17.65
345.289	12
345.502	12.77
345.714	13.14
345.926	14.6
346.139	13.57
346.351	-6.67
346.563	6.68
346.775	12.96
346.988	16.75
347.2	26.22
347.412	17.82
347.624	21.14
347.837	32.39
348.049	28.2
348.261	25.62
348.473	17.69
348.685	21.63
348.897	21.18
349.11	21.83
349.322	14.47
349.534	8.36
349.746	14.99
349.958	18.75
350.17	26.46
350.382	24.32
350.594	34.5
350.806	49.59
351.018	55.5
351.23	52.02
351.442	49.11
351.654	43.21
351.866	54.79
352.078	38.09
352.29	38.02
352.502	33.7
352.714	32.22
352.926	33.83
353.138	25.74
353.35	15.71
353.561	14.84
353.773	13.14
353.985	12.97
354.197	11.62
354.409	17.27
354.621	19.24
354.832	18.26
355.044	37.64
355.256	31.38
355.468	38.84
355.679	37.67
355.891	27.99
356.103	32.5
356.314	37.51
356.526	27.65
356.738	23.2
356.949	21.34
357.161	9.78
357.373	17.4
357.584	22.93
357.796	18.2
358.008	16.43
358.219	33.22
358.431	29.4
358.642	36.19
358.854	32.22
359.065	25.66
359.277	18.3
359.488	11.21
359.7	10.53
359.911	17.03
360.123	29.17
360.334	28.02
360.546	21.45
360.757	36.85
360.969	48.86
361.18	34.92
361.391	28.75
361.603	22.54
361.814	22.34
362.025	27.01
362.237	23.24
362.448	22.6
362.659	23.02
362.871	23.26
363.082	26.23
363.293	28.75
363.504	33.79
363.716	28.36
363.927	30.31
364.138	32.96
364.349	35.29
364.56	28.09
364.772	31.33
364.983	20.21
365.194	18.76
365.405	14.85
365.616	17.68
365.827	14.42
366.038	24.57
366.25	21.44
366.461	33.95
366.672	33.25
366.883	35.35
367.094	34.11
367.305	29.54
367.516	29.47
367.727	27.76
367.938	27.75
368.149	34.82
368.36	27.46
368.571	24.78
368.781	24.45
368.992	18.94
369.203	16.29
369.414	12.57
369.625	11.68
369.836	12.78
370.047	14.58
370.258	16.59
370.468	14.89
370.679	15.02
370.89	26.02
371.101	20.91
371.312	22.82
371.522	24.55
371.733	21.11
371.944	27.83
372.155	25.32
372.365	7.2
372.576	4.99
372.787	6
372.997	6.07
373.208	12.71
373.419	14.88
373.629	26.12
373.84	32.26
374.05	43.8
374.261	33.51
374.472	31.49
374.682	20.15
374.893	7.26
375.103	2.73
375.314	0.6
375.524	-0.39
375.735	7.34
375.945	12.04
376.156	25.56
376.366	34.05
376.577	34.77
376.787	42.89
376.997	44.95
377.208	39.77
377.418	35.51
377.629	28.32
377.839	30.26
378.049	32.05
378.26	32.46
378.47	32.44
378.68	30.09
378.89	24.21
379.101	18.21
379.311	13.82
379.521	9.11
379.732	-2.52
379.942	-2.84
380.152	8.61
380.362	14.07
380.572	21.52
380.783	23.63
380.993	21.78
381.203	25.41
381.413	24.79
381.623	25.58
381.833	22.56
382.043	17.52
382.253	21.38
382.463	27.98
382.674	32.79
382.884	27.72
383.094	21.56
383.304	25.78
383.514	27.87
383.724	20
383.934	15.38
384.144	13.18
384.353	15.58
384.563	15.54
384.773	15.59
384.983	15.62
385.193	18.63
385.403	19.64
385.613	15.73
385.823	14.5
386.033	13.03
386.242	11.48
386.452	9.27
386.662	10.43
386.872	11.88
387.082	10.77
387.291	9.67
387.501	13.1
387.711	13.37
387.921	14.69
388.13	11.09
388.34	12.82
388.55	14.52
388.759	13.83
388.969	10.98
389.179	13.33
389.388	11.41
389.598	8.95
389.807	7.05
390.017	6.47
390.227	4.64
390.436	4.9
390.646	3.27
390.855	4.81
391.065	7.1
391.274	4.94
391.484	5.72
391.693	9.75
391.903	8.92
392.112	7.96
392.322	8.87
392.531	8.71
392.74	7.89
392.95	8.98
393.159	6.73
393.369	6.55
393.578	7.08
393.787	5.69
393.997	6.35
394.206	7.2
394.415	6.87
394.625	6.13
394.834	5.98
395.043	6.07
395.252	6.05
395.462	6.11
395.671	6.82
395.88	6.86
396.089	7.42
396.298	7.72
396.508	7.42
396.717	6.85
396.926	6.62
397.135	5.6
397.344	4.83
397.553	5.17
397.762	4.79
397.971	4.52
398.181	4.22
398.39	3.98
398.599	4.32
398.808	4.67
399.017	4.6
399.226	4.8
399.435	4.63
399.644	5.09
399.853	4.97
400.062	4.83
400.27	4.8
400.479	4.4
400.688	4.44
400.897	4.72
401.106	4.95
401.315	4.87
401.524	5.02
401.733	4.85
401.941	5.02
402.15	4.85
402.359	4.72
402.568	4.57
402.777	4.63
402.985	4.53
403.194	4.64
403.403	4.55
403.612	4.56
403.82	4.51
404.029	4.43
404.238	4.51
404.446	4.4
404.655	4.19
404.864	4.16
405.072	4.14
405.281	4.08
405.489	4.07
405.698	3.95
405.906	3.92
406.115	4.14
406.324	4.08
406.532	4.14
406.741	4.24
406.949	4.23
407.158	4.3
407.366	4.39
407.574	4.31
407.783	4.26
407.991	4.18
408.2	4.17
408.408	4.17
408.617	4.14
408.825	4.16
409.033	4.14
409.242	4.18
409.45	4.19
409.658	4.1
409.867	4.07
410.075	4.03
410.283	3.89
410.491	3.83
410.7	3.88
410.908	3.88
411.116	3.86
411.324	3.86
411.533	3.77
411.741	3.79
411.949	3.85
412.157	3.84
412.365	3.9
412.573	3.95
412.781	3.94
412.99	4.06
413.198	4.13
413.406	4.08
413.614	4.11
413.822	4.01
414.03	3.91
414.238	3.98
414.446	3.89
414.654	3.79
414.862	3.78
415.07	3.71
415.278	3.63
415.486	3.78
415.694	3.66
415.902	3.66
416.109	3.71
416.317	3.69
416.525	3.85
416.733	3.95
416.941	3.82
417.149	4
417.357	3.97
417.564	3.9
417.772	3.93
417.98	3.74
418.188	3.62
418.395	3.64
418.603	3.46
418.811	3.43
419.019	3.52
419.226	3.54
419.434	3.46
419.642	3.47
419.849	3.43
420.057	3.46
420.265	3.51
420.472	3.46
420.68	3.44
420.887	3.51
421.095	3.61
421.302	3.66
421.51	3.77
421.717	3.77
421.925	3.76
422.132	3.69
422.34	3.67
422.547	3.56
422.755	3.6
422.962	3.47
423.17	3.39
423.377	3.47
423.585	3.5
423.792	3.44
423.999	3.48
424.207	3.37
424.414	3.37
424.621	3.45
424.829	3.31
425.036	3.28
425.243	3.37
425.451	3.37
425.658	3.44
425.865	3.46
426.072	3.47
426.28	3.59
426.487	3.55
426.694	3.5
426.901	3.43
427.108	3.47
427.315	3.5
427.523	3.55
427.73	3.57
427.937	3.7
428.144	3.76
428.351	3.91
428.558	3.84
428.765	3.78
428.972	3.75
429.179	3.65
429.386	3.68
429.593	3.63
429.8	3.67
430.007	3.77
430.214	3.78
430.421	3.76
430.628	3.7
430.835	3.65
431.042	3.69
431.249	3.64
431.456	3.58
431.662	3.66
431.869	3.74
432.076	3.92
432.283	3.91
432.49	3.91
432.697	3.91
432.903	3.94
433.11	3.99
433.317	4
433.524	3.84
433.73	3.87
433.937	3.87
434.144	3.97
434.35	3.97
434.557	3.93
434.764	3.92
434.97	4.11
435.177	4.1
435.384	4.23
435.59	4.17
435.797	4.21
436.003	4.2
436.21	4.17
436.416	4.11
436.623	4.18
436.829	4.11
437.036	4.11
437.242	4.11
437.449	4.15
437.655	4.18
437.862	4.21
438.068	4.2
438.275	4.2
438.481	4.3
438.687	4.39
438.894	4.35
439.1	4.35
439.307	4.36
439.513	4.35
439.719	4.4
439.926	4.37
440.132	4.36
440.338	4.4
440.544	4.43
440.751	4.49
440.957	4.52
441.163	4.54
441.369	4.52
441.575	4.54
441.782	4.49
441.988	4.5
442.194	4.51
442.4	4.56
442.606	4.58
442.812	4.64
443.018	4.69
443.224	4.8
443.431	4.81
443.637	4.79
443.843	4.79
444.049	4.74
444.255	4.72
444.461	4.67
444.667	4.61
444.873	4.66
445.079	4.66
445.284	4.6
445.49	4.61
445.696	4.67
445.902	4.71
446.108	4.72
446.314	4.73
446.52	4.76
446.726	4.87
446.931	4.95
447.137	4.92
447.343	4.88
447.549	4.88
447.755	4.85
447.96	4.85
448.166	4.87
448.372	4.85
448.578	4.85
448.783	4.85
448.989	4.94
449.195	4.99
449.4	5.02
449.606	4.95
449.812	5
450.017	5.01
450.223	5.05
450.428	5.06
450.634	5.09
450.84	5.11
451.045	5.14
451.251	5.17
451.456	5.18
451.662	5.21
451.867	5.18
452.073	5.15
452.278	5.18
452.483	5.19
452.689	5.2
452.894	5.24
453.1	5.22
453.305	5.26
453.51	5.3
453.716	5.32
453.921	5.35
454.127	5.31
454.332	5.35
454.537	5.43
454.742	5.46
454.948	5.46
455.153	5.46
455.358	5.51
455.563	5.55
455.769	5.54
455.974	5.5
456.179	5.45
456.384	5.47
456.589	5.46
456.795	5.4
457	5.44
457.205	5.42
457.41	5.43
457.615	5.51
457.82	5.59
458.025	5.59
458.23	5.68
458.435	5.63
458.64	5.72
458.845	5.71
459.05	5.75
459.255	5.69
459.46	5.71
459.665	5.74
459.87	5.82
460.075	5.79
460.28	5.87
460.485	5.88
460.69	5.88
460.895	5.91
461.099	5.89
461.304	5.9
461.509	5.88
461.714	5.89
461.919	5.86
462.123	5.95
462.328	6
462.533	6.03
462.738	6.02
462.942	6.13
463.147	6.17
463.352	6.23
463.556	6.22
463.761	6.2
463.966	6.27
464.17	6.32
464.375	6.27
464.58	6.26
464.784	6.31
464.989	6.34
465.193	6.39
465.398	6.42
465.602	6.46
465.807	6.57
466.011	6.6
466.216	6.65
466.42	6.7
466.625	6.72
466.829	6.74
467.034	6.75
467.238	6.76
467.443	6.81
467.647	6.78
467.851	6.76
468.056	6.73
468.26	6.69
468.464	6.71
468.669	6.73
468.873	6.69
