Data from Ofra_PS_T2_1A_4HS15_Reflection_1.txt Node
Date: Wed Jul 21 18:06:59 EDT 2021
User: Adam
Spectrometer: FLMT01687
Trigger mode: 0
Integration Time (sec): 1.100000E0
Scans to average: 2
Electric dark correction enabled: true
Nonlinearity correction enabled: false
Boxcar width: 2
XAxis mode: Wavelengths
Number of Pixels in Spectrum: 3648
>>>>>Begin Spectral Data<<<<<
179.494	530.4
179.716	614.12
179.937	572.78
180.158	506.25
180.38	871.87
180.601	435.91
180.823	135.04
181.044	-17.06
181.265	225
181.486	94.1
181.708	47.11
181.929	110.2
182.15	-80.28
182.372	103.38
182.593	80.49
182.814	60.41
183.035	111.13
183.257	80.12
183.478	69.57
183.699	93.43
183.92	29.61
184.141	32.99
184.363	-1.83
184.584	30.69
184.805	48.05
185.026	64.44
185.247	47.99
185.468	24.44
185.689	21.65
185.91	13.41
186.132	31.99
186.353	42.82
186.574	109.99
186.795	100.09
187.016	92.63
187.237	63.64
187.458	44.78
187.679	52.9
187.9	26.23
188.121	6.12
188.342	14.19
188.563	55.45
188.784	55.18
189.005	48.01
189.226	116.69
189.447	68.53
189.667	-34.95
189.888	-180.3
190.109	-498.7
190.33	-427.74
190.551	-793.81
190.772	-140.92
190.993	-151.07
191.214	-117.9
191.434	-64.02
191.655	43.44
191.876	21.31
192.097	-38.29
192.318	-97.13
192.538	-159.24
192.759	-145.43
192.98	-50.06
193.201	20.7
193.421	30.59
193.642	35.17
193.863	45.47
194.083	12.87
194.304	-7.19
194.525	-17.08
194.745	-11.05
194.966	-51.7
195.187	-55.39
195.407	-79.81
195.628	-98.82
195.848	-126.65
196.069	-127.84
196.29	-63.94
196.51	-60.07
196.731	-76.05
196.951	-102.31
197.172	-91.32
197.392	-108.16
197.613	-80.1
197.833	-87.29
198.054	-77.52
198.274	-36.87
198.495	-44.91
198.715	-24.5
198.936	-24.26
199.156	-11.21
199.377	-92.54
199.597	-94
199.817	-123.59
200.038	-53.9
200.258	-83.84
200.479	8.04
200.699	26.5
200.919	90.08
201.14	44
201.36	13.12
201.58	31.89
201.801	47.89
202.021	3.42
202.241	-6.02
202.461	-5.21
202.682	-110.77
202.902	-161.17
203.122	-88.18
203.342	-70.04
203.563	-30.59
203.783	1.03
204.003	-44.46
204.223	-41.58
204.443	31.51
204.663	17.28
204.884	25.51
205.104	58.93
205.324	65.37
205.544	40.55
205.764	58.36
205.984	53.2
206.204	52.58
206.424	35.39
206.644	-9.1
206.864	4.49
207.084	-44.07
207.304	-58.1
207.525	-119.06
207.745	1.69
207.964	30.78
208.184	-7.48
208.404	-49.03
208.624	-60.45
208.844	-87.67
209.064	-417.51
209.284	-427.46
209.504	-158.16
209.724	-25.68
209.944	-12.48
210.164	37.25
210.384	43.98
210.604	27.39
210.823	-14.63
211.043	-39.02
211.263	-35.52
211.483	-32.09
211.703	-76.73
211.922	-54.45
212.142	13.27
212.362	20.8
212.582	19
212.801	23.58
213.021	4.7
213.241	-14.41
213.461	-72.45
213.68	-98.67
213.9	-60.44
214.12	-30.36
214.339	-67.98
214.559	-23.29
214.779	16.68
214.998	-3.37
215.218	-60.89
215.438	-22.58
215.657	-42.14
215.877	-48.65
216.096	-6.17
216.316	19.88
216.535	15
216.755	33.89
216.974	-4.79
217.194	-47.67
217.413	-50.26
217.633	-56.99
217.852	-143.95
218.072	-48.26
218.291	-10.46
218.511	6.01
218.73	-12.32
218.95	-6.04
219.169	-15
219.389	-52.58
219.608	-35.24
219.827	-29.18
220.047	-5.68
220.266	9.72
220.485	18.16
220.705	31.09
220.924	9.48
221.143	26.61
221.363	8.52
221.582	13.95
221.801	27.16
222.021	37.19
222.24	-35.2
222.459	5.16
222.678	7.98
222.897	-93.51
223.117	-116.01
223.336	-75.95
223.555	-60.65
223.774	-23.87
223.993	14.3
224.213	65.76
224.432	59.76
224.651	74.08
224.87	35.63
225.089	44.18
225.308	46.96
225.527	62.29
225.746	67.2
225.965	54.1
226.184	44.64
226.404	38.6
226.623	0.77
226.842	-16.56
227.061	19.23
227.28	18.52
227.499	2.6
227.718	25.09
227.936	34.5
228.155	46.11
228.374	42.61
228.593	30.64
228.812	32.49
229.031	21.52
229.25	-45.41
229.469	-61.78
229.688	-50.8
229.907	-12.57
230.125	10.38
230.344	47.78
230.563	55.85
230.782	71.66
231.001	9.41
231.22	-16.1
231.438	11.34
231.657	15.24
231.876	-5.94
232.095	45.63
232.313	63.93
232.532	15.7
232.751	-17.98
232.969	-19.36
233.188	-115.19
233.407	-45.35
233.625	-1.13
233.844	-3.43
234.063	9.29
234.281	24.46
234.5	17.96
234.719	8.89
234.937	25.75
235.156	25.14
235.374	27.83
235.593	5.13
235.811	19.77
236.03	14.05
236.249	-22.28
236.467	-20.89
236.686	16.14
236.904	12.61
237.123	-11.79
237.341	-7.18
237.559	-6.01
237.778	-25.42
237.996	-54.88
238.215	-7.07
238.433	2.44
238.652	9.19
238.87	-24.19
239.088	4.53
239.307	8.01
239.525	4.85
239.743	-28.87
239.962	2.33
240.18	-34.58
240.398	-71.66
240.617	-73.26
240.835	-60.99
241.053	-44.33
241.271	-5.73
241.49	6.31
241.708	1.87
241.926	11.17
242.144	16.88
242.363	-37.86
242.581	-68.01
242.799	-43.55
243.017	-20.66
243.235	-41.45
243.453	-25.11
243.672	-4.92
243.89	-5.95
244.108	-14.96
244.326	8.39
244.544	24.7
244.762	11.83
244.98	23.09
245.198	28.03
245.416	4.95
245.634	-2.92
245.852	6
246.07	2.98
246.288	15.61
246.506	-3.75
246.724	6.06
246.942	-1.79
247.16	17.45
247.378	23.8
247.596	39.61
247.814	48.93
248.032	18.81
248.25	8.56
248.468	-3.44
248.685	5.43
248.903	5.38
249.121	16.97
249.339	-3.99
249.557	0.8
249.775	-3.61
249.992	-41.71
250.21	-36.81
250.428	-19.91
250.646	-39.66
250.863	-40.41
251.081	-16.03
251.299	4.7
251.517	6.75
251.734	-1.37
251.952	-29.02
252.17	-9.51
252.387	0.42
252.605	-7.94
252.823	-3.2
253.04	24.11
253.258	31.64
253.475	2.89
253.693	34.03
253.911	52.61
254.128	62.17
254.346	68.72
254.563	62.61
254.781	35.23
254.998	8.08
255.216	-7.07
255.433	-10.2
255.651	40.82
255.868	48.18
256.086	66.87
256.303	52.91
256.521	39.48
256.738	1.85
256.956	-14.73
257.173	-28.08
257.39	-41.62
257.608	-63.62
257.825	8.42
258.043	42.72
258.26	35.49
258.477	71.85
258.695	66.71
258.912	6.92
259.129	5.56
259.346	-27
259.564	-65.91
259.781	-82.5
259.998	-10.82
260.216	17.67
260.433	57.92
260.65	56.63
260.867	70.92
261.084	32.51
261.302	15.67
261.519	-3.71
261.736	-38.07
261.953	-46.9
262.17	0.22
262.387	-32.3
262.604	-68.28
262.822	-75.14
263.039	-58.04
263.256	-119.62
263.473	-88.07
263.69	-46.84
263.907	16.06
264.124	26.48
264.341	30.8
264.558	32.28
264.775	55.68
264.992	35.8
265.209	26.2
265.426	50.17
265.643	50.51
265.86	43.15
266.077	46.84
266.294	51
266.51	7.04
266.727	6.04
266.944	4.77
267.161	-1.45
267.378	-4.4
267.595	20.45
267.812	-6.53
268.028	0.25
268.245	6.21
268.462	-23.63
268.679	-34.85
268.896	11.23
269.112	8.54
269.329	17.47
269.546	29.74
269.763	15.9
269.979	5.65
270.196	-5.28
270.413	-34.87
270.629	-48.98
270.846	-45.11
271.063	-42.65
271.279	-55.45
271.496	-53.67
271.712	-12.25
271.929	19.38
272.146	-0.27
272.362	29.73
272.579	49.17
272.795	36.37
273.012	34.87
273.228	51.85
273.445	30.85
273.661	28.52
273.878	-14.65
274.094	-0.23
274.311	-21.18
274.527	26.99
274.744	17.12
274.96	27.85
275.177	15.52
275.393	28.04
275.609	14.91
275.826	39.7
276.042	28.61
276.259	-8.24
276.475	6.87
276.691	11.47
276.908	-14.85
277.124	7.01
277.34	13.5
277.557	4.38
277.773	-7.11
277.989	-10.29
278.205	-24.52
278.422	-9.86
278.638	-13.52
278.854	-0.86
279.07	6.05
279.286	2.32
279.503	-16.06
279.719	-15.24
279.935	-34.39
280.151	-49.92
280.367	-3.56
280.583	-9.77
280.799	0.56
281.016	-24.64
281.232	13.3
281.448	-6.99
281.664	11.69
281.88	-29.22
282.096	-1.64
282.312	12.88
282.528	25.14
282.744	29.66
282.96	39.74
283.176	24.13
283.392	5.2
283.608	0.73
283.824	11.62
284.04	12.12
284.256	19.42
284.471	7.8
284.687	8.97
284.903	28.62
285.119	56.9
285.335	49.41
285.551	72.99
285.767	31.16
285.982	-7.7
286.198	-52.11
286.414	0.4
286.63	0.17
286.846	44.58
287.061	25.56
287.277	49.02
287.493	18.19
287.709	42.46
287.924	21.88
288.14	66.65
288.356	62.65
288.571	69.45
288.787	40.49
289.003	34.72
289.218	-4.44
289.434	-41.11
289.65	-46.68
289.865	-48.71
290.081	3.21
290.296	30.49
290.512	58.66
290.727	51.11
290.943	41.65
291.159	0.87
291.374	-2.19
291.59	-24.92
291.805	-19.07
292.021	-13.41
292.236	-13.07
292.451	7.78
292.667	20.55
292.882	24.85
293.098	20.46
293.313	13.7
293.529	-1.87
293.744	-20.2
293.959	-16.99
294.175	-12.49
294.39	10.11
294.605	20.89
294.821	41.41
295.036	34.51
295.251	40.64
295.467	16.13
295.682	-11.88
295.897	-56.22
296.112	-54.45
296.328	-55.34
296.543	-71.49
296.758	-51.56
296.973	-17
297.188	12.8
297.404	-20.51
297.619	-30.8
297.834	-35.04
298.049	-54.53
298.264	-81.88
298.479	-12.34
298.694	3.6
298.909	16.54
299.125	28.44
299.34	26.07
299.555	-6.48
299.77	2.52
299.985	-32.46
300.2	-91.36
300.415	-77.31
300.63	-45.02
300.845	-52.65
301.06	-54.7
301.275	-17.78
301.49	-8.74
301.704	-17.84
301.919	-32.78
302.134	-35.29
302.349	-39.92
302.564	-104.81
302.779	-99.39
302.994	-43.73
303.209	-8.5
303.423	30.38
303.638	75.64
303.853	32.2
304.068	12.6
304.283	9.1
304.497	-4.08
304.712	-25.44
304.927	-20.97
305.142	-21.74
305.356	-1.7
305.571	6.8
305.786	-3.66
306	-1.16
306.215	13.76
306.43	-30
306.644	-38.8
306.859	32.24
307.074	30.15
307.288	3.75
307.503	-3.57
307.717	-10.44
307.932	-15.79
308.147	-10.51
308.361	7.04
308.576	12.71
308.79	-16.89
309.005	-23.99
309.219	-8.52
309.434	-15.81
309.648	-23.54
309.863	4.88
310.077	0
310.292	-3.43
310.506	9.85
310.72	19.66
310.935	28.75
311.149	19.37
311.364	27.41
311.578	26.6
311.792	19.7
312.007	12.17
312.221	2.87
312.435	-4.99
312.649	-25.15
312.864	8.07
313.078	23.27
313.292	72.32
313.507	61.8
313.721	131.48
313.935	39.2
314.149	35.46
314.363	32.62
314.578	34.19
314.792	24.46
315.006	21.88
315.22	35.43
315.434	40.5
315.648	41.38
315.862	44.8
316.077	30.5
316.291	11.03
316.505	1.7
316.719	-4.55
316.933	-25.79
317.147	4.9
317.361	-49
317.575	-61.29
317.789	-105.42
318.003	-146.37
318.217	-137.24
318.431	-47.65
318.645	-20.56
318.859	-3.09
319.073	22.17
319.287	15.74
319.5	-9.36
319.714	-34.81
319.928	-47.42
320.142	-85.85
320.356	-35.77
320.57	-9.1
320.784	-13.37
320.997	-36.1
321.211	-18.56
321.425	-63.84
321.639	-70.93
321.853	-15.46
322.066	6.65
322.28	3.61
322.494	5.97
322.707	13.61
322.921	-1.92
323.135	-7.24
323.349	8.89
323.562	1.68
323.776	-8.7
323.989	-7.26
324.203	-26.35
324.417	-49.53
324.63	-66.02
324.844	-61.04
325.057	-64.9
325.271	-45.38
325.485	-6.59
325.698	14.03
325.912	18.95
326.125	-8.6
326.339	9.84
326.552	-3.97
326.766	-0.59
326.979	15.68
327.193	64.77
327.406	44.66
327.619	29.42
327.833	38.92
328.046	17.91
328.26	-42.31
328.473	-23.14
328.686	-45.94
328.9	-54.94
329.113	-37.42
329.326	-43.46
329.54	-33.21
329.753	-27.03
329.966	-32.21
330.179	-16.86
330.393	4.29
330.606	14.54
330.819	21.19
331.032	30.64
331.246	31.49
331.459	53
331.672	48.48
331.885	34.48
332.098	22.2
332.311	15.22
332.525	-40.99
332.738	-47.47
332.951	-9.59
333.164	6.32
333.377	19.38
333.59	48.49
333.803	57.58
334.016	51.44
334.229	29.85
334.442	28.56
334.655	20.31
334.868	15.62
335.081	20.93
335.294	27.97
335.507	33.62
335.72	45.82
335.933	31.93
336.146	24.73
336.359	26.62
336.572	-24
336.785	-59.25
336.997	-45.48
337.21	-28.77
337.423	-28.94
337.636	-12.49
337.849	9.69
338.062	-10.57
338.274	-4.91
338.487	-18.02
338.7	-22.95
338.913	-63.36
339.125	-70.52
339.338	-138.97
339.551	-108.58
339.763	-60.57
339.976	-35.85
340.189	-12.18
340.402	15.76
340.614	13.48
340.827	2.4
341.039	-24.5
341.252	-16.11
341.465	-10.35
341.677	-22.43
341.89	-58.32
342.102	-12.51
342.315	-32.17
342.527	-63.73
342.74	-32.06
342.952	-10.5
343.165	-17.41
343.377	17.53
343.59	21.54
343.802	30.74
344.015	35.33
344.227	50.96
344.44	29.21
344.652	21.7
344.864	0.61
345.077	20.14
345.289	24.45
345.502	22.87
345.714	16.45
345.926	25.7
346.139	23.11
346.351	23.11
346.563	34.39
346.775	47.84
346.988	31.96
347.2	8.69
347.412	-29.87
347.624	-34.58
347.837	-52.74
348.049	-11.17
348.261	20.71
348.473	21.99
348.685	3.86
348.897	9.25
349.11	-18.33
349.322	-38.97
349.534	-24.1
349.746	-4.16
349.958	1.33
350.17	-4.11
350.382	21.98
350.594	21.68
350.806	5.28
351.018	5.47
351.23	10.69
351.442	-21.38
351.654	-57.31
351.866	-20.98
352.078	-27.64
352.29	0.18
352.502	18.77
352.714	32.02
352.926	18.38
353.138	11.56
353.35	-5.11
353.561	-13.08
353.773	-21.2
353.985	-4.02
354.197	5.85
354.409	7.42
354.621	0
354.832	12.81
355.044	-9.38
355.256	-15.18
355.468	-7.49
355.679	-9.11
355.891	-8.83
356.103	-20.33
356.314	-20.59
356.526	-25.2
356.738	-29.08
356.949	-58.83
357.161	-28.08
357.373	-23.36
357.584	-32.72
357.796	-12.44
358.008	-2.79
358.219	17.98
358.431	22.65
358.642	39.28
358.854	36.78
359.065	25.01
359.277	-7.67
359.488	-27.15
359.7	-42.97
359.911	-68.03
360.123	-33.3
360.334	-44.14
360.546	-56.72
360.757	-55.49
360.969	-31.59
361.18	-37.61
361.391	-11.76
361.603	-14.37
361.814	-8.45
362.025	-8.07
362.237	-20.97
362.448	-14.2
362.659	7.04
362.871	9.74
363.082	2.42
363.293	10.32
363.504	3.62
363.716	-18
363.927	-31.76
364.138	-44.67
364.349	-68.42
364.56	-58.28
364.772	-42.94
364.983	-10.22
365.194	-16.53
365.405	1.57
365.616	11.12
365.827	8.26
366.038	-25.21
366.25	-12.04
366.461	-39.21
366.672	-20.66
366.883	-6.29
367.094	-3.11
367.305	-9.8
367.516	2.43
367.727	-19.3
367.938	-25.6
368.149	-15.47
368.36	-1.24
368.571	6.11
368.781	-4.97
368.992	-19.75
369.203	-42.12
369.414	-57.48
369.625	-79.8
369.836	-76.4
370.047	-90.52
370.258	-71.07
370.468	-65.36
370.679	-67.19
370.89	-54.28
371.101	-29.34
371.312	-30.71
371.522	-30.96
371.733	-19.32
371.944	-9.51
372.155	-11.2
372.365	-18.38
372.576	-11.17
372.787	-9.59
372.997	-32.01
373.208	-24.21
373.419	12.4
373.629	-22.74
373.84	-32.87
374.05	-39.51
374.261	-33.46
374.472	-56.53
374.682	6.32
374.893	14.64
375.103	32.29
375.314	25.4
375.524	20.9
375.735	11.7
375.945	15.79
376.156	-1.07
376.366	11.34
376.577	8.34
376.787	-3.72
376.997	-2.01
377.208	-2.66
377.418	-35.23
377.629	-13.72
377.839	-14.32
378.049	-14.39
378.26	5.31
378.47	18.58
378.68	7.92
378.89	8.93
379.101	6.22
379.311	-20.23
379.521	-48.16
379.732	-52.55
379.942	-45.17
380.152	-65.85
380.362	-31.19
380.572	-12.67
380.783	-0.55
380.993	2.32
381.203	20.86
381.413	15.53
381.623	14.88
381.833	14.04
382.043	2.61
382.253	-2.82
382.463	-0.46
382.674	-11.35
382.884	-25.95
383.094	-23.6
383.304	-19.48
383.514	-10.53
383.724	5.83
383.934	6.07
384.144	-1.05
384.353	-13.11
384.563	-14.32
384.773	-12.57
384.983	-19.04
385.193	0.49
385.403	8.07
385.613	8.2
385.823	-4.16
386.033	-0.29
386.242	-12.4
386.452	-12.94
386.662	-24.44
386.872	-8.88
387.082	-11.65
387.291	-13.45
387.501	-16.03
387.711	-10.75
387.921	-24.04
388.13	-18.37
388.34	-3.81
388.55	-6.54
388.759	-2.92
388.969	6.33
389.179	1.19
389.388	-1.87
389.598	2.92
389.807	-4.63
390.017	-8.9
390.227	-4.72
390.436	-8.15
390.646	-6.32
390.855	-2.64
391.065	-4.51
391.274	-5.29
391.484	-5.24
391.693	-2.57
391.903	-1.01
392.112	4.22
392.322	6.16
392.531	6.87
392.74	7.11
392.95	2.37
393.159	0.19
393.369	-0.36
393.578	0.74
393.787	-1.8
393.997	0.43
394.206	-1.58
394.415	-0.09
394.625	-0.9
394.834	-2.63
395.043	-0.63
395.252	2.09
395.462	2.7
395.671	3.54
395.88	4.71
396.089	3.9
396.298	2.36
396.508	2.06
396.717	1.6
396.926	1.71
397.135	1.51
397.344	2.09
397.553	2.37
397.762	3.81
397.971	3.99
398.181	4
398.39	3.18
398.599	2.43
398.808	2.1
399.017	2.97
399.226	4.1
399.435	5.39
399.644	5.6
399.853	4.63
400.062	4.12
400.27	3.33
400.479	2.48
400.688	1.79
400.897	2.03
401.106	1.66
401.315	1.65
401.524	1.9
401.733	2.58
401.941	3.26
402.15	3.37
402.359	3.11
402.568	3.2
402.777	3.19
402.985	2.63
403.194	2.63
403.403	2.75
403.612	2.4
403.82	2.12
404.029	2.55
404.238	2.42
404.446	2.87
404.655	2.74
404.864	2.76
405.072	2.21
405.281	2.41
405.489	1.94
405.698	2.16
405.906	2.2
406.115	2.27
406.324	2.33
406.532	2.46
406.741	2.76
406.949	2.71
407.158	2.77
407.366	2.74
407.574	2.81
407.783	2.66
407.991	2.52
408.2	2.67
408.408	2.68
408.617	2.55
408.825	2.35
409.033	2.46
409.242	2.37
409.45	2.19
409.658	2.07
409.867	2.22
410.075	2.15
410.283	2.12
410.491	2.19
410.7	2.13
410.908	2.2
411.116	2.48
411.324	2.47
411.533	2.4
411.741	2.66
411.949	2.6
412.157	2.28
412.365	2.34
412.573	2.38
412.781	2.41
412.99	2.3
413.198	2.51
413.406	2.47
413.614	2.58
413.822	2.4
414.03	2.38
414.238	2.13
414.446	2.28
414.654	1.97
414.862	2.12
415.07	2.16
415.278	2.47
415.486	2.17
415.694	2.25
415.902	2.03
416.109	1.89
416.317	1.7
416.525	1.63
416.733	1.6
416.941	1.71
417.149	1.66
417.357	1.83
417.564	2.09
417.772	2.4
417.98	2.35
418.188	2.46
418.395	2.36
418.603	2.36
418.811	2
419.019	2.02
419.226	2.23
419.434	2.23
419.642	2.07
419.849	2.17
420.057	2.23
420.265	2.07
420.472	1.8
420.68	1.91
420.887	1.91
421.095	1.88
421.302	1.88
421.51	2.26
421.717	2.26
421.925	2.43
422.132	2.36
422.34	2.13
422.547	2.06
422.755	1.98
422.962	1.84
423.17	1.73
423.377	1.93
423.585	1.9
423.792	1.8
423.999	1.8
424.207	1.91
424.414	1.96
424.621	1.83
424.829	1.91
425.036	1.83
425.243	1.92
425.451	1.71
425.658	1.62
425.865	1.68
426.072	1.7
426.28	1.91
426.487	1.99
426.694	2.12
426.901	2.09
427.108	2.06
427.315	1.8
427.523	2.03
427.73	2
427.937	1.84
428.144	1.82
428.351	1.82
428.558	1.85
428.765	1.8
428.972	1.81
429.179	2.01
429.386	2.28
429.593	1.96
429.8	1.8
430.007	1.9
430.214	1.82
430.421	1.52
430.628	1.37
430.835	1.38
431.042	1.61
431.249	1.61
431.456	1.72
431.662	1.95
431.869	2.25
432.076	2.08
432.283	2.12
432.49	1.99
432.697	1.98
432.903	1.7
433.11	1.67
433.317	1.74
433.524	2.09
433.73	1.97
433.937	2.29
434.144	2.3
434.35	2.23
434.557	1.9
434.764	2.03
434.97	1.89
435.177	2.01
435.384	1.93
435.59	2.08
435.797	2.28
436.003	2.28
436.21	2.21
436.416	2.32
436.623	2.25
436.829	2.25
437.036	2.24
437.242	2.17
437.449	2.13
437.655	2.14
437.862	1.96
438.068	1.95
438.275	2.05
438.481	2.27
438.687	2.25
438.894	2.27
439.1	2.34
439.307	2.53
439.513	2.34
439.719	2.32
439.926	2.42
440.132	2.37
440.338	2.19
440.544	2.33
440.751	2.37
440.957	2.38
441.163	2.26
441.369	2.29
441.575	2.06
441.782	2.1
441.988	1.98
442.194	2.06
442.4	2.04
442.606	2.4
442.812	2.44
443.018	2.56
443.224	2.64
443.431	2.77
443.637	2.54
443.843	2.41
444.049	2.43
444.255	2.31
444.461	2.21
444.667	2.11
444.873	2.22
445.079	2.17
445.284	2.31
445.49	2.04
445.696	1.99
445.902	1.91
446.108	1.86
446.314	1.81
446.52	2.02
446.726	2.22
446.931	2.27
447.137	2.34
447.343	2.29
447.549	2.21
447.755	2.09
447.96	2.12
448.166	2.08
448.372	2.1
448.578	2.13
448.783	2.17
448.989	2.17
449.195	2.28
449.4	2.35
449.606	2.31
449.812	2.24
450.017	2.3
450.223	2.22
450.428	2.14
450.634	2.3
450.84	2.47
451.045	2.42
451.251	2.31
451.456	2.61
451.662	2.62
451.867	2.61
452.073	2.6
452.278	2.71
452.483	2.63
452.689	2.54
452.894	2.5
453.1	2.55
453.305	2.52
453.51	2.42
453.716	2.36
453.921	2.43
454.127	2.32
454.332	2.28
454.537	2.22
454.742	2.22
454.948	2.17
455.153	2.23
455.358	2.33
455.563	2.46
455.769	2.55
455.974	2.49
456.179	2.37
456.384	2.31
456.589	2.32
456.795	2.18
457	2.17
457.205	2.38
457.41	2.37
457.615	2.22
457.82	2.3
458.025	2.33
458.23	2.15
458.435	2.16
458.64	2.2
458.845	2.35
459.05	2.34
459.255	2.45
459.46	2.46
459.665	2.5
459.87	2.48
460.075	2.49
460.28	2.5
460.485	2.57
460.69	2.52
460.895	2.3
461.099	2.29
461.304	2.34
461.509	2.26
461.714	2.28
461.919	2.47
462.123	2.39
462.328	2.48
462.533	2.51
462.738	2.63
462.942	2.55
463.147	2.65
463.352	2.6
463.556	2.61
463.761	2.59
463.966	2.57
464.17	2.57
