Data from Ofra_PS_T2_2A_2GT03_Reflection_3.txt Node
Date: Wed Jul 21 17:29:15 EDT 2021
User: Adam
Spectrometer: FLMT01687
Trigger mode: 0
Integration Time (sec): 1.100000E0
Scans to average: 2
Electric dark correction enabled: true
Nonlinearity correction enabled: false
Boxcar width: 2
XAxis mode: Wavelengths
Number of Pixels in Spectrum: 3648
>>>>>Begin Spectral Data<<<<<
179.494	544
179.716	643.53
179.937	597.18
180.158	604
180.38	932.5
180.601	340.33
180.823	60.87
181.044	-164.45
181.265	16.18
181.486	39.68
181.708	107.62
181.929	755.1
182.15	-690.14
182.372	137.5
182.593	13.24
182.814	26.16
183.035	29.57
183.257	59.94
183.478	-55.74
183.699	15.4
183.92	-12.34
184.141	16.56
184.363	-79.27
184.584	-35.04
184.805	-25.67
185.026	-3.66
185.247	10.53
185.468	10.46
185.689	6.54
185.91	15.81
186.132	22.24
186.353	2.97
186.574	30.53
186.795	36.38
187.016	2.82
187.237	2.71
187.458	-35.55
187.679	-4.02
187.9	-9.7
188.121	-27.34
188.342	-41.89
188.563	29.85
188.784	42.63
189.005	55.33
189.226	117.82
189.447	97.6
189.667	-45.63
189.888	-409.85
190.109	-1403.9
190.33	-844.52
190.551	-1397.35
190.772	-327.85
190.993	-242.24
191.214	-221.62
191.434	-135.06
191.655	-35.09
191.876	-72.11
192.097	-113.99
192.318	-126.23
192.538	-187.68
192.759	-155.7
192.98	-38.12
193.201	12.67
193.421	21.03
193.642	28.63
193.863	27.51
194.083	-2.6
194.304	-16.39
194.525	-18.17
194.745	-33.91
194.966	-49.7
195.187	-54.94
195.407	-99.52
195.628	-196.9
195.848	-202.24
196.069	-205.97
196.29	-128.42
196.51	-132.93
196.731	-87.27
196.951	-101.34
197.172	-103.18
197.392	-151.04
197.613	-128.97
197.833	-173.96
198.054	-134.65
198.274	-72.63
198.495	-79.9
198.715	-54.35
198.936	-53.31
199.156	-34.52
199.377	-124.91
199.597	-128.39
199.817	-117.49
200.038	-39.45
200.258	-130.07
200.479	-66.09
200.699	-61.66
200.919	-11.73
201.14	-44.46
201.36	-48.45
201.58	7.51
201.801	46.72
202.021	8.67
202.241	4.75
202.461	13.24
202.682	-81.07
202.902	-167.29
203.122	-95.19
203.342	-87.27
203.563	-44.9
203.783	-6.03
204.003	-63.31
204.223	-65.03
204.443	1.31
204.663	-23.59
204.884	-23.38
205.104	32.61
205.324	69.68
205.544	45.2
205.764	48.3
205.984	47.01
206.204	47.25
206.424	35.17
206.644	20.25
206.864	26.58
207.084	-16.62
207.304	-5.68
207.525	-192.5
207.745	-135.27
207.964	-30.16
208.184	-60.29
208.404	-103.11
208.624	-85.29
208.844	-66.42
209.064	-372.81
209.284	-385.75
209.504	-217.45
209.724	-67.71
209.944	-51.2
210.164	-21.23
210.384	10.31
210.604	5.32
210.823	-54.18
211.043	-71.28
211.263	-48.59
211.483	-66.04
211.703	-117.37
211.922	-81.21
212.142	-8.46
212.362	-13.07
212.582	-2.11
212.801	14.11
213.021	-15.68
213.241	-43.86
213.461	-80.5
213.68	-118.73
213.9	-100.46
214.12	-71.1
214.339	-143.3
214.559	-101.57
214.779	-45.89
214.998	-51.91
215.218	-101.39
215.438	-53.01
215.657	-60.54
215.877	-56.57
216.096	-19.47
216.316	-1.8
216.535	-19.06
216.755	-33.74
216.974	-138.17
217.194	-177.85
217.413	-176.42
217.633	-141.79
217.852	-189.64
218.072	-75.47
218.291	-36.69
218.511	16.51
218.73	-23.87
218.95	-22.64
219.169	-26.54
219.389	-64.88
219.608	-54.53
219.827	-35.77
220.047	-25.42
220.266	-6.67
220.485	0.72
220.705	-0.07
220.924	-4.32
221.143	32.14
221.363	9.63
221.582	8.96
221.801	17.48
222.021	20.19
222.24	-74.3
222.459	-16.7
222.678	-3.25
222.897	-97.94
223.117	-158.6
223.336	-134.02
223.555	-126.44
223.774	-91.33
223.993	-51.39
224.213	27.04
224.432	4.75
224.651	39.49
224.87	-1.56
225.089	13.7
225.308	-0.06
225.527	22.4
225.746	2.71
225.965	-6.49
226.184	-45.95
226.404	-15.29
226.623	-51.72
226.842	-35.21
227.061	6.66
227.28	21.71
227.499	17.11
227.718	42.45
227.936	46.69
228.155	47.85
228.374	27.24
228.593	25.85
228.812	19.55
229.031	0.35
229.25	-50
229.469	-29.23
229.688	-24.45
229.907	13.86
230.125	26.9
230.344	42.79
230.563	47.64
230.782	63.53
231.001	-6.1
231.22	5.52
231.438	29.95
231.657	11.6
231.876	-23.84
232.095	23.94
232.313	22.26
232.532	-0.65
232.751	-30.17
232.969	-47.77
233.188	-106.34
233.407	-15.81
233.625	-11.17
233.844	-0.62
234.063	28.75
234.281	41.94
234.5	25.76
234.719	31.53
234.937	35.89
235.156	38.08
235.374	23.55
235.593	-0.27
235.811	-3.7
236.03	-11.87
236.249	-46.93
236.467	-38.39
236.686	-4.26
236.904	0.51
237.123	-27.07
237.341	-35.35
237.559	-31.57
237.778	-56.8
237.996	-90.73
238.215	-19.73
238.433	7.42
238.652	13.51
238.87	-9.62
239.088	11
239.307	-3.6
239.525	-18.8
239.743	-55.21
239.962	-30.09
240.18	-57.55
240.398	-116.73
240.617	-111.26
240.835	-77.14
241.053	-48.43
241.271	-1.91
241.49	17.11
241.708	2.38
241.926	-13.22
242.144	-26.33
242.363	-81.84
242.581	-92.98
242.799	-32.82
243.017	11.56
243.235	-11.91
243.453	-1.4
243.672	0.12
243.89	-18.66
244.108	-49.42
244.326	-16.68
244.544	-25.3
244.762	-28.44
244.98	-28.72
245.198	-8.17
245.416	-53.6
245.634	-29.46
245.852	-22.16
246.07	-26.91
246.288	-41.12
246.506	-67.67
246.724	-34.22
246.942	-42.7
247.16	7
247.378	24.39
247.596	69.77
247.814	57.24
248.032	33.96
248.25	29.45
248.468	11.29
248.685	11.84
248.903	31.4
249.121	33.41
249.339	-7.86
249.557	-8.04
249.775	-2.12
249.992	-75.72
250.21	-73.89
250.428	-40.22
250.646	-68.7
250.863	-94.64
251.081	-55.14
251.299	-28.57
251.517	-25.4
251.734	-12.44
251.952	-32.29
252.17	-21.73
252.387	-22.8
252.605	-39.05
252.823	-26.99
253.04	3.99
253.258	12.04
253.475	17.27
253.693	49.16
253.911	30.51
254.128	23.67
254.346	19.29
254.563	1.41
254.781	-28.84
254.998	-31.4
255.216	-54.85
255.433	-43.48
255.651	-1.49
255.868	50.1
256.086	55.27
256.303	60.2
256.521	49.97
256.738	18.98
256.956	-18.75
257.173	-37.96
257.39	-48.17
257.608	-102.5
257.825	-33.97
258.043	-12.8
258.26	-25.24
258.477	33.61
258.695	48.31
258.912	-7.92
259.129	-6.87
259.346	-20.52
259.564	-79.17
259.781	-111.15
259.998	-41.16
260.216	14.61
260.433	50.67
260.65	30.74
260.867	50.85
261.084	25.42
261.302	-23.13
261.519	-38.22
261.736	-30.62
261.953	-45.59
262.17	-13.29
262.387	-40.12
262.604	-84.91
262.822	-104.67
263.039	-97.85
263.256	-142.08
263.473	-81.17
263.69	-40.72
263.907	5.51
264.124	23.4
264.341	12.94
264.558	-1.88
264.775	14.36
264.992	3.39
265.209	6.37
265.426	29.05
265.643	38.47
265.86	36.58
266.077	41.59
266.294	4.47
266.51	-50.39
266.727	-75.02
266.944	-62.99
267.161	-80.91
267.378	-50.35
267.595	-9.89
267.812	-21.98
268.028	-63.16
268.245	-24.4
268.462	-63.97
268.679	-72.77
268.896	-9.56
269.112	-0.86
269.329	-21.24
269.546	-5.47
269.763	-11.43
269.979	-41.33
270.196	-29.89
270.413	-43.6
270.629	-53.27
270.846	-62.41
271.063	-43.34
271.279	-57.1
271.496	-52.67
271.712	-26.21
271.929	17.33
272.146	-15
272.362	-11.55
272.579	28.37
272.795	38.78
273.012	15.09
273.228	17.13
273.445	-1.73
273.661	-47.24
273.878	-107.1
274.094	-98.05
274.311	-123.87
274.527	-56.17
274.744	-47.05
274.96	-30.9
275.177	-4.51
275.393	16.19
275.609	29.01
275.826	43.62
276.042	37.64
276.259	14.65
276.475	23.28
276.691	21.77
276.908	-5.52
277.124	2.54
277.34	5.48
277.557	-1.78
277.773	-14.75
277.989	-13.05
278.205	-20.13
278.422	-5.28
278.638	-2.96
278.854	12.62
279.07	6.18
279.286	-8.39
279.503	-29.59
279.719	-49.43
279.935	-90.83
280.151	-96
280.367	-38.59
280.583	-69.42
280.799	-38.12
281.016	-49.36
281.232	-7.02
281.448	-19.56
281.664	4.93
281.88	-42.45
282.096	-18.49
282.312	5.12
282.528	33.69
282.744	57.18
282.96	61.1
283.176	53.07
283.392	10.35
283.608	-8.34
283.824	-22.74
284.04	-21.33
284.256	-17.92
284.471	1.6
284.687	4.42
284.903	41.44
285.119	70.41
285.335	32.47
285.551	28.39
285.767	6.33
285.982	-24.78
286.198	-76.06
286.414	3.98
286.63	17.76
286.846	48.02
287.061	29.19
287.277	56.39
287.493	19.73
287.709	19.71
287.924	-8.24
288.14	32.53
288.356	24.65
288.571	48.67
288.787	42.93
289.003	43.93
289.218	18.75
289.434	-14.63
289.65	-16.16
289.865	-28.4
290.081	3.36
290.296	23.12
290.512	25.91
290.727	-7.48
290.943	-18.2
291.159	-28.47
291.374	-36.58
291.59	-60.9
291.805	-28.73
292.021	-9.84
292.236	-18.11
292.451	1.19
292.667	19.51
292.882	23.05
293.098	19.27
293.313	-2.4
293.529	-38.1
293.744	-55.52
293.959	-58.21
294.175	-52.24
294.39	-13.22
294.605	6.01
294.821	29.97
295.036	30.3
295.251	36.04
295.467	15.64
295.682	-10.46
295.897	-63.27
296.112	-68.19
296.328	-60.82
296.543	-78.95
296.758	-51.41
296.973	-1.63
297.188	29.87
297.404	2.78
297.619	-1.05
297.834	-19.21
298.049	-41.23
298.264	-74.75
298.479	-2.16
298.694	9.78
298.909	28.35
299.125	34.89
299.34	52.39
299.555	19.39
299.77	33.61
299.985	-11.47
300.2	-63.55
300.415	-83.45
300.63	-34.49
300.845	-49.92
301.06	-33.74
301.275	1.92
301.49	7.51
301.704	-11.24
301.919	-23.91
302.134	-35.18
302.349	-49.73
302.564	-112.7
302.779	-144.99
302.994	-96.55
303.209	-33
303.423	19.56
303.638	70.21
303.853	26.35
304.068	3.64
304.283	-4.36
304.497	-19.13
304.712	-30.41
304.927	-22.04
305.142	-26.74
305.356	-29.94
305.571	-25.31
305.786	-46.09
306	-61.73
306.215	-49.78
306.43	-43.44
306.644	-13.43
306.859	51.18
307.074	64.66
307.288	22.85
307.503	8.85
307.717	-12.97
307.932	-36.61
308.147	-50.35
308.361	-18.12
308.576	-20.03
308.79	-82.63
309.005	-55.67
309.219	-29.89
309.434	-42.9
309.648	-50.46
309.863	-8.86
310.077	-21.02
310.292	-38.28
310.506	-26.67
310.72	-1.52
310.935	10.06
311.149	11.75
311.364	40.67
311.578	46.92
311.792	36.23
312.007	34.73
312.221	23.6
312.435	10.35
312.649	-8.07
312.864	18.9
313.078	32.68
313.292	91.2
313.507	59.76
313.721	92.67
313.935	29.99
314.149	16.61
314.363	0.89
314.578	15
314.792	6.35
315.006	-2.78
315.22	12.85
315.434	19
315.648	26.51
315.862	30.4
316.077	28.34
316.291	-0.88
316.505	7.19
316.719	-4.98
316.933	-27.26
317.147	-17.5
317.361	-52.49
317.575	-91.27
317.789	-151.78
318.003	-195.03
318.217	-157.24
318.431	-74.71
318.645	-10.54
318.859	8.92
319.073	35.81
319.287	21.73
319.5	-1.02
319.714	-46.72
319.928	-73.48
320.142	-106.79
320.356	-41.19
320.57	2.51
320.784	7.36
320.997	-10.67
321.211	-4.67
321.425	-75.02
321.639	-107.01
321.853	-41.23
322.066	-13.35
322.28	-21.71
322.494	3.92
322.707	28.76
322.921	7.97
323.135	13.48
323.349	35.98
323.562	9.88
323.776	-8.43
323.989	-7.82
324.203	-43.86
324.417	-62.18
324.63	-71.73
324.844	-80.12
325.057	-80.25
325.271	-45.64
325.485	-17.82
325.698	5.68
325.912	25.04
326.125	-1.01
326.339	0.1
326.552	-20.12
326.766	-23.52
326.979	-7.42
327.193	34.62
327.406	16.91
327.619	7.38
327.833	20.43
328.046	-12.56
328.26	-50.97
328.473	-13.94
328.686	-29.62
328.9	-41.93
329.113	-18.28
329.326	-27.15
329.54	-29.39
329.753	-31.25
329.966	-63.06
330.179	-42.79
330.393	-25.81
330.606	-32.26
330.819	-9.13
331.032	10.38
331.246	3.2
331.459	34.95
331.672	29.28
331.885	19.58
332.098	-9.93
332.311	0.7
332.525	-65.57
332.738	-55.26
332.951	-21.87
333.164	15.21
333.377	11.22
333.59	36.56
333.803	43.47
334.016	27.53
334.229	35.98
334.442	50.06
334.655	56.59
334.868	62.81
335.081	69.37
335.294	32.26
335.507	2.87
335.72	-3.82
335.933	-23.45
336.146	-34.5
336.359	-6.27
336.572	-18.17
336.785	-55.55
336.997	-29.53
337.21	-18.81
337.423	-28.3
337.636	-25.56
337.849	5.62
338.062	-22.72
338.274	-10.4
338.487	-26.16
338.7	-6.31
338.913	-48.21
339.125	-61.75
339.338	-117.02
339.551	-69.37
339.763	-53.08
339.976	-29.94
340.189	-9.65
340.402	9.24
340.614	-7.32
340.827	-24.19
341.039	-37.94
341.252	-20.49
341.465	-15.26
341.677	-15.41
341.89	-31.33
342.102	1.33
342.315	-21.2
342.527	-33.6
342.74	-33.76
342.952	20.06
343.165	18.2
343.377	48.04
343.59	31.27
343.802	40.85
344.015	20.58
344.227	14.96
344.44	-2.09
344.652	8.09
344.864	-11.7
345.077	15.58
345.289	22.79
345.502	30.96
345.714	23.51
345.926	32.61
346.139	20.57
346.351	30.81
346.563	25.72
346.775	29.46
346.988	14.48
347.2	-3.21
347.412	-63.53
347.624	-75.99
347.837	-89.56
348.049	-63.31
348.261	-18.73
348.473	-4.35
348.685	-20.89
348.897	-19.79
349.11	-26.78
349.322	-67.87
349.534	-45.52
349.746	-28.1
349.958	-19.64
350.17	-21.33
350.382	5.48
350.594	-3.87
350.806	-6.39
351.018	-1.94
351.23	-12.98
351.442	-56.92
351.654	-53.09
351.866	-52.15
352.078	-52.26
352.29	-22.4
352.502	4.65
352.714	21.61
352.926	19.96
353.138	13.01
353.35	11.76
353.561	9.6
353.773	-24.69
353.985	-16.93
354.197	-18.56
354.409	-29.29
354.621	-41.13
354.832	-20.99
355.044	-18.68
355.256	-10.12
355.468	10.02
355.679	11.09
355.891	11.1
356.103	-4.62
356.314	-4.14
356.526	-4.23
356.738	-3.67
356.949	-11.17
357.161	4.38
357.373	-3.76
357.584	-29.02
357.796	-16.08
358.008	-11.34
358.219	2.52
358.431	-3.28
358.642	1.46
358.854	-3.99
359.065	-13.67
359.277	-53.75
359.488	-57.88
359.7	-71.67
359.911	-83.54
360.123	-76.45
360.334	-77.55
360.546	-83.32
360.757	-82.45
360.969	-69.91
361.18	-49.15
361.391	-31.68
361.603	-41.56
361.814	-17.5
362.025	-21
362.237	-20
362.448	3.71
362.659	19.07
362.871	11.07
363.082	18.91
363.293	18.75
363.504	-6.72
363.716	-25.65
363.927	-35.72
364.138	-61.08
364.349	-81.73
364.56	-71.68
364.772	-59.38
364.983	-34.26
365.194	-28.29
365.405	-8.57
365.616	13.32
365.827	24.31
366.038	7.93
366.25	6.13
366.461	-26.41
366.672	-22.08
366.883	-28.36
367.094	-22.07
367.305	-27.86
367.516	-13.12
367.727	-44.39
367.938	-43.12
368.149	-36.3
368.36	-18.6
368.571	-9.53
368.781	-16.91
368.992	-27.42
369.203	-43.39
369.414	-65.95
369.625	-85.95
369.836	-65.07
370.047	-89.46
370.258	-74.93
370.468	-73.15
370.679	-76.71
370.89	-76.23
371.101	-51.77
371.312	-59.34
371.522	-59.49
371.733	-40.89
371.944	-28.17
372.155	-11.38
372.365	-16.48
372.576	-8.46
372.787	-19.49
372.997	-36.24
373.208	-40.5
373.419	-12.45
373.629	-45.83
373.84	-47.35
374.05	-60.77
374.261	-54.14
374.472	-66.13
374.682	-8.79
374.893	0.82
375.103	40.25
375.314	33.23
375.524	33.72
375.735	28.78
375.945	35.31
376.156	11.75
376.366	7.75
376.577	-3.46
376.787	-5.38
376.997	-11.62
377.208	-19.1
377.418	-37.79
377.629	-13.99
377.839	-17.51
378.049	-12.06
378.26	10.49
378.47	16.61
378.68	4.81
378.89	2.56
379.101	-4.02
379.311	-44.61
379.521	-61.54
379.732	-59.86
379.942	-62.66
380.152	-84.35
380.362	-34.59
380.572	-24.05
380.783	-4.3
380.993	3.73
381.203	20.47
381.413	22.25
381.623	25.22
381.833	15.98
382.043	6.96
382.253	-2.23
382.463	-0.95
382.674	-15.9
382.884	-42.46
383.094	-34.4
383.304	-26.38
383.514	-27.04
383.724	-7.14
383.934	-2.81
384.144	-17.67
384.353	-29.25
384.563	-33.88
384.773	-32.65
384.983	-40.89
385.193	-12.95
385.403	-0.18
385.613	3.31
385.823	-3.95
386.033	5.48
386.242	-8.9
386.452	-15.66
386.662	-25.05
386.872	-5.69
387.082	-12.68
387.291	-16.82
387.501	-11.14
387.711	-0.39
387.921	-18.63
388.13	-10.72
388.34	-1.41
388.55	-8.08
388.759	-8.17
388.969	-0.17
389.179	-3.93
389.388	-3.96
389.598	2.61
389.807	-7.68
390.017	-12.5
390.227	-13.1
390.436	-14.24
390.646	-15.94
390.855	-7.85
391.065	-5.51
391.274	-4.25
391.484	-4.6
391.693	-1.39
391.903	-0.42
392.112	1.84
392.322	4.89
392.531	6.92
392.74	5.95
392.95	1.75
393.159	-0.27
393.369	-1.09
393.578	-0.31
393.787	-1.75
393.997	-0.12
394.206	-0.88
394.415	-0.74
394.625	-1.41
394.834	-2.2
395.043	-0.72
395.252	0.74
395.462	2.65
395.671	4.54
395.88	5.6
396.089	5.91
396.298	5.17
396.508	4.59
396.717	3.37
396.926	3.78
397.135	2.93
397.344	3.18
397.553	3.69
397.762	5.2
397.971	4.82
398.181	5.06
398.39	4.53
398.599	3.78
398.808	3.22
399.017	4.6
399.226	5.86
399.435	7.02
399.644	8.01
399.853	7.03
400.062	6.14
400.27	5.33
400.479	4.57
400.688	3.27
400.897	3.86
401.106	4
401.315	3.74
401.524	4
401.733	4.61
401.941	5.27
402.15	5.34
402.359	5.26
402.568	5.71
402.777	5.97
402.985	5.44
403.194	5.21
403.403	5.46
403.612	5.05
403.82	4.68
404.029	4.89
404.238	4.98
404.446	5.29
404.655	5.02
404.864	4.93
405.072	4.69
405.281	4.82
405.489	4.54
405.698	4.62
405.906	4.72
406.115	4.58
406.324	4.42
406.532	4.51
406.741	4.78
406.949	4.78
407.158	4.95
407.366	5.05
407.574	4.93
407.783	4.89
407.991	4.65
408.2	4.85
408.408	4.79
408.617	4.66
408.825	4.4
409.033	4.6
409.242	4.53
409.45	4.71
409.658	4.67
409.867	4.78
410.075	4.66
410.283	4.44
410.491	4.22
410.7	4.24
410.908	4.3
411.116	4.71
411.324	4.79
411.533	4.8
411.741	5.15
411.949	5.17
412.157	4.65
412.365	4.66
412.573	4.64
412.781	4.54
412.99	4.33
413.198	4.68
413.406	4.69
413.614	4.7
413.822	4.41
414.03	4.33
414.238	3.97
414.446	4
414.654	3.79
414.862	4.05
415.07	4.24
415.278	4.66
415.486	4.42
415.694	4.49
415.902	4.26
416.109	4.01
416.317	3.79
416.525	3.8
416.733	3.89
416.941	4.14
417.149	4.22
417.357	4.28
417.564	4.39
417.772	4.63
417.98	4.41
418.188	4.47
418.395	4.51
418.603	4.56
418.811	4.22
419.019	4.12
419.226	4.24
419.434	4.23
419.642	3.97
419.849	4.1
420.057	4.23
420.265	4.15
420.472	3.85
420.68	3.98
420.887	3.86
421.095	3.8
421.302	3.68
421.51	4.02
421.717	4.08
421.925	4.16
422.132	4.04
422.34	3.88
422.547	3.9
422.755	3.8
422.962	3.62
423.17	3.63
423.377	3.8
423.585	3.62
423.792	3.55
423.999	3.7
424.207	3.72
424.414	3.81
424.621	3.9
424.829	3.87
425.036	3.82
425.243	3.93
425.451	3.87
425.658	3.5
425.865	3.73
426.072	3.75
426.28	3.93
426.487	3.92
426.694	4.22
426.901	3.97
427.108	3.91
427.315	3.66
427.523	3.82
427.73	3.73
427.937	3.73
428.144	3.58
428.351	3.62
428.558	3.79
428.765	3.6
428.972	3.44
429.179	3.64
429.386	3.88
429.593	3.56
429.8	3.54
430.007	3.92
430.214	3.98
430.421	3.71
430.628	3.56
430.835	3.48
431.042	3.6
431.249	3.65
431.456	3.63
431.662	3.86
431.869	4.08
432.076	3.9
432.283	3.97
432.49	3.96
432.697	3.9
432.903	3.65
433.11	3.58
433.317	3.68
433.524	3.91
433.73	3.83
433.937	4.19
434.144	4.09
434.35	3.91
434.557	3.69
434.764	3.75
434.97	3.66
435.177	3.97
435.384	3.9
435.59	4.12
435.797	4.33
436.003	4.46
436.21	4.32
436.416	4.42
436.623	4.25
436.829	4.25
437.036	4.32
437.242	4.44
437.449	4.44
437.655	4.57
437.862	4.5
438.068	4.3
438.275	4.42
438.481	4.59
438.687	4.51
438.894	4.5
439.1	4.58
439.307	4.57
439.513	4.4
439.719	4.4
439.926	4.56
440.132	4.56
440.338	4.41
440.544	4.58
440.751	4.62
440.957	4.64
441.163	4.52
441.369	4.6
441.575	4.29
441.782	4.28
441.988	4.13
442.194	4.21
442.4	4.16
442.606	4.64
442.812	4.7
443.018	4.83
443.224	4.82
443.431	5
443.637	4.72
443.843	4.58
444.049	4.56
444.255	4.52
444.461	4.53
444.667	4.48
444.873	4.68
445.079	4.64
445.284	4.8
445.49	4.56
445.696	4.51
445.902	4.38
446.108	4.3
446.314	4.18
446.52	4.27
446.726	4.51
446.931	4.54
447.137	4.59
447.343	4.67
447.549	4.63
447.755	4.43
447.96	4.51
448.166	4.47
448.372	4.49
448.578	4.53
448.783	4.58
448.989	4.62
449.195	4.81
449.4	4.76
449.606	4.75
449.812	4.67
450.017	4.71
450.223	4.52
450.428	4.47
450.634	4.57
450.84	4.73
451.045	4.66
451.251	4.61
451.456	4.81
451.662	4.86
451.867	4.92
452.073	4.9
452.278	5.12
452.483	5.23
452.689	5.12
452.894	5.14
453.1	5.18
453.305	4.98
453.51	4.81
453.716	4.75
453.921	4.67
454.127	4.58
454.332	4.59
454.537	4.59
454.742	4.62
454.948	4.54
455.153	4.63
455.358	4.8
455.563	4.87
455.769	4.99
455.974	4.99
456.179	4.86
456.384	4.82
456.589	4.75
456.795	4.58
457	4.61
457.205	4.86
457.41	4.81
457.615	4.8
457.82	4.89
458.025	4.94
458.23	4.76
458.435	4.78
458.64	4.73
458.845	4.87
459.05	4.83
459.255	4.82
459.46	4.85
459.665	4.84
459.87	4.78
460.075	4.76
460.28	4.91
460.485	4.97
