Data from Ofra_1a_PS_2GT3_Reflection_3.txt Node
Date: Tue Jul 20 10:49:12 EDT 2021
User: Adam
Spectrometer: FLMT01687
Trigger mode: 0
Integration Time (sec): 1.004000E0
Scans to average: 2
Electric dark correction enabled: true
Nonlinearity correction enabled: false
Boxcar width: 2
XAxis mode: Wavelengths
Number of Pixels in Spectrum: 3648
>>>>>Begin Spectral Data<<<<<
179.494	-79.19
179.716	-160.31
179.937	445.48
180.158	-504.46
180.38	131.29
180.601	72.35
180.823	11.84
181.044	-12.52
181.265	65.87
181.486	148
181.708	60.56
181.929	8727.27
182.15	-184.49
182.372	307.39
182.593	207.24
182.814	-236.33
183.035	19.54
183.257	55.49
183.478	9.28
183.699	-44.11
183.92	-54.44
184.141	-61.82
184.363	-39.09
184.584	-51.85
184.805	5.66
185.026	35.13
185.247	5.83
185.468	-23.78
185.689	-3.68
185.91	-27.07
186.132	-15.49
186.353	-2.09
186.574	11.86
186.795	29.39
187.016	44.95
187.237	68.91
187.458	78.97
187.679	78.78
187.9	60.93
188.121	71.07
188.342	48.71
188.563	75.21
188.784	62.81
189.005	43.81
189.226	52.47
189.447	48.52
189.667	30.03
189.888	43.26
190.109	59.21
190.33	51.05
190.551	41.47
190.772	53.1
190.993	21.98
191.214	19.21
191.434	0.51
191.655	-28.01
191.876	45.28
192.097	91.97
192.318	78.19
192.538	78.27
192.759	67.2
192.98	43.43
193.201	30.39
193.421	22.7
193.642	27.98
193.863	35.12
194.083	39.9
194.304	48.1
194.525	36.45
194.745	15.54
194.966	26.86
195.187	15.7
195.407	-2.93
195.628	8.41
195.848	19.6
196.069	-6.84
196.29	-7.88
196.51	-21.11
196.731	-26.24
196.951	-56.19
197.172	-49
197.392	-67
197.613	-15.97
197.833	-38.07
198.054	-43.16
198.274	-11.11
198.495	8.71
198.715	-0.25
198.936	51.17
199.156	50.81
199.377	41.41
199.597	40.75
199.817	21.31
200.038	-45.42
200.258	2.41
200.479	5.15
200.699	7.16
200.919	16.12
201.14	28.17
201.36	2.57
201.58	-6.18
201.801	-11.28
202.021	1.28
202.241	-3.19
202.461	-5.2
202.682	-0.78
202.902	19.7
203.122	23.29
203.342	29.55
203.563	20.85
203.783	17.71
204.003	-12.82
204.223	-16.47
204.443	7.41
204.663	27.45
204.884	19.26
205.104	28.1
205.324	62.24
205.544	-15.32
205.764	12.56
205.984	34.44
206.204	39.02
206.424	14.56
206.644	22.75
206.864	-28.51
207.084	-21.5
207.304	-36.99
207.525	-28.53
207.745	10.61
207.964	29.59
208.184	59.45
208.404	50.09
208.624	48.17
208.844	16.39
209.064	25.52
209.284	-17.42
209.504	-19.25
209.724	-12.68
209.944	-21.01
210.164	-34.01
210.384	-19.14
210.604	-54.28
210.823	-66.26
211.043	-19.73
211.263	-54.75
211.483	-36.91
211.703	-29.92
211.922	-33.32
212.142	-8.62
212.362	12.25
212.582	21.7
212.801	27.16
213.021	12.4
213.241	-16.45
213.461	-10.98
213.68	-6.09
213.9	-8.12
214.12	0.73
214.339	5.23
214.559	2.68
214.779	-12.13
214.998	-0.5
215.218	9.38
215.438	18.15
215.657	32.97
215.877	25.92
216.096	40.33
216.316	41.42
216.535	33.2
216.755	12.74
216.974	9.09
217.194	-23.04
217.413	-24.29
217.633	-34.34
217.852	-23.09
218.072	-1.69
218.291	-5.39
218.511	-17.3
218.73	4.91
218.95	-9.43
219.169	-17.01
219.389	20.75
219.608	28.53
219.827	14.01
220.047	30
220.266	38.02
220.485	-4.6
220.705	-11.41
220.924	-36.94
221.143	-15.67
221.363	-5.91
221.582	0.23
221.801	21.41
222.021	38.11
222.24	33.1
222.459	37.08
222.678	52.65
222.897	33.33
223.117	44.61
223.336	55.04
223.555	65.71
223.774	46.17
223.993	84.6
224.213	77.82
224.432	83
224.651	42.47
224.87	42.06
225.089	25.27
225.308	31.4
225.527	11.75
225.746	41.93
225.965	41.71
226.184	31.43
226.404	10.43
226.623	20.54
226.842	13.04
227.061	23.94
227.28	39.43
227.499	37.6
227.718	27.38
227.936	25.31
228.155	14.69
228.374	2.69
228.593	14.21
228.812	9.46
229.031	14.57
229.25	7.29
229.469	7.17
229.688	-3.83
229.907	15.16
230.125	6.68
230.344	17.86
230.563	25.91
230.782	46.24
231.001	51.55
231.22	68.12
231.438	83.42
231.657	65.88
231.876	45.87
232.095	42.11
232.313	20.25
232.532	15.56
232.751	5.77
232.969	16.76
233.188	16.08
233.407	21.94
233.625	12.26
233.844	31.09
234.063	21.85
234.281	16.21
234.5	23.38
234.719	30.54
234.937	14.7
235.156	7.59
235.374	13.88
235.593	21.7
235.811	32.05
236.03	31.82
236.249	37.66
236.467	41.17
236.686	24.96
236.904	23.6
237.123	14.42
237.341	5.73
237.559	-6.76
237.778	11.74
237.996	-29.44
238.215	-82.8
238.433	-105.62
238.652	-23.01
238.87	-19.14
239.088	-7.21
239.307	28.48
239.525	29.56
239.743	8.26
239.962	6.86
240.18	10.3
240.398	7.24
240.617	-5.62
240.835	-9.77
241.053	-5.55
241.271	18.72
241.49	24.3
241.708	23.99
241.926	22.76
242.144	34.21
242.363	5.2
242.581	-53.25
242.799	-43.76
243.017	-13.48
243.235	-22.82
243.453	-27.11
243.672	0
243.89	3.55
244.108	6.83
244.326	21.33
244.544	33.64
244.762	31.14
244.98	41.2
245.198	43.21
245.416	41.53
245.634	30.81
245.852	16.17
246.07	11.3
246.288	10.2
246.506	-9.06
246.724	7.22
246.942	10.33
247.16	27.35
247.378	10.82
247.596	69.87
247.814	63.68
248.032	92.54
248.25	70.83
248.468	68.18
248.685	55.53
248.903	40.43
249.121	30.26
249.339	20.16
249.557	22.5
249.775	22.17
249.992	26.19
250.21	26.34
250.428	17.71
250.646	12.76
250.863	-4.59
251.081	-2.2
251.299	4.62
251.517	22.94
251.734	27.22
251.952	36.81
252.17	55.26
252.387	59.63
252.605	49.8
252.823	53.11
253.04	89.27
253.258	63.88
253.475	53.91
253.693	61.13
253.911	35.1
254.128	15.53
254.346	14.77
254.563	13.49
254.781	10.72
254.998	25
255.216	-4.17
255.433	-38.89
255.651	-30.82
255.868	-48.26
256.086	-33.73
256.303	-1.33
256.521	21.51
256.738	16
256.956	26.48
257.173	17.24
257.39	11
257.608	1.41
257.825	15.64
258.043	27.42
258.26	29.63
258.477	32.87
258.695	40.76
258.912	36.68
259.129	19.62
259.346	24.29
259.564	24.21
259.781	4.31
259.998	17.8
260.216	32.09
260.433	8.47
260.65	1.09
260.867	12.3
261.084	-0.18
261.302	-7.66
261.519	27.35
261.736	29.36
261.953	20.48
262.17	42.9
262.387	35.24
262.604	23.24
262.822	33.33
263.039	40.82
263.256	16.99
263.473	22.31
263.69	27.41
263.907	30.63
264.124	39.05
264.341	36.24
264.558	23.3
264.775	33.33
264.992	11.6
265.209	-19.12
265.426	-24.79
265.643	-9.92
265.86	-71.11
266.077	-36.11
266.294	-8.71
266.51	18.84
266.727	7.59
266.944	27.67
267.161	26.55
267.378	30.73
267.595	13.37
267.812	12.81
268.028	3.75
268.245	24.36
268.462	24.36
268.679	31.88
268.896	46.73
269.112	34.31
269.329	12.35
269.546	7.83
269.763	7.28
269.979	-1.83
270.196	20.54
270.413	20.87
270.629	12.4
270.846	18.89
271.063	26.3
271.279	22.38
271.496	16.56
271.712	12.13
271.929	18.08
272.146	11.13
272.362	12.52
272.579	6.47
272.795	16.05
273.012	5.71
273.228	21.7
273.445	13.01
273.661	18.6
273.878	25.27
274.094	35.99
274.311	32.08
274.527	30.17
274.744	27.18
274.96	18.93
275.177	9.32
275.393	5.19
275.609	13.2
275.826	7.21
276.042	-5.51
276.259	-0.43
276.475	-14.55
276.691	-24.14
276.908	-6.95
277.124	1.66
277.34	3.99
277.557	13.21
277.773	27.2
277.989	26.59
278.205	8.71
278.422	9.82
278.638	18.05
278.854	18.83
279.07	17.99
279.286	28.16
279.503	24.31
279.719	24.79
279.935	24.16
280.151	18.06
280.367	22.91
280.583	21.07
280.799	13.79
281.016	-11.85
281.232	9.83
281.448	12.06
281.664	12.93
281.88	22.11
282.096	27.57
282.312	13.15
282.528	14.3
282.744	6.76
282.96	-3.67
283.176	-6.17
283.392	-11.26
283.608	0.31
283.824	-7.74
284.04	-71.73
284.256	-34.1
284.471	-7.6
284.687	-6.98
284.903	-0.42
285.119	23.7
285.335	31.88
285.551	33.18
285.767	14.34
285.982	31.46
286.198	39.43
286.414	29.83
286.63	15.56
286.846	49.82
287.061	21.9
287.277	4.52
287.493	1.97
287.709	-6.28
287.924	-13.28
288.14	4.42
288.356	12.34
288.571	4.65
288.787	1.49
289.003	7.25
289.218	-17.04
289.434	-20.35
289.65	5.12
289.865	12.48
290.081	17.97
290.296	28.52
290.512	27.5
290.727	9.97
290.943	4.75
291.159	-3.78
291.374	-23.68
291.59	-9.76
291.805	-7.73
292.021	0
292.236	13.52
292.451	24.46
292.667	16.55
292.882	27.56
293.098	35.28
293.313	30
293.529	33.61
293.744	27.5
293.959	24.5
294.175	20.38
294.39	1.93
294.605	7.41
294.821	4.1
295.036	0.98
295.251	3.2
295.467	-4.58
295.682	2.34
295.897	-5.84
296.112	-3.56
296.328	0.98
296.543	4.1
296.758	-14.18
296.973	-3.99
297.188	-1.61
297.404	-19.37
297.619	-36
297.834	-54.11
298.049	-24.83
298.264	-18.78
298.479	-13.38
298.694	27.8
298.909	41.26
299.125	32.5
299.34	24.36
299.555	24.16
299.77	26.15
299.985	21.77
300.2	25.88
300.415	31.91
300.63	44.05
300.845	32.18
301.06	36.01
301.275	33.5
301.49	25.99
301.704	9.56
301.919	2.06
302.134	-2.99
302.349	2.46
302.564	5.14
302.779	-0.96
302.994	30.43
303.209	28.35
303.423	31.07
303.638	37.59
303.853	28.25
304.068	7.5
304.283	16.18
304.497	14.71
304.712	19.44
304.927	31.66
305.142	26.3
305.356	31.94
305.571	27.26
305.786	15.15
306	14.34
306.215	14.65
306.43	12.57
306.644	17.31
306.859	29.11
307.074	26.85
307.288	36.88
307.503	27.59
307.717	29.11
307.932	25.78
308.147	18.82
308.361	1.4
308.576	-12.31
308.79	-11.99
309.005	-9.44
309.219	4.37
309.434	37.64
309.648	39.12
309.863	39.46
310.077	35.21
310.292	41.42
310.506	29.22
310.72	25.05
310.935	47.93
311.149	37.59
311.364	33.02
311.578	30.25
311.792	28.67
312.007	8.94
312.221	5.13
312.435	15.41
312.649	15.04
312.864	19.11
313.078	9.35
313.292	13.83
313.507	16.02
313.721	15.57
313.935	20.41
314.149	16.41
314.363	16.73
314.578	0.72
314.792	-26.96
315.006	-31.2
315.22	-9.12
315.434	11.17
315.648	7.37
315.862	36.27
316.077	30.54
316.291	46.82
316.505	15.97
316.719	33.75
316.933	21.78
317.147	20.3
317.361	7.33
317.575	27.02
317.789	16.98
318.003	0.16
318.217	1.69
318.431	-13.36
318.645	-26.19
318.859	-19.58
319.073	6.98
319.287	6.43
319.5	9.51
319.714	8.6
319.928	14.27
320.142	4.9
320.356	14.66
320.57	-8.57
320.784	3.67
320.997	-31.01
321.211	-10.64
321.425	-26.84
321.639	18.01
321.853	13.96
322.066	26.39
322.28	12.46
322.494	16.22
322.707	10.8
322.921	11.71
323.135	16.77
323.349	11.93
323.562	8.55
323.776	3.15
323.989	10.87
324.203	0.88
324.417	6.8
324.63	-8.99
324.844	-11.5
325.057	-42.55
325.271	-36.47
325.485	-42.66
325.698	-4.43
325.912	8.12
326.125	20.03
326.339	23.44
326.552	16.54
326.766	4.65
326.979	2.21
327.193	5.1
327.406	0.57
327.619	9.06
327.833	1.32
328.046	0.87
328.26	0
328.473	6.94
328.686	2.82
328.9	13.66
329.113	7.09
329.326	9.41
329.54	9.4
329.753	23.75
329.966	25.21
330.179	25.4
330.393	16.94
330.606	14.6
330.819	-1.64
331.032	2.45
331.246	16.69
331.459	37.88
331.672	39.05
331.885	40.2
332.098	45.97
332.311	30.03
332.525	13.72
332.738	13.22
332.951	11.33
333.164	7.12
333.377	13.53
333.59	13.38
333.803	10.17
334.016	16.3
334.229	19
334.442	9.75
334.655	3.46
334.868	0.54
335.081	5.32
335.294	-9.25
335.507	8.49
335.72	6.98
335.933	8.06
336.146	-0.71
336.359	15.45
336.572	2.82
336.785	9.01
336.997	-1.16
337.21	-11.79
337.423	-39.11
337.636	-31.11
337.849	-28.16
338.062	-6.8
338.274	16.34
338.487	9.82
338.7	1.62
338.913	10.24
339.125	17.59
339.338	-1.29
339.551	5.57
339.763	8.04
339.976	0
340.189	-12.86
340.402	-4.12
340.614	5.07
340.827	20.68
341.039	25.67
341.252	41.22
341.465	26.12
341.677	27.88
341.89	18.72
342.102	14.37
342.315	4.02
342.527	6.17
342.74	-13.98
342.952	-20.15
343.165	-9.49
343.377	3.53
343.59	6.27
343.802	13.85
344.015	11.96
344.227	5.7
344.44	-0.46
344.652	-1.71
344.864	1.6
345.077	14.33
345.289	26.15
345.502	32.88
345.714	40.75
345.926	47.4
346.139	33.71
346.351	27.68
346.563	20.52
346.775	15.33
346.988	31.97
347.2	33.2
347.412	31.57
347.624	39.69
347.837	40.73
348.049	30.57
348.261	31.38
348.473	30.73
348.685	16.06
348.897	11.95
349.11	15.6
349.322	17.67
349.534	11.18
349.746	19.69
349.958	16.66
350.17	7.06
350.382	-2.2
350.594	9.85
350.806	15.46
351.018	22.01
351.23	32.37
351.442	39.69
351.654	35.85
351.866	25.03
352.078	28.03
352.29	20.85
352.502	12.13
352.714	-3.04
352.926	7.82
353.138	7.54
353.35	1.81
353.561	4.26
353.773	0.12
353.985	6.2
354.197	2.59
354.409	1.42
354.621	-19.82
354.832	-5.01
355.044	-32.02
355.256	-49.35
355.468	-47.11
355.679	1.19
355.891	3.66
356.103	-0.12
356.314	-5.33
356.526	-23.03
356.738	-44.61
356.949	-56.15
357.161	-30.53
357.373	-3.46
357.584	12.85
357.796	16.51
358.008	24.83
358.219	19.2
358.431	10.49
358.642	18.95
358.854	29.43
359.065	21.41
359.277	9.24
359.488	9.22
359.7	-0.87
359.911	-13.93
360.123	1.28
360.334	7.51
360.546	-4.76
360.757	2.78
360.969	4.35
361.18	-1.48
361.391	16.84
361.603	27.89
361.814	23.94
362.025	26.18
362.237	34.38
362.448	35.8
362.659	32.68
362.871	18.62
363.082	10.92
363.293	11.91
363.504	-16.29
363.716	3.97
363.927	21.36
364.138	3
364.349	-13.06
364.56	-27.32
364.772	-30.3
364.983	-31.92
365.194	-9.34
365.405	-6
365.616	17.64
365.827	10.47
366.038	15.39
366.25	20.02
366.461	26.19
366.672	15.74
366.883	12.39
367.094	9.79
367.305	0.47
367.516	-12.56
367.727	-18.09
367.938	-16.96
368.149	-8.6
368.36	-12.99
368.571	-19.26
368.781	-10.76
368.992	-11.96
369.203	-23.55
369.414	-27.9
369.625	-25.93
369.836	-7.28
370.047	3.66
370.258	18.17
370.468	20.85
370.679	23.53
370.89	10.91
371.101	21.12
371.312	8.49
371.522	18.66
371.733	3.62
371.944	1.74
372.155	-8.38
372.365	7.3
372.576	1.53
372.787	19.09
372.997	28.91
373.208	23.35
373.419	12.44
373.629	17.88
373.84	6.7
374.05	-9.83
374.261	-2.74
374.472	-3.96
374.682	3.94
374.893	2.52
375.103	24.88
375.314	13.54
375.524	22
375.735	16.15
375.945	19.14
376.156	10.46
376.366	17.42
376.577	17.92
376.787	16.65
376.997	26.12
377.208	17.28
377.418	15.05
377.629	10.6
377.839	17.35
378.049	10.74
378.26	17.17
378.47	14.07
378.68	12.57
378.89	7.18
379.101	7
379.311	7.14
379.521	-1.71
379.732	1.56
379.942	-12.06
380.152	-19.54
380.362	-14.07
380.572	9.47
380.783	11.67
380.993	20.64
381.203	21.76
381.413	22.19
381.623	13.33
381.833	13.56
382.043	16.07
382.253	22.11
382.463	25.85
382.674	28.14
382.884	26.66
383.094	17.79
383.304	23.01
383.514	16.12
383.724	17.08
383.934	7.91
384.144	16.26
384.353	12.66
384.563	14.24
384.773	13.69
384.983	12.43
385.193	3.11
385.403	-0.96
385.613	0.35
385.823	-5.68
386.033	3.77
386.242	5.85
386.452	8.18
386.662	7.69
386.872	12.63
387.082	5.1
387.291	7.78
387.501	3.82
387.711	5.39
387.921	0.56
388.13	4.92
388.34	2.78
388.55	1.78
388.759	-6.04
388.969	-4.43
389.179	-5.91
389.388	-5.67
389.598	-0.84
389.807	-0.61
390.017	0.48
390.227	0.89
390.436	3
390.646	3.44
390.855	7.17
391.065	6.89
391.274	6.51
391.484	6.66
391.693	4.92
391.903	5.25
392.112	4.32
392.322	2.76
392.531	1.1
392.74	0.91
392.95	-0.49
393.159	0.53
393.369	1.37
393.578	2.16
393.787	2.25
393.997	3.11
394.206	2.72
394.415	3.75
394.625	2.84
394.834	2.1
395.043	3.15
395.252	4.98
395.462	5
395.671	5.26
395.88	7.07
396.089	5.68
396.298	4.83
396.508	4.09
396.717	4.38
396.926	3.64
397.135	3.82
397.344	3.3
397.553	3.55
397.762	4.98
397.971	4.98
398.181	5.42
398.39	5.5
398.599	5.56
398.808	4.87
399.017	5.56
399.226	5.24
399.435	5.13
399.644	5.47
399.853	5.46
400.062	4.9
400.27	4.44
400.479	4.53
400.688	4.58
400.897	4.32
401.106	4.51
401.315	4.74
401.524	4.91
401.733	4.33
401.941	4.34
402.15	4.08
402.359	4.3
402.568	4.25
402.777	4.6
402.985	4.49
403.194	4.39
403.403	4.51
403.612	4.35
403.82	4.26
404.029	4.4
404.238	4.51
404.446	4.38
404.655	4.52
404.864	4.56
405.072	4.44
405.281	4.51
405.489	4.47
405.698	4.38
405.906	4.48
406.115	4.43
406.324	4.28
406.532	4.35
406.741	4.39
406.949	4.28
407.158	4.47
407.366	4.48
407.574	4.35
407.783	4.23
407.991	4.14
408.2	4.12
408.408	4.09
408.617	4.13
408.825	4.05
409.033	4.09
409.242	4.12
409.45	4.1
409.658	4.04
409.867	4.19
410.075	4.26
410.283	4.02
410.491	4.03
410.7	3.93
410.908	3.97
411.116	4.04
411.324	4.04
411.533	3.92
411.741	4
411.949	3.89
412.157	3.72
412.365	3.85
412.573	3.91
412.781	3.86
412.99	3.86
413.198	3.86
413.406	3.86
413.614	3.95
413.822	4.01
414.03	4.03
414.238	4.07
414.446	4.05
414.654	3.97
414.862	3.85
415.07	3.81
415.278	3.87
415.486	3.75
415.694	3.7
415.902	3.64
416.109	3.63
416.317	3.56
416.525	3.59
416.733	3.57
416.941	3.77
417.149	3.64
417.357	3.62
417.564	3.72
417.772	3.69
417.98	3.59
418.188	3.73
418.395	3.57
418.603	3.4
418.811	3.55
419.019	3.62
419.226	3.64
419.434	3.83
419.642	3.62
419.849	3.48
420.057	3.49
420.265	3.42
420.472	3.28
420.68	3.57
420.887	3.56
421.095	3.68
421.302	3.72
421.51	3.73
421.717	3.92
421.925	3.99
422.132	3.89
422.34	3.66
422.547	3.55
422.755	3.46
422.962	3.5
423.17	3.23
423.377	3.31
423.585	3.55
423.792	3.44
423.999	3.39
424.207	3.47
424.414	3.39
424.621	3.23
424.829	3.38
425.036	3.5
425.243	3.59
425.451	3.73
425.658	3.66
425.865	3.55
426.072	3.52
426.28	3.59
426.487	3.55
426.694	3.6
426.901	3.66
427.108	3.61
427.315	3.48
427.523	3.45
427.73	3.35
427.937	3.23
428.144	3.17
428.351	3.21
428.558	3.37
428.765	3.4
428.972	3.34
429.179	3.3
429.386	3.27
429.593	3.13
429.8	3.21
430.007	3.26
430.214	3.25
430.421	3.43
430.628	3.43
430.835	3.41
431.042	3.43
431.249	3.43
431.456	3.26
431.662	3.46
431.869	3.51
432.076	3.58
432.283	3.71
432.49	3.72
432.697	3.6
432.903	3.62
433.11	3.67
433.317	3.65
433.524	3.78
433.73	3.72
433.937	3.83
434.144	3.76
434.35	3.68
434.557	3.76
434.764	3.86
434.97	3.74
435.177	3.96
435.384	4.08
435.59	4
435.797	4.01
436.003	4.12
436.21	3.85
436.416	3.81
436.623	3.78
436.829	3.76
437.036	3.67
437.242	3.8
437.449	3.87
437.655	3.92
437.862	4.08
438.068	4.13
438.275	4.18
438.481	4.17
438.687	4.11
438.894	4.09
439.1	4.02
439.307	4.06
439.513	4.15
439.719	4.19
439.926	4.15
440.132	4.35
440.338	4.31
440.544	4.23
440.751	4.22
440.957	4.3
441.163	4.1
441.369	4.15
441.575	4.08
441.782	4.11
441.988	4.08
442.194	4.11
442.4	4.09
442.606	4.26
442.812	4.28
443.018	4.3
443.224	4.47
443.431	4.44
443.637	4.23
443.843	4.24
444.049	4.22
444.255	4.2
444.461	4.21
444.667	4.36
444.873	4.32
445.079	4.34
445.284	4.31
445.49	4.33
445.696	4.31
445.902	4.38
446.108	4.48
446.314	4.43
446.52	4.51
446.726	4.59
446.931	4.57
447.137	4.5
447.343	4.6
447.549	4.62
447.755	4.54
447.96	4.59
448.166	4.61
448.372	4.59
448.578	4.51
448.783	4.55
448.989	4.6
449.195	4.56
449.4	4.69
449.606	4.68
449.812	4.57
450.017	4.56
450.223	4.53
450.428	4.47
450.634	4.5
450.84	4.62
451.045	4.66
451.251	4.72
451.456	4.75
451.662	4.83
451.867	4.86
452.073	4.83
452.278	4.83
452.483	4.82
452.689	4.82
452.894	4.8
453.1	4.73
453.305	4.77
453.51	4.82
453.716	4.74
453.921	4.79
454.127	4.9
454.332	4.9
454.537	4.83
454.742	4.95
454.948	4.87
455.153	4.86
455.358	4.85
455.563	4.95
455.769	4.89
455.974	4.95
456.179	4.94
456.384	4.95
456.589	4.82
456.795	4.77
457	4.77
457.205	4.77
457.41	4.73
457.615	4.86
457.82	5.01
458.025	5.06
458.23	5.1
458.435	5.13
458.64	5.12
458.845	5.05
459.05	5.06
459.255	5.05
459.46	4.99
459.665	4.95
459.87	4.98
460.075	5.01
460.28	5.01
460.485	5.2
460.69	5.19
460.895	5.23
461.099	5.1
461.304	5.05
461.509	4.95
461.714	5.07
461.919	4.92
462.123	5.05
462.328	5.02
462.533	4.94
462.738	4.79
462.942	4.89
463.147	4.88
463.352	5.07
463.556	5.2
463.761	5.19
463.966	5.27
464.17	5.31
464.375	5.29
464.58	5.25
464.784	5.37
464.989	5.32
465.193	5.28
465.398	5.29
465.602	5.44
465.807	5.38
466.011	5.42
466.216	5.39
466.42	5.47
466.625	5.48
466.829	5.52
467.034	5.63
467.238	5.76
467.443	5.71
467.647	5.67
467.851	5.69
468.056	5.65
468.26	5.62
468.464	5.71
468.669	5.77
468.873	5.8
469.077	5.79
469.282	5.87
