Data from Ofra_PS_T2_2A_1GT42_Reflection_2.txt Node
Date: Wed Jul 21 16:55:14 EDT 2021
User: Adam
Spectrometer: FLMT01687
Trigger mode: 0
Integration Time (sec): 1.100000E0
Scans to average: 2
Electric dark correction enabled: true
Nonlinearity correction enabled: false
Boxcar width: 2
XAxis mode: Wavelengths
Number of Pixels in Spectrum: 3648
>>>>>Begin Spectral Data<<<<<
179.494	395
179.716	432.94
179.937	389.47
180.158	370.44
180.38	543.59
180.601	157.32
180.823	45.97
181.044	-111.02
181.265	-57.54
181.486	41.76
181.708	109.41
181.929	630.1
182.15	-536.27
182.372	11.23
182.593	28.31
182.814	48.06
183.035	64.74
183.257	67.53
183.478	56.22
183.699	62.33
183.92	38.79
184.141	29.14
184.363	-37.46
184.584	-31.04
184.805	-8.91
185.026	33.75
185.247	35.23
185.468	35.62
185.689	38.48
185.91	51.43
186.132	46.9
186.353	43.12
186.574	82.09
186.795	90.02
187.016	42.93
187.237	12.36
187.458	-10.14
187.679	-1.04
187.9	-23.64
188.121	-13.6
188.342	-20.24
188.563	22.48
188.784	1.86
189.005	-23.79
189.226	7.25
189.447	16.81
189.667	-146.97
189.888	-292.49
190.109	-716.56
190.33	-299.84
190.551	-597.12
190.772	-97.28
190.993	-31.44
191.214	-16.32
191.434	-42.49
191.655	14.39
191.876	-38.32
192.097	-82.82
192.318	-95.85
192.538	-61.51
192.759	-62.08
192.98	14.28
193.201	14.77
193.421	31.8
193.642	24.77
193.863	30.14
194.083	6.84
194.304	8.37
194.525	-5.27
194.745	-27.28
194.966	-58.29
195.187	-64.97
195.407	-53.66
195.628	-87.26
195.848	-112.05
196.069	-101.81
196.29	-16.05
196.51	-34.01
196.731	-29.43
196.951	-6.55
197.172	-16.11
197.392	-53.68
197.613	-66.47
197.833	-83.59
198.054	-83.44
198.274	-41.64
198.495	-57.83
198.715	-25.17
198.936	-47.95
199.156	-29.07
199.377	-109.2
199.597	-72.6
199.817	-103.54
200.038	-50.17
200.258	-114.01
200.479	-60.29
200.699	-87.94
200.919	-4.61
201.14	-3.44
201.36	4.52
201.58	27.52
201.801	36.96
202.021	-5.87
202.241	-16.43
202.461	-10.97
202.682	-88.37
202.902	-137.6
203.122	-74.35
203.342	-42.66
203.563	-26.07
203.783	-6.35
204.003	-38.99
204.223	-18.2
204.443	11.37
204.663	4.59
204.884	18.05
205.104	44.01
205.324	72.97
205.544	78.91
205.764	85.23
205.984	82.57
206.204	83.72
206.424	51.12
206.644	42.31
206.864	40.43
207.084	29.86
207.304	38.61
207.525	46.02
207.745	21.44
207.964	27.84
208.184	1.9
208.404	-40.25
208.624	-32.31
208.844	-49.07
209.064	-264
209.284	-314.7
209.504	-147.42
209.724	-49.7
209.944	-28.78
210.164	0.9
210.384	21.33
210.604	15.76
210.823	-23.24
211.043	-23.8
211.263	-16.88
211.483	-30.95
211.703	-67.22
211.922	-39.3
212.142	1.88
212.362	-2.69
212.582	0.53
212.801	0.74
213.021	-21.36
213.241	-31.21
213.461	-59.48
213.68	-81.25
213.9	-88.31
214.12	-66.62
214.339	-119.46
214.559	-88.15
214.779	-45.35
214.998	-38.8
215.218	-67.4
215.438	-31.58
215.657	-30.48
215.877	-11.16
216.096	24.27
216.316	31.14
216.535	22.29
216.755	24.13
216.974	-28.27
217.194	-79.9
217.413	-80.38
217.633	-91.15
217.852	-176.15
218.072	-80.41
218.291	-16.13
218.511	9.55
218.73	7.03
218.95	5.9
219.169	4.96
219.389	-33.41
219.608	-13.24
219.827	-11.77
220.047	1.77
220.266	24.3
220.485	18.17
220.705	4.4
220.924	-11.79
221.143	9.9
221.363	-24.37
221.582	2.91
221.801	-3.74
222.021	2.11
222.24	-54.02
222.459	-14.41
222.678	-74.85
222.897	-85.88
223.117	-101.15
223.336	-96.32
223.555	-56.67
223.774	-7.45
223.993	-6.32
224.213	59.57
224.432	57.66
224.651	63.75
224.87	40.34
225.089	53.31
225.308	34.71
225.527	43.87
225.746	34.17
225.965	36.33
226.184	19.4
226.404	28.96
226.623	7.29
226.842	13.7
227.061	18.05
227.28	21.01
227.499	21.52
227.718	26.43
227.936	10.54
228.155	26.8
228.374	25.36
228.593	16.61
228.812	27.05
229.031	38.67
229.25	2.28
229.469	1.1
229.688	0.03
229.907	18.98
230.125	26.77
230.344	20.73
230.563	22.9
230.782	29.15
231.001	-36.82
231.22	-47.8
231.438	-6.88
231.657	-20.11
231.876	-51.85
232.095	-1.34
232.313	12.12
232.532	-15.96
232.751	-9.58
232.969	3.6
233.188	-43.03
233.407	16.77
233.625	16.77
233.844	11.11
234.063	16.46
234.281	30.07
234.5	13.74
234.719	27.25
234.937	39.59
235.156	54.4
235.374	45.82
235.593	25.03
235.811	10.39
236.03	3.53
236.249	-33.23
236.467	-6.65
236.686	10.61
236.904	3.94
237.123	-25.86
237.341	-22.4
237.559	-24.3
237.778	-33.82
237.996	-41.7
238.215	10.33
238.433	10.57
238.652	16.52
238.87	-4.67
239.088	3.28
239.307	-2.41
239.525	-5.99
239.743	-24.51
239.962	-23.51
240.18	-28.47
240.398	-68.45
240.617	-51.57
240.835	-47.54
241.053	-20
241.271	-7.51
241.49	34.39
241.708	26.14
241.926	14.67
242.144	27.46
242.363	-13.46
242.581	-46.92
242.799	-36.77
243.017	-2.59
243.235	-23.08
243.453	-12.16
243.672	-25.48
243.89	-19.81
244.108	-31.73
244.326	-20.8
244.544	-21.62
244.762	-18
244.98	-12.38
245.198	-4.55
245.416	-8.98
245.634	-16.87
245.852	-10.78
246.07	-32.75
246.288	-35.48
246.506	-63.48
246.724	-35.04
246.942	-22.62
247.16	2.67
247.378	18.03
247.596	31.71
247.814	27.57
248.032	25.09
248.25	31.8
248.468	5.69
248.685	4.2
248.903	30
249.121	21.51
249.339	6.78
249.557	15.76
249.775	25.46
249.992	-14.03
250.21	-12.12
250.428	-16.66
250.646	-39.43
250.863	-37.43
251.081	-19.71
251.299	-20.62
251.517	6.49
251.734	19.94
251.952	1.72
252.17	-7.66
252.387	4.39
252.605	-11.21
252.823	-12.51
253.04	0.91
253.258	13.76
253.475	-1.98
253.693	37.29
253.911	50.31
254.128	58.51
254.346	68.74
254.563	53.26
254.781	27.74
254.998	5.89
255.216	-21.72
255.433	-6.62
255.651	12.33
255.868	26.12
256.086	29.53
256.303	45.34
256.521	31.31
256.738	25.28
256.956	4.17
257.173	15.84
257.39	-8.82
257.608	-15.24
257.825	28.22
258.043	51.38
258.26	40.87
258.477	66.03
258.695	56
258.912	0.02
259.129	20.64
259.346	-6.34
259.564	-36.11
259.781	-51.61
259.998	0.02
260.216	3.23
260.433	40.56
260.65	38.47
260.867	52.5
261.084	30.19
261.302	8.97
261.519	-16.13
261.736	-23.23
261.953	-40.85
262.17	-4.75
262.387	-13.86
262.604	-33.6
262.822	-35.3
263.039	-21.13
263.256	-67.34
263.473	-34.65
263.69	-15.46
263.907	5.42
264.124	36.27
264.341	30.46
264.558	12.65
264.775	36.2
264.992	30.32
265.209	4.58
265.426	34.75
265.643	45.4
265.86	44.28
266.077	60.61
266.294	48.14
266.51	0.28
266.727	-3.12
266.944	6.22
267.161	-20.86
267.378	-12.26
267.595	21.47
267.812	1.91
268.028	-23.57
268.245	11.14
268.462	13.17
268.679	-4.69
268.896	21.96
269.112	13.71
269.329	6.97
269.546	-0.61
269.763	4.53
269.979	-7.71
270.196	2.06
270.413	-23.62
270.629	-34.18
270.846	-36.69
271.063	-29.51
271.279	-51.37
271.496	-27.78
271.712	0.02
271.929	5.66
272.146	9.34
272.362	27.3
272.579	33.71
272.795	31.87
273.012	23.19
273.228	15.87
273.445	0.96
273.661	-26.45
273.878	-63.02
274.094	-52.01
274.311	-91.24
274.527	-27.17
274.744	-19.2
274.96	-19.68
275.177	-6.26
275.393	28.2
275.609	23.49
275.826	49.4
276.042	56.72
276.259	43.18
276.475	34.7
276.691	27.73
276.908	-5.61
277.124	3.82
277.34	6.36
277.557	-1.32
277.773	-5.68
277.989	-8.76
278.205	-6.9
278.422	0.76
278.638	8.01
278.854	20.75
279.07	26.54
279.286	51.11
279.503	39.96
279.719	13.21
279.935	-4.42
280.151	-11.24
280.367	-35.15
280.583	-47.16
280.799	-14.84
281.016	-48.63
281.232	-14.39
281.448	-16.91
281.664	16.69
281.88	-12.4
282.096	26.62
282.312	50.62
282.528	68.55
282.744	46.97
282.96	33.72
283.176	23.48
283.392	2.53
283.608	-9.29
283.824	-15.21
284.04	7.11
284.256	12.15
284.471	12.79
284.687	8.8
284.903	36.21
285.119	39.65
285.335	15.67
285.551	6.68
285.767	14.87
285.982	5.28
286.198	-29.93
286.414	18.82
286.63	34.14
286.846	39.65
287.061	24.11
287.277	48.44
287.493	27.3
287.709	21.17
287.924	5.53
288.14	43.08
288.356	35.84
288.571	42.79
288.787	35.07
289.003	42.56
289.218	14.52
289.434	-23.25
289.65	-21.34
289.865	-22.2
290.081	-5.25
290.296	-0.2
290.512	19.91
290.727	-0.76
290.943	-2.58
291.159	-11.3
291.374	-18.09
291.59	-26.56
291.805	-6.83
292.021	-4.72
292.236	-17.69
292.451	10.59
292.667	15.88
292.882	20.57
293.098	17.47
293.313	7.22
293.529	-39.41
293.744	-50.96
293.959	-50.2
294.175	-40.33
294.39	-6.39
294.605	22.56
294.821	38.86
295.036	37.61
295.251	42.56
295.467	30.2
295.682	18.77
295.897	-14.6
296.112	-28.42
296.328	-33.06
296.543	-45.49
296.758	-46.62
296.973	-15.03
297.188	20.19
297.404	10.85
297.619	-2.14
297.834	-20.57
298.049	-25.47
298.264	-45.05
298.479	-12.78
298.694	1.67
298.909	16.68
299.125	15.48
299.34	11.41
299.555	-4.02
299.77	9.89
299.985	-15.86
300.2	-39.73
300.415	-39.22
300.63	-13.6
300.845	-27.54
301.06	-24.71
301.275	-7.71
301.49	8.25
301.704	6.66
301.919	-21.78
302.134	-13.57
302.349	-16.84
302.564	-70.96
302.779	-118.06
302.994	-70.02
303.209	-37.65
303.423	15.56
303.638	53.16
303.853	32.02
304.068	30.03
304.283	26.81
304.497	15.16
304.712	19.86
304.927	35.4
305.142	20.1
305.356	22.93
305.571	6.17
305.786	-11.95
306	-38.38
306.215	-27.94
306.43	-33.96
306.644	-21.59
306.859	15.69
307.074	27.94
307.288	5.75
307.503	-0.49
307.717	0.59
307.932	-21.45
308.147	-14.35
308.361	2.18
308.576	-3.78
308.79	-30
309.005	-21
309.219	-24.63
309.434	-34.01
309.648	-42.29
309.863	-25.63
310.077	-19.36
310.292	-18.37
310.506	-13.98
310.72	6.61
310.935	13.99
311.149	3.8
311.364	21.03
311.578	27.57
311.792	17.73
312.007	16.6
312.221	14.9
312.435	6.8
312.649	4.9
312.864	25.53
313.078	33.45
313.292	89.94
313.507	84.04
313.721	101.8
313.935	63.3
314.149	48.9
314.363	23.22
314.578	34.98
314.792	26.55
315.006	13.4
315.22	34.94
315.434	36.96
315.648	31.47
315.862	26.98
316.077	27.05
316.291	-4.48
316.505	8.74
316.719	6.2
316.933	-8.02
317.147	-23.64
317.361	-55.26
317.575	-84.99
317.789	-112.13
318.003	-168.12
318.217	-144.83
318.431	-27.96
318.645	18.05
318.859	17.8
319.073	51.27
319.287	46.65
319.5	23.09
319.714	-7.64
319.928	-24.83
320.142	-51.49
320.356	-17.06
320.57	-7.26
320.784	-2.15
320.997	-9.17
321.211	-17.32
321.425	-47.59
321.639	-71.43
321.853	-38
322.066	-19.75
322.28	-17.04
322.494	-11.93
322.707	7.44
322.921	-7.67
323.135	-8.17
323.349	-7.89
323.562	-10.53
323.776	-17.23
323.989	-14.68
324.203	-13.66
324.417	-10.13
324.63	-28.19
324.844	-33.61
325.057	-41.64
325.271	-25.97
325.485	3.74
325.698	28.68
325.912	45.33
326.125	45.58
326.339	34.22
326.552	20.67
326.766	16.43
326.979	14.92
327.193	36.05
327.406	36.02
327.619	28.41
327.833	30.65
328.046	17.15
328.26	-11.92
328.473	4.8
328.686	1.31
328.9	-8.36
329.113	6.42
329.326	-4.2
329.54	-1.35
329.753	-3.39
329.966	0.02
330.179	14.98
330.393	29.28
330.606	30.31
330.819	43.69
331.032	44.94
331.246	40.88
331.459	54.04
331.672	51.96
331.885	29.73
332.098	22.36
332.311	7.44
332.525	-32.27
332.738	-50.95
332.951	-8.27
333.164	3.53
333.377	19.07
333.59	40.25
333.803	55.5
334.016	34.9
334.229	26.3
334.442	23.53
334.655	29.95
334.868	20.98
335.081	29.88
335.294	17.81
335.507	15.07
335.72	15.05
335.933	8.04
336.146	6.67
336.359	9.22
336.572	-23.98
336.785	-52.95
336.997	-46.26
337.21	-22.63
337.423	-8.35
337.636	0.37
337.849	24.07
338.062	22.48
338.274	20.87
338.487	7.15
338.7	-0.18
338.913	-56.62
339.125	-66.19
339.338	-131.99
339.551	-106.57
339.763	-54.16
339.976	-4.89
340.189	0.82
340.402	8.75
340.614	1.4
340.827	-1.43
341.039	-1.3
341.252	9.76
341.465	24.01
341.677	32.27
341.89	6.1
342.102	10.09
342.315	-2.79
342.527	-18.15
342.74	-0.8
342.952	38.15
343.165	31.62
343.377	39.57
343.59	29.91
343.802	21.42
344.015	4.91
344.227	5.92
344.44	3.31
344.652	20.96
344.864	20.54
345.077	30.56
345.289	21.72
345.502	23.41
345.714	10.37
345.926	17.55
346.139	18
346.351	38.07
346.563	45.78
346.775	50.55
346.988	36.68
347.2	25.14
347.412	-26.31
347.624	-39.68
347.837	-54.75
348.049	-37.06
348.261	-22.13
348.473	0.76
348.685	2.14
348.897	1.24
349.11	-8.89
349.322	-17.28
349.534	5.53
349.746	-4.8
349.958	1.35
350.17	5.73
350.382	18.19
350.594	5.56
350.806	18.65
351.018	11.3
351.23	10.1
351.442	-18.44
351.654	-7.24
351.866	-8.07
352.078	1.45
352.29	4.08
352.502	21.12
352.714	25.12
352.926	12.13
353.138	10.45
353.35	4.63
353.561	-6.6
353.773	-25.56
353.985	-14.99
354.197	-25.85
354.409	-27.83
354.621	-36.32
354.832	-20.2
355.044	-29.86
355.256	-23.86
355.468	-1.95
355.679	10.63
355.891	13.48
356.103	7.1
356.314	7.88
356.526	6.36
356.738	6.34
356.949	-2.91
357.161	11.39
357.373	9.52
357.584	-3.43
357.796	0.84
358.008	4.4
358.219	28.67
358.431	32.1
358.642	30.12
358.854	28.62
359.065	20.75
359.277	-7.14
359.488	-14.23
359.7	-28.25
359.911	-35.41
360.123	-30.33
360.334	-33.5
360.546	-48.8
360.757	-36.47
360.969	-23.33
361.18	4.9
361.391	9.46
361.603	19.6
361.814	19.48
362.025	14.95
362.237	11.09
362.448	17.63
362.659	29.19
362.871	26.77
363.082	30.08
363.293	19.23
363.504	12.77
363.716	-8.57
363.927	-22.16
364.138	-50.29
364.349	-52.96
364.56	-54.14
364.772	-46.82
364.983	-23.75
365.194	-22.19
365.405	-6.05
365.616	13.37
365.827	19.14
366.038	20.99
366.25	26.21
366.461	6.14
366.672	8.38
366.883	10.05
367.094	10.38
367.305	10.29
367.516	12.17
367.727	-9.98
367.938	-8.57
368.149	-14.13
368.36	-7.13
368.571	-0.77
368.781	-3.13
368.992	-7.76
369.203	-22.95
369.414	-34.16
369.625	-40.69
369.836	-35.03
370.047	-48.24
370.258	-19.86
370.468	-17.56
370.679	-18.78
370.89	-15.76
371.101	-5.45
371.312	-5.08
371.522	-6.99
371.733	-10.54
371.944	-3.07
372.155	0.68
372.365	-9.57
372.576	-3.67
372.787	15.13
372.997	9.29
373.208	14.08
373.419	37.35
373.629	9.11
373.84	-3.19
374.05	-7.11
374.261	-19.42
374.472	-39.52
374.682	8.08
374.893	6.1
375.103	32.93
375.314	36.5
375.524	32.66
375.735	27.32
375.945	30.65
376.156	4.42
376.366	6.89
376.577	8.23
376.787	-5.22
376.997	-0.74
377.208	6.02
377.418	-9.8
377.629	1.78
377.839	13.98
378.049	5.56
378.26	13
378.47	24.31
378.68	15.33
378.89	8.65
379.101	9.44
379.311	-16.1
379.521	-38.98
379.732	-33.76
379.942	-31.37
380.152	-38.24
380.362	-8.1
380.572	-1.66
380.783	8.32
380.993	14.84
381.203	15.71
381.413	16.66
381.623	5.78
381.833	-5.09
382.043	-9.81
382.253	-6.67
382.463	-8.03
382.674	-7.12
382.884	-7.42
383.094	-6.81
383.304	-5.54
383.514	0.53
383.724	9.44
383.934	2.3
384.144	-7.63
384.353	-10.73
384.563	-13.05
384.773	-9.86
384.983	-8.07
385.193	4.83
385.403	3.85
385.613	1.22
385.823	-9.5
386.033	-6.66
386.242	-10.28
386.452	-11.58
386.662	-15.71
386.872	-3.54
387.082	-2.07
387.291	-4.6
387.501	-2.57
387.711	5.93
387.921	0.5
388.13	-5.03
388.34	6.24
388.55	1.23
388.759	-3.38
388.969	0.16
389.179	1.79
389.388	-1.61
389.598	3.69
389.807	0.82
390.017	-0.04
390.227	0.98
390.436	-3.88
390.646	-1.62
390.855	1.45
391.065	-0.54
391.274	-1.5
391.484	-1.54
391.693	-3.32
391.903	-1.35
392.112	7.83
392.322	6.56
392.531	11.5
392.74	12.66
392.95	9.82
393.159	3.05
393.369	4.49
393.578	1.92
393.787	0.91
393.997	1.67
394.206	1.32
394.415	2.33
394.625	2.88
394.834	2.76
395.043	3.72
395.252	5.49
395.462	7.4
395.671	7.28
395.88	7.26
396.089	6.84
396.298	6.23
396.508	5.12
396.717	5.21
396.926	5.37
397.135	5.39
397.344	4.52
397.553	4.8
397.762	5.42
397.971	5.73
398.181	5.55
398.39	5.59
398.599	5.25
398.808	5.26
399.017	5.81
399.226	7.28
399.435	8.41
399.644	8.33
399.853	7.53
400.062	6.78
400.27	6.06
400.479	4.83
400.688	4.46
400.897	4.82
401.106	5.13
401.315	4.8
401.524	5.24
401.733	5.57
401.941	5.6
402.15	5.7
402.359	5.66
402.568	5.94
402.777	6.25
402.985	6.25
403.194	6.14
403.403	6.11
403.612	5.83
403.82	5.47
404.029	5.68
404.238	5.85
404.446	6.25
404.655	6.04
404.864	5.84
405.072	5.51
405.281	5.28
405.489	4.95
405.698	5.1
405.906	5.39
406.115	5.42
406.324	5.32
406.532	5.37
406.741	5.5
406.949	5.45
407.158	5.47
407.366	5.63
407.574	5.67
407.783	5.65
407.991	5.41
408.2	5.33
408.408	5.29
408.617	5.14
408.825	4.94
409.033	5.16
409.242	5.21
409.45	5.25
409.658	5.03
409.867	5.19
410.075	4.95
410.283	4.93
410.491	4.72
410.7	4.94
410.908	4.84
411.116	5.08
411.324	5.08
411.533	5.03
411.741	5.08
411.949	5.01
412.157	4.75
412.365	4.77
412.573	4.84
412.781	4.86
412.99	4.89
413.198	5.05
413.406	5.06
413.614	5.09
413.822	5.01
414.03	4.9
414.238	4.73
414.446	4.75
414.654	4.56
414.862	4.56
415.07	4.68
415.278	4.81
415.486	4.61
415.694	4.73
415.902	4.57
416.109	4.45
416.317	4.45
416.525	4.44
416.733	4.43
416.941	4.63
417.149	4.63
417.357	4.55
417.564	4.62
417.772	4.67
417.98	4.53
418.188	4.54
418.395	4.5
418.603	4.72
418.811	4.46
419.019	4.42
419.226	4.62
419.434	4.75
419.642	4.4
419.849	4.54
420.057	4.55
420.265	4.37
420.472	4.27
420.68	4.37
420.887	4.35
421.095	4.36
421.302	4.33
421.51	4.39
421.717	4.53
421.925	4.47
422.132	4.39
422.34	4.16
422.547	4.25
422.755	4.07
422.962	4.06
423.17	4.02
423.377	4.13
423.585	4.03
423.792	4.01
423.999	4.22
424.207	4.19
424.414	4.32
424.621	4.14
424.829	4.04
425.036	3.96
425.243	4.13
425.451	4.07
425.658	3.98
425.865	4.22
426.072	4.15
426.28	4.36
426.487	4.38
426.694	4.44
426.901	4.29
427.108	4.14
427.315	3.88
427.523	4.06
427.73	4.24
427.937	4.31
428.144	4.34
428.351	4.35
428.558	4.29
428.765	4.26
428.972	4.14
429.179	4.31
429.386	4.51
429.593	4.46
429.8	4.3
430.007	4.36
430.214	4.29
430.421	4.12
430.628	3.99
430.835	3.97
431.042	4.14
431.249	4.26
431.456	4.28
431.662	4.41
431.869	4.6
432.076	4.61
432.283	4.62
432.49	4.55
432.697	4.54
432.903	4.34
433.11	4.31
433.317	4.48
433.524	4.73
433.73	4.75
433.937	5.02
434.144	4.94
434.35	4.78
434.557	4.58
434.764	4.61
434.97	4.54
435.177	4.73
435.384	4.76
435.59	4.81
435.797	4.96
436.003	4.88
436.21	4.73
436.416	4.76
436.623	4.81
436.829	4.74
437.036	4.93
437.242	5
437.449	4.93
437.655	4.94
437.862	5.04
438.068	4.94
438.275	5.08
438.481	5.28
438.687	5.3
438.894	5.23
439.1	5.32
439.307	5.49
439.513	5.35
439.719	5.29
439.926	5.42
440.132	5.32
440.338	5.04
440.544	5.22
440.751	5.29
440.957	5.32
441.163	5.44
441.369	5.55
441.575	5.38
441.782	5.45
441.988	5.4
442.194	5.43
442.4	5.43
442.606	5.72
442.812	5.76
443.018	5.75
443.224	5.75
443.431	5.73
443.637	5.61
443.843	5.5
444.049	5.56
444.255	5.49
444.461	5.59
444.667	5.53
444.873	5.72
445.079	5.65
445.284	5.85
445.49	5.65
445.696	5.51
445.902	5.4
446.108	5.47
446.314	5.37
446.52	5.53
446.726	5.84
446.931	5.89
447.137	5.86
447.343	5.82
447.549	5.8
447.755	5.65
447.96	5.61
448.166	5.55
448.372	5.56
448.578	5.61
448.783	5.58
448.989	5.71
449.195	5.89
449.4	5.89
449.606	5.83
449.812	5.85
450.017	5.82
450.223	5.73
450.428	5.65
450.634	5.76
450.84	5.88
451.045	5.88
451.251	5.79
451.456	6.06
451.662	6.09
451.867	6.1
452.073	6.06
452.278	6.17
452.483	6.17
452.689	6.07
452.894	6.07
453.1	6.02
453.305	5.95
453.51	5.96
453.716	5.99
453.921	5.95
454.127	6
454.332	6.05
454.537	5.91
454.742	5.89
454.948	5.87
455.153	5.92
455.358	6.01
455.563	6.18
455.769	6.25
455.974	6.24
456.179	6.18
456.384	6.13
456.589	6.03
456.795	5.87
457	5.91
457.205	6.09
457.41	6
457.615	6.03
457.82	6.2
458.025	6.22
458.23	6.07
458.435	6.09
458.64	6.05
458.845	6.04
459.05	6.01
459.255	5.97
459.46	6.09
459.665	6.08
459.87	6.08
460.075	6.1
460.28	6.18
460.485	6.22
460.69	6.22
460.895	6.18
461.099	6.17
461.304	6.34
461.509	6.35
461.714	6.28
461.919	6.37
462.123	6.29
462.328	6.3
462.533	6.24
462.738	6.36
462.942	6.34
463.147	6.47
463.352	6.4
463.556	6.36
463.761	6.39
463.966	6.42
464.17	6.38
464.375	6.33
464.58	6.42
464.784	6.45
464.989	6.43
