Data from Ofra_1a_PS_OCX5_Reflection_4.txt Node
Date: Tue Jul 20 10:40:36 EDT 2021
User: Adam
Spectrometer: FLMT01687
Trigger mode: 0
Integration Time (sec): 1.004000E0
Scans to average: 2
Electric dark correction enabled: true
Nonlinearity correction enabled: false
Boxcar width: 2
XAxis mode: Wavelengths
Number of Pixels in Spectrum: 3648
>>>>>Begin Spectral Data<<<<<
179.494	-135.03
179.716	-239.69
179.937	380.6
180.158	-281.53
180.38	143.08
180.601	99.17
180.823	7.35
181.044	8.64
181.265	73.99
181.486	190.13
181.708	190.92
181.929	-13981.82
182.15	-16.64
182.372	22.66
182.593	163.23
182.814	-138.2
183.035	-43.46
183.257	37.77
183.478	21.6
183.699	-20.24
183.92	-75.26
184.141	-91.08
184.363	-59.94
184.584	-73.42
184.805	-1.3
185.026	48.67
185.247	46.46
185.468	14.91
185.689	22.15
185.91	-23.63
186.132	-26.71
186.353	-5.31
186.574	18.92
186.795	17.63
187.016	42.13
187.237	42.13
187.458	26.09
187.679	0.05
187.9	13.97
188.121	12.98
188.342	30.81
188.563	71.03
188.784	76.73
189.005	45.58
189.226	31.14
189.447	29.99
189.667	0.98
189.888	-8.33
190.109	-9.82
190.33	8.51
190.551	-22.08
190.772	-36.74
190.993	-71.14
191.214	-67.18
191.434	-129.96
191.655	-112.57
191.876	-7.19
192.097	44.77
192.318	61.77
192.538	69.75
192.759	56.54
192.98	46.29
193.201	27.31
193.421	12.1
193.642	22.5
193.863	20.47
194.083	28.16
194.304	27.07
194.525	12.95
194.745	-2.05
194.966	3.12
195.187	-1.46
195.407	-3.52
195.628	21.85
195.848	27.23
196.069	25.22
196.29	16.05
196.51	16.78
196.731	1.62
196.951	-15.93
197.172	-8.33
197.392	-1.76
197.613	14.55
197.833	13.42
198.054	21.14
198.274	33.58
198.495	27.92
198.715	16.66
198.936	30.14
199.156	47.17
199.377	23.15
199.597	47.34
199.817	58.76
200.038	44.61
200.258	31.1
200.479	66.94
200.699	46.98
200.919	30.26
201.14	20.89
201.36	36.71
201.58	-1.25
201.801	-14.05
202.021	-12.44
202.241	-21.99
202.461	-34.05
202.682	4.19
202.902	14.92
203.122	32.08
203.342	35.15
203.563	30.39
203.783	5.42
204.003	-15.58
204.223	-4.08
204.443	16.3
204.663	8.87
204.884	1.72
205.104	16.39
205.324	1.57
205.544	-42.45
205.764	-5.84
205.984	5.18
206.204	23.35
206.424	0.89
206.644	16.34
206.864	2.17
207.084	17.67
207.304	3.53
207.525	28.57
207.745	36.35
207.964	53.9
208.184	48.57
208.404	40.36
208.624	32.87
208.844	40.48
209.064	29.78
209.284	24.27
209.504	24.21
209.724	11.45
209.944	-1.73
210.164	-12.67
210.384	-5.81
210.604	-41.33
210.823	-27.83
211.043	-20.01
211.263	-72.75
211.483	-43.65
211.703	8.74
211.922	-8.94
212.142	16.98
212.362	32.63
212.582	23.29
212.801	18.25
213.021	11.09
213.241	-29.45
213.461	-21.45
213.68	15.46
213.9	-3.02
214.12	19.08
214.339	32.97
214.559	45.18
214.779	39.14
214.998	40.28
215.218	27.32
215.438	24.84
215.657	-19.79
215.877	-34.73
216.096	-6.19
216.316	-7.78
216.535	-20.59
216.755	-1.77
216.974	10.64
217.194	-16.82
217.413	-20.13
217.633	-10.4
217.852	7.11
218.072	8.15
218.291	20.31
218.511	19.26
218.73	10.5
218.95	7.47
219.169	-1.44
219.389	8.29
219.608	13.13
219.827	22.42
220.047	24.37
220.266	0.58
220.485	-10.07
220.705	-2.65
220.924	5.29
221.143	10.87
221.363	35.48
221.582	27.2
221.801	43.5
222.021	34.74
222.24	47.36
222.459	51.9
222.678	47.7
222.897	41.74
223.117	43.27
223.336	45.62
223.555	35.24
223.774	44.99
223.993	63.57
224.213	55.72
224.432	58.99
224.651	47.45
224.87	40.61
225.089	30.06
225.308	46.23
225.527	12.69
225.746	5.84
225.965	10.05
226.184	-22.96
226.404	-27.77
226.623	-7.06
226.842	6.92
227.061	19.04
227.28	42.86
227.499	31.84
227.718	31.14
227.936	28.71
228.155	18.71
228.374	9.19
228.593	16.36
228.812	14.85
229.031	18.57
229.25	1.16
229.469	-10.45
229.688	-0.32
229.907	7.31
230.125	13.72
230.344	34.62
230.563	41.67
230.782	36.69
231.001	48.1
231.22	32.81
231.438	41.24
231.657	33.47
231.876	19.62
232.095	3.12
232.313	-6.05
232.532	-22.47
232.751	-35.35
232.969	-22.97
233.188	-21.48
233.407	-6.34
233.625	-2.42
233.844	14.48
234.063	17.67
234.281	29.69
234.5	33.56
234.719	30.56
234.937	12.25
235.156	6.98
235.374	5.45
235.593	0.25
235.811	9.51
236.03	7.94
236.249	22.67
236.467	27.47
236.686	17.38
236.904	14.62
237.123	30.79
237.341	21.18
237.559	5.4
237.778	35.45
237.996	18.12
238.215	-21.38
238.433	-62.16
238.652	-20.5
238.87	-27.66
239.088	-11.96
239.307	14.58
239.525	33.81
239.743	32.89
239.962	22.07
240.18	28.26
240.398	24.69
240.617	-8.16
240.835	10.1
241.053	12.79
241.271	21.22
241.49	27.98
241.708	25.86
241.926	-0.72
242.144	5.34
242.363	-13.65
242.581	-60.18
242.799	-48.41
243.017	-24.39
243.235	-10.13
243.453	-31.05
243.672	0.71
243.89	13.05
244.108	31.21
244.326	49.22
244.544	59.67
244.762	52.67
244.98	65.88
245.198	71.34
245.416	54.09
245.634	51.43
245.852	38.34
246.07	29.03
246.288	20.42
246.506	16.33
246.724	21.69
246.942	30.49
247.16	31.82
247.378	30.71
247.596	50.89
247.814	39.55
248.032	25.05
248.25	19.48
248.468	22.55
248.685	25.97
248.903	24.55
249.121	28.52
249.339	26.31
249.557	16.19
249.775	0.51
249.992	5.11
250.21	3.97
250.428	12.08
250.646	23.43
250.863	28.66
251.081	33.51
251.299	42.3
251.517	48.78
251.734	39.99
251.952	24.05
252.17	17.22
252.387	-1.56
252.605	-7.41
252.823	-18.44
253.04	20.61
253.258	22.01
253.475	26.79
253.693	18.84
253.911	5.7
254.128	-13.54
254.346	-2.28
254.563	9.29
254.781	4.28
254.998	14.55
255.216	1.61
255.433	-40.42
255.651	-49.57
255.868	-41.95
256.086	-48.94
256.303	-25.22
256.521	-13.75
256.738	-28.69
256.956	-9.52
257.173	1.24
257.39	10.39
257.608	9.24
257.825	21.22
258.043	16.64
258.26	17.85
258.477	9.91
258.695	11.81
258.912	13.26
259.129	5.25
259.346	19.22
259.564	42.49
259.781	45.15
259.998	38.93
260.216	35.13
260.433	19.04
260.65	8.15
260.867	11.81
261.084	0.39
261.302	-6.92
261.519	-6.46
261.736	-5.92
261.953	3.2
262.17	29.24
262.387	24.98
262.604	29.85
262.822	42.98
263.039	37.06
263.256	27.49
263.473	29.9
263.69	31.06
263.907	20.64
264.124	20.28
264.341	20.09
264.558	31.1
264.775	29.77
264.992	37.11
265.209	23.93
265.426	29.52
265.643	9.96
265.86	8.51
266.077	-3.96
266.294	0.84
266.51	12.17
266.727	13.07
266.944	11.44
267.161	19.84
267.378	30.76
267.595	28.37
267.812	22.66
268.028	29.61
268.245	23.48
268.462	17.32
268.679	26.56
268.896	49.58
269.112	41.92
269.329	25.94
269.546	56.52
269.763	41.74
269.979	24.44
270.196	37.1
270.413	39.12
270.629	-3.07
270.846	-9.78
271.063	5.07
271.279	-5.38
271.496	7.19
271.712	21.53
271.929	25.43
272.146	2.82
272.362	7.43
272.579	4.56
272.795	11.44
273.012	23.77
273.228	47.29
273.445	48.51
273.661	46.23
273.878	48.16
274.094	40.52
274.311	24.24
274.527	28.46
274.744	27.45
274.96	18.46
275.177	20.99
275.393	28.35
275.609	37.95
275.826	43.56
276.042	38.92
276.259	38.99
276.475	24.77
276.691	0.54
276.908	-3.87
277.124	6.87
277.34	7.6
277.557	13.24
277.773	15.23
277.989	8.61
278.205	5.52
278.422	-17.11
278.638	-22.19
278.854	-16.43
279.07	-2.41
279.286	1.77
279.503	22.16
279.719	37.97
279.935	36.33
280.151	31.89
280.367	29.3
280.583	19.04
280.799	10.63
281.016	-13.22
281.232	-4.88
281.448	-12.85
281.664	-12.41
281.88	1.54
282.096	22.83
282.312	18.13
282.528	22.78
282.744	39.8
282.96	22.81
283.176	4.93
283.392	-25.53
283.608	-21.99
283.824	-79.72
284.04	-139.97
284.256	-73.96
284.471	-34.76
284.687	-35.52
284.903	-7.89
285.119	14.59
285.335	16.36
285.551	14.69
285.767	15.86
285.982	12.62
286.198	6.52
286.414	0.38
286.63	5.12
286.846	31.23
287.061	23.96
287.277	24.16
287.493	32.13
287.709	39.73
287.924	42.77
288.14	49.49
288.356	57.46
288.571	62.2
288.787	42.01
289.003	50.45
289.218	18.08
289.434	10.11
289.65	18.1
289.865	16.71
290.081	-1.49
290.296	13.36
290.512	-7.95
290.727	-23.65
290.943	-9.48
291.159	-5.27
291.374	-23.96
291.59	6.18
291.805	0.03
292.021	5
292.236	-2.19
292.451	14.83
292.667	17.98
292.882	26.16
293.098	35.31
293.313	28.59
293.529	36.36
293.744	16.49
293.959	24.16
294.175	15.23
294.39	6.02
294.605	6.2
294.821	3.39
295.036	-9.47
295.251	-5.18
295.467	-5.23
295.682	-5.08
295.897	2.3
296.112	11.84
296.328	8.87
296.543	9.86
296.758	7.76
296.973	3.18
297.188	3.05
297.404	-16.19
297.619	-17.31
297.834	-35.58
298.049	-14.14
298.264	-18.47
298.479	7.82
298.694	25.58
298.909	39.78
299.125	24.03
299.34	33.65
299.555	36.43
299.77	41.49
299.985	39.44
300.2	47.31
300.415	42.04
300.63	23.22
300.845	6.34
301.06	-11.1
301.275	-11.3
301.49	-10.02
301.704	14.73
301.919	9.38
302.134	23.44
302.349	20.76
302.564	13.69
302.779	-10.56
302.994	7.11
303.209	0.72
303.423	-0.14
303.638	11.48
303.853	10.19
304.068	2.76
304.283	23.06
304.497	16.75
304.712	21.14
304.927	30.71
305.142	32.86
305.356	23.91
305.571	24.41
305.786	13.81
306	20.17
306.215	15.46
306.43	5.49
306.644	6.11
306.859	-20.96
307.074	-25.96
307.288	-15.75
307.503	3.75
307.717	2.92
307.932	27.74
308.147	28.25
308.361	32.56
308.576	25.41
308.79	30.65
309.005	22.32
309.219	27.89
309.434	33.87
309.648	37.48
309.863	32.79
310.077	30.68
310.292	30.75
310.506	1.42
310.72	-3.71
310.935	-3.43
311.149	1.47
311.364	3.68
311.578	21.73
311.792	28.15
312.007	26.85
312.221	13.89
312.435	-4.59
312.649	-3.56
312.864	-44.76
313.078	-34.94
313.292	-17.15
313.507	-15.53
313.721	-16.71
313.935	27.67
314.149	19
314.363	19.39
314.578	13.05
314.792	-7.81
315.006	-5.87
315.22	9.35
315.434	0.9
315.648	-2.49
315.862	3.08
316.077	-10.97
316.291	-18.98
316.505	-43.72
316.719	-19.58
316.933	-8.72
317.147	10.69
317.361	12.91
317.575	12.11
317.789	7.8
318.003	16.87
318.217	21.48
318.431	21.4
318.645	24.74
318.859	31.65
319.073	29.28
319.287	22.99
319.5	24.17
319.714	22.16
319.928	17.58
320.142	21.87
320.356	22.23
320.57	22.55
320.784	37.36
320.997	21.55
321.211	16.08
321.425	13.46
321.639	20.44
321.853	15.79
322.066	13.57
322.28	10.82
322.494	11
322.707	-0.53
322.921	-8.45
323.135	4.42
323.349	4.28
323.562	8.73
323.776	13.57
323.989	24.58
324.203	9.5
324.417	15.58
324.63	11.95
324.844	0.35
325.057	-27.44
325.271	-12.79
325.485	-12
325.698	-3.89
325.912	8.15
326.125	22.78
326.339	32.29
326.552	17.58
326.766	11.92
326.979	10.71
327.193	15.51
327.406	6.65
327.619	17.82
327.833	4.16
328.046	19.5
328.26	7.62
328.473	18.93
328.686	26.62
328.9	50.34
329.113	40.74
329.326	44.94
329.54	30.17
329.753	21.04
329.966	10.27
330.179	-1.84
330.393	-2.76
330.606	3.67
330.819	-15.05
331.032	5.22
331.246	24.54
331.459	35.29
331.672	39.58
331.885	53.97
332.098	52.73
332.311	31.23
332.525	17.96
332.738	22.82
332.951	21.09
333.164	16.52
333.377	28.53
333.59	32.02
333.803	23.92
334.016	30.92
334.229	17.62
334.442	7.02
334.655	16.44
334.868	0.56
335.081	0.67
335.294	-5.77
335.507	10.21
335.72	4.88
335.933	18.9
336.146	27.12
336.359	31.59
336.572	21.32
336.785	18.59
336.997	-1.12
337.21	-8.7
337.423	-33.89
337.636	-18.63
337.849	-5.33
338.062	15.32
338.274	8.52
338.487	5.92
338.7	-3.86
338.913	-4.57
339.125	-15.26
339.338	-9.36
339.551	5.76
339.763	14.54
339.976	19.62
340.189	23.38
340.402	41.78
340.614	48.27
340.827	42.4
341.039	41.07
341.252	30.94
341.465	5.43
341.677	-5.91
341.89	-4.41
342.102	-11.85
342.315	-5.92
342.527	19.64
342.74	12.03
342.952	18.25
343.165	21.74
343.377	28.27
343.59	31.37
343.802	35.49
344.015	36.4
344.227	39.54
344.44	34.62
344.652	21.16
344.864	31.93
345.077	36.76
345.289	38.17
345.502	47.98
345.714	43.03
345.926	40.1
346.139	16.6
346.351	20.56
346.563	18.13
346.775	26
346.988	16.2
347.2	20.48
347.412	12.04
347.624	8.95
347.837	16.51
348.049	13.77
348.261	7.77
348.473	3.02
348.685	-8.5
348.897	-4.5
349.11	4.33
349.322	8.57
349.534	9.91
349.746	24.36
349.958	-2.42
350.17	-10.36
350.382	-6.18
350.594	4.1
350.806	1.98
351.018	14.29
351.23	24.45
351.442	29.95
351.654	27.19
351.866	33.05
352.078	34.31
352.29	29.85
352.502	25.84
352.714	33.04
352.926	15.01
353.138	28.53
353.35	24.15
353.561	33.61
353.773	28.81
353.985	36.73
354.197	29.49
354.409	24.44
354.621	8.71
354.832	7
355.044	-11.41
355.256	-16.48
355.468	-5.31
355.679	17.94
355.891	19.08
356.103	33.55
356.314	35
356.526	28.45
356.738	11.56
356.949	19.99
357.161	13.95
357.373	10.13
357.584	16.45
357.796	19.48
358.008	12.15
358.219	15.48
358.431	12.46
358.642	9.03
358.854	20.52
359.065	19.94
359.277	13.16
359.488	13.37
359.7	25.67
359.911	19.24
360.123	27.16
360.334	30.36
360.546	13.1
360.757	4.45
360.969	7.77
361.18	4.29
361.391	10.71
361.603	28.83
361.814	32.4
362.025	28.62
362.237	24.59
362.448	27.86
362.659	22.15
362.871	1.74
363.082	-7.51
363.293	-21.63
363.504	-57.28
363.716	-62.09
363.927	-21.19
364.138	-38.61
364.349	-33.52
364.56	-23.22
364.772	-10.66
364.983	-4.53
365.194	15.93
365.405	22.3
365.616	42.63
365.827	39.93
366.038	41.08
366.25	33.62
366.461	41.45
366.672	20.81
366.883	23.41
367.094	15.16
367.305	-2
367.516	-15.71
367.727	-6.64
367.938	-16.05
368.149	-15.66
368.36	-9.71
368.571	-6.08
368.781	-16.03
368.992	-6.47
369.203	-18.06
369.414	-19.09
369.625	-20.81
369.836	0.4
370.047	8.05
370.258	20.85
370.468	20.74
370.679	35.53
370.89	27.96
371.101	15.97
371.312	12.76
371.522	19.29
371.733	8.24
371.944	-8.37
372.155	15.69
372.365	15.9
372.576	11.66
372.787	17.12
372.997	17.43
373.208	-1.7
373.419	-2
373.629	-7.13
373.84	-29.44
374.05	-17.43
374.261	-30.13
374.472	-14.89
374.682	-19.21
374.893	-10.7
375.103	-9.53
375.314	-2.12
375.524	-13
375.735	-5.69
375.945	-5.42
376.156	3.47
376.366	3.07
376.577	4.55
376.787	10.01
376.997	16.61
377.208	7.98
377.418	12.92
377.629	15.23
377.839	20.36
378.049	20.75
378.26	16.98
378.47	7.67
378.68	11.36
378.89	1.45
379.101	1.74
379.311	3.54
379.521	2.74
379.732	3.47
379.942	5.07
380.152	-5
380.362	-5.85
380.572	1.76
380.783	5.85
380.993	11.12
381.203	15.96
381.413	19.74
381.623	22.08
381.833	19.63
382.043	16.9
382.253	21.41
382.463	27.18
382.674	28.52
382.884	32.27
383.094	31.04
383.304	30.74
383.514	25.95
383.724	18.92
383.934	2.4
384.144	9.86
384.353	4.79
384.563	3.77
384.773	12.59
384.983	15.54
385.193	8.22
385.403	9.89
385.613	11.36
385.823	5.1
386.033	4.28
386.242	0.78
386.452	-2.45
386.662	-4.05
386.872	2.01
387.082	7.49
387.291	10.67
387.501	9.5
387.711	10.43
387.921	7.16
388.13	8.6
388.34	7.53
388.55	8.01
388.759	2.06
388.969	1.22
389.179	-0.45
389.388	0.77
389.598	-2.51
389.807	-4.71
390.017	-4.61
390.227	-8.07
390.436	-7.18
390.646	-5.65
390.855	-3.85
391.065	-3.27
391.274	0.5
391.484	-0.76
391.693	1.2
391.903	3.12
392.112	2.79
392.322	1.29
392.531	0.14
392.74	-1.27
392.95	-0.31
393.159	-0.8
393.369	-0.44
393.578	0.33
393.787	1.14
393.997	0.94
394.206	2.25
394.415	2.41
394.625	2.25
394.834	2.12
395.043	2.3
395.252	3.26
395.462	3.21
395.671	3.02
395.88	4.03
396.089	4.24
396.298	2.81
396.508	2.79
396.717	3.1
396.926	2.31
397.135	2.44
397.344	2.08
397.553	1.26
397.762	2.31
397.971	1.54
398.181	1.17
398.39	1.26
398.599	2.15
398.808	0.96
399.017	2.73
399.226	2.9
399.435	3.12
399.644	3.37
399.853	4.15
400.062	3.23
400.27	2.96
400.479	3.08
400.688	2.78
400.897	2.22
401.106	2.55
401.315	2.65
401.524	2.84
401.733	2.56
401.941	2.9
402.15	2.79
402.359	2.62
402.568	2.16
402.777	2.41
402.985	2.03
403.194	1.85
403.403	2.14
403.612	2.17
403.82	1.66
404.029	1.95
404.238	1.91
404.446	1.9
404.655	1.97
404.864	2.32
405.072	2.29
405.281	2.28
405.489	2.1
405.698	2.14
405.906	2.23
406.115	2.15
406.324	2.16
406.532	2.25
406.741	2.35
406.949	2.36
407.158	2.48
407.366	2.44
407.574	2.4
407.783	2.38
407.991	2.24
408.2	2.28
408.408	2.31
408.617	2.24
408.825	2.13
409.033	2.19
409.242	2.15
409.45	2.15
409.658	2.18
409.867	2.29
410.075	2.33
410.283	2.18
410.491	2.14
410.7	2.02
410.908	2.02
411.116	2.03
411.324	2.07
411.533	1.93
411.741	2.08
411.949	2.07
412.157	1.91
412.365	1.94
412.573	2.11
412.781	1.98
412.99	2.06
413.198	2.18
413.406	2.26
413.614	2.23
413.822	2.4
414.03	2.3
414.238	2.32
414.446	2.28
414.654	2.25
414.862	2.01
415.07	1.86
415.278	1.85
415.486	1.69
415.694	1.82
415.902	1.95
416.109	1.94
416.317	1.91
416.525	1.92
416.733	1.81
416.941	1.86
417.149	1.88
417.357	1.96
417.564	1.99
417.772	2.04
417.98	1.94
418.188	1.88
418.395	1.6
418.603	1.55
418.811	1.43
419.019	1.43
419.226	1.51
419.434	1.73
419.642	1.7
419.849	1.55
420.057	1.53
420.265	1.54
420.472	1.4
420.68	1.43
420.887	1.71
421.095	1.93
421.302	1.98
421.51	1.94
421.717	2.05
421.925	2.03
422.132	1.78
422.34	1.6
422.547	1.68
422.755	1.56
422.962	1.57
423.17	1.53
423.377	1.57
423.585	1.76
423.792	1.84
423.999	1.78
424.207	1.79
424.414	1.81
424.621	1.56
424.829	1.62
425.036	1.67
425.243	1.72
425.451	1.73
425.658	1.76
425.865	1.91
426.072	1.92
426.28	2.07
426.487	2.05
426.694	2.07
426.901	1.72
427.108	1.62
427.315	1.47
427.523	1.48
427.73	1.48
427.937	1.43
428.144	1.46
428.351	1.5
428.558	1.53
428.765	1.64
428.972	1.75
429.179	1.68
429.386	1.71
429.593	1.64
429.8	1.51
430.007	1.49
430.214	1.46
430.421	1.47
430.628	1.51
430.835	1.53
431.042	1.47
431.249	1.45
431.456	1.41
431.662	1.52
431.869	1.64
432.076	1.7
432.283	1.87
432.49	1.88
432.697	1.82
432.903	1.72
433.11	1.89
433.317	1.88
433.524	1.88
433.73	1.8
433.937	1.92
434.144	1.74
434.35	1.48
434.557	1.52
434.764	1.68
434.97	1.48
435.177	1.56
435.384	1.74
435.59	1.77
435.797	1.82
436.003	1.99
436.21	1.94
436.416	2.1
436.623	2.11
436.829	1.89
437.036	1.8
437.242	1.83
437.449	1.72
437.655	1.79
437.862	1.89
438.068	1.84
438.275	1.86
438.481	1.9
438.687	1.81
438.894	1.99
439.1	2.06
439.307	2.12
439.513	2.1
439.719	2.1
439.926	1.92
440.132	1.98
440.338	1.84
440.544	1.79
440.751	1.8
440.957	1.87
441.163	1.72
441.369	1.87
441.575	1.91
441.782	1.93
441.988	1.83
442.194	1.8
442.4	1.78
442.606	1.85
442.812	1.82
443.018	1.84
443.224	2.03
443.431	1.98
443.637	1.94
443.843	2.02
444.049	2.11
444.255	2.16
444.461	2.13
444.667	2.14
444.873	2.14
445.079	2.13
445.284	2.04
445.49	2.16
445.696	2.13
445.902	2.16
446.108	2.13
446.314	2.1
446.52	2.13
446.726	2.22
446.931	2.17
447.137	2.19
447.343	2.27
447.549	2.29
447.755	2.21
447.96	2.27
448.166	2.26
448.372	2.21
448.578	2.09
448.783	2.19
448.989	2.19
449.195	2.21
449.4	2.3
449.606	2.33
449.812	2.17
450.017	2.21
450.223	2.21
450.428	2.14
450.634	2.09
450.84	2.21
451.045	2.19
451.251	2.19
451.456	2.25
451.662	2.35
451.867	2.34
452.073	2.28
452.278	2.27
452.483	2.21
452.689	2.21
452.894	2.29
453.1	2.29
453.305	2.35
453.51	2.38
453.716	2.39
453.921	2.37
454.127	2.4
454.332	2.33
454.537	2.37
454.742	2.26
454.948	2.28
455.153	2.3
455.358	2.31
455.563	2.39
455.769	2.48
455.974	2.48
456.179	2.45
456.384	2.42
456.589	2.28
456.795	2.25
457	2.21
457.205	2.15
457.41	2.16
457.615	2.16
457.82	2.24
458.025	2.26
458.23	2.28
458.435	2.33
458.64	2.37
458.845	2.29
459.05	2.28
459.255	2.39
459.46	2.4
459.665	2.3
459.87	2.27
460.075	2.34
460.28	2.31
460.485	2.37
460.69	2.45
460.895	2.54
461.099	2.36
461.304	2.27
461.509	2.26
461.714	2.37
461.919	2.37
462.123	2.49
462.328	2.44
462.533	2.33
462.738	2.19
462.942	2.11
463.147	2.12
463.352	2.24
463.556	2.25
463.761	2.3
463.966	2.36
464.17	2.49
464.375	2.53
464.58	2.52
464.784	2.5
464.989	2.53
465.193	2.42
465.398	2.45
465.602	2.62
465.807	2.69
466.011	2.58
466.216	2.51
466.42	2.5
466.625	2.44
466.829	2.41
467.034	2.62
467.238	2.73
467.443	2.71
467.647	2.69
467.851	2.74
468.056	2.7
