Data from Ofra_2a_PS_6EV18_Reflection_3.txt Node
Date: Tue Jul 20 09:53:18 EDT 2021
User: Adam
Spectrometer: FLMT01687
Trigger mode: 0
Integration Time (sec): 9.450000E-1
Scans to average: 3
Electric dark correction enabled: true
Nonlinearity correction enabled: false
Boxcar width: 3
XAxis mode: Wavelengths
Number of Pixels in Spectrum: 3648
>>>>>Begin Spectral Data<<<<<
179.494	1422.49
179.716	869.54
179.937	915.38
180.158	3266.41
180.38	-1436.63
180.601	-201.67
180.823	84.79
181.044	198.61
181.265	97.85
181.486	91.24
181.708	-232.61
181.929	-137.91
182.15	-857.95
182.372	233.75
182.593	161.13
182.814	-30.24
183.035	-56.82
183.257	-36.13
183.478	22.96
183.699	41.31
183.92	41.4
184.141	32.56
184.363	37.63
184.584	30.82
184.805	52.38
185.026	24.49
185.247	-3.82
185.468	11.11
185.689	21.59
185.91	10.3
186.132	20.6
186.353	-2.39
186.574	23.38
186.795	12.29
187.016	2.37
187.237	-1.56
187.458	-6.48
187.679	-32.01
187.9	-3.68
188.121	8.11
188.342	36.91
188.563	36.08
188.784	34.19
189.005	54.04
189.226	57.57
189.447	44.47
189.667	39.59
189.888	33.52
190.109	26.09
190.33	20.37
190.551	4
190.772	-0.33
190.993	0.12
191.214	-15.24
191.434	-24.73
191.655	2.41
191.876	13.14
192.097	16.63
192.318	29.78
192.538	38.01
192.759	42.4
192.98	48.6
193.201	52.78
193.421	51.44
193.642	55.87
193.863	48.83
194.083	42.57
194.304	53.47
194.525	61.76
194.745	35.75
194.966	37.7
195.187	49.57
195.407	40.72
195.628	35.03
195.848	34.12
196.069	24.3
196.29	21.98
196.51	0.17
196.731	-7.43
196.951	-8.03
197.172	-20.05
197.392	-8.82
197.613	-12.61
197.833	-9.82
198.054	-3.94
198.274	-21.68
198.495	-16.55
198.715	-22.04
198.936	-38.14
199.156	-26.31
199.377	-32.09
199.597	-29.38
199.817	-26.61
200.038	-27.16
200.258	-11.09
200.479	-0.73
200.699	2.28
200.919	-10.87
201.14	1.44
201.36	27.74
201.58	35.39
201.801	29.27
202.021	31.68
202.241	39.18
202.461	46.49
202.682	45.82
202.902	33.84
203.122	24.52
203.342	33.2
203.563	27.82
203.783	18.19
204.003	18.4
204.223	19.54
204.443	18.43
204.663	29.46
204.884	20.19
205.104	19.56
205.324	33.63
205.544	48.57
205.764	46.93
205.984	51.06
206.204	46.54
206.424	50.35
206.644	45.3
206.864	28.28
207.084	39.34
207.304	31.48
207.525	13.83
207.745	22.75
207.964	9.51
208.184	14.51
208.404	19.98
208.624	-10.8
208.844	-20.04
209.064	-1.76
209.284	0.45
209.504	2.03
209.724	-13.8
209.944	-7.3
210.164	5.76
210.384	22.55
210.604	20.42
210.823	0.3
211.043	-18.28
211.263	5.15
211.483	12.47
211.703	22.51
211.922	21.56
212.142	20.7
212.362	28.66
212.582	37.81
212.801	22.44
213.021	14.93
213.241	-14.53
213.461	-19.84
213.68	-20.73
213.9	-9.51
214.12	-19.71
214.339	-1.49
214.559	10.99
214.779	28.32
214.998	30.78
215.218	38.72
215.438	38.27
215.657	45.03
215.877	33.95
216.096	23.96
216.316	3.68
216.535	0.42
216.755	-17.64
216.974	-38.53
217.194	-37.37
217.413	-17.7
217.633	-27.81
217.852	-19.47
218.072	-19.62
218.291	17.14
218.511	18.24
218.73	10.59
218.95	-1.55
219.169	6.04
219.389	16.71
219.608	24.43
219.827	6.91
220.047	12.62
220.266	19.91
220.485	31.77
220.705	22.17
220.924	20.83
221.143	8.78
221.363	10.06
221.582	-1.02
221.801	0.32
222.021	-5.91
222.24	-7.85
222.459	-12.8
222.678	-7.78
222.897	-4.37
223.117	10.15
223.336	14.41
223.555	4
223.774	17.19
223.993	42.07
224.213	28.83
224.432	47.3
224.651	38.81
224.87	33.82
225.089	50.54
225.308	55.26
225.527	34.66
225.746	38.65
225.965	18.52
226.184	26.91
226.404	16.67
226.623	20.84
226.842	8.99
227.061	23.17
227.28	46.86
227.499	53.08
227.718	55.25
227.936	44.5
228.155	41.6
228.374	45.9
228.593	42.97
228.812	26.71
229.031	14.4
229.25	14.42
229.469	40.08
229.688	38.16
229.907	31.57
230.125	28.37
230.344	38.07
230.563	45.77
230.782	30.05
231.001	19.85
231.22	14.99
231.438	17.27
231.657	14.61
231.876	9.45
232.095	1.97
232.313	13.66
232.532	16.74
232.751	24.11
232.969	25.73
233.188	33.01
233.407	24.54
233.625	28.54
233.844	26.61
234.063	29.34
234.281	26.43
234.5	35.82
234.719	31.29
234.937	43.45
235.156	31.83
235.374	32.12
235.593	20.21
235.811	13.76
236.03	-13.41
236.249	2.37
236.467	-4.23
236.686	7.27
236.904	5.45
237.123	14.36
237.341	11.47
237.559	18.85
237.778	14.27
237.996	26.88
238.215	22.71
238.433	37.31
238.652	31.04
238.87	39.33
239.088	34.74
239.307	34.52
239.525	11.75
239.743	6.55
239.962	4.44
240.18	19.31
240.398	15.7
240.617	24.25
240.835	20.3
241.053	36.72
241.271	39.46
241.49	24.23
241.708	12.92
241.926	-1.09
242.144	-5.23
242.363	-11.65
242.581	-0.65
242.799	-3.88
243.017	6.7
243.235	7.81
243.453	8.48
243.672	8.7
243.89	16.45
244.108	8.96
244.326	12.85
244.544	3.9
244.762	18.7
244.98	22.67
245.198	9.56
245.416	5.12
245.634	21.04
245.852	25.37
246.07	31.14
246.288	19.73
246.506	29.55
246.724	48.93
246.942	59.75
247.16	33.1
247.378	23.59
247.596	37.08
247.814	26.18
248.032	26.46
248.25	6.09
248.468	10.23
248.685	18.46
248.903	10.25
249.121	8
249.339	16.8
249.557	15.24
249.775	6.99
249.992	-2.18
250.21	-13.03
250.428	-8.1
250.646	-16.23
250.863	-14.06
251.081	-22.71
251.299	5.48
251.517	9.85
251.734	15.43
251.952	34.11
252.17	8.46
252.387	10.86
252.605	16.65
252.823	1.64
253.04	-6.35
253.258	-0.1
253.475	-10.28
253.693	12.9
253.911	9.13
254.128	5.56
254.346	4.99
254.563	-1.81
254.781	-3
254.998	-5.82
255.216	-3.18
255.433	-0.38
255.651	-3.58
255.868	1.7
256.086	9.08
256.303	8.1
256.521	3.93
256.738	2.99
256.956	-13.7
257.173	1
257.39	4.07
257.608	10.34
257.825	3.3
258.043	15.51
258.26	7.36
258.477	21.66
258.695	18.34
258.912	23.81
259.129	11.66
259.346	31.3
259.564	25.08
259.781	37.5
259.998	34.44
260.216	32.3
260.433	26.66
260.65	33.61
260.867	17.64
261.084	21.45
261.302	16.44
261.519	3.35
261.736	-1.78
261.953	-4.89
262.17	-6.95
262.387	0.4
262.604	-20.24
262.822	-22.71
263.039	-18.96
263.256	-5.41
263.473	-2.62
263.69	2.93
263.907	-3.06
264.124	6.6
264.341	3.91
264.558	7.86
264.775	2.57
264.992	4.07
265.209	9.94
265.426	13.56
265.643	15.3
265.86	16.34
266.077	20.28
266.294	18.68
266.51	18.18
266.727	2.79
266.944	-4.6
267.161	-9.31
267.378	-13.75
267.595	-30.44
267.812	-34.19
268.028	-26.11
268.245	-10.13
268.462	-2.44
268.679	-0.33
268.896	-0.89
269.112	16.09
269.329	25.32
269.546	18.9
269.763	14.17
269.979	13.3
270.196	15.5
270.413	15.15
270.629	4.74
270.846	3.87
271.063	3.79
271.279	1.2
271.496	-2.84
271.712	-7.38
271.929	5.03
272.146	16.88
272.362	2.95
272.579	11.08
272.795	12.46
273.012	9.31
273.228	9.77
273.445	6.97
273.661	-4.77
273.878	3.9
274.094	0.09
274.311	5.14
274.527	5.66
274.744	5.86
274.96	-5.49
275.177	4.5
275.393	8.08
275.609	11.92
275.826	11.2
276.042	21.2
276.259	15.21
276.475	19.73
276.691	21.06
276.908	26.51
277.124	17.78
277.34	14.44
277.557	10.1
277.773	7.36
277.989	6.44
278.205	-5.51
278.422	-5.78
278.638	6.03
278.854	8
279.07	-6.67
279.286	5.15
279.503	8.03
279.719	21.5
279.935	11.37
280.151	15.31
280.367	18.63
280.583	24.06
280.799	24.61
281.016	23.13
281.232	12.84
281.448	2.12
281.664	0.57
281.88	4.84
282.096	14.08
282.312	6.21
282.528	2.95
282.744	14.82
282.96	36.97
283.176	24.09
283.392	31.71
283.608	29.93
283.824	24.79
284.04	29.68
284.256	28.16
284.471	26
284.687	23.47
284.903	12.87
285.119	-2.97
285.335	-0.62
285.551	8.22
285.767	2.61
285.982	-2.14
286.198	0.8
286.414	12.83
286.63	22.13
286.846	26.79
287.061	20.77
287.277	22.27
287.493	21.32
287.709	21.44
287.924	23.47
288.14	25.41
288.356	29.41
288.571	15.04
288.787	21.02
289.003	22.91
289.218	19.09
289.434	7.88
289.65	6.24
289.865	6.17
290.081	19.41
290.296	16.96
290.512	15.58
290.727	25.18
290.943	19.41
291.159	12.19
291.374	13.75
291.59	4.88
291.805	-2.53
292.021	-15.15
292.236	-16.76
292.451	-9.64
292.667	4.27
292.882	5.15
293.098	6.47
293.313	3.97
293.529	9.29
293.744	8.17
293.959	14.73
294.175	18.89
294.39	19.92
294.605	21.45
294.821	17.29
295.036	28.12
295.251	28.36
295.467	20.77
295.682	13.11
295.897	11.15
296.112	10.42
296.328	15.73
296.543	3.63
296.758	7.13
296.973	4.21
297.188	-4.52
297.404	-2.08
297.619	-4.45
297.834	7.79
298.049	10.53
298.264	9.48
298.479	1.78
298.694	6.77
298.909	0.09
299.125	0.46
299.34	-6.52
299.555	2.59
299.77	-3.36
299.985	0.63
300.2	1.47
300.415	5.22
300.63	1.64
300.845	7.54
301.06	0.63
301.275	12.34
301.49	14.86
301.704	12.37
301.919	4.95
302.134	9.47
302.349	1.56
302.564	1.83
302.779	-5.6
302.994	0.68
303.209	5.96
303.423	23.43
303.638	28.07
303.853	32.53
304.068	35.04
304.283	24.14
304.497	20.17
304.712	24.63
304.927	12.73
305.142	7.51
305.356	1.55
305.571	3.25
305.786	5.67
306	8.61
306.215	2.45
306.43	17.71
306.644	27.84
306.859	29.88
307.074	22.62
307.288	29.06
307.503	31.13
307.717	20.41
307.932	19.34
308.147	9.48
308.361	16
308.576	19.34
308.79	12.13
309.005	6.96
309.219	22.96
309.434	13.83
309.648	9.31
309.863	4.65
310.077	-2.76
310.292	-2.84
310.506	10.76
310.72	9.21
310.935	21.94
311.149	23.71
311.364	30.97
311.578	29.57
311.792	34.18
312.007	23.01
312.221	20.91
312.435	14.37
312.649	-16.71
312.864	-40.06
313.078	-19.46
313.292	-16.48
313.507	-2.59
313.721	-14.08
313.935	-7.78
314.149	19.8
314.363	30.06
314.578	53.29
314.792	41.27
315.006	31.76
315.22	39.86
315.434	29.66
315.648	33.33
315.862	24.8
316.077	-0.42
316.291	1.38
316.505	-0.65
316.719	-19.04
316.933	0.01
317.147	5.3
317.361	7.94
317.575	9.97
317.789	23.52
318.003	31.99
318.217	42.83
318.431	31.78
318.645	30.71
318.859	24.37
319.073	20.47
319.287	17.42
319.5	14.66
319.714	9.84
319.928	20.37
320.142	21.19
320.356	34.29
320.57	37.04
320.784	30.62
320.997	31.95
321.211	36.02
321.425	21.85
321.639	21.15
321.853	7.15
322.066	5.46
322.28	9.94
322.494	3.16
322.707	1.3
322.921	3.01
323.135	3.36
323.349	6.96
323.562	5.06
323.776	-0.32
323.989	-0.06
324.203	1.85
324.417	1.04
324.63	-8.84
324.844	-15.2
325.057	-4.15
325.271	-0.9
325.485	7.08
325.698	13.61
325.912	27.88
326.125	37.04
326.339	51.26
326.552	51.33
326.766	53.13
326.979	49.67
327.193	43.7
327.406	32.77
327.619	22.22
327.833	6.79
328.046	-2.85
328.26	0.87
328.473	3.56
328.686	-3.29
328.9	-7.98
329.113	-0.71
329.326	15.76
329.54	12.9
329.753	-0.77
329.966	2.69
330.179	14.39
330.393	19.59
330.606	25.1
330.819	13.64
331.032	15.15
331.246	18.91
331.459	17.47
331.672	16.84
331.885	12.62
332.098	7.08
332.311	2.49
332.525	23.12
332.738	22.36
332.951	17.58
333.164	5.96
333.377	10.13
333.59	18.04
333.803	24.4
334.016	-0.4
334.229	2.64
334.442	6.03
334.655	11.85
334.868	22.55
335.081	22.16
335.294	20.1
335.507	27.34
335.72	16.28
335.933	29.16
336.146	25.43
336.359	6.89
336.572	2.31
336.785	5.36
336.997	-4.53
337.21	5.04
337.423	-4.66
337.636	9.11
337.849	15.82
338.062	13.9
338.274	12.86
338.487	17.95
338.7	14.77
338.913	8.75
339.125	0.74
339.338	9.55
339.551	13.72
339.763	9.3
339.976	9.22
340.189	7.87
340.402	13.76
340.614	17
340.827	0.87
341.039	-2.31
341.252	-2.56
341.465	-14.26
341.677	-11.73
341.89	-15.3
342.102	-17.59
342.315	-2.9
342.527	-6.76
342.74	-6.88
342.952	7.47
343.165	12.81
343.377	14.47
343.59	19.61
343.802	21.25
344.015	31.7
344.227	27.1
344.44	24.07
344.652	25.93
344.864	24.86
345.077	15.29
345.289	9.43
345.502	5.44
345.714	7.16
345.926	4.12
346.139	-5.01
346.351	-21.58
346.563	-11.49
346.775	-15.83
346.988	-15.92
347.2	-2.37
347.412	-2.72
347.624	2.94
347.837	10.47
348.049	8.55
348.261	11.85
348.473	1.8
348.685	3.94
348.897	4.6
349.11	5.6
349.322	8.36
349.534	3.85
349.746	9.14
349.958	16.29
350.17	9.77
350.382	7.12
350.594	9.08
350.806	17.4
351.018	29.46
351.23	29.25
351.442	25.56
351.654	24.78
351.866	31.92
352.078	24.1
352.29	21.73
352.502	13.3
352.714	15.11
352.926	17.68
353.138	18
353.35	8.22
353.561	2.96
353.773	3.25
353.985	9.01
354.197	0.57
354.409	-0.72
354.621	-0.37
354.832	-3.24
355.044	7.56
355.256	-2.83
355.468	-10.75
355.679	-7.3
355.891	-0.87
356.103	-0.51
356.314	8.54
356.526	-0.26
356.738	-2.16
356.949	1.6
357.161	-3.82
357.373	-3.16
357.584	7.43
357.796	0.69
358.008	14.63
358.219	28.63
358.431	27.96
358.642	36.8
358.854	36.32
359.065	23.13
359.277	26.15
359.488	20.07
359.7	14.31
359.911	14.69
360.123	14.5
360.334	4.65
360.546	4.98
360.757	11.77
360.969	12.42
361.18	10.59
361.391	8.89
361.603	12.54
361.814	17.66
362.025	17.51
362.237	13.14
362.448	12.8
362.659	3.8
362.871	8.31
363.082	9.56
363.293	15.21
363.504	20.93
363.716	19.63
363.927	18.23
364.138	23.66
364.349	20.21
364.56	14.13
364.772	12.31
364.983	-0.48
365.194	-0.25
365.405	-3.73
365.616	-10.62
365.827	-8
366.038	0.83
366.25	-2.47
366.461	7.63
366.672	6.04
366.883	10.25
367.094	7.93
367.305	4.71
367.516	0.83
367.727	5.81
367.938	6.5
368.149	8.73
368.36	8.71
368.571	17.41
368.781	18.35
368.992	18.23
369.203	13.96
369.414	5.4
369.625	0.62
369.836	2.4
370.047	-5.56
370.258	-14.95
370.468	-23.97
370.679	-25.37
370.89	-0.65
371.101	0.07
371.312	-1.8
371.522	1.67
371.733	2.03
371.944	16.09
372.155	12.64
372.365	-1.85
372.576	-7.91
372.787	-10.14
372.997	-4.88
373.208	5.24
373.419	-9.13
373.629	6.42
373.84	1.33
374.05	8.92
374.261	12.48
374.472	8.43
374.682	1.1
374.893	1.03
375.103	-4.04
375.314	-1
375.524	0.46
375.735	0.92
375.945	-0.68
376.156	9.14
376.366	15.61
376.577	15.06
376.787	23.7
376.997	21.61
377.208	19.15
377.418	22.52
377.629	15.38
377.839	16.37
378.049	20.17
378.26	17.09
378.47	20.6
378.68	23.71
378.89	19.96
379.101	17.32
379.311	12.65
379.521	4.34
379.732	-7.61
379.942	-10.11
380.152	-6.29
380.362	1.44
380.572	2.77
380.783	3.25
380.993	2.18
381.203	8.44
381.413	14.96
381.623	11.58
381.833	3.74
382.043	2.62
382.253	3.08
382.463	12.55
382.674	10.19
382.884	0.93
383.094	-1.98
383.304	-2
383.514	7.06
383.724	5.91
383.934	-0.19
384.144	2.85
384.353	3.62
384.563	2.09
384.773	5.31
384.983	-0.42
385.193	4.09
385.403	6.66
385.613	2.24
385.823	2.17
386.033	2.35
386.242	-1.16
386.452	-2.57
386.662	-5.6
386.872	-7.94
387.082	-8.05
387.291	-5.38
387.501	-1.76
387.711	-0.3
387.921	0.11
388.13	-0.28
388.34	1.18
388.55	4.28
388.759	1.73
388.969	-0.21
389.179	2.08
389.388	3.97
389.598	2.9
389.807	1.85
390.017	0.26
390.227	1.05
390.436	0.31
390.646	0.19
390.855	1.16
391.065	2.6
391.274	1.42
391.484	2
391.693	3.43
391.903	3.97
392.112	2.87
392.322	3.57
392.531	3.27
392.74	3.47
392.95	5.05
393.159	4.62
393.369	4.92
393.578	4.98
393.787	3.99
393.997	4.94
394.206	5.38
394.415	4.76
394.625	3.95
394.834	2.5
395.043	2.54
395.252	2.16
395.462	1.06
395.671	0.98
395.88	0.74
396.089	1.13
396.298	1.95
396.508	1.61
396.717	1.35
396.926	1.18
397.135	1.16
397.344	1.09
397.553	1.61
397.762	1.49
397.971	1.67
398.181	1.54
398.39	1.85
398.599	2.1
398.808	1.83
399.017	1.72
399.226	1.95
399.435	1.94
399.644	2.03
399.853	2.1
400.062	2.11
400.27	2.3
400.479	2.23
400.688	2.22
400.897	2.43
401.106	2.48
401.315	2.4
401.524	2.43
401.733	2.51
401.941	2.32
402.15	2.12
402.359	2.12
402.568	2.12
402.777	2.08
402.985	2
403.194	1.87
403.403	1.7
403.612	1.77
403.82	1.76
404.029	1.79
404.238	1.94
404.446	1.84
404.655	1.8
404.864	1.85
405.072	1.92
405.281	1.69
405.489	1.69
405.698	1.49
405.906	1.52
406.115	1.64
406.324	1.67
406.532	1.66
406.741	1.74
406.949	1.66
407.158	1.77
407.366	1.84
407.574	1.84
407.783	1.76
407.991	1.66
408.2	1.71
408.408	1.8
408.617	1.72
408.825	1.72
409.033	1.69
409.242	1.76
409.45	1.83
409.658	1.77
409.867	1.74
410.075	1.75
410.283	1.57
410.491	1.43
410.7	1.43
410.908	1.42
411.116	1.4
411.324	1.49
411.533	1.42
411.741	1.49
411.949	1.63
412.157	1.68
412.365	1.68
412.573	1.71
412.781	1.66
412.99	1.78
413.198	1.82
413.406	1.77
413.614	1.78
413.822	1.74
414.03	1.65
414.238	1.7
414.446	1.58
414.654	1.58
414.862	1.54
415.07	1.56
415.278	1.56
415.486	1.73
415.694	1.55
415.902	1.56
416.109	1.59
416.317	1.54
416.525	1.53
416.733	1.56
416.941	1.44
417.149	1.64
417.357	1.65
417.564	1.59
417.772	1.75
417.98	1.71
418.188	1.61
418.395	1.54
418.603	1.29
418.811	1.32
419.019	1.31
419.226	1.32
419.434	1.25
419.642	1.25
419.849	1.29
420.057	1.43
420.265	1.33
420.472	1.34
420.68	1.22
420.887	1.29
421.095	1.33
421.302	1.42
421.51	1.48
421.717	1.69
421.925	1.53
422.132	1.52
422.34	1.52
422.547	1.52
422.755	1.43
422.962	1.23
423.17	1.11
423.377	1.34
423.585	1.38
423.792	1.31
423.999	1.27
424.207	1.27
424.414	1.38
424.621	1.5
424.829	1.38
425.036	1.4
425.243	1.43
425.451	1.46
425.658	1.53
425.865	1.45
426.072	1.45
426.28	1.44
426.487	1.42
426.694	1.42
426.901	1.27
427.108	1.24
427.315	1.23
427.523	1.15
427.73	1.22
427.937	1.23
428.144	1.19
428.351	1.35
428.558	1.27
428.765	1.27
428.972	1.25
429.179	1.13
429.386	1.14
429.593	1.08
429.8	1.12
430.007	1.22
430.214	1.31
430.421	1.38
430.628	1.3
430.835	1.28
431.042	1.43
431.249	1.47
431.456	1.42
431.662	1.47
431.869	1.49
432.076	1.63
432.283	1.61
432.49	1.54
432.697	1.47
432.903	1.5
433.11	1.46
433.317	1.48
433.524	1.4
433.73	1.42
433.937	1.38
434.144	1.46
434.35	1.51
434.557	1.45
434.764	1.38
434.97	1.49
435.177	1.45
435.384	1.5
435.59	1.45
435.797	1.39
436.003	1.45
436.21	1.42
436.416	1.35
436.623	1.41
436.829	1.4
437.036	1.43
437.242	1.51
437.449	1.51
437.655	1.56
437.862	1.62
438.068	1.68
438.275	1.67
438.481	1.7
438.687	1.69
438.894	1.67
439.1	1.68
439.307	1.65
439.513	1.6
439.719	1.66
439.926	1.62
440.132	1.58
440.338	1.63
440.544	1.61
440.751	1.67
440.957	1.63
441.163	1.66
441.369	1.63
441.575	1.6
441.782	1.59
441.988	1.55
442.194	1.55
442.4	1.63
442.606	1.65
442.812	1.71
443.018	1.73
443.224	1.7
443.431	1.74
443.637	1.67
443.843	1.67
444.049	1.56
444.255	1.54
444.461	1.53
444.667	1.53
444.873	1.51
445.079	1.57
445.284	1.5
445.49	1.48
445.696	1.47
445.902	1.53
446.108	1.57
446.314	1.63
446.52	1.6
446.726	1.69
446.931	1.76
447.137	1.78
447.343	1.75
447.549	1.71
447.755	1.67
447.96	1.63
448.166	1.65
448.372	1.67
448.578	1.66
448.783	1.64
448.989	1.67
449.195	1.65
449.4	1.74
449.606	1.63
449.812	1.65
450.017	1.68
450.223	1.69
450.428	1.7
450.634	1.75
450.84	1.72
451.045	1.8
451.251	1.81
451.456	1.81
451.662	1.82
451.867	1.8
452.073	1.77
452.278	1.76
452.483	1.74
452.689	1.7
452.894	1.7
453.1	1.66
453.305	1.66
453.51	1.67
453.716	1.71
453.921	1.7
454.127	1.69
454.332	1.69
454.537	1.83
454.742	1.83
454.948	1.84
455.153	1.8
455.358	1.87
455.563	1.91
455.769	1.9
455.974	1.82
456.179	1.79
456.384	1.78
456.589	1.82
456.795	1.7
457	1.73
457.205	1.71
457.41	1.73
457.615	1.78
457.82	1.77
458.025	1.75
458.23	1.8
458.435	1.67
458.64	1.76
458.845	1.72
459.05	1.7
459.255	1.73
459.46	1.69
459.665	1.76
459.87	1.8
460.075	1.75
460.28	1.83
460.485	1.84
460.69	1.76
460.895	1.85
461.099	1.8
461.304	1.82
461.509	1.76
461.714	1.72
461.919	1.74
462.123	1.81
462.328	1.75
462.533	1.73
462.738	1.73
462.942	1.8
463.147	1.83
463.352	1.8
463.556	1.79
463.761	1.79
463.966	1.81
464.17	1.83
464.375	1.8
464.58	1.74
464.784	1.74
464.989	1.76
465.193	1.78
465.398	1.82
465.602	1.8
465.807	1.83
466.011	1.9
466.216	1.94
466.42	1.94
466.625	1.97
466.829	1.95
467.034	2
467.238	2.01
467.443	1.99
467.647	2
467.851	2.02
468.056	2.03
468.26	2.04
468.464	2.02
468.669	2.04
468.873	2
469.077	2.01
469.282	2.02
469.486	2.03
469.69	2.02
469.894	2.06
470.099	2.04
470.303	2.1
470.507	2.1
470.711	2.09
470.915	2.1
471.119	2.13
471.324	2.1
