Data from Ofra_1a_PS_OGT3_Reflection_2.txt Node
Date: Tue Jul 20 10:43:09 EDT 2021
User: Adam
Spectrometer: FLMT01687
Trigger mode: 0
Integration Time (sec): 1.004000E0
Scans to average: 2
Electric dark correction enabled: true
Nonlinearity correction enabled: false
Boxcar width: 2
XAxis mode: Wavelengths
Number of Pixels in Spectrum: 3648
>>>>>Begin Spectral Data<<<<<
179.494	-190.86
179.716	-275.57
179.937	552.51
180.158	117.2
180.38	31.83
180.601	13.6
180.823	-4.66
181.044	-113.26
181.265	147.97
181.486	43.58
181.708	112.36
181.929	-10290.91
182.15	34.41
182.372	157.64
182.593	252.92
182.814	-337.52
183.035	-60.68
183.257	-24
183.478	-6.19
183.699	-28.72
183.92	-46.11
184.141	-51.46
184.363	-49.14
184.584	-73.73
184.805	-20.39
185.026	5.47
185.247	-9
185.468	-30.71
185.689	-22.27
185.91	-31.89
186.132	-19.06
186.353	-10.85
186.574	3.95
186.795	35.25
187.016	40.2
187.237	40.76
187.458	41.54
187.679	30.48
187.9	24.95
188.121	33.1
188.342	48.23
188.563	62.02
188.784	77.84
189.005	58.41
189.226	46.72
189.447	31.49
189.667	16.79
189.888	0.27
190.109	-0.95
190.33	-9.8
190.551	-12.59
190.772	-23.22
190.993	-27.13
191.214	-52.53
191.434	-73.27
191.655	-78.73
191.876	-8.4
192.097	10.3
192.318	25.74
192.538	7.24
192.759	4.26
192.98	3.91
193.201	-10.82
193.421	-11.65
193.642	7.54
193.863	3.04
194.083	-8.57
194.304	-0.18
194.525	-10.29
194.745	-10.13
194.966	-3.39
195.187	14.93
195.407	7.6
195.628	16.16
195.848	-1.53
196.069	-8.47
196.29	-31.93
196.51	-32.92
196.731	-32.45
196.951	-29.1
197.172	-9.28
197.392	-13.06
197.613	22.2
197.833	-1.39
198.054	2
198.274	-14.09
198.495	-16.48
198.715	-46
198.936	-22.93
199.156	-32.17
199.377	-39.96
199.597	-1.13
199.817	-15.79
200.038	-26.47
200.258	-14.8
200.479	-5.06
200.699	-25.9
200.919	-11.75
201.14	-5.52
201.36	-4.59
201.58	-25.94
201.801	-56.93
202.021	-72.31
202.241	-74.31
202.461	-42.09
202.682	-22.97
202.902	-15.65
203.122	-9.54
203.342	-4.42
203.563	-13.09
203.783	-33.55
204.003	-22.3
204.223	-9.74
204.443	-27.91
204.663	-66.99
204.884	-49.71
205.104	-26.03
205.324	-36.47
205.544	-56.18
205.764	9.98
205.984	18.85
206.204	-5.87
206.424	-21.75
206.644	-18.44
206.864	-80.14
207.084	-28.74
207.304	-47.62
207.525	-32.35
207.745	-16.26
207.964	-12.38
208.184	-40.97
208.404	-13.82
208.624	-11.8
208.844	-22.96
209.064	-13.64
209.284	-19.82
209.504	-48.74
209.724	-46.01
209.944	-52.79
210.164	-52.59
210.384	-57.61
210.604	-65.86
210.823	-79.69
211.043	-44.29
211.263	-111.85
211.483	-61.87
211.703	-39.8
211.922	-37.21
212.142	-9.48
212.362	7.19
212.582	-7.15
212.801	-17.51
213.021	-28.21
213.241	-44.81
213.461	-33.56
213.68	-19.55
213.9	-16.35
214.12	-17.88
214.339	-17.18
214.559	-19.52
214.779	-27.14
214.998	-22.16
215.218	-18.9
215.438	-25.12
215.657	-32.47
215.877	-46.43
216.096	-29.18
216.316	-21.5
216.535	-24.88
216.755	-22.02
216.974	-25.68
217.194	-49.55
217.413	-52.85
217.633	-43.18
217.852	-26
218.072	-13.44
218.291	-6.94
218.511	-20.7
218.73	-24.92
218.95	-58.18
219.169	-59.59
219.389	-33.91
219.608	-14.05
219.827	-4.53
220.047	16.29
220.266	0.09
220.485	-21.36
220.705	-11.61
220.924	-15.12
221.143	-3.89
221.363	15.17
221.582	18.57
221.801	5.21
222.021	5.72
222.24	-1.04
222.459	22.57
222.678	18.16
222.897	20.33
223.117	12.2
223.336	19.85
223.555	6.42
223.774	27.92
223.993	31.43
224.213	55.48
224.432	27.9
224.651	10.38
224.87	-11.38
225.089	1.16
225.308	2.59
225.527	-13.86
225.746	-16.27
225.965	0.48
226.184	-20.18
226.404	-33.67
226.623	-3.58
226.842	-4.6
227.061	-17.19
227.28	-3.07
227.499	-4.77
227.718	-11.43
227.936	-5.86
228.155	-6.94
228.374	-24.11
228.593	-16.12
228.812	-22.44
229.031	-2.59
229.25	4.11
229.469	9.25
229.688	5.46
229.907	16.96
230.125	-6.96
230.344	-2.06
230.563	8.46
230.782	4.17
231.001	-7.43
231.22	2.08
231.438	-5.99
231.657	-4.1
231.876	10.78
232.095	10.13
232.313	0.8
232.532	10.38
232.751	13.14
232.969	-10.46
233.188	-10.01
233.407	0.89
233.625	-15.18
233.844	-20.61
234.063	-1.29
234.281	10.75
234.5	20.2
234.719	24.7
234.937	15.39
235.156	-3.4
235.374	-22.98
235.593	-30.99
235.811	-20.09
236.03	-4.9
236.249	-3.44
236.467	2.29
236.686	-9.2
236.904	2.11
237.123	21.36
237.341	15.48
237.559	15.93
237.778	45.4
237.996	13.8
238.215	-44.91
238.433	-44.64
238.652	-16.07
238.87	-32.18
239.088	-15.21
239.307	-8.42
239.525	1.24
239.743	-3.81
239.962	-37.14
240.18	-18.38
240.398	-19.5
240.617	-47.22
240.835	-56.5
241.053	-31.2
241.271	-40.25
241.49	-22.33
241.708	-15.71
241.926	-22.14
242.144	-8.59
242.363	-21.82
242.581	-68.51
242.799	-67.21
243.017	-37.82
243.235	-23.79
243.453	-11.85
243.672	1.86
243.89	20.97
244.108	23.49
244.326	27.44
244.544	29.4
244.762	14.34
244.98	8.04
245.198	10.02
245.416	-1.04
245.634	-4.98
245.852	-16.46
246.07	-2.64
246.288	-3.23
246.506	-12.98
246.724	-16.79
246.942	3.33
247.16	-1.65
247.378	-30.84
247.596	-5.3
247.814	-31.54
248.032	-24.88
248.25	3.92
248.468	20.29
248.685	11.97
248.903	10.15
249.121	6.09
249.339	-1.21
249.557	-11.61
249.775	7.17
249.992	18.16
250.21	18.66
250.428	16.42
250.646	19.9
250.863	-13.58
251.081	-22.9
251.299	-20.9
251.517	-17.72
251.734	-21.75
251.952	-2.76
252.17	12.16
252.387	-5.5
252.605	-20.35
252.823	-35.32
253.04	-23
253.258	-38.29
253.475	-12.61
253.693	-5.66
253.911	-3.66
254.128	-3.51
254.346	2.37
254.563	13.39
254.781	8.93
254.998	-5.58
255.216	-47.82
255.433	-83.18
255.651	-83.86
255.868	-70.91
256.086	-35.29
256.303	2.71
256.521	35.51
256.738	16.79
256.956	0.42
257.173	-13.56
257.39	-25.94
257.608	-43.85
257.825	-18.37
258.043	2.95
258.26	1.55
258.477	-1.9
258.695	-3.22
258.912	-28.25
259.129	-45.64
259.346	-42.62
259.564	-42.06
259.781	-27.2
259.998	0.51
260.216	14.06
260.433	-3.07
260.65	9.43
260.867	0.23
261.084	-11.05
261.302	-29.85
261.519	-8
261.736	-12.66
261.953	-1.06
262.17	29.93
262.387	21.04
262.604	33.23
262.822	36.54
263.039	30.96
263.256	18.35
263.473	17.36
263.69	6.8
263.907	-2.45
264.124	5.85
264.341	8.31
264.558	20.22
264.775	18.52
264.992	22.38
265.209	-6.05
265.426	-4.87
265.643	-7.86
265.86	-30.16
266.077	-37.67
266.294	-10.73
266.51	-7.73
266.727	-20.75
266.944	10.44
267.161	11.05
267.378	18.97
267.595	-0.11
267.812	-9.94
268.028	-37.22
268.245	-44.97
268.462	-43.54
268.679	-19.53
268.896	1.12
269.112	-7.7
269.329	-19.56
269.546	-4.67
269.763	3.34
269.979	-0.94
270.196	20.76
270.413	22.32
270.629	13.1
270.846	2.84
271.063	9.2
271.279	3.23
271.496	0.89
271.712	4.47
271.929	4.61
272.146	-10.67
272.362	-7.32
272.579	-8.68
272.795	-29.33
273.012	-31.35
273.228	-20.82
273.445	-27.03
273.661	-42.33
273.878	-46.73
274.094	-37.14
274.311	-35.95
274.527	-61
274.744	-29.64
274.96	-20.54
275.177	-16.41
275.393	3.41
275.609	13
275.826	4.85
276.042	17.32
276.259	4.17
276.475	-23.85
276.691	-16.55
276.908	-7.06
277.124	-9.92
277.34	-10.01
277.557	3.73
277.773	-1.14
277.989	-6.3
278.205	-4.86
278.422	7.87
278.638	10.47
278.854	13.34
279.07	28.55
279.286	24.42
279.503	25.66
279.719	18.47
279.935	5.63
280.151	-20.95
280.367	-9.29
280.583	-33.38
280.799	-28.89
281.016	-74.82
281.232	-49.72
281.448	-65.77
281.664	-46.87
281.88	-31.26
282.096	-2.92
282.312	1.03
282.528	4.07
282.744	8.59
282.96	-12.67
283.176	-16.36
283.392	-58.23
283.608	-62.61
283.824	-86.06
284.04	-138
284.256	-70.67
284.471	-52.98
284.687	-48.32
284.903	-32.72
285.119	0.93
285.335	5.45
285.551	12.79
285.767	15.89
285.982	7.07
286.198	-42.43
286.414	-70.69
286.63	-97.12
286.846	-84.95
287.061	-56.09
287.277	-27.05
287.493	-36.95
287.709	-18.51
287.924	-6.36
288.14	0.06
288.356	14.61
288.571	22.49
288.787	-0.11
289.003	-4.95
289.218	-23.86
289.434	-36.75
289.65	-6.51
289.865	12.38
290.081	20.48
290.296	25.01
290.512	30.37
290.727	7.89
290.943	1.11
291.159	-5.12
291.374	-24.71
291.59	-25.77
291.805	-35.63
292.021	-27.38
292.236	-26.79
292.451	-9.43
292.667	-7.51
292.882	7.3
293.098	2.33
293.313	-16.93
293.529	-13.35
293.744	-21.16
293.959	-27.16
294.175	-21.53
294.39	-30.82
294.605	-13.37
294.821	-23.52
295.036	-26.07
295.251	-24.39
295.467	-17.18
295.682	-20.5
295.897	-14.39
296.112	-7.23
296.328	-7.12
296.543	-9.12
296.758	-6.94
296.973	-14.73
297.188	-13.21
297.404	-28.67
297.619	-52.29
297.834	-114.38
298.049	-100.51
298.264	-81.64
298.479	-81.41
298.694	-11.46
298.909	6.68
299.125	5.76
299.34	-10.26
299.555	2.74
299.77	1.06
299.985	1.29
300.2	9.1
300.415	17.09
300.63	7.11
300.845	-9.72
301.06	-17.81
301.275	-25.11
301.49	-11.59
301.704	-6.13
301.919	-8.19
302.134	9.04
302.349	2.2
302.564	-9.75
302.779	-18.24
302.994	-0.27
303.209	-3.38
303.423	11.43
303.638	26.97
303.853	11.45
304.068	0.53
304.283	-6.98
304.497	-35.82
304.712	-34.93
304.927	-14.26
305.142	-7.03
305.356	-3.84
305.571	-4.54
305.786	-16.61
306	-6.65
306.215	-18.68
306.43	-36.36
306.644	-24.8
306.859	-43.35
307.074	-34.6
307.288	-23.6
307.503	1.6
307.717	-9.4
307.932	1.86
308.147	-10.98
308.361	-17.48
308.576	-41.08
308.79	-30.57
309.005	-33.06
309.219	-11.96
309.434	5.96
309.648	2.23
309.863	12.13
310.077	15.93
310.292	19.58
310.506	-10.47
310.72	-0.92
310.935	-5.22
311.149	6.13
311.364	-3.22
311.578	13.39
311.792	9.25
312.007	21.33
312.221	-6.07
312.435	-4.56
312.649	-0.28
312.864	2.9
313.078	-1.82
313.292	-8.75
313.507	-21.06
313.721	-22.66
313.935	-23.68
314.149	-22.5
314.363	-4.45
314.578	6.39
314.792	-19.8
315.006	-28.76
315.22	-12.75
315.434	-23.32
315.648	-29.61
315.862	-30.62
316.077	-39.18
316.291	-52.05
316.505	-68.19
316.719	-44.65
316.933	-14.09
317.147	3.78
317.361	10.08
317.575	17.22
317.789	14.18
318.003	8.32
318.217	1.91
318.431	-4.71
318.645	-8.02
318.859	-4.62
319.073	7.02
319.287	4.44
319.5	7.9
319.714	9.23
319.928	2.11
320.142	-7.64
320.356	-1.26
320.57	-26.33
320.784	-18.44
320.997	-43.17
321.211	-29.78
321.425	-46.23
321.639	-2.69
321.853	-0.55
322.066	4.33
322.28	-5.26
322.494	8.6
322.707	1.85
322.921	-13.66
323.135	0.71
323.349	-4.21
323.562	-16.17
323.776	-25.93
323.989	3.53
324.203	-1.1
324.417	10.88
324.63	3.98
324.844	-10.17
325.057	-52.19
325.271	-55.23
325.485	-58.78
325.698	-15.95
325.912	16.92
326.125	24.63
326.339	36.95
326.552	26.61
326.766	1.26
326.979	6.32
327.193	-1.21
327.406	-21.29
327.619	-5.71
327.833	-2.09
328.046	-9.98
328.26	-10.5
328.473	3.99
328.686	2.43
328.9	10.9
329.113	-1.91
329.326	0.05
329.54	0.19
329.753	9.47
329.966	4.86
330.179	7.85
330.393	7.5
330.606	5.26
330.819	-12.34
331.032	-7.44
331.246	8.9
331.459	30.09
331.672	27.49
331.885	31.32
332.098	31.09
332.311	2.91
332.525	-10.51
332.738	-0.43
332.951	-7.15
333.164	-5.71
333.377	-0.61
333.59	-4.56
333.803	-19.94
334.016	-18.27
334.229	-24.87
334.442	-18.15
334.655	-4.17
334.868	-6.19
335.081	-2.03
335.294	-8.1
335.507	-10.47
335.72	-15.12
335.933	-31.07
336.146	-28.46
336.359	-2.66
336.572	1.32
336.785	-10.78
336.997	4.26
337.21	-9.53
337.423	-49.64
337.636	-38.36
337.849	-27.13
338.062	-18.79
338.274	4.3
338.487	-0.55
338.7	-20.2
338.913	-14.49
339.125	-25.55
339.338	-32.95
339.551	-24.86
339.763	-14.77
339.976	-14.47
340.189	-17.54
340.402	-20.37
340.614	-2.56
340.827	6.84
341.039	0.78
341.252	9.07
341.465	-0.41
341.677	-1.92
341.89	-10.62
342.102	9.58
342.315	11.15
342.527	19.99
342.74	-3.73
342.952	-5.55
343.165	-25.12
343.377	-11.5
343.59	-13.13
343.802	0.05
344.015	5.29
344.227	11.18
344.44	-3.59
344.652	6.33
344.864	12.06
345.077	25.66
345.289	22.16
345.502	37.45
345.714	26.21
345.926	18.84
346.139	-15.36
346.351	-1.07
346.563	1.37
346.775	5.79
346.988	10.28
347.2	16.01
347.412	0.05
347.624	-10.94
347.837	-14.67
348.049	-14.51
348.261	-29.71
348.473	-41.62
348.685	-56.82
348.897	-68.05
349.11	-56.31
349.322	-27.49
349.534	-25.23
349.746	-12.97
349.958	-16.61
350.17	-36.01
350.382	-29.99
350.594	-18.96
350.806	2.9
351.018	11.46
351.23	34.69
351.442	28.34
351.654	26.08
351.866	16.56
352.078	25.82
352.29	10.96
352.502	16.07
352.714	12.77
352.926	7.38
353.138	-9.9
353.35	-11.11
353.561	-14.3
353.773	-6.31
353.985	8.86
354.197	13.08
354.409	15.96
354.621	10.47
354.832	9.46
355.044	-13.67
355.256	-6.73
355.468	-25.24
355.679	-0.75
355.891	-0.46
356.103	-3.99
356.314	-15.43
356.526	-19.48
356.738	-47.74
356.949	-49.86
357.161	-31.11
357.373	-18.17
357.584	-3.66
357.796	17.14
358.008	14.44
358.219	-0.68
358.431	-13.17
358.642	-12.05
358.854	-24.26
359.065	-32.2
359.277	-17.78
359.488	-19.62
359.7	-24.12
359.911	-41.59
360.123	-21.34
360.334	-27.34
360.546	-29.94
360.757	-25.65
360.969	-15.85
361.18	-31.42
361.391	-12.69
361.603	1.12
361.814	-4.32
362.025	7.31
362.237	13.11
362.448	1.97
362.659	-16.47
362.871	-28.89
363.082	-29.02
363.293	-52.1
363.504	-63.63
363.716	-47.2
363.927	-23.39
364.138	-59.4
364.349	-58.12
364.56	-56.32
364.772	-32.56
364.983	-29.26
365.194	-16.88
365.405	-5.32
365.616	-4.11
365.827	-24.68
366.038	-17.99
366.25	-3.99
366.461	-0.34
366.672	4.25
366.883	15.34
367.094	11.47
367.305	5.03
367.516	-5.09
367.727	-3.28
367.938	-11.9
368.149	-20.31
368.36	-22.18
368.571	-44.19
368.781	-61.24
368.992	-48.14
369.203	-39.61
369.414	-44.77
369.625	-25.43
369.836	5.53
370.047	7.79
370.258	13.49
370.468	6.81
370.679	8.12
370.89	-25.89
371.101	-2.47
371.312	-17.96
371.522	-14.36
371.733	-13.04
371.944	-14.57
372.155	-29.22
372.365	-17.41
372.576	2.04
372.787	13.58
372.997	23.94
373.208	14.95
373.419	19
373.629	7.34
373.84	-13.94
374.05	-21.83
374.261	-34.14
374.472	-25.52
374.682	-27.07
374.893	-18.08
375.103	-2.68
375.314	8.76
375.524	0.04
375.735	6.87
375.945	4.23
376.156	7.39
376.366	7.84
376.577	8.22
376.787	5.14
376.997	18.02
377.208	12.26
377.418	3.48
377.629	6.35
377.839	8.11
378.049	-1.29
378.26	-10.41
378.47	-18.23
378.68	-15.87
378.89	-16.2
379.101	-16.75
379.311	-7.11
379.521	1.14
379.732	-4.86
379.942	1.07
380.152	-0.29
380.362	-3.7
380.572	7.18
380.783	16.57
380.993	4.53
381.203	2.94
381.413	-1.98
381.623	1.26
381.833	-2.68
382.043	2.7
382.253	10.58
382.463	20.45
382.674	15.78
382.884	17.23
383.094	14.73
383.304	17.89
383.514	16.07
383.724	6.06
383.934	-1.79
384.144	1.96
384.353	0.63
384.563	-8.35
384.773	1.36
384.983	-2.86
385.193	-9.69
385.403	-9.49
385.613	-3.81
385.823	-9.34
386.033	-7.37
386.242	-5.9
386.452	-11.63
386.662	-8.81
386.872	-2.46
387.082	-4.28
387.291	-4.87
387.501	0.68
387.711	-0.1
387.921	2.21
388.13	7.2
388.34	10.88
388.55	2.72
388.759	-2.29
388.969	-9.04
389.179	-7.68
389.388	-13.35
389.598	-10.38
389.807	-13.68
390.017	-12.07
390.227	-13.55
390.436	-6.58
390.646	-5.37
390.855	0.41
391.065	0.93
391.274	0.93
391.484	-2.32
391.693	-3.37
391.903	-4.31
392.112	-5.43
392.322	-5.1
392.531	-4.17
392.74	-3.38
392.95	-2.73
393.159	-2.43
393.369	-2.11
393.578	-2.17
393.787	-1.31
393.997	-1.69
394.206	-0.82
394.415	0.07
394.625	-0.01
394.834	-1.4
395.043	-0.35
395.252	2.05
395.462	2.75
395.671	3.57
395.88	5.05
396.089	4.34
396.298	2.23
396.508	1.56
396.717	0.8
396.926	0.39
397.135	0.75
397.344	0.59
397.553	0.61
397.762	1.37
397.971	1.41
398.181	1.39
398.39	1.66
398.599	1.71
398.808	1.47
399.017	2.45
399.226	2.44
399.435	2.37
399.644	2.51
399.853	2.62
400.062	2.04
400.27	2.21
400.479	2.76
400.688	2.76
400.897	2.64
401.106	2.73
401.315	2.73
401.524	2.58
401.733	2.52
401.941	2.87
402.15	2.64
402.359	2.83
402.568	2.98
402.777	3.03
402.985	2.68
403.194	2.68
403.403	2.62
403.612	2.19
403.82	1.87
404.029	1.91
404.238	2.01
404.446	1.91
404.655	2
404.864	2.29
405.072	2.37
405.281	2.22
405.489	2.09
405.698	2.25
405.906	2.23
406.115	2.03
406.324	2.13
406.532	2.34
406.741	2.27
406.949	2.27
407.158	2.51
407.366	2.43
407.574	2.51
407.783	2.55
407.991	2.41
408.2	2.6
408.408	2.65
408.617	2.55
408.825	2.48
409.033	2.58
409.242	2.34
409.45	2.33
409.658	2.2
409.867	2.2
410.075	2.37
410.283	2.29
410.491	2.24
410.7	2.25
410.908	2.41
411.116	2.32
411.324	2.42
411.533	2.35
411.741	2.28
411.949	2.13
412.157	1.94
412.365	1.99
412.573	2.04
412.781	1.96
412.99	2.04
413.198	2.12
413.406	2.06
413.614	2.19
413.822	2.43
414.03	2.38
414.238	2.46
414.446	2.51
414.654	2.4
414.862	2.35
415.07	2.25
415.278	2.28
415.486	2.03
415.694	2.09
415.902	2.03
416.109	2.07
416.317	1.98
416.525	2.02
416.733	1.88
416.941	1.91
417.149	1.8
417.357	1.8
417.564	1.81
417.772	1.86
417.98	1.72
418.188	1.81
418.395	1.62
418.603	1.64
418.811	1.57
419.019	1.7
419.226	1.76
419.434	1.88
419.642	1.64
419.849	1.68
420.057	1.65
420.265	1.61
420.472	1.45
420.68	1.65
420.887	1.64
421.095	1.64
421.302	1.56
421.51	1.58
421.717	1.66
421.925	1.77
422.132	1.87
422.34	1.69
422.547	1.66
422.755	1.54
422.962	1.55
423.17	1.22
423.377	1.41
423.585	1.72
423.792	1.69
423.999	1.59
424.207	1.69
424.414	1.8
424.621	1.71
424.829	1.86
425.036	1.91
425.243	2.12
425.451	2.04
425.658	2
425.865	2.01
426.072	2.05
426.28	2.03
426.487	2.13
426.694	2.06
426.901	2.16
427.108	2.1
427.315	2.03
427.523	1.75
427.73	1.7
427.937	1.37
428.144	1.35
428.351	1.34
428.558	1.56
428.765	1.57
428.972	1.71
429.179	1.61
429.386	1.69
429.593	1.52
429.8	1.71
430.007	1.71
430.214	1.65
430.421	1.74
430.628	1.88
430.835	1.82
431.042	1.8
431.249	2.07
431.456	2.05
431.662	2.21
431.869	2.45
432.076	2.53
432.283	2.55
432.49	2.46
432.697	2.29
432.903	2.08
433.11	2.23
433.317	2.19
433.524	2.16
433.73	2.27
433.937	2.34
434.144	2.1
434.35	1.99
434.557	2.14
434.764	2.14
434.97	2.02
435.177	2.17
435.384	2.38
435.59	2.41
435.797	2.41
436.003	2.53
436.21	2.42
436.416	2.37
436.623	2.33
436.829	2.25
437.036	2.17
437.242	2.29
437.449	2.24
437.655	2.38
437.862	2.51
438.068	2.56
438.275	2.63
438.481	2.66
438.687	2.52
438.894	2.58
439.1	2.59
439.307	2.68
439.513	2.76
439.719	2.79
439.926	2.9
440.132	3.03
440.338	2.97
440.544	2.99
440.751	2.9
440.957	2.76
441.163	2.68
441.369	2.74
441.575	2.67
441.782	2.79
441.988	2.81
442.194	2.8
442.4	2.64
442.606	2.89
442.812	2.95
443.018	2.91
443.224	2.98
443.431	2.99
443.637	2.76
443.843	2.73
444.049	2.8
444.255	2.84
444.461	2.87
444.667	2.95
444.873	2.95
445.079	2.9
445.284	2.94
445.49	2.98
445.696	2.96
445.902	3.01
446.108	3.06
446.314	2.95
446.52	3.12
446.726	3.18
446.931	3.12
447.137	3.16
447.343	3.27
447.549	3.19
447.755	3.2
447.96	3.25
448.166	3.3
448.372	3.25
448.578	3.14
448.783	3.09
448.989	3.12
449.195	3.07
449.4	3.14
449.606	3.26
449.812	3.23
450.017	3.3
450.223	3.28
450.428	3.29
450.634	3.26
450.84	3.24
451.045	3.17
451.251	3.28
451.456	3.25
451.662	3.34
451.867	3.44
452.073	3.49
452.278	3.5
452.483	3.52
452.689	3.45
452.894	3.5
453.1	3.46
453.305	3.37
453.51	3.34
453.716	3.37
453.921	3.38
454.127	3.41
454.332	3.45
454.537	3.47
454.742	3.5
454.948	3.49
455.153	3.55
455.358	3.51
455.563	3.58
455.769	3.5
455.974	3.47
456.179	3.4
456.384	3.49
456.589	3.44
456.795	3.46
457	3.46
457.205	3.44
457.41	3.48
457.615	3.44
457.82	3.55
458.025	3.59
458.23	3.64
458.435	3.66
458.64	3.68
458.845	3.7
459.05	3.68
459.255	3.7
459.46	3.6
459.665	3.62
459.87	3.55
460.075	3.59
460.28	3.64
460.485	3.8
460.69	3.8
460.895	3.9
461.099	3.86
461.304	3.69
461.509	3.64
461.714	3.78
461.919	3.76
462.123	3.84
462.328	3.89
462.533	3.78
462.738	3.73
462.942	3.65
463.147	3.69
463.352	3.76
463.556	3.9
463.761	3.84
