Data from Ofra_2a_PS_9CX6_Reflection_1.txt Node
Date: Tue Jul 20 09:59:06 EDT 2021
User: Adam
Spectrometer: FLMT01687
Trigger mode: 0
Integration Time (sec): 9.450000E-1
Scans to average: 3
Electric dark correction enabled: true
Nonlinearity correction enabled: false
Boxcar width: 3
XAxis mode: Wavelengths
Number of Pixels in Spectrum: 3648
>>>>>Begin Spectral Data<<<<<
179.494	1116.57
179.716	690.05
179.937	697.25
180.158	2773.83
180.38	-1209.59
180.601	-308.64
180.823	-162.53
181.044	-80.98
181.265	-193.42
181.486	-65.01
181.708	-1340.22
181.929	-66.63
182.15	-236.93
182.372	-37.09
182.593	-12.59
182.814	322.01
183.035	291.63
183.257	87.11
183.478	44.63
183.699	40.22
183.92	40.98
184.141	50.49
184.363	44.45
184.584	23.32
184.805	31.07
185.026	0.25
185.247	-12.07
185.468	-30.15
185.689	-29.89
185.91	-33.05
186.132	-21.55
186.353	-40.27
186.574	-12.29
186.795	-16.64
187.016	-7.37
187.237	-5.25
187.458	-5.98
187.679	-11.55
187.9	-1.44
188.121	-8.42
188.342	25.73
188.563	38.35
188.784	38.22
189.005	37.13
189.226	40.74
189.447	34.22
189.667	36.41
189.888	32.96
190.109	14.58
190.33	1.46
190.551	4.26
190.772	7.24
190.993	20.84
191.214	12.88
191.434	10.63
191.655	22.99
191.876	23.84
192.097	18.92
192.318	10.25
192.538	3.33
192.759	13.09
192.98	-0.77
193.201	-2.62
193.421	10.35
193.642	11.05
193.863	7.36
194.083	0.82
194.304	-7.1
194.525	32.09
194.745	9.61
194.966	6.35
195.187	19.19
195.407	17.58
195.628	19.46
195.848	16.66
196.069	-8.31
196.29	2.47
196.51	-12.51
196.731	-7.83
196.951	-14.58
197.172	-18.35
197.392	0.03
197.613	-4
197.833	-14.68
198.054	-13.56
198.274	-42.88
198.495	-41.55
198.715	-47.42
198.936	-72.16
199.156	-36.24
199.377	0.38
199.597	-1.14
199.817	3.72
200.038	8.85
200.258	1.03
200.479	1.66
200.699	-1.29
200.919	-31.68
201.14	-20.21
201.36	0.32
201.58	5.82
201.801	24.81
202.021	21
202.241	9.43
202.461	30.07
202.682	37.2
202.902	21.36
203.122	9.28
203.342	10.8
203.563	13.78
203.783	16.92
204.003	5.89
204.223	6.69
204.443	8.78
204.663	11.94
204.884	-1.98
205.104	6.51
205.324	17.45
205.544	25.54
205.764	19.52
205.984	30.7
206.204	31.25
206.424	34.09
206.644	24.84
206.864	18.96
207.084	27.59
207.304	25.37
207.525	14.29
207.745	25.6
207.964	22.71
208.184	5.45
208.404	0.37
208.624	-26.38
208.844	-29.53
209.064	-21.93
209.284	-20.8
209.504	-25.81
209.724	-21.99
209.944	-33.26
210.164	-10.05
210.384	-1.69
210.604	-18.79
210.823	-36.54
211.043	-35.88
211.263	-11.45
211.483	7.92
211.703	6.44
211.922	8.18
212.142	24.46
212.362	34.62
212.582	33.87
212.801	15.45
213.021	13.42
213.241	10.28
213.461	5.15
213.68	5.13
213.9	-4.96
214.12	-7.41
214.339	6.64
214.559	8.06
214.779	7.58
214.998	2
215.218	-3.05
215.438	14.37
215.657	16.16
215.877	13.08
216.096	14.7
216.316	13.16
216.535	23.82
216.755	12.97
216.974	11.74
217.194	8.8
217.413	29.67
217.633	16
217.852	13.11
218.072	-3.8
218.291	21.27
218.511	8.22
218.73	2.92
218.95	-13.19
219.169	-13.96
219.389	-14.66
219.608	9.39
219.827	-0.82
220.047	6.34
220.266	23.47
220.485	23.6
220.705	21.08
220.924	31.63
221.143	14.89
221.363	11.9
221.582	7.48
221.801	5.93
222.021	1.01
222.24	4.86
222.459	3.07
222.678	-3.87
222.897	-16.77
223.117	-16.11
223.336	-11.73
223.555	-20.72
223.774	-17.77
223.993	-14.38
224.213	-1.68
224.432	19.06
224.651	15.72
224.87	7.79
225.089	11.46
225.308	5.79
225.527	-0.89
225.746	-1.33
225.965	-23.49
226.184	-14.87
226.404	-22.07
226.623	-0.88
226.842	-4.89
227.061	-1.02
227.28	1.9
227.499	29.87
227.718	23.34
227.936	23.16
228.155	19.13
228.374	33.02
228.593	28.96
228.812	18.11
229.031	-3.71
229.25	11.39
229.469	25.31
229.688	18.55
229.907	-1.55
230.125	8.83
230.344	20.65
230.563	34.01
230.782	21.26
231.001	19.77
231.22	19.86
231.438	36.69
231.657	38.63
231.876	31.44
232.095	28.74
232.313	40.94
232.532	35.72
232.751	39.45
232.969	39.6
233.188	37.29
233.407	40.46
233.625	35.16
233.844	35.49
234.063	40.02
234.281	38.17
234.5	31.1
234.719	28.08
234.937	30.65
235.156	25.87
235.374	20.93
235.593	4
235.811	-7.2
236.03	-16.83
236.249	-6.39
236.467	3.05
236.686	16.31
236.904	-3.77
237.123	12.04
237.341	7.92
237.559	7.73
237.778	4.09
237.996	5.04
238.215	1.93
238.433	18.74
238.652	14.01
238.87	11.49
239.088	0.9
239.307	4.12
239.525	-13.01
239.743	-20.91
239.962	-33.79
240.18	-32.11
240.398	-18.63
240.617	1.04
240.835	0.37
241.053	11.32
241.271	20.29
241.49	15.6
241.708	6.18
241.926	-6.25
242.144	-16.89
242.363	-27.5
242.581	-19.58
242.799	-26.01
243.017	-8.25
243.235	-6.93
243.453	4.58
243.672	5.68
243.89	12.56
244.108	9.32
244.326	-2.2
244.544	-2.13
244.762	10.81
244.98	5.69
245.198	4.49
245.416	7.23
245.634	24.14
245.852	30.45
246.07	28.5
246.288	17.39
246.506	24.18
246.724	21.7
246.942	20.89
247.16	2.3
247.378	3.32
247.596	6.87
247.814	-3.03
248.032	-5.42
248.25	-1
248.468	6.87
248.685	7.13
248.903	-6.09
249.121	-11.9
249.339	8.47
249.557	13.46
249.775	-1.36
249.992	-8.75
250.21	-16.07
250.428	-3.74
250.646	4.66
250.863	-5.31
251.081	-12.96
251.299	7.86
251.517	11.48
251.734	19.35
251.952	19.65
252.17	-19.43
252.387	-6.09
252.605	-4
252.823	-18.56
253.04	-21
253.258	-18.74
253.475	-11.81
253.693	15.58
253.911	14.1
254.128	4.12
254.346	5.84
254.563	0.44
254.781	1.25
254.998	-0.68
255.216	-2.37
255.433	-8.93
255.651	-7
255.868	-0.23
256.086	-0.98
256.303	-0.61
256.521	-10.45
256.738	-18.65
256.956	-23.42
257.173	-15.85
257.39	-17.78
257.608	-8.96
257.825	-11.61
258.043	1.36
258.26	4.6
258.477	22.03
258.695	22.5
258.912	29.51
259.129	19.37
259.346	23.55
259.564	6.32
259.781	12.19
259.998	-2.64
260.216	7.8
260.433	3.47
260.65	15.69
260.867	-5.47
261.084	8.84
261.302	-4.2
261.519	-13.96
261.736	-27.45
261.953	-20.94
262.17	-25.76
262.387	-8.91
262.604	-26.6
262.822	-13.15
263.039	-4.54
263.256	1.71
263.473	-9.57
263.69	-12.3
263.907	-10.89
264.124	-7.3
264.341	-9.05
264.558	-9.9
264.775	-7.96
264.992	-6.39
265.209	0.02
265.426	-6.36
265.643	-0.76
265.86	-3.52
266.077	-0.45
266.294	-1.48
266.51	0.15
266.727	-4.18
266.944	-3.49
267.161	-4.96
267.378	3.78
267.595	-10.92
267.812	-16.12
268.028	-12.88
268.245	-7.51
268.462	-1.34
268.679	-6.88
268.896	-17.4
269.112	2.78
269.329	8.06
269.546	3.09
269.763	3.4
269.979	4.71
270.196	11.72
270.413	16.08
270.629	8.26
270.846	5.43
271.063	8.89
271.279	2.19
271.496	-12.51
271.712	-19.82
271.929	-15.2
272.146	-14.46
272.362	-30.45
272.579	-28.52
272.795	-25.65
273.012	-7.38
273.228	-5.36
273.445	-7.01
273.661	-9.86
273.878	7.58
274.094	10.6
274.311	8.33
274.527	5.74
274.744	7.97
274.96	9.71
275.177	21.5
275.393	19.22
275.609	16.44
275.826	21.06
276.042	31.75
276.259	30.68
276.475	21.75
276.691	17.92
276.908	15.03
277.124	19.96
277.34	11.26
277.557	3.61
277.773	-5.05
277.989	0.5
278.205	-10.94
278.422	-0.58
278.638	0.5
278.854	8.39
279.07	2.5
279.286	4.65
279.503	5.81
279.719	23.55
279.935	5.82
280.151	5.63
280.367	2.82
280.583	4.74
280.799	17.47
281.016	17.66
281.232	1.89
281.448	4.82
281.664	-2.28
281.88	5.7
282.096	4.91
282.312	-15.99
282.528	-40.64
282.744	-29.78
282.96	-17.73
283.176	-11.28
283.392	-9.81
283.608	-4.64
283.824	3.36
284.04	19.14
284.256	22.08
284.471	13.68
284.687	8.18
284.903	-3.61
285.119	-13.87
285.335	-11.72
285.551	-5.15
285.767	3.45
285.982	2.62
286.198	-2.43
286.414	16.06
286.63	27.8
286.846	21.22
287.061	20.93
287.277	16.94
287.493	15.86
287.709	24.36
287.924	27.78
288.14	29.61
288.356	47.32
288.571	38.73
288.787	34.2
289.003	41.79
289.218	36.6
289.434	26.67
289.65	25.95
289.865	24.79
290.081	23.08
290.296	24.51
290.512	23.66
290.727	32.32
290.943	26.38
291.159	14.72
291.374	11.65
291.59	3.18
291.805	-6.74
292.021	-11.54
292.236	-15.5
292.451	-6.63
292.667	-1.1
292.882	1.93
293.098	3.29
293.313	3.19
293.529	9.64
293.744	6.9
293.959	3.74
294.175	0.38
294.39	0.44
294.605	11.87
294.821	10.15
295.036	7.47
295.251	8.85
295.467	-1.32
295.682	-1.98
295.897	-7.14
296.112	-9.9
296.328	-2.61
296.543	-8.13
296.758	-11.57
296.973	-2.03
297.188	4.47
297.404	6.13
297.619	-5.99
297.834	-1.09
298.049	-2.2
298.264	0.09
298.479	-7.14
298.694	-9.47
298.909	-19.47
299.125	-4.77
299.34	-16.32
299.555	-3.33
299.77	-1.7
299.985	-7.29
300.2	-7.69
300.415	-0.4
300.63	-6.78
300.845	4.19
301.06	-5.61
301.275	-0.92
301.49	7.9
301.704	10.34
301.919	4.52
302.134	-4.44
302.349	-21.76
302.564	-29.54
302.779	-43.43
302.994	-44.69
303.209	-58.27
303.423	-41.12
303.638	-23.86
303.853	-2.87
304.068	6.55
304.283	8.01
304.497	2.3
304.712	14.79
304.927	7.93
305.142	2.5
305.356	-0.26
305.571	5.6
305.786	7.39
306	13.68
306.215	6.28
306.43	19.03
306.644	26.03
306.859	27.3
307.074	21.46
307.288	18.46
307.503	16.86
307.717	18.93
307.932	12.61
308.147	5.43
308.361	1.67
308.576	5.11
308.79	6.65
309.005	6.91
309.219	5.92
309.434	0.92
309.648	-3.59
309.863	3.76
310.077	-3.68
310.292	-0.41
310.506	14.81
310.72	20.01
310.935	24.25
311.149	32.37
311.364	28.91
311.578	29.51
311.792	24.35
312.007	13.17
312.221	8.39
312.435	6.67
312.649	0.34
312.864	-1.91
313.078	4.24
313.292	10.24
313.507	17.51
313.721	24.58
313.935	43.67
314.149	31.21
314.363	31.1
314.578	45.04
314.792	48.74
315.006	42.64
315.22	42.7
315.434	21.57
315.648	23.36
315.862	18.68
316.077	4.39
316.291	-0.59
316.505	2.94
316.719	-17.75
316.933	-1.71
317.147	-13.12
317.361	-3.13
317.575	-3.94
317.789	3.77
318.003	0.02
318.217	9.7
318.431	12.93
318.645	17.15
318.859	6.84
319.073	4.67
319.287	6.78
319.5	6.78
319.714	7.3
319.928	5.66
320.142	9.55
320.356	18.7
320.57	14.83
320.784	15.29
320.997	22.89
321.211	23.17
321.425	13.56
321.639	18.47
321.853	11.95
322.066	11.32
322.28	8.29
322.494	-5.71
322.707	-8.36
322.921	-5.7
323.135	-6.32
323.349	0.56
323.562	7.89
323.776	5.41
323.989	7.14
324.203	15.63
324.417	10.54
324.63	2.03
324.844	-2.14
325.057	-3.03
325.271	-14.31
325.485	-8.09
325.698	-14.44
325.912	2.96
326.125	10.3
326.339	9.58
326.552	20.61
326.766	30.62
326.979	29.98
327.193	34.36
327.406	28.85
327.619	10.07
327.833	4.22
328.046	-11.85
328.26	-17.39
328.473	-14.05
328.686	-13.69
328.9	-23.95
329.113	-4.35
329.326	11.21
329.54	12.13
329.753	11.43
329.966	9.43
330.179	10.39
330.393	17.26
330.606	16.21
330.819	18.95
331.032	29.83
331.246	35.38
331.459	35.97
331.672	32.43
331.885	29.72
332.098	32.33
332.311	19.83
332.525	13.78
332.738	9.39
332.951	9.52
333.164	3.39
333.377	-7.48
333.59	-6.26
333.803	-2.53
334.016	-18.32
334.229	-12.08
334.442	8.91
334.655	24.98
334.868	43.35
335.081	43.77
335.294	45.48
335.507	50.59
335.72	44.69
335.933	41.9
336.146	43.78
336.359	27.74
336.572	26.9
336.785	27.26
336.997	26.47
337.21	26.77
337.423	20.93
337.636	10.57
337.849	16.77
338.062	15.38
338.274	9.8
338.487	5.03
338.7	11.95
338.913	4.03
339.125	4.29
339.338	8.57
339.551	10.67
339.763	10.69
339.976	8.63
340.189	5.55
340.402	12.64
340.614	12.42
340.827	-1.77
341.039	1.3
341.252	7.8
341.465	4.7
341.677	-7.9
341.89	-9.39
342.102	-4.17
342.315	9.2
342.527	-5.59
342.74	-10.66
342.952	-3.93
343.165	5.49
343.377	3.85
343.59	1.76
343.802	10.34
344.015	17.23
344.227	7.88
344.44	12.15
344.652	12.16
344.864	17.72
345.077	16.16
345.289	-0.98
345.502	2.86
345.714	6.76
345.926	-0.24
346.139	1.62
346.351	-21.76
346.563	-10.96
346.775	-9.87
346.988	-19.47
347.2	-10.6
347.412	-2.04
347.624	0.28
347.837	10.35
348.049	9.2
348.261	11.97
348.473	12
348.685	13.86
348.897	3.28
349.11	0.94
349.322	-7.21
349.534	-16.51
349.746	-6.26
349.958	7.11
350.17	2.31
350.382	7.37
350.594	11.43
350.806	20.78
351.018	25.86
351.23	22.54
351.442	22.82
351.654	24.96
351.866	27.98
352.078	22.77
352.29	20.32
352.502	16.9
352.714	7.29
352.926	-1.14
353.138	2.65
353.35	-3.87
353.561	-8.52
353.773	0.14
353.985	2.74
354.197	0.57
354.409	9.28
354.621	4.53
354.832	0.47
355.044	12.1
355.256	5.78
355.468	-0.28
355.679	7.19
355.891	4.03
356.103	5.59
356.314	8.03
356.526	1.75
356.738	-4.39
356.949	0.46
357.161	5.36
357.373	8.68
357.584	14.64
357.796	16.04
358.008	21.94
358.219	30.81
358.431	25.78
358.642	18.41
358.854	5.56
359.065	0.62
359.277	-8.17
359.488	-21.19
359.7	-21.9
359.911	-17.35
360.123	-10.87
360.334	-1.86
360.546	-9.91
360.757	5.81
360.969	21.22
361.18	13.59
361.391	8.78
361.603	5.36
361.814	6.68
362.025	14.13
362.237	17.58
362.448	15.55
362.659	12.79
362.871	22.03
363.082	29.8
363.293	34.77
363.504	31.19
363.716	22.02
363.927	17.54
364.138	25.92
364.349	23.99
364.56	17.04
364.772	9.88
364.983	7.26
365.194	11.93
365.405	8.2
365.616	2.05
365.827	-0.3
366.038	12.67
366.25	7.96
366.461	16.56
366.672	9.95
366.883	11.73
367.094	13.17
367.305	13.92
367.516	0.22
367.727	3.84
367.938	1.48
368.149	-1.46
368.36	3.1
368.571	-0.51
368.781	0.74
368.992	3.83
369.203	6.33
369.414	3.67
369.625	6.19
369.836	3.94
370.047	8.25
370.258	0.86
370.468	-4.27
370.679	-12.33
370.89	-4.75
371.101	-7.96
371.312	-9.93
371.522	-7.29
371.733	-10.02
371.944	0.42
372.155	-7.44
372.365	-17.07
372.576	-14.08
372.787	-16.62
372.997	-17.38
373.208	-7.34
373.419	-16.6
373.629	-0.64
373.84	-1.17
374.05	1.88
374.261	-3.7
374.472	-10.35
374.682	-14.98
374.893	-17.68
375.103	-19.55
375.314	-16.22
375.524	-13.94
375.735	-5.1
375.945	-4.85
376.156	1.36
376.366	6.03
376.577	11.07
376.787	19.55
376.997	23.84
377.208	17.86
377.418	20.46
377.629	15.38
377.839	20.35
378.049	21.98
378.26	19.58
378.47	15
378.68	18.42
378.89	19.35
379.101	15.15
379.311	5.62
379.521	3.57
379.732	-8.27
379.942	-10.98
380.152	-5.22
380.362	-3.35
380.572	6.55
380.783	10.3
380.993	8.43
381.203	16.1
381.413	19.48
381.623	21.7
381.833	15.25
382.043	6.6
382.253	12.62
382.463	17.29
382.674	11.95
382.884	8.88
383.094	3.07
383.304	3.25
383.514	9.82
383.724	3.52
383.934	-4.72
384.144	-0.69
384.353	0.76
384.563	-0.48
384.773	2.8
384.983	2.9
385.193	7.28
385.403	12.29
385.613	7.84
385.823	6.43
386.033	6.28
386.242	4.72
386.452	1.77
386.662	-3.51
386.872	-6.55
387.082	-6.46
387.291	-2.1
387.501	-1.16
387.711	-1.85
387.921	-1.63
388.13	0.01
388.34	1.8
388.55	7.2
388.759	4.94
388.969	2.9
389.179	6.38
389.388	7.04
389.598	4.97
389.807	4.54
390.017	2.61
390.227	1.83
390.436	4.1
390.646	3.99
390.855	3.97
391.065	4.06
391.274	1.79
391.484	3.01
391.693	4.36
391.903	4.5
392.112	4.28
392.322	5.15
392.531	6.36
392.74	5.77
392.95	4.62
393.159	4.86
393.369	3.94
393.578	3.39
393.787	2.8
393.997	3.19
394.206	4.94
394.415	5.14
394.625	3.14
394.834	2.19
395.043	2.17
395.252	3.46
395.462	3.02
395.671	2.87
395.88	2.24
396.089	3.27
396.298	4.1
396.508	4.24
396.717	2.97
396.926	2.47
397.135	1.97
397.344	1.91
397.553	2.21
397.762	1.86
397.971	1.73
398.181	1.5
398.39	1.97
398.599	2.41
398.808	2.91
399.017	2.77
399.226	3.15
399.435	3.02
399.644	3.28
399.853	3.45
400.062	3.36
400.27	3.18
400.479	3.03
400.688	2.96
400.897	3.16
401.106	3.2
401.315	2.83
401.524	2.91
401.733	3.04
401.941	3.14
402.15	2.97
402.359	2.93
402.568	2.8
402.777	2.88
402.985	2.81
403.194	2.7
403.403	2.45
403.612	2.58
403.82	2.53
404.029	2.61
404.238	2.63
404.446	2.5
404.655	2.32
404.864	2.31
405.072	2.27
405.281	2.16
405.489	2.09
405.698	2.05
405.906	2.08
406.115	2.31
406.324	2.34
406.532	2.39
406.741	2.47
406.949	2.46
407.158	2.57
407.366	2.64
407.574	2.58
407.783	2.58
407.991	2.45
408.2	2.37
408.408	2.37
408.617	2.26
408.825	2.22
409.033	2.15
409.242	2.11
409.45	2.13
409.658	2.17
409.867	2.18
410.075	2.16
410.283	2.05
410.491	1.99
410.7	2.04
410.908	2.08
411.116	2.03
411.324	2.05
411.533	1.98
411.741	1.97
411.949	2.09
412.157	2.12
412.365	2.01
412.573	2.02
412.781	1.97
412.99	2.14
413.198	2.15
413.406	2.08
413.614	2.1
413.822	2.16
414.03	2.03
414.238	2.1
414.446	1.97
414.654	1.99
414.862	2.06
415.07	1.98
415.278	1.95
415.486	2.12
415.694	2.04
415.902	1.96
416.109	1.93
416.317	1.79
416.525	1.9
416.733	1.95
416.941	1.87
417.149	1.94
417.357	2.01
417.564	2.05
417.772	2.15
417.98	2.08
418.188	1.9
418.395	1.86
418.603	1.66
418.811	1.63
419.019	1.65
419.226	1.73
419.434	1.64
419.642	1.72
419.849	1.83
420.057	2
420.265	2.04
420.472	1.99
420.68	1.8
420.887	1.82
421.095	1.85
421.302	1.81
421.51	1.78
421.717	1.8
421.925	1.78
422.132	1.85
422.34	1.86
422.547	1.89
422.755	1.86
422.962	1.77
423.17	1.73
423.377	1.87
423.585	1.85
423.792	1.77
423.999	1.76
424.207	1.64
424.414	1.74
424.621	1.73
424.829	1.56
425.036	1.5
425.243	1.58
425.451	1.59
425.658	1.66
425.865	1.58
426.072	1.6
426.28	1.64
426.487	1.71
426.694	1.75
426.901	1.68
427.108	1.72
427.315	1.7
427.523	1.68
427.73	1.69
427.937	1.62
428.144	1.58
428.351	1.69
428.558	1.65
428.765	1.63
428.972	1.61
429.179	1.53
429.386	1.64
429.593	1.6
429.8	1.64
430.007	1.76
430.214	1.85
430.421	1.92
430.628	1.87
430.835	1.8
431.042	1.82
431.249	1.72
431.456	1.7
431.662	1.63
431.869	1.65
432.076	1.71
432.283	1.68
432.49	1.73
432.697	1.73
432.903	1.67
433.11	1.73
433.317	1.74
433.524	1.71
433.73	1.73
433.937	1.66
434.144	1.77
434.35	1.76
434.557	1.7
434.764	1.65
434.97	1.76
435.177	1.77
435.384	1.85
435.59	1.75
435.797	1.74
436.003	1.78
436.21	1.75
436.416	1.67
436.623	1.72
436.829	1.72
437.036	1.74
437.242	1.72
437.449	1.76
437.655	1.8
437.862	1.84
438.068	1.82
438.275	1.71
438.481	1.73
438.687	1.8
438.894	1.82
439.1	1.83
439.307	1.8
439.513	1.75
439.719	1.86
439.926	1.91
440.132	1.9
440.338	1.91
440.544	1.87
440.751	1.93
440.957	1.89
441.163	1.9
441.369	1.83
441.575	1.79
441.782	1.7
441.988	1.74
442.194	1.78
442.4	1.92
442.606	1.92
442.812	1.96
443.018	1.97
443.224	2.02
443.431	2.04
443.637	1.98
443.843	1.95
444.049	1.91
444.255	1.82
444.461	1.78
444.667	1.82
444.873	1.78
445.079	1.82
445.284	1.75
445.49	1.69
445.696	1.79
445.902	1.93
446.108	1.88
446.314	1.95
446.52	1.91
446.726	1.96
446.931	2.07
447.137	2.05
447.343	1.96
447.549	1.95
447.755	1.88
447.96	1.91
448.166	1.96
448.372	1.96
448.578	1.98
448.783	2
448.989	2.04
449.195	2.03
449.4	2.02
449.606	1.98
449.812	2.02
450.017	1.99
450.223	1.97
450.428	2.03
450.634	2.09
450.84	2.1
451.045	2.09
451.251	2.04
451.456	2.03
451.662	2.02
451.867	1.98
452.073	1.93
452.278	1.92
452.483	1.93
452.689	1.93
452.894	1.96
453.1	1.93
453.305	1.94
453.51	1.96
453.716	1.97
453.921	1.94
454.127	1.92
454.332	1.91
454.537	2.01
454.742	1.99
454.948	2.01
455.153	2.03
455.358	2.08
455.563	2.11
455.769	2.11
455.974	2.03
456.179	2.01
456.384	2.02
456.589	2.06
456.795	2.02
457	1.99
457.205	1.96
457.41	2.01
457.615	2.07
457.82	2.12
458.025	2.08
458.23	2.07
458.435	2.04
458.64	2.12
458.845	2.06
459.05	2.03
459.255	1.97
459.46	1.99
459.665	2.04
459.87	2.08
460.075	2.04
460.28	2.13
460.485	2.17
460.69	2.12
460.895	2.15
461.099	2.18
461.304	2.16
461.509	2.06
461.714	2.04
461.919	1.98
462.123	2.03
462.328	2
462.533	1.97
462.738	2.01
462.942	2.12
463.147	2.13
463.352	2.18
463.556	2.21
463.761	2.21
463.966	2.23
464.17	2.23
464.375	2.22
464.58	2.16
464.784	2.14
464.989	2.12
465.193	2.1
465.398	2.08
465.602	2.04
465.807	2.05
466.011	2.16
466.216	2.18
466.42	2.25
466.625	2.24
466.829	2.27
467.034	2.36
467.238	2.4
467.443	2.36
467.647	2.39
467.851	2.38
468.056	2.39
468.26	2.36
468.464	2.31
468.669	2.28
468.873	2.26
469.077	2.25
469.282	2.27
469.486	2.29
469.69	2.29
469.894	2.36
470.099	2.44
