Data from Ofra_PS_T2_1A_4CX12_Reflection_1.txt Node
Date: Wed Jul 21 18:04:45 EDT 2021
User: Adam
Spectrometer: FLMT01687
Trigger mode: 0
Integration Time (sec): 1.100000E0
Scans to average: 2
Electric dark correction enabled: true
Nonlinearity correction enabled: false
Boxcar width: 2
XAxis mode: Wavelengths
Number of Pixels in Spectrum: 3648
>>>>>Begin Spectral Data<<<<<
179.494	541.4
179.716	634.12
179.937	619.91
180.158	554.19
180.38	882.97
180.601	313.12
180.823	55.95
181.044	-207.7
181.265	-24.45
181.486	-29.83
181.708	65.07
181.929	513.78
182.15	-743.31
182.372	-13.09
182.593	-146.25
182.814	-40.23
183.035	27.7
183.257	75.8
183.478	4.52
183.699	82.57
183.92	52.72
184.141	39.23
184.363	-14.14
184.584	-9.94
184.805	-1.82
185.026	24.98
185.247	21.72
185.468	7.18
185.689	30.58
185.91	19.64
186.132	29.8
186.353	50.63
186.574	109
186.795	83.56
187.016	37.41
187.237	9.84
187.458	-39.86
187.679	-58.91
187.9	-60.74
188.121	-48.35
188.342	-24.7
188.563	37.73
188.784	92.48
189.005	108.72
189.226	167.22
189.447	130.87
189.667	48.18
189.888	-339.78
190.109	-1098.38
190.33	-650.16
190.551	-1138.72
190.772	-214.23
190.993	-115.93
191.214	-102.13
191.434	-59.87
191.655	15.12
191.876	-13.28
192.097	-60.27
192.318	-109.99
192.538	-148.61
192.759	-150.68
192.98	-90.59
193.201	-48.46
193.421	-23.7
193.642	3.6
193.863	25.03
194.083	14.45
194.304	10.9
194.525	18.53
194.745	25.38
194.966	-28.53
195.187	-32.06
195.407	-69.98
195.628	-127.14
195.848	-147.91
196.069	-141.02
196.29	-88.44
196.51	-104.42
196.731	-107.29
196.951	-116.9
197.172	-118.06
197.392	-160.75
197.613	-121.63
197.833	-131.63
198.054	-111.06
198.274	-53.85
198.495	-55.88
198.715	-19.22
198.936	-18.18
199.156	-19.46
199.377	-103.89
199.597	-103.82
199.817	-101.12
200.038	-32.49
200.258	-70.3
200.479	-0.77
200.699	14.36
200.919	29.41
201.14	-24.57
201.36	-9.98
201.58	16.36
201.801	49.17
202.021	22.23
202.241	40.32
202.461	28.55
202.682	-21.63
202.902	-86.93
203.122	-15.98
203.342	-21.62
203.563	32.75
203.783	45.02
204.003	44.18
204.223	28.81
204.443	67.66
204.663	30.03
204.884	59.91
205.104	75.87
205.324	72.34
205.544	42.79
205.764	62.37
205.984	47.1
206.204	51.71
206.424	48.64
206.644	27.59
206.864	15.34
207.084	-20.88
207.304	-34.02
207.525	-151.8
207.745	-52.3
207.964	26.36
208.184	2.83
208.404	-18.07
208.624	-30.34
208.844	-18.46
209.064	-308.24
209.284	-342.68
209.504	-178.94
209.724	-42.23
209.944	-29.02
210.164	16.55
210.384	12.5
210.604	2.61
210.823	-46.49
211.043	-71.18
211.263	-40.92
211.483	-21.07
211.703	-64.65
211.922	-17.85
212.142	51.92
212.362	52.49
212.582	28.91
212.801	39.23
213.021	13.06
213.241	-3.45
213.461	-61.47
213.68	-74.98
213.9	-22.95
214.12	-6.93
214.339	-46.84
214.559	-7.74
214.779	22.7
214.998	-12.77
215.218	-53.14
215.438	-42.37
215.657	-34.08
215.877	-35.76
216.096	-2.41
216.316	13.42
216.535	12.44
216.755	19.12
216.974	-27.39
217.194	-62.56
217.413	-63.76
217.633	-47.18
217.852	-162.91
218.072	-58.66
218.291	-14.08
218.511	7.06
218.73	-18.47
218.95	-13.35
219.169	-28.87
219.389	-72.94
219.608	-53.49
219.827	-42.22
220.047	-18.12
220.266	10.31
220.485	14.23
220.705	27.83
220.924	20.92
221.143	34.43
221.363	3.19
221.582	11.07
221.801	3.99
222.021	12.34
222.24	-34.74
222.459	75.95
222.678	51
222.897	14.28
223.117	-33.69
223.336	-25.12
223.555	-30.83
223.774	2.88
223.993	4.4
224.213	46.81
224.432	34.3
224.651	52.93
224.87	20.71
225.089	27.18
225.308	15.96
225.527	32.72
225.746	9.8
225.965	11.93
226.184	14.25
226.404	19.15
226.623	-16.82
226.842	-2.35
227.061	12.24
227.28	17.16
227.499	18.05
227.718	37.64
227.936	37.79
228.155	68.47
228.374	63.38
228.593	51.82
228.812	71.53
229.031	53.29
229.25	2.05
229.469	-2.95
229.688	13.85
229.907	7.1
230.125	32.07
230.344	26.06
230.563	49.47
230.782	61.22
231.001	20.93
231.22	5.62
231.438	41.16
231.657	28.61
231.876	2.99
232.095	47
232.313	60.17
232.532	61.99
232.751	38.15
232.969	23.26
233.188	-29.51
233.407	24.1
233.625	8.17
233.844	-7.11
234.063	3.12
234.281	24.84
234.5	3.04
234.719	6.83
234.937	30.08
235.156	34.39
235.374	24.32
235.593	-1.42
235.811	-14.21
236.03	-38.86
236.249	-81.03
236.467	-81.21
236.686	-32.44
236.904	-7.13
237.123	-16.36
237.341	-7.02
237.559	5.75
237.778	8.61
237.996	-5.94
238.215	9.95
238.433	22.43
238.652	22.16
238.87	4.7
239.088	7.45
239.307	13.43
239.525	9.96
239.743	-21.91
239.962	7.26
240.18	-4.85
240.398	-47.27
240.617	-63.95
240.835	-24.78
241.053	-24.57
241.271	15.4
241.49	37.44
241.708	22.41
241.926	13.13
242.144	12.39
242.363	-48.73
242.581	-60.04
242.799	-25.95
243.017	5.03
243.235	-26.83
243.453	-9.88
243.672	-14.05
243.89	-11.43
244.108	-29.9
244.326	6.95
244.544	15.52
244.762	16.75
244.98	37.01
245.198	46.52
245.416	13.06
245.634	-5.19
245.852	-11.74
246.07	-25.89
246.288	-42.53
246.506	-42.52
246.724	-4.76
246.942	-11
247.16	7.53
247.378	13.81
247.596	28.58
247.814	31.98
248.032	21.51
248.25	18.95
248.468	23.57
248.685	35.74
248.903	43.03
249.121	39.29
249.339	18.92
249.557	12.38
249.775	18.24
249.992	-41.05
250.21	-9.38
250.428	0.35
250.646	-28.96
250.863	-69.16
251.081	-25.87
251.299	-46.76
251.517	-63.52
251.734	-30.21
251.952	-10.65
252.17	-11.83
252.387	0.86
252.605	2.34
252.823	17.78
253.04	32.51
253.258	53.69
253.475	66.51
253.693	84.28
253.911	69.68
254.128	48.94
254.346	43.37
254.563	15.62
254.781	-16.45
254.998	-50.39
255.216	-36.14
255.433	-7.81
255.651	10.93
255.868	46.49
256.086	76.11
256.303	70.19
256.521	28.76
256.738	20.4
256.956	-21.32
257.173	-45.45
257.39	-72.23
257.608	-90.24
257.825	-29.32
258.043	18.98
258.26	27.46
258.477	71.3
258.695	69.85
258.912	18.7
259.129	13.64
259.346	-17.65
259.564	-62.23
259.781	-66.32
259.998	-0.2
260.216	44.09
260.433	76.12
260.65	81.9
260.867	83.75
261.084	52.71
261.302	9.87
261.519	3.99
261.736	-32.81
261.953	-44.1
262.17	-15.14
262.387	-37.34
262.604	-71.1
262.822	-57.17
263.039	-51.05
263.256	-92.52
263.473	-17.59
263.69	-2.46
263.907	22.71
264.124	42.14
264.341	47.73
264.558	13.72
264.775	17.04
264.992	17.31
265.209	-8.61
265.426	15
265.643	27.98
265.86	38.14
266.077	37.09
266.294	30.19
266.51	-7.28
266.727	-25.12
266.944	-26.43
267.161	-22.31
267.378	4.42
267.595	16.46
267.812	5.5
268.028	-24.07
268.245	-13.69
268.462	-37.38
268.679	-32.7
268.896	7.27
269.112	21.28
269.329	12.54
269.546	25.26
269.763	19.18
269.979	-2.43
270.196	3.93
270.413	-16.92
270.629	-40.52
270.846	-51.45
271.063	-31.36
271.279	-48.89
271.496	-44.03
271.712	9.21
271.929	51.04
272.146	35.43
272.362	49.93
272.579	72.9
272.795	49.72
273.012	45.72
273.228	55.72
273.445	23.1
273.661	8.46
273.878	-25.41
274.094	-19.2
274.311	-51.16
274.527	15.63
274.744	0.78
274.96	-2.37
275.177	-5.76
275.393	12.12
275.609	1.88
275.826	39.24
276.042	40.62
276.259	18.26
276.475	30.06
276.691	34.27
276.908	6.11
277.124	25.9
277.34	30.92
277.557	15.07
277.773	-0.62
277.989	-3.36
278.205	-17.1
278.422	-2.08
278.638	-7.84
278.854	2.76
279.07	-1.15
279.286	0.21
279.503	-35.15
279.719	-23.86
279.935	-49.69
280.151	-63.36
280.367	-41.02
280.583	-36.2
280.799	-30.06
281.016	-58.91
281.232	-20.41
281.448	-37.88
281.664	-9.27
281.88	-42.84
282.096	-10.01
282.312	20.35
282.528	48.34
282.744	69.15
282.96	65.14
283.176	53.65
283.392	35.31
283.608	13.97
283.824	-12.72
284.04	-3.98
284.256	4.18
284.471	-6.46
284.687	16.69
284.903	57.82
285.119	79.11
285.335	54.18
285.551	73.24
285.767	48.09
285.982	25.74
286.198	-15.08
286.414	36.2
286.63	39.8
286.846	56.5
287.061	29.69
287.277	55.5
287.493	25.28
287.709	40
287.924	20.06
288.14	53.73
288.356	42.9
288.571	58.59
288.787	34.49
289.003	33.6
289.218	21.47
289.434	-14.26
289.65	-24.41
289.865	-19.55
290.081	-3.87
290.296	-1.7
290.512	5.7
290.727	-20.86
290.943	-40.6
291.159	-37.98
291.374	-46.81
291.59	-55.88
291.805	-33.72
292.021	-13.09
292.236	-25.43
292.451	0.79
292.667	13.9
292.882	36.5
293.098	39.82
293.313	41.82
293.529	-5.35
293.744	-29.82
293.959	-42.46
294.175	-35.37
294.39	6.02
294.605	33.59
294.821	65.5
295.036	68.9
295.251	70.72
295.467	29.91
295.682	13.94
295.897	-52.6
296.112	-74.27
296.328	-73.63
296.543	-85.05
296.758	-77.56
296.973	-23.24
297.188	13.65
297.404	-9.82
297.619	-18.62
297.834	-12.09
298.049	-22.96
298.264	-35.95
298.479	3.17
298.694	13.71
298.909	11.21
299.125	9.74
299.34	11.88
299.555	-18.21
299.77	-15.47
299.985	-46.89
300.2	-89.17
300.415	-105.54
300.63	-49.54
300.845	-56.25
301.06	-44.57
301.275	-13.1
301.49	12.79
301.704	-10.2
301.919	-16.29
302.134	-26.46
302.349	-30.5
302.564	-77.82
302.779	-105.23
302.994	-72.84
303.209	-35.44
303.423	-4.46
303.638	28.3
303.853	4.84
304.068	5.76
304.283	6.63
304.497	-2.9
304.712	-15.08
304.927	-1.88
305.142	-9.9
305.356	-0.45
305.571	4.87
305.786	3.5
306	6.8
306.215	23.76
306.43	-5.14
306.644	3.58
306.859	46.7
307.074	45.24
307.288	-0.42
307.503	19.17
307.717	13.5
307.932	9.42
308.147	-2.09
308.361	29.09
308.576	10.09
308.79	-25.42
309.005	-45.37
309.219	-32.78
309.434	-36.81
309.648	-25.18
309.863	-11.94
310.077	-8.09
310.292	-9.9
310.506	-8.45
310.72	0.6
310.935	7.56
311.149	9.77
311.364	28.35
311.578	36.55
311.792	29.63
312.007	36.66
312.221	17.38
312.435	20.24
312.649	4.5
312.864	29.02
313.078	30.74
313.292	103.41
313.507	63.76
313.721	89.18
313.935	41.83
314.149	24.94
314.363	2.99
314.578	15.22
314.792	13.07
315.006	5.19
315.22	24.68
315.434	40.37
315.648	35.34
315.862	37.42
316.077	39.82
316.291	27.79
316.505	36.85
316.719	29.6
316.933	10
317.147	0.84
317.361	-44.78
317.575	-75.1
317.789	-89.14
318.003	-163.92
318.217	-121.63
318.431	-10.32
318.645	14.37
318.859	8.67
319.073	44.34
319.287	38.12
319.5	2.27
319.714	-20.58
319.928	-48.77
320.142	-80.93
320.356	-38.41
320.57	2.88
320.784	-7.75
320.997	25.23
321.211	33.49
321.425	-34.06
321.639	-66.18
321.853	-15.23
322.066	-1.03
322.28	-11.47
322.494	19.38
322.707	42.44
322.921	27.08
323.135	15.59
323.349	34.08
323.562	5.05
323.776	-14.33
323.989	-7.42
324.203	-19.01
324.417	-40.78
324.63	-62.03
324.844	-72.83
325.057	-73.05
325.271	-45.56
325.485	-6.44
325.698	8.16
325.912	31.79
326.125	3.36
326.339	-0.9
326.552	-29.17
326.766	-17.57
326.979	-9.27
327.193	31.64
327.406	32.91
327.619	32.78
327.833	48.8
328.046	15.61
328.26	-17.89
328.473	-2.22
328.686	-23.71
328.9	-42.67
329.113	-7.59
329.326	-19.35
329.54	-21.05
329.753	-34.07
329.966	-38.85
330.179	-50.84
330.393	-25.93
330.606	-4.83
330.819	21.64
331.032	36.34
331.246	37.29
331.459	51.06
331.672	32.67
331.885	25.5
332.098	-7.59
332.311	-13.49
332.525	-51.28
332.738	-16.58
332.951	-1.94
333.164	30.21
333.377	46.23
333.59	64.99
333.803	64.92
334.016	67.41
334.229	58.03
334.442	56.36
334.655	71.86
334.868	55.7
335.081	35.97
335.294	25.08
335.507	5.68
335.72	-15.92
335.933	-29.7
336.146	-41.65
336.359	-35.21
336.572	-47.78
336.785	-64.25
336.997	-42.9
337.21	-6.11
337.423	-2.25
337.636	14.79
337.849	30.75
338.062	23.43
338.274	5.62
338.487	3.02
338.7	-10.65
338.913	-43.41
339.125	-61.23
339.338	-78.89
339.551	-44.09
339.763	-6.84
339.976	25.2
340.189	63.93
340.402	62.29
340.614	34.58
340.827	16.96
341.039	10
341.252	-2.8
341.465	3.15
341.677	9.16
341.89	-12.99
342.102	10.09
342.315	0.2
342.527	-21.93
342.74	-26.33
342.952	-1.03
343.165	-20.27
343.377	1.1
343.59	8.51
343.802	20.05
344.015	22.72
344.227	36.12
344.44	17.76
344.652	25.93
344.864	25.75
345.077	38.82
345.289	42.21
345.502	44.49
345.714	29.64
345.926	36.3
346.139	28.11
346.351	40.69
346.563	56.9
346.775	60.55
346.988	42.35
347.2	30.2
347.412	-31.53
347.624	-73.04
347.837	-84.95
348.049	-68.92
348.261	-37.71
348.473	-16.01
348.685	-16.95
348.897	-22.69
349.11	-33.4
349.322	-46.79
349.534	-33.95
349.746	-16.19
349.958	6.69
350.17	19.67
350.382	14.56
350.594	8.86
350.806	2.12
351.018	1.21
351.23	-14.51
351.442	-41.28
351.654	-32.26
351.866	-12.11
352.078	-19.28
352.29	0.94
352.502	20.99
352.714	27.55
352.926	20.56
353.138	23.25
353.35	14.37
353.561	7.94
353.773	-15.49
353.985	-1.53
354.197	-7.07
354.409	0.43
354.621	-0.13
354.832	9.62
355.044	-0.52
355.256	10.91
355.468	19.16
355.679	20.12
355.891	34.04
356.103	23.96
356.314	12.27
356.526	0.38
356.738	20.42
356.949	23.67
357.161	34.14
357.373	36.43
357.584	26.94
357.796	15.35
358.008	3.33
358.219	21.78
358.431	17.54
358.642	22.32
358.854	32.42
359.065	27.24
359.277	-8.17
359.488	-22.11
359.7	-33.02
359.911	-70.84
360.123	-41.69
360.334	-51.81
360.546	-53.87
360.757	-55.66
360.969	-21.57
361.18	-12.94
361.391	17.18
361.603	12.95
361.814	24.98
362.025	8.42
362.237	-11.07
362.448	-9.73
362.659	4.18
362.871	2.89
363.082	3.57
363.293	9.34
363.504	-1.87
363.716	-22.44
363.927	-31.74
364.138	-59.19
364.349	-64.55
364.56	-60.34
364.772	-45.01
364.983	-21.85
365.194	-9.86
365.405	8.54
365.616	27.8
365.827	33.45
366.038	18.65
366.25	14
366.461	-16.93
366.672	-3.4
366.883	4.96
367.094	11.29
367.305	4.85
367.516	16.45
367.727	-5.19
367.938	-25.3
368.149	-26.51
368.36	2.62
368.571	3.26
368.781	-15.03
368.992	-11.44
369.203	-22.03
369.414	-56.06
369.625	-69.02
369.836	-57.11
370.047	-78.91
370.258	-53.49
370.468	-50.46
370.679	-69.1
370.89	-56.5
371.101	-27.56
371.312	-39.19
371.522	-32.2
371.733	-18.35
371.944	-7.76
372.155	-7.86
372.365	-6.33
372.576	-6.96
372.787	-3.5
372.997	-17.15
373.208	-15.65
373.419	12.83
373.629	-13.33
373.84	-26.92
374.05	-31.02
374.261	-28.72
374.472	-60.16
374.682	1.09
374.893	10.16
375.103	38.27
375.314	37.57
375.524	41.56
375.735	22.28
375.945	30.17
376.156	1.44
376.366	-2.05
376.577	-1.48
376.787	0.94
376.997	6.43
377.208	7.06
377.418	-9.43
377.629	3.32
377.839	-1.5
378.049	-5.23
378.26	10.91
378.47	26.25
378.68	10.75
378.89	10.18
379.101	3.41
379.311	-24.82
379.521	-54.46
379.732	-53.01
379.942	-51.07
380.152	-72.29
380.362	-37.41
380.572	-27.45
380.783	-12.89
380.993	-1.65
381.203	16.63
381.413	20.29
381.623	20.66
381.833	12.28
382.043	-5.73
382.253	-9.9
382.463	-7.2
382.674	-10.64
382.884	-21.85
383.094	-15.1
383.304	-3.61
383.514	-3.7
383.724	7.81
383.934	5.01
384.144	-4.91
384.353	-20.84
384.563	-25.38
384.773	-23.87
384.983	-31.24
385.193	-6.05
385.403	-1.68
385.613	1.75
385.823	-12.57
386.033	-2.89
386.242	-15.63
386.452	-17.41
386.662	-27.56
386.872	-13.38
387.082	-18.73
387.291	-22.81
387.501	-18.84
387.711	-10.01
387.921	-15.85
388.13	-8.3
388.34	6.13
388.55	1.74
388.759	2.31
388.969	9.62
389.179	4.51
389.388	0.21
389.598	6.75
389.807	-0.19
390.017	-6.62
390.227	-4.29
390.436	-7.21
390.646	-9.48
390.855	-2.86
391.065	-3.45
391.274	-5.64
391.484	-7.12
391.693	-5.69
391.903	-7.5
392.112	-0.23
392.322	5.3
392.531	8.51
392.74	7.06
392.95	3.2
393.159	-0.75
393.369	-1.46
393.578	-2.22
393.787	-2.04
393.997	0.66
394.206	-0.65
394.415	-0.48
394.625	-1.31
394.834	-2.16
395.043	0.06
395.252	2.7
395.462	3.96
395.671	5.6
395.88	6.51
396.089	6.67
396.298	4.82
396.508	4.37
396.717	4.26
396.926	4.24
397.135	3.39
397.344	3.27
397.553	3.59
397.762	4.81
397.971	5.43
398.181	5.09
398.39	5.1
398.599	4.81
398.808	4.32
399.017	4.4
399.226	5.55
399.435	6.31
399.644	6.08
399.853	4.7
400.062	4.14
400.27	3.73
400.479	3.37
400.688	2.69
400.897	3.33
401.106	3.28
401.315	3.01
401.524	3.11
401.733	3.71
401.941	4.04
402.15	4.4
402.359	4.14
402.568	4.26
402.777	4.37
402.985	4.21
403.194	4.04
403.403	4.19
403.612	3.95
403.82	3.82
404.029	3.94
404.238	3.91
404.446	4.27
404.655	4.06
404.864	4
405.072	3.68
405.281	3.59
405.489	3.27
405.698	3.56
405.906	3.37
406.115	3.45
406.324	3.51
406.532	3.54
406.741	3.62
406.949	3.73
407.158	3.76
407.366	3.74
407.574	3.76
407.783	3.71
407.991	3.59
408.2	3.7
408.408	3.74
408.617	3.62
408.825	3.53
409.033	3.62
409.242	3.59
409.45	3.59
409.658	3.48
409.867	3.57
410.075	3.39
410.283	3.17
410.491	3.12
410.7	3.16
410.908	3.05
411.116	3.36
411.324	3.46
411.533	3.46
411.741	3.61
411.949	3.63
412.157	3.37
412.365	3.47
412.573	3.45
412.781	3.45
412.99	3.35
413.198	3.57
413.406	3.51
413.614	3.55
413.822	3.48
414.03	3.42
414.238	3.18
414.446	3.2
414.654	2.99
414.862	2.98
415.07	3.12
415.278	3.35
415.486	3.13
415.694	3.38
415.902	3.21
416.109	3.13
416.317	3.01
416.525	2.96
416.733	2.79
416.941	2.98
417.149	2.96
417.357	2.99
417.564	3.23
417.772	3.55
417.98	3.53
418.188	3.53
418.395	3.43
418.603	3.61
418.811	3.13
419.019	3.07
419.226	3.28
419.434	3.47
419.642	3.02
419.849	3.17
420.057	3.25
420.265	3
420.472	2.71
420.68	2.89
420.887	2.91
421.095	2.82
421.302	2.83
421.51	3.07
421.717	3.19
421.925	3.25
422.132	3.22
422.34	3.06
422.547	3.18
422.755	3.04
422.962	2.77
423.17	2.75
423.377	2.95
423.585	2.96
423.792	2.81
423.999	2.83
424.207	2.81
424.414	2.88
424.621	2.71
424.829	2.96
425.036	3.18
425.243	3.36
425.451	3.23
425.658	2.98
425.865	2.98
426.072	3.06
426.28	3.27
426.487	3.24
426.694	3.3
426.901	3.06
427.108	2.92
427.315	2.64
427.523	2.95
427.73	3.06
427.937	3.08
428.144	2.96
428.351	2.89
428.558	2.85
428.765	2.8
428.972	2.81
429.179	2.96
429.386	3.32
429.593	3.04
429.8	2.91
430.007	2.98
430.214	3.06
430.421	2.71
430.628	2.65
430.835	2.74
431.042	2.9
431.249	2.95
431.456	3.01
431.662	3.26
431.869	3.39
432.076	3.39
432.283	3.34
432.49	3.37
432.697	3.37
432.903	3.14
433.11	3.02
433.317	3.13
433.524	3.28
433.73	3.12
433.937	3.44
434.144	3.43
434.35	3.42
434.557	3.28
434.764	3.32
434.97	3.09
435.177	3.31
435.384	3.18
435.59	3.19
435.797	3.41
436.003	3.56
436.21	3.49
436.416	3.58
436.623	3.58
436.829	3.62
437.036	3.66
437.242	3.78
437.449	3.85
437.655	3.83
437.862	3.71
438.068	3.61
438.275	3.66
438.481	3.77
438.687	3.84
438.894	3.95
439.1	4.05
439.307	4.07
439.513	3.89
439.719	3.94
439.926	3.92
440.132	3.87
440.338	3.69
440.544	3.82
440.751	3.73
440.957	3.74
441.163	3.71
441.369	3.83
441.575	3.58
441.782	3.57
441.988	3.52
442.194	3.56
442.4	3.48
442.606	3.82
442.812	3.96
443.018	3.99
443.224	3.97
443.431	4.19
443.637	3.91
443.843	3.76
444.049	3.81
444.255	3.82
444.461	3.69
444.667	3.76
444.873	3.93
445.079	3.93
445.284	4.06
445.49	3.83
445.696	3.78
445.902	3.66
446.108	3.61
446.314	3.4
446.52	3.53
446.726	3.8
446.931	3.87
447.137	3.91
447.343	4.03
447.549	4.01
447.755	3.81
447.96	3.9
448.166	3.79
448.372	3.76
448.578	3.81
448.783	3.85
448.989	3.84
449.195	4.03
449.4	4.08
449.606	4.05
449.812	3.99
450.017	3.95
450.223	3.89
450.428	3.81
450.634	3.93
450.84	4.08
451.045	4.09
451.251	4.04
451.456	4.31
451.662	4.38
451.867	4.34
452.073	4.29
452.278	4.43
452.483	4.48
452.689	4.37
452.894	4.37
453.1	4.45
453.305	4.27
453.51	4.14
453.716	4.03
453.921	4.12
454.127	4.09
454.332	4.14
454.537	4.12
454.742	4.17
454.948	4.11
455.153	4.12
455.358	4.27
455.563	4.35
455.769	4.46
455.974	4.34
456.179	4.22
456.384	4.14
456.589	4.09
456.795	3.92
457	4.04
457.205	4.32
457.41	4.32
457.615	4.24
457.82	4.36
458.025	4.35
458.23	4.14
458.435	4.12
458.64	4.1
458.845	4.22
459.05	4.14
459.255	4.24
459.46	4.29
459.665	4.29
459.87	4.3
460.075	4.31
460.28	4.24
460.485	4.3
460.69	4.36
460.895	4.22
461.099	4.22
461.304	4.4
461.509	4.36
461.714	4.32
461.919	4.48
462.123	4.41
462.328	4.42
462.533	4.3
462.738	4.45
462.942	4.28
463.147	4.53
463.352	4.49
