Data from Ofra_1a_PS_OGT14_Reflection_2.txt Node
Date: Tue Jul 20 10:41:30 EDT 2021
User: Adam
Spectrometer: FLMT01687
Trigger mode: 0
Integration Time (sec): 1.004000E0
Scans to average: 2
Electric dark correction enabled: true
Nonlinearity correction enabled: false
Boxcar width: 2
XAxis mode: Wavelengths
Number of Pixels in Spectrum: 3648
>>>>>Begin Spectral Data<<<<<
179.494	-236.04
179.716	-341.22
179.937	885.95
180.158	-930.57
180.38	162.28
180.601	94.48
180.823	36.32
181.044	-150.67
181.265	-238.42
181.486	245.73
181.708	189.99
181.929	-11590.91
182.15	29.2
182.372	311.82
182.593	554.04
182.814	-309.17
183.035	-41.18
183.257	-13.45
183.478	-9.8
183.699	0.96
183.92	-22.51
184.141	-45.83
184.363	-23.2
184.584	-5.13
184.805	9.77
185.026	34.14
185.247	31.8
185.468	23.58
185.689	20.94
185.91	-13.46
186.132	-2.46
186.353	-2.27
186.574	9.02
186.795	11.62
187.016	48.95
187.237	36.22
187.458	40.12
187.679	17.8
187.9	17.97
188.121	8.59
188.342	41.09
188.563	51.42
188.784	56.24
189.005	50.8
189.226	27.73
189.447	14.93
189.667	1
189.888	-7.91
190.109	-16.55
190.33	2.88
190.551	-21.14
190.772	0.06
190.993	-9.52
191.214	-27.66
191.434	-13.13
191.655	42.18
191.876	18.9
192.097	58.98
192.318	56.71
192.538	33.78
192.759	20.29
192.98	30.95
193.201	12.65
193.421	7.43
193.642	16.09
193.863	11.38
194.083	16.16
194.304	6.82
194.525	0.57
194.745	1.45
194.966	13.84
195.187	1.69
195.407	-7.48
195.628	12.03
195.848	0.85
196.069	-7.52
196.29	-12
196.51	-3.34
196.731	-37.46
196.951	-56.94
197.172	-57.32
197.392	-78.01
197.613	-37.7
197.833	-56
198.054	-47.89
198.274	-25
198.495	-4.08
198.715	-17.31
198.936	35.1
199.156	39.84
199.377	29.8
199.597	33.44
199.817	30.89
200.038	-1.93
200.258	7.27
200.479	8.88
200.699	5.1
200.919	24.74
201.14	23.92
201.36	30.19
201.58	13.21
201.801	22.33
202.021	12.26
202.241	3.59
202.461	-17.84
202.682	10.94
202.902	-7.91
203.122	-10.2
203.342	-1.23
203.563	11.79
203.783	-4.65
204.003	12.88
204.223	32.98
204.443	42.16
204.663	40.75
204.884	57.21
205.104	32.1
205.324	-2.55
205.544	-27.1
205.764	-7.42
205.984	-26.67
206.204	-4.54
206.424	-27.93
206.644	-38.97
206.864	-85.1
207.084	-30.26
207.304	-65.87
207.525	-50.9
207.745	-17.09
207.964	1.48
208.184	-7.66
208.404	8.49
208.624	19.39
208.844	17.06
209.064	9.97
209.284	11.41
209.504	1
209.724	-13.26
209.944	-39.98
210.164	-25.76
210.384	-33.97
210.604	-89.33
210.823	-66.55
211.043	-35.76
211.263	-87.78
211.483	-63.69
211.703	-5.05
211.922	-11.25
212.142	7.11
212.362	21.14
212.582	25.9
212.801	-2.31
213.021	-14.22
213.241	-16.12
213.461	1.93
213.68	9.95
213.9	12.39
214.12	14.15
214.339	19.62
214.559	-0.15
214.779	-15.78
214.998	-13.68
215.218	19.67
215.438	19.86
215.657	13.2
215.877	6.63
216.096	15.33
216.316	-1.49
216.535	-21.95
216.755	-16.11
216.974	-36.52
217.194	-46.72
217.413	-39.63
217.633	-37.98
217.852	-16.71
218.072	17.06
218.291	35.41
218.511	40.43
218.73	35.09
218.95	23.49
219.169	-0.52
219.389	-35.68
219.608	-38.15
219.827	-10.62
220.047	1.18
220.266	-13.23
220.485	-9.43
220.705	-11.03
220.924	-22.78
221.143	1.5
221.363	22.59
221.582	21.97
221.801	22.53
222.021	22.69
222.24	8.5
222.459	7.34
222.678	26.62
222.897	12.72
223.117	31.94
223.336	27.79
223.555	21.65
223.774	27.59
223.993	65.3
224.213	36.99
224.432	25.29
224.651	28.91
224.87	23.29
225.089	6.46
225.308	10.33
225.527	12.34
225.746	8.22
225.965	-12.83
226.184	-9.02
226.404	-8.95
226.623	0.95
226.842	-1.46
227.061	24.86
227.28	31.38
227.499	35.43
227.718	31.84
227.936	48.27
228.155	45.39
228.374	31.63
228.593	29.78
228.812	50.22
229.031	42.92
229.25	21.11
229.469	30.92
229.688	12.76
229.907	3.1
230.125	-3.63
230.344	6.93
230.563	14.69
230.782	24.92
231.001	31.12
231.22	19.27
231.438	31.76
231.657	29.65
231.876	41.09
232.095	44.75
232.313	44.61
232.532	31.51
232.751	30.24
232.969	16.42
233.188	-1.7
233.407	-0.96
233.625	0.39
233.844	-2.65
234.063	3.91
234.281	7.99
234.5	16.81
234.719	9.96
234.937	-5.12
235.156	-9.27
235.374	-4.18
235.593	-3.35
235.811	20.21
236.03	17.01
236.249	17.59
236.467	27.62
236.686	23.51
236.904	19.65
237.123	25.2
237.341	25.93
237.559	5.42
237.778	20.49
237.996	-27.91
238.215	-50.52
238.433	-141.81
238.652	-51.97
238.87	-74.2
239.088	-30.85
239.307	-17.72
239.525	14.9
239.743	4.61
239.962	-0.57
240.18	8.84
240.398	9.44
240.617	-0.88
240.835	4.38
241.053	24.74
241.271	14.04
241.49	31.81
241.708	21.01
241.926	22.62
242.144	26.08
242.363	26.09
242.581	-5.02
242.799	-31.64
243.017	-26.33
243.235	-30.03
243.453	-64.85
243.672	-39.8
243.89	-17.11
244.108	-5.3
244.326	7.84
244.544	34.35
244.762	23.57
244.98	30.96
245.198	31.75
245.416	37.97
245.634	11.52
245.852	3.03
246.07	11.34
246.288	5.8
246.506	-3.94
246.724	12.27
246.942	23.1
247.16	30.64
247.378	25.57
247.596	41.25
247.814	39.93
248.032	34.87
248.25	34.84
248.468	26.21
248.685	23.17
248.903	14.99
249.121	17.81
249.339	4.21
249.557	12.04
249.775	10.4
249.992	17.1
250.21	1.14
250.428	11.94
250.646	9.25
250.863	6.78
251.081	4.6
251.299	18.51
251.517	11.52
251.734	28.66
251.952	18.13
252.17	19.34
252.387	7.6
252.605	5.77
252.823	-4.88
253.04	21.47
253.258	13.44
253.475	24.39
253.693	17.23
253.911	14.94
254.128	17.9
254.346	39.9
254.563	42.31
254.781	40.52
254.998	23.84
255.216	-14.78
255.433	-42.22
255.651	-31.01
255.868	-30.68
256.086	-31.24
256.303	3.86
256.521	3.4
256.738	-15.41
256.956	2.39
257.173	0.56
257.39	-0.76
257.608	2.23
257.825	5.74
258.043	12.78
258.26	17.73
258.477	12.99
258.695	16.51
258.912	1.05
259.129	-23.53
259.346	-33.43
259.564	-48.92
259.781	-52.5
259.998	7.97
260.216	20.25
260.433	11.77
260.65	4.73
260.867	-3.94
261.084	-17.8
261.302	-12.24
261.519	20.23
261.736	40.5
261.953	55.9
262.17	50.62
262.387	38.8
262.604	32.34
262.822	24.36
263.039	15.38
263.256	10.27
263.473	9.42
263.69	12.11
263.907	25.22
264.124	29.34
264.341	32.88
264.558	30.62
264.775	14.02
264.992	4.09
265.209	7.89
265.426	-2.41
265.643	-15.82
265.86	-21.74
266.077	-22.65
266.294	-16.82
266.51	7.65
266.727	22.61
266.944	39.56
267.161	37.85
267.378	34.39
267.595	34.75
267.812	24.08
268.028	1.09
268.245	0.98
268.462	5.35
268.679	16.48
268.896	36.02
269.112	49.35
269.329	31.42
269.546	61.28
269.763	42.12
269.979	25.45
270.196	35.03
270.413	49.57
270.629	23.85
270.846	30.78
271.063	27.09
271.279	3.22
271.496	-20.6
271.712	-7.49
271.929	-4.68
272.146	-3.33
272.362	6.83
272.579	25.6
272.795	17.84
273.012	14.34
273.228	22.56
273.445	21.61
273.661	19.85
273.878	15.88
274.094	-7.11
274.311	-9.79
274.527	-18.89
274.744	-0.63
274.96	10.34
275.177	27.99
275.393	27.8
275.609	38.8
275.826	13.7
276.042	13.1
276.259	14.83
276.475	13.25
276.691	-6.98
276.908	12.75
277.124	12.8
277.34	5.51
277.557	0.05
277.773	7.17
277.989	7.97
278.205	9.52
278.422	0.54
278.638	-6.9
278.854	-29.23
279.07	-18.86
279.286	-20.05
279.503	-1.84
279.719	14.02
279.935	31.18
280.151	18.24
280.367	7.39
280.583	0.51
280.799	-14.05
281.016	-40.1
281.232	-25.35
281.448	-33.48
281.664	-29.47
281.88	-23.57
282.096	-7.44
282.312	-7.16
282.528	6.4
282.744	2.46
282.96	-7.87
283.176	-12.02
283.392	-33.01
283.608	-15.45
283.824	-25.5
284.04	-40.35
284.256	-12.7
284.471	-1.31
284.687	2.15
284.903	5.4
285.119	24.87
285.335	30.2
285.551	30.26
285.767	29.28
285.982	36.41
286.198	11.34
286.414	-10.08
286.63	-14.68
286.846	-22.62
287.061	-1.37
287.277	20.41
287.493	25.74
287.709	23.17
287.924	30.54
288.14	26.01
288.356	15.23
288.571	12.54
288.787	10.62
289.003	4.19
289.218	-8.67
289.434	-5.76
289.65	16.04
289.865	30.08
290.081	30.89
290.296	43.23
290.512	36.02
290.727	18.12
290.943	7.27
291.159	7.21
291.374	-16.83
291.59	-5.37
291.805	-17.56
292.021	-17.11
292.236	-15.88
292.451	6.36
292.667	18.18
292.882	39.4
293.098	52.3
293.313	40.03
293.529	28.9
293.744	12.77
293.959	2.59
294.175	9.54
294.39	3.72
294.605	28.89
294.821	18.19
295.036	21.82
295.251	16.85
295.467	15.91
295.682	-3.14
295.897	3.61
296.112	-3.2
296.328	6.5
296.543	-6.02
296.758	-4.74
296.973	2.53
297.188	-0.35
297.404	-35.82
297.619	-39.46
297.834	-59.97
298.049	-37.33
298.264	-29.29
298.479	-30.35
298.694	4.07
298.909	26.84
299.125	14.82
299.34	17.08
299.555	27.89
299.77	33.85
299.985	27.06
300.2	34.5
300.415	38.03
300.63	27.94
300.845	20.64
301.06	5.89
301.275	-4.96
301.49	5.3
301.704	12.98
301.919	5.43
302.134	11.13
302.349	11.56
302.564	-6.87
302.779	-16.33
302.994	6.96
303.209	9.32
303.423	7.17
303.638	18.37
303.853	1.47
304.068	-22.67
304.283	-19.65
304.497	-45.81
304.712	-12.73
304.927	10.59
305.142	15.39
305.356	22.81
305.571	43.79
305.786	25.94
306	30.89
306.215	32.27
306.43	4.96
306.644	-17.08
306.859	-37.4
307.074	-16.43
307.288	-18.67
307.503	7.63
307.717	8.42
307.932	17.7
308.147	4.6
308.361	18.55
308.576	-3.03
308.79	11.55
309.005	-12.4
309.219	-8.33
309.434	-12.88
309.648	6.73
309.863	3.88
310.077	15.01
310.292	19.73
310.506	-5.32
310.72	-8.04
310.935	3.5
311.149	10.12
311.364	22.31
311.578	29.95
311.792	31.29
312.007	24.21
312.221	6.47
312.435	-5.73
312.649	10.47
312.864	7.45
313.078	22.77
313.292	36.2
313.507	40.71
313.721	31.33
313.935	53.66
314.149	19.87
314.363	25.79
314.578	32.05
314.792	39.59
315.006	8.8
315.22	24.9
315.434	20.63
315.648	1.12
315.862	-3.52
316.077	-6.53
316.291	-7.17
316.505	-45.01
316.719	-29.27
316.933	-18.39
317.147	-6.89
317.361	-8.9
317.575	11.48
317.789	15.43
318.003	18.29
318.217	16.43
318.431	13.79
318.645	16.02
318.859	18.56
319.073	16.54
319.287	18.48
319.5	21.23
319.714	10.04
319.928	-1.68
320.142	0.3
320.356	1.49
320.57	-18.44
320.784	-18.79
320.997	-39.18
321.211	-35.9
321.425	-57.65
321.639	-24.82
321.853	-8.97
322.066	-9.38
322.28	-11.92
322.494	0.93
322.707	-14.92
322.921	-12.59
323.135	14.37
323.349	5.86
323.562	3.13
323.776	18.93
323.989	21.64
324.203	-4.77
324.417	5.73
324.63	-6.49
324.844	-19.61
325.057	-41.26
325.271	-12.97
325.485	-10.88
325.698	13.84
325.912	26.13
326.125	31.29
326.339	30.13
326.552	21.37
326.766	-5.99
326.979	1.15
327.193	-16.35
327.406	-28.49
327.619	-12.31
327.833	0.7
328.046	3.23
328.26	11.57
328.473	28.47
328.686	28.71
328.9	27.36
329.113	16.63
329.326	12.48
329.54	6.21
329.753	12.75
329.966	13.78
330.179	9.45
330.393	13.43
330.606	18.41
330.819	5.56
331.032	3.1
331.246	11.71
331.459	22.97
331.672	15.36
331.885	19.63
332.098	26.4
332.311	20.51
332.525	11.25
332.738	10.32
332.951	-0.23
333.164	2.78
333.377	5.81
333.59	-5.65
333.803	4.45
334.016	7.8
334.229	5.8
334.442	9.31
334.655	23.68
334.868	1.8
335.081	2.5
335.294	-11.56
335.507	-3.69
335.72	-13.16
335.933	-16.89
336.146	-26.33
336.359	8.7
336.572	0.88
336.785	-5.1
336.997	18.66
337.21	43.71
337.423	1.1
337.636	6.5
337.849	30.31
338.062	16.61
338.274	19.65
338.487	20.73
338.7	6.04
338.913	4.34
339.125	0.05
339.338	-9.99
339.551	-9.3
339.763	-13.68
339.976	-23.94
340.189	-23.3
340.402	-4.79
340.614	10.88
340.827	27.33
341.039	19.93
341.252	23.55
341.465	11.63
341.677	0.87
341.89	-0.45
342.102	19.57
342.315	26.72
342.527	29.62
342.74	18.13
342.952	3.54
343.165	-9.08
343.377	-5.26
343.59	-4.78
343.802	9.78
344.015	19.32
344.227	15.81
344.44	14.6
344.652	13.61
344.864	16.85
345.077	34.03
345.289	45.26
345.502	44.07
345.714	36.42
345.926	32.42
346.139	15.47
346.351	6.83
346.563	0.42
346.775	-9.56
346.988	0.79
347.2	-1.64
347.412	9.97
347.624	13.36
347.837	24.83
348.049	14.98
348.261	6.42
348.473	-16.3
348.685	-32.09
348.897	-29.66
349.11	-7.44
349.322	10.05
349.534	5.55
349.746	11.2
349.958	-5.01
350.17	-41.32
350.382	-51.64
350.594	-12.35
350.806	16.25
351.018	24.08
351.23	41.42
351.442	38.96
351.654	32.81
351.866	17.56
352.078	19.8
352.29	11.64
352.502	16.52
352.714	2.13
352.926	3.46
353.138	-5.09
353.35	-7.91
353.561	-6.94
353.773	3.2
353.985	17.07
354.197	19.71
354.409	19.87
354.621	16.53
354.832	11.87
355.044	-10.58
355.256	-17.75
355.468	-26.69
355.679	-2.6
355.891	2.05
356.103	4.77
356.314	0.68
356.526	-6.23
356.738	-22.42
356.949	-23.67
357.161	-8.66
357.373	5.88
357.584	20.17
357.796	28.68
358.008	34.38
358.219	35.53
358.431	27.49
358.642	25.17
358.854	33.14
359.065	24.15
359.277	8.94
359.488	9.25
359.7	7.5
359.911	-8.88
360.123	-11.62
360.334	-13.22
360.546	-8.16
360.757	-4.65
360.969	-0.24
361.18	3.65
361.391	14.53
361.603	23.21
361.814	23.98
362.025	25.85
362.237	31.48
362.448	33.03
362.659	23.42
362.871	13.36
363.082	-7.04
363.293	-19.99
363.504	-40.97
363.716	-48.27
363.927	-5.3
364.138	-13.27
364.349	-9.71
364.56	-11.38
364.772	-3.88
364.983	-12.5
365.194	16.82
365.405	18.2
365.616	28.3
365.827	35.69
366.038	30.36
366.25	19.25
366.461	22.45
366.672	14.09
366.883	4.58
367.094	-2.48
367.305	-3.38
367.516	-8.28
367.727	-6.63
367.938	7.12
368.149	8.94
368.36	4.91
368.571	-4.4
368.781	-18.02
368.992	-23.37
369.203	-27.31
369.414	-24.41
369.625	-23.8
369.836	6.54
370.047	7.36
370.258	21.16
370.468	18.13
370.679	20.51
370.89	-0.12
371.101	19.33
371.312	11.89
371.522	14.91
371.733	20.92
371.944	19.14
372.155	7
372.365	11.47
372.576	9.07
372.787	10.72
372.997	13.16
373.208	3.62
373.419	-4.16
373.629	-13.17
373.84	-18.26
374.05	-21.57
374.261	-32.05
374.472	-18.22
374.682	-14.05
374.893	-23.77
375.103	-17.71
375.314	-0.77
375.524	-4.78
375.735	-3.94
375.945	8.29
376.156	1.64
376.366	-4.72
376.577	-4.4
376.787	2.36
376.997	-3.93
377.208	6.43
377.418	14
377.629	13.01
377.839	20.28
378.049	21.98
378.26	18.64
378.47	5.34
378.68	11.82
378.89	6.21
379.101	6.7
379.311	3.44
379.521	4.56
379.732	3.59
379.942	3.32
380.152	2.32
380.362	1.73
380.572	13.36
380.783	21.81
380.993	16.9
381.203	17.29
381.413	21.03
381.623	16.17
381.833	6.8
382.043	6.78
382.253	10.17
382.463	21.41
382.674	25
382.884	26.6
383.094	26.91
383.304	27.79
383.514	19.41
383.724	7.49
383.934	-0.39
384.144	3.15
384.353	-5.06
384.563	-0.06
384.773	12.89
384.983	11.93
385.193	-0.22
385.403	-4.11
385.613	-4.02
385.823	-19.23
386.033	-11.57
386.242	-5
386.452	0.45
386.662	-5.04
386.872	7.88
387.082	2.66
387.291	3.34
387.501	2.52
387.711	3.49
387.921	-0.94
388.13	1.69
388.34	1.04
388.55	1.75
388.759	-1.04
388.969	-0.51
389.179	-2.18
389.388	-2.52
389.598	-2.8
389.807	-3.96
390.017	-2.1
390.227	-2.75
390.436	-0.42
390.646	1.92
390.855	5.55
391.065	3.17
391.274	4.89
391.484	2.85
391.693	-1.38
391.903	-0.9
392.112	-0.02
392.322	-1.66
392.531	-2.33
392.74	-0.53
392.95	-0.15
393.159	-0.04
393.369	0.61
393.578	0.52
393.787	1.43
393.997	0.17
394.206	0.81
394.415	1.74
394.625	2.24
394.834	-0.16
395.043	0.31
395.252	2.04
395.462	2.2
395.671	2.46
395.88	4.83
396.089	4.76
396.298	3.37
396.508	3.56
396.717	3.77
396.926	3.25
397.135	3.55
397.344	3.22
397.553	3.28
397.762	3.85
397.971	3.62
398.181	3.61
398.39	3.54
398.599	3.7
398.808	3.23
399.017	3.9
399.226	3.88
399.435	3.9
399.644	4.16
399.853	4.22
400.062	4.06
400.27	3.64
400.479	3.86
400.688	3.7
400.897	3.61
401.106	3.5
401.315	3.61
401.524	3.79
401.733	3.45
401.941	3.67
402.15	3.39
402.359	3.39
402.568	3.17
402.777	3.42
402.985	3.14
403.194	3.36
403.403	3.75
403.612	3.79
403.82	3.33
404.029	3.43
404.238	3.47
404.446	3.41
404.655	3.5
404.864	3.73
405.072	3.83
405.281	3.81
405.489	3.6
405.698	3.62
405.906	3.77
406.115	3.62
406.324	3.77
406.532	3.98
406.741	3.91
406.949	3.96
407.158	4.1
407.366	3.79
407.574	3.76
407.783	3.91
407.991	3.73
408.2	3.74
408.408	3.85
408.617	3.68
408.825	3.44
409.033	3.49
409.242	3.48
409.45	3.46
409.658	3.46
409.867	3.52
410.075	3.53
410.283	3.48
410.491	3.41
410.7	3.42
410.908	3.43
411.116	3.51
411.324	3.54
411.533	3.56
411.741	3.57
411.949	3.54
412.157	3.33
412.365	3.37
412.573	3.38
412.781	3.42
412.99	3.64
413.198	3.69
413.406	3.68
413.614	3.79
413.822	3.83
414.03	3.72
414.238	3.87
414.446	3.94
414.654	3.8
414.862	3.66
415.07	3.58
415.278	3.56
415.486	3.34
415.694	3.38
415.902	3.4
416.109	3.45
416.317	3.35
416.525	3.35
416.733	3.33
416.941	3.45
417.149	3.26
417.357	3.3
417.564	3.37
417.772	3.57
417.98	3.53
418.188	3.66
418.395	3.45
418.603	3.34
418.811	3.14
419.019	2.97
419.226	3
419.434	3.28
419.642	3.28
419.849	3.25
420.057	3.32
420.265	3.17
420.472	3.08
420.68	3.17
420.887	3.14
421.095	3.24
421.302	3.32
421.51	3.19
421.717	3.16
421.925	3.34
422.132	3.23
422.34	2.93
422.547	2.86
422.755	2.88
422.962	2.83
423.17	2.7
423.377	2.87
423.585	3.06
423.792	3.01
423.999	2.89
424.207	2.96
424.414	3.1
424.621	3.03
424.829	3.07
425.036	3.11
425.243	3.15
425.451	3.2
425.658	3.25
425.865	3.31
426.072	3.41
426.28	3.47
426.487	3.31
426.694	3.01
426.901	2.98
427.108	2.86
427.315	2.73
427.523	2.72
427.73	2.9
427.937	2.78
428.144	2.86
428.351	2.95
428.558	2.98
428.765	3.06
428.972	3.21
429.179	3.01
429.386	2.94
429.593	2.89
429.8	2.79
430.007	2.71
430.214	2.71
430.421	2.91
430.628	2.9
430.835	2.94
431.042	2.98
431.249	3.05
431.456	2.96
431.662	3.14
431.869	3.24
432.076	3.28
432.283	3.46
432.49	3.39
432.697	3.29
432.903	3.2
433.11	3.28
433.317	3.23
433.524	3.31
433.73	3.35
433.937	3.54
434.144	3.35
434.35	3.29
434.557	3.36
434.764	3.37
434.97	3.2
435.177	3.4
435.384	3.55
435.59	3.51
435.797	3.59
436.003	3.58
436.21	3.32
436.416	3.27
436.623	3.32
436.829	3.21
437.036	3.25
437.242	3.5
437.449	3.47
437.655	3.49
437.862	3.62
438.068	3.61
438.275	3.68
438.481	3.78
438.687	3.71
438.894	3.77
439.1	3.82
439.307	3.86
439.513	3.81
439.719	3.87
439.926	3.87
440.132	3.92
440.338	3.76
440.544	3.78
440.751	3.77
440.957	3.78
441.163	3.62
441.369	3.71
441.575	3.75
441.782	3.8
441.988	3.79
442.194	3.87
442.4	3.75
442.606	3.84
442.812	3.79
443.018	3.71
443.224	3.84
443.431	3.89
443.637	3.75
443.843	3.82
444.049	3.96
444.255	4.01
444.461	3.96
444.667	3.97
444.873	4.01
445.079	3.9
445.284	3.82
445.49	3.93
445.696	4
445.902	3.9
446.108	4.03
446.314	4.07
446.52	4.11
446.726	4.14
446.931	4.08
447.137	3.98
447.343	3.98
447.549	3.99
447.755	3.93
447.96	4.08
448.166	4.08
448.372	4.09
448.578	3.91
448.783	3.96
448.989	4.04
449.195	4.07
449.4	4.04
449.606	4.14
449.812	4.06
450.017	3.94
450.223	3.84
450.428	3.9
450.634	3.85
450.84	3.92
451.045	4.06
451.251	4.18
451.456	4.16
451.662	4.23
451.867	4.25
452.073	4.2
452.278	4.19
452.483	4.13
452.689	4.08
452.894	4.13
453.1	4.05
453.305	4.07
453.51	4.14
453.716	4.17
453.921	4.2
454.127	4.2
454.332	4.16
454.537	4.14
454.742	4.13
454.948	4.07
455.153	4.14
455.358	4.12
455.563	4.27
455.769	4.28
455.974	4.3
456.179	4.21
456.384	4.23
456.589	4.08
456.795	4.08
457	4.01
457.205	3.97
457.41	3.99
457.615	3.99
457.82	4.04
458.025	4.05
458.23	4.14
458.435	4.19
458.64	4.21
458.845	4.18
459.05	4.28
459.255	4.21
459.46	4.16
459.665	4.24
459.87	4.32
460.075	4.33
460.28	4.37
460.485	4.38
460.69	4.27
460.895	4.34
461.099	4.24
461.304	4.13
461.509	4.16
461.714	4.29
461.919	4.21
462.123	4.29
462.328	4.36
462.533	4.28
462.738	4.16
462.942	4.07
463.147	4.05
463.352	4.14
463.556	4.27
463.761	4.41
463.966	4.53
464.17	4.61
464.375	4.66
464.58	4.65
464.784	4.58
464.989	4.61
465.193	4.53
465.398	4.49
465.602	4.59
465.807	4.66
466.011	4.63
466.216	4.54
466.42	4.59
466.625	4.52
466.829	4.5
467.034	4.61
467.238	4.84
467.443	4.84
467.647	4.83
467.851	4.9
468.056	4.94
