Data from Ofra_2a_PS_8CX24_Reflection_2.txt Node
Date: Tue Jul 20 09:55:00 EDT 2021
User: Adam
Spectrometer: FLMT01687
Trigger mode: 0
Integration Time (sec): 9.450000E-1
Scans to average: 3
Electric dark correction enabled: true
Nonlinearity correction enabled: false
Boxcar width: 3
XAxis mode: Wavelengths
Number of Pixels in Spectrum: 3648
>>>>>Begin Spectral Data<<<<<
179.494	1121.3
179.716	654.49
179.937	655.49
180.158	2566.02
180.38	-1585.17
180.601	-343.96
180.823	-52.95
181.044	79.58
181.265	-19.26
181.486	18.63
181.708	-761.96
181.929	80.35
182.15	617.61
182.372	104.42
182.593	86.73
182.814	243.56
183.035	163.12
183.257	65.16
183.478	56.94
183.699	75.35
183.92	74.18
184.141	82.5
184.363	67.92
184.584	60.53
184.805	70.35
185.026	67.84
185.247	35.54
185.468	29.05
185.689	19.6
185.91	21.69
186.132	32.38
186.353	21.8
186.574	36.91
186.795	33.06
187.016	39.05
187.237	49.44
187.458	44.67
187.679	23.9
187.9	35.75
188.121	35.71
188.342	58.65
188.563	67.99
188.784	65.54
189.005	81.04
189.226	78.3
189.447	76.69
189.667	71.23
189.888	66.04
190.109	66.04
190.33	52.43
190.551	34.37
190.772	39.27
190.993	40.6
191.214	46.26
191.434	45.91
191.655	38.99
191.876	40.35
192.097	40.82
192.318	38.56
192.538	36.26
192.759	36.05
192.98	32.15
193.201	40.17
193.421	52.46
193.642	62.22
193.863	72.38
194.083	66.95
194.304	57.32
194.525	55.69
194.745	36.21
194.966	31.43
195.187	35.43
195.407	30.64
195.628	39.38
195.848	35.92
196.069	44.7
196.29	43.75
196.51	47.26
196.731	36.55
196.951	37.66
197.172	21.53
197.392	25.29
197.613	1.26
197.833	-0.16
198.054	9.05
198.274	-6.41
198.495	2.99
198.715	-10.94
198.936	-8.75
199.156	-10.51
199.377	-4.11
199.597	-23.06
199.817	-4.03
200.038	-4.09
200.258	8.44
200.479	20.08
200.699	37.49
200.919	16.55
201.14	17.22
201.36	17.99
201.58	12.58
201.801	5.57
202.021	-4.87
202.241	-4.59
202.461	14.14
202.682	20.98
202.902	23.03
203.122	23.3
203.342	36.61
203.563	46.2
203.783	45.82
204.003	40.74
204.223	42.47
204.443	41.35
204.663	44.54
204.884	37.45
205.104	36.86
205.324	51.32
205.544	59.79
205.764	57.24
205.984	62.19
206.204	67.81
206.424	70.35
206.644	67.78
206.864	62.49
207.084	75.3
207.304	69.01
207.525	59.66
207.745	57.96
207.964	36.25
208.184	27.05
208.404	8.12
208.624	-25.77
208.844	-42.99
209.064	-25.78
209.284	-14.15
209.504	-8.7
209.724	-35.47
209.944	-28.9
210.164	-19.32
210.384	8.96
210.604	-18.56
210.823	-28.08
211.043	-23.31
211.263	-3.84
211.483	-2.37
211.703	12.68
211.922	14.36
212.142	24.84
212.362	20.83
212.582	19.49
212.801	10.56
213.021	20.09
213.241	9.37
213.461	5.68
213.68	24.29
213.9	31.14
214.12	23.24
214.339	33.94
214.559	42.19
214.779	43.19
214.998	36.21
215.218	39.16
215.438	55.29
215.657	60.36
215.877	69.29
216.096	55.09
216.316	51.01
216.535	62.83
216.755	32.31
216.974	25.61
217.194	34.5
217.413	36.77
217.633	33.03
217.852	40.73
218.072	34.92
218.291	59.98
218.511	40.78
218.73	28.78
218.95	29.53
219.169	32.38
219.389	19.35
219.608	26.56
219.827	19.16
220.047	40.59
220.266	50.62
220.485	38.82
220.705	28.28
220.924	44.63
221.143	36.26
221.363	25.12
221.582	20.63
221.801	27.05
222.021	31.39
222.24	45.59
222.459	33.84
222.678	34.78
222.897	29.66
223.117	33.06
223.336	32.5
223.555	20.58
223.774	19.55
223.993	29.6
224.213	37.07
224.432	48.75
224.651	46.89
224.87	31.13
225.089	43.03
225.308	51.15
225.527	45.68
225.746	37.84
225.965	29.56
226.184	12.67
226.404	11.56
226.623	14.87
226.842	9.17
227.061	6
227.28	20.81
227.499	36.27
227.718	36.15
227.936	31.47
228.155	28.89
228.374	20.47
228.593	15.12
228.812	8.21
229.031	-6.59
229.25	11.42
229.469	20.97
229.688	26.14
229.907	23.07
230.125	28.98
230.344	32.35
230.563	39.39
230.782	25.73
231.001	26.53
231.22	21.89
231.438	30.25
231.657	30.36
231.876	28.62
232.095	29.13
232.313	38.48
232.532	35.43
232.751	35.66
232.969	34.03
233.188	41.96
233.407	32.73
233.625	29.53
233.844	26.39
234.063	24.23
234.281	17.91
234.5	26.02
234.719	22.32
234.937	38.48
235.156	29.41
235.374	31.47
235.593	33.91
235.811	35.99
236.03	28.53
236.249	20.57
236.467	19.18
236.686	43.08
236.904	27.11
237.123	23.61
237.341	25.99
237.559	29.48
237.778	32.98
237.996	24.41
238.215	7.53
238.433	27.65
238.652	26.76
238.87	26.82
239.088	14.74
239.307	22.3
239.525	15.97
239.743	11.94
239.962	6.73
240.18	10.52
240.398	16.36
240.617	31.66
240.835	28.96
241.053	44.89
241.271	55.6
241.49	46.38
241.708	48.27
241.926	38.22
242.144	31.62
242.363	21.1
242.581	18.34
242.799	1.19
243.017	6.74
243.235	-3.04
243.453	16.6
243.672	19.64
243.89	25.13
244.108	25.76
244.326	29.16
244.544	31.86
244.762	34.97
244.98	24.15
245.198	12.93
245.416	14.55
245.634	17.2
245.852	28.91
246.07	29.26
246.288	21.57
246.506	35.89
246.724	49.53
246.942	53.43
247.16	42.25
247.378	28.48
247.596	38.78
247.814	28.81
248.032	15.22
248.25	6.75
248.468	6.03
248.685	9.49
248.903	14.52
249.121	10.22
249.339	27.71
249.557	26.2
249.775	13.23
249.992	7.03
250.21	0.05
250.428	-1.91
250.646	1.48
250.863	1.07
251.081	3.62
251.299	33.03
251.517	42.01
251.734	54.62
251.952	73.97
252.17	55.87
252.387	54.37
252.605	53.89
252.823	42.11
253.04	41.49
253.258	31.45
253.475	15.07
253.693	33.74
253.911	31.53
254.128	28.49
254.346	21.14
254.563	15.64
254.781	13.78
254.998	21.28
255.216	20.63
255.433	13.12
255.651	15.17
255.868	25.35
256.086	29.92
256.303	37.08
256.521	24.41
256.738	6.73
256.956	13.68
257.173	15.21
257.39	10.98
257.608	13.73
257.825	10.55
258.043	21.88
258.26	30.84
258.477	30.77
258.695	32.2
258.912	46.06
259.129	38.84
259.346	40.18
259.564	44.6
259.781	40.08
259.998	34.38
260.216	41.93
260.433	38.38
260.65	64.52
260.867	53.76
261.084	41.95
261.302	42.65
261.519	41.7
261.736	30.46
261.953	28.84
262.17	4.29
262.387	11.28
262.604	-1.64
262.822	-2.43
263.039	3.61
263.256	12.33
263.473	6.47
263.69	7.14
263.907	8.64
264.124	21.84
264.341	18.7
264.558	23.14
264.775	18.64
264.992	17.91
265.209	20.48
265.426	23.55
265.643	23.4
265.86	20.26
266.077	21.44
266.294	23.27
266.51	31.34
266.727	30.56
266.944	31.39
267.161	30.12
267.378	47.8
267.595	30.29
267.812	22.83
268.028	19.11
268.245	17.27
268.462	16.62
268.679	12.15
268.896	7.03
269.112	20.3
269.329	22.43
269.546	20.23
269.763	30.09
269.979	22.29
270.196	26.06
270.413	29.26
270.629	22.83
270.846	20.73
271.063	26.85
271.279	22.7
271.496	19.64
271.712	18.63
271.929	21.06
272.146	22.09
272.362	18.89
272.579	11.4
272.795	12.99
273.012	21.92
273.228	19.99
273.445	14.2
273.661	17.73
273.878	22.29
274.094	20.76
274.311	12.69
274.527	12.39
274.744	10.02
274.96	13.23
275.177	11.3
275.393	12.15
275.609	16.21
275.826	19.67
276.042	33.63
276.259	39.87
276.475	34.73
276.691	37.46
276.908	37.6
277.124	38.34
277.34	37.34
277.557	32.44
277.773	32.07
277.989	33.44
278.205	23.88
278.422	31.57
278.638	32.45
278.854	41.14
279.07	31.49
279.286	27.31
279.503	29.98
279.719	43.4
279.935	42.73
280.151	45.21
280.367	43.35
280.583	39.9
280.799	36.35
281.016	39.43
281.232	31.41
281.448	24.55
281.664	16.28
281.88	16.84
282.096	26.3
282.312	17.45
282.528	3.33
282.744	1.95
282.96	9.06
283.176	17.23
283.392	22.1
283.608	23.3
283.824	33.18
284.04	40.88
284.256	52.79
284.471	45.9
284.687	43.46
284.903	39.49
285.119	24.5
285.335	27.97
285.551	26.62
285.767	18.86
285.982	21.38
286.198	16.29
286.414	29.31
286.63	47.83
286.846	39.5
287.061	50.4
287.277	46.55
287.493	45.98
287.709	48.24
287.924	41.98
288.14	28.24
288.356	36.84
288.571	17.39
288.787	23.28
289.003	24.39
289.218	20.04
289.434	20.84
289.65	34.59
289.865	39.57
290.081	42.29
290.296	39.83
290.512	50.38
290.727	62.89
290.943	57.42
291.159	47.08
291.374	49.52
291.59	49.77
291.805	56.15
292.021	33.9
292.236	11.56
292.451	10.53
292.667	19.49
292.882	5.26
293.098	4.2
293.313	-8.74
293.529	-3.7
293.744	11.43
293.959	10.96
294.175	8.59
294.39	21.32
294.605	16.79
294.821	26.8
295.036	35.32
295.251	23.89
295.467	22.16
295.682	20.32
295.897	13.93
296.112	14.33
296.328	17.62
296.543	11.47
296.758	18.93
296.973	26.17
297.188	30.64
297.404	33.13
297.619	37.9
297.834	38.52
298.049	35.23
298.264	32.38
298.479	19.05
298.694	15.16
298.909	9.39
299.125	14.38
299.34	7.06
299.555	13.75
299.77	11.52
299.985	15
300.2	15.31
300.415	17.88
300.63	6.9
300.845	10.1
301.06	9.55
301.275	20.44
301.49	28.83
301.704	27.73
301.919	26.85
302.134	27.92
302.349	28.17
302.564	25.45
302.779	15.71
302.994	7.54
303.209	4.2
303.423	12.91
303.638	24.17
303.853	28.95
304.068	29.66
304.283	23.04
304.497	22.23
304.712	25.67
304.927	16.21
305.142	12.03
305.356	14.16
305.571	18.03
305.786	18.23
306	26.07
306.215	28.32
306.43	45.83
306.644	51.11
306.859	47.18
307.074	35.82
307.288	33.93
307.503	27.79
307.717	23.68
307.932	18.61
308.147	19.26
308.361	21.77
308.576	31.38
308.79	35.93
309.005	44.75
309.219	47.03
309.434	43.04
309.648	33.92
309.863	27.4
310.077	20.43
310.292	19.07
310.506	18.71
310.72	7.33
310.935	10.64
311.149	15.43
311.364	23.29
311.578	22.47
311.792	17.36
312.007	6.87
312.221	23.05
312.435	20.48
312.649	31.62
312.864	28.62
313.078	37.86
313.292	48.38
313.507	52.21
313.721	56.34
313.935	69.63
314.149	48.01
314.363	45.48
314.578	61.42
314.792	57.72
315.006	63.78
315.22	58.76
315.434	43.37
315.648	48.12
315.862	44.22
316.077	26.76
316.291	36.23
316.505	23.68
316.719	6.19
316.933	15.48
317.147	11.59
317.361	19.07
317.575	23.84
317.789	17.55
318.003	24.92
318.217	38.44
318.431	40.9
318.645	44.64
318.859	36.75
319.073	30.92
319.287	30.75
319.5	31.49
319.714	26.74
319.928	23.69
320.142	28.63
320.356	37.27
320.57	36.46
320.784	37.09
320.997	32.5
321.211	32.56
321.425	26.33
321.639	18.37
321.853	5.03
322.066	0.04
322.28	1.83
322.494	1.33
322.707	-1.51
322.921	0.79
323.135	11.87
323.349	16.91
323.562	29.3
323.776	23.33
323.989	25.4
324.203	33.59
324.417	28.39
324.63	13.95
324.844	15.02
325.057	19.28
325.271	10.98
325.485	12.52
325.698	14.34
325.912	24.07
326.125	34.83
326.339	36.57
326.552	37.92
326.766	48.55
326.979	50.05
327.193	43.96
327.406	51.11
327.619	31.17
327.833	31.75
328.046	13.1
328.26	2.89
328.473	-0.69
328.686	4.51
328.9	-4.52
329.113	9.6
329.326	5.06
329.54	13.62
329.753	13.58
329.966	20.16
330.179	26.35
330.393	29.84
330.606	35.98
330.819	39.01
331.032	39.77
331.246	43.08
331.459	47.33
331.672	40.58
331.885	37.86
332.098	37.4
332.311	32.07
332.525	27.79
332.738	32.66
332.951	28.49
333.164	17.07
333.377	7.64
333.59	4.68
333.803	15.8
334.016	6.7
334.229	10.85
334.442	7.64
334.655	33.92
334.868	46.66
335.081	56.02
335.294	53.43
335.507	51.27
335.72	37.45
335.933	45.09
336.146	43.59
336.359	32.99
336.572	18.64
336.785	17.1
336.997	11.94
337.21	22.57
337.423	18.06
337.636	17.28
337.849	13.29
338.062	23.46
338.274	28.57
338.487	26.04
338.7	25.29
338.913	22.09
339.125	17.58
339.338	22.66
339.551	21.81
339.763	19.58
339.976	17.98
340.189	11.61
340.402	4.48
340.614	10.31
340.827	5.87
341.039	3.81
341.252	3.24
341.465	2.38
341.677	-2.67
341.89	9.17
342.102	1.58
342.315	15.36
342.527	11.84
342.74	15.95
342.952	24.99
343.165	45.62
343.377	39.65
343.59	39.66
343.802	34.6
344.015	42.65
344.227	30.92
344.44	25.43
344.652	21.89
344.864	24.27
345.077	17.06
345.289	14.96
345.502	18.32
345.714	22.58
345.926	22.42
346.139	18.95
346.351	12.41
346.563	20.16
346.775	18.95
346.988	4.09
347.2	5.62
347.412	10.82
347.624	10.38
347.837	9.06
348.049	14.81
348.261	14.22
348.473	7.66
348.685	10.62
348.897	11.59
349.11	11.53
349.322	13.08
349.534	1.16
349.746	5.82
349.958	18.01
350.17	18.16
350.382	12.58
350.594	22.45
350.806	29.81
351.018	34.35
351.23	36.62
351.442	40.85
351.654	48.31
351.866	47.54
352.078	41.77
352.29	45.36
352.502	43.97
352.714	42.36
352.926	33.72
353.138	22.51
353.35	23.1
353.561	9.1
353.773	1.07
353.985	0.69
354.197	-3.86
354.409	1.82
354.621	9.12
354.832	4.65
355.044	18.1
355.256	20.17
355.468	22.02
355.679	28.87
355.891	24.01
356.103	23.97
356.314	28.57
356.526	27.01
356.738	24.66
356.949	24.55
357.161	14.17
357.373	12.67
357.584	17.7
357.796	13.89
358.008	17
358.219	27.64
358.431	31.07
358.642	33.63
358.854	33.91
359.065	30.11
359.277	34.71
359.488	29.46
359.7	31.87
359.911	22.86
360.123	26.67
360.334	30.43
360.546	21.75
360.757	26.01
360.969	32.23
361.18	25.9
361.391	31.91
361.603	37.92
361.814	37.43
362.025	38.99
362.237	34.55
362.448	33.02
362.659	22.54
362.871	21.92
363.082	15.89
363.293	17.94
363.504	19.5
363.716	20.9
363.927	20.71
364.138	29.88
364.349	29.88
364.56	26.64
364.772	24.81
364.983	19.99
365.194	11.95
365.405	8.78
365.616	0.05
365.827	-7.89
366.038	14.26
366.25	13.6
366.461	25.5
366.672	31.67
366.883	33.85
367.094	36.37
367.305	42.46
367.516	23.51
367.727	23.84
367.938	21.16
368.149	28.71
368.36	27.99
368.571	27.48
368.781	24.76
368.992	28.24
369.203	26.45
369.414	19.47
369.625	12.68
369.836	10.23
370.047	12.06
370.258	6.61
370.468	7.64
370.679	8.29
370.89	16.31
371.101	12.67
371.312	15.77
371.522	14.33
371.733	19.06
371.944	21.78
372.155	7.8
372.365	3.63
372.576	6.88
372.787	-1.07
372.997	-6.65
373.208	-7.32
373.419	-9.24
373.629	7.34
373.84	9.99
374.05	8.69
374.261	6.34
374.472	16.75
374.682	16.32
374.893	9.08
375.103	11.24
375.314	11.93
375.524	13.93
375.735	19.2
375.945	14.5
376.156	19.48
376.366	24.05
376.577	21.33
376.787	21.39
376.997	19.76
377.208	17.32
377.418	21.89
377.629	18.64
377.839	22.84
378.049	26.32
378.26	26.97
378.47	30.4
378.68	32.64
378.89	27.62
379.101	23.46
379.311	11.61
379.521	14.8
379.732	2.33
379.942	4.05
380.152	10.21
380.362	15.52
380.572	23.05
380.783	30.18
380.993	31.92
381.203	37.85
381.413	32.37
381.623	30.37
381.833	27.46
382.043	22.61
382.253	24.59
382.463	20.69
382.674	19.36
382.884	18.69
383.094	15.71
383.304	12.35
383.514	14.22
383.724	12.12
383.934	10
384.144	10.86
384.353	10.67
384.563	10.05
384.773	12.46
384.983	10.06
385.193	10.26
385.403	11.32
385.613	10.58
385.823	12.83
386.033	13.04
386.242	8.84
386.452	9.7
386.662	8.12
386.872	5.64
387.082	6.36
387.291	3.54
387.501	4.95
387.711	7.28
387.921	5.93
388.13	2.98
388.34	5.91
388.55	6.81
388.759	7.91
388.969	3.59
389.179	7.76
389.388	9.72
389.598	10.31
389.807	7.06
390.017	6.26
390.227	5.44
390.436	7.77
390.646	6.56
390.855	5.61
391.065	6.26
391.274	4.56
391.484	4.62
391.693	6.36
391.903	5.53
392.112	3.49
392.322	4.29
392.531	5.01
392.74	5.7
392.95	5.53
393.159	4.5
393.369	5.27
393.578	5.48
393.787	5.23
393.997	6.76
394.206	7.41
394.415	7.31
394.625	5.95
394.834	4.78
395.043	5.16
395.252	4.79
395.462	3.54
395.671	3.68
395.88	4.56
396.089	5.18
396.298	5.11
396.508	4.83
396.717	4.29
396.926	3.7
397.135	3.28
397.344	2.52
397.553	2.54
397.762	2.6
397.971	2.65
398.181	2.41
398.39	2.48
398.599	2.75
398.808	2.89
399.017	3.2
399.226	3.62
399.435	3.56
399.644	3.56
399.853	3.91
400.062	3.48
400.27	3.6
400.479	3.27
400.688	3.18
400.897	3.07
401.106	3.32
401.315	3.15
401.524	3.36
401.733	3.29
401.941	3.27
402.15	3.03
402.359	3.12
402.568	3.14
402.777	3.11
402.985	3.07
403.194	3.03
403.403	2.77
403.612	2.84
403.82	2.88
404.029	2.76
404.238	2.77
404.446	2.73
404.655	2.53
404.864	2.63
405.072	2.63
405.281	2.41
405.489	2.49
405.698	2.43
405.906	2.44
406.115	2.54
406.324	2.53
406.532	2.54
406.741	2.62
406.949	2.53
407.158	2.64
407.366	2.67
407.574	2.7
407.783	2.7
407.991	2.6
408.2	2.48
408.408	2.47
408.617	2.32
408.825	2.24
409.033	2.15
409.242	2.08
409.45	2.04
409.658	2.13
409.867	2.16
410.075	2.15
410.283	2.12
410.491	2.06
410.7	2.15
410.908	2.23
411.116	2.13
411.324	2.15
411.533	2.07
411.741	2.07
411.949	2.15
412.157	2.19
412.365	2.15
412.573	2.22
412.781	2.19
412.99	2.34
413.198	2.41
413.406	2.41
413.614	2.33
413.822	2.3
414.03	2.19
414.238	2.24
414.446	2.15
414.654	2.06
414.862	2.01
415.07	2.08
415.278	2.03
415.486	2.18
415.694	2.1
415.902	2.03
416.109	2.04
416.317	1.97
416.525	1.97
416.733	2.05
416.941	1.98
417.149	2.08
417.357	2.07
417.564	2.1
417.772	2.18
417.98	2.05
418.188	1.91
418.395	1.89
418.603	1.76
418.811	1.75
419.019	1.78
419.226	1.84
419.434	1.82
419.642	1.95
419.849	1.98
420.057	2.11
420.265	2.11
420.472	2.05
420.68	1.96
420.887	2.03
421.095	2.02
421.302	2.05
421.51	2.01
421.717	2.08
421.925	1.99
422.132	1.97
422.34	1.96
422.547	1.88
422.755	1.82
422.962	1.7
423.17	1.69
423.377	1.88
423.585	2.01
423.792	2.05
423.999	2.03
424.207	1.96
424.414	2.08
424.621	2.04
424.829	1.93
425.036	1.81
425.243	1.85
425.451	1.9
425.658	2.03
425.865	1.9
426.072	1.94
426.28	1.94
426.487	1.92
426.694	1.83
426.901	1.8
427.108	1.76
427.315	1.7
427.523	1.75
427.73	1.74
427.937	1.71
428.144	1.72
428.351	1.87
428.558	1.86
428.765	1.94
428.972	1.88
429.179	1.81
429.386	1.87
429.593	1.84
429.8	1.77
430.007	1.83
430.214	1.88
430.421	1.84
430.628	1.79
430.835	1.74
431.042	1.77
431.249	1.74
431.456	1.77
431.662	1.73
431.869	1.78
432.076	1.91
432.283	1.95
432.49	1.92
432.697	1.91
432.903	1.86
433.11	1.93
433.317	1.91
433.524	1.8
433.73	1.84
433.937	1.84
434.144	1.92
434.35	1.88
434.557	1.82
434.764	1.78
434.97	1.86
435.177	1.77
435.384	1.86
435.59	1.8
435.797	1.86
436.003	1.84
436.21	1.84
436.416	1.8
436.623	1.89
436.829	1.8
437.036	1.77
437.242	1.72
437.449	1.7
437.655	1.74
437.862	1.73
438.068	1.76
438.275	1.79
438.481	1.88
438.687	1.98
438.894	2.01
439.1	2.04
439.307	2.08
439.513	2.03
439.719	2.1
439.926	2.06
440.132	1.98
440.338	2
440.544	1.95
440.751	1.93
440.957	1.86
441.163	1.79
441.369	1.78
441.575	1.78
441.782	1.73
441.988	1.76
442.194	1.86
442.4	1.92
442.606	2
442.812	2.01
443.018	1.97
443.224	2.02
443.431	2.05
443.637	1.93
443.843	1.95
444.049	1.92
444.255	1.89
444.461	1.94
444.667	1.97
444.873	1.93
445.079	2.01
445.284	2
445.49	1.97
445.696	2.02
445.902	2.09
446.108	2.04
446.314	2.07
446.52	2.12
446.726	2.12
446.931	2.11
447.137	2.12
447.343	2.04
447.549	2.05
447.755	2.03
447.96	1.96
448.166	1.99
448.372	2.05
448.578	2.03
448.783	2.07
448.989	2.11
449.195	2.12
449.4	2.14
449.606	2.09
449.812	2.08
450.017	2.12
450.223	2.12
450.428	2.09
450.634	2.12
450.84	2.1
451.045	2.13
451.251	2.15
451.456	2.06
451.662	2.03
451.867	2.04
452.073	2.02
452.278	2.02
452.483	2.01
452.689	1.96
452.894	2.03
453.1	2.02
453.305	1.99
453.51	2
453.716	2.02
453.921	2.01
454.127	2.01
454.332	2.01
454.537	2.08
454.742	2.09
454.948	2.05
455.153	2.08
455.358	2.16
455.563	2.2
455.769	2.18
455.974	2.1
456.179	2.02
456.384	2.07
456.589	2.11
456.795	2.02
457	2
457.205	1.96
457.41	2.02
457.615	2.12
457.82	2.16
458.025	2.07
458.23	2.09
458.435	2.04
458.64	2.14
458.845	2.14
459.05	2.12
459.255	2.09
459.46	2.11
459.665	2.22
459.87	2.25
460.075	2.22
460.28	2.19
460.485	2.23
460.69	2.14
460.895	2.14
461.099	2.04
461.304	2.04
461.509	1.98
461.714	2.03
461.919	1.95
462.123	2.06
462.328	2.05
462.533	2.04
462.738	2.04
462.942	2.08
463.147	2.03
463.352	2.07
463.556	2.07
463.761	2.09
463.966	2.12
464.17	2.13
464.375	2.09
464.58	2.1
464.784	2.13
464.989	2.11
465.193	2.14
465.398	2.15
465.602	2.16
465.807	2.19
466.011	2.24
466.216	2.2
466.42	2.22
466.625	2.24
466.829	2.28
467.034	2.29
467.238	2.33
467.443	2.31
467.647	2.37
467.851	2.33
468.056	2.29
468.26	2.24
468.464	2.28
468.669	2.21
468.873	2.21
469.077	2.22
