Data from Ofra_2a_PS_1GT43_Reflection_3.txt Node
Date: Tue Jul 20 09:36:48 EDT 2021
User: Adam
Spectrometer: FLMT01687
Trigger mode: 0
Integration Time (sec): 9.450000E-1
Scans to average: 3
Electric dark correction enabled: true
Nonlinearity correction enabled: false
Boxcar width: 3
XAxis mode: Wavelengths
Number of Pixels in Spectrum: 3648
>>>>>Begin Spectral Data<<<<<
179.494	679.88
179.716	410.65
179.937	426.92
180.158	1505.86
180.38	-1207.85
180.601	-329.28
180.823	-203.22
181.044	-170.02
181.265	-271.65
181.486	-59.75
181.708	-1242.39
181.929	174.07
182.15	891.48
182.372	-144.86
182.593	-162.07
182.814	624.7
183.035	524.07
183.257	204.9
183.478	126.25
183.699	139.96
183.92	97.99
184.141	84.68
184.363	78.16
184.584	47.06
184.805	41.67
185.026	19.76
185.247	9.68
185.468	7.1
185.689	12.73
185.91	5.77
186.132	11.94
186.353	-0.6
186.574	15.37
186.795	-0.51
187.016	9.13
187.237	11.98
187.458	15.74
187.679	21.77
187.9	52.86
188.121	71.54
188.342	73.74
188.563	80.78
188.784	83.79
189.005	78.35
189.226	74.74
189.447	61.01
189.667	36.72
189.888	39.28
190.109	34.53
190.33	20.44
190.551	15.01
190.772	7.53
190.993	15.56
191.214	14.09
191.434	8.34
191.655	19.14
191.876	32.17
192.097	28.12
192.318	30.9
192.538	29.75
192.759	37.43
192.98	23.38
193.201	37.73
193.421	38.25
193.642	49.83
193.863	50.44
194.083	39.86
194.304	26.18
194.525	55.71
194.745	20.33
194.966	20.84
195.187	17.35
195.407	24.67
195.628	32.18
195.848	46.89
196.069	40.43
196.29	42.26
196.51	43.29
196.731	52.7
196.951	47.23
197.172	42.65
197.392	36.73
197.613	30.67
197.833	41.19
198.054	35.28
198.274	21.55
198.495	34.14
198.715	31.4
198.936	29.45
199.156	32.43
199.377	31.74
199.597	31.56
199.817	28.95
200.038	19.44
200.258	26.57
200.479	22.6
200.699	17.08
200.919	-3.03
201.14	-0.55
201.36	14.18
201.58	28.88
201.801	19.59
202.021	27.42
202.241	42.76
202.461	50.65
202.682	56.19
202.902	49.13
203.122	40.97
203.342	53.74
203.563	57.68
203.783	43.1
204.003	46.26
204.223	50.19
204.443	45.74
204.663	40.87
204.884	22.93
205.104	5.62
205.324	19.3
205.544	15.02
205.764	6.07
205.984	19.32
206.204	26.85
206.424	46.15
206.644	48.38
206.864	32.62
207.084	48.74
207.304	39.57
207.525	30.5
207.745	39.63
207.964	29.31
208.184	35.56
208.404	41.82
208.624	18.93
208.844	13.88
209.064	26.7
209.284	16.9
209.504	20.59
209.724	-1.91
209.944	3.78
210.164	14.13
210.384	33.62
210.604	23.98
210.823	21.96
211.043	3.41
211.263	22.45
211.483	18.4
211.703	20.53
211.922	23.27
212.142	31.49
212.362	35.58
212.582	44.4
212.801	46.54
213.021	49.17
213.241	43.37
213.461	33.48
213.68	29.65
213.9	35.13
214.12	29.83
214.339	21.22
214.559	27.8
214.779	40.11
214.998	34.07
215.218	34.21
215.438	37.74
215.657	43.01
215.877	41.22
216.096	42.36
216.316	39.48
216.535	50.09
216.755	37.71
216.974	27.76
217.194	25.62
217.413	44.43
217.633	29.74
217.852	19.85
218.072	-3.11
218.291	31.02
218.511	30.59
218.73	27.1
218.95	30.89
219.169	30.83
219.389	20.9
219.608	42.92
219.827	21.36
220.047	35.51
220.266	42.95
220.485	32.36
220.705	34.18
220.924	41.01
221.143	33.8
221.363	37.92
221.582	31.97
221.801	27.28
222.021	25.08
222.24	18.41
222.459	11.49
222.678	13.27
222.897	5.74
223.117	8.45
223.336	0.31
223.555	-13.7
223.774	3.43
223.993	22.88
224.213	15.18
224.432	40.71
224.651	35.74
224.87	50.1
225.089	63.04
225.308	49.67
225.527	51.31
225.746	58.78
225.965	41.99
226.184	45.75
226.404	41.52
226.623	40.95
226.842	43.23
227.061	36.15
227.28	38.69
227.499	41
227.718	31.98
227.936	24.61
228.155	25.54
228.374	27.37
228.593	23.57
228.812	15.38
229.031	2.53
229.25	15.01
229.469	21.82
229.688	32.09
229.907	29.58
230.125	31.16
230.344	43.05
230.563	40.46
230.782	33.11
231.001	33.44
231.22	15.62
231.438	21.79
231.657	18.01
231.876	18.54
232.095	34.39
232.313	45.45
232.532	43.96
232.751	48.98
232.969	53.67
233.188	58.19
233.407	56.99
233.625	42.48
233.844	37.34
234.063	53.95
234.281	40.56
234.5	32.36
234.719	31.74
234.937	27.3
235.156	26.23
235.374	18.23
235.593	-2.78
235.811	16.72
236.03	16.4
236.249	30.23
236.467	34.06
236.686	56.05
236.904	55.15
237.123	61.43
237.341	56.8
237.559	61.03
237.778	62.56
237.996	62.93
238.215	48.12
238.433	53.67
238.652	44.66
238.87	42.77
239.088	34.93
239.307	28.17
239.525	22.39
239.743	16.58
239.962	13.17
240.18	24.1
240.398	29.81
240.617	39.36
240.835	45.12
241.053	50.98
241.271	53.73
241.49	47.81
241.708	39.71
241.926	18.69
242.144	15.31
242.363	-1.52
242.581	-0.88
242.799	0.59
243.017	3.5
243.235	-1.34
243.453	7.51
243.672	7.95
243.89	19.83
244.108	19.72
244.326	7.86
244.544	12.48
244.762	19.66
244.98	18.16
245.198	6.02
245.416	9.28
245.634	14.52
245.852	31.6
246.07	26.99
246.288	14.76
246.506	25.95
246.724	42.32
246.942	47.19
247.16	38.4
247.378	22.49
247.596	32.73
247.814	32.61
248.032	26.51
248.25	24.16
248.468	20.31
248.685	26.57
248.903	21.71
249.121	21.43
249.339	24.91
249.557	18.07
249.775	7.99
249.992	-1.56
250.21	-3.94
250.428	0.75
250.646	-8.23
250.863	-6.83
251.081	4.16
251.299	25.52
251.517	33.44
251.734	23.7
251.952	33.06
252.17	30.46
252.387	35.72
252.605	30.96
252.823	-8.14
253.04	-11.76
253.258	-2.55
253.475	6.77
253.693	13.47
253.911	15.07
254.128	11.71
254.346	23.95
254.563	21.11
254.781	16.25
254.998	19.63
255.216	29.41
255.433	26.52
255.651	37.17
255.868	41.76
256.086	54.57
256.303	62.98
256.521	41.89
256.738	36.19
256.956	25.37
257.173	25.03
257.39	29.13
257.608	27.66
257.825	21.72
258.043	36.96
258.26	28.16
258.477	36.96
258.695	30.86
258.912	32.08
259.129	22.81
259.346	30.85
259.564	18.24
259.781	31.29
259.998	22.04
260.216	27.74
260.433	16.62
260.65	33.85
260.867	20.4
261.084	28.38
261.302	16.4
261.519	11.41
261.736	13.09
261.953	21.27
262.17	20.77
262.387	18.42
262.604	10.9
262.822	19.59
263.039	34.77
263.256	30.24
263.473	26.11
263.69	18.7
263.907	24.98
264.124	24.38
264.341	21
264.558	19.08
264.775	19.82
264.992	25.39
265.209	32.29
265.426	31
265.643	34.47
265.86	28.25
266.077	26.57
266.294	25.87
266.51	26.45
266.727	1.16
266.944	-45.82
267.161	-58.07
267.378	-56.45
267.595	-49.76
267.812	-57.56
268.028	-51.45
268.245	-25.33
268.462	21.64
268.679	25.71
268.896	26.86
269.112	26.39
269.329	36.55
269.546	31.79
269.763	34.19
269.979	31.98
270.196	29.93
270.413	28.92
270.629	33.01
270.846	33.32
271.063	35.87
271.279	32.79
271.496	25.05
271.712	24.86
271.929	32.3
272.146	28.19
272.362	12.47
272.579	9.65
272.795	3.4
273.012	7.73
273.228	14.7
273.445	17.81
273.661	12.16
273.878	22.82
274.094	25.23
274.311	29.11
274.527	25.11
274.744	20.16
274.96	5.95
275.177	14.52
275.393	14.36
275.609	14.95
275.826	15.59
276.042	25.82
276.259	30.97
276.475	35.39
276.691	31.25
276.908	27.63
277.124	23.92
277.34	22.93
277.557	24.89
277.773	15.88
277.989	17.51
278.205	10.94
278.422	16.59
278.638	25.33
278.854	29.1
279.07	19.46
279.286	20.59
279.503	19.13
279.719	34.79
279.935	22.69
280.151	24.57
280.367	20.99
280.583	22.83
280.799	30.96
281.016	33.65
281.232	21.22
281.448	16.57
281.664	13.25
281.88	18.06
282.096	19.8
282.312	10.88
282.528	-2.96
282.744	5.33
282.96	20.64
283.176	15.95
283.392	22.98
283.608	32.46
283.824	31.06
284.04	36.31
284.256	39.6
284.471	42.53
284.687	40.41
284.903	28.69
285.119	7.56
285.335	16.56
285.551	23.78
285.767	23.32
285.982	22.74
286.198	23.09
286.414	33.91
286.63	48.67
286.846	44.19
287.061	41.43
287.277	38.71
287.493	31.66
287.709	32.81
287.924	31.55
288.14	25.62
288.356	27.23
288.571	12.49
288.787	11.9
289.003	21.16
289.218	10.35
289.434	2.77
289.65	16.44
289.865	19.31
290.081	33.23
290.296	37.92
290.512	39
290.727	53.74
290.943	52.84
291.159	39.7
291.374	39.5
291.59	30.47
291.805	29.79
292.021	20.24
292.236	15.86
292.451	10.82
292.667	24.32
292.882	19.19
293.098	20.83
293.313	12.9
293.529	24.5
293.744	31.4
293.959	36.13
294.175	31.97
294.39	40.72
294.605	38.52
294.821	39.36
295.036	29.57
295.251	18.02
295.467	20.06
295.682	18.58
295.897	13.43
296.112	22.57
296.328	26.23
296.543	23.75
296.758	30.45
296.973	36.03
297.188	42.55
297.404	50.25
297.619	40.53
297.834	47.26
298.049	54.39
298.264	51.47
298.479	45.38
298.694	37.35
298.909	33.22
299.125	32.87
299.34	24.24
299.555	22.25
299.77	18.34
299.985	13.78
300.2	17.85
300.415	24.48
300.63	19.32
300.845	20.17
301.06	20.25
301.275	25.83
301.49	30.78
301.704	25.82
301.919	15.85
302.134	14.78
302.349	10.24
302.564	3.62
302.779	-1.65
302.994	2.44
303.209	2.42
303.423	16.12
303.638	30.43
303.853	36.94
304.068	40.52
304.283	29.81
304.497	25.82
304.712	32.29
304.927	20.62
305.142	15.66
305.356	21.51
305.571	28.93
305.786	39.15
306	46.12
306.215	45.73
306.43	52.9
306.644	50.47
306.859	44.75
307.074	36.93
307.288	36.15
307.503	26.39
307.717	25.58
307.932	25.64
308.147	23.19
308.361	21.92
308.576	19.7
308.79	11.52
309.005	16.62
309.219	13.5
309.434	13.52
309.648	17.88
309.863	22.11
310.077	25.49
310.292	32.05
310.506	33.67
310.72	48.74
310.935	46.71
311.149	33.99
311.364	26.95
311.578	28.29
311.792	29.3
312.007	28.22
312.221	16.05
312.435	8.61
312.649	6.39
312.864	12.76
313.078	19.66
313.292	23.49
313.507	21.73
313.721	21.8
313.935	57.42
314.149	55.41
314.363	59.25
314.578	47.78
314.792	45.16
315.006	45.81
315.22	58.12
315.434	37.73
315.648	22.24
315.862	22.03
316.077	28.74
316.291	30
316.505	29.37
316.719	6.11
316.933	7.35
317.147	10
317.361	6.8
317.575	9.57
317.789	7.73
318.003	12.49
318.217	20.27
318.431	21.64
318.645	32.23
318.859	25.23
319.073	22.99
319.287	25.76
319.5	24.38
319.714	22.82
319.928	33.6
320.142	34.92
320.356	39.4
320.57	28.45
320.784	36.83
320.997	40.86
321.211	43.68
321.425	29.91
321.639	30.98
321.853	31.31
322.066	35.7
322.28	30.24
322.494	26.06
322.707	18.37
322.921	25.77
323.135	26.48
323.349	29.95
323.562	31.8
323.776	28.47
323.989	27.11
324.203	32.62
324.417	24.09
324.63	18.87
324.844	9.04
325.057	13.2
325.271	3.93
325.485	15.33
325.698	20.89
325.912	29.15
326.125	35.46
326.339	41.29
326.552	48.61
326.766	58.98
326.979	50.06
327.193	47.14
327.406	42.01
327.619	33.67
327.833	21.74
328.046	10.59
328.26	-10.81
328.473	-9.72
328.686	-11.09
328.9	-9.59
329.113	-9.89
329.326	5.85
329.54	1.1
329.753	18.79
329.966	23.65
330.179	34.73
330.393	38.08
330.606	44.61
330.819	45.11
331.032	60.21
331.246	54.39
331.459	61
331.672	56.84
331.885	48.59
332.098	52.01
332.311	35.18
332.525	25.62
332.738	32.95
332.951	24.23
333.164	14.37
333.377	3.64
333.59	10.81
333.803	32.1
334.016	26.75
334.229	15.3
334.442	21.17
334.655	37.14
334.868	47.05
335.081	38.42
335.294	32.92
335.507	38.41
335.72	32.52
335.933	33.84
336.146	29.5
336.359	30.39
336.572	29.24
336.785	28.97
336.997	24.17
337.21	35.63
337.423	36.68
337.636	38.39
337.849	32.54
338.062	37.44
338.274	31.57
338.487	29.93
338.7	27.02
338.913	23.86
339.125	26.58
339.338	32.43
339.551	30.27
339.763	32.79
339.976	37.2
340.189	35.34
340.402	29.02
340.614	29.21
340.827	26.33
341.039	30.95
341.252	29.24
341.465	26.94
341.677	22.48
341.89	26.6
342.102	26.32
342.315	31.6
342.527	25.92
342.74	28.75
342.952	34.04
343.165	43.25
343.377	44.02
343.59	37.79
343.802	34.62
344.015	34.49
344.227	30.66
344.44	25.52
344.652	25.16
344.864	28.44
345.077	29.81
345.289	31.05
345.502	27.09
345.714	28.42
345.926	27.15
346.139	19.92
346.351	-0.85
346.563	7.27
346.775	4
346.988	1.76
347.2	6.86
347.412	6.71
347.624	16.37
347.837	30.88
348.049	28.77
348.261	31.72
348.473	31.77
348.685	29.8
348.897	33.22
349.11	25.03
349.322	19.05
349.534	18.47
349.746	16.08
349.958	20.8
350.17	23.62
350.382	13.77
350.594	15.42
350.806	15.72
351.018	14.36
351.23	13.29
351.442	14.94
351.654	16.04
351.866	30.82
352.078	29.86
352.29	35.54
352.502	39.59
352.714	39.19
352.926	38.88
353.138	41.29
353.35	29.34
353.561	24.53
353.773	23.14
353.985	24.13
354.197	24.08
354.409	29.49
354.621	29.06
354.832	28.69
355.044	36.63
355.256	34.41
355.468	26.62
355.679	29.82
355.891	23.58
356.103	22.36
356.314	27.3
356.526	17.48
356.738	12.26
356.949	28.12
357.161	23.35
357.373	27.91
357.584	35.38
357.796	32.1
358.008	37.46
358.219	48.11
358.431	38.62
358.642	41.61
358.854	34.45
359.065	27.44
359.277	27.36
359.488	21.4
359.7	13.88
359.911	13.49
360.123	14.16
360.334	15.15
360.546	6.87
360.757	12.94
360.969	27.04
361.18	35.53
361.391	34.71
361.603	43.15
361.814	48.36
362.025	52.82
362.237	54.09
362.448	45.47
362.659	32.48
362.871	32.13
363.082	31.39
363.293	33.33
363.504	31.45
363.716	27.04
363.927	27.2
364.138	32.49
364.349	36.33
364.56	35.42
364.772	35.14
364.983	36.33
365.194	39.6
365.405	41.95
365.616	48.47
365.827	50.84
366.038	48.28
366.25	42.78
366.461	38.81
366.672	39.4
366.883	47.58
367.094	44.56
367.305	40.37
367.516	36.86
367.727	34.14
367.938	42.74
368.149	40.45
368.36	27.75
368.571	24.18
368.781	15.49
368.992	16.79
369.203	15.87
369.414	4.94
369.625	4.52
369.836	5.63
370.047	7.75
370.258	12.47
370.468	10.38
370.679	14.5
370.89	24.73
371.101	21.83
371.312	20.52
371.522	22.32
371.733	12.89
371.944	14.68
372.155	4.11
372.365	0.31
372.576	4.07
372.787	7.63
372.997	8.9
373.208	20.71
373.419	23.17
373.629	40.47
373.84	38.94
374.05	39.29
374.261	35.57
374.472	33.35
374.682	30.43
374.893	20.42
375.103	18.22
375.314	14.55
375.524	14.45
375.735	11.59
375.945	13.36
376.156	12.48
376.366	17.09
376.577	9.24
376.787	12.23
376.997	12.41
377.208	11.72
377.418	9.2
377.629	12.41
377.839	21.67
378.049	31.26
378.26	35.73
378.47	37.98
378.68	38.44
378.89	32.45
379.101	25.98
379.311	16.16
379.521	13.98
379.732	2.95
379.942	4.4
380.152	20.01
380.362	30.66
380.572	39.29
380.783	40.57
380.993	41.84
381.203	45.93
381.413	43.28
381.623	37.77
381.833	29.41
382.043	26.31
382.253	26.7
382.463	25.33
382.674	26.47
382.884	20.82
383.094	15.14
383.304	16.49
383.514	15.83
383.724	14.44
383.934	11.07
384.144	12.97
384.353	14.14
384.563	11.54
384.773	14.61
384.983	14.75
385.193	17.6
385.403	20.96
385.613	15.97
385.823	16.42
386.033	18.8
386.242	16.32
386.452	17.55
386.662	18.89
386.872	16.14
387.082	15.58
387.291	15.16
387.501	16.59
387.711	14.33
387.921	10.88
388.13	7.02
388.34	6.34
388.55	7.86
388.759	6.98
388.969	3.27
389.179	6.62
389.388	8.6
389.598	6.78
389.807	6.76
390.017	8.14
390.227	8.42
390.436	7.83
390.646	7.31
390.855	6.84
391.065	8.07
391.274	7.63
391.484	6.65
391.693	7.03
391.903	8.16
392.112	7.28
392.322	8.62
392.531	8.91
392.74	9.13
392.95	9.91
393.159	9.32
393.369	9.41
393.578	10.07
393.787	8.46
393.997	9.19
394.206	9.12
394.415	8.54
394.625	7.51
394.834	7.04
395.043	6.83
395.252	8.89
395.462	8.31
395.671	8.6
395.88	8.78
396.089	9.4
396.298	9.55
396.508	9.11
396.717	7.93
396.926	7.43
397.135	7.15
397.344	6.54
397.553	6.73
397.762	6.64
397.971	6.93
398.181	6.6
398.39	7.09
398.599	7.46
398.808	7.65
399.017	7.6
399.226	7.76
399.435	7.61
399.644	7.47
399.853	7.35
400.062	6.81
400.27	7.04
400.479	6.94
400.688	6.93
400.897	7.05
401.106	7.34
401.315	7.34
401.524	7.59
401.733	7.47
401.941	7.38
402.15	7.1
402.359	6.99
402.568	6.75
402.777	6.64
402.985	6.53
403.194	6.42
403.403	6.26
403.612	6.49
403.82	6.53
404.029	6.68
404.238	6.72
404.446	6.69
404.655	6.61
404.864	6.64
405.072	6.48
405.281	6.33
405.489	6.3
405.698	6.13
405.906	6.01
406.115	6
406.324	6.02
406.532	6.02
406.741	6.04
406.949	5.9
407.158	6
407.366	6.07
407.574	6.14
407.783	6.03
407.991	5.93
408.2	5.91
408.408	5.95
408.617	5.86
408.825	5.87
409.033	5.79
409.242	5.82
409.45	5.86
409.658	5.9
409.867	5.9
410.075	5.9
410.283	5.75
410.491	5.79
410.7	5.82
410.908	5.83
411.116	5.73
411.324	5.72
411.533	5.56
411.741	5.61
411.949	5.62
412.157	5.62
412.365	5.55
412.573	5.61
412.781	5.6
412.99	5.84
413.198	5.88
413.406	5.85
413.614	5.82
413.822	5.8
414.03	5.71
414.238	5.65
414.446	5.51
414.654	5.47
414.862	5.42
415.07	5.52
415.278	5.45
415.486	5.5
415.694	5.46
415.902	5.45
416.109	5.5
416.317	5.38
416.525	5.28
416.733	5.39
416.941	5.32
417.149	5.38
417.357	5.42
417.564	5.32
417.772	5.38
417.98	5.35
418.188	5.2
418.395	5.18
418.603	5.12
418.811	5.03
419.019	5
419.226	5.04
419.434	4.99
419.642	5.06
419.849	5.06
420.057	5.14
420.265	5.16
420.472	5.21
420.68	5.16
420.887	5.17
421.095	5.17
421.302	5.17
421.51	5.17
421.717	5.23
421.925	5.19
422.132	5.18
422.34	5.18
422.547	5.1
422.755	5.08
422.962	4.91
423.17	4.77
423.377	4.76
423.585	4.67
423.792	4.6
423.999	4.6
424.207	4.59
424.414	4.7
424.621	4.75
424.829	4.73
425.036	4.79
425.243	4.87
425.451	4.93
425.658	5.06
425.865	5.03
426.072	5.08
426.28	5.13
426.487	5.19
426.694	5.18
426.901	5.08
427.108	5.03
427.315	4.93
427.523	4.86
427.73	4.85
427.937	4.84
428.144	4.84
428.351	5
428.558	4.94
428.765	5
428.972	5.05
429.179	5
429.386	5
429.593	4.97
429.8	4.93
430.007	5
430.214	5.03
430.421	4.99
430.628	4.91
430.835	4.84
431.042	4.9
431.249	4.9
431.456	4.92
431.662	4.91
431.869	5.03
432.076	5.09
432.283	5.11
432.49	5.07
432.697	5.04
432.903	5.04
433.11	5.1
433.317	5.01
433.524	5.01
433.73	5.08
433.937	5.11
434.144	5.17
434.35	5.14
434.557	5.1
434.764	5.17
434.97	5.24
435.177	5.2
435.384	5.19
435.59	5.18
435.797	5.22
436.003	5.2
436.21	5.2
436.416	5.22
436.623	5.32
436.829	5.4
437.036	5.38
437.242	5.4
437.449	5.44
437.655	5.45
437.862	5.44
438.068	5.42
438.275	5.4
438.481	5.45
438.687	5.51
438.894	5.47
439.1	5.44
439.307	5.41
439.513	5.39
439.719	5.44
439.926	5.48
440.132	5.45
440.338	5.57
440.544	5.58
440.751	5.58
440.957	5.58
441.163	5.56
441.369	5.56
441.575	5.51
441.782	5.47
441.988	5.48
442.194	5.56
442.4	5.62
442.606	5.62
442.812	5.62
443.018	5.73
443.224	5.75
443.431	5.79
443.637	5.75
443.843	5.75
444.049	5.73
444.255	5.7
444.461	5.66
444.667	5.62
444.873	5.64
445.079	5.68
445.284	5.66
445.49	5.68
445.696	5.71
445.902	5.8
446.108	5.82
446.314	5.88
446.52	5.91
446.726	5.98
446.931	6.02
447.137	6.02
447.343	5.99
447.549	6
447.755	5.9
447.96	5.89
448.166	5.82
448.372	5.87
448.578	5.91
448.783	5.86
448.989	5.89
449.195	5.96
449.4	5.97
449.606	5.98
449.812	5.95
450.017	5.93
450.223	5.97
450.428	6
450.634	5.99
450.84	6.02
451.045	6.08
451.251	6.11
451.456	6.1
451.662	6.12
451.867	6.12
452.073	6.16
452.278	6.12
452.483	6.13
452.689	6.1
452.894	6.13
453.1	6.11
453.305	6.11
453.51	6.13
453.716	6.14
453.921	6.07
454.127	6.09
454.332	6.05
454.537	6.12
454.742	6.14
454.948	6.12
455.153	6.15
455.358	6.27
455.563	6.28
455.769	6.34
455.974	6.29
456.179	6.23
456.384	6.25
456.589	6.3
456.795	6.19
457	6.21
457.205	6.2
457.41	6.21
457.615	6.35
457.82	6.35
458.025	6.36
458.23	6.42
458.435	6.35
458.64	6.4
458.845	6.42
459.05	6.37
459.255	6.36
459.46	6.3
459.665	6.36
459.87	6.43
460.075	6.4
460.28	6.4
460.485	6.41
460.69	6.39
460.895	6.48
461.099	6.48
461.304	6.42
461.509	6.42
461.714	6.46
461.919	6.43
462.123	6.52
462.328	6.48
462.533	6.5
462.738	6.53
462.942	6.62
463.147	6.63
463.352	6.67
463.556	6.66
463.761	6.71
463.966	6.69
464.17	6.75
464.375	6.67
464.58	6.63
464.784	6.65
464.989	6.65
465.193	6.67
465.398	6.65
465.602	6.71
465.807	6.78
466.011	6.82
466.216	6.85
466.42	6.91
466.625	6.91
466.829	6.99
467.034	6.98
467.238	7
467.443	7.04
467.647	7.07
467.851	7.08
468.056	7.08
468.26	7.06
468.464	7.08
468.669	7.09
468.873	7.08
469.077	7.1
