Data from Ofra_1a_PS_6CX18_Reflection_3.txt Node
Date: Tue Jul 20 10:59:09 EDT 2021
User: Adam
Spectrometer: FLMT01687
Trigger mode: 0
Integration Time (sec): 1.004000E0
Scans to average: 2
Electric dark correction enabled: true
Nonlinearity correction enabled: false
Boxcar width: 2
XAxis mode: Wavelengths
Number of Pixels in Spectrum: 3648
>>>>>Begin Spectral Data<<<<<
179.494	-469.54
179.716	-561.83
179.937	1410.37
180.158	-2426.11
180.38	269.4
180.601	77.29
180.823	4.75
181.044	-176.3
181.265	-379.71
181.486	278.21
181.708	108.58
181.929	-390.91
182.15	-147.95
182.372	528.57
182.593	432.59
182.814	-257.56
183.035	-78.41
183.257	-27.71
183.478	-48.91
183.699	-98.04
183.92	-177.49
184.141	-161.58
184.363	-114.13
184.584	-138.92
184.805	-47.81
185.026	0.74
185.247	-22.76
185.468	-60.64
185.689	-37.2
185.91	-90.26
186.132	-68.27
186.353	-41.72
186.574	-47.55
186.795	-42.81
187.016	-20.7
187.237	-34.01
187.458	-33.72
187.679	-35.57
187.9	-19.5
188.121	-31.77
188.342	12.41
188.563	16.79
188.784	45.63
189.005	36.56
189.226	33.77
189.447	17.02
189.667	9.23
189.888	-19.88
190.109	-37.5
190.33	-34.44
190.551	-46.63
190.772	-50.1
190.993	-67.91
191.214	-97.98
191.434	-117.51
191.655	-151.14
191.876	-82.2
192.097	-13.6
192.318	33.06
192.538	-8.97
192.759	-10.09
192.98	-8.97
193.201	-29.95
193.421	-59.35
193.642	-39.51
193.863	-39.1
194.083	-57.06
194.304	-30.38
194.525	-16.56
194.745	-21.9
194.966	-35.28
195.187	-33.12
195.407	-73.71
195.628	-41.21
195.848	-41.68
196.069	-31.88
196.29	-25.71
196.51	-15.39
196.731	-26.88
196.951	-39.78
197.172	-41.72
197.392	-53.7
197.613	-19.49
197.833	-50.29
198.054	-47.81
198.274	-41.7
198.495	-43
198.715	-76.66
198.936	-51.05
199.156	-51.3
199.377	-56.84
199.597	-36.26
199.817	-49.29
200.038	-65.82
200.258	-18.69
200.479	-27.3
200.699	-30.61
200.919	-9.42
201.14	-8.05
201.36	-33.27
201.58	-57.57
201.801	-103.87
202.021	-114.53
202.241	-104.58
202.461	-81.03
202.682	-62.27
202.902	-36.14
203.122	-47.3
203.342	-62.6
203.563	-56.75
203.783	-70.26
204.003	-70.25
204.223	-50.86
204.443	-38.85
204.663	-73
204.884	-43.65
205.104	-48.49
205.324	-45.05
205.544	-111.24
205.764	-76.3
205.984	-91.35
206.204	-72.73
206.424	-97.85
206.644	-74.54
206.864	-81.11
207.084	-18.8
207.304	-52.65
207.525	-28.39
207.745	-7.02
207.964	-19.27
208.184	-50.5
208.404	-38.16
208.624	-32.74
208.844	-49.46
209.064	-40.17
209.284	-29.24
209.504	-29.43
209.724	-38.77
209.944	-47.65
210.164	-34.3
210.384	-82.01
210.604	-143.08
210.823	-129.96
211.043	-106.36
211.263	-243.83
211.483	-139.53
211.703	-100.6
211.922	-137.1
212.142	-100.43
212.362	-56.71
212.582	-37.31
212.801	-26.09
213.021	-30.29
213.241	-33.52
213.461	-19.25
213.68	-34.74
213.9	-25.45
214.12	-20.95
214.339	-26.05
214.559	-25.24
214.779	-12.97
214.998	-18.85
215.218	-7.34
215.438	-7.85
215.657	-25.3
215.877	-47.81
216.096	-31.33
216.316	-43.7
216.535	-54.89
216.755	-53.03
216.974	-62.85
217.194	-79.18
217.413	-62.12
217.633	-65.73
217.852	-44.39
218.072	-20.15
218.291	-24.49
218.511	-44.11
218.73	-65.68
218.95	-108.38
219.169	-135.91
219.389	-101.33
219.608	-89.88
219.827	-56.98
220.047	-41.02
220.266	-63.13
220.485	-100.41
220.705	-98.9
220.924	-120.21
221.143	-63.07
221.363	-39.03
221.582	-29.77
221.801	-20.21
222.021	-8.95
222.24	-12.09
222.459	-1.96
222.678	19.2
222.897	12
223.117	7.16
223.336	-4.82
223.555	-0.8
223.774	-42.32
223.993	-30.6
224.213	-14.6
224.432	-22.03
224.651	-15.75
224.87	-12.44
225.089	-4.29
225.308	1.73
225.527	-8.57
225.746	-11.06
225.965	-19.1
226.184	-41.01
226.404	-60.2
226.623	-34.25
226.842	-30.34
227.061	-26.3
227.28	-3.46
227.499	1.04
227.718	0.08
227.936	-15.11
228.155	-25.02
228.374	-37.34
228.593	-28.17
228.812	-32.21
229.031	-15.13
229.25	-16.6
229.469	-25.81
229.688	-47.28
229.907	-25.28
230.125	-21.94
230.344	-12.57
230.563	-0.19
230.782	8.77
231.001	1.02
231.22	3.22
231.438	5.98
231.657	-1.57
231.876	-1.93
232.095	-4.13
232.313	-28.99
232.532	-32.38
232.751	-55.46
232.969	-52.7
233.188	-64.41
233.407	-36.92
233.625	-29.49
233.844	-16.2
234.063	-6.62
234.281	5.29
234.5	-2.37
234.719	-9.99
234.937	-40.66
235.156	-63.64
235.374	-73.26
235.593	-64.33
235.811	-53.7
236.03	-17.03
236.249	-9.57
236.467	-9.3
236.686	-28
236.904	-19.53
237.123	-28.43
237.341	-47.9
237.559	-84.93
237.778	-43.4
237.996	-96.89
238.215	-163.64
238.433	-184.56
238.652	-53.53
238.87	-81.81
239.088	-81.19
239.307	-35.63
239.525	-38.24
239.743	-64.74
239.962	-83.86
240.18	-38.6
240.398	-56.24
240.617	-54.42
240.835	-62.75
241.053	-30.12
241.271	-38.97
241.49	-9.45
241.708	-11.48
241.926	-15
242.144	-20.34
242.363	-39.28
242.581	-127.25
242.799	-131.89
243.017	-69.76
243.235	-55.68
243.453	-69.74
243.672	-27.26
243.89	-30.85
244.108	-20.74
244.326	-0.86
244.544	8.66
244.762	-7.39
244.98	-3.66
245.198	-12.8
245.416	-27.65
245.634	-27.26
245.852	-40.49
246.07	-18.28
246.288	-18.98
246.506	-20.18
246.724	-32.29
246.942	-22.27
247.16	-30.49
247.378	-73.55
247.596	-71.69
247.814	-93.36
248.032	-87.62
248.25	-35.9
248.468	2.83
248.685	7.09
248.903	4.39
249.121	11.8
249.339	3.56
249.557	4.1
249.775	8.83
249.992	14.61
250.21	-5.9
250.428	-3.48
250.646	-8.14
250.863	-30.84
251.081	-27.26
251.299	-8.24
251.517	-22.06
251.734	-18.39
251.952	-16.29
252.17	-16.56
252.387	-35.46
252.605	-23.93
252.823	-42.55
253.04	-9.41
253.258	-16.77
253.475	-2.3
253.693	-5.81
253.911	-4.68
254.128	-22.93
254.346	-13.77
254.563	1.23
254.781	-17.26
254.998	-15.61
255.216	-48.8
255.433	-80.51
255.651	-107.6
255.868	-82.54
256.086	-70.8
256.303	-42.09
256.521	-27.46
256.738	-30.07
256.956	-31.78
257.173	-51.1
257.39	-41.85
257.608	-65.68
257.825	-61.75
258.043	-55.45
258.26	-44.63
258.477	-41
258.695	-17.53
258.912	-33.57
259.129	-44.76
259.346	-58.66
259.564	-77.02
259.781	-86.02
259.998	-38.77
260.216	-9.65
260.433	-7.64
260.65	-10.53
260.867	-9.95
261.084	-8.27
261.302	-28.63
261.519	-11.75
261.736	-9.12
261.953	-12.74
262.17	-3.41
262.387	-5.79
262.604	-2.25
262.822	7.42
263.039	18.19
263.256	12.84
263.473	18.73
263.69	9.85
263.907	5.09
264.124	-8.93
264.341	-6.7
264.558	-10.98
264.775	-2.22
264.992	6.43
265.209	-12.51
265.426	-30.41
265.643	-31.36
265.86	-70.9
266.077	-100.11
266.294	-70.81
266.51	-34.49
266.727	-44.43
266.944	-25.97
267.161	-20
267.378	-16.16
267.595	-43.69
267.812	-62.87
268.028	-98.61
268.245	-93.41
268.462	-71.39
268.679	-35.13
268.896	-7.83
269.112	0.62
269.329	-26.4
269.546	-8.74
269.763	-28.3
269.979	-38.93
270.196	-19.49
270.413	-10.66
270.629	-46.88
270.846	-53.03
271.063	-44.66
271.279	-44.85
271.496	-41.8
271.712	-14.05
271.929	-7.72
272.146	-5.85
272.362	-21.85
272.579	-24.17
272.795	-37.6
273.012	-57
273.228	-44.3
273.445	-31.62
273.661	-45.48
273.878	-66.89
274.094	-52.43
274.311	-66.8
274.527	-99.34
274.744	-65.75
274.96	-37.61
275.177	-27.02
275.393	-5.67
275.609	-1.49
275.826	-2.58
276.042	1.97
276.259	-5.89
276.475	-31.17
276.691	-33.29
276.908	-43.79
277.124	-52.38
277.34	-53.23
277.557	-35.85
277.773	-31.47
277.989	-18.11
278.205	-13.33
278.422	-9.88
278.638	0.45
278.854	16.07
279.07	7.41
279.286	4.52
279.503	12.96
279.719	5.76
279.935	-8.02
280.151	-16.21
280.367	-20.28
280.583	-38.89
280.799	-42.63
281.016	-96.45
281.232	-86.34
281.448	-60.4
281.664	-41.19
281.88	-39.26
282.096	-13.71
282.312	-9.36
282.528	-21.64
282.744	-40
282.96	-50.84
283.176	-58.19
283.392	-76.57
283.608	-61.91
283.824	-83.28
284.04	-138.66
284.256	-99.15
284.471	-65.26
284.687	-67.75
284.903	-44.26
285.119	-28.44
285.335	-15.2
285.551	-31.47
285.767	-37.69
285.982	-41.81
286.198	-56.72
286.414	-37.18
286.63	-23.5
286.846	-25.9
287.061	-35.85
287.277	-5.88
287.493	-50.22
287.709	-41.55
287.924	-13.57
288.14	-2.72
288.356	6.1
288.571	12.11
288.787	-7.67
289.003	-17.86
289.218	-39.83
289.434	-53.37
289.65	-22.3
289.865	-12.4
290.081	-8.7
290.296	-0.3
290.512	-3.27
290.727	-29.97
290.943	-20.71
291.159	-22.72
291.374	-42.47
291.59	-33.39
291.805	-37.89
292.021	-45.35
292.236	-61.18
292.451	-37.67
292.667	-40.38
292.882	-17.86
293.098	-7.06
293.313	-1.34
293.529	-6.86
293.744	-25.36
293.959	-34.73
294.175	-51.53
294.39	-64.36
294.605	-34.32
294.821	-24.8
295.036	-27.99
295.251	-19.15
295.467	-30.07
295.682	-46.81
295.897	-75.06
296.112	-69.31
296.328	-50.75
296.543	-56.29
296.758	-58.82
296.973	-38.44
297.188	-44.14
297.404	-95.25
297.619	-117.14
297.834	-132.77
298.049	-102.69
298.264	-68.88
298.479	-45.1
298.694	5.32
298.909	0.99
299.125	-6.06
299.34	-12.32
299.555	-13.83
299.77	-12.49
299.985	-2.56
300.2	-0.4
300.415	-2.97
300.63	-4.52
300.845	-16.3
301.06	-8.99
301.275	1.26
301.49	7.27
301.704	5.67
301.919	-9.42
302.134	-12.4
302.349	-25.87
302.564	-38.97
302.779	-51.52
302.994	-2.8
303.209	-9.35
303.423	-12.46
303.638	1.45
303.853	-1.91
304.068	-52.58
304.283	-39.08
304.497	-38
304.712	-25.81
304.927	-22
305.142	-12.47
305.356	-5.75
305.571	-12.68
305.786	-26.73
306	-28.56
306.215	-25.66
306.43	-54.17
306.644	-50.16
306.859	-55.7
307.074	-35.18
307.288	-27.6
307.503	8.93
307.717	9.39
307.932	11.69
308.147	0.88
308.361	2.19
308.576	-29.69
308.79	-27.13
309.005	-49.27
309.219	-20.47
309.434	-7.11
309.648	-12.61
309.863	-4.29
310.077	-4.27
310.292	-13.14
310.506	-47.39
310.72	-36.96
310.935	-16.21
311.149	-5.19
311.364	-28.17
311.578	-19.38
311.792	-17.72
312.007	-64.58
312.221	-91.88
312.435	-39.96
312.649	-37.33
312.864	-25.45
313.078	-22.36
313.292	-17.37
313.507	-31.96
313.721	-18.98
313.935	-40.7
314.149	-39.55
314.363	-27.71
314.578	-20.51
314.792	-64.75
315.006	-60.37
315.22	-42.6
315.434	-51.2
315.648	-49.35
315.862	-32.78
316.077	-29.29
316.291	-23.66
316.505	-41.88
316.719	-30.46
316.933	-30.24
317.147	-23.76
317.361	-30.12
317.575	-14.21
317.789	-18.32
318.003	-12.7
318.217	-16.62
318.431	-27.17
318.645	-28.07
318.859	-21.6
319.073	-21.26
319.287	-15.41
319.5	-12.61
319.714	-25.61
319.928	-37
320.142	-45.22
320.356	-54.63
320.57	-67.79
320.784	-39.4
320.997	-55.56
321.211	-19.44
321.425	-20.89
321.639	-3.67
321.853	3.84
322.066	-5.05
322.28	-38.93
322.494	-21.51
322.707	-33.02
322.921	-59.84
323.135	-44.36
323.349	-36.42
323.562	-47.55
323.776	-45.57
323.989	-27.7
324.203	-32.29
324.417	-27.28
324.63	-43.36
324.844	-50.38
325.057	-98.83
325.271	-92.45
325.485	-100.29
325.698	-47.08
325.912	-33.03
326.125	-22.52
326.339	-12.36
326.552	-17.47
326.766	-40.58
326.979	-24.75
327.193	-23.93
327.406	-50.73
327.619	-40.1
327.833	-41.88
328.046	-52.23
328.26	-44.92
328.473	-21.82
328.686	-32.9
328.9	-19.72
329.113	-29.02
329.326	-31.62
329.54	-30.49
329.753	-11.52
329.966	-12.71
330.179	-15.91
330.393	-22.68
330.606	-32.51
330.819	-51.25
331.032	-54.49
331.246	-28.29
331.459	-13.99
331.672	-17.91
331.885	-14.5
332.098	-13.53
332.311	-22.21
332.525	-21.29
332.738	-15.95
332.951	-16.45
333.164	-9.3
333.377	-5.7
333.59	-8.99
333.803	-16.51
334.016	-9.69
334.229	-21.87
334.442	-31.61
334.655	-22.95
334.868	-22.28
335.081	-30.79
335.294	-53.19
335.507	-54.39
335.72	-54.08
335.933	-52
336.146	-57.46
336.359	-25.66
336.572	-24.17
336.785	-36.65
336.997	-59.85
337.21	-49.86
337.423	-91.54
337.636	-74.75
337.849	-56.39
338.062	-18.75
338.274	-15.75
338.487	-23.02
338.7	-40.58
338.913	-35.81
339.125	-83.05
339.338	-74.33
339.551	-54.32
339.763	-38.23
339.976	-49.73
340.189	-32.05
340.402	-10.83
340.614	-5.67
340.827	-7.02
341.039	-9.84
341.252	-10.05
341.465	-34.68
341.677	-39.83
341.89	-40.79
342.102	-24.91
342.315	-28.68
342.527	-12.25
342.74	-19.8
342.952	-31.66
343.165	-42.59
343.377	-40.35
343.59	-48.61
343.802	-37.35
344.015	-19.1
344.227	-16.9
344.44	-24.79
344.652	-25.49
344.864	-18.61
345.077	-20.95
345.289	-14.65
345.502	-12.88
345.714	-20.36
345.926	-29.59
346.139	-48.45
346.351	-50.16
346.563	-39.44
346.775	-29.12
346.988	-19.03
347.2	-21.84
347.412	-11.92
347.624	-10.22
347.837	-5.91
348.049	-14.21
348.261	-11.74
348.473	-24.8
348.685	-17.77
348.897	-31.95
349.11	-31.43
349.322	-25.24
349.534	-23.89
349.746	-30.29
349.958	-42.26
350.17	-52.82
350.382	-48.77
350.594	-30.8
350.806	-19.88
351.018	1.85
351.23	11.62
351.442	9.82
351.654	12.11
351.866	5.79
352.078	3.33
352.29	0.08
352.502	2.42
352.714	-18.1
352.926	-20.1
353.138	-11.07
353.35	-21.95
353.561	-13.88
353.773	-13.8
353.985	-1
354.197	-5
354.409	-2.55
354.621	-25.82
354.832	-31.77
355.044	-70.16
355.256	-82.63
355.468	-95.13
355.679	-49.85
355.891	-39.06
356.103	-19.72
356.314	-15.92
356.526	-29.5
356.738	-43.61
356.949	-40.15
357.161	-23.32
357.373	-24.12
357.584	-17.99
357.796	-16.09
358.008	-21.25
358.219	-26.74
358.431	-31.27
358.642	-12.96
358.854	-8.2
359.065	-6.15
359.277	-5.95
359.488	-10
359.7	-19.85
359.911	-26.1
360.123	-17.47
360.334	-42.47
360.546	-41.79
360.757	-37.14
360.969	-35.24
361.18	-45.31
361.391	-22.61
361.603	-11.04
361.814	-5.78
362.025	0.8
362.237	4.57
362.448	6.41
362.659	-2.46
362.871	-30.57
363.082	-44.67
363.293	-53.5
363.504	-71.41
363.716	-78.11
363.927	-26.47
364.138	-44.16
364.349	-72.29
364.56	-97.16
364.772	-71.19
364.983	-63.25
365.194	-40.93
365.405	-19.34
365.616	2.81
365.827	-14.17
366.038	-10.64
366.25	-1.13
366.461	0.07
366.672	-6.54
366.883	-4.1
367.094	-19.5
367.305	-42.52
367.516	-37.73
367.727	-51.96
367.938	-51.38
368.149	-70.64
368.36	-61.1
368.571	-94.69
368.781	-96.78
368.992	-83.65
369.203	-48.39
369.414	-59.15
369.625	-50.73
369.836	-9.76
370.047	-5.97
370.258	-23.54
370.468	-18.01
370.679	-13.01
370.89	-44.86
371.101	-33.2
371.312	-37.98
371.522	-40.57
371.733	-41.98
371.944	-48.68
372.155	-62.4
372.365	-49.74
372.576	-46
372.787	-28.83
372.997	-24.54
373.208	-18.4
373.419	-27.99
373.629	-29.49
373.84	-49.16
374.05	-52.13
374.261	-56.83
374.472	-45.87
374.682	-47.03
374.893	-44.54
375.103	-30.86
375.314	-30.88
375.524	-33.51
375.735	-26.38
375.945	-15.79
376.156	-28.21
376.366	-42.07
376.577	-26.81
376.787	-25.79
376.997	-21.56
377.208	-12.37
377.418	-2.09
377.629	-6.7
377.839	-3.03
378.049	-9.09
378.26	-14.42
378.47	-20.17
378.68	-17.84
378.89	-27.34
379.101	-32.77
379.311	-29.57
379.521	-32.4
379.732	-28.44
379.942	-29.83
380.152	-30.61
380.362	-30.53
380.572	-19.94
380.783	-19.4
380.993	-12.15
381.203	-15.89
381.413	-16.48
381.623	-15.13
381.833	-20.65
382.043	-26.45
382.253	-14.44
382.463	-6.96
382.674	-7.1
382.884	-0.53
383.094	-6.13
383.304	-8.22
383.514	-4
383.724	-12.26
383.934	-24.43
384.144	-11.89
384.353	-11.25
384.563	-11.53
384.773	1.46
384.983	3.82
385.193	-2.26
385.403	-6.08
385.613	-17.97
385.823	-26.36
386.033	-21.21
386.242	-18.7
386.452	-23.42
386.662	-21.89
386.872	-19.63
387.082	-27.16
387.291	-34.09
387.501	-23.84
387.711	-19.25
387.921	-18.59
388.13	-9.21
388.34	-2.29
388.55	-5.43
388.759	-9.42
388.969	-9.66
389.179	-12.45
389.388	-13.49
389.598	-17.02
389.807	-17.04
390.017	-13.33
390.227	-14.3
390.436	-11.79
390.646	-10.14
390.855	-6.21
391.065	-7.15
391.274	-5.58
391.484	-8.59
391.693	-10.15
391.903	-9.14
392.112	-9
392.322	-8.93
392.531	-6.68
392.74	-4.43
392.95	-5.04
393.159	-5.45
393.369	-4.48
393.578	-3.54
393.787	-1.53
393.997	-0.15
394.206	-0.02
394.415	0.51
394.625	-0.36
394.834	-2.66
395.043	-3.89
395.252	-1.68
395.462	-1.62
395.671	-1.08
395.88	2.08
396.089	2.86
396.298	2.15
396.508	2.78
396.717	3.46
396.926	2.09
397.135	2.78
397.344	2.42
397.553	1.99
397.762	2.42
397.971	2.44
398.181	2.13
398.39	2.13
398.599	2.58
398.808	1.58
399.017	2.53
399.226	2.16
399.435	2.61
399.644	3.34
399.853	4.1
400.062	3.4
400.27	3.43
400.479	3.15
400.688	2.43
400.897	2.11
401.106	2.32
401.315	2.36
401.524	2.62
401.733	2.54
401.941	2.78
402.15	2.7
402.359	2.99
402.568	3.11
402.777	3.32
402.985	3.06
403.194	3.36
403.403	3.43
403.612	3.2
403.82	2.84
404.029	3.12
404.238	3.06
404.446	2.92
404.655	2.94
404.864	3.32
405.072	3.37
405.281	3.27
405.489	3.4
405.698	3.57
405.906	3.46
406.115	3.35
406.324	3.41
406.532	3.31
406.741	3.19
406.949	3.24
407.158	3.37
407.366	3.38
407.574	3.53
407.783	3.67
407.991	3.62
408.2	3.75
408.408	3.71
408.617	3.57
408.825	3.41
409.033	3.39
409.242	3.29
409.45	3.36
409.658	3.38
409.867	3.35
410.075	3.38
410.283	3.27
410.491	3.06
410.7	2.99
410.908	3.1
411.116	3.18
411.324	3.09
411.533	3.13
411.741	3.17
411.949	3.15
412.157	3.02
412.365	3.07
412.573	3.13
412.781	3.15
412.99	3.13
413.198	3.22
413.406	3.36
413.614	3.36
413.822	3.36
414.03	3.48
414.238	3.49
414.446	3.42
414.654	3.38
414.862	3.21
415.07	3.03
415.278	3.1
415.486	2.87
415.694	2.96
415.902	3.02
416.109	3.12
416.317	2.98
416.525	3.06
416.733	2.93
416.941	2.99
417.149	2.9
417.357	2.96
417.564	3.01
417.772	3.06
417.98	2.95
418.188	2.84
418.395	2.53
418.603	2.47
418.811	2.48
419.019	2.57
419.226	2.65
419.434	2.82
419.642	2.68
419.849	2.63
420.057	2.56
420.265	2.59
420.472	2.58
420.68	2.85
420.887	2.87
421.095	2.97
421.302	3.05
421.51	3.11
421.717	3
421.925	3.04
422.132	2.99
422.34	2.81
422.547	2.71
422.755	2.79
422.962	2.77
423.17	2.59
423.377	2.55
423.585	2.57
423.792	2.41
423.999	2.4
424.207	2.46
424.414	2.49
424.621	2.64
424.829	2.83
425.036	2.84
425.243	3
425.451	3.16
425.658	3.03
425.865	2.95
426.072	2.98
426.28	2.94
426.487	2.79
426.694	2.83
426.901	2.93
427.108	2.85
427.315	2.74
427.523	2.77
427.73	2.75
427.937	2.55
428.144	2.51
428.351	2.53
428.558	2.54
428.765	2.55
428.972	2.61
429.179	2.61
429.386	2.78
429.593	2.72
429.8	2.7
430.007	2.78
430.214	2.8
430.421	2.8
430.628	2.88
430.835	2.76
431.042	2.7
431.249	2.76
431.456	2.72
431.662	2.91
431.869	3.2
432.076	3.3
432.283	3.51
432.49	3.49
432.697	3.4
432.903	3.27
433.11	3.41
433.317	3.32
433.524	3.36
433.73	3.39
433.937	3.54
434.144	3.3
434.35	3.2
434.557	3.23
434.764	3.22
434.97	3.02
435.177	3.19
435.384	3.3
435.59	3.35
435.797	3.48
436.003	3.71
436.21	3.59
436.416	3.59
436.623	3.6
436.829	3.46
437.036	3.32
437.242	3.47
437.449	3.47
437.655	3.51
437.862	3.5
438.068	3.56
438.275	3.61
438.481	3.71
438.687	3.69
438.894	3.88
439.1	3.83
439.307	3.85
439.513	3.76
439.719	3.77
439.926	3.79
440.132	3.93
440.338	3.8
440.544	3.84
440.751	3.82
440.957	3.78
441.163	3.66
441.369	3.8
441.575	3.72
441.782	3.79
441.988	3.77
442.194	3.89
442.4	3.8
442.606	3.95
442.812	3.99
443.018	3.96
443.224	4.07
443.431	4.14
443.637	4.13
443.843	4.11
444.049	4.18
444.255	4.05
444.461	3.94
444.667	3.96
444.873	3.98
445.079	4.03
445.284	3.99
445.49	4.07
445.696	4
445.902	3.97
446.108	3.98
446.314	4.03
446.52	4.07
446.726	4.18
446.931	4.12
447.137	4.09
447.343	4.22
447.549	4.22
447.755	4.14
447.96	4.21
448.166	4.16
448.372	4.12
448.578	4.04
448.783	4.04
448.989	4.11
449.195	4.13
449.4	4.07
449.606	4.15
449.812	4.09
450.017	4.07
450.223	4.07
450.428	4.15
450.634	4.08
450.84	4.14
451.045	4.17
451.251	4.21
451.456	4.16
451.662	4.25
451.867	4.32
452.073	4.34
452.278	4.3
452.483	4.39
452.689	4.46
452.894	4.52
453.1	4.5
453.305	4.61
453.51	4.59
453.716	4.5
453.921	4.42
454.127	4.41
454.332	4.38
454.537	4.3
454.742	4.32
454.948	4.4
455.153	4.46
455.358	4.46
455.563	4.65
455.769	4.7
455.974	4.68
456.179	4.65
456.384	4.58
456.589	4.45
456.795	4.45
457	4.52
457.205	4.45
