Data from Ofra_1a_PS_6CX18_Reflection_2.txt Node
Date: Tue Jul 20 10:58:59 EDT 2021
User: Adam
Spectrometer: FLMT01687
Trigger mode: 0
Integration Time (sec): 1.004000E0
Scans to average: 2
Electric dark correction enabled: true
Nonlinearity correction enabled: false
Boxcar width: 2
XAxis mode: Wavelengths
Number of Pixels in Spectrum: 3648
>>>>>Begin Spectral Data<<<<<
179.494	-448.22
179.716	-593.89
179.937	1011.04
180.158	-1443.95
180.38	203.75
180.601	30.72
180.823	-60.36
181.044	-69.9
181.265	-366.83
181.486	219.63
181.708	49.54
181.929	7300
182.15	-109.87
182.372	939.41
182.593	203.62
182.814	-52.8
183.035	50.86
183.257	62.73
183.478	29.36
183.699	-39.38
183.92	-90.7
184.141	-122.2
184.363	-99.65
184.584	-118.96
184.805	-36.36
185.026	12.49
185.247	20.75
185.468	-11.6
185.689	18.44
185.91	-12.89
186.132	-8.14
186.353	-8.58
186.574	-7.48
186.795	-25.6
187.016	-0.42
187.237	-21.72
187.458	-26.58
187.679	-12
187.9	6.24
188.121	9.55
188.342	7.14
188.563	-3.6
188.784	1.3
189.005	-2.8
189.226	14.54
189.447	14.54
189.667	14.84
189.888	11.65
190.109	-8.81
190.33	-20.45
190.551	-14.26
190.772	-15.26
190.993	-37.43
191.214	-59.38
191.434	-83.6
191.655	-156.55
191.876	-83.7
192.097	-19.96
192.318	9.7
192.538	-28.26
192.759	-10.91
192.98	-4.43
193.201	-4.48
193.421	-1.43
193.642	13.62
193.863	4.29
194.083	-6.23
194.304	-23.22
194.525	-5.04
194.745	-9.96
194.966	-5.79
195.187	-4.28
195.407	-21.32
195.628	-15.37
195.848	-19.38
196.069	-33.22
196.29	-25.59
196.51	-33.47
196.731	-57.18
196.951	-78.2
197.172	-35.19
197.392	-38.63
197.613	2.37
197.833	-5.21
198.054	1.46
198.274	0.45
198.495	7.42
198.715	-4.51
198.936	15.71
199.156	25.73
199.377	21.53
199.597	5.98
199.817	7.95
200.038	-35.11
200.258	-19.67
200.479	-46.78
200.699	-28.62
200.919	-29.44
201.14	-9.23
201.36	-16.33
201.58	-0.75
201.801	-9.69
202.021	-28.81
202.241	-24.57
202.461	-23.09
202.682	-4.38
202.902	7.77
203.122	23.95
203.342	29.99
203.563	18.43
203.783	4.95
204.003	-28.18
204.223	-14.3
204.443	-12.9
204.663	-22.34
204.884	22.61
205.104	44.79
205.324	72.84
205.544	32.97
205.764	52.42
205.984	7.99
206.204	33.89
206.424	-6.98
206.644	-21.6
206.864	-60.87
207.084	-23.42
207.304	-69.67
207.525	-63.38
207.745	-18.96
207.964	-5.49
208.184	-18.11
208.404	-5.8
208.624	19.17
208.844	0.43
209.064	2.34
209.284	-0.55
209.504	-3.74
209.724	-21.54
209.944	-30.95
210.164	-19.24
210.384	-25.77
210.604	-60.1
210.823	-100.32
211.043	-71.66
211.263	-184.81
211.483	-102.09
211.703	-59.56
211.922	-31.63
212.142	24.94
212.362	46.58
212.582	30.76
212.801	22.71
213.021	9.45
213.241	-16.95
213.461	-17.5
213.68	-2.46
213.9	10
214.12	7.52
214.339	-9.09
214.559	-7.82
214.779	0.52
214.998	-5.73
215.218	-3.82
215.438	6.87
215.657	-4.72
215.877	-30.02
216.096	-18.64
216.316	-29.01
216.535	-49.09
216.755	-36.96
216.974	-36.34
217.194	-45.1
217.413	-36.2
217.633	-16.72
217.852	-11.16
218.072	3.23
218.291	17.61
218.511	22.13
218.73	8.78
218.95	-11.12
219.169	-49.22
219.389	-52.97
219.608	-63.32
219.827	-47.88
220.047	-38.66
220.266	-71.77
220.485	-95.66
220.705	-83.74
220.924	-78.25
221.143	-14.79
221.363	8.11
221.582	10.06
221.801	28.71
222.021	9.64
222.24	-22.2
222.459	-0.82
222.678	0.84
222.897	-11.87
223.117	8.23
223.336	27.11
223.555	16.68
223.774	28.76
223.993	27.08
224.213	27.29
224.432	3.32
224.651	10.12
224.87	-3.31
225.089	-6.39
225.308	-1.79
225.527	-8.48
225.746	-33.95
225.965	-37.4
226.184	-26.77
226.404	-43.74
226.623	-17.62
226.842	-7.03
227.061	0.19
227.28	6.68
227.499	13.92
227.718	8.03
227.936	13.65
228.155	8.28
228.374	-11.83
228.593	-24.33
228.812	-37.12
229.031	-37.4
229.25	-33.21
229.469	-27
229.688	-9.91
229.907	19.54
230.125	21.38
230.344	22.23
230.563	24.97
230.782	32.11
231.001	9.7
231.22	12.28
231.438	18.8
231.657	26.47
231.876	12.76
232.095	25.54
232.313	14.56
232.532	7.46
232.751	-14.79
232.969	2.36
233.188	-2.7
233.407	9.9
233.625	22.6
233.844	17.83
234.063	-3.51
234.281	-3.96
234.5	-7.68
234.719	-20.14
234.937	-37.24
235.156	-32.95
235.374	-35.97
235.593	-28.28
235.811	-18.53
236.03	8.5
236.249	8.86
236.467	13.6
236.686	3.65
236.904	10.48
237.123	-5.59
237.341	-8.08
237.559	-33.31
237.778	7.71
237.996	-24.75
238.215	-66.46
238.433	-99.92
238.652	-18.33
238.87	-67.1
239.088	-40.81
239.307	-9.48
239.525	-15.52
239.743	-36.71
239.962	-59.22
240.18	-55.13
240.398	-63.38
240.617	-58.75
240.835	-63.75
241.053	-19.32
241.271	-4.1
241.49	4.01
241.708	-4.35
241.926	-5.77
242.144	-16.84
242.363	-44.62
242.581	-81.24
242.799	-99.93
243.017	-54.18
243.235	-28.82
243.453	-45.99
243.672	-34.94
243.89	-11.62
244.108	-9.39
244.326	10.52
244.544	23.87
244.762	7.73
244.98	15.08
245.198	12.48
245.416	-4.22
245.634	-8.63
245.852	-13.87
246.07	-8.75
246.288	-5.58
246.506	-15.02
246.724	-12.58
246.942	-6.53
247.16	-22.2
247.378	-52.54
247.596	-43.72
247.814	-64.36
248.032	-56.04
248.25	-9.95
248.468	6.86
248.685	8.85
248.903	3.92
249.121	9.85
249.339	1.12
249.557	6.51
249.775	9.07
249.992	7.05
250.21	3.01
250.428	13.25
250.646	8.24
250.863	-13.46
251.081	-0.3
251.299	10.49
251.517	-2.09
251.734	-1.21
251.952	11.24
252.17	13.87
252.387	-16.88
252.605	-24.03
252.823	-50.23
253.04	-18
253.258	-22.45
253.475	1.63
253.693	-3.87
253.911	-10.98
254.128	-30.69
254.346	-25.78
254.563	-9.9
254.781	-5.16
254.998	-9.05
255.216	-47.36
255.433	-64.19
255.651	-64.13
255.868	-57.98
256.086	-16.65
256.303	3.34
256.521	10.77
256.738	12.38
256.956	8.84
257.173	-15.67
257.39	-2.38
257.608	-10.45
257.825	-14.31
258.043	8.32
258.26	11.26
258.477	8.37
258.695	17.34
258.912	6.21
259.129	-24.82
259.346	-37.31
259.564	-56.09
259.781	-67.49
259.998	-21.96
260.216	12.96
260.433	17.84
260.65	23.6
260.867	34.15
261.084	18.05
261.302	-3
261.519	-2.45
261.736	-13.12
261.953	-7.8
262.17	10.7
262.387	10.14
262.604	6.74
262.822	20.79
263.039	22.92
263.256	14.83
263.473	14.28
263.69	11.84
263.907	14.74
264.124	-0.17
264.341	1.79
264.558	-6.1
264.775	0.19
264.992	-4.38
265.209	-12.22
265.426	-23.11
265.643	-3.2
265.86	-2.08
266.077	-24.38
266.294	0.81
266.51	16.32
266.727	8.96
266.944	12.6
267.161	22.55
267.378	21.08
267.595	-1.74
267.812	3.52
268.028	-6.65
268.245	1.86
268.462	-2.93
268.679	13.88
268.896	5.83
269.112	8.29
269.329	-22.25
269.546	-4.72
269.763	-6.36
269.979	-10.62
270.196	-0.63
270.413	13.87
270.629	-7.98
270.846	-13.32
271.063	-8.75
271.279	-12.48
271.496	-43.74
271.712	-37.85
271.929	-27.83
272.146	-30.59
272.362	-33.65
272.579	-9.53
272.795	-14.29
273.012	8.37
273.228	17.86
273.445	8.75
273.661	1.62
273.878	-3.06
274.094	-18.59
274.311	-22.62
274.527	-31.39
274.744	6.7
274.96	10.64
275.177	12.82
275.393	14.88
275.609	26.54
275.826	2.67
276.042	-0.71
276.259	1.58
276.475	-17.04
276.691	-17.62
276.908	-1.17
277.124	11.29
277.34	10.31
277.557	14.85
277.773	-3.17
277.989	-8.33
278.205	-12.1
278.422	-4.81
278.638	-5.37
278.854	-16.28
279.07	3.98
279.286	5.23
279.503	-6.21
279.719	5
279.935	13.14
280.151	-5.57
280.367	-2.25
280.583	-3.95
280.799	-14.83
281.016	-40.34
281.232	-18.42
281.448	-17.77
281.664	-18.06
281.88	-3
282.096	1.94
282.312	-2.59
282.528	-8.96
282.744	-10.94
282.96	-35.89
283.176	-49.07
283.392	-100.97
283.608	-99.33
283.824	-90.86
284.04	-137.71
284.256	-54.49
284.471	-22.79
284.687	-9.4
284.903	-12.42
285.119	15.85
285.335	12.39
285.551	12.9
285.767	0.76
285.982	6.54
286.198	-20.82
286.414	-36.36
286.63	-61.04
286.846	-18.61
287.061	2.04
287.277	-1.99
287.493	8.41
287.709	4.04
287.924	-0.19
288.14	-12.17
288.356	1.75
288.571	-5.43
288.787	-2.96
289.003	12.1
289.218	-6.07
289.434	-6.18
289.65	20.17
289.865	17.28
290.081	11.94
290.296	36.24
290.512	29.57
290.727	0.14
290.943	2.86
291.159	-12.58
291.374	-49.21
291.59	-41.72
291.805	-54.09
292.021	-39.09
292.236	-44.05
292.451	-19.95
292.667	-22.17
292.882	10.72
293.098	-0.36
293.313	3.82
293.529	0.69
293.744	-4.4
293.959	-6.7
294.175	-5.34
294.39	-12.92
294.605	4.33
294.821	8.21
295.036	-2.36
295.251	-0.79
295.467	-1.74
295.682	-16.68
295.897	-21.25
296.112	-18.43
296.328	-20.07
296.543	-31.46
296.758	-20.42
296.973	-9.45
297.188	-7.23
297.404	-28.74
297.619	-16.37
297.834	-53.09
298.049	-46.73
298.264	-37.27
298.479	-19.2
298.694	6.29
298.909	17.18
299.125	9.09
299.34	10.77
299.555	9.74
299.77	20.39
299.985	19.16
300.2	16.48
300.415	6.71
300.63	13.44
300.845	-6.6
301.06	-3.06
301.275	0.35
301.49	3.84
301.704	-12.49
301.919	-6.17
302.134	-15.65
302.349	-5.67
302.564	-4.81
302.779	-3.64
302.994	-0.15
303.209	0.53
303.423	-7.79
303.638	10.7
303.853	-10.14
304.068	-31.11
304.283	-26.33
304.497	-37.88
304.712	-15.54
304.927	8.76
305.142	23.37
305.356	35.01
305.571	40.61
305.786	26.83
306	27.05
306.215	5.29
306.43	-8.91
306.644	-13.61
306.859	-37.68
307.074	-33.59
307.288	-6.22
307.503	3.27
307.717	-5.63
307.932	14.29
308.147	10.23
308.361	10.39
308.576	0.4
308.79	8.76
309.005	-16.85
309.219	3.84
309.434	-2.65
309.648	-7.84
309.863	5.38
310.077	10.05
310.292	4.26
310.506	-4.56
310.72	-0.77
310.935	-3.45
311.149	1.77
311.364	8.04
311.578	6.51
311.792	3.51
312.007	-20.51
312.221	-51.76
312.435	-36.01
312.649	-12.12
312.864	-7.69
313.078	9.22
313.292	23.05
313.507	16.19
313.721	3.65
313.935	1.13
314.149	0.87
314.363	16.55
314.578	21.71
314.792	5.26
315.006	11.13
315.22	14.38
315.434	-2.78
315.648	-11.67
315.862	9
316.077	5.1
316.291	-5.97
316.505	-36.96
316.719	-30.36
316.933	-29.22
317.147	-13.35
317.361	-11.25
317.575	7.48
317.789	21.28
318.003	17.33
318.217	10.49
318.431	0.78
318.645	3.64
318.859	6.49
319.073	9.14
319.287	2.75
319.5	9.19
319.714	-3.05
319.928	-11.57
320.142	-15.22
320.356	2.77
320.57	-14.1
320.784	8.01
320.997	6.77
321.211	13.8
321.425	-33.53
321.639	-4.79
321.853	1.66
322.066	-13.68
322.28	-30.05
322.494	-1.01
322.707	-8.71
322.921	-13.85
323.135	4.74
323.349	7.11
323.562	10.04
323.776	17.81
323.989	26.32
324.203	8.86
324.417	9.87
324.63	-5.05
324.844	-31.93
325.057	-80.96
325.271	-69.31
325.485	-62.55
325.698	-27.58
325.912	5.64
326.125	16.25
326.339	22.44
326.552	5.67
326.766	0.19
326.979	1.86
327.193	9.49
327.406	-0.74
327.619	29.66
327.833	7.29
328.046	1.47
328.26	-10.82
328.473	-1.49
328.686	-14.99
328.9	6.52
329.113	6.8
329.326	1.83
329.54	3.24
329.753	8.65
329.966	2.66
330.179	-1.85
330.393	1.65
330.606	4.31
330.819	-5.36
331.032	-5.49
331.246	-0.25
331.459	16.12
331.672	9.78
331.885	14.79
332.098	10.86
332.311	-3.17
332.525	-5.93
332.738	-2.91
332.951	-22.92
333.164	-11.99
333.377	-12.08
333.59	-18.29
333.803	-22.53
334.016	-7.44
334.229	-7.93
334.442	-11.37
334.655	-6.76
334.868	-5.27
335.081	-2.32
335.294	-19.42
335.507	-0.66
335.72	0.32
335.933	-8.05
336.146	-13.17
336.359	2.04
336.572	-9.16
336.785	-31.23
336.997	-35.79
337.21	-23.12
337.423	-48.67
337.636	-36.86
337.849	-18.75
338.062	3.41
338.274	0.67
338.487	-3.31
338.7	-21.86
338.913	-1.32
339.125	-28.66
339.338	-21.67
339.551	-3.43
339.763	18.78
339.976	1.37
340.189	8.13
340.402	9.51
340.614	2.64
340.827	1.88
341.039	1.1
341.252	2.27
341.465	2.95
341.677	4.96
341.89	-8.2
342.102	-8.58
342.315	-12.69
342.527	-6.79
342.74	-16.27
342.952	-2.5
343.165	-2.36
343.377	7.08
343.59	10.3
343.802	22.69
344.015	25.65
344.227	33.83
344.44	20.34
344.652	21.01
344.864	16.3
345.077	9.92
345.289	-0.57
345.502	22.63
345.714	17.15
345.926	12.54
346.139	-2.08
346.351	21.29
346.563	11.39
346.775	3.08
346.988	17.86
347.2	15.02
347.412	16.2
347.624	5.37
347.837	9.41
348.049	-5.33
348.261	-12.22
348.473	-33.72
348.685	-28.34
348.897	-45.63
349.11	-30.87
349.322	-17.36
349.534	-17.16
349.746	-15.8
349.958	-13.14
350.17	-19.78
350.382	-9.2
350.594	-4.23
350.806	14.12
351.018	18.76
351.23	23.35
351.442	24.63
351.654	19.62
351.866	-4.06
352.078	-0.37
352.29	-5.51
352.502	-21.45
352.714	-19.72
352.926	2.62
353.138	0.77
353.35	-3.34
353.561	6.6
353.773	2.12
353.985	5.97
354.197	9.57
354.409	2.52
354.621	-5.63
354.832	0.62
355.044	-27.92
355.256	-43.65
355.468	-36.6
355.679	-7.23
355.891	-10.09
356.103	-1.89
356.314	2.48
356.526	-5.67
356.738	-23.2
356.949	-18.55
357.161	10.3
357.373	14.11
357.584	20.03
357.796	22.65
358.008	27.1
358.219	22.95
358.431	12.19
358.642	24.07
358.854	32.99
359.065	16.81
359.277	4.02
359.488	-1.45
359.7	-10.32
359.911	-34.25
360.123	-14.71
360.334	-21.63
360.546	-18.61
360.757	-18.6
360.969	-8.82
361.18	-14.41
361.391	-5.55
361.603	5.04
361.814	13.41
362.025	24.98
362.237	17.03
362.448	18.29
362.659	20.19
362.871	-2.57
363.082	-11.52
363.293	-17.13
363.504	-42.45
363.716	-55.83
363.927	-4.14
364.138	-25.12
364.349	-26.43
364.56	-36.22
364.772	-25.29
364.983	-35.32
365.194	-27.72
365.405	-23.21
365.616	9.62
365.827	6.39
366.038	17.12
366.25	22.45
366.461	20.92
366.672	12.15
366.883	5.19
367.094	-13.04
367.305	-15.69
367.516	-7.55
367.727	-31.09
367.938	-20.63
368.149	-22.46
368.36	-30.99
368.571	-52.2
368.781	-39.58
368.992	-43.06
369.203	-33.42
369.414	-39.32
369.625	-28.77
369.836	-4.08
370.047	-3.65
370.258	4
370.468	9.82
370.679	10.32
370.89	0.18
371.101	14.7
371.312	-2.33
371.522	5.02
371.733	-5.98
371.944	-9.1
372.155	0.33
372.365	1.76
372.576	-11.93
372.787	12.26
372.997	10.63
373.208	-13.6
373.419	-10.55
373.629	-9.89
373.84	-22.46
374.05	-29.76
374.261	-41.76
374.472	-30.58
374.682	-16.65
374.893	-23.96
375.103	-6.06
375.314	3.9
375.524	1.18
375.735	6.1
375.945	8.73
376.156	0.58
376.366	-3.03
376.577	2.89
376.787	-3.1
376.997	-5.02
377.208	4.28
377.418	5.19
377.629	1.89
377.839	2.01
378.049	9.43
378.26	-2.16
378.47	11.74
378.68	7.46
378.89	7.52
379.101	-3.33
379.311	-7.45
379.521	-24.99
379.732	-23.6
379.942	-29.27
380.152	-29.03
380.362	-23.44
380.572	-4.73
380.783	6.14
380.993	17.9
381.203	18.51
381.413	22.29
381.623	15.28
381.833	12.39
382.043	4.51
382.253	5.08
382.463	13.94
382.674	22.81
382.884	19.76
383.094	20.8
383.304	25.9
383.514	20.57
383.724	11.84
383.934	1.99
384.144	0.23
384.353	-5.45
384.563	-1.79
384.773	3.95
384.983	7.03
385.193	6.86
385.403	7.82
385.613	-0.56
385.823	-3.09
386.033	-3.41
386.242	-4.94
386.452	-4.48
386.662	-3.48
386.872	0.56
387.082	-2.58
387.291	-6.21
387.501	-3.52
387.711	4.08
387.921	-3.77
388.13	-1.02
388.34	1.14
388.55	-8.61
388.759	-18.16
388.969	-15.91
389.179	-11.61
389.388	-9.97
389.598	-5.02
389.807	-7.38
390.017	-6.94
390.227	-10.97
390.436	-9.68
390.646	-5.38
390.855	-2.23
391.065	-2
391.274	0.72
391.484	0
391.693	-3.44
391.903	-2.36
392.112	-2.23
392.322	-2.4
392.531	0.55
392.74	1.11
392.95	2.88
393.159	3.81
393.369	2.78
393.578	0.29
393.787	-0.58
393.997	0.22
394.206	0.54
394.415	1.97
394.625	1.68
394.834	1.05
395.043	0.12
395.252	1.15
395.462	1.51
395.671	2.89
395.88	5.22
396.089	4.53
396.298	4.08
396.508	4.24
396.717	4.43
396.926	3.32
397.135	3.73
397.344	3.06
397.553	2.56
397.762	3.73
397.971	3.82
398.181	3.96
398.39	4.29
398.599	4.39
398.808	3.75
399.017	4.55
399.226	4.57
399.435	4.71
399.644	5.16
399.853	5.11
400.062	4.71
400.27	4.52
400.479	4.45
400.688	4.31
400.897	4.01
401.106	4.31
401.315	4.41
401.524	4.43
401.733	4.16
401.941	4.55
402.15	4.52
402.359	4.71
402.568	4.69
402.777	5.04
402.985	4.83
403.194	4.68
403.403	4.54
403.612	4.46
403.82	4.05
404.029	4.06
404.238	3.99
404.446	4.14
404.655	4.24
404.864	4.46
405.072	4.45
405.281	4.41
405.489	4.11
405.698	4.09
405.906	4.12
406.115	4.16
406.324	4.37
406.532	4.56
406.741	4.54
406.949	4.46
407.158	4.45
407.366	4.17
407.574	4.2
407.783	4.24
407.991	4.23
408.2	4.41
408.408	4.53
408.617	4.41
408.825	4.3
409.033	4.3
409.242	4.11
409.45	4.14
409.658	4.18
409.867	4.28
410.075	4.33
410.283	4.23
410.491	4.13
410.7	4.04
410.908	4.15
411.116	4.24
411.324	4.3
411.533	4.33
411.741	4.29
411.949	4.22
412.157	4.01
412.365	4.1
412.573	4.07
412.781	4.18
412.99	4.08
413.198	4.24
413.406	4.32
413.614	4.49
413.822	4.48
414.03	4.46
414.238	4.29
414.446	4.2
414.654	3.98
414.862	4.03
415.07	4.01
415.278	4.22
415.486	3.97
415.694	4.05
415.902	3.96
416.109	3.88
416.317	3.8
416.525	3.87
416.733	3.74
416.941	3.66
417.149	3.65
417.357	3.6
417.564	3.65
417.772	3.82
417.98	3.88
418.188	3.89
418.395	3.73
418.603	3.62
418.811	3.44
419.019	3.44
419.226	3.54
419.434	3.65
419.642	3.66
419.849	3.71
420.057	3.75
420.265	3.74
420.472	3.64
420.68	3.74
420.887	3.65
421.095	3.56
421.302	3.59
421.51	3.65
421.717	3.58
421.925	3.58
422.132	3.69
422.34	3.52
422.547	3.43
422.755	3.59
422.962	3.78
423.17	3.56
423.377	3.63
423.585	3.84
423.792	3.68
423.999	3.7
424.207	3.88
424.414	3.82
424.621	3.83
424.829	3.82
425.036	3.64
425.243	3.73
425.451	3.88
425.658	3.59
425.865	3.51
426.072	3.55
426.28	3.5
426.487	3.41
426.694	3.43
426.901	3.62
427.108	3.65
427.315	3.49
427.523	3.49
427.73	3.61
427.937	3.46
428.144	3.48
428.351	3.45
428.558	3.51
428.765	3.56
428.972	3.54
429.179	3.37
429.386	3.43
429.593	3.3
429.8	3.28
430.007	3.37
430.214	3.64
430.421	3.74
430.628	3.88
430.835	3.73
431.042	3.69
431.249	3.65
431.456	3.63
431.662	3.7
431.869	4.11
432.076	4.27
432.283	4.38
432.49	4.41
432.697	4.34
432.903	4.12
433.11	4.14
433.317	4.07
433.524	4.1
433.73	3.99
433.937	3.99
434.144	3.86
434.35	3.78
434.557	3.82
434.764	3.91
434.97	3.81
435.177	4.01
435.384	4.16
435.59	4.2
435.797	4.32
436.003	4.48
436.21	4.31
436.416	4.35
436.623	4.29
436.829	4.28
437.036	4.22
437.242	4.46
437.449	4.4
437.655	4.46
437.862	4.53
438.068	4.55
438.275	4.58
438.481	4.57
438.687	4.49
438.894	4.63
439.1	4.58
439.307	4.55
439.513	4.7
439.719	4.81
439.926	4.65
440.132	4.82
440.338	4.66
440.544	4.58
440.751	4.6
440.957	4.7
441.163	4.49
441.369	4.57
441.575	4.55
441.782	4.59
441.988	4.55
442.194	4.68
442.4	4.73
442.606	4.8
442.812	4.84
443.018	4.88
443.224	4.98
443.431	4.96
443.637	4.91
443.843	4.87
444.049	4.88
444.255	4.87
444.461	4.9
444.667	4.88
444.873	4.81
445.079	4.76
445.284	4.7
445.49	4.59
445.696	4.62
445.902	4.7
446.108	4.73
446.314	4.74
446.52	4.97
446.726	4.99
446.931	4.99
447.137	5
447.343	5.16
447.549	5.16
447.755	5.17
447.96	5.17
448.166	5.15
448.372	5.05
448.578	4.92
448.783	4.98
448.989	5.04
449.195	5.18
449.4	5.28
449.606	5.38
449.812	5.36
450.017	5.38
450.223	5.28
450.428	5.23
450.634	5.2
450.84	5.2
451.045	5.2
451.251	5.27
451.456	5.3
451.662	5.36
451.867	5.41
452.073	5.42
452.278	5.4
452.483	5.42
452.689	5.45
452.894	5.55
453.1	5.52
453.305	5.6
453.51	5.58
453.716	5.47
453.921	5.41
454.127	5.36
454.332	5.33
454.537	5.37
454.742	5.4
454.948	5.27
455.153	5.38
455.358	5.38
455.563	5.48
455.769	5.6
455.974	5.7
456.179	5.7
456.384	5.72
456.589	5.52
456.795	5.46
457	5.48
457.205	5.44
457.41	5.46
457.615	5.49
457.82	5.59
458.025	5.59
458.23	5.59
458.435	5.64
458.64	5.65
458.845	5.63
459.05	5.75
459.255	5.82
459.46	5.74
459.665	5.77
459.87	5.73
460.075	5.67
460.28	5.69
460.485	5.83
460.69	5.85
460.895	5.91
461.099	5.81
461.304	5.74
461.509	5.67
461.714	5.79
461.919	5.76
462.123	5.9
462.328	5.88
462.533	5.85
462.738	5.75
462.942	5.76
463.147	5.72
463.352	5.85
463.556	5.88
463.761	5.9
463.966	5.91
464.17	6
464.375	6.01
464.58	6
464.784	5.99
464.989	6.07
465.193	5.96
465.398	5.96
465.602	6.2
465.807	6.27
