Data from Ofra_PS_T2_2A_0GT05_Reflection_3.txt Node
Date: Wed Jul 21 16:52:46 EDT 2021
User: Adam
Spectrometer: FLMT01687
Trigger mode: 0
Integration Time (sec): 1.100000E0
Scans to average: 2
Electric dark correction enabled: true
Nonlinearity correction enabled: false
Boxcar width: 2
XAxis mode: Wavelengths
Number of Pixels in Spectrum: 3648
>>>>>Begin Spectral Data<<<<<
179.494	472.2
179.716	528.71
179.937	513.96
180.158	496.31
180.38	749.53
180.601	331.08
180.823	111.06
181.044	32.35
181.265	129.6
181.486	57.71
181.708	81.58
181.929	120.92
182.15	110.92
182.372	147.21
182.593	15.94
182.814	8.91
183.035	23.09
183.257	0.98
183.478	-100.05
183.699	-42.43
183.92	-53.01
184.141	-67.82
184.363	-113.3
184.584	-36.73
184.805	-35.96
185.026	-1.85
185.247	6.81
185.468	-5.21
185.689	-17.76
185.91	8.26
186.132	3.65
186.353	2.57
186.574	50.82
186.795	44.81
187.016	4.63
187.237	-27.13
187.458	-43.45
187.679	-58.49
187.9	-69.32
188.121	-57.48
188.342	-13.68
188.563	-14.35
188.784	-24.76
189.005	-11.07
189.226	6.05
189.447	-73.68
189.667	-293.81
189.888	-361.7
190.109	-996.43
190.33	-549.19
190.551	-628.54
190.772	-155.99
190.993	-68.56
191.214	-56.82
191.434	-22.75
191.655	14.08
191.876	31.57
192.097	-20.85
192.318	-117.88
192.538	-169.57
192.759	-143.38
192.98	-83.22
193.201	-38.21
193.421	8.83
193.642	18.65
193.863	20.86
194.083	16.43
194.304	6.27
194.525	-11.75
194.745	-39.9
194.966	-34.19
195.187	-57.52
195.407	-91.32
195.628	-122.64
195.848	-128.42
196.069	-153.3
196.29	-62.23
196.51	-72
196.731	-40.81
196.951	-45.95
197.172	-32.18
197.392	-106.61
197.613	-107.97
197.833	-145.87
198.054	-111.01
198.274	-70.09
198.495	-60.23
198.715	-30.4
198.936	-48.74
199.156	-30.63
199.377	-93.2
199.597	-89.85
199.817	-111.77
200.038	-59.24
200.258	-131.42
200.479	-70.27
200.699	-82.55
200.919	-3.77
201.14	-1.99
201.36	-3.37
201.58	10.02
201.801	42.06
202.021	11.44
202.241	5.67
202.461	19.33
202.682	-47.49
202.902	-131.55
203.122	-56.09
203.342	-48.92
203.563	-13.46
203.783	12.38
204.003	-13.23
204.223	-2.8
204.443	33.88
204.663	10.84
204.884	22.8
205.104	28.27
205.324	4.82
205.544	8.32
205.764	22.47
205.984	33.2
206.204	58.78
206.424	50.65
206.644	35.66
206.864	37.57
207.084	-4.34
207.304	-12.4
207.525	-48.52
207.745	-11.12
207.964	-0.28
208.184	-28.3
208.404	-59.17
208.624	-68.81
208.844	-66.55
209.064	-290.15
209.284	-274.94
209.504	-122
209.724	-43.15
209.944	-46.5
210.164	-9.64
210.384	-4.56
210.604	-26.47
210.823	-39.13
211.043	-25.78
211.263	-34.82
211.483	-44.82
211.703	-69.74
211.922	-78.02
212.142	-35.78
212.362	-30.08
212.582	-13.11
212.801	-12.45
213.021	-13.42
213.241	-39.17
213.461	-62.68
213.68	-73.5
213.9	-116.16
214.12	-109.8
214.339	-157.88
214.559	-136.62
214.779	-93.35
214.998	-17.67
215.218	-22.2
215.438	1.82
215.657	-2.7
215.877	-5.52
216.096	-13.61
216.316	6.54
216.535	-11.66
216.755	-11.54
216.974	-83.49
217.194	-126.04
217.413	-173.1
217.633	-155.39
217.852	-250.34
218.072	-96.15
218.291	-45.43
218.511	3.57
218.73	-16.09
218.95	-9.03
219.169	-15.92
219.389	-47.23
219.608	-44.41
219.827	-27.69
220.047	-16.55
220.266	-11.03
220.485	-17.52
220.705	-9.8
220.924	-39.63
221.143	9.79
221.363	-15.33
221.582	7.36
221.801	4.23
222.021	31.39
222.24	-84.95
222.459	-53.57
222.678	-77.44
222.897	-121.88
223.117	-184.88
223.336	-134.69
223.555	-92.14
223.774	-105.02
223.993	-78.18
224.213	12.51
224.432	2.5
224.651	33.42
224.87	37.61
225.089	44.05
225.308	22.47
225.527	32.89
225.746	25.52
225.965	11.96
226.184	-35.51
226.404	-3.01
226.623	-25.59
226.842	-23.28
227.061	-0.56
227.28	15.69
227.499	-11.58
227.718	0.63
227.936	-2.03
228.155	1.46
228.374	-16.11
228.593	0.55
228.812	-1.91
229.031	-6.01
229.25	-54.84
229.469	-66.3
229.688	-96.72
229.907	-39.24
230.125	-39.37
230.344	-10.82
230.563	-1.5
230.782	11.59
231.001	-65.79
231.22	-56.4
231.438	-46.87
231.657	-26.1
231.876	-22.33
232.095	25.39
232.313	21.04
232.532	16.89
232.751	-17.28
232.969	-23.76
233.188	-61.98
233.407	-6.54
233.625	-1.3
233.844	14.59
234.063	16.74
234.281	14.42
234.5	22.04
234.719	31.64
234.937	21.3
235.156	18.69
235.374	17.66
235.593	-6.92
235.811	-37.32
236.03	-31.04
236.249	-61.92
236.467	-48.96
236.686	-13.07
236.904	-2.35
237.123	-20.59
237.341	-12.85
237.559	-6.11
237.778	-19.82
237.996	-27.26
238.215	1
238.433	5.24
238.652	0.68
238.87	-15.75
239.088	-5.21
239.307	-10.39
239.525	-6.64
239.743	-33.38
239.962	-9.25
240.18	-20.15
240.398	-45.48
240.617	-49.46
240.835	-23.27
241.053	-19.95
241.271	-7.16
241.49	10.06
241.708	-23.86
241.926	-64.99
242.144	-58.42
242.363	-77.08
242.581	-88.64
242.799	-50.25
243.017	-19.8
243.235	-27.78
243.453	-25.63
243.672	-33.02
243.89	-39.77
244.108	-56.97
244.326	-30.62
244.544	-26.1
244.762	-9.05
244.98	-13.63
245.198	-5.14
245.416	-26.48
245.634	-35.6
245.852	-58.74
246.07	-55.34
246.288	-40.94
246.506	-89.08
246.724	-72.93
246.942	-73.81
247.16	-18.06
247.378	-13.73
247.596	13.81
247.814	16.37
248.032	8.12
248.25	2.08
248.468	-3.91
248.685	-5.38
248.903	22.53
249.121	31.72
249.339	3.86
249.557	-12.11
249.775	-10.27
249.992	-66.08
250.21	-66.53
250.428	-45.39
250.646	-52.55
250.863	-57.92
251.081	-35.5
251.299	-22.93
251.517	8.22
251.734	-4.06
251.952	2.4
252.17	-4.13
252.387	-1.38
252.605	-15.29
252.823	-5.79
253.04	-6.7
253.258	4.85
253.475	-0.39
253.693	6.74
253.911	12.31
254.128	26.9
254.346	33.49
254.563	13.63
254.781	8.39
254.998	8.63
255.216	-1.24
255.433	-8.48
255.651	18.52
255.868	6.38
256.086	-1.79
256.303	5.35
256.521	17.69
256.738	-5.52
256.956	-31.67
257.173	-40.06
257.39	-73.92
257.608	-103.13
257.825	-58.85
258.043	-39.54
258.26	-16.87
258.477	13.97
258.695	-5.02
258.912	-39.6
259.129	-12.87
259.346	-37.48
259.564	-62.43
259.781	-63.97
259.998	-18.72
260.216	-16.93
260.433	-4.14
260.65	-5.5
260.867	4.26
261.084	-23.11
261.302	-23.45
261.519	-26.68
261.736	-28.44
261.953	-41.97
262.17	-14.24
262.387	-40.77
262.604	-57.61
262.822	-68.34
263.039	-48.69
263.256	-87.75
263.473	-57.25
263.69	-36.26
263.907	2.51
264.124	13.73
264.341	17.85
264.558	13.44
264.775	29.52
264.992	7.37
265.209	-11.62
265.426	3.01
265.643	3.88
265.86	10.09
266.077	23.57
266.294	50.58
266.51	29.78
266.727	18.92
266.944	6.02
267.161	-23.1
267.378	-56
267.595	-21.61
267.812	-42.08
268.028	-76.92
268.245	-49.85
268.462	-34.67
268.679	-46.77
268.896	-9.63
269.112	1.97
269.329	1.89
269.546	15.06
269.763	7.52
269.979	11.92
270.196	15.72
270.413	1.63
270.629	-35.63
270.846	-45.06
271.063	-51.42
271.279	-53.59
271.496	-52.98
271.712	-18.33
271.929	10.36
272.146	-6.32
272.362	-23.66
272.579	-4.43
272.795	-6.27
273.012	-14.03
273.228	-4.25
273.445	-22.31
273.661	-28.73
273.878	-32.83
274.094	-26.43
274.311	-53.63
274.527	-11.52
274.744	-11.18
274.96	-25.22
275.177	-8.21
275.393	1.57
275.609	4.52
275.826	21.16
276.042	29.34
276.259	6.72
276.475	23.53
276.691	21.07
276.908	5.04
277.124	20.9
277.34	14.36
277.557	-12.15
277.773	-14.82
277.989	-23.75
278.205	-42.91
278.422	-13.1
278.638	-1.13
278.854	22.32
279.07	19.55
279.286	22.31
279.503	-13.4
279.719	-22.23
279.935	-62.07
280.151	-65.27
280.367	-59.61
280.583	-67.37
280.799	-39.87
281.016	-59.09
281.232	-24.02
281.448	-20.37
281.664	-4.77
281.88	-48.64
282.096	-24.51
282.312	-25.24
282.528	-14.98
282.744	-8.45
282.96	15.66
283.176	21.16
283.392	18.47
283.608	8.62
283.824	-0.8
284.04	-1.88
284.256	0.04
284.471	-8.25
284.687	3.81
284.903	21.08
285.119	44.61
285.335	20.62
285.551	24.39
285.767	-1.39
285.982	-8.25
286.198	-44.26
286.414	-1.97
286.63	-4.62
286.846	12.67
287.061	-3.49
287.277	17.31
287.493	-12.81
287.709	1.74
287.924	-11.15
288.14	24.6
288.356	6.4
288.571	31.65
288.787	12.95
289.003	14.41
289.218	-2.63
289.434	-18.27
289.65	-22.93
289.865	-19.72
290.081	-21.47
290.296	-20.35
290.512	8.58
290.727	-7.75
290.943	-10.33
291.159	-9.1
291.374	-16.35
291.59	-41.55
291.805	-20.82
292.021	-13.06
292.236	-16.12
292.451	9.22
292.667	21.58
292.882	17.41
293.098	-3.52
293.313	-13.64
293.529	-40.53
293.744	-58.91
293.959	-49.42
294.175	-23.01
294.39	-1.5
294.605	10.12
294.821	22.13
295.036	16.95
295.251	15.73
295.467	6.55
295.682	-12.76
295.897	-57.29
296.112	-51.75
296.328	-59.66
296.543	-71.19
296.758	-66.97
296.973	-22.82
297.188	4.35
297.404	-10.46
297.619	-30.36
297.834	-36.8
298.049	-53.22
298.264	-80.13
298.479	-24.03
298.694	-8.96
298.909	6.02
299.125	10.88
299.34	12.06
299.555	-4.51
299.77	-6.92
299.985	-34.56
300.2	-73.91
300.415	-86.48
300.63	-72.21
300.845	-74.92
301.06	-66.53
301.275	-16.48
301.49	4.25
301.704	9.12
301.919	13.43
302.134	4.1
302.349	-20.18
302.564	-61.69
302.779	-98.2
302.994	-105.21
303.209	-42.76
303.423	-13.03
303.638	32.84
303.853	4.87
304.068	11.16
304.283	5
304.497	0.18
304.712	-20.82
304.927	-14.24
305.142	-20.19
305.356	-31.56
305.571	-31.85
305.786	-38.68
306	-51.54
306.215	-77.61
306.43	-71.19
306.644	-82.85
306.859	-54.58
307.074	-18.22
307.288	-24.41
307.503	-43.09
307.717	-36.03
307.932	-45.9
308.147	-36.4
308.361	-11.33
308.576	0.21
308.79	-27.47
309.005	-0.14
309.219	-11.07
309.434	-16.96
309.648	-30.49
309.863	-8.46
310.077	-21.62
310.292	-16.72
310.506	-16.55
310.72	-2.31
310.935	2.45
311.149	5.13
311.364	20.52
311.578	35.97
311.792	31.78
312.007	27.45
312.221	16.88
312.435	13.34
312.649	-3.23
312.864	0.27
313.078	5.25
313.292	57.26
313.507	16.82
313.721	37.55
313.935	21.89
314.149	14.42
314.363	-0.43
314.578	7.88
314.792	4.76
315.006	-10.76
315.22	-3.47
315.434	-10.62
315.648	-8.73
315.862	-4.75
316.077	0.04
316.291	-8.32
316.505	1.27
316.719	-11.94
316.933	-54
317.147	-50.52
317.361	-91.9
317.575	-99.77
317.789	-114.04
318.003	-161.94
318.217	-105.66
318.431	-27.92
318.645	-3.25
318.859	11.64
319.073	34.06
319.287	13.13
319.5	2.14
319.714	-15.26
319.928	-39.15
320.142	-53.66
320.356	-14.08
320.57	-12.15
320.784	-32.56
320.997	-68.36
321.211	-62.6
321.425	-82.44
321.639	-85.05
321.853	-52.39
322.066	-32.49
322.28	-33.26
322.494	-34.15
322.707	-33.72
322.921	-33.31
323.135	-12.55
323.349	-4.73
323.562	-22.87
323.776	-25.09
323.989	-20.76
324.203	-43.94
324.417	-45.62
324.63	-33.58
324.844	-26.77
325.057	-19
325.271	-5.58
325.485	5.77
325.698	17.24
325.912	26.4
326.125	6.09
326.339	3.52
326.552	-18.81
326.766	-19.69
326.979	-12.15
327.193	22.85
327.406	12.33
327.619	8.77
327.833	12.09
328.046	2.82
328.26	-35.94
328.473	-4.75
328.686	-18.28
328.9	-26.09
329.113	-23.37
329.326	-21.54
329.54	-38.42
329.753	-30.13
329.966	-27.2
330.179	-33.66
330.393	-7.56
330.606	9.74
330.819	23.1
331.032	30.67
331.246	36.15
331.459	41.67
331.672	30.12
331.885	20.34
332.098	-4.52
332.311	-13.46
332.525	-45.97
332.738	-48.81
332.951	-16.73
333.164	13.91
333.377	20.21
333.59	26.72
333.803	35.18
334.016	23
334.229	3.8
334.442	-4.81
334.655	3.26
334.868	11.15
335.081	12.03
335.294	15.3
335.507	7.87
335.72	1.48
335.933	-18.74
336.146	-38.57
336.359	-52.99
336.572	-72.15
336.785	-96.46
336.997	-83.6
337.21	-57.13
337.423	-51.73
337.636	-28.8
337.849	-6.64
338.062	-9.77
338.274	-8.72
338.487	-8.21
338.7	-27.13
338.913	-51.66
339.125	-73.27
339.338	-117.43
339.551	-95.5
339.763	-43.95
339.976	-28.33
340.189	-7.94
340.402	10.11
340.614	1.43
340.827	-12.91
341.039	-20.12
341.252	-2.01
341.465	3.18
341.677	4.53
341.89	-27.85
342.102	-1.69
342.315	-30.81
342.527	-71.22
342.74	-49.98
342.952	-17.8
343.165	-29.7
343.377	-9.73
343.59	-5.77
343.802	-2.16
344.015	-12.73
344.227	-18.01
344.44	-23.84
344.652	-19.25
344.864	-32.75
345.077	-2.35
345.289	10.48
345.502	17.21
345.714	7.46
345.926	17.56
346.139	7.52
346.351	1
346.563	-11.74
346.775	-5.87
346.988	-24.18
347.2	-21.61
347.412	-53.16
347.624	-40.67
347.837	-44.12
348.049	-18.96
348.261	-27.22
348.473	-30.89
348.685	-48.73
348.897	-45.01
349.11	-60.27
349.322	-94.49
349.534	-54.34
349.746	-40.89
349.958	-33.08
350.17	-30.79
350.382	-0.82
350.594	-6.89
350.806	-2.42
351.018	-3.21
351.23	-10.24
351.442	-30.79
351.654	-45.13
351.866	-44.67
352.078	-35.44
352.29	-4.75
352.502	5.14
352.714	15.53
352.926	13.92
353.138	15.69
353.35	2.1
353.561	-3.01
353.773	-14.81
353.985	-6.7
354.197	-14.26
354.409	-23.33
354.621	-22.6
354.832	-18.7
355.044	-17.15
355.256	-16.11
355.468	10.71
355.679	10.66
355.891	6.55
356.103	-19.03
356.314	-17.67
356.526	-34.03
356.738	-38.61
356.949	-37.21
357.161	-4.22
357.373	-13.17
357.584	-20.63
357.796	-0.66
358.008	-2.62
358.219	9.63
358.431	9.47
358.642	20.29
358.854	-5.04
359.065	-19.75
359.277	-60.98
359.488	-55.77
359.7	-76.91
359.911	-68.17
360.123	-48.66
360.334	-49.99
360.546	-76.52
360.757	-83.84
360.969	-77.45
361.18	-60.5
361.391	-36.01
361.603	-22.05
361.814	-12.07
362.025	-5.11
362.237	-11.21
362.448	6.03
362.659	22.46
362.871	28.17
363.082	24.98
363.293	4.27
363.504	-14.32
363.716	-43.38
363.927	-69.5
364.138	-82.94
364.349	-71.69
364.56	-59.67
364.772	-52.77
364.983	-27.42
365.194	-25.87
365.405	-10.86
365.616	-7.18
365.827	-4.78
366.038	-22.04
366.25	-39.33
366.461	-76.94
366.672	-57.16
366.883	-28.57
367.094	-7.87
367.305	-2.15
367.516	11.26
367.727	2.5
367.938	-11.51
368.149	-15.58
368.36	-1.89
368.571	-5.16
368.781	-22.72
368.992	-34.85
369.203	-62.91
369.414	-91.95
369.625	-86.57
369.836	-62.69
370.047	-82.81
370.258	-51.97
370.468	-45.07
370.679	-59.16
370.89	-62.06
371.101	-39.27
371.312	-41.85
371.522	-30.93
371.733	-24.36
371.944	-9.74
372.155	-3.7
372.365	-12.78
372.576	-18.11
372.787	-12.52
372.997	-35.53
373.208	-39.69
373.419	-21.38
373.629	-41.35
373.84	-56.08
374.05	-59.48
374.261	-47.62
374.472	-49.9
374.682	-2.39
374.893	12.65
375.103	34.48
375.314	30.2
375.524	25.63
375.735	15.26
375.945	10.16
376.156	-5.92
376.366	-9.6
376.577	-7.17
376.787	-11.01
376.997	-16.45
377.208	-4.94
377.418	-11.17
377.629	-2.45
377.839	0.03
378.049	2.6
378.26	13.39
378.47	21.68
378.68	6.63
378.89	2.04
379.101	7.22
379.311	-27.95
379.521	-51.71
379.732	-38.31
379.942	-33.88
380.152	-41.06
380.362	-12.44
380.572	-0.97
380.783	0.36
380.993	8.11
381.203	3.35
381.413	-1.85
381.623	-3.17
381.833	4.6
382.043	-6.87
382.253	-10.61
382.463	-6.17
382.674	-24.48
382.884	-41.54
383.094	-35.92
383.304	-24.13
383.514	-21.73
383.724	-8.55
383.934	-9.33
384.144	-14.37
384.353	-18.45
384.563	-16.18
384.773	-14.22
384.983	-12.82
385.193	-1.45
385.403	-0.21
385.613	0.09
385.823	-3.59
386.033	5.09
386.242	-3.36
386.452	-3.32
386.662	-13.59
386.872	-6.06
387.082	-16.35
387.291	-24.5
387.501	-33
387.711	-20.38
387.921	-24.37
388.13	-19.36
388.34	-3.91
388.55	-4.89
388.759	-6.96
388.969	-2.37
389.179	-3.35
389.388	-6.21
389.598	2.69
389.807	-3.46
390.017	-6.25
390.227	-6.19
390.436	-6.1
390.646	-5.72
390.855	-0.47
391.065	-1.41
391.274	-5.91
391.484	-7.43
391.693	-10.98
391.903	-9.23
392.112	-5.05
392.322	-0.62
392.531	1.67
392.74	3.43
392.95	-0.98
393.159	-3.34
393.369	-3.2
393.578	-3.81
393.787	-2.46
393.997	-0.35
394.206	-0.35
394.415	-0.17
394.625	-0.78
394.834	-3.96
395.043	-2.81
395.252	-0.24
395.462	1.5
395.671	2.28
395.88	3.11
396.089	3.5
396.298	0.69
396.508	0.53
396.717	0.34
396.926	1.48
397.135	0.24
397.344	0.77
397.553	1.13
397.762	1.98
397.971	1.81
398.181	1.88
398.39	1.45
398.599	0.89
398.808	1.04
399.017	1.8
399.226	2.96
399.435	3.98
399.644	4.27
399.853	3.04
400.062	2.46
400.27	1.69
400.479	1.46
400.688	0.7
400.897	1.08
401.106	1.16
401.315	1.12
401.524	1.14
401.733	1.86
401.941	2.4
402.15	2.6
402.359	2.63
402.568	2.82
402.777	2.67
402.985	2.21
403.194	1.78
403.403	1.97
403.612	1.76
403.82	1.49
404.029	1.89
404.238	2.05
404.446	2.17
404.655	1.98
404.864	2.1
405.072	1.84
405.281	1.95
405.489	1.68
405.698	1.9
405.906	2.01
406.115	2.11
406.324	2.04
406.532	2.26
406.741	2.38
406.949	2.31
407.158	2.18
407.366	2.1
407.574	2.06
407.783	1.99
407.991	1.83
408.2	2.02
408.408	2.08
408.617	2
408.825	1.84
409.033	1.98
409.242	2
409.45	2.26
409.658	2.17
409.867	2.38
410.075	2.25
410.283	2.13
410.491	1.9
410.7	1.98
410.908	1.97
411.116	2.27
411.324	2.19
411.533	2.09
411.741	2.17
411.949	2.03
412.157	1.75
412.365	1.87
412.573	1.89
412.781	1.95
412.99	1.96
413.198	2.12
413.406	2.19
413.614	2.29
413.822	2.05
414.03	1.97
414.238	1.74
414.446	1.78
414.654	1.66
414.862	1.87
415.07	1.97
415.278	2.28
415.486	2.12
415.694	2.2
415.902	2.11
416.109	2.07
416.317	1.84
416.525	1.74
416.733	1.72
416.941	1.88
417.149	1.86
417.357	1.92
417.564	1.98
417.772	2
417.98	1.79
418.188	1.79
418.395	1.79
418.603	2.04
418.811	1.84
419.019	2
419.226	2.22
419.434	2.42
419.642	2.22
419.849	2.35
420.057	2.24
420.265	2.08
420.472	1.93
420.68	1.96
420.887	1.93
421.095	1.95
421.302	1.93
421.51	2.03
421.717	2.12
421.925	2.17
422.132	2.12
422.34	1.88
422.547	1.72
422.755	1.43
422.962	1.4
423.17	1.19
423.377	1.33
423.585	1.44
423.792	1.5
423.999	1.57
424.207	1.64
424.414	1.79
424.621	1.67
424.829	1.71
425.036	1.76
425.243	1.89
425.451	1.74
425.658	1.69
425.865	1.73
426.072	1.59
426.28	1.73
426.487	1.73
426.694	1.82
426.901	1.8
427.108	1.84
427.315	1.7
427.523	1.92
427.73	1.89
427.937	1.85
428.144	1.7
428.351	1.71
428.558	1.77
428.765	1.67
428.972	1.67
429.179	1.85
429.386	2.04
429.593	1.82
429.8	1.8
430.007	1.85
430.214	1.92
430.421	1.71
430.628	1.6
430.835	1.62
431.042	1.67
431.249	1.61
431.456	1.64
431.662	1.74
431.869	1.84
432.076	1.85
432.283	1.92
432.49	1.83
432.697	1.85
432.903	1.65
433.11	1.63
433.317	1.68
433.524	1.85
433.73	1.84
433.937	2.04
434.144	2.01
434.35	1.95
434.557	1.82
434.764	1.84
434.97	1.77
435.177	1.85
435.384	1.75
435.59	1.9
435.797	2.12
436.003	2.21
436.21	2.16
436.416	2.13
436.623	1.97
436.829	1.9
437.036	2
437.242	2.04
437.449	2.16
437.655	2.26
437.862	2.22
438.068	2.1
438.275	2.18
438.481	2.28
438.687	2.27
438.894	2.18
439.1	2.23
439.307	2.25
439.513	2.17
439.719	2.13
439.926	2.2
440.132	2.14
440.338	2
440.544	2.08
440.751	2.05
440.957	2.1
441.163	2.09
441.369	2.17
441.575	2.02
441.782	2.09
441.988	2.04
442.194	2.04
442.4	2.07
442.606	2.36
442.812	2.42
443.018	2.44
443.224	2.47
443.431	2.49
443.637	2.25
443.843	2.16
444.049	2.18
444.255	2.14
444.461	2.26
444.667	2.25
444.873	2.33
445.079	2.36
445.284	2.46
445.49	2.21
445.696	2.12
445.902	2
446.108	1.89
446.314	1.85
446.52	1.96
446.726	2.24
446.931	2.27
447.137	2.36
447.343	2.5
447.549	2.45
447.755	2.31
447.96	2.38
448.166	2.37
448.372	2.22
448.578	2.22
448.783	2.18
448.989	2.23
449.195	2.43
449.4	2.46
449.606	2.55
449.812	2.51
450.017	2.5
450.223	2.36
450.428	2.37
450.634	2.42
450.84	2.53
451.045	2.49
451.251	2.4
451.456	2.59
451.662	2.63
451.867	2.73
452.073	2.74
452.278	2.86
452.483	2.74
452.689	2.61
452.894	2.4
453.1	2.43
453.305	2.42
453.51	2.44
453.716	2.43
453.921	2.56
454.127	2.51
454.332	2.46
454.537	2.36
454.742	2.38
454.948	2.32
455.153	2.36
455.358	2.43
455.563	2.58
455.769	2.66
455.974	2.67
456.179	2.62
456.384	2.48
456.589	2.46
456.795	2.38
457	2.31
457.205	2.42
457.41	2.5
457.615	2.39
457.82	2.43
458.025	2.55
458.23	2.47
458.435	2.43
458.64	2.38
458.845	2.46
459.05	2.47
459.255	2.49
459.46	2.56
459.665	2.64
459.87	2.67
460.075	2.58
460.28	2.62
460.485	2.68
460.69	2.69
