Data from Ofra_1a_PS_8HS21_Reflection_1.txt Node
Date: Tue Jul 20 11:01:49 EDT 2021
User: Adam
Spectrometer: FLMT01687
Trigger mode: 0
Integration Time (sec): 1.004000E0
Scans to average: 2
Electric dark correction enabled: true
Nonlinearity correction enabled: false
Boxcar width: 2
XAxis mode: Wavelengths
Number of Pixels in Spectrum: 3648
>>>>>Begin Spectral Data<<<<<
179.494	-598.98
179.716	-912.21
179.937	1852.84
180.158	-2535.03
180.38	240.24
180.601	181.4
180.823	152.47
181.044	17.29
181.265	122.2
181.486	-8.22
181.708	98.23
181.929	-9854.55
182.15	88.58
182.372	-551.72
182.593	-11.14
182.814	-46.18
183.035	29.22
183.257	0.56
183.478	-36.72
183.699	-45.77
183.92	-83.08
184.141	-98.44
184.363	-66.45
184.584	-33.07
184.805	10.6
185.026	37.07
185.247	19.51
185.468	-3.42
185.689	-12.2
185.91	-44.19
186.132	-24.41
186.353	3.1
186.574	3.23
186.795	8.37
187.016	27.48
187.237	8.57
187.458	-2.43
187.679	2.95
187.9	10.28
188.121	24.6
188.342	33.14
188.563	41.78
188.784	62.45
189.005	59.93
189.226	47.06
189.447	51.89
189.667	43.02
189.888	20.27
190.109	16.45
190.33	1.96
190.551	-8.68
190.772	-9.76
190.993	-21.56
191.214	-36.53
191.434	-30.94
191.655	-78.73
191.876	-5.84
192.097	27.39
192.318	33.97
192.538	-2.76
192.759	14.73
192.98	5.12
193.201	-5.99
193.421	-16.69
193.642	11.98
193.863	6.75
194.083	-2.56
194.304	23.87
194.525	30.96
194.745	23.74
194.966	27.1
195.187	34.1
195.407	29.98
195.628	28.14
195.848	30.46
196.069	10.59
196.29	1.81
196.51	-8.66
196.731	-30.61
196.951	-57.2
197.172	-29.96
197.392	-42.17
197.613	-9.38
197.833	-3.49
198.054	2.72
198.274	9.22
198.495	10.75
198.715	-9.74
198.936	5.66
199.156	18.02
199.377	10.6
199.597	24.91
199.817	25.24
200.038	-11.33
200.258	2.04
200.479	3.02
200.699	-10.52
200.919	-9.99
201.14	1.79
201.36	-10.67
201.58	-31.87
201.801	-41.58
202.021	-44.75
202.241	-34.07
202.461	-27.64
202.682	7.08
202.902	30.46
203.122	33.83
203.342	33.04
203.563	12.21
203.783	-13.38
204.003	-46.77
204.223	-34.24
204.443	-24.08
204.663	-15.14
204.884	30.67
205.104	49.77
205.324	81.23
205.544	31.54
205.764	30.3
205.984	-5.05
206.204	5.51
206.424	-32.95
206.644	-13.11
206.864	-49.16
207.084	-1.43
207.304	-22.16
207.525	-1.14
207.745	-4.01
207.964	9.45
208.184	7.82
208.404	17.88
208.624	32.17
208.844	29.73
209.064	29.81
209.284	14.27
209.504	-4.62
209.724	-11.13
209.944	-15.63
210.164	-4.85
210.384	0.62
210.604	3.64
210.823	-50.63
211.043	-30.8
211.263	-101.8
211.483	-63.3
211.703	-51.05
211.922	-35.55
212.142	-3.73
212.362	24.34
212.582	7.06
212.801	-1.99
213.021	-12.31
213.241	-26.28
213.461	-41.04
213.68	-15.93
213.9	1.07
214.12	9.77
214.339	3.36
214.559	3.37
214.779	-5.86
214.998	-2.92
215.218	4.55
215.438	25.61
215.657	31.32
215.877	21.46
216.096	27.95
216.316	24.84
216.535	27.57
216.755	28.06
216.974	30.59
217.194	30.24
217.413	18.72
217.633	10.29
217.852	8.81
218.072	14.77
218.291	8.5
218.511	12.75
218.73	-21.51
218.95	-36.18
219.169	-15.72
219.389	4.08
219.608	5.06
219.827	33.75
220.047	33.08
220.266	10.19
220.485	-19.22
220.705	-18.21
220.924	-14.32
221.143	33.42
221.363	22.39
221.582	12.86
221.801	15.27
222.021	5.16
222.24	-22.59
222.459	12.98
222.678	22.98
222.897	21.89
223.117	39.98
223.336	45.01
223.555	26.13
223.774	46.57
223.993	71.59
224.213	74.22
224.432	59.03
224.651	37.18
224.87	31.61
225.089	15.63
225.308	1.86
225.527	2.23
225.746	29.74
225.965	16.43
226.184	16.73
226.404	9.47
226.623	17.15
226.842	10.99
227.061	16.25
227.28	20.04
227.499	27.73
227.718	27.71
227.936	24.8
228.155	33.85
228.374	29.59
228.593	29.46
228.812	26.48
229.031	37.8
229.25	25.01
229.469	30.76
229.688	24.44
229.907	25.26
230.125	18.42
230.344	23.53
230.563	20.53
230.782	19.19
231.001	26.93
231.22	14.71
231.438	12.19
231.657	27.34
231.876	25.55
232.095	20.38
232.313	26.94
232.532	16.64
232.751	14.48
232.969	11.76
233.188	7.62
233.407	4.41
233.625	14.59
233.844	-3.81
234.063	6.44
234.281	-2.55
234.5	1.59
234.719	-7.54
234.937	-10.9
235.156	-16.19
235.374	-3.22
235.593	-9.29
235.811	16.19
236.03	26.21
236.249	39.18
236.467	39.96
236.686	47.98
236.904	32.94
237.123	15.76
237.341	3.62
237.559	7.07
237.778	36.09
237.996	19.04
238.215	12.58
238.433	-47.47
238.652	-7.58
238.87	-30.18
239.088	-18.51
239.307	-4.58
239.525	5.63
239.743	-5.92
239.962	-46.28
240.18	-25.36
240.398	-38.87
240.617	-47.92
240.835	-61.67
241.053	-19.27
241.271	-5.49
241.49	21.41
241.708	11.63
241.926	12.93
242.144	23.21
242.363	-5.66
242.581	-36.28
242.799	-7.15
243.017	7.68
243.235	1.94
243.453	17.74
243.672	12.32
243.89	16.43
244.108	15.74
244.326	34.28
244.544	30.87
244.762	31.94
244.98	30.17
245.198	32.04
245.416	23.25
245.634	11.69
245.852	9.72
246.07	11.86
246.288	10.58
246.506	-8.45
246.724	15.24
246.942	7.8
247.16	14.76
247.378	-8.42
247.596	42.98
247.814	-19.09
248.032	-15.76
248.25	12.87
248.468	25.31
248.685	18.28
248.903	30.77
249.121	33.08
249.339	16.04
249.557	11.89
249.775	15.75
249.992	17.56
250.21	11.72
250.428	25.34
250.646	29.55
250.863	0.97
251.081	1
251.299	15.69
251.517	16.12
251.734	18.73
251.952	44.82
252.17	40.93
252.387	25.11
252.605	14.95
252.823	18.31
253.04	13.33
253.258	19.27
253.475	27.23
253.693	31.96
253.911	15.31
254.128	18.09
254.346	27.64
254.563	35.33
254.781	23.72
254.998	31.72
255.216	-3.3
255.433	-27.32
255.651	-30.49
255.868	-46.67
256.086	-39.36
256.303	-19.21
256.521	-3.47
256.738	-13.21
256.956	19.7
257.173	10.92
257.39	7.55
257.608	-9.17
257.825	-1.27
258.043	5.86
258.26	2.38
258.477	7.43
258.695	13.11
258.912	0.73
259.129	-10.16
259.346	-21.14
259.564	9.49
259.781	10.44
259.998	18.53
260.216	18.32
260.433	25.45
260.65	20.83
260.867	19.99
261.084	31.75
261.302	17.01
261.519	19.13
261.736	-2.19
261.953	1.92
262.17	26.1
262.387	31.18
262.604	33.96
262.822	49.09
263.039	47.86
263.256	19.07
263.473	19.79
263.69	22.62
263.907	10.95
264.124	23.75
264.341	32.9
264.558	39.22
264.775	22.46
264.992	38.01
265.209	25.11
265.426	19.65
265.643	11.49
265.86	37.08
266.077	-7.24
266.294	13.28
266.51	47.7
266.727	54.34
266.944	49.09
267.161	56.64
267.378	49.17
267.595	20.59
267.812	-3.8
268.028	-14.93
268.245	-23.6
268.462	-28.81
268.679	-11.02
268.896	9.76
269.112	-6.84
269.329	-29.68
269.546	-11.89
269.763	-6.68
269.979	-8.58
270.196	12.57
270.413	17.18
270.629	4.62
270.846	2.47
271.063	8.64
271.279	8.27
271.496	-2.59
271.712	16.42
271.929	4.29
272.146	1.86
272.362	5.82
272.579	8.63
272.795	-5.35
273.012	5.35
273.228	3.92
273.445	-4.57
273.661	-11.53
273.878	-32.23
274.094	-30.4
274.311	-25.32
274.527	-46.54
274.744	-9.37
274.96	4.04
275.177	9.21
275.393	12.39
275.609	14.8
275.826	8.14
276.042	-1.98
276.259	-8.77
276.475	-36.23
276.691	-40.01
276.908	-38.58
277.124	-8.99
277.34	-8.54
277.557	-2.17
277.773	10.86
277.989	-2.56
278.205	-16.22
278.422	-20.24
278.638	-10.01
278.854	-6.75
279.07	16.97
279.286	10.18
279.503	32.75
279.719	37.85
279.935	27.7
280.151	10.47
280.367	21.69
280.583	-2.96
280.799	-9.95
281.016	-18.2
281.232	-12.84
281.448	-16.7
281.664	-4.59
281.88	3.07
282.096	4.81
282.312	5.87
282.528	0.95
282.744	-2.36
282.96	-12.87
283.176	-17.39
283.392	-45.61
283.608	-26.29
283.824	-66.2
284.04	-96.79
284.256	-46.55
284.471	-15.14
284.687	-0.27
284.903	19.96
285.119	39.84
285.335	36.01
285.551	35.16
285.767	20.54
285.982	18.72
286.198	-39.33
286.414	-36.27
286.63	-37.6
286.846	-25.98
287.061	-5.95
287.277	27.46
287.493	22.3
287.709	13.15
287.924	8.57
288.14	10.48
288.356	20.3
288.571	25.53
288.787	8.32
289.003	11.11
289.218	-0.95
289.434	-8.85
289.65	9.65
289.865	17.75
290.081	12.53
290.296	21.34
290.512	18.55
290.727	7.89
290.943	20.58
291.159	25.1
291.374	16.92
291.59	19.72
291.805	14.2
292.021	-0.29
292.236	10.25
292.451	20.52
292.667	22.24
292.882	30.76
293.098	35.91
293.313	21
293.529	20.26
293.744	3.79
293.959	-3.21
294.175	-2.71
294.39	-15.38
294.605	-3.5
294.821	1.95
295.036	-7.49
295.251	-2.09
295.467	-1.57
295.682	-4.78
295.897	-10.82
296.112	-9.33
296.328	-2.2
296.543	-0.76
296.758	-6.38
296.973	3.38
297.188	13.55
297.404	5.79
297.619	12.97
297.834	-22
298.049	-17.95
298.264	-18.43
298.479	3.97
298.694	17.69
298.909	40.26
299.125	36.65
299.34	38.16
299.555	30.09
299.77	27.5
299.985	16.94
300.2	23.21
300.415	21.35
300.63	24.65
300.845	24.71
301.06	24.5
301.275	32.72
301.49	33.06
301.704	34.16
301.919	28.58
302.134	22.41
302.349	14.18
302.564	15.49
302.779	-2.63
302.994	11.97
303.209	12.6
303.423	13.98
303.638	14.76
303.853	17.14
304.068	-17.42
304.283	1.31
304.497	-23.35
304.712	-4.01
304.927	-7.18
305.142	15.66
305.356	17.27
305.571	24.29
305.786	17.62
306	27.46
306.215	19.01
306.43	27.56
306.644	28.42
306.859	34.92
307.074	39.39
307.288	17.67
307.503	9.82
307.717	1.58
307.932	11.54
308.147	2.2
308.361	12.25
308.576	-6.28
308.79	2.16
309.005	-17.4
309.219	7.35
309.434	20.02
309.648	18.45
309.863	15.2
310.077	5.9
310.292	-5.21
310.506	-29.95
310.72	-22.22
310.935	7.63
311.149	9.49
311.364	6.81
311.578	13.56
311.792	16.42
312.007	-27.93
312.221	-14.53
312.435	8.54
312.649	11.85
312.864	-27.48
313.078	-20.81
313.292	-21.46
313.507	-34.92
313.721	-38.08
313.935	-8.66
314.149	4.5
314.363	7.77
314.578	5.67
314.792	2.44
315.006	-5.83
315.22	2.39
315.434	6.51
315.648	-3.36
315.862	-2.65
316.077	3.67
316.291	3.76
316.505	-33.18
316.719	-21.23
316.933	-12.23
317.147	-12.97
317.361	-28.02
317.575	-4.4
317.789	7.83
318.003	5.82
318.217	25.73
318.431	36.51
318.645	33.49
318.859	33.33
319.073	27.83
319.287	11.23
319.5	9.54
319.714	6.16
319.928	0.16
320.142	-5.52
320.356	2.66
320.57	-20.78
320.784	-22.44
320.997	-46.76
321.211	-11.81
321.425	-32.36
321.639	7.43
321.853	23.32
322.066	33.14
322.28	20.98
322.494	28.14
322.707	19.16
322.921	2.52
323.135	4.94
323.349	5.44
323.562	2.56
323.776	-0.89
323.989	17.9
324.203	-0.46
324.417	5.74
324.63	-0.76
324.844	-5.22
325.057	-51.58
325.271	-41.01
325.485	-54.4
325.698	-25.15
325.912	-0.57
326.125	3.39
326.339	20.16
326.552	17.32
326.766	6.09
326.979	12.4
327.193	20.64
327.406	9.14
327.619	21.14
327.833	16.58
328.046	1.5
328.26	3.28
328.473	4.67
328.686	-11.39
328.9	-1.87
329.113	-2.21
329.326	-4.2
329.54	11.13
329.753	24.01
329.966	18.37
330.179	13.67
330.393	13.95
330.606	2
330.819	-10.84
331.032	-0.41
331.246	10.95
331.459	26.61
331.672	30.35
331.885	29.61
332.098	14.45
332.311	-4.14
332.525	-6.16
332.738	-2.77
332.951	-8.35
333.164	8.79
333.377	18.04
333.59	9.9
333.803	16.16
334.016	34.36
334.229	28.4
334.442	18.59
334.655	27.46
334.868	9.39
335.081	7.18
335.294	2.09
335.507	16.52
335.72	13.55
335.933	24.24
336.146	17.17
336.359	27.55
336.572	26.14
336.785	25.06
336.997	12.87
337.21	19.94
337.423	-8.46
337.636	7.63
337.849	21.71
338.062	25.4
338.274	30.61
338.487	18.63
338.7	-4.16
338.913	-5.59
339.125	-22.3
339.338	-35.05
339.551	-24.7
339.763	-9.88
339.976	-20.04
340.189	-11.79
340.402	28.01
340.614	35.89
340.827	37.85
341.039	44.9
341.252	35.64
341.465	10.56
341.677	22.82
341.89	-2.9
342.102	-3.54
342.315	5.68
342.527	1.95
342.74	-22.97
342.952	-10.98
343.165	-9.43
343.377	2.46
343.59	2.79
343.802	7.96
344.015	16.52
344.227	22.19
344.44	4.3
344.652	10.05
344.864	23.41
345.077	30.69
345.289	28.08
345.502	49.67
345.714	44.26
345.926	36.55
346.139	13.2
346.351	27.55
346.563	19.65
346.775	28.08
346.988	26.64
347.2	23.7
347.412	15.6
347.624	12.41
347.837	18.57
348.049	20.74
348.261	24.23
348.473	1.25
348.685	-14.7
348.897	-32.54
349.11	-34.66
349.322	-28.67
349.534	-13.23
349.746	-2.58
349.958	-5.45
350.17	-16.79
350.382	-20.97
350.594	-11.49
350.806	8.76
351.018	7.38
351.23	23.74
351.442	26.93
351.654	24.65
351.866	5.51
352.078	18.81
352.29	9.02
352.502	1.3
352.714	-1.08
352.926	11.78
353.138	9.4
353.35	8
353.561	23.04
353.773	19.78
353.985	29.95
354.197	32.21
354.409	28.71
354.621	12.93
354.832	10.06
355.044	-17.92
355.256	-46.17
355.468	-36.96
355.679	-2.72
355.891	10.77
356.103	15.44
356.314	22.54
356.526	4.71
356.738	-7.23
356.949	-25.84
357.161	-8.02
357.373	-0.22
357.584	21.22
357.796	27.87
358.008	36.66
358.219	25.64
358.431	21.03
358.642	12.14
358.854	6.09
359.065	-17.7
359.277	-10.21
359.488	-12.09
359.7	-24.99
359.911	-34.91
360.123	-8.41
360.334	-14.23
360.546	-8.28
360.757	15.23
360.969	16.62
361.18	19.56
361.391	25.23
361.603	23.68
361.814	14.66
362.025	19.43
362.237	12.55
362.448	17.78
362.659	9.78
362.871	-1.53
363.082	2.51
363.293	4.93
363.504	-27.97
363.716	-34.02
363.927	-11.52
364.138	-40.08
364.349	-43.91
364.56	-49.73
364.772	-17.05
364.983	-5.48
365.194	11.14
365.405	7.63
365.616	36.34
365.827	14.01
366.038	5.34
366.25	1.25
366.461	11.63
366.672	1.96
366.883	7.12
367.094	-2.62
367.305	-3.52
367.516	-4.49
367.727	-26.77
367.938	-29.74
368.149	-29.66
368.36	-30.3
368.571	-24.93
368.781	-11.98
368.992	-4.9
369.203	-8.91
369.414	-10.92
369.625	-27.23
369.836	-5.96
370.047	2.3
370.258	21.17
370.468	22.42
370.679	25.11
370.89	13.61
371.101	20.74
371.312	11.47
371.522	0.2
371.733	4.78
371.944	-1.83
372.155	-16.72
372.365	-8.36
372.576	15.82
372.787	14.43
372.997	16.57
373.208	22.82
373.419	17.27
373.629	6.92
373.84	-10.96
374.05	-10.76
374.261	-10.43
374.472	-14.86
374.682	-21.16
374.893	-8.94
375.103	-1.62
375.314	4.87
375.524	7.2
375.735	16.93
375.945	23.59
376.156	24.52
376.366	23.18
376.577	32
376.787	34.33
376.997	41.68
377.208	37.7
377.418	29.06
377.629	25.07
377.839	23.83
378.049	21.9
378.26	17.41
378.47	15.22
378.68	-0.74
378.89	-4.94
379.101	-16.97
379.311	-14.68
379.521	-20.33
379.732	-6.53
379.942	-13.37
380.152	-15.46
380.362	-19.26
380.572	0.23
380.783	4.31
380.993	14.71
381.203	12.28
381.413	22.13
381.623	17.59
381.833	14.77
382.043	6.58
382.253	16.06
382.463	18.08
382.674	22.2
382.884	20.68
383.094	25.13
383.304	20.54
383.514	13.81
383.724	4.55
383.934	-3.02
384.144	-4.08
384.353	0.1
384.563	-0.6
384.773	5.83
384.983	4.91
385.193	2.26
385.403	-4.25
385.613	-3.03
385.823	-10.52
386.033	-5.95
386.242	-5.2
386.452	-6.35
386.662	-4.53
386.872	3.4
387.082	-1.63
387.291	1.09
387.501	9.27
387.711	9.54
387.921	1.71
388.13	6.39
388.34	6.09
388.55	-1.51
388.759	-3.66
388.969	-0.93
389.179	0.17
389.388	1.18
389.598	-2
389.807	-4.75
390.017	-3.15
390.227	-7.6
390.436	-6.35
390.646	-0.75
390.855	2.17
391.065	2.02
391.274	4.86
391.484	1.99
391.693	0.53
391.903	-0.78
392.112	-1.22
392.322	-1.85
392.531	-0.86
392.74	-0.56
392.95	0.97
393.159	2.28
393.369	3.11
393.578	3.31
393.787	2.77
393.997	3.7
394.206	1.57
394.415	2.2
394.625	3.48
394.834	2.78
395.043	2.51
395.252	4.91
395.462	4.44
395.671	3.21
395.88	4.72
396.089	3.76
396.298	2.23
396.508	3.15
396.717	3.8
396.926	3.26
397.135	3.65
397.344	3.25
397.553	2.11
397.762	2.54
397.971	2.3
398.181	2.39
398.39	2.56
398.599	2.95
398.808	2.21
399.017	2.65
399.226	2.6
399.435	2.33
399.644	2.34
399.853	2.84
400.062	2.92
400.27	2.5
400.479	2.92
400.688	3.01
400.897	2.73
401.106	2.91
401.315	3.21
401.524	3.24
401.733	2.89
401.941	2.92
402.15	2.8
402.359	2.69
402.568	2.81
402.777	2.86
402.985	2.56
403.194	2.13
403.403	2.25
403.612	1.92
403.82	1.67
404.029	2
404.238	2.01
404.446	2.17
404.655	2.39
404.864	2.76
405.072	2.75
405.281	2.83
405.489	2.62
405.698	2.52
405.906	2.46
406.115	2.34
406.324	2.47
406.532	2.62
406.741	2.61
406.949	2.6
407.158	2.69
407.366	2.61
407.574	2.51
407.783	2.52
407.991	2.58
408.2	2.6
408.408	2.59
408.617	2.6
408.825	2.5
409.033	2.32
409.242	2.31
409.45	2.27
409.658	2.21
409.867	2.36
410.075	2.51
410.283	2.33
410.491	2.24
410.7	2.1
410.908	2.06
411.116	2.06
411.324	2.1
411.533	2.15
411.741	2.3
411.949	2.36
412.157	2.2
412.365	2.38
412.573	2.5
412.781	2.37
412.99	2.26
413.198	2.42
413.406	2.34
413.614	2.27
413.822	2.42
414.03	2.53
414.238	2.46
414.446	2.51
414.654	2.52
414.862	2.46
415.07	2.29
415.278	2.55
415.486	2.26
415.694	2.3
415.902	2.26
416.109	2.24
416.317	2.07
416.525	2.09
416.733	2.04
416.941	1.99
417.149	1.99
417.357	1.89
417.564	2.04
417.772	2.03
417.98	2.16
418.188	2.06
418.395	1.94
418.603	1.83
418.811	1.72
419.019	1.74
419.226	1.96
419.434	2.11
419.642	2.13
419.849	2.18
420.057	2.22
420.265	2.15
420.472	2.13
420.68	2.24
420.887	2.21
421.095	2.1
421.302	2.13
421.51	1.93
421.717	1.98
421.925	1.99
422.132	1.97
422.34	1.79
422.547	1.81
422.755	1.79
422.962	1.86
423.17	1.74
423.377	1.84
423.585	2.06
423.792	1.97
423.999	1.99
424.207	2.07
424.414	2.07
424.621	2.07
424.829	2.1
425.036	2.09
425.243	2.1
425.451	2.13
425.658	1.98
425.865	2.02
426.072	2
426.28	2
426.487	2.02
426.694	1.98
426.901	2.08
427.108	1.98
427.315	1.97
427.523	1.93
427.73	2.04
427.937	1.72
428.144	1.75
428.351	1.73
428.558	1.86
428.765	1.75
428.972	1.93
429.179	1.87
429.386	1.92
429.593	1.61
429.8	1.74
430.007	1.81
430.214	1.9
430.421	1.92
430.628	2.06
430.835	1.97
431.042	1.86
431.249	1.86
431.456	1.78
431.662	1.91
431.869	2.01
432.076	1.98
432.283	2.09
432.49	2.09
432.697	1.88
432.903	1.77
433.11	1.97
433.317	1.86
433.524	1.99
433.73	2.09
433.937	2.24
434.144	2.03
434.35	2.01
434.557	2.02
434.764	2.08
434.97	1.9
435.177	2.09
435.384	2.27
435.59	2.18
435.797	2.2
436.003	2.34
436.21	2.18
436.416	2.14
436.623	2.25
436.829	2.23
437.036	2.15
437.242	2.3
437.449	2.22
437.655	2.28
437.862	2.3
438.068	2.41
438.275	2.44
438.481	2.53
438.687	2.42
438.894	2.52
439.1	2.48
439.307	2.47
439.513	2.41
439.719	2.56
439.926	2.49
440.132	2.58
440.338	2.53
440.544	2.53
440.751	2.38
440.957	2.37
441.163	2.17
441.369	2.27
441.575	2.26
441.782	2.29
441.988	2.31
442.194	2.38
442.4	2.24
442.606	2.47
442.812	2.57
443.018	2.56
443.224	2.61
443.431	2.67
443.637	2.49
443.843	2.51
444.049	2.62
444.255	2.62
444.461	2.5
444.667	2.53
444.873	2.45
445.079	2.4
445.284	2.41
445.49	2.57
445.696	2.53
445.902	2.56
446.108	2.58
446.314	2.55
446.52	2.57
446.726	2.59
446.931	2.51
447.137	2.48
447.343	2.58
447.549	2.54
447.755	2.53
447.96	2.61
448.166	2.67
448.372	2.65
448.578	2.65
448.783	2.69
448.989	2.66
449.195	2.67
449.4	2.69
449.606	2.72
449.812	2.73
450.017	2.78
450.223	2.72
450.428	2.71
450.634	2.69
450.84	2.69
451.045	2.66
451.251	2.77
451.456	2.78
451.662	2.79
451.867	2.74
452.073	2.81
452.278	2.72
452.483	2.73
452.689	2.81
452.894	2.87
453.1	2.79
453.305	2.8
453.51	2.75
453.716	2.63
453.921	2.68
454.127	2.74
454.332	2.72
454.537	2.75
454.742	2.78
454.948	2.73
455.153	2.66
455.358	2.65
455.563	2.73
455.769	2.78
455.974	2.73
456.179	2.76
456.384	2.73
456.589	2.64
456.795	2.59
457	2.63
457.205	2.58
457.41	2.58
457.615	2.57
457.82	2.63
458.025	2.62
458.23	2.6
458.435	2.7
458.64	2.7
458.845	2.73
459.05	2.72
459.255	2.83
459.46	2.79
459.665	2.78
459.87	2.67
460.075	2.66
460.28	2.61
460.485	2.72
460.69	2.79
460.895	2.84
461.099	2.83
461.304	2.81
461.509	2.78
461.714	2.8
461.919	2.76
462.123	2.82
462.328	2.83
462.533	2.66
462.738	2.68
462.942	2.62
463.147	2.53
463.352	2.58
463.556	2.7
463.761	2.58
463.966	2.7
464.17	2.92
464.375	2.99
464.58	2.96
464.784	3.09
464.989	3.07
465.193	2.87
465.398	2.85
465.602	3.05
465.807	3.02
466.011	3.03
466.216	3.07
466.42	3.08
466.625	3.04
466.829	2.99
467.034	3.01
467.238	3.14
467.443	3.15
