Data from Ofra_1a_PS_2HS27_Reflection_1.txt Node
Date: Tue Jul 20 10:53:27 EDT 2021
User: Adam
Spectrometer: FLMT01687
Trigger mode: 0
Integration Time (sec): 1.004000E0
Scans to average: 2
Electric dark correction enabled: true
Nonlinearity correction enabled: false
Boxcar width: 2
XAxis mode: Wavelengths
Number of Pixels in Spectrum: 3648
>>>>>Begin Spectral Data<<<<<
179.494	-199.49
179.716	-375.57
179.937	693.31
180.158	-861.78
180.38	109.03
180.601	39.83
180.823	-48.7
181.044	-127.42
181.265	-89.5
181.486	185.3
181.708	128.43
181.929	-6681.82
182.15	-19.89
182.372	-214.29
182.593	463.79
182.814	-331.58
183.035	-38.95
183.257	7.31
183.478	-13.99
183.699	-7.87
183.92	-30.73
184.141	-42.66
184.363	-39.62
184.584	-56.98
184.805	-13.68
185.026	11.07
185.247	-3.62
185.468	-19.66
185.689	2.03
185.91	-29.15
186.132	-28.09
186.353	3.31
186.574	0.3
186.795	-9.23
187.016	7.73
187.237	10.24
187.458	2.03
187.679	1.34
187.9	38.11
188.121	54.83
188.342	58.46
188.563	60.48
188.784	81.24
189.005	61
189.226	60.72
189.447	59.6
189.667	38.25
189.888	26.37
190.109	20.06
190.33	12.06
190.551	11.12
190.772	43.84
190.993	39.08
191.214	41
191.434	41.44
191.655	39.63
191.876	28.3
192.097	20.45
192.318	33.23
192.538	0.64
192.759	7.96
192.98	10.76
193.201	21.8
193.421	6.89
193.642	23.28
193.863	31.83
194.083	20.25
194.304	21.95
194.525	24.62
194.745	8.64
194.966	2.22
195.187	15.74
195.407	-12.92
195.628	4.16
195.848	18.85
196.069	6.42
196.29	2.77
196.51	9.52
196.731	3.21
196.951	-21.41
197.172	-6.34
197.392	-26.48
197.613	5.67
197.833	-5.6
198.054	8.45
198.274	1.14
198.495	-0.38
198.715	-20.08
198.936	1.56
199.156	6.99
199.377	5.78
199.597	30.66
199.817	51.29
200.038	24.35
200.258	32.43
200.479	28.98
200.699	22.34
200.919	-12.78
201.14	1.13
201.36	-10.69
201.58	5.99
201.801	-15.59
202.021	-8.89
202.241	-23.56
202.461	-17.26
202.682	-10.3
202.902	4.45
203.122	14.79
203.342	33.45
203.563	24.34
203.783	-10.03
204.003	-20.22
204.223	-9.36
204.443	-10.94
204.663	-45.67
204.884	-7.56
205.104	3.68
205.324	17.82
205.544	-11.39
205.764	39.63
205.984	37.59
206.204	57.24
206.424	35.08
206.644	20.85
206.864	-41.8
207.084	-15.43
207.304	-55.95
207.525	-46.51
207.745	-8.11
207.964	24.54
208.184	20.06
208.404	21.06
208.624	30.52
208.844	9.59
209.064	-1
209.284	-9.8
209.504	-16.6
209.724	-22.78
209.944	-18.53
210.164	-20.64
210.384	-31.31
210.604	-72.53
210.823	-99.87
211.043	-82.13
211.263	-180.7
211.483	-99.88
211.703	-71.28
211.922	-79.89
212.142	-48.47
212.362	-7.05
212.582	-17.24
212.801	3.06
213.021	-32
213.241	-57.1
213.461	-57.41
213.68	-27
213.9	-27.03
214.12	-7.65
214.339	-2.66
214.559	12.01
214.779	-18
214.998	-11.19
215.218	-0.16
215.438	10.97
215.657	0.48
215.877	-7.15
216.096	2.23
216.316	-6.75
216.535	-12.52
216.755	-8.75
216.974	-11.2
217.194	-11.1
217.413	-4.72
217.633	-29.29
217.852	-40.36
218.072	-18.52
218.291	-35.32
218.511	-31.1
218.73	-14.9
218.95	-8.78
219.169	-10.97
219.389	6.31
219.608	-4.65
219.827	-6.22
220.047	1.93
220.266	6.71
220.485	-2.99
220.705	8.18
220.924	12.55
221.143	25.42
221.363	18.43
221.582	29.96
221.801	40.52
222.021	46.08
222.24	45.82
222.459	59.63
222.678	50.7
222.897	44.1
223.117	41.33
223.336	54.24
223.555	54.51
223.774	76.82
223.993	99.76
224.213	86.98
224.432	57.12
224.651	44.58
224.87	25.5
225.089	0.05
225.308	11.05
225.527	10.53
225.746	17.04
225.965	26.63
226.184	17.35
226.404	6.8
226.623	4.95
226.842	-8.21
227.061	-10.87
227.28	15.35
227.499	12.71
227.718	21.47
227.936	31.82
228.155	16.87
228.374	6.83
228.593	20.14
228.812	-8.35
229.031	-2.44
229.25	-3.2
229.469	-12.27
229.688	-10.93
229.907	15.63
230.125	8.05
230.344	11.71
230.563	8.72
230.782	6.52
231.001	-3.43
231.22	-19.18
231.438	-14.49
231.657	11.02
231.876	4.08
232.095	12.07
232.313	9.99
232.532	11.21
232.751	0.24
232.969	9.99
233.188	10.71
233.407	17.12
233.625	20.71
233.844	18.02
234.063	13.82
234.281	6.61
234.5	15.88
234.719	10.27
234.937	-8.64
235.156	-7.97
235.374	1.47
235.593	-3.14
235.811	18.39
236.03	32.85
236.249	38.5
236.467	29.16
236.686	22.19
236.904	14.34
237.123	10.46
237.341	8.15
237.559	0.52
237.778	11.79
237.996	-22.66
238.215	-67.68
238.433	-139.45
238.652	-52.8
238.87	-67.63
239.088	-46.76
239.307	-20.35
239.525	0.89
239.743	3.91
239.962	13.15
240.18	21.13
240.398	30.57
240.617	19.49
240.835	-4.24
241.053	1.9
241.271	-2.42
241.49	19.31
241.708	12.29
241.926	22.06
242.144	32.34
242.363	22.53
242.581	-17.63
242.799	3.54
243.017	-3.02
243.235	-4.3
243.453	-0.44
243.672	6.29
243.89	6.95
244.108	22
244.326	35.23
244.544	42.52
244.762	23.95
244.98	24.43
245.198	16.24
245.416	-6.7
245.634	-17.1
245.852	-20.34
246.07	-0.3
246.288	5.8
246.506	14.35
246.724	8.75
246.942	13.81
247.16	4.49
247.378	-8.95
247.596	-1.35
247.814	-9.16
248.032	10.22
248.25	16.17
248.468	12.52
248.685	11.11
248.903	9.47
249.121	9.61
249.339	8.8
249.557	15.87
249.775	24.79
249.992	31.62
250.21	29.85
250.428	37.68
250.646	42.87
250.863	24.54
251.081	25.35
251.299	32.01
251.517	18.4
251.734	12.26
251.952	11.89
252.17	3.03
252.387	-19.43
252.605	-26.86
252.823	-59.3
253.04	-16.55
253.258	-0.19
253.475	12.12
253.693	2.91
253.911	13.69
254.128	-11.56
254.346	1.47
254.563	11.75
254.781	26.47
254.998	15.98
255.216	5.01
255.433	-54.23
255.651	-47.05
255.868	-49.94
256.086	-20.88
256.303	-9.43
256.521	17.18
256.738	17.32
256.956	19.5
257.173	8.49
257.39	13.75
257.608	3.79
257.825	6.76
258.043	18.18
258.26	11.42
258.477	9.23
258.695	16.08
258.912	1.72
259.129	-23.53
259.346	-48.52
259.564	-40.66
259.781	-40.72
259.998	-18.84
260.216	-4.56
260.433	4.2
260.65	10.82
260.867	-4.12
261.084	-10.88
261.302	-15.25
261.519	-0.62
261.736	-30.33
261.953	-20.81
262.17	-8.64
262.387	-8.33
262.604	-16.92
262.822	7.13
263.039	14.26
263.256	10.51
263.473	9.66
263.69	17.18
263.907	18.3
264.124	32.23
264.341	33.37
264.558	34.42
264.775	42.51
264.992	38.7
265.209	2.53
265.426	-1.58
265.643	-17.55
265.86	-67.15
266.077	-75.48
266.294	-34.23
266.51	4.94
266.727	24.75
266.944	28.73
267.161	20.76
267.378	25.13
267.595	1.79
267.812	-8.73
268.028	-11.61
268.245	6.95
268.462	6.92
268.679	13.91
268.896	28.96
269.112	12.97
269.329	-0.15
269.546	11.18
269.763	1.68
269.979	-14.57
270.196	3.57
270.413	10.01
270.629	-4.04
270.846	-15.69
271.063	-9.65
271.279	-4.99
271.496	-21.21
271.712	-8.22
271.929	6.55
272.146	32.85
272.362	34.54
272.579	23.5
272.795	21.32
273.012	34.33
273.228	20.33
273.445	15.55
273.661	15.45
273.878	11.7
274.094	7.82
274.311	13.24
274.527	6.79
274.744	26.78
274.96	22.46
275.177	24.66
275.393	29.2
275.609	37.96
275.826	37.12
276.042	33.27
276.259	32.75
276.475	17.77
276.691	5.86
276.908	5.47
277.124	16.31
277.34	20.22
277.557	3.71
277.773	11.09
277.989	4.89
278.205	11.79
278.422	-8.94
278.638	8.38
278.854	-0.28
279.07	20.61
279.286	13.49
279.503	31.73
279.719	26.49
279.935	16.23
280.151	-3.63
280.367	0.6
280.583	4.16
280.799	-2.08
281.016	-17.82
281.232	-1.59
281.448	-17.94
281.664	-30.3
281.88	-18.55
282.096	8.15
282.312	14.79
282.528	9.39
282.744	0.52
282.96	-24.08
283.176	-48.25
283.392	-105.35
283.608	-61.09
283.824	-41.65
284.04	-54.09
284.256	-31.49
284.471	-23.77
284.687	-16.84
284.903	-11.97
285.119	-0.22
285.335	8.6
285.551	25.22
285.767	13.45
285.982	10.55
286.198	-14.29
286.414	-38.27
286.63	-87.81
286.846	-58.88
287.061	-46.89
287.277	-8.98
287.493	-7.1
287.709	14.38
287.924	23.49
288.14	43.68
288.356	57.15
288.571	64.94
288.787	40.04
289.003	35.27
289.218	9.79
289.434	-22.23
289.65	8.68
289.865	22.68
290.081	17.86
290.296	19.86
290.512	25.61
290.727	3.09
290.943	0.98
291.159	1.79
291.374	-2.13
291.59	-2.36
291.805	-18.21
292.021	-17.62
292.236	-17.73
292.451	-27.08
292.667	-31.64
292.882	-11.77
293.098	0.61
293.313	-11.86
293.529	2.76
293.744	-2.33
293.959	-7.21
294.175	-13.77
294.39	-8.64
294.605	7.91
294.821	16.73
295.036	25.59
295.251	27.8
295.467	22.1
295.682	20.58
295.897	8.81
296.112	2.95
296.328	-0.95
296.543	-3.89
296.758	-21.31
296.973	5.85
297.188	-4.17
297.404	-25.56
297.619	-37.85
297.834	-42.48
298.049	-56.68
298.264	-43.84
298.479	2.01
298.694	34.71
298.909	47.47
299.125	38.39
299.34	48.16
299.555	31.75
299.77	27.92
299.985	22.31
300.2	26.97
300.415	14.77
300.63	22.76
300.845	14.92
301.06	14.82
301.275	9.54
301.49	23.16
301.704	16.65
301.919	14.93
302.134	6.21
302.349	11.1
302.564	-5.91
302.779	-21.72
302.994	6.64
303.209	13.1
303.423	23.3
303.638	58.44
303.853	65.28
304.068	20.28
304.283	36.77
304.497	7.04
304.712	-6.8
304.927	-0.38
305.142	14.85
305.356	5.03
305.571	16.25
305.786	23.52
306	28.17
306.215	22.9
306.43	16.25
306.644	-1.43
306.859	-27.86
307.074	-16.43
307.288	0.05
307.503	15.08
307.717	16.5
307.932	16.49
308.147	3.12
308.361	-3.05
308.576	-40.33
308.79	-16.98
309.005	-33.28
309.219	-17.44
309.434	-33.6
309.648	-12.5
309.863	-21.02
310.077	3.33
310.292	9.72
310.506	24.1
310.72	20.56
310.935	34.8
311.149	32.2
311.364	30.7
311.578	27.22
311.792	25.04
312.007	17.69
312.221	8.52
312.435	4.09
312.649	16.62
312.864	-20.65
313.078	-31.47
313.292	-31.67
313.507	-30.93
313.721	-42.32
313.935	0.97
314.149	25.85
314.363	29.37
314.578	34.94
314.792	40.89
315.006	36.69
315.22	10.14
315.434	11.73
315.648	-17.04
315.862	-7.92
316.077	-25.41
316.291	-16.33
316.505	-40.2
316.719	-11.34
316.933	-1.26
317.147	18.65
317.361	6.66
317.575	31.99
317.789	35.11
318.003	22.66
318.217	16.09
318.431	10.16
318.645	-18.57
318.859	-11.56
319.073	2.18
319.287	5.39
319.5	6.15
319.714	12.98
319.928	2.47
320.142	-12.15
320.356	-2.14
320.57	-15.42
320.784	-13.79
320.997	-25.47
321.211	3.53
321.425	-21.42
321.639	10.5
321.853	20.61
322.066	19.15
322.28	0.21
322.494	8.2
322.707	10.14
322.921	4.2
323.135	22.35
323.349	26.88
323.562	24.08
323.776	12.01
323.989	19.76
324.203	0.79
324.417	6.56
324.63	6.9
324.844	3.39
325.057	-19.37
325.271	-4.96
325.485	-17.89
325.698	-13.07
325.912	3.01
326.125	2.47
326.339	1.92
326.552	8.45
326.766	-2.89
326.979	-1.24
327.193	3.32
327.406	-4.49
327.619	2.18
327.833	12.6
328.046	2.22
328.26	4.96
328.473	26.43
328.686	26.63
328.9	28.38
329.113	28.09
329.326	25.22
329.54	14.62
329.753	16.84
329.966	13.78
330.179	12.42
330.393	11.16
330.606	-3.49
330.819	-14.44
331.032	-9.59
331.246	3.37
331.459	20.64
331.672	35.22
331.885	29.08
332.098	31.44
332.311	13.97
332.525	0.96
332.738	9.85
332.951	10.83
333.164	7.16
333.377	18.82
333.59	20.34
333.803	13.77
334.016	22.09
334.229	26.98
334.442	23.61
334.655	20.37
334.868	11.28
335.081	10.8
335.294	0.98
335.507	8.87
335.72	7.62
335.933	20.04
336.146	18.58
336.359	18.6
336.572	21.19
336.785	32.58
336.997	28.19
337.21	18.17
337.423	17.94
337.636	-0.17
337.849	-14.7
338.062	-12.14
338.274	6.9
338.487	-2.23
338.7	-17.46
338.913	-3.82
339.125	-14.29
339.338	-23.58
339.551	-3.73
339.763	8.4
339.976	5.78
340.189	15.27
340.402	23.7
340.614	15.95
340.827	25.97
341.039	23.19
341.252	20.49
341.465	4.98
341.677	-1.77
341.89	-11.12
342.102	1.45
342.315	-7.52
342.527	-9.29
342.74	-6.21
342.952	-15.07
343.165	-9.62
343.377	3.09
343.59	9.2
343.802	11.45
344.015	22.13
344.227	13.03
344.44	-0.72
344.652	2.46
344.864	10.71
345.077	18.63
345.289	23.44
345.502	44.68
345.714	39.88
345.926	28.84
346.139	7.67
346.351	8.71
346.563	-9.65
346.775	-13.44
346.988	-0.14
347.2	-5.96
347.412	-5.73
347.624	10.2
347.837	17.33
348.049	5.37
348.261	3.02
348.473	-13.3
348.685	-17.5
348.897	-18.43
349.11	-5.53
349.322	-5.71
349.534	-6.6
349.746	-10.5
349.958	-31.15
350.17	-63.27
350.382	-45.23
350.594	-24.06
350.806	-9.12
351.018	9
351.23	31.07
351.442	30.5
351.654	29.65
351.866	20.74
352.078	20.68
352.29	8.32
352.502	12.48
352.714	22.25
352.926	19.74
353.138	13.16
353.35	1.99
353.561	-5.78
353.773	-10.9
353.985	0.15
354.197	-0.42
354.409	12.02
354.621	7.27
354.832	14.76
355.044	-8.62
355.256	0.23
355.468	-15.38
355.679	9.39
355.891	9.5
356.103	15.55
356.314	8.48
356.526	7.62
356.738	-14.98
356.949	-30.07
357.161	-16.1
357.373	-2.76
357.584	4.89
357.796	21.73
358.008	27.01
358.219	24.79
358.431	13.89
358.642	21
358.854	6.6
359.065	6.81
359.277	4.04
359.488	3.91
359.7	-7.69
359.911	-21.41
360.123	-18.53
360.334	-28.09
360.546	-24.14
360.757	-15.79
360.969	3.7
361.18	6.27
361.391	16.87
361.603	16.65
361.814	7.12
362.025	10.09
362.237	15.13
362.448	19.06
362.659	25.94
362.871	18.66
363.082	17.88
363.293	15.02
363.504	-6.13
363.716	-17.52
363.927	13.83
364.138	-13.27
364.349	-28.88
364.56	-36.96
364.772	-19.56
364.983	-22.43
365.194	2.08
365.405	12.52
365.616	26
365.827	13.69
366.038	19.17
366.25	11.99
366.461	14.89
366.672	13.61
366.883	12.42
367.094	-2.78
367.305	-10.85
367.516	-10.1
367.727	-39.64
367.938	-35.06
368.149	-23.64
368.36	-24.14
368.571	-47.91
368.781	-22.94
368.992	-26.62
369.203	-25.34
369.414	-24.41
369.625	-7.16
369.836	13.06
370.047	15.81
370.258	21.01
370.468	20.61
370.679	9.09
370.89	-5.74
371.101	-4.3
371.312	-30.27
371.522	-35.47
371.733	-24.2
371.944	-33.82
372.155	-16.73
372.365	-2.5
372.576	9.99
372.787	16.99
372.997	15.67
373.208	14.65
373.419	11.03
373.629	-11.79
373.84	-25.11
374.05	-27.25
374.261	-54.31
374.472	-34.05
374.682	-17.08
374.893	-23.14
375.103	-5.12
375.314	12.1
375.524	6.8
375.735	14.56
375.945	27.32
376.156	22.79
376.366	21.22
376.577	29.23
376.787	25.44
376.997	28.18
377.208	25.26
377.418	21.73
377.629	8.82
377.839	15.64
378.049	8.13
378.26	-0.7
378.47	-18.49
378.68	-8.87
378.89	-9.47
379.101	-4.06
379.311	4.18
379.521	11.21
379.732	21.96
379.942	15.9
380.152	4.83
380.362	7.92
380.572	23.21
380.783	26.97
380.993	26.63
381.203	25.39
381.413	18.29
381.623	4.61
381.833	2.28
382.043	-5.3
382.253	-1.29
382.463	5.02
382.674	2.28
382.884	-2.53
383.094	2.86
383.304	11.17
383.514	12.48
383.724	16.46
383.934	12.72
384.144	11.5
384.353	8.81
384.563	12.54
384.773	16.83
384.983	12.59
385.193	5.68
385.403	-1.75
385.613	-5.16
385.823	-10.82
386.033	-1.26
386.242	-2.7
386.452	2.34
386.662	4.22
386.872	7.88
387.082	1.94
387.291	4.91
387.501	6.04
387.711	6.9
387.921	8.85
388.13	9.85
388.34	9.54
388.55	4.7
388.759	0.91
388.969	-1.25
389.179	-2.89
389.388	-0.14
389.598	1.24
389.807	-3.73
390.017	-6.18
390.227	-5.86
390.436	-2.56
390.646	-3.16
390.855	2.06
391.065	3.24
391.274	5.18
391.484	1.35
391.693	1.24
391.903	0.88
392.112	1.68
392.322	-0.08
392.531	0.22
392.74	-0.39
392.95	0.03
393.159	0.43
393.369	1.01
393.578	1.1
393.787	1.61
393.997	1.46
394.206	-0.24
394.415	1.82
394.625	0.88
394.834	-0.21
395.043	0.27
395.252	2.09
395.462	1.86
395.671	2.28
395.88	3.53
396.089	3.13
396.298	1.98
396.508	1.94
396.717	2.14
396.926	2.1
397.135	2.4
397.344	2.36
397.553	1.72
397.762	2.65
397.971	2.61
398.181	2.88
398.39	3.08
398.599	3.61
398.808	3.75
399.017	4.51
399.226	4.63
399.435	4.72
399.644	4.92
399.853	4.51
400.062	4.08
400.27	3.35
400.479	3.25
400.688	3.06
400.897	2.82
401.106	2.81
401.315	3.04
401.524	3.11
401.733	2.59
401.941	2.86
402.15	2.87
402.359	2.84
402.568	3.04
402.777	3.46
402.985	3.22
403.194	3.23
403.403	3.33
403.612	3.21
403.82	2.81
404.029	2.84
404.238	2.75
404.446	2.94
404.655	3.09
404.864	3.41
405.072	3.59
405.281	3.62
405.489	3.47
405.698	3.42
405.906	3.34
406.115	3.18
406.324	3.24
406.532	3.27
406.741	3.11
406.949	3.19
407.158	3.21
407.366	3.02
407.574	3.04
407.783	3.08
407.991	3.08
408.2	3.22
408.408	3.35
408.617	3.2
408.825	3.09
409.033	3.04
409.242	2.9
409.45	2.78
409.658	2.78
409.867	2.87
410.075	2.84
410.283	2.87
410.491	2.84
410.7	2.77
410.908	2.82
411.116	2.87
411.324	2.76
411.533	2.81
411.741	2.96
411.949	2.92
412.157	2.84
412.365	2.98
412.573	2.97
412.781	2.96
412.99	2.95
413.198	3.04
413.406	3.06
413.614	3.13
413.822	3.07
414.03	3.08
414.238	3.03
414.446	3
414.654	2.89
414.862	2.91
415.07	2.8
415.278	2.96
415.486	2.74
415.694	2.8
415.902	2.75
416.109	2.8
416.317	2.59
416.525	2.67
416.733	2.62
416.941	2.62
417.149	2.55
417.357	2.57
417.564	2.57
417.772	2.66
417.98	2.73
418.188	2.73
418.395	2.61
418.603	2.57
418.811	2.45
419.019	2.43
419.226	2.44
419.434	2.66
419.642	2.65
419.849	2.63
420.057	2.45
420.265	2.51
420.472	2.37
420.68	2.4
420.887	2.44
421.095	2.66
421.302	2.64
421.51	2.54
421.717	2.62
421.925	2.61
422.132	2.55
422.34	2.32
422.547	2.31
422.755	2.26
422.962	2.33
423.17	2.15
423.377	2.28
423.585	2.5
423.792	2.54
423.999	2.52
424.207	2.29
424.414	2.33
424.621	2.25
424.829	2.31
425.036	2.42
425.243	2.69
425.451	2.57
425.658	2.51
425.865	2.4
426.072	2.31
426.28	2.5
426.487	2.61
426.694	2.52
426.901	2.59
427.108	2.37
427.315	2.3
427.523	2.18
427.73	2.2
427.937	1.99
428.144	2.23
428.351	2.12
428.558	2.37
428.765	2.51
428.972	2.62
429.179	2.46
429.386	2.57
429.593	2.38
429.8	2.37
430.007	2.4
430.214	2.43
430.421	2.46
430.628	2.47
430.835	2.34
431.042	2.41
431.249	2.49
431.456	2.43
431.662	2.6
431.869	2.78
432.076	2.76
432.283	2.88
432.49	2.86
432.697	2.77
432.903	2.67
433.11	2.79
433.317	2.74
433.524	2.88
433.73	2.84
433.937	2.87
434.144	2.65
434.35	2.62
434.557	2.54
434.764	2.66
434.97	2.7
435.177	2.96
435.384	3
435.59	2.93
435.797	2.88
436.003	2.9
436.21	2.71
436.416	2.65
436.623	2.8
436.829	2.75
437.036	2.65
437.242	2.72
437.449	2.63
437.655	2.59
437.862	2.65
438.068	2.69
438.275	2.76
438.481	2.9
438.687	2.96
438.894	3.1
439.1	3.02
439.307	3.07
439.513	3.08
439.719	3.09
439.926	3.03
440.132	3.24
440.338	3.13
440.544	3.08
440.751	2.97
440.957	3.09
441.163	2.95
441.369	3.03
441.575	2.99
441.782	3.09
441.988	2.98
442.194	3.04
442.4	3.02
442.606	3.28
442.812	3.31
443.018	3.28
443.224	3.38
443.431	3.42
443.637	3.26
443.843	3.31
444.049	3.44
444.255	3.35
444.461	3.28
444.667	3.33
444.873	3.22
445.079	3.15
445.284	3.15
445.49	3.1
445.696	3.06
445.902	3.13
446.108	3.18
446.314	3.17
446.52	3.36
446.726	3.44
446.931	3.37
447.137	3.4
447.343	3.5
447.549	3.45
447.755	3.37
447.96	3.44
448.166	3.41
448.372	3.4
448.578	3.29
448.783	3.33
448.989	3.37
449.195	3.29
449.4	3.35
449.606	3.44
449.812	3.51
450.017	3.54
450.223	3.59
450.428	3.54
450.634	3.5
450.84	3.42
451.045	3.38
451.251	3.36
451.456	3.38
451.662	3.47
451.867	3.55
452.073	3.53
452.278	3.53
452.483	3.56
452.689	3.45
452.894	3.46
453.1	3.46
453.305	3.53
453.51	3.56
453.716	3.64
453.921	3.7
454.127	3.67
454.332	3.6
454.537	3.55
454.742	3.53
454.948	3.48
455.153	3.52
455.358	3.57
455.563	3.7
455.769	3.67
455.974	3.64
456.179	3.61
456.384	3.51
456.589	3.38
456.795	3.41
457	3.43
457.205	3.34
457.41	3.44
457.615	3.47
457.82	3.47
458.025	3.48
458.23	3.64
458.435	3.69
458.64	3.67
458.845	3.68
459.05	3.69
459.255	3.68
459.46	3.51
459.665	3.57
459.87	3.63
460.075	3.7
460.28	3.76
460.485	3.93
460.69	3.89
460.895	3.88
461.099	3.77
461.304	3.63
461.509	3.65
461.714	3.72
461.919	3.65
462.123	3.72
462.328	3.74
462.533	3.64
462.738	3.61
462.942	3.47
463.147	3.52
463.352	3.53
463.556	3.62
463.761	3.54
463.966	3.69
464.17	3.68
464.375	3.77
464.58	3.75
464.784	3.84
464.989	3.91
465.193	3.87
465.398	3.8
465.602	3.94
465.807	3.93
466.011	3.86
466.216	3.85
466.42	3.9
466.625	3.86
466.829	3.91
467.034	4.07
467.238	4.14
467.443	4.14
467.647	4.05
