Data from Ofra_PS_T2_2A_8HS21_Reflection_1.txt Node
Date: Wed Jul 21 17:19:17 EDT 2021
User: Adam
Spectrometer: FLMT01687
Trigger mode: 0
Integration Time (sec): 1.100000E0
Scans to average: 2
Electric dark correction enabled: true
Nonlinearity correction enabled: false
Boxcar width: 2
XAxis mode: Wavelengths
Number of Pixels in Spectrum: 3648
>>>>>Begin Spectral Data<<<<<
179.494	709.4
179.716	774.59
179.937	713.66
180.158	701.94
180.38	1169.84
180.601	286.6
180.823	56.71
181.044	-95.38
181.265	-79.6
181.486	-24.2
181.708	114.95
181.929	881.12
182.15	-371.48
182.372	38.6
182.593	5.31
182.814	43.42
183.035	86.13
183.257	54.03
183.478	-15.27
183.699	64.92
183.92	10.49
184.141	-0.74
184.363	-48.89
184.584	16.14
184.805	3.41
185.026	55.69
185.247	57.42
185.468	33.09
185.689	35.17
185.91	26.84
186.132	17.12
186.353	25.32
186.574	78.35
186.795	42.69
187.016	-6.8
187.237	-52.41
187.458	-127.78
187.679	-107.54
187.9	-79.93
188.121	-51.14
188.342	-1.18
188.563	53.54
188.784	83.71
189.005	74.1
189.226	85.33
189.447	24.48
189.667	-203.76
189.888	-471.31
190.109	-1211.36
190.33	-559.19
190.551	-849.34
190.772	-170.64
190.993	-166.05
191.214	-183.35
191.434	-174.2
191.655	-67.7
191.876	-161.41
192.097	-189.82
192.318	-243.39
192.538	-322.8
192.759	-263.84
192.98	-139.19
193.201	-54.7
193.421	-20.38
193.642	6.5
193.863	19.19
194.083	-8.76
194.304	-20.77
194.525	-31.31
194.745	-31.5
194.966	-65.81
195.187	-47.69
195.407	-62.36
195.628	-77.51
195.848	-99.35
196.069	-62.61
196.29	0.44
196.51	-22.33
196.731	-38.45
196.951	-82.55
197.172	-122.83
197.392	-193.27
197.613	-194.55
197.833	-214.15
198.054	-154.13
198.274	-91.68
198.495	-92.74
198.715	-67.08
198.936	-93.18
199.156	-82.72
199.377	-200.22
199.597	-178.14
199.817	-186.74
200.038	-101.78
200.258	-187.52
200.479	-81.6
200.699	-124.51
200.919	-40.95
201.14	-69.6
201.36	-51.06
201.58	-17.92
201.801	19.67
202.021	-19.54
202.241	-17.23
202.461	-31.6
202.682	-132.75
202.902	-187.07
203.122	-108.24
203.342	-77.83
203.563	-22.51
203.783	4.54
204.003	-32.94
204.223	-46.67
204.443	9.75
204.663	-12.36
204.884	16.1
205.104	58.11
205.324	62.87
205.544	44.69
205.764	54.38
205.984	53.01
206.204	33.43
206.424	34.58
206.644	-1.58
206.864	4.78
207.084	-64.5
207.304	-53.55
207.525	-234.3
207.745	-124.91
207.964	-51.89
208.184	-86.04
208.404	-98.32
208.624	-86.01
208.844	-65.33
209.064	-402.25
209.284	-426.62
209.504	-196.95
209.724	-49.7
209.944	-54.46
210.164	0.46
210.384	12.31
210.604	-11.63
210.823	-60.87
211.043	-69.91
211.263	-63.01
211.483	-52.04
211.703	-101.86
211.922	-73.4
212.142	-5.1
212.362	11.18
212.582	-3.53
212.801	17.82
213.021	1.51
213.241	-1.58
213.461	-44.54
213.68	-60.43
213.9	-41.55
214.12	-42.17
214.339	-127.27
214.559	-123.08
214.779	-64.7
214.998	-67.52
215.218	-114.63
215.438	-51.15
215.657	-45.45
215.877	-33.25
216.096	-2.19
216.316	9.1
216.535	-20.61
216.755	-16.58
216.974	-106.64
217.194	-157.42
217.413	-146.1
217.633	-110.28
217.852	-192.85
218.072	-73.56
218.291	-46.83
218.511	2.92
218.73	-41.41
218.95	-32.44
219.169	-40.36
219.389	-78.86
219.608	-83.71
219.827	-65.6
220.047	-48.71
220.266	-54.39
220.485	-56.43
220.705	-31.51
220.924	-48.95
221.143	-12.95
221.363	-33.06
221.582	-12.58
221.801	-9.59
222.021	7.96
222.24	-51.08
222.459	-4.6
222.678	-22.56
222.897	-74.96
223.117	-93.99
223.336	-46.48
223.555	3.26
223.774	18.2
223.993	38.18
224.213	64.48
224.432	6.4
224.651	28.55
224.87	0.23
225.089	13.6
225.308	4.04
225.527	37.18
225.746	22.54
225.965	12.5
226.184	-38.49
226.404	1.37
226.623	-38.25
226.842	-31.25
227.061	8.51
227.28	20.14
227.499	6.6
227.718	35.28
227.936	37.28
228.155	37.47
228.374	39.79
228.593	32.18
228.812	31.2
229.031	9.42
229.25	-34.54
229.469	-32.62
229.688	-27.93
229.907	-7.98
230.125	4.17
230.344	14.37
230.563	7.39
230.782	12.84
231.001	-82.03
231.22	-64.13
231.438	-34.45
231.657	-23.87
231.876	-45.68
232.095	17.76
232.313	30.66
232.532	19.37
232.751	-2.76
232.969	1.51
233.188	-54.05
233.407	-30.32
233.625	-21.72
233.844	-21.1
234.063	7.17
234.281	31.94
234.5	14.74
234.719	17.99
234.937	29.74
235.156	16.78
235.374	1.42
235.593	-1.83
235.811	-6.01
236.03	-25.06
236.249	-72.95
236.467	-65.55
236.686	-19.16
236.904	-2.65
237.123	-23.24
237.341	-25.48
237.559	-17.22
237.778	-39.01
237.996	-79.45
238.215	-32.64
238.433	4.89
238.652	4.4
238.87	-17.93
239.088	7.63
239.307	8.21
239.525	-24.48
239.743	-56.42
239.962	-33.6
240.18	-83.26
240.398	-134.6
240.617	-115.54
240.835	-78.48
241.053	-80.05
241.271	12.09
241.49	25.47
241.708	14.33
241.926	-4.97
242.144	-9.32
242.363	-97.78
242.581	-119.76
242.799	-83.03
243.017	-45.5
243.235	-52.29
243.453	-26.24
243.672	-16.52
243.89	-15.39
244.108	-35.89
244.326	-19.84
244.544	-22.52
244.762	-28.55
244.98	-30.13
245.198	-16.38
245.416	-40.69
245.634	-34.59
245.852	-43.9
246.07	-58.07
246.288	-58.44
246.506	-79.12
246.724	-42.69
246.942	-25.3
247.16	15.92
247.378	21.15
247.596	43.17
247.814	14.79
248.032	-20.35
248.25	-21.17
248.468	-2.39
248.685	5.66
248.903	41.57
249.121	59.17
249.339	26.55
249.557	6
249.775	6.03
249.992	-84.06
250.21	-87.91
250.428	-45.59
250.646	-79.91
250.863	-96.67
251.081	-50.53
251.299	-41.01
251.517	-66.33
251.734	-24.48
251.952	-25.16
252.17	-15.66
252.387	-9.74
252.605	-17.23
252.823	-16.74
253.04	-1.78
253.258	13.6
253.475	-1.98
253.693	34.05
253.911	45.33
254.128	39.93
254.346	20.31
254.563	13.23
254.781	-20.62
254.998	-54.3
255.216	-61.81
255.433	-33.42
255.651	10.93
255.868	35.87
256.086	44.98
256.303	34.53
256.521	22.57
256.738	3.38
256.956	-42.46
257.173	-56.82
257.39	-75.25
257.608	-88.43
257.825	-21.82
258.043	31.46
258.26	32
258.477	87.85
258.695	73.75
258.912	-8.97
259.129	-10.56
259.346	-48.03
259.564	-115.93
259.781	-141.03
259.998	-54.11
260.216	-25
260.433	23.59
260.65	32.16
260.867	47.94
261.084	21.26
261.302	-3.56
261.519	-25.4
261.736	-52.87
261.953	-77.07
262.17	-41.14
262.387	-65.1
262.604	-84.29
262.822	-70.35
263.039	-39.19
263.256	-81.19
263.473	-45.83
263.69	-19.58
263.907	17.46
264.124	21.52
264.341	25.47
264.558	9.91
264.775	16.72
264.992	-5.88
265.209	-8.44
265.426	13.37
265.643	23.83
265.86	39.26
266.077	58.42
266.294	46.95
266.51	12.27
266.727	-9.41
266.944	-11.66
267.161	-38.23
267.378	-21.53
267.595	15.66
267.812	-11.15
268.028	-41.45
268.245	-15.5
268.462	-34.91
268.679	-43.6
268.896	24.55
269.112	31.11
269.329	25.53
269.546	31.3
269.763	14.51
269.979	-3.38
270.196	-4.59
270.413	-46.27
270.629	-62.47
270.846	-66.83
271.063	-56.17
271.279	-67.82
271.496	-49.38
271.712	-21.63
271.929	-5.13
272.146	-36.45
272.362	-31.61
272.579	7.76
272.795	21.48
273.012	27.53
273.228	17.68
273.445	-12.7
273.661	-43.91
273.878	-93.43
274.094	-86.23
274.311	-96.53
274.527	-30.25
274.744	-30.42
274.96	-15.1
275.177	-7.42
275.393	13.65
275.609	11.2
275.826	47.02
276.042	51.41
276.259	43.57
276.475	48.12
276.691	38.73
276.908	-4.52
277.124	3.52
277.34	4.08
277.557	-20.38
277.773	-12.32
277.989	-7.07
278.205	-21.05
278.422	-8.8
278.638	-3.04
278.854	6.35
279.07	9.96
279.286	6.6
279.503	-26.25
279.719	-31.82
279.935	-51.24
280.151	-67.52
280.367	-44.16
280.583	-55.74
280.799	-54.19
281.016	-67.91
281.232	-22.15
281.448	-9.55
281.664	18.93
281.88	19.74
282.096	35.01
282.312	57.17
282.528	54.75
282.744	48
282.96	43.29
283.176	14.09
283.392	-0.62
283.608	-7.26
283.824	-2.89
284.04	-1.47
284.256	1.92
284.471	-13.26
284.687	-16.48
284.903	8.35
285.119	44.05
285.335	21.47
285.551	30.55
285.767	3.52
285.982	-28.14
286.198	-86.42
286.414	-7.67
286.63	-2.98
286.846	35.15
287.061	16.76
287.277	52.67
287.493	18.2
287.709	33.05
287.924	3.19
288.14	34.89
288.356	21.37
288.571	45.25
288.787	14.24
289.003	19.65
289.218	-1.17
289.434	-47.3
289.65	-42.33
289.865	-48.69
290.081	-38.23
290.296	-24.46
290.512	-10.13
290.727	-52.26
290.943	-34.38
291.159	-39.14
291.374	-30.89
291.59	-36.64
291.805	-18.07
292.021	-8.35
292.236	-11.16
292.451	9.19
292.667	14.47
292.882	21.68
293.098	13.16
293.313	2.34
293.529	-32.87
293.744	-38.51
293.959	-48.88
294.175	-38.25
294.39	-3.44
294.605	9.74
294.821	34.09
295.036	51.71
295.251	51.36
295.467	45.3
295.682	26.38
295.897	-42.93
296.112	-68.09
296.328	-62.81
296.543	-112.93
296.758	-90.92
296.973	-26.17
297.188	18.8
297.404	-3.65
297.619	-8.62
297.834	-20.57
298.049	-49.08
298.264	-87.57
298.479	-21.2
298.694	-3.31
298.909	18.9
299.125	24.71
299.34	41.53
299.555	6.85
299.77	9.5
299.985	-43.68
300.2	-98.07
300.415	-132.23
300.63	-86.24
300.845	-92.5
301.06	-83.89
301.275	-33.4
301.49	-4.69
301.704	-24.47
301.919	-36.37
302.134	-43.57
302.349	-50.9
302.564	-132
302.779	-170.14
302.994	-152.78
303.209	-88.64
303.423	-66.94
303.638	15.87
303.853	-10.78
304.068	-17.96
304.283	-26.61
304.497	-24.75
304.712	-33.22
304.927	-4.94
305.142	-8.52
305.356	2.49
305.571	-4.36
305.786	-19.6
306	-30.82
306.215	-25.06
306.43	-63.03
306.644	-53.58
306.859	17.22
307.074	11.14
307.288	-9.9
307.503	21.47
307.717	2.48
307.932	-24.65
308.147	-31.7
308.361	-10.1
308.576	-24.92
308.79	-64.61
309.005	-55.41
309.219	-40.19
309.434	-59.62
309.648	-61.79
309.863	-15.88
310.077	-22.36
310.292	-23.78
310.506	-26.43
310.72	-2.04
310.935	-18.13
311.149	-7.56
311.364	2.8
311.578	24.21
311.792	8.94
312.007	21.01
312.221	-3.52
312.435	2.64
312.649	-7.19
312.864	44.06
313.078	49.27
313.292	132.84
313.507	117.19
313.721	142.1
313.935	45.38
314.149	37.78
314.363	16.17
314.578	20.24
314.792	23.63
315.006	3.32
315.22	17.92
315.434	29
315.648	30.69
315.862	29.01
316.077	41.78
316.291	20.03
316.505	5.35
316.719	2.95
316.933	-2.75
317.147	-4.06
317.361	-51.59
317.575	-57.8
317.789	-95.3
318.003	-162.39
318.217	-128.92
318.431	-17.12
318.645	30.85
318.859	25.37
319.073	50.65
319.287	35.77
319.5	3.89
319.714	-53.02
319.928	-80
320.142	-96.38
320.356	-51.22
320.57	-26.49
320.784	-36.35
320.997	-35.73
321.211	-40.44
321.425	-86.54
321.639	-103.74
321.853	-32.99
322.066	-12.76
322.28	-24.75
322.494	-3.6
322.707	17.87
322.921	3.16
323.135	0.8
323.349	15.98
323.562	-14.04
323.776	-24.15
323.989	-22.28
324.203	-46.15
324.417	-57.43
324.63	-51.17
324.844	-55.62
325.057	-67.81
325.271	-29.46
325.485	-5
325.698	14.5
325.912	31.94
326.125	18.18
326.339	6.52
326.552	-6.73
326.766	-17.18
326.979	-16.44
327.193	27.84
327.406	2.61
327.619	1.18
327.833	22.08
328.046	7.58
328.26	-23.68
328.473	5.44
328.686	-17.88
328.9	-20.81
329.113	-5.99
329.326	-29.53
329.54	-3.65
329.753	10.73
329.966	-13.32
330.179	-4.33
330.393	6.06
330.606	11.61
330.819	23.08
331.032	35.86
331.246	27.45
331.459	53.36
331.672	38.72
331.885	25.64
332.098	3.05
332.311	-2.27
332.525	-55.86
332.738	-15.18
332.951	11.79
333.164	34.6
333.377	64.02
333.59	73.51
333.803	51.91
334.016	47.88
334.229	25.74
334.442	9.54
334.655	17.98
334.868	39.26
335.081	18.28
335.294	23.62
335.507	11.55
335.72	11.11
335.933	-18.26
336.146	-9.88
336.359	-5.99
336.572	-37.41
336.785	-74.93
336.997	-58.92
337.21	-35.44
337.423	-29.62
337.636	-16.69
337.849	10.04
338.062	10.78
338.274	6.5
338.487	-15.94
338.7	-7.84
338.913	-63.56
339.125	-91.64
339.338	-142.14
339.551	-103.18
339.763	-76.16
339.976	-33.91
340.189	3.41
340.402	12.74
340.614	-6.9
340.827	-12.45
341.039	-27.69
341.252	-29.22
341.465	-13
341.677	-5.33
341.89	-33.55
342.102	2.27
342.315	-13.82
342.527	-43.41
342.74	-36.33
342.952	-15.9
343.165	-20.61
343.377	-4.49
343.59	1.71
343.802	24.03
344.015	36.23
344.227	48.27
344.44	43.99
344.652	39.19
344.864	18.25
345.077	27.85
345.289	22.53
345.502	24.67
345.714	19.05
345.926	21.3
346.139	0.8
346.351	5.96
346.563	20.02
346.775	30.92
346.988	23.26
347.2	30.84
347.412	-10.44
347.624	-38.05
347.837	-72.78
348.049	-60.36
348.261	-37.71
348.473	-34.64
348.685	-44.33
348.897	-29.85
349.11	-44.19
349.322	-69.39
349.534	-33.49
349.746	-14.22
349.958	-11.77
350.17	-20.09
350.382	5.21
350.594	6.26
350.806	5.11
351.018	3.95
351.23	12.32
351.442	-48.56
351.654	-62.94
351.866	-55.33
352.078	-36.68
352.29	-11.98
352.502	21.68
352.714	28.06
352.926	16.75
353.138	15.42
353.35	-1.33
353.561	-14.26
353.773	-32.98
353.985	-10.86
354.197	-28.03
354.409	-29.93
354.621	-28.1
354.832	-3.56
355.044	-22.72
355.256	-14.89
355.468	6.39
355.679	0.26
355.891	-0.57
356.103	-1.88
356.314	-3.92
356.526	-12.85
356.738	-0.17
356.949	-13.8
357.161	1.61
357.373	-2.24
357.584	-9.85
357.796	-11.04
358.008	-18.19
358.219	-7.29
358.431	-8.35
358.642	0.29
358.854	4.38
359.065	-4.1
359.277	-37.83
359.488	-41.89
359.7	-78.85
359.911	-83.28
360.123	-60.98
360.334	-62.93
360.546	-79.19
360.757	-49.08
360.969	-39.03
361.18	-31
361.391	-14.64
361.603	-22.44
361.814	-25.14
362.025	-30.53
362.237	-34.76
362.448	-18.46
362.659	6.05
362.871	-5.2
363.082	-7.54
363.293	8.21
363.504	-25.51
363.716	-40.11
363.927	-44.52
364.138	-51.92
364.349	-75.77
364.56	-48.11
364.772	-49.59
364.983	-18.64
365.194	-20.22
365.405	-6.95
365.616	13.61
365.827	19.55
366.038	-12.2
366.25	-4.05
366.461	-40.01
366.672	-27.82
366.883	-11.97
367.094	7.53
367.305	-16.8
367.516	-2.42
367.727	-40.23
367.938	-51.64
368.149	-59.66
368.36	-26.79
368.571	-10.9
368.781	-18.43
368.992	-30.79
369.203	-39.67
369.414	-60.97
369.625	-83.91
369.836	-69.38
370.047	-89.39
370.258	-68.4
370.468	-70.41
370.679	-88.64
370.89	-74.92
371.101	-45.98
371.312	-43.86
371.522	-31.42
371.733	-10.54
371.944	-1.73
372.155	13.08
372.365	-4
372.576	-2.22
372.787	-3.09
372.997	-21.95
373.208	-28.7
373.419	4.94
373.629	-19.39
373.84	-23.4
374.05	-28.14
374.261	-21.45
374.472	-33.97
374.682	17.9
374.893	12.77
375.103	45.77
375.314	33.4
375.524	24.87
375.735	16.75
375.945	31.35
376.156	-1.66
376.366	6.08
376.577	16.45
376.787	-3.59
376.997	-3.89
377.208	3.82
377.418	-10.31
377.629	-1.41
377.839	0.71
378.049	-4
378.26	3.9
378.47	14.18
378.68	0.54
378.89	-7.1
379.101	-5.73
379.311	-28.09
379.521	-62.2
379.732	-63.9
379.942	-43.89
380.152	-68.39
380.362	-42.4
380.572	-25.89
380.783	-11.58
380.993	-8.51
381.203	9.75
381.413	27.56
381.623	24
381.833	25.17
382.043	13.79
382.253	14.82
382.463	11.46
382.674	6.24
382.884	-16.57
383.094	-14.61
383.304	-11.27
383.514	-11.04
383.724	5.24
383.934	2.38
384.144	-1.13
384.353	-13.19
384.563	-11.07
384.773	-12.96
384.983	-7.89
385.193	7.69
385.403	13.91
385.613	14.27
385.823	5.59
386.033	6.75
386.242	-3.59
386.452	-8.81
386.662	-24.51
386.872	-9.96
387.082	-14.22
387.291	-18.05
387.501	-13.93
387.711	-3.72
387.921	-12.47
388.13	-5.09
388.34	11.09
388.55	5.93
388.759	8.31
388.969	12.41
389.179	9.75
389.388	1.57
389.598	7.75
389.807	-2.98
390.017	-5.76
390.227	-4.12
390.436	-1.64
390.646	-0.35
390.855	7.06
391.065	8.23
391.274	5.15
391.484	2.74
391.693	4.35
391.903	7.47
392.112	11.68
392.322	17.61
392.531	21.32
392.74	23.09
392.95	17.93
393.159	14.49
393.369	11.6
393.578	11.48
393.787	7.73
393.997	9.43
394.206	10.61
394.415	11.5
394.625	10.91
394.834	10.58
395.043	12.06
395.252	13.95
395.462	16.27
395.671	17.32
395.88	18.49
396.089	19.6
396.298	17.79
396.508	16.85
396.717	16.76
396.926	17.97
397.135	17.17
397.344	17.18
397.553	17.72
397.762	18.71
397.971	17.77
398.181	18.18
398.39	18.24
398.599	18.16
398.808	17.28
399.017	18.25
399.226	19.57
399.435	20.59
399.644	20.32
399.853	19.91
400.062	18.94
400.27	18.41
400.479	17.63
400.688	17.09
400.897	17.42
401.106	17.63
401.315	17.41
401.524	17.49
401.733	18.06
401.941	18.71
402.15	18.83
402.359	18.36
402.568	19.09
402.777	19.43
402.985	18.99
403.194	18.91
403.403	19.09
403.612	18.45
403.82	17.96
404.029	17.72
404.238	17.61
404.446	17.82
404.655	17.83
404.864	17.74
405.072	17.69
405.281	18.12
405.489	17.79
405.698	17.64
405.906	17.62
406.115	17.72
406.324	17.39
406.532	17.47
406.741	17.61
406.949	17.66
407.158	17.51
407.366	17.5
407.574	17.27
407.783	17.35
407.991	17.19
408.2	17.23
408.408	17.05
408.617	17.01
408.825	16.57
409.033	16.67
409.242	16.84
409.45	17.08
409.658	17
409.867	17.22
410.075	16.93
410.283	16.64
410.491	16.28
410.7	16.25
410.908	16.23
411.116	16.5
411.324	16.56
411.533	16.44
411.741	16.69
411.949	16.53
412.157	16.35
412.365	16.27
412.573	16.49
412.781	16.42
412.99	16.4
413.198	16.36
413.406	16.33
413.614	16.11
413.822	15.84
414.03	15.68
414.238	15.51
414.446	15.66
414.654	15.56
414.862	15.83
415.07	16.08
415.278	16.17
415.486	15.76
415.694	15.82
415.902	15.4
416.109	15.14
416.317	15.25
416.525	15.28
416.733	15.3
416.941	15.44
417.149	15.39
417.357	15.3
417.564	15.46
417.772	15.53
417.98	15.42
418.188	15.49
418.395	15.37
418.603	15.36
418.811	15.17
419.019	15.03
419.226	15.14
419.434	15.24
419.642	14.94
419.849	15.07
420.057	15.22
420.265	15.08
420.472	14.72
420.68	14.99
420.887	14.79
421.095	14.6
421.302	14.48
421.51	14.66
421.717	14.48
421.925	14.5
422.132	14.42
422.34	14.28
422.547	14.33
422.755	14.29
422.962	14.24
423.17	14.3
423.377	14.43
423.585	14.44
423.792	14.44
423.999	14.45
424.207	14.5
424.414	14.62
424.621	14.65
424.829	14.56
425.036	14.51
425.243	14.6
425.451	14.39
425.658	14.07
425.865	14.19
426.072	14.28
426.28	14.55
426.487	14.61
426.694	14.82
426.901	14.72
427.108	14.72
427.315	14.39
427.523	14.71
427.73	14.74
427.937	14.67
428.144	14.55
428.351	14.56
428.558	14.6
428.765	14.51
428.972	14.61
429.179	14.83
429.386	15.18
429.593	14.92
429.8	14.99
430.007	15.3
430.214	15.42
430.421	15.19
430.628	15.1
430.835	14.9
431.042	14.97
431.249	14.99
431.456	15.05
431.662	15.39
431.869	15.71
432.076	15.74
432.283	15.86
432.49	15.76
432.697	15.72
432.903	15.59
433.11	15.36
433.317	15.49
433.524	15.75
433.73	15.77
433.937	16.09
434.144	16.14
434.35	16.01
434.557	15.92
434.764	16.03
434.97	15.99
435.177	16.09
435.384	16.1
435.59	16.3
435.797	16.43
436.003	16.61
436.21	16.71
436.416	16.94
436.623	17.04
436.829	17.05
437.036	17.1
437.242	17.17
437.449	17.08
437.655	16.99
437.862	16.97
438.068	16.86
438.275	17.07
438.481	17.3
438.687	17.47
438.894	17.54
439.1	17.65
439.307	17.66
439.513	17.62
439.719	17.57
439.926	17.73
440.132	17.77
440.338	17.61
440.544	17.69
440.751	17.71
440.957	17.77
441.163	17.71
441.369	17.86
441.575	17.67
441.782	17.76
441.988	17.67
442.194	17.81
442.4	17.84
442.606	18.16
442.812	18.22
443.018	18.37
443.224	18.26
443.431	18.44
443.637	18.19
443.843	18.11
444.049	18.07
444.255	18.2
444.461	18.24
444.667	18.31
444.873	18.5
445.079	18.58
445.284	18.64
445.49	18.42
445.696	18.37
445.902	18.33
446.108	18.3
446.314	18.28
446.52	18.51
446.726	18.72
446.931	18.83
447.137	18.92
447.343	19.02
447.549	18.87
447.755	18.81
447.96	18.83
448.166	18.76
448.372	18.72
448.578	18.84
448.783	18.86
448.989	18.97
449.195	19.29
449.4	19.32
449.606	19.22
449.812	19.16
450.017	19.05
450.223	18.71
450.428	18.58
450.634	18.75
450.84	19
451.045	18.93
451.251	18.98
451.456	19.35
451.662	19.54
451.867	19.6
452.073	19.71
452.278	19.85
452.483	19.85
452.689	19.63
452.894	19.6
453.1	19.61
453.305	19.58
453.51	19.47
453.716	19.44
453.921	19.38
454.127	19.38
454.332	19.4
454.537	19.38
454.742	19.52
454.948	19.58
455.153	19.49
455.358	19.48
455.563	19.68
455.769	19.81
455.974	19.73
456.179	19.74
456.384	19.79
456.589	19.62
