Data from Ofra_PS_T2_1A_0GT03_Reflection_2.txt Node
Date: Wed Jul 21 17:46:09 EDT 2021
User: Adam
Spectrometer: FLMT01687
Trigger mode: 0
Integration Time (sec): 1.100000E0
Scans to average: 2
Electric dark correction enabled: true
Nonlinearity correction enabled: false
Boxcar width: 2
XAxis mode: Wavelengths
Number of Pixels in Spectrum: 3648
>>>>>Begin Spectral Data<<<<<
179.494	655.2
179.716	712.24
179.937	709.48
180.158	675.75
180.38	1042.5
180.601	367.96
180.823	126.6
181.044	-143.6
181.265	-11.03
181.486	-28.15
181.708	92.84
181.929	697.96
182.15	-456.34
182.372	44.59
182.593	-110.8
182.814	2.58
183.035	41.22
183.257	39.62
183.478	-38.94
183.699	14.01
183.92	15.24
184.141	27.17
184.363	-20.12
184.584	43.35
184.805	59.14
185.026	82.27
185.247	77.41
185.468	41.08
185.689	28.01
185.91	22.35
186.132	4.41
186.353	1.39
186.574	76.96
186.795	56.38
187.016	-3.9
187.237	-24.39
187.458	-81
187.679	-85.92
187.9	-42.86
188.121	-45.04
188.342	-14.19
188.563	46.3
188.784	61.75
189.005	54.34
189.226	136.63
189.447	67.57
189.667	-42.23
189.888	-232.02
190.109	-962.34
190.33	-689.03
190.551	-1022.12
190.772	-251.33
190.993	-239.14
191.214	-203.06
191.434	-123.02
191.655	-34.23
191.876	-73.53
192.097	-103.85
192.318	-164.75
192.538	-238.42
192.759	-216.69
192.98	-101.58
193.201	-42.53
193.421	-21.34
193.642	4.1
193.863	9.13
194.083	-17.95
194.304	-34.78
194.525	-47.59
194.745	-87.11
194.966	-80.86
195.187	-80.07
195.407	-90.33
195.628	-102.81
195.848	-113.95
196.069	-121.88
196.29	-81.23
196.51	-107.45
196.731	-109.72
196.951	-123.51
197.172	-122.49
197.392	-168.82
197.613	-159.07
197.833	-198.41
198.054	-168.71
198.274	-107.98
198.495	-108.14
198.715	-52.44
198.936	-37.78
199.156	-28.83
199.377	-95.95
199.597	-110.29
199.817	-132.91
200.038	-60.17
200.258	-96.95
200.479	-53.08
200.699	20.14
200.919	40.21
201.14	-32.91
201.36	-58
201.58	2.39
201.801	28.7
202.021	-4.75
202.241	14.84
202.461	11.18
202.682	-61.07
202.902	-135.24
203.122	-100.73
203.342	-88.68
203.563	-24.66
203.783	11.3
204.003	-21.77
204.223	-2.24
204.443	42.86
204.663	18.91
204.884	11.37
205.104	47.93
205.324	91.58
205.544	50.05
205.764	68.57
205.984	74.74
206.204	62.78
206.424	38.53
206.644	44.16
206.864	12.15
207.084	-26.26
207.304	28.05
207.525	-63.75
207.745	-46.15
207.964	44.5
208.184	-21.83
208.404	-81.13
208.624	-90.25
208.844	-88.63
209.064	-465.9
209.284	-499.74
209.504	-229.08
209.724	-54.93
209.944	-26.88
210.164	20.94
210.384	33.8
210.604	17.69
210.823	-39.46
211.043	-81.08
211.263	-56.97
211.483	-61.93
211.703	-133.45
211.922	-105.87
212.142	-3.26
212.362	-8.14
212.582	-23.82
212.801	-0.24
213.021	-15.61
213.241	-62.72
213.461	-92.12
213.68	-104.09
213.9	-90.52
214.12	-67.67
214.339	-122.66
214.559	-112.01
214.779	-55.15
214.998	-55.42
215.218	-101.58
215.438	-52.42
215.657	-47.97
215.877	-33.83
216.096	-6.61
216.316	21.61
216.535	13.83
216.755	18.42
216.974	-43.98
217.194	-69.34
217.413	-98.2
217.633	-114.79
217.852	-210.17
218.072	-91.76
218.291	-27.29
218.511	12.22
218.73	-2.76
218.95	-6.04
219.169	-0.96
219.389	-45.24
219.608	-45.58
219.827	-44.95
220.047	-24.25
220.266	-28.76
220.485	-34.93
220.705	-17.52
220.924	-32.13
221.143	9.48
221.363	-11.53
221.582	-6.81
221.801	-6.27
222.021	14.21
222.24	-118.16
222.459	-95.01
222.678	-74.45
222.897	-152.37
223.117	-191.65
223.336	-121.04
223.555	-74.64
223.774	-20.31
223.993	3.97
224.213	60.2
224.432	36.7
224.651	63.73
224.87	25.18
225.089	40.74
225.308	33.64
225.527	38.95
225.746	26.77
225.965	12.11
226.184	-29.44
226.404	-24.21
226.623	-39.99
226.842	-36.85
227.061	4.32
227.28	18.52
227.499	14.39
227.718	19.48
227.936	13.46
228.155	26.98
228.374	13.55
228.593	26.24
228.812	48.84
229.031	45.33
229.25	-19.2
229.469	-8.63
229.688	-12.32
229.907	11.65
230.125	26.75
230.344	33.83
230.563	44.02
230.782	48.56
231.001	-22.21
231.22	-31.49
231.438	-2.22
231.657	-4.33
231.876	-11.65
232.095	36
232.313	33.67
232.532	11.78
232.751	-17.98
232.969	-42.3
233.188	-124.71
233.407	-30.7
233.625	-9.28
233.844	-26.94
234.063	-11.68
234.281	6.53
234.5	-0.61
234.719	13.05
234.937	28.86
235.156	34.38
235.374	34.35
235.593	14.35
235.811	-20.98
236.03	-39.38
236.249	-89.77
236.467	-88.49
236.686	-33.13
236.904	-13.45
237.123	-37.99
237.341	-15.53
237.559	-5.88
237.778	-18.79
237.996	-37.75
238.215	13.18
238.433	7.15
238.652	-14.62
238.87	-43.3
239.088	-39.34
239.307	-48.07
239.525	-60.79
239.743	-61.43
239.962	-43.71
240.18	-38.23
240.398	-69.05
240.617	-76.1
240.835	-66.25
241.053	-23.16
241.271	42.51
241.49	55.47
241.708	51.92
241.926	68.55
242.144	23.52
242.363	-52.49
242.581	-93.9
242.799	-66.82
243.017	-38.5
243.235	-50.92
243.453	-31.77
243.672	-29.89
243.89	-7.93
244.108	-15.79
244.326	17.11
244.544	23.98
244.762	34.57
244.98	41.27
245.198	46.51
245.416	17.32
245.634	10.63
245.852	-2.88
246.07	-8.04
246.288	-10.1
246.506	-57.87
246.724	-38.89
246.942	-19.07
247.16	27.61
247.378	34.03
247.596	68.8
247.814	63.04
248.032	33.81
248.25	15.1
248.468	23.55
248.685	29.46
248.903	53.61
249.121	59
249.339	21.85
249.557	-4.78
249.775	0.69
249.992	-76.95
250.21	-71.67
250.428	-43.39
250.646	-73.77
250.863	-97.53
251.081	-49.52
251.299	-44.95
251.517	-30.93
251.734	3.21
251.952	7.89
252.17	2.67
252.387	13.42
252.605	3.28
252.823	12.67
253.04	35.95
253.258	60.3
253.475	63.83
253.693	80.82
253.911	66.65
254.128	65.85
254.346	45.66
254.563	29.01
254.781	1.04
254.998	-25.2
255.216	-32.49
255.433	-9.01
255.651	33.55
255.868	88.62
256.086	111.61
256.303	88.34
256.521	52.03
256.738	26.61
256.956	-31.53
257.173	-62.41
257.39	-70.74
257.608	-85.86
257.825	-55.95
258.043	-13.2
258.26	0.21
258.477	29.72
258.695	31.6
258.912	-7.38
259.129	-3.23
259.346	-47.25
259.564	-105.45
259.781	-113.65
259.998	-31.15
260.216	-12.39
260.433	27.56
260.65	46.68
260.867	45.47
261.084	-7.86
261.302	-25.97
261.519	-26.74
261.736	-58.36
261.953	-73.61
262.17	-10.61
262.387	-46.98
262.604	-99.57
262.822	-99.25
263.039	-73.26
263.256	-148.27
263.473	-87.79
263.69	-43.74
263.907	9.11
264.124	11.55
264.341	18.69
264.558	11.12
264.775	21.62
264.992	6.31
265.209	-2.2
265.426	24.64
265.643	31.01
265.86	45.01
266.077	43.65
266.294	63.93
266.51	29.71
266.727	3.87
266.944	2.14
267.161	-11.78
267.378	-16.45
267.595	0.4
267.812	-27.6
268.028	-49.42
268.245	-21.98
268.462	-42.12
268.679	-55.38
268.896	9.68
269.112	17.4
269.329	6.34
269.546	24.47
269.763	33.19
269.979	17.9
270.196	7.67
270.413	-28.76
270.629	-73.05
270.846	-95.97
271.063	-91.87
271.279	-92.19
271.496	-66.29
271.712	-1.84
271.929	32.87
272.146	30.88
272.362	26.73
272.579	50.17
272.795	37.27
273.012	33.36
273.228	36.45
273.445	0.24
273.661	-22.7
273.878	-87.37
274.094	-72.89
274.311	-109.66
274.527	-22.75
274.744	-17.69
274.96	3.18
275.177	3.96
275.393	24.21
275.609	14.53
275.826	25.89
276.042	10.28
276.259	3.73
276.475	18.86
276.691	19.12
276.908	-1.09
277.124	23.45
277.34	16.92
277.557	-5.72
277.773	-14.38
277.989	-9.62
278.205	-10.7
278.422	1.64
278.638	20.65
278.854	37.52
279.07	26.92
279.286	-0.97
279.503	-30.17
279.719	-40.94
279.935	-63.24
280.151	-52.37
280.367	-11.51
280.583	-12.87
280.799	-27.29
281.016	-56.57
281.232	-26.6
281.448	-25.2
281.664	6.7
281.88	-9.01
282.096	19.03
282.312	42.92
282.528	53.25
282.744	46.43
282.96	48.27
283.176	35.7
283.392	27.42
283.608	17.6
283.824	8.86
284.04	11.82
284.256	30
284.471	8.13
284.687	-0.54
284.903	18.95
285.119	54.96
285.335	25.32
285.551	50.04
285.767	22.28
285.982	-1.01
286.198	-56.74
286.414	-6.47
286.63	6.33
286.846	39.06
287.061	21.45
287.277	49.61
287.493	24.25
287.709	35.05
287.924	24.05
288.14	72.87
288.356	65.65
288.571	85.26
288.787	60
289.003	48.24
289.218	30.78
289.434	-3.41
289.65	-2.17
289.865	-4.89
290.081	25.19
290.296	-1.07
290.512	8.73
290.727	-43.3
290.943	-38.36
291.159	-41.61
291.374	-46.83
291.59	-74.59
291.805	-40.58
292.021	-29.51
292.236	-46.76
292.451	-10.89
292.667	5.53
292.882	16.57
293.098	8.64
293.313	-12.77
293.529	-47.82
293.744	-67.66
293.959	-69.67
294.175	-57.63
294.39	-15.1
294.605	11.04
294.821	43.85
295.036	44.85
295.251	45.48
295.467	6.96
295.682	-13.37
295.897	-77.59
296.112	-91.04
296.328	-86.13
296.543	-67.91
296.758	-75
296.973	-23.06
297.188	28.39
297.404	3.17
297.619	-9.22
297.834	-11.38
298.049	-26.95
298.264	-79.97
298.479	-24.52
298.694	-6.5
298.909	11.72
299.125	18.59
299.34	30.12
299.555	10.86
299.77	20.71
299.985	-31.39
300.2	-78.51
300.415	-82.21
300.63	-41.61
300.845	-50.03
301.06	-41.08
301.275	-11.68
301.49	8.41
301.704	-2.11
301.919	-37.07
302.134	-32.82
302.349	-44.71
302.564	-123.03
302.779	-180.81
302.994	-95.92
303.209	-83.13
303.423	-23.82
303.638	40.07
303.853	8.68
304.068	-3.15
304.283	9.1
304.497	1.31
304.712	-10.18
304.927	8.16
305.142	2.89
305.356	14.09
305.571	7.61
305.786	-2.16
306	-17.45
306.215	-19.53
306.43	-38.67
306.644	-29.02
306.859	11.98
307.074	10.87
307.288	-12.12
307.503	-16.34
307.717	-32.09
307.932	-40.45
308.147	-40.13
308.361	-20.23
308.576	-41.77
308.79	-76.93
309.005	-62.31
309.219	-42.06
309.434	-57.64
309.648	-51.13
309.863	-19.66
310.077	-26.07
310.292	-26.68
310.506	-19.53
310.72	0.59
310.935	11.88
311.149	10.63
311.364	20.09
311.578	45.29
311.792	42.23
312.007	36.65
312.221	22.2
312.435	28.27
312.649	0.82
312.864	57.99
313.078	68.22
313.292	152.34
313.507	131.65
313.721	183.99
313.935	62.91
314.149	42.94
314.363	12.55
314.578	9.25
314.792	5.7
315.006	-15.12
315.22	8.14
315.434	14.35
315.648	25.4
315.862	26.53
316.077	30.95
316.291	7.56
316.505	30.05
316.719	55.9
316.933	-3.6
317.147	-2.99
317.361	-47.42
317.575	-99.09
317.789	-178.6
318.003	-233.5
318.217	-191.6
318.431	-66.81
318.645	1.55
318.859	11.44
319.073	46.33
319.287	37.22
319.5	8.71
319.714	-58.32
319.928	-88.68
320.142	-128.29
320.356	-95.82
320.57	-68.37
320.784	-65.28
320.997	-60.27
321.211	-44.42
321.425	-78.18
321.639	-105.34
321.853	-43.04
322.066	-12.24
322.28	-23.78
322.494	-20.45
322.707	4.07
322.921	-7.33
323.135	-19.04
323.349	6.25
323.562	-5.04
323.776	-30.13
323.989	-36.32
324.203	-59.25
324.417	-86.47
324.63	-102.58
324.844	-94.46
325.057	-85.83
325.271	-52.17
325.485	-19.49
325.698	-2.87
325.912	8.84
326.125	-21.03
326.339	-21.95
326.552	-51.82
326.766	-41.04
326.979	-21.1
327.193	21.29
327.406	3.12
327.619	11.94
327.833	22.8
328.046	-8.65
328.26	-37.92
328.473	-4.63
328.686	-25.66
328.9	-21.44
329.113	-14.01
329.326	-22.85
329.54	-28.4
329.753	-34.82
329.966	-80.37
330.179	-50.86
330.393	-26.92
330.606	-22.85
330.819	2.74
331.032	30.16
331.246	28.71
331.459	57.93
331.672	51.31
331.885	28.9
332.098	-0.46
332.311	3.04
332.525	-67.33
332.738	-21.28
332.951	29
333.164	55.3
333.377	59.4
333.59	79.09
333.803	60.72
334.016	45.33
334.229	42.8
334.442	44.69
334.655	56.88
334.868	59.18
335.081	48.32
335.294	26.15
335.507	15.05
335.72	-19.69
335.933	-32.27
336.146	-40.14
336.359	-35.02
336.572	-82.78
336.785	-86.46
336.997	-60.51
337.21	-35.46
337.423	-44.45
337.636	-22.51
337.849	2
338.062	-7.17
338.274	4.56
338.487	3.75
338.7	12.28
338.913	-34.25
339.125	-68.8
339.338	-132.59
339.551	-102.07
339.763	-58.91
339.976	-7.47
340.189	27.16
340.402	41.2
340.614	25.92
340.827	0.16
341.039	-28.64
341.252	-22.67
341.465	5.18
341.677	9.66
341.89	-11.96
342.102	7.82
342.315	-23
342.527	-71.75
342.74	-62.9
342.952	-22.92
343.165	-17.41
343.377	2.48
343.59	-3.68
343.802	15.37
344.015	29.54
344.227	33.91
344.44	42.88
344.652	43.24
344.864	19.31
345.077	23.88
345.289	24.55
345.502	20.45
345.714	16.45
345.926	24.04
346.139	7.75
346.351	25.88
346.563	35.7
346.775	41.17
346.988	27.12
347.2	16.12
347.412	-34.72
347.624	-60.37
347.837	-73.93
348.049	-28.29
348.261	20.92
348.473	17.89
348.685	5.78
348.897	11.53
349.11	-13.36
349.322	-43.58
349.534	-22.04
349.746	-7.66
349.958	4
350.17	8.91
350.382	19.73
350.594	7.8
350.806	17.94
351.018	9.92
351.23	-5.25
351.442	-62.91
351.654	-61.88
351.866	-71.27
352.078	-71.49
352.29	-43.57
352.502	-3.17
352.714	7.43
352.926	-3.27
353.138	2.11
353.35	-10.47
353.561	-13.88
353.773	-43.07
353.985	-26.22
354.197	-43.15
354.409	-42.26
354.621	-49.59
354.832	-24.39
355.044	-25.9
355.256	-21.25
355.468	-0.98
355.679	-11.51
355.891	-9.56
356.103	-28.68
356.314	-25.88
356.526	-40.06
356.738	-20.95
356.949	-39.57
357.161	-15.28
357.373	-8.54
357.584	-12.06
357.796	4.01
358.008	12.36
358.219	29.47
358.431	20.36
358.642	34.9
358.854	20.43
359.065	6.65
359.277	-32.56
359.488	-37.54
359.7	-70.08
359.911	-77.45
360.123	-53.99
360.334	-62.13
360.546	-77.18
360.757	-75.8
360.969	-61.81
361.18	-49.29
361.391	-2.51
361.603	-4.49
361.814	5.51
362.025	-10.3
362.237	-14.83
362.448	-16.42
362.659	-1.29
362.871	0.55
363.082	8.12
363.293	6.64
363.504	-5.51
363.716	-20.47
363.927	-26.79
364.138	-62.47
364.349	-66.58
364.56	-68.13
364.772	-51.41
364.983	-30.89
365.194	-17.64
365.405	-3.03
365.616	27.43
365.827	26.97
366.038	14.25
366.25	6.34
366.461	-33.29
366.672	-33.47
366.883	-6.14
367.094	-0.13
367.305	-1.69
367.516	10.88
367.727	-18.34
367.938	-40.4
368.149	-50.83
368.36	-31.06
368.571	-24.3
368.781	-31.26
368.992	-39.62
369.203	-45.77
369.414	-71.32
369.625	-86.97
369.836	-68.17
370.047	-85.66
370.258	-82
370.468	-72.06
370.679	-80.96
370.89	-83.44
371.101	-60.33
371.312	-58.87
371.522	-46.84
371.733	-31.38
371.944	-8.71
372.155	4
372.365	2.07
372.576	-5
372.787	-9.99
372.997	-42.84
373.208	-48.57
373.419	-10.85
373.629	-46.39
373.84	-42.81
374.05	-41.55
374.261	-28.9
374.472	-51.85
374.682	9.68
374.893	5.07
375.103	40.42
375.314	28.14
375.524	25.23
375.735	21.52
375.945	34.64
376.156	-2.14
376.366	2.52
376.577	4.34
376.787	-6.27
376.997	1.26
377.208	8.55
377.418	-0.88
377.629	10.41
377.839	6.52
378.049	-1.85
378.26	15.17
378.47	21.4
378.68	9.95
378.89	6.14
379.101	5.15
379.311	-23.98
379.521	-55.76
379.732	-64.39
379.942	-47.7
380.152	-74.4
380.362	-45.65
380.572	-34.79
380.783	-14.98
380.993	-10.4
381.203	1.72
381.413	11.14
381.623	24.24
381.833	14.04
382.043	-0.84
382.253	-1.15
382.463	-4.53
382.674	-16.87
382.884	-27.03
383.094	-24.29
383.304	-22.56
383.514	-18.04
383.724	-2.14
383.934	-12.95
384.144	-20.88
384.353	-26.58
384.563	-23.95
384.773	-24.51
384.983	-21.28
385.193	-0.25
385.403	2.46
385.613	-0.99
385.823	-16.58
386.033	-6.6
386.242	-16.2
386.452	-15.71
386.662	-18.91
386.872	2.94
387.082	-3.93
387.291	-11.22
387.501	-11.36
387.711	-6.14
387.921	-17.55
388.13	-14.41
388.34	3
388.55	-3.93
388.759	-10.05
388.969	-3.64
389.179	-4.21
389.388	-11.48
389.598	-0
389.807	-0.67
390.017	-5.49
390.227	-2.17
390.436	-5.84
390.646	-5.85
390.855	-1.63
391.065	-2
391.274	-5.6
391.484	-4.32
391.693	-5.03
391.903	-5.3
392.112	0.61
392.322	3.44
392.531	8.37
392.74	8.97
392.95	3.8
393.159	-0.02
393.369	-0.36
393.578	-3.51
393.787	-4.43
393.997	-1.61
394.206	-3.11
394.415	-2.08
394.625	-2.87
394.834	-4.03
395.043	-2.11
395.252	0.76
395.462	2.84
395.671	4.39
395.88	4.63
396.089	5.27
396.298	3.62
396.508	1.83
396.717	1.79
396.926	2.34
397.135	1.87
397.344	1.36
397.553	2.73
397.762	3.95
397.971	3.75
398.181	3.6
398.39	3.85
398.599	2.68
398.808	2.17
399.017	3.01
399.226	3.87
399.435	4.76
399.644	5.27
399.853	4.4
400.062	3.91
400.27	3.65
400.479	3.33
400.688	2.3
400.897	2.77
401.106	2.81
401.315	2.43
401.524	2.55
401.733	3.43
401.941	3.92
402.15	3.79
402.359	3.46
402.568	3.57
402.777	3.76
402.985	3.48
403.194	3.39
403.403	3.63
403.612	3.13
403.82	2.73
404.029	2.77
404.238	2.81
404.446	3.08
404.655	3.04
404.864	3.01
405.072	2.68
405.281	2.88
405.489	2.52
405.698	2.51
405.906	2.58
406.115	2.61
406.324	2.56
406.532	2.66
406.741	2.94
406.949	2.84
407.158	2.98
407.366	2.96
407.574	2.97
407.783	2.92
407.991	2.73
408.2	2.79
408.408	2.7
408.617	2.62
408.825	2.45
409.033	2.63
409.242	2.75
409.45	2.82
409.658	2.77
409.867	2.92
410.075	2.84
410.283	2.59
410.491	2.69
410.7	2.61
410.908	2.67
411.116	2.94
411.324	2.97
411.533	2.77
411.741	2.99
411.949	2.93
412.157	2.55
412.365	2.72
412.573	2.8
412.781	2.87
412.99	2.84
413.198	3.21
413.406	3.07
413.614	3.13
413.822	2.86
414.03	2.68
414.238	2.3
414.446	2.46
414.654	2.18
414.862	2.29
415.07	2.52
415.278	2.83
415.486	2.52
415.694	2.65
415.902	2.64
416.109	2.5
416.317	2.41
416.525	2.36
416.733	2.34
416.941	2.47
417.149	2.43
417.357	2.49
417.564	2.71
417.772	2.95
417.98	2.81
418.188	2.82
418.395	2.72
418.603	2.85
418.811	2.47
419.019	2.4
419.226	2.78
419.434	2.92
419.642	2.62
419.849	2.86
420.057	2.88
420.265	2.6
420.472	2.42
420.68	2.36
420.887	2.26
421.095	2.34
421.302	2.27
421.51	2.39
421.717	2.61
421.925	2.67
422.132	2.54
422.34	2.35
422.547	2.25
422.755	2
422.962	1.82
423.17	1.75
423.377	2.02
423.585	1.97
423.792	2.01
423.999	1.99
424.207	2.03
424.414	2.06
424.621	2.1
424.829	2.16
425.036	2.34
425.243	2.41
425.451	2.35
425.658	2.15
425.865	2.36
426.072	2.3
426.28	2.66
426.487	2.44
426.694	2.68
426.901	2.45
427.108	2.44
427.315	2.12
427.523	2.46
427.73	2.31
427.937	2.34
428.144	2.05
428.351	2.06
428.558	2.19
428.765	2.19
428.972	2.12
429.179	2.42
429.386	2.6
429.593	2.23
429.8	2.21
430.007	2.35
430.214	2.43
430.421	2.14
430.628	2.03
430.835	1.93
431.042	2.11
431.249	2.09
431.456	2.17
431.662	2.37
431.869	2.55
432.076	2.54
432.283	2.62
432.49	2.69
432.697	2.7
432.903	2.45
433.11	2.26
433.317	2.3
433.524	2.43
433.73	2.38
433.937	2.74
434.144	2.7
434.35	2.66
434.557	2.37
434.764	2.47
434.97	2.34
435.177	2.44
435.384	2.32
435.59	2.54
435.797	2.66
436.003	2.71
436.21	2.74
436.416	2.91
436.623	2.87
436.829	2.9
437.036	2.92
437.242	3
437.449	2.8
437.655	2.81
437.862	2.7
438.068	2.61
438.275	2.69
438.481	3.04
438.687	2.97
438.894	2.96
439.1	3.01
439.307	3.04
439.513	2.85
439.719	2.95
439.926	3.06
440.132	3.07
440.338	2.92
440.544	3.07
440.751	2.97
440.957	3.05
441.163	2.97
441.369	3.01
441.575	2.8
441.782	2.85
441.988	2.73
442.194	2.76
442.4	2.79
442.606	3.07
442.812	3.18
443.018	3.29
443.224	3.34
443.431	3.51
443.637	3.18
443.843	3.06
444.049	3.02
444.255	3.05
444.461	2.97
444.667	2.96
444.873	3.15
445.079	3.17
445.284	3.19
445.49	3
445.696	2.97
445.902	2.79
446.108	2.63
446.314	2.53
446.52	2.57
446.726	2.84
446.931	2.82
447.137	2.95
447.343	2.97
447.549	2.92
447.755	2.79
447.96	2.84
448.166	2.71
448.372	2.67
448.578	2.71
448.783	2.67
448.989	2.76
449.195	3
449.4	3.09
449.606	3.1
449.812	3.01
450.017	3.01
450.223	2.85
450.428	2.73
450.634	2.91
450.84	3.08
451.045	3.01
451.251	2.98
451.456	3.31
451.662	3.26
451.867	3.34
452.073	3.31
452.278	3.47
452.483	3.43
452.689	3.3
452.894	3.35
453.1	3.42
453.305	3.27
453.51	3.17
453.716	3.22
453.921	3.16
454.127	3.04
454.332	3
454.537	2.91
454.742	2.87
454.948	2.83
455.153	3.01
455.358	3.14
455.563	3.31
455.769	3.4
455.974	3.36
456.179	3.17
456.384	3.13
456.589	3.07
456.795	2.86
457	2.88
457.205	3.17
457.41	3.21
457.615	3.17
457.82	3.27
458.025	3.31
458.23	3.1
458.435	3.13
458.64	3.04
458.845	3.22
459.05	3.2
459.255	3.25
459.46	3.16
459.665	3.26
459.87	3.24
460.075	3.2
460.28	3.19
460.485	3.29
460.69	3.28
460.895	3.03
461.099	3.08
461.304	3.22
