Data from Ofra_1a_PS_2GT38_Reflection_3.txt Node
Date: Tue Jul 20 10:50:18 EDT 2021
User: Adam
Spectrometer: FLMT01687
Trigger mode: 0
Integration Time (sec): 1.004000E0
Scans to average: 2
Electric dark correction enabled: true
Nonlinearity correction enabled: false
Boxcar width: 2
XAxis mode: Wavelengths
Number of Pixels in Spectrum: 3648
>>>>>Begin Spectral Data<<<<<
179.494	-77.16
179.716	-154.96
179.937	214.05
180.158	104.46
180.38	68.25
180.601	33.35
180.823	44.48
181.044	9.54
181.265	152.74
181.486	63.72
181.708	36
181.929	-4545.45
182.15	-64.88
182.372	-169.46
182.593	17.83
182.814	-76.06
183.035	-19.73
183.257	12.57
183.478	-21.35
183.699	-38.03
183.92	-62.77
184.141	-62.29
184.363	-28.75
184.584	-16.91
184.805	0.72
185.026	48.78
185.247	66.44
185.468	59.36
185.689	56.91
185.91	71.26
186.132	48.06
186.353	47.82
186.574	43.98
186.795	42.12
187.016	42.24
187.237	31.54
187.458	15.59
187.679	10.65
187.9	23.05
188.121	31.85
188.342	68.55
188.563	75.71
188.784	71.71
189.005	55.02
189.226	45.41
189.447	12.25
189.667	1.84
189.888	1.97
190.109	-15.67
190.33	-6.19
190.551	2.69
190.772	8.46
190.993	-18.06
191.214	-27.51
191.434	-43.52
191.655	-24.4
191.876	-28.34
192.097	4.6
192.318	40.35
192.538	18.76
192.759	1.78
192.98	6.6
193.201	-5.93
193.421	-14.65
193.642	8.05
193.863	17.04
194.083	12.42
194.304	35.04
194.525	13.84
194.745	-8.66
194.966	-1.88
195.187	-3.53
195.407	-22.45
195.628	-2.56
195.848	1.33
196.069	-21.59
196.29	-14.61
196.51	-24.59
196.731	-20.56
196.951	-30.66
197.172	-4.51
197.392	-2.4
197.613	19.9
197.833	8.09
198.054	12.63
198.274	2.11
198.495	6.24
198.715	2.18
198.936	25.3
199.156	24.01
199.377	28.75
199.597	34.92
199.817	28.26
200.038	-23.8
200.258	3.21
200.479	14.87
200.699	4.42
200.919	23.08
201.14	55.83
201.36	56.22
201.58	38.31
201.801	60.38
202.021	31.94
202.241	2.45
202.461	12.04
202.682	20.63
202.902	23.2
203.122	32.19
203.342	54.95
203.563	30.9
203.783	17.63
204.003	5.05
204.223	15.62
204.443	9.25
204.663	-10.96
204.884	16.5
205.104	7.08
205.324	32.69
205.544	10.21
205.764	59.26
205.984	62.63
206.204	67.92
206.424	16.15
206.644	-5.71
206.864	-57.14
207.084	-16.84
207.304	-8.67
207.525	5.04
207.745	39.11
207.964	55.02
208.184	44.17
208.404	30.14
208.624	44.64
208.844	26.9
209.064	16.8
209.284	-3.28
209.504	-13.93
209.724	-9.58
209.944	-12.9
210.164	-14
210.384	-10.19
210.604	-47.38
210.823	-72.97
211.043	-41.22
211.263	-107.16
211.483	-62.11
211.703	-15.94
211.922	-31.77
212.142	-19.59
212.362	18.05
212.582	16.71
212.801	-3.38
213.021	-10.33
213.241	-11.57
213.461	-2.88
213.68	17.27
213.9	23.63
214.12	27.96
214.339	30.16
214.559	15.19
214.779	2.39
214.998	-7.08
215.218	2.49
215.438	2.16
215.657	-2.44
215.877	4.46
216.096	30.36
216.316	30.84
216.535	34.9
216.755	47.15
216.974	38.23
217.194	11.56
217.413	14.89
217.633	14.49
217.852	9.06
218.072	10.07
218.291	-6.52
218.511	-7.37
218.73	-27.63
218.95	-56.08
219.169	-62.17
219.389	-19.33
219.608	-19.98
219.827	-0.28
220.047	26.91
220.266	23.58
220.485	24.43
220.705	35.63
220.924	44.83
221.143	39.78
221.363	50.03
221.582	44.89
221.801	44.89
222.021	45.59
222.24	25.48
222.459	44.71
222.678	42.3
222.897	42.81
223.117	45.33
223.336	56.69
223.555	44.04
223.774	56.46
223.993	38.36
224.213	59.83
224.432	69.95
224.651	53.94
224.87	40.71
225.089	58.17
225.308	55.17
225.527	33.75
225.746	43.79
225.965	49.21
226.184	12.37
226.404	1.57
226.623	1.58
226.842	-1.85
227.061	0.82
227.28	24.63
227.499	33.56
227.718	38.68
227.936	39.33
228.155	31.9
228.374	31.06
228.593	15.3
228.812	20.65
229.031	38.68
229.25	40.95
229.469	27.88
229.688	42.97
229.907	47.47
230.125	29.49
230.344	24.84
230.563	36.99
230.782	28.22
231.001	19.86
231.22	24.29
231.438	13.47
231.657	10.59
231.876	8.35
232.095	16.2
232.313	22.59
232.532	36.49
232.751	35.89
232.969	41.45
233.188	16.99
233.407	12.51
233.625	17.63
233.844	29.86
234.063	34.9
234.281	42.3
234.5	52.56
234.719	43.97
234.937	50.03
235.156	52.2
235.374	46.97
235.593	51.83
235.811	66.66
236.03	37.43
236.249	36.14
236.467	41.69
236.686	30.35
236.904	25.91
237.123	31.67
237.341	22.26
237.559	32.55
237.778	42.64
237.996	15.93
238.215	-37.47
238.433	-40.24
238.652	-11.32
238.87	-32.66
239.088	-31.62
239.307	13.87
239.525	12.95
239.743	-4.28
239.962	-11.71
240.18	9.41
240.398	3.65
240.617	-12.02
240.835	-0.1
241.053	14.95
241.271	13.51
241.49	29.1
241.708	28.3
241.926	27.36
242.144	32.68
242.363	41.27
242.581	20.4
242.799	30.32
243.017	19.56
243.235	10.92
243.453	-14.26
243.672	15.96
243.89	15.51
244.108	14.14
244.326	20.33
244.544	33.2
244.762	12.11
244.98	18.22
245.198	23.77
245.416	18.13
245.634	21.33
245.852	25.77
246.07	30.97
246.288	26.09
246.506	36.71
246.724	34.75
246.942	43.14
247.16	41.13
247.378	48.36
247.596	57.85
247.814	51.82
248.032	31.64
248.25	44.66
248.468	35.71
248.685	36.84
248.903	37.01
249.121	34.13
249.339	33.89
249.557	51.27
249.775	45.25
249.992	41.11
250.21	50.57
250.428	47.86
250.646	40.8
250.863	32.87
251.081	42.71
251.299	42.39
251.517	40.27
251.734	30.13
251.952	31.61
252.17	25.73
252.387	24.98
252.605	18.64
252.823	24.13
253.04	53.98
253.258	45.36
253.475	46.61
253.693	34.9
253.911	31.32
254.128	3.87
254.346	29.47
254.563	26.61
254.781	33.57
254.998	31.38
255.216	31.42
255.433	11.92
255.651	-2.84
255.868	-8.08
256.086	-9.01
256.303	11.4
256.521	1.29
256.738	19.39
256.956	34.35
257.173	34.77
257.39	36.94
257.608	33.22
257.825	23.78
258.043	30.84
258.26	32.32
258.477	14.44
258.695	2.79
258.912	-3.57
259.129	-30.54
259.346	-68.61
259.564	-62.47
259.781	-20.49
259.998	-7.1
260.216	8.27
260.433	27.88
260.65	38.85
260.867	50.71
261.084	60.22
261.302	76.01
261.519	73.9
261.736	58.03
261.953	40.71
262.17	28.99
262.387	9.49
262.604	10.48
262.822	23.53
263.039	21.54
263.256	24.54
263.473	39.96
263.69	33.05
263.907	34.85
264.124	51.11
264.341	49.29
264.558	33.99
264.775	49.57
264.992	45.45
265.209	30.52
265.426	29.1
265.643	41.35
265.86	18.89
266.077	16.61
266.294	28.93
266.51	42.14
266.727	36.51
266.944	49.29
267.161	52.93
267.378	59.28
267.595	40.55
267.812	28.36
268.028	21.8
268.245	12.1
268.462	-5.37
268.679	18.94
268.896	49.67
269.112	32.35
269.329	10.46
269.546	36.01
269.763	28.53
269.979	5.43
270.196	17.92
270.413	31.56
270.629	11.2
270.846	13.83
271.063	24.56
271.279	31.28
271.496	20.58
271.712	21.63
271.929	22.58
272.146	18.42
272.362	12.04
272.579	14.51
272.795	22.37
273.012	23.88
273.228	40.09
273.445	49.13
273.661	61.12
273.878	43.44
274.094	30.81
274.311	14.11
274.527	-4.57
274.744	9.14
274.96	21.87
275.177	36.05
275.393	41.6
275.609	38.37
275.826	28.31
276.042	23.46
276.259	19.44
276.475	8.14
276.691	-0.74
276.908	6.21
277.124	19.16
277.34	19.25
277.557	3.59
277.773	32.51
277.989	26.95
278.205	25.88
278.422	10.92
278.638	38.65
278.854	37.92
279.07	46.13
279.286	42.5
279.503	40.47
279.719	28.62
279.935	5.82
280.151	-12.09
280.367	-6.98
280.583	-8.29
280.799	-11.56
281.016	-28.98
281.232	-20.15
281.448	-35.03
281.664	-23.44
281.88	-2.74
282.096	6.53
282.312	14.6
282.528	12.96
282.744	18.95
282.96	6.11
283.176	-5.23
283.392	-44.13
283.608	-1.35
283.824	-5.5
284.04	-51.64
284.256	-20.26
284.471	-7.66
284.687	-20.18
284.903	-22.5
285.119	0.08
285.335	9.57
285.551	9.28
285.767	12.97
285.982	-3.57
286.198	-35.02
286.414	-36.16
286.63	-48.75
286.846	-49.25
287.061	2.21
287.277	10.22
287.493	-7.98
287.709	8.71
287.924	18.39
288.14	11.6
288.356	39.02
288.571	49.78
288.787	37.46
289.003	41.39
289.218	33.19
289.434	12.34
289.65	17.06
289.865	21.57
290.081	17.51
290.296	32.15
290.512	29
290.727	19.24
290.943	18.49
291.159	22
291.374	-4.23
291.59	-3.35
291.805	-13.05
292.021	-11.89
292.236	-30.8
292.451	-9.37
292.667	-7.63
292.882	6.4
293.098	-5.16
293.313	-3.07
293.529	-10.24
293.744	-15.33
293.959	-24.38
294.175	-7.66
294.39	3.02
294.605	17.23
294.821	18.84
295.036	28.02
295.251	28.26
295.467	15.57
295.682	7.68
295.897	-0.38
296.112	-4.1
296.328	-5.24
296.543	-20.22
296.758	-10.93
296.973	0.78
297.188	-14.55
297.404	-27.72
297.619	19.18
297.834	-21.23
298.049	-13.33
298.264	14.19
298.479	14.03
298.694	17.29
298.909	38.35
299.125	32.3
299.34	35.97
299.555	36.85
299.77	47.92
299.985	32.87
300.2	37.37
300.415	34.06
300.63	37.53
300.845	27.62
301.06	36.26
301.275	36.61
301.49	32.64
301.704	28.04
301.919	15.79
302.134	14.2
302.349	22.07
302.564	17.47
302.779	10.15
302.994	26.83
303.209	30.35
303.423	6.39
303.638	13.67
303.853	13.75
304.068	-6.44
304.283	-0.9
304.497	12.88
304.712	1.23
304.927	8.7
305.142	14.51
305.356	15.65
305.571	13.01
305.786	17.98
306	16.27
306.215	5.4
306.43	-5.89
306.644	-14.98
306.859	-24.18
307.074	-1.34
307.288	22.32
307.503	28.94
307.717	28.91
307.932	26.71
308.147	13.39
308.361	13.98
308.576	-19.29
308.79	-10.26
309.005	-18.74
309.219	8.5
309.434	12.48
309.648	33.38
309.863	54.33
310.077	50.84
310.292	56.13
310.506	32.33
310.72	19.26
310.935	18.06
311.149	22.66
311.364	1.03
311.578	22.5
311.792	33.21
312.007	36.14
312.221	32.47
312.435	21.32
312.649	20.45
312.864	24.77
313.078	18.22
313.292	34.87
313.507	49.56
313.721	41.29
313.935	46.31
314.149	34.47
314.363	30.76
314.578	17.66
314.792	-1.66
315.006	-13.79
315.22	8.87
315.434	17.39
315.648	12.17
315.862	20.28
316.077	22.11
316.291	23.35
316.505	-11.01
316.719	-1.55
316.933	-3.04
317.147	-0.9
317.361	-9.18
317.575	-10.86
317.789	7.09
318.003	14.77
318.217	8.22
318.431	-7.7
318.645	-2.86
318.859	-11.04
319.073	1.16
319.287	2.7
319.5	15.81
319.714	14.21
319.928	9.1
320.142	-8.39
320.356	10.55
320.57	-13.33
320.784	-13.39
320.997	-22.01
321.211	8.14
321.425	-8.8
321.639	17.78
321.853	22.77
322.066	17.5
322.28	3.1
322.494	4.94
322.707	-7.11
322.921	-1.9
323.135	3.85
323.349	-5.3
323.562	-11.99
323.776	-6.98
323.989	12.71
324.203	10.45
324.417	16.2
324.63	24.29
324.844	23.43
325.057	-6.06
325.271	-3.87
325.485	6.49
325.698	19.02
325.912	28.23
326.125	35.76
326.339	37.14
326.552	37.1
326.766	20.11
326.979	25.72
327.193	19.24
327.406	11.47
327.619	15.1
327.833	13.5
328.046	10.85
328.26	12.33
328.473	18.32
328.686	15.25
328.9	24.86
329.113	22.27
329.326	19.83
329.54	25.06
329.753	34.39
329.966	35.06
330.179	28.21
330.393	32.57
330.606	20.16
330.819	-0.5
331.032	-6.78
331.246	3.04
331.459	4.6
331.672	5.33
331.885	15.92
332.098	24.42
332.311	14.2
332.525	16.18
332.738	19.26
332.951	20.09
333.164	24.21
333.377	36.09
333.59	39.02
333.803	43.67
334.016	36.74
334.229	20.35
334.442	12.63
334.655	2.81
334.868	3.48
335.081	-1.34
335.294	1.04
335.507	14.2
335.72	16.49
335.933	17.69
336.146	19.55
336.359	32.34
336.572	28.16
336.785	34.49
336.997	42.24
337.21	38.13
337.423	4.32
337.636	4.59
337.849	11.43
338.062	2.36
338.274	21.18
338.487	11.88
338.7	2.05
338.913	0.54
339.125	2.8
339.338	-15.42
339.551	-8.25
339.763	-3.36
339.976	1.46
340.189	5.53
340.402	21.8
340.614	35.6
340.827	42.14
341.039	40.98
341.252	36.82
341.465	15.87
341.677	11.82
341.89	-3.67
342.102	-1.61
342.315	3.48
342.527	21.78
342.74	15.57
342.952	32.88
343.165	32.05
343.377	28.35
343.59	30.33
343.802	43.63
344.015	37.68
344.227	43.85
344.44	49.87
344.652	41.52
344.864	29.59
345.077	39.27
345.289	46.19
345.502	55
345.714	67.31
345.926	82.22
346.139	69.45
346.351	50.4
346.563	35.38
346.775	24.47
346.988	27.26
347.2	15.88
347.412	29.11
347.624	19.05
347.837	31.69
348.049	25.19
348.261	31.2
348.473	10.74
348.685	19.45
348.897	5.19
349.11	24.31
349.322	33.08
349.534	37.87
349.746	38.7
349.958	29.61
350.17	-4.38
350.382	-5.08
350.594	3.85
350.806	5.5
351.018	13.4
351.23	36.18
351.442	39.87
351.654	41.64
351.866	42.39
352.078	42.63
352.29	39.31
352.502	28.4
352.714	24.98
352.926	28.61
353.138	17.14
353.35	-1.58
353.561	11.84
353.773	12.42
353.985	16.29
354.197	22.91
354.409	25.92
354.621	8.05
354.832	3.14
355.044	-29.46
355.256	-33.45
355.468	-37.92
355.679	-18.09
355.891	-1.94
356.103	13.23
356.314	6.72
356.526	-6.17
356.738	-1.26
356.949	-12.53
357.161	5.01
357.373	16.44
357.584	30.51
357.796	31.8
358.008	32.84
358.219	18.44
358.431	12.78
358.642	8.96
358.854	21.64
359.065	5.51
359.277	14.22
359.488	16.95
359.7	19.26
359.911	-1.58
360.123	12.76
360.334	7.31
360.546	-4.01
360.757	3.63
360.969	17.62
361.18	15.68
361.391	27.33
361.603	37.6
361.814	50.7
362.025	43.96
362.237	49.22
362.448	50.82
362.659	42.27
362.871	18.29
363.082	14.1
363.293	8.6
363.504	-19.65
363.716	-9.9
363.927	16.86
364.138	-8.69
364.349	-16.75
364.56	-24.09
364.772	-7.37
364.983	-13.73
365.194	2.58
365.405	10.37
365.616	20.75
365.827	6.78
366.038	3.84
366.25	19.31
366.461	22.88
366.672	18.11
366.883	20.06
367.094	22.94
367.305	1.04
367.516	-9.43
367.727	-15.29
367.938	-14.21
368.149	-27.2
368.36	-16.61
368.571	-25.8
368.781	-23.05
368.992	-17.32
369.203	-4.76
369.414	-7.57
369.625	-0.65
369.836	25.37
370.047	21.08
370.258	27.42
370.468	21.77
370.679	18.06
370.89	-5.34
371.101	6.95
371.312	-1.66
371.522	-1.87
371.733	2.46
371.944	5.88
372.155	9.12
372.365	19.94
372.576	11.89
372.787	22.6
372.997	26.64
373.208	16.28
373.419	16.59
373.629	13.98
373.84	-5.85
374.05	-6.56
374.261	-23.28
374.472	-21.2
374.682	-5.35
374.893	-3.05
375.103	-2.48
375.314	12.96
375.524	4.77
375.735	2.57
375.945	14
376.156	7.43
376.366	5.44
376.577	6.93
376.787	11.17
376.997	1.14
377.208	5.21
377.418	10
377.629	17.41
377.839	28.58
378.049	38.89
378.26	37.81
378.47	41.93
378.68	32.55
378.89	9.8
379.101	8.68
379.311	8.81
379.521	5.81
379.732	8.87
379.942	8.93
380.152	4.22
380.362	4.23
380.572	23.35
380.783	23.99
380.993	32.35
381.203	29.92
381.413	34.03
381.623	17.36
381.833	15.52
382.043	7.74
382.253	8.69
382.463	16.45
382.674	21.51
382.884	24.91
383.094	21.09
383.304	26.1
383.514	25.52
383.724	21.42
383.934	10.61
384.144	18.17
384.353	17.71
384.563	9.6
384.773	17.09
384.983	18.1
385.193	18.46
385.403	14.95
385.613	18.56
385.823	10.52
386.033	13.69
386.242	11.89
386.452	8.16
386.662	5.82
386.872	11.16
387.082	10.5
387.291	5.31
387.501	7.38
387.711	7.23
387.921	3.47
388.13	1.93
388.34	3.74
388.55	-0.27
388.759	-6.47
388.969	-6.71
389.179	-7.71
389.388	-8.57
389.598	-9.28
389.807	-8.71
390.017	-8.54
390.227	-6.9
390.436	-2.3
390.646	0.41
390.855	2.51
391.065	2.56
391.274	3.39
391.484	0.63
391.693	0.57
391.903	0.92
392.112	1.41
392.322	1.06
392.531	3.67
392.74	5.61
392.95	6.97
393.159	7.05
393.369	7.77
393.578	6.39
393.787	5.1
393.997	4.91
394.206	4.09
394.415	4.69
394.625	3.8
394.834	3.02
395.043	1.97
395.252	4.74
395.462	3.81
395.671	4.05
395.88	5.68
396.089	5.97
396.298	3.87
396.508	4.41
396.717	4.36
396.926	3.64
397.135	4.04
397.344	4.35
397.553	3.21
397.762	4.13
397.971	3.7
398.181	3.53
398.39	2.96
398.599	3.63
398.808	3.34
399.017	4.29
399.226	4.44
399.435	4.74
399.644	5.37
399.853	5.65
400.062	5.23
400.27	4.73
400.479	4.91
400.688	4.35
400.897	3.9
401.106	3.77
401.315	3.9
401.524	3.9
401.733	3.8
401.941	4.14
402.15	3.88
402.359	3.99
402.568	3.99
402.777	4.39
402.985	4.05
403.194	4.17
403.403	4.26
403.612	4.17
403.82	3.59
404.029	3.72
404.238	3.83
404.446	3.85
404.655	3.97
404.864	4.34
405.072	4.24
405.281	4.21
405.489	4.11
405.698	4.17
405.906	4.09
406.115	4.15
406.324	4.28
406.532	4.38
406.741	4.29
406.949	4.31
407.158	4.34
407.366	4.16
407.574	4.14
407.783	4.13
407.991	4.07
408.2	4.08
408.408	4.17
408.617	4.08
408.825	3.92
409.033	3.93
409.242	3.92
409.45	3.89
409.658	3.75
409.867	3.86
410.075	3.79
410.283	3.78
410.491	3.6
410.7	3.66
410.908	3.67
411.116	3.84
411.324	3.71
411.533	3.69
411.741	3.64
411.949	3.57
412.157	3.44
412.365	3.59
412.573	3.66
412.781	3.73
412.99	3.75
413.198	3.81
413.406	3.8
413.614	3.8
413.822	3.86
414.03	3.8
414.238	3.78
414.446	3.87
414.654	3.84
414.862	3.78
415.07	3.74
415.278	3.82
415.486	3.58
415.694	3.65
415.902	3.61
416.109	3.64
416.317	3.48
416.525	3.41
416.733	3.28
416.941	3.26
417.149	3.16
417.357	3.1
417.564	3.21
417.772	3.44
417.98	3.54
418.188	3.57
418.395	3.44
418.603	3.35
418.811	3.09
419.019	3
419.226	3.02
419.434	3.34
419.642	3.28
419.849	3.46
420.057	3.39
420.265	3.4
420.472	3.34
420.68	3.42
420.887	3.24
421.095	3.34
421.302	3.45
421.51	3.34
421.717	3.39
421.925	3.48
422.132	3.47
422.34	3.26
422.547	3.26
422.755	3.32
422.962	3.31
423.17	3.17
423.377	3.19
423.585	3.25
423.792	3.05
423.999	3.17
424.207	3.21
424.414	3.27
424.621	3.34
424.829	3.53
425.036	3.46
425.243	3.64
425.451	3.64
425.658	3.5
425.865	3.34
426.072	3.27
426.28	3.19
426.487	3.16
426.694	3.07
426.901	3.21
427.108	3.13
427.315	2.94
427.523	2.82
427.73	2.97
427.937	2.73
428.144	2.81
428.351	2.98
428.558	3.1
428.765	3
428.972	3.25
429.179	3.19
429.386	3.23
429.593	3.18
429.8	3.15
430.007	3.04
430.214	3.12
430.421	3.17
430.628	3.24
430.835	3.28
431.042	3.27
431.249	3.29
431.456	3.2
431.662	3.28
431.869	3.36
432.076	3.49
432.283	3.49
432.49	3.47
432.697	3.42
432.903	3.4
433.11	3.33
433.317	3.42
433.524	3.47
433.73	3.38
433.937	3.5
434.144	3.39
434.35	3.25
434.557	3.3
434.764	3.52
434.97	3.28
435.177	3.49
435.384	3.64
435.59	3.63
435.797	3.51
436.003	3.59
436.21	3.49
436.416	3.45
436.623	3.5
436.829	3.51
437.036	3.5
437.242	3.49
437.449	3.51
437.655	3.62
437.862	3.69
438.068	3.76
438.275	3.88
438.481	3.91
438.687	3.73
438.894	3.89
439.1	3.91
439.307	3.9
439.513	3.88
439.719	3.95
439.926	3.88
440.132	3.87
440.338	3.99
440.544	3.99
440.751	3.95
440.957	4.02
441.163	4
441.369	3.93
441.575	3.88
441.782	3.96
441.988	3.91
442.194	3.93
442.4	3.88
442.606	3.96
442.812	3.96
443.018	3.92
443.224	3.99
443.431	4.02
443.637	4.04
443.843	3.99
444.049	4
444.255	4.08
444.461	4.01
444.667	4.03
444.873	4.11
445.079	4.11
445.284	4.04
445.49	4.04
445.696	3.96
445.902	3.85
446.108	3.89
446.314	3.84
446.52	3.95
446.726	4.06
446.931	4.12
447.137	4.13
447.343	4.24
447.549	4.16
447.755	4.07
447.96	4.07
448.166	4.03
448.372	3.94
448.578	3.83
448.783	3.87
448.989	3.9
449.195	3.95
449.4	4.09
449.606	4.22
449.812	4.24
450.017	4.24
450.223	4.2
450.428	4.07
450.634	4.08
450.84	4.04
451.045	4.13
451.251	4.16
451.456	4.21
451.662	4.22
451.867	4.32
452.073	4.26
452.278	4.23
452.483	4.3
452.689	4.28
452.894	4.34
453.1	4.26
453.305	4.28
453.51	4.25
453.716	4.24
453.921	4.15
454.127	4.27
454.332	4.26
454.537	4.2
454.742	4.23
454.948	4.25
455.153	4.19
455.358	4.22
455.563	4.41
455.769	4.52
455.974	4.49
456.179	4.46
456.384	4.45
456.589	4.3
456.795	4.21
457	4.31
457.205	4.32
457.41	4.31
457.615	4.35
457.82	4.41
458.025	4.39
458.23	4.3
458.435	4.34
458.64	4.3
458.845	4.37
459.05	4.36
459.255	4.49
459.46	4.46
459.665	4.51
459.87	4.37
460.075	4.38
460.28	4.43
460.485	4.51
460.69	4.57
460.895	4.66
461.099	4.51
461.304	4.45
461.509	4.47
461.714	4.48
461.919	4.48
462.123	4.66
462.328	4.57
462.533	4.44
462.738	4.35
462.942	4.3
463.147	4.24
463.352	4.42
463.556	4.55
463.761	4.54
463.966	4.53
464.17	4.64
464.375	4.67
464.58	4.61
464.784	4.65
464.989	4.76
465.193	4.66
465.398	4.59
465.602	4.65
465.807	4.68
466.011	4.69
466.216	4.69
466.42	4.74
466.625	4.79
466.829	4.76
467.034	4.83
467.238	4.91
467.443	4.88
467.647	4.77
467.851	4.77
468.056	4.73
468.26	4.7
