Data from Ofra_2a_PS_6CX18_Reflection_2.txt Node
Date: Tue Jul 20 09:52:07 EDT 2021
User: Adam
Spectrometer: FLMT01687
Trigger mode: 0
Integration Time (sec): 9.450000E-1
Scans to average: 3
Electric dark correction enabled: true
Nonlinearity correction enabled: false
Boxcar width: 3
XAxis mode: Wavelengths
Number of Pixels in Spectrum: 3648
>>>>>Begin Spectral Data<<<<<
179.494	1275.15
179.716	722.71
179.937	934.07
180.158	3796.09
180.38	-2015.7
180.601	-414.68
180.823	-183.15
181.044	-90.64
181.265	-80.14
181.486	152.22
181.708	1958.7
181.929	120.23
182.15	498.86
182.372	-91.16
182.593	-43.32
182.814	273.35
183.035	145.25
183.257	62.62
183.478	44.86
183.699	43.31
183.92	28.57
184.141	32.99
184.363	17.76
184.584	12.88
184.805	22.63
185.026	17.42
185.247	-14.47
185.468	-2.29
185.689	1.34
185.91	-2.48
186.132	-1.73
186.353	-27.22
186.574	-7.63
186.795	-11.41
187.016	-15.95
187.237	-6.05
187.458	-28.93
187.679	-49.71
187.9	-28.37
188.121	-34.8
188.342	-4
188.563	1.83
188.784	-9.59
189.005	16.81
189.226	13.29
189.447	5.97
189.667	-4.77
189.888	9.25
190.109	5.11
190.33	-24.86
190.551	-19.49
190.772	-8.12
190.993	10.37
191.214	14.97
191.434	1.08
191.655	2.81
191.876	27.37
192.097	15.61
192.318	19.8
192.538	19.95
192.759	26.23
192.98	19.67
193.201	43.46
193.421	41.22
193.642	30.62
193.863	13.45
194.083	-10.57
194.304	-16.87
194.525	11.23
194.745	-38.4
194.966	-30.86
195.187	-5.77
195.407	-5.77
195.628	7.23
195.848	-2.77
196.069	-14.45
196.29	-6.37
196.51	-14.37
196.731	-17.19
196.951	-11.75
197.172	-33.72
197.392	-6.56
197.613	-21.21
197.833	-16.31
198.054	-27.59
198.274	-44.14
198.495	-48.11
198.715	-43.95
198.936	-65.78
199.156	-44.04
199.377	-35.79
199.597	-20.42
199.817	-28.37
200.038	-16.88
200.258	-7.6
200.479	-11.61
200.699	-1.57
200.919	-35.91
201.14	-33.88
201.36	-24.14
201.58	-20.01
201.801	-23.61
202.021	-12.42
202.241	-11.97
202.461	14.2
202.682	22.32
202.902	17.98
203.122	6.67
203.342	18.29
203.563	19.22
203.783	9.06
204.003	10.59
204.223	11.74
204.443	12.73
204.663	17.7
204.884	-4.48
205.104	-7.93
205.324	4.96
205.544	5.66
205.764	-6.86
205.984	6.36
206.204	7.49
206.424	16.55
206.644	13.56
206.864	6.58
207.084	10.52
207.304	11.49
207.525	-5.11
207.745	2.98
207.964	1.95
208.184	11.92
208.404	19.53
208.624	2.55
208.844	-9.74
209.064	6.56
209.284	6.2
209.504	14.01
209.724	-23.73
209.944	-44.9
210.164	-25.63
210.384	-4.09
210.604	-30.9
210.823	-40.33
211.043	-52.82
211.263	-19.52
211.483	-15.68
211.703	-16.77
211.922	-18.14
212.142	-3.56
212.362	-0.81
212.582	-1.6
212.801	-5
213.021	4.92
213.241	-0.81
213.461	-11.31
213.68	-3.46
213.9	7.84
214.12	5.08
214.339	4.73
214.559	3.74
214.779	0.89
214.998	7.3
215.218	-10.5
215.438	-9.06
215.657	3.13
215.877	5.76
216.096	3.78
216.316	-0.64
216.535	5.99
216.755	2.21
216.974	-0.69
217.194	-9.26
217.413	6.27
217.633	7.09
217.852	13.1
218.072	-1.97
218.291	24.97
218.511	15.41
218.73	8.59
218.95	-1.55
219.169	2.24
219.389	4.6
219.608	16.36
219.827	-2.4
220.047	0.62
220.266	7.36
220.485	11.49
220.705	1.76
220.924	6.3
221.143	-7.03
221.363	-5.46
221.582	3.7
221.801	11.53
222.021	6.44
222.24	12.16
222.459	9.79
222.678	13.04
222.897	-1.61
223.117	-10.59
223.336	-11.06
223.555	-23.96
223.774	-10.48
223.993	-11.56
224.213	-13.89
224.432	-10.49
224.651	-16.92
224.87	-16.77
225.089	1.35
225.308	-3.82
225.527	-8.1
225.746	4.23
225.965	-4.99
226.184	-9.79
226.404	-19.15
226.623	-24.2
226.842	-26.16
227.061	-14.06
227.28	-13.84
227.499	18.26
227.718	16.01
227.936	11.36
228.155	10.78
228.374	7.86
228.593	10.88
228.812	9.72
229.031	-8.18
229.25	4.49
229.469	12.75
229.688	19.27
229.907	15.98
230.125	11.41
230.344	15.3
230.563	23.38
230.782	11.27
231.001	15.34
231.22	8.69
231.438	28.22
231.657	31.44
231.876	21.83
232.095	16.38
232.313	18.92
232.532	22.69
232.751	26.7
232.969	18.38
233.188	15.09
233.407	19.56
233.625	23.44
233.844	37.55
234.063	32.01
234.281	25
234.5	24.7
234.719	20.92
234.937	24.45
235.156	13.75
235.374	-9.41
235.593	-5.39
235.811	-32.28
236.03	-61.29
236.249	-44.07
236.467	-36.87
236.686	-20.06
236.904	-13.56
237.123	-19.56
237.341	1.4
237.559	7.99
237.778	15.24
237.996	11.39
238.215	7.41
238.433	15.6
238.652	15.63
238.87	14.6
239.088	5.42
239.307	0.55
239.525	-4.44
239.743	-9.39
239.962	-8.67
240.18	-4.54
240.398	-1.52
240.617	14.13
240.835	10.98
241.053	19.18
241.271	19.5
241.49	3.36
241.708	2.85
241.926	-2.57
242.144	-1.07
242.363	1.01
242.581	3.62
242.799	-0.91
243.017	13.04
243.235	4.34
243.453	8.57
243.672	-4.73
243.89	-5.3
244.108	-2.18
244.326	-7.26
244.544	5.19
244.762	18.15
244.98	9.82
245.198	6.41
245.416	1.66
245.634	1.91
245.852	4.35
246.07	-4
246.288	-26.08
246.506	-20.58
246.724	-7.98
246.942	5.18
247.16	-4.14
247.378	-7.36
247.596	-13.87
247.814	-15.15
248.032	-9.12
248.25	-21.49
248.468	-20.51
248.685	-9.73
248.903	-12.75
249.121	-8.17
249.339	4.48
249.557	-0.97
249.775	-8.6
249.992	-14.03
250.21	-27.99
250.428	-24.67
250.646	-23.72
250.863	-29.06
251.081	-26.59
251.299	-4.21
251.517	-7.2
251.734	6.62
251.952	17.96
252.17	-0.24
252.387	1.41
252.605	-8.9
252.823	-26.42
253.04	-21.01
253.258	-28.58
253.475	-27.81
253.693	-3.25
253.911	5.17
254.128	0.5
254.346	1.41
254.563	-6.63
254.781	-4.02
254.998	4.38
255.216	5.45
255.433	-8
255.651	-4.67
255.868	4.64
256.086	7.07
256.303	3.79
256.521	-17.55
256.738	-23.48
256.956	-16.37
257.173	-10.06
257.39	-9.09
257.608	1.66
257.825	1.62
258.043	15.3
258.26	11.7
258.477	12.72
258.695	15.2
258.912	19.8
259.129	7.9
259.346	10.28
259.564	0.32
259.781	10.82
259.998	19.41
260.216	23.89
260.433	10.19
260.65	24.04
260.867	14.32
261.084	22.42
261.302	17.03
261.519	5.13
261.736	4.5
261.953	15.3
262.17	2.93
262.387	1.16
262.604	-22.86
262.822	-17.73
263.039	-17.23
263.256	-18.76
263.473	-29.55
263.69	-29.48
263.907	-17.62
264.124	-5.52
264.341	-10.92
264.558	-7.32
264.775	-9.98
264.992	-8.67
265.209	-1.43
265.426	-2.38
265.643	-4.02
265.86	-5.41
266.077	-4.04
266.294	-6.12
266.51	2.87
266.727	-5.7
266.944	-12.34
267.161	-14.74
267.378	-10.85
267.595	-16.18
267.812	-16.58
268.028	-27.05
268.245	-34.69
268.462	-22.92
268.679	-24.35
268.896	-24.15
269.112	-10.31
269.329	-1.56
269.546	-1.36
269.763	12.91
269.979	7.6
270.196	14.4
270.413	16.72
270.629	8.82
270.846	6.17
271.063	4.69
271.279	0.78
271.496	-11.49
271.712	-11.33
271.929	-13.94
272.146	-13.81
272.362	-37.18
272.579	-30.11
272.795	-41.53
273.012	-19.18
273.228	-15.13
273.445	-10.95
273.661	-17.75
273.878	-0.94
274.094	2.89
274.311	5.72
274.527	1.78
274.744	-3.65
274.96	-0.3
275.177	14.98
275.393	16.32
275.609	19.41
275.826	27.15
276.042	30.6
276.259	31.26
276.475	20.05
276.691	17.91
276.908	11.86
277.124	9.88
277.34	5.75
277.557	8.72
277.773	0.77
277.989	-4.27
278.205	-17.88
278.422	-7.31
278.638	-7.61
278.854	-7.03
279.07	-18.8
279.286	-18.66
279.503	-10.76
279.719	4.93
279.935	-4.5
280.151	-0.55
280.367	-1.74
280.583	0.76
280.799	14.31
281.016	14.34
281.232	5.72
281.448	-1.92
281.664	-9.48
281.88	-5.75
282.096	-2.65
282.312	-29.17
282.528	-53.15
282.744	-42.18
282.96	-27.84
283.176	-16.73
283.392	-12.3
283.608	-9.13
283.824	-6.29
284.04	14.47
284.256	11
284.471	13.44
284.687	7.3
284.903	-1.56
285.119	-16.43
285.335	-9.03
285.551	-13.98
285.767	-20.73
285.982	-17.91
286.198	-17.98
286.414	-3.94
286.63	9.45
286.846	10.42
287.061	12.39
287.277	19.61
287.493	21.63
287.709	15.3
287.924	18.41
288.14	11.93
288.356	18.01
288.571	2.9
288.787	8.02
289.003	3.35
289.218	9.39
289.434	-1.47
289.65	13.4
289.865	23.99
290.081	28.97
290.296	28.07
290.512	35.32
290.727	38.71
290.943	38.07
291.159	20.76
291.374	12.74
291.59	14.96
291.805	2.66
292.021	-9.32
292.236	-11.5
292.451	-15.75
292.667	-14.53
292.882	-19.36
293.098	-22.7
293.313	-15.81
293.529	-14.88
293.744	-18.41
293.959	-11.06
294.175	-12.66
294.39	-6.65
294.605	3.49
294.821	-3.24
295.036	-2.22
295.251	0.9
295.467	-4.02
295.682	8.61
295.897	-0.13
296.112	-4.75
296.328	-1.92
296.543	-11.74
296.758	-3.22
296.973	-1.01
297.188	-4.34
297.404	-2.87
297.619	-2.22
297.834	9.08
298.049	16.04
298.264	9.48
298.479	2.17
298.694	9.51
298.909	3.21
299.125	1.37
299.34	-5.69
299.555	-0.25
299.77	-4.66
299.985	-8.46
300.2	-10.95
300.415	-1.37
300.63	-4.63
300.845	2.48
301.06	4.09
301.275	14.28
301.49	23.65
301.704	22.94
301.919	21.46
302.134	19.88
302.349	10.27
302.564	4.7
302.779	-4.87
302.994	-3.58
303.209	-16.97
303.423	-10.74
303.638	-6.88
303.853	-2.36
304.068	1.03
304.283	-4.02
304.497	-2.83
304.712	3.25
304.927	-2.63
305.142	-7.69
305.356	-5.65
305.571	-3.57
305.786	-4.64
306	-6.05
306.215	-1.37
306.43	7.85
306.644	13.27
306.859	13.58
307.074	1.18
307.288	13.82
307.503	14.96
307.717	10.34
307.932	11.02
308.147	5.85
308.361	8.4
308.576	14.18
308.79	4.07
309.005	2.55
309.219	5.17
309.434	-6.76
309.648	-13.89
309.863	-21.52
310.077	-28.36
310.292	-29.81
310.506	-16.63
310.72	-18.55
310.935	-19.94
311.149	-4.25
311.364	9.85
311.578	8.8
311.792	9.65
312.007	-0.28
312.221	4.51
312.435	8.01
312.649	-28.59
312.864	-51.83
313.078	-34.31
313.292	-32.23
313.507	-18.62
313.721	-32.95
313.935	-15.06
314.149	21.81
314.363	22.17
314.578	40.98
314.792	43.7
315.006	34.89
315.22	39.79
315.434	32.64
315.648	22.77
315.862	22.5
316.077	10.28
316.291	9
316.505	0.93
316.719	-14.55
316.933	-12.73
317.147	-7.84
317.361	-8.85
317.575	-11.23
317.789	-9.24
318.003	1.02
318.217	11.45
318.431	11.76
318.645	18.95
318.859	14.54
319.073	-0.36
319.287	3.95
319.5	7.25
319.714	9.61
319.928	16.88
320.142	8.41
320.356	27.49
320.57	27.87
320.784	24.3
320.997	24.85
321.211	25.05
321.425	12.28
321.639	15.12
321.853	-1.74
322.066	5.19
322.28	4.08
322.494	-6.51
322.707	-11.95
322.921	-8.36
323.135	-2.34
323.349	1.83
323.562	1.49
323.776	-3.05
323.989	3.06
324.203	12.09
324.417	8.93
324.63	-3.78
324.844	-19.36
325.057	-22.75
325.271	-29.56
325.485	-28.68
325.698	-32.75
325.912	-18.7
326.125	-9.73
326.339	2.48
326.552	14.3
326.766	27.07
326.979	24.35
327.193	19.62
327.406	13.38
327.619	-11.85
327.833	-8.77
328.046	-18.85
328.26	-34.91
328.473	-27.3
328.686	-17.83
328.9	-30.64
329.113	-3.71
329.326	1.56
329.54	6.41
329.753	10.72
329.966	8.34
330.179	6.83
330.393	19.45
330.606	17.18
330.819	16.98
331.032	16.65
331.246	16.4
331.459	19.78
331.672	14.72
331.885	10.1
332.098	9.25
332.311	-10.07
332.525	0.43
332.738	4.73
332.951	3.39
333.164	1.11
333.377	-10.1
333.59	-13.21
333.803	-1.11
334.016	-32.03
334.229	-19.65
334.442	-14.98
334.655	-11.27
334.868	4.6
335.081	16.93
335.294	4.95
335.507	23.98
335.72	-5.73
335.933	-7.64
336.146	-5.13
336.359	-9.34
336.572	-24.16
336.785	-8.49
336.997	-16.03
337.21	0.74
337.423	-7.18
337.636	-5.15
337.849	-2.55
338.062	2.97
338.274	1.87
338.487	-7.48
338.7	0.01
338.913	-2.74
339.125	-5.28
339.338	1.35
339.551	9.04
339.763	5.05
339.976	14.28
340.189	8.13
340.402	13.93
340.614	16.09
340.827	2.77
341.039	-4.44
341.252	-10.35
341.465	-24.25
341.677	-27.77
341.89	-29.28
342.102	-27.72
342.315	-14.08
342.527	-19.15
342.74	-17.78
342.952	-5.87
343.165	-0.53
343.377	5.32
343.59	0.71
343.802	-1.23
344.015	4.77
344.227	3.46
344.44	-2.74
344.652	0.15
344.864	-2.35
345.077	1.83
345.289	-0.07
345.502	1.85
345.714	8.83
345.926	21.42
346.139	11.9
346.351	3.68
346.563	10.38
346.775	0.1
346.988	3.65
347.2	4.37
347.412	-0.35
347.624	3
347.837	2.76
348.049	-3.46
348.261	-2.96
348.473	-13.83
348.685	-15.89
348.897	-19.83
349.11	-14.85
349.322	-16.59
349.534	-22.14
349.746	-9.8
349.958	-9.47
350.17	-13.87
350.382	-15.95
350.594	-16.1
350.806	-4.77
351.018	-1.24
351.23	1.2
351.442	6.62
351.654	14.51
351.866	24.27
352.078	15.89
352.29	10.55
352.502	11.97
352.714	15.74
352.926	10.01
353.138	0.01
353.35	-9.04
353.561	-6.55
353.773	-7.2
353.985	0.01
354.197	-8.27
354.409	-5.41
354.621	1.26
354.832	-6.35
355.044	1.65
355.256	2.44
355.468	-5.03
355.679	2.55
355.891	5.22
356.103	7.34
356.314	19.31
356.526	12.36
356.738	12.96
356.949	20.21
357.161	20.08
357.373	20.8
357.584	31.85
357.796	27.12
358.008	27.03
358.219	37.75
358.431	44.95
358.642	35.03
358.854	32.23
359.065	17.78
359.277	14.04
359.488	16
359.7	12.76
359.911	0.49
360.123	9.31
360.334	7.53
360.546	1.2
360.757	6.82
360.969	8.16
361.18	1.03
361.391	-2.95
361.603	-5.33
361.814	4.51
362.025	10.68
362.237	7.71
362.448	9.59
362.659	-2.33
362.871	4.13
363.082	5.25
363.293	0.89
363.504	0.82
363.716	1.96
363.927	0.01
364.138	14.01
364.349	14.53
364.56	10.32
364.772	6.57
364.983	-1.03
365.194	-4.27
365.405	-8.94
365.616	-23.76
365.827	-29.31
366.038	-14.43
366.25	-12.45
366.461	-3.66
366.672	-6.24
366.883	0.55
367.094	3.48
367.305	6.49
367.516	-7.75
367.727	-11.59
367.938	-15.77
368.149	-8.89
368.36	-7.89
368.571	-6.31
368.781	-8.66
368.992	-0.81
369.203	2.46
369.414	5.4
369.625	3.52
369.836	-0.11
370.047	7.83
370.258	2.42
370.468	-5.77
370.679	-8.37
370.89	2.39
371.101	-1.94
371.312	-0.4
371.522	-8.89
371.733	-13.69
371.944	-9.3
372.155	-13.79
372.365	-22.41
372.576	-17.87
372.787	-23.91
372.997	-18.93
373.208	-2.12
373.419	0.85
373.629	14.2
373.84	9.53
374.05	9.18
374.261	11.28
374.472	5.65
374.682	-3.66
374.893	-15.33
375.103	-15.12
375.314	-9.56
375.524	-4.53
375.735	-0.56
375.945	0.13
376.156	4.49
376.366	13.22
376.577	12.38
376.787	12.26
376.997	9.12
377.208	4.02
377.418	4.44
377.629	6.89
377.839	9.37
378.049	8.99
378.26	7.59
378.47	7.82
378.68	6.54
378.89	1.44
379.101	-5.83
379.311	-12.63
379.521	-9.76
379.732	-19.82
379.942	-22.55
380.152	-16.47
380.362	-5.55
380.572	2.77
380.783	3.1
380.993	-3.45
381.203	4.25
381.413	8.07
381.623	9.93
381.833	7.82
382.043	0.5
382.253	2.26
382.463	3.49
382.674	3.18
382.884	-1.01
383.094	-7.86
383.304	-10.79
383.514	-4.74
383.724	-8.53
383.934	-9.14
384.144	-6.62
384.353	-2.89
384.563	0.45
384.773	2.26
384.983	2.97
385.193	12.34
385.403	15.1
385.613	13.36
385.823	14.37
386.033	12.58
386.242	10.22
386.452	5.25
386.662	0.45
386.872	-0.8
387.082	-2.61
387.291	-5.71
387.501	-3.36
387.711	-0.55
387.921	1.26
388.13	-0.49
388.34	-0.5
388.55	3.33
388.759	3.9
388.969	1.69
389.179	2.19
389.388	2.74
389.598	4.23
389.807	3.06
390.017	2.49
390.227	2.15
390.436	3.61
390.646	3.89
390.855	3.17
391.065	2.48
391.274	2.48
391.484	3.26
391.693	3.75
391.903	4.91
392.112	4.01
392.322	4.59
392.531	4.14
392.74	3.11
392.95	2.55
393.159	3.03
393.369	2.76
393.578	2.18
393.787	2.52
393.997	4.4
394.206	5.22
394.415	5.26
394.625	3.58
394.834	1.96
395.043	2.95
395.252	3.04
395.462	2.62
395.671	3.59
395.88	3.52
396.089	4.56
396.298	5.08
396.508	4.46
396.717	3.86
396.926	3.77
397.135	2.88
397.344	3.07
397.553	3.16
397.762	3.35
397.971	3.18
398.181	2.99
398.39	2.8
398.599	3.6
398.808	3.7
399.017	4
399.226	4.16
399.435	4.34
399.644	4.62
399.853	4.87
400.062	4.39
400.27	4.25
400.479	3.97
400.688	3.82
400.897	4.2
401.106	4.29
401.315	4.14
401.524	4.44
401.733	4.22
401.941	4.11
402.15	3.97
402.359	3.91
402.568	3.88
402.777	3.8
402.985	3.54
403.194	3.9
403.403	3.91
403.612	4.13
403.82	4
404.029	3.9
404.238	4.01
404.446	4
404.655	3.72
404.864	3.67
405.072	3.56
405.281	3.37
405.489	3.47
405.698	3.42
405.906	3.4
406.115	3.58
406.324	3.52
406.532	3.55
406.741	3.7
406.949	3.61
407.158	3.69
407.366	3.78
407.574	3.71
407.783	3.75
407.991	3.65
408.2	3.61
408.408	3.63
408.617	3.51
408.825	3.47
409.033	3.4
409.242	3.41
409.45	3.41
409.658	3.36
409.867	3.34
410.075	3.29
410.283	3.23
410.491	3.18
410.7	3.17
410.908	3.23
411.116	3.2
411.324	3.23
411.533	3.24
411.741	3.19
411.949	3.29
412.157	3.35
412.365	3.33
412.573	3.4
412.781	3.3
412.99	3.39
413.198	3.53
413.406	3.51
413.614	3.45
413.822	3.37
414.03	3.26
414.238	3.39
414.446	3.29
414.654	3.18
414.862	3.11
415.07	3.14
415.278	3.16
415.486	3.31
415.694	3.2
415.902	3.16
416.109	3.25
416.317	3.2
416.525	3.25
416.733	3.36
416.941	3.23
417.149	3.34
417.357	3.41
417.564	3.27
417.772	3.35
417.98	3.2
418.188	3.04
418.395	3.12
418.603	2.96
418.811	2.82
419.019	2.95
419.226	2.91
419.434	2.95
419.642	3.05
419.849	2.99
420.057	3.04
420.265	3.09
420.472	2.96
420.68	2.98
420.887	2.99
421.095	2.98
421.302	2.96
421.51	3.07
421.717	3.13
421.925	3.1
422.132	3.07
422.34	2.98
422.547	2.86
422.755	2.92
422.962	2.73
423.17	2.65
423.377	2.7
423.585	2.72
423.792	2.77
423.999	2.8
424.207	2.73
424.414	2.82
424.621	2.88
424.829	2.95
425.036	2.91
425.243	2.96
425.451	3.04
425.658	3.17
425.865	3.13
426.072	3.13
426.28	3.1
426.487	3.15
426.694	3.08
426.901	2.94
427.108	2.9
427.315	2.96
427.523	2.99
427.73	3.02
427.937	3.04
428.144	3.09
428.351	3.29
428.558	3.2
428.765	3.13
428.972	3.12
429.179	2.96
429.386	3.03
429.593	2.95
429.8	2.88
430.007	3
430.214	3.12
430.421	3.06
430.628	3.03
430.835	2.91
431.042	2.93
431.249	2.98
431.456	3
431.662	3.03
431.869	3.12
432.076	3.31
432.283	3.34
432.49	3.34
432.697	3.41
432.903	3.4
433.11	3.39
433.317	3.36
433.524	3.25
433.73	3.29
433.937	3.33
434.144	3.33
434.35	3.32
434.557	3.3
434.764	3.32
434.97	3.37
435.177	3.34
435.384	3.39
435.59	3.36
435.797	3.37
436.003	3.35
436.21	3.32
436.416	3.32
436.623	3.35
436.829	3.29
437.036	3.25
437.242	3.21
437.449	3.25
437.655	3.31
437.862	3.33
438.068	3.34
438.275	3.38
438.481	3.41
438.687	3.52
438.894	3.52
439.1	3.5
439.307	3.5
439.513	3.47
439.719	3.49
439.926	3.54
440.132	3.47
440.338	3.54
440.544	3.56
440.751	3.59
440.957	3.59
441.163	3.63
441.369	3.58
441.575	3.62
441.782	3.53
441.988	3.54
442.194	3.64
442.4	3.72
442.606	3.68
442.812	3.75
443.018	3.74
443.224	3.77
443.431	3.77
443.637	3.66
443.843	3.63
444.049	3.63
444.255	3.58
444.461	3.56
444.667	3.57
444.873	3.59
445.079	3.63
445.284	3.59
445.49	3.56
445.696	3.59
445.902	3.65
446.108	3.68
446.314	3.68
446.52	3.68
446.726	3.76
446.931	3.8
447.137	3.75
447.343	3.72
447.549	3.71
447.755	3.7
447.96	3.7
448.166	3.75
448.372	3.74
448.578	3.8
448.783	3.82
448.989	3.83
449.195	3.82
449.4	3.87
449.606	3.81
449.812	3.85
450.017	3.89
450.223	3.9
450.428	3.93
450.634	4
450.84	3.98
451.045	4
451.251	4.03
451.456	3.97
451.662	3.98
451.867	3.98
452.073	3.94
452.278	3.97
452.483	3.96
452.689	3.91
452.894	3.93
453.1	3.86
453.305	3.82
453.51	3.84
453.716	3.87
453.921	3.85
454.127	3.84
454.332	3.81
454.537	3.9
454.742	3.92
454.948	3.87
455.153	3.85
455.358	3.94
455.563	3.99
455.769	4.05
455.974	4
456.179	3.97
456.384	4.06
456.589	4.09
456.795	4.01
457	4.02
457.205	3.97
457.41	4.06
457.615	4.1
457.82	4.11
458.025	4.11
458.23	4.15
458.435	4.08
458.64	4.15
458.845	4.11
459.05	4.15
459.255	4.08
459.46	4.04
459.665	4.06
459.87	4.1
460.075	4.07
460.28	4.13
460.485	4.12
460.69	4.11
460.895	4.14
461.099	4.17
461.304	4.17
461.509	4.11
461.714	4.12
461.919	4.09
462.123	4.21
462.328	4.21
462.533	4.2
462.738	4.25
462.942	4.37
463.147	4.38
463.352	4.41
463.556	4.41
463.761	4.41
463.966	4.44
464.17	4.45
464.375	4.37
464.58	4.33
464.784	4.35
464.989	4.33
465.193	4.37
465.398	4.38
465.602	4.39
465.807	4.44
466.011	4.48
466.216	4.5
466.42	4.54
466.625	4.56
466.829	4.57
467.034	4.63
467.238	4.64
467.443	4.65
467.647	4.64
467.851	4.67
468.056	4.66
468.26	4.6
468.464	4.58
468.669	4.56
