Data from Ofra_2a_PS_1GT37_Reflection_3.txt Node
Date: Tue Jul 20 09:34:15 EDT 2021
User: Adam
Spectrometer: FLMT01687
Trigger mode: 0
Integration Time (sec): 9.450000E-1
Scans to average: 3
Electric dark correction enabled: true
Nonlinearity correction enabled: false
Boxcar width: 3
XAxis mode: Wavelengths
Number of Pixels in Spectrum: 3648
>>>>>Begin Spectral Data<<<<<
179.494	419.53
179.716	278.52
179.937	319.78
180.158	278.13
180.38	-154.65
180.601	-19.33
180.823	-6.85
181.044	39.04
181.265	6.7
181.486	38.32
181.708	-2117.39
181.929	10.7
182.15	-561.36
182.372	93.5
182.593	25
182.814	304.79
183.035	153.31
183.257	63.32
183.478	7.05
183.699	38.98
183.92	39.31
184.141	26.61
184.363	16.41
184.584	17.14
184.805	21.16
185.026	7.82
185.247	-5.02
185.468	1.73
185.689	2.74
185.91	0.22
186.132	9.06
186.353	-2.6
186.574	13.98
186.795	-14.09
187.016	-15.77
187.237	-20.5
187.458	-44.47
187.679	-45.09
187.9	-32.55
188.121	-34.32
188.342	25.93
188.563	16.32
188.784	17.03
189.005	20.94
189.226	18.72
189.447	12.75
189.667	10.53
189.888	6.11
190.109	1.29
190.33	6.7
190.551	15.49
190.772	-2.13
190.993	9.04
191.214	-3.38
191.434	-5.34
191.655	12.35
191.876	14.39
192.097	15.57
192.318	24.71
192.538	14.81
192.759	25.46
192.98	15.37
193.201	33.41
193.421	28.9
193.642	30.78
193.863	7.73
194.083	29.71
194.304	29.22
194.525	47.32
194.745	9.12
194.966	19.16
195.187	17.82
195.407	21.58
195.628	9.82
195.848	5.03
196.069	-8.62
196.29	1.82
196.51	-10.17
196.731	-12.52
196.951	-14.96
197.172	-16.42
197.392	1.26
197.613	0.62
197.833	-5.48
198.054	-10.09
198.274	-26.11
198.495	-21.43
198.715	-18.94
198.936	-27.1
199.156	-20.27
199.377	-9.47
199.597	-7.49
199.817	14.22
200.038	30.57
200.258	26.31
200.479	20.47
200.699	20.52
200.919	-2.09
201.14	6.02
201.36	4.07
201.58	-0.45
201.801	6.5
202.021	13.85
202.241	17.02
202.461	30.86
202.682	31.99
202.902	29.42
203.122	24.47
203.342	41.04
203.563	29.59
203.783	31.49
204.003	31.24
204.223	31.31
204.443	29.38
204.663	31.18
204.884	4.46
205.104	20.03
205.324	17.72
205.544	2.08
205.764	-3.29
205.984	2.68
206.204	0.08
206.424	11.99
206.644	-1.45
206.864	-6.41
207.084	6.52
207.304	-0.7
207.525	-20.87
207.745	-24.31
207.964	-24.36
208.184	-6.99
208.404	-16.6
208.624	-39.67
208.844	-32.95
209.064	-8.8
209.284	1.05
209.504	-11.3
209.724	-46.11
209.944	-35.26
210.164	-19.82
210.384	-22.04
210.604	-45.68
210.823	-52.31
211.043	-37.48
211.263	-11.89
211.483	-2.26
211.703	9.84
211.922	16.38
212.142	29.04
212.362	26.97
212.582	23.16
212.801	20.22
213.021	20.1
213.241	17.13
213.461	15.68
213.68	10.86
213.9	21.74
214.12	15.81
214.339	18.01
214.559	13.88
214.779	17.03
214.998	12.47
215.218	13.56
215.438	20.27
215.657	22.9
215.877	16.99
216.096	17.15
216.316	15.73
216.535	17.79
216.755	4.46
216.974	-8.08
217.194	-4.3
217.413	16.98
217.633	20.27
217.852	9.83
218.072	-3.73
218.291	25.54
218.511	33.31
218.73	33.38
218.95	24.05
219.169	18.92
219.389	7.13
219.608	26.47
219.827	2.38
220.047	-20.75
220.266	-22.65
220.485	-23.72
220.705	-10.42
220.924	-5.24
221.143	-10.7
221.363	-11.19
221.582	-2.67
221.801	14.33
222.021	18.75
222.24	12.44
222.459	5.72
222.678	11.08
222.897	11.49
223.117	13.75
223.336	8.18
223.555	-10.23
223.774	-0.04
223.993	31.38
224.213	18.67
224.432	23.07
224.651	18.79
224.87	20.29
225.089	42.82
225.308	38.14
225.527	21.91
225.746	27.82
225.965	14.29
226.184	9.41
226.404	-6.48
226.623	-0.57
226.842	8.93
227.061	16.25
227.28	33.56
227.499	44.49
227.718	44.36
227.936	39.31
228.155	33.51
228.374	27.6
228.593	18.78
228.812	10.26
229.031	1.24
229.25	10.8
229.469	25.91
229.688	26.78
229.907	17.69
230.125	19.84
230.344	20.27
230.563	13.39
230.782	-5.81
231.001	-16.29
231.22	-22.54
231.438	-10.49
231.657	-0.82
231.876	-4.83
232.095	1.04
232.313	8.35
232.532	11.31
232.751	15.95
232.969	22.27
233.188	16.66
233.407	16.26
233.625	25.28
233.844	35.61
234.063	24.24
234.281	20.35
234.5	14.53
234.719	11.31
234.937	14.82
235.156	-0.52
235.374	-15.94
235.593	-9.11
235.811	-22.58
236.03	-42.21
236.249	-36.23
236.467	-25.3
236.686	-14.53
236.904	-7.86
237.123	-4.59
237.341	9.77
237.559	18.01
237.778	24.76
237.996	19.49
238.215	19.76
238.433	20.81
238.652	17.01
238.87	14.5
239.088	14.45
239.307	15.04
239.525	13.61
239.743	6.66
239.962	4.98
240.18	9.44
240.398	13.76
240.617	24.76
240.835	13.78
241.053	17.17
241.271	29.68
241.49	23.76
241.708	33.45
241.926	17.85
242.144	-1.02
242.363	-0.33
242.581	2.24
242.799	-13.15
243.017	-5.75
243.235	-18.35
243.453	-9.51
243.672	-6.29
243.89	9.75
244.108	2.78
244.326	3.4
244.544	4.06
244.762	5.5
244.98	5.13
245.198	-0.99
245.416	-9.24
245.634	-0.33
245.852	5.78
246.07	5.72
246.288	-1.94
246.506	-1.64
246.724	18.53
246.942	19.84
247.16	2.94
247.378	-1.68
247.596	3.19
247.814	4.87
248.032	6.58
248.25	-3.64
248.468	7.48
248.685	24.66
248.903	30.25
249.121	31.17
249.339	42.08
249.557	36.51
249.775	27.54
249.992	16.7
250.21	5.8
250.428	-3.7
250.646	-7.08
250.863	-18.9
251.081	-21.72
251.299	-9.72
251.517	-11.12
251.734	7.91
251.952	21.16
252.17	10.99
252.387	35.49
252.605	39.11
252.823	24.66
253.04	13.85
253.258	10.04
253.475	15.52
253.693	22.4
253.911	3.28
254.128	-1.96
254.346	7.41
254.563	5.43
254.781	0.18
254.998	-5.85
255.216	-8.87
255.433	-11.7
255.651	-11.98
255.868	-5.66
256.086	0.34
256.303	-4.61
256.521	-12.63
256.738	-16.45
256.956	-10.78
257.173	-6.72
257.39	-9.3
257.608	-9.6
257.825	-6.36
258.043	3.71
258.26	6.05
258.477	10.94
258.695	6.5
258.912	0.44
259.129	4.19
259.346	8.9
259.564	2.81
259.781	12.22
259.998	4.25
260.216	13.54
260.433	7.58
260.65	10.1
260.867	0.07
261.084	6.94
261.302	-4.07
261.519	-4.15
261.736	-5.31
261.953	6.1
262.17	-3.14
262.387	-6.88
262.604	-22.23
262.822	-15.39
263.039	-13.63
263.256	-10.26
263.473	-15.78
263.69	-17.01
263.907	-14.77
264.124	-11.82
264.341	-16.81
264.558	-8.91
264.775	0.52
264.992	4.28
265.209	16.09
265.426	25.08
265.643	27.31
265.86	22.64
266.077	17.66
266.294	6.45
266.51	6.85
266.727	-11.21
266.944	-63.61
267.161	-66.65
267.378	-70
267.595	-67.11
267.812	-64.3
268.028	-55.1
268.245	-46.37
268.462	-8.4
268.679	-9.06
268.896	-8.82
269.112	-4.76
269.329	-1.84
269.546	-12.38
269.763	-7.58
269.979	-9.48
270.196	-3.74
270.413	1.11
270.629	-1.1
270.846	-3.74
271.063	0.39
271.279	6.41
271.496	-7.01
271.712	-13.39
271.929	-13.13
272.146	-11.3
272.362	-19.53
272.579	-20.86
272.795	-35.6
273.012	-14.75
273.228	-7.77
273.445	-4.44
273.661	-6.56
273.878	3.43
274.094	4.96
274.311	11.47
274.527	11.62
274.744	3.01
274.96	-7.78
275.177	-0.62
275.393	-6.95
275.609	5.25
275.826	8.91
276.042	18.25
276.259	15.94
276.475	18.64
276.691	17.72
276.908	19.79
277.124	14.05
277.34	0.05
277.557	-5.3
277.773	3
277.989	13.38
278.205	10.18
278.422	12.24
278.638	16.34
278.854	17.58
279.07	7.57
279.286	1.4
279.503	-6.8
279.719	-0.03
279.935	-9.45
280.151	-11.8
280.367	-7.78
280.583	-3.85
280.799	7.27
281.016	11.89
281.232	4.93
281.448	3.34
281.664	3.01
281.88	7.46
282.096	13.27
282.312	-4.55
282.528	-29.67
282.744	-23.23
282.96	-5.13
283.176	-4.09
283.392	0.54
283.608	6.83
283.824	6.19
284.04	17.72
284.256	22.11
284.471	14.5
284.687	18.99
284.903	3.76
285.119	-12.13
285.335	-3.12
285.551	4.78
285.767	-0.31
285.982	-3.79
286.198	-14.1
286.414	8.92
286.63	13.56
286.846	13.1
287.061	14.02
287.277	11.49
287.493	14.78
287.709	14.77
287.924	16.63
288.14	30.55
288.356	40.14
288.571	24.33
288.787	35.66
289.003	42.94
289.218	38.54
289.434	33.69
289.65	28.03
289.865	24.59
290.081	25.81
290.296	21.31
290.512	17.33
290.727	22.38
290.943	14.04
291.159	-0.95
291.374	-5.17
291.59	-4.3
291.805	-14.74
292.021	-30.16
292.236	-15.91
292.451	-5.86
292.667	2.46
292.882	1.63
293.098	7.66
293.313	8.67
293.529	19.89
293.744	13.3
293.959	18.17
294.175	21.36
294.39	26.12
294.605	26.1
294.821	27.65
295.036	22.39
295.251	16.15
295.467	1.7
295.682	6.65
295.897	3.3
296.112	-1.64
296.328	-2.74
296.543	-9.43
296.758	-20.07
296.973	-21.7
297.188	-22.81
297.404	-15.39
297.619	-17.4
297.834	-7.55
298.049	-1.1
298.264	12.01
298.479	6.36
298.694	6.28
298.909	-9.21
299.125	-9.91
299.34	-13.92
299.555	-11.93
299.77	-16.18
299.985	-15.19
300.2	-21.74
300.415	-7.57
300.63	-8.25
300.845	-6.92
301.06	-12.75
301.275	-6.72
301.49	3.07
301.704	8.94
301.919	0.98
302.134	-4.34
302.349	-9.99
302.564	-10.78
302.779	-11.26
302.994	-20.59
303.209	-20.21
303.423	0.46
303.638	21.33
303.853	30.1
304.068	43.37
304.283	38.67
304.497	43.93
304.712	44.02
304.927	24.14
305.142	23.29
305.356	25.49
305.571	23.48
305.786	20.81
306	23.16
306.215	15.82
306.43	30.39
306.644	27.37
306.859	22.99
307.074	20.83
307.288	24.68
307.503	18.57
307.717	14.77
307.932	18.48
308.147	12.36
308.361	9.08
308.576	10.82
308.79	3.59
309.005	7.58
309.219	14.44
309.434	6.68
309.648	0.97
309.863	11.19
310.077	10.16
310.292	14.06
310.506	22.11
310.72	12.85
310.935	13.19
311.149	21.41
311.364	24.67
311.578	16.24
311.792	13.46
312.007	6.59
312.221	11.01
312.435	12.5
312.649	9.75
312.864	-11.12
313.078	3.86
313.292	14.01
313.507	20.06
313.721	22.58
313.935	37.07
314.149	33.46
314.363	33.37
314.578	36.29
314.792	31.25
315.006	20.86
315.22	22.84
315.434	16.03
315.648	11.43
315.862	13.45
316.077	12.93
316.291	20.31
316.505	28.28
316.719	21.59
316.933	21.64
317.147	21.13
317.361	25.55
317.575	31.13
317.789	19.23
318.003	15.73
318.217	15.49
318.431	12.62
318.645	12.94
318.859	6.73
319.073	-0.08
319.287	9.22
319.5	12.82
319.714	13.1
319.928	12.28
320.142	13.18
320.356	27.65
320.57	29.67
320.784	19.05
320.997	20.94
321.211	22.41
321.425	15.55
321.639	20.88
321.853	8.93
322.066	9.73
322.28	16.87
322.494	16.89
322.707	15.18
322.921	27.87
323.135	34.67
323.349	36.02
323.562	37.71
323.776	35.31
323.989	30.7
324.203	34.87
324.417	25.91
324.63	11.43
324.844	-0.69
325.057	-2.35
325.271	-13.99
325.485	-14.24
325.698	-18.94
325.912	-12.04
326.125	-9.53
326.339	5.35
326.552	7.81
326.766	19.29
326.979	21.5
327.193	22.13
327.406	27.47
327.619	16.43
327.833	13.52
328.046	11.25
328.26	8.11
328.473	17.03
328.686	13.52
328.9	1.73
329.113	12.68
329.326	20.66
329.54	19.08
329.753	19.41
329.966	14.52
330.179	22.94
330.393	26.01
330.606	27.78
330.819	26.11
331.032	25.29
331.246	27.18
331.459	24.96
331.672	17.32
331.885	12.58
332.098	11.55
332.311	-12.85
332.525	0.54
332.738	1.09
332.951	-5.19
333.164	-12.35
333.377	-15.99
333.59	-20.28
333.803	-2.65
334.016	-33.87
334.229	-40.37
334.442	-18.08
334.655	-5.35
334.868	7.92
335.081	13.12
335.294	7.63
335.507	19.12
335.72	13.49
335.933	5.05
336.146	-2.18
336.359	-9.1
336.572	-14.44
336.785	-4.21
336.997	-5.43
337.21	1.94
337.423	-1.95
337.636	5.58
337.849	5.9
338.062	13.86
338.274	6.84
338.487	4.92
338.7	5.43
338.913	6.18
339.125	1.06
339.338	8.88
339.551	7.19
339.763	5.2
339.976	7.27
340.189	1.55
340.402	1.99
340.614	6.99
340.827	-5.79
341.039	-3.01
341.252	5.82
341.465	-3.26
341.677	-7.41
341.89	2.15
342.102	-0.3
342.315	11.42
342.527	3.69
342.74	1.72
342.952	6.21
343.165	25.42
343.377	20.78
343.59	24.67
343.802	28.68
344.015	32.27
344.227	22.45
344.44	19.94
344.652	10.29
344.864	5.18
345.077	-4.77
345.289	-13.19
345.502	-16.88
345.714	-26.3
345.926	-23.79
346.139	-21.56
346.351	-41.21
346.563	-28.04
346.775	-33.11
346.988	-28.81
347.2	-10.17
347.412	-2.44
347.624	-2.69
347.837	16.35
348.049	13.99
348.261	18.28
348.473	18.37
348.685	20.41
348.897	23.74
349.11	26.32
349.322	16.9
349.534	19.74
349.746	18.22
349.958	19.18
350.17	23.35
350.382	12.92
350.594	18.01
350.806	21.36
351.018	27.14
351.23	26.71
351.442	25.59
351.654	22.48
351.866	27.05
352.078	24.01
352.29	26.49
352.502	15.26
352.714	14.73
352.926	12.43
353.138	6.37
353.35	-2.71
353.561	-4.22
353.773	-7.47
353.985	-6.23
354.197	-10.4
354.409	-9.61
354.621	-1.09
354.832	-5.02
355.044	-0.15
355.256	-4.26
355.468	-10.56
355.679	-4.3
355.891	-6.67
356.103	-9.56
356.314	3.12
356.526	-3.63
356.738	-7.28
356.949	-0.78
357.161	-10.19
357.373	-8.32
357.584	-2.03
357.796	-10.13
358.008	-0.96
358.219	12.66
358.431	13.2
358.642	19.46
358.854	20.25
359.065	17.08
359.277	12.84
359.488	10.97
359.7	13.47
359.911	8.87
360.123	14.78
360.334	14.77
360.546	6.86
360.757	12.28
360.969	15.28
361.18	-2.25
361.391	10.17
361.603	9.93
361.814	10.9
362.025	14.27
362.237	14.52
362.448	18.2
362.659	23.88
362.871	13.37
363.082	9.03
363.293	9.82
363.504	12.79
363.716	17.33
363.927	13.16
364.138	23.09
364.349	29.39
364.56	32.83
364.772	31.48
364.983	23.62
365.194	23.01
365.405	16.14
365.616	2.16
365.827	-0.35
366.038	6.38
366.25	11.49
366.461	21.76
366.672	20.79
366.883	33.79
367.094	38.08
367.305	36.94
367.516	30.6
367.727	23.32
367.938	24.03
368.149	19.57
368.36	11.7
368.571	7.41
368.781	4.32
368.992	6.75
369.203	14.44
369.414	5.3
369.625	8.75
369.836	7.1
370.047	5.49
370.258	-7.83
370.468	-16.98
370.679	-28.07
370.89	-11.14
371.101	-15.96
371.312	-16.16
371.522	-11.31
371.733	-1.24
371.944	0.56
372.155	-1.62
372.365	-12.03
372.576	-15.8
372.787	-21.06
372.997	-30.29
373.208	-23.17
373.419	-18.83
373.629	-8.82
373.84	-9.6
374.05	-0.85
374.261	6.15
374.472	13.13
374.682	6.41
374.893	-2.44
375.103	1.5
375.314	2.83
375.524	-1.27
375.735	-6.96
375.945	-11.65
376.156	-5.85
376.366	-3.42
376.577	-5.88
376.787	-5.54
376.997	-1.47
377.208	0.47
377.418	6.3
377.629	4.55
377.839	13.82
378.049	19.86
378.26	22.1
378.47	23.13
378.68	20.97
378.89	19.17
379.101	15.84
379.311	6.36
379.521	6.48
379.732	-4.83
379.942	-4.96
380.152	4.31
380.362	5.43
380.572	13.85
380.783	15.01
380.993	13.5
381.203	20.73
381.413	20.87
381.623	19.24
381.833	18.1
382.043	5.64
382.253	6.24
382.463	5.06
382.674	6.1
382.884	1.05
383.094	1
383.304	1.65
383.514	9.48
383.724	7.21
383.934	5.07
384.144	3.81
384.353	2.37
384.563	-0.61
384.773	0.38
384.983	-0.8
385.193	5.3
385.403	6.5
385.613	5.3
385.823	8.37
386.033	9.84
386.242	8.36
386.452	7.57
386.662	5.66
386.872	2.45
387.082	2.48
387.291	1.86
387.501	1.76
387.711	3.32
387.921	3.47
388.13	3.12
388.34	3.56
388.55	4.6
388.759	4.71
388.969	3.17
389.179	4.91
389.388	6.26
389.598	6.27
389.807	8.07
390.017	9.46
390.227	8.36
390.436	7.52
390.646	6.11
390.855	3.64
391.065	1.92
391.274	0.52
391.484	0.7
391.693	0.47
391.903	2.36
392.112	2.01
392.322	4.03
392.531	5.07
392.74	4.86
392.95	4.12
393.159	5.52
393.369	4.87
393.578	5.59
393.787	5.34
393.997	6.58
394.206	6.12
394.415	5.88
394.625	4.05
394.834	3.76
395.043	3.12
395.252	3.41
395.462	2.39
395.671	3.04
395.88	3.09
396.089	3.87
396.298	4.57
396.508	4.57
396.717	3.78
396.926	3.62
397.135	3.12
397.344	2.94
397.553	3.03
397.762	2.63
397.971	2.33
398.181	2.75
398.39	2.78
398.599	3.64
398.808	3.83
399.017	4.17
399.226	4.31
399.435	4.67
399.644	4.4
399.853	4.42
400.062	4
400.27	4.21
400.479	3.95
400.688	3.88
400.897	4.2
401.106	4.55
401.315	4.64
401.524	4.97
401.733	4.95
401.941	4.85
402.15	4.75
402.359	4.48
402.568	4.39
402.777	4.28
402.985	4.04
403.194	3.93
403.403	3.83
403.612	3.93
403.82	3.93
404.029	3.86
404.238	3.92
404.446	3.95
404.655	3.9
404.864	3.94
405.072	3.93
405.281	3.78
405.489	3.85
405.698	3.79
405.906	3.7
406.115	3.79
406.324	3.83
406.532	3.87
406.741	3.96
406.949	3.89
407.158	3.94
407.366	4
407.574	4.04
407.783	4.02
407.991	3.91
408.2	3.83
408.408	3.85
408.617	3.84
408.825	3.81
409.033	3.64
409.242	3.63
409.45	3.68
409.658	3.69
409.867	3.65
410.075	3.57
410.283	3.56
410.491	3.58
410.7	3.64
410.908	3.66
411.116	3.66
411.324	3.67
411.533	3.67
411.741	3.64
411.949	3.68
412.157	3.6
412.365	3.63
412.573	3.66
412.781	3.62
412.99	3.69
413.198	3.72
413.406	3.67
413.614	3.7
413.822	3.66
414.03	3.58
414.238	3.64
414.446	3.58
414.654	3.57
414.862	3.53
415.07	3.57
415.278	3.49
415.486	3.57
415.694	3.48
415.902	3.41
416.109	3.46
416.317	3.48
416.525	3.44
416.733	3.5
416.941	3.45
417.149	3.53
417.357	3.62
417.564	3.54
417.772	3.52
417.98	3.41
418.188	3.31
418.395	3.29
418.603	3.13
418.811	3.04
419.019	3.02
419.226	3.1
419.434	3.12
419.642	3.13
419.849	3.15
420.057	3.28
420.265	3.38
420.472	3.31
420.68	3.24
420.887	3.28
421.095	3.32
421.302	3.29
421.51	3.24
421.717	3.15
421.925	3.12
422.132	3.08
422.34	3.04
422.547	3.02
422.755	3.02
422.962	2.96
423.17	3
423.377	3.08
423.585	3.11
423.792	3.03
423.999	3.03
424.207	2.95
424.414	3.08
424.621	3.2
424.829	3.14
425.036	3.17
425.243	3.32
425.451	3.33
425.658	3.49
425.865	3.3
426.072	3.23
426.28	3.31
426.487	3.25
426.694	3.18
426.901	3.14
427.108	3.07
427.315	3.15
427.523	3.05
427.73	3.04
427.937	3.08
428.144	3.08
428.351	3.13
428.558	3.07
428.765	3.06
428.972	3.1
429.179	3.03
429.386	3.08
429.593	3.07
429.8	3.19
430.007	3.23
430.214	3.29
430.421	3.33
430.628	3.27
430.835	3.24
431.042	3.26
431.249	3.18
431.456	3.24
431.662	3.22
431.869	3.24
432.076	3.34
432.283	3.25
432.49	3.26
432.697	3.26
432.903	3.28
433.11	3.26
433.317	3.31
433.524	3.25
433.73	3.41
433.937	3.33
434.144	3.41
434.35	3.36
434.557	3.42
434.764	3.3
434.97	3.37
435.177	3.35
435.384	3.52
435.59	3.45
435.797	3.45
436.003	3.4
436.21	3.42
436.416	3.39
436.623	3.47
436.829	3.46
437.036	3.5
437.242	3.51
437.449	3.62
437.655	3.65
437.862	3.66
438.068	3.68
438.275	3.6
438.481	3.66
438.687	3.7
438.894	3.62
439.1	3.64
439.307	3.7
439.513	3.61
439.719	3.69
439.926	3.66
440.132	3.65
440.338	3.74
440.544	3.78
440.751	3.76
440.957	3.74
441.163	3.71
441.369	3.7
441.575	3.74
441.782	3.68
441.988	3.69
442.194	3.74
442.4	3.82
442.606	3.86
442.812	3.89
443.018	3.88
443.224	3.93
443.431	3.92
443.637	3.85
443.843	3.91
444.049	3.87
444.255	3.84
444.461	3.85
444.667	3.87
444.873	3.86
445.079	3.9
445.284	3.82
445.49	3.84
445.696	3.89
445.902	3.98
446.108	4
446.314	4.04
446.52	4.07
446.726	4.15
446.931	4.15
447.137	4.14
447.343	4.08
447.549	4.04
447.755	4.03
447.96	4.04
448.166	4.03
448.372	4.06
448.578	4.11
448.783	4.1
448.989	4.18
449.195	4.24
449.4	4.21
449.606	4.26
449.812	4.3
450.017	4.3
450.223	4.27
450.428	4.24
450.634	4.21
450.84	4.23
451.045	4.18
451.251	4.23
451.456	4.17
451.662	4.21
451.867	4.22
452.073	4.2
452.278	4.23
452.483	4.18
452.689	4.1
452.894	4.09
453.1	4.06
453.305	4.07
453.51	4.06
453.716	4.03
453.921	4.06
454.127	4.09
454.332	4.12
454.537	4.22
454.742	4.22
454.948	4.25
455.153	4.28
455.358	4.31
455.563	4.3
455.769	4.27
455.974	4.25
456.179	4.22
456.384	4.23
456.589	4.23
456.795	4.19
457	4.24
457.205	4.3
457.41	4.29
457.615	4.38
457.82	4.44
458.025	4.44
458.23	4.47
458.435	4.4
458.64	4.4
458.845	4.39
459.05	4.42
459.255	4.37
459.46	4.38
459.665	4.48
459.87	4.52
460.075	4.54
460.28	4.56
460.485	4.52
460.69	4.48
460.895	4.51
461.099	4.46
461.304	4.45
461.509	4.38
461.714	4.44
461.919	4.41
462.123	4.46
462.328	4.46
462.533	4.45
462.738	4.48
462.942	4.57
463.147	4.53
463.352	4.59
463.556	4.67
463.761	4.67
463.966	4.69
464.17	4.7
464.375	4.69
464.58	4.69
464.784	4.71
464.989	4.67
465.193	4.73
465.398	4.76
465.602	4.75
465.807	4.77
466.011	4.85
466.216	4.83
466.42	4.84
466.625	4.82
466.829	4.82
467.034	4.91
467.238	4.93
467.443	4.92
467.647	4.93
467.851	4.9
468.056	4.88
468.26	4.86
468.464	4.85
468.669	4.85
468.873	4.85
469.077	4.9
