Data from Ofra_PS_T2_1A_2HS27_Reflection_2.txt Node
Date: Wed Jul 21 18:02:57 EDT 2021
User: Adam
Spectrometer: FLMT01687
Trigger mode: 0
Integration Time (sec): 1.100000E0
Scans to average: 2
Electric dark correction enabled: true
Nonlinearity correction enabled: false
Boxcar width: 2
XAxis mode: Wavelengths
Number of Pixels in Spectrum: 3648
>>>>>Begin Spectral Data<<<<<
179.494	515
179.716	582.59
179.937	573.34
180.158	566.19
180.38	959.84
180.601	508.7
180.823	177.94
181.044	4.15
181.265	215.99
181.486	24.87
181.708	20.73
181.929	97.45
182.15	-286.97
182.372	140.96
182.593	25.17
182.814	-0.99
183.035	44.39
183.257	54.9
183.478	-26.12
183.699	11.98
183.92	3.08
184.141	-27.13
184.363	-86.39
184.584	-26.05
184.805	1.26
185.026	55.42
185.247	73.57
185.468	59.85
185.689	58.34
185.91	37.52
186.132	15.19
186.353	11.42
186.574	40.55
186.795	27.44
187.016	-30.85
187.237	-32.78
187.458	-36.6
187.679	-30.5
187.9	5.78
188.121	27.27
188.342	49.9
188.563	49.38
188.784	69.82
189.005	83.03
189.226	147.7
189.447	162.5
189.667	206.92
189.888	57.76
190.109	-369.81
190.33	-325
190.551	-899.78
190.772	-133.6
190.993	-90.87
191.214	-95.58
191.434	-48.44
191.655	32.79
191.876	-3.15
192.097	-39.82
192.318	-50.36
192.538	-90.54
192.759	-110.23
192.98	-10.2
193.201	19.02
193.421	16.62
193.642	24.09
193.863	42.01
194.083	7.43
194.304	-11.25
194.525	7.95
194.745	12.7
194.966	-13.8
195.187	-21.91
195.407	-26.81
195.628	-103.21
195.848	-98.97
196.069	-100.96
196.29	-42.59
196.51	-41.35
196.731	-18.01
196.951	-41.63
197.172	-46.55
197.392	-56.61
197.613	-33.6
197.833	-53.51
198.054	-28.49
198.274	-5.01
198.495	-26.1
198.715	-5.71
198.936	-16.52
199.156	-18.39
199.377	-79.24
199.597	-72.94
199.817	-92.49
200.038	-27.07
200.258	-95.73
200.479	-26.11
200.699	-24.87
200.919	35.21
201.14	-5.86
201.36	27.3
201.58	24.53
201.801	45.68
202.021	5.52
202.241	15.46
202.461	2.52
202.682	-52.16
202.902	-104.09
203.122	-41.4
203.342	-49.57
203.563	-23.93
203.783	5.98
204.003	-35.06
204.223	-26.2
204.443	33.61
204.663	32.31
204.884	39.95
205.104	98.14
205.324	98.87
205.544	81.76
205.764	86.56
205.984	80.24
206.204	64.73
206.424	47.31
206.644	13.67
206.864	6.89
207.084	-40.02
207.304	-7.47
207.525	-29.92
207.745	-14.59
207.964	-3.31
208.184	-56.11
208.404	-104.45
208.624	-118.35
208.844	-105.5
209.064	-375.29
209.284	-315.48
209.504	-170.5
209.724	-44.83
209.944	-11.26
210.164	22.5
210.384	34.59
210.604	43.15
210.823	38.44
211.043	19.28
211.263	44.64
211.483	25.37
211.703	-25.64
211.922	-23.63
212.142	19.1
212.362	-1.78
212.582	1.03
212.801	21.19
213.021	9.85
213.241	13.9
213.461	-9.94
213.68	-8.82
213.9	16.7
214.12	17.77
214.339	-54.36
214.559	-42.4
214.779	16.7
214.998	6.53
215.218	8.34
215.438	23.35
215.657	6.95
215.877	-21.78
216.096	-2.19
216.316	11.26
216.535	15.96
216.755	25.49
216.974	-17.82
217.194	-53.89
217.413	-114.4
217.633	-147.32
217.852	-233.73
218.072	-86.37
218.291	-54.57
218.511	-2.26
218.73	-5.72
218.95	-8.74
219.169	-33.34
219.389	-62.35
219.608	-51.39
219.827	-45.48
220.047	-23.36
220.266	-9.31
220.485	-3.54
220.705	5.71
220.924	-12.18
221.143	13.25
221.363	6.7
221.582	8.86
221.801	21.12
222.021	37.62
222.24	-4.99
222.459	53.23
222.678	16.88
222.897	-96.8
223.117	-144.08
223.336	-129.55
223.555	-136.69
223.774	-61.61
223.993	-34.14
224.213	16.71
224.432	20.96
224.651	63.52
224.87	17.73
225.089	32.34
225.308	11.4
225.527	17.11
225.746	6.85
225.965	8.53
226.184	-22.55
226.404	16.1
226.623	-0.75
226.842	2.72
227.061	25.06
227.28	25.11
227.499	14.93
227.718	15.65
227.936	3.98
228.155	19.14
228.374	26.89
228.593	27.61
228.812	31.2
229.031	19.24
229.25	-33.41
229.469	-42.06
229.688	-39.65
229.907	-12.09
230.125	-8.05
230.344	-1.62
230.563	-0.18
230.782	2.21
231.001	-72.36
231.22	-40.1
231.438	-9.54
231.657	-4.5
231.876	-12.09
232.095	34.15
232.313	26.88
232.532	3.95
232.751	5.29
232.969	0.92
233.188	-41.53
233.407	-4.16
233.625	-2.25
233.844	-19.26
234.063	-8.8
234.281	11.78
234.5	-12.49
234.719	-6.6
234.937	8.14
235.156	13.36
235.374	6.36
235.593	12.94
235.811	-5.53
236.03	-18.79
236.249	-68.76
236.467	-61.19
236.686	-21.68
236.904	5.2
237.123	-12.76
237.341	-3.06
237.559	11.1
237.778	1.98
237.996	-10.66
238.215	17.01
238.433	26.16
238.652	21.33
238.87	1.38
239.088	20.86
239.307	17.34
239.525	20.82
239.743	-5.63
239.962	24.85
240.18	-26.03
240.398	-47.56
240.617	-65.76
240.835	-13.11
241.053	1.17
241.271	73.59
241.49	79.21
241.708	90.8
241.926	78.21
242.144	53.09
242.363	-15.46
242.581	-37.6
242.799	-14.59
243.017	14.46
243.235	-5.12
243.453	7.05
243.672	2.48
243.89	7.64
244.108	-27.74
244.326	-3.05
244.544	-10.62
244.762	-8.17
244.98	-19.44
245.198	13.3
245.416	-6.95
245.634	-2.9
245.852	1.94
246.07	15.22
246.288	2.17
246.506	-28.75
246.724	29.04
246.942	26.84
247.16	53.92
247.378	54.28
247.596	87.16
247.814	73.64
248.032	43.23
248.25	22.33
248.468	25.46
248.685	22.58
248.903	42.71
249.121	48.99
249.339	27.59
249.557	20.75
249.775	23.4
249.992	-41.7
250.21	-40.32
250.428	-20.92
250.646	-38.61
250.863	-57.11
251.081	-19.91
251.299	-9.39
251.517	-16.85
251.734	-16.24
251.952	-20.04
252.17	-23.83
252.387	-7.62
252.605	-6.83
252.823	3.65
253.04	17.84
253.258	37.45
253.475	38.49
253.693	67.07
253.911	60.26
254.128	66.78
254.346	81.65
254.563	49.4
254.781	15.44
254.998	7.36
255.216	-11.77
255.433	-4.49
255.651	38.61
255.868	51.08
256.086	58.13
256.303	48.79
256.521	20.03
256.738	7.09
256.956	-5.08
257.173	-9.57
257.39	-15.08
257.608	-34.12
257.825	-5.67
258.043	23.06
258.26	21.06
258.477	56.82
258.695	66.92
258.912	15.24
259.129	3.06
259.346	-33.74
259.564	-79.8
259.781	-89.4
259.998	-9.26
260.216	18.61
260.433	58.74
260.65	58.37
260.867	59.52
261.084	25.51
261.302	23.3
261.519	30.21
261.736	0.25
261.953	-13.22
262.17	23.41
262.387	-10.39
262.604	-55.32
262.822	-42.03
263.039	-19.58
263.256	-48.14
263.473	-17.59
263.69	4.56
263.907	21.17
264.124	10.5
264.341	12.66
264.558	8.39
264.775	9.84
264.992	19.54
265.209	31.11
265.426	51.52
265.643	49.24
265.86	63.25
266.077	63.21
266.294	55.81
266.51	-2.32
266.727	-14.73
266.944	-7.13
267.161	-6.6
267.378	-10.41
267.595	23.28
267.812	14.98
268.028	10.2
268.245	19.42
268.462	14.4
268.679	20.97
268.896	61.88
269.112	45.61
269.329	29.7
269.546	26.5
269.763	8.9
269.979	-16
270.196	-6.97
270.413	-37.02
270.629	-42.63
270.846	-58.22
271.063	-62.94
271.279	-90.36
271.496	-67.98
271.712	-30.41
271.929	13.02
272.146	34.63
272.362	60.02
272.579	93.12
272.795	80.89
273.012	77.78
273.228	69.98
273.445	47.82
273.661	23.59
273.878	-22.37
274.094	-29.51
274.311	-40.57
274.527	11.97
274.744	9.34
274.96	10.76
275.177	20.32
275.393	21.62
275.609	16.6
275.826	42.73
276.042	36.85
276.259	23.17
276.475	50.2
276.691	47.81
276.908	17.21
277.124	40.06
277.34	38.41
277.557	19.08
277.773	2.38
277.989	-2.69
278.205	-4.1
278.422	3
278.638	7.28
278.854	26.57
279.07	35.91
279.286	20.73
279.503	11.52
279.719	-1.57
279.935	-16.62
280.151	-20.04
280.367	9.44
280.583	-27.14
280.799	-29.32
281.016	-61.91
281.232	-37.51
281.448	-47.26
281.664	-9.61
281.88	-37.24
282.096	-7.76
282.312	8.15
282.528	12.84
282.744	32.52
282.96	43.5
283.176	34.37
283.392	40.98
283.608	24.44
283.824	13.02
284.04	18.78
284.256	38.51
284.471	27.72
284.687	38.75
284.903	43.04
285.119	75.06
285.335	43.1
285.551	48.68
285.767	27.25
285.982	32.22
286.198	-3.15
286.414	43.88
286.63	44.3
286.846	62.31
287.061	47.91
287.277	66.43
287.493	43.9
287.709	68.72
287.924	49.29
288.14	71.08
288.356	62.31
288.571	77.3
288.787	34.19
289.003	35.88
289.218	11.11
289.434	-28.68
289.65	-37.8
289.865	-25.46
290.081	17.65
290.296	19.99
290.512	27.62
290.727	-3.49
290.943	-13.64
291.159	-33.19
291.374	-20.43
291.59	-34.8
291.805	-18.4
292.021	-0.46
292.236	-11.85
292.451	-8.86
292.667	2.85
292.882	12.12
293.098	3.02
293.313	-2.77
293.529	-21.21
293.744	-26.06
293.959	-23.77
294.175	-15.68
294.39	14.98
294.605	29.2
294.821	53.05
295.036	54.53
295.251	52.68
295.467	18.22
295.682	5.21
295.897	-45.18
296.112	-52.66
296.328	-52.2
296.543	-56.22
296.758	-59.51
296.973	-17.38
297.188	12.26
297.404	-14.49
297.619	-20.19
297.834	-30.15
298.049	-50.12
298.264	-75.93
298.479	-14.88
298.694	-1.93
298.909	29.06
299.125	36.68
299.34	48.4
299.555	21.74
299.77	42.02
299.985	-3.02
300.2	-69
300.415	-91.02
300.63	-54.46
300.845	-62.97
301.06	-46.12
301.275	7.38
301.49	32.13
301.704	19.8
301.919	-7.88
302.134	-30.87
302.349	-45.76
302.564	-112.84
302.779	-137.5
302.994	-90.24
303.209	-36.18
303.423	26.27
303.638	55.3
303.853	22.96
304.068	14.84
304.283	4.15
304.497	-8.87
304.712	-5.24
304.927	5.11
305.142	-1.78
305.356	6.98
305.571	0.5
305.786	-18.1
306	-33.14
306.215	-16.18
306.43	-41.46
306.644	-10.34
306.859	27.05
307.074	36.59
307.288	3.77
307.503	9.72
307.717	-17.07
307.932	-18.26
308.147	-25.74
308.361	-0.35
308.576	-1.8
308.79	-37.93
309.005	-35.14
309.219	-12.58
309.434	-11.79
309.648	-19.11
309.863	14.49
310.077	20.8
310.292	20.93
310.506	8.31
310.72	33.46
310.935	37.59
311.149	29.43
311.364	39.12
311.578	44.46
311.792	19.14
312.007	19
312.221	7.59
312.435	8.05
312.649	-4.07
312.864	-6.3
313.078	-4.5
313.292	50.62
313.507	-24.76
313.721	-30.5
313.935	16.63
314.149	15.93
314.363	-7.04
314.578	5.97
314.792	22.38
315.006	14.41
315.22	31.56
315.434	47.48
315.648	52.09
315.862	41.77
316.077	43.88
316.291	6.35
316.505	8.5
316.719	-2.57
316.933	-22.44
317.147	-16.57
317.361	-44.52
317.575	-95.61
317.789	-123.34
318.003	-171.18
318.217	-145.17
318.431	-35.53
318.645	27.75
318.859	35.27
319.073	54.5
319.287	48.42
319.5	6.79
319.714	-36.98
319.928	-50.59
320.142	-68.91
320.356	-28.8
320.57	22.9
320.784	28.63
320.997	0.37
321.211	10.07
321.425	-34.06
321.639	-72.48
321.853	-20.87
322.066	-8.38
322.28	-9.83
322.494	-6.68
322.707	7.79
322.921	-7.49
323.135	-4.55
323.349	-1.8
323.562	-15.57
323.776	-10.46
323.989	-9.56
324.203	-23.37
324.417	-20.48
324.63	-26.1
324.844	-36.21
325.057	-26.57
325.271	-12.39
325.485	-0.99
325.698	19.78
325.912	24.38
326.125	3.52
326.339	15.3
326.552	19.28
326.766	22.69
326.979	32.15
327.193	63.11
327.406	39.48
327.619	20.84
327.833	24.7
328.046	-6.32
328.26	-45.1
328.473	-6.69
328.686	-36
328.9	-41.24
329.113	3.62
329.326	-26.55
329.54	-30.44
329.753	-15.56
329.966	-29.28
330.179	-19.02
330.393	14.45
330.606	17.15
330.819	29.28
331.032	47
331.246	39.84
331.459	61.5
331.672	49.77
331.885	46.08
332.098	13.39
332.311	6.67
332.525	-35.94
332.738	-20.32
332.951	-7.83
333.164	23.89
333.377	39.4
333.59	50.45
333.803	61.63
334.016	52.2
334.229	52.77
334.442	47.04
334.655	74.86
334.868	75.43
335.081	63.17
335.294	47.59
335.507	25.23
335.72	5.03
335.933	-13.13
336.146	-8.93
336.359	-6.19
336.572	-19.51
336.785	-48.13
336.997	-38.35
337.21	-20.59
337.423	-13.41
337.636	2.65
337.849	18.22
338.062	14.55
338.274	23.32
338.487	10.53
338.7	17.73
338.913	-3.56
339.125	-14.65
339.338	-70.77
339.551	-58.22
339.763	-29.32
339.976	-12.78
340.189	-1.98
340.402	19.76
340.614	18.85
340.827	6.41
341.039	-6.2
341.252	-6.92
341.465	1.74
341.677	1.57
341.89	-37.95
342.102	5.05
342.315	-9.9
342.527	-29.25
342.74	-26.53
342.952	25.2
343.165	5.93
343.377	41.43
343.59	29.91
343.802	42.83
344.015	35.94
344.227	60.42
344.44	28.91
344.652	32.26
344.864	16.87
345.077	35.77
345.289	25.68
345.502	35.22
345.714	28.51
345.926	41.7
346.139	31.39
346.351	33.78
346.563	35.06
346.775	57.21
346.988	36.54
347.2	14.08
347.412	-16.97
347.624	-39.07
347.837	-91.72
348.049	-61.07
348.261	-17.82
348.473	-8.37
348.685	-9.82
348.897	4.03
349.11	-1.36
349.322	-26.73
349.534	-16.51
349.746	-10.05
349.958	5.58
350.17	-15.52
350.382	5.73
350.594	2.96
350.806	11.44
351.018	-5.29
351.23	-12.9
351.442	-46.38
351.654	-61.32
351.866	-60.38
352.078	-22.62
352.29	2.42
352.502	17.95
352.714	34.85
352.926	27.23
353.138	17.41
353.35	8.77
353.561	3.45
353.773	-21.85
353.985	-3.65
354.197	-4.75
354.409	-16.5
354.621	-11.09
354.832	0.75
355.044	-14.13
355.256	-20.41
355.468	3.32
355.679	-1.76
355.891	1.03
356.103	-4.71
356.314	-1.96
356.526	-3.07
356.738	1.1
356.949	9.44
357.161	20.81
357.373	16.61
357.584	0.48
357.796	4.43
358.008	-10.35
358.219	0.55
358.431	4.46
358.642	14.38
358.854	13.68
359.065	17.27
359.277	-7.14
359.488	-8.87
359.7	-24.24
359.911	-45.4
360.123	-33.44
360.334	-43.31
360.546	-52.04
360.757	-53.21
360.969	-32.36
361.18	-29.3
361.391	-5.77
361.603	-24.06
361.814	-15.77
362.025	-26.93
362.237	-25.55
362.448	-15.89
362.659	8.21
362.871	5.36
363.082	16.69
363.293	14.28
363.504	2.77
363.716	-22.11
363.927	-20.39
364.138	-46.47
364.349	-55.53
364.56	-53.82
364.772	-38.62
364.983	-21.38
365.194	-13.31
365.405	-1.34
365.616	19.64
365.827	21.62
366.038	4.55
366.25	-0.8
366.461	-17.95
366.672	-8.69
366.883	1.51
367.094	14.14
367.305	6.54
367.516	8.23
367.727	-25.72
367.938	-43.2
368.149	-40.95
368.36	-15.79
368.571	-6.49
368.781	-7.7
368.992	-9.99
369.203	-27.66
369.414	-43.44
369.625	-57.73
369.836	-44.32
370.047	-59.09
370.258	-47.36
370.468	-56.71
370.679	-59.93
370.89	-64.31
371.101	-36.98
371.312	-41.59
371.522	-29.4
371.733	-17.67
371.944	7.11
372.155	3.61
372.365	3.76
372.576	8.16
372.787	7.71
372.997	-19.32
373.208	-13.04
373.419	12.55
373.629	-23.18
373.84	-19.23
374.05	-31.02
374.261	-27.37
374.472	-57.38
374.682	-3.48
374.893	-11.59
375.103	31.79
375.314	21.35
375.524	27.83
375.735	14.86
375.945	12.85
376.156	-19.05
376.366	-10.07
376.577	-14.27
376.787	-18.58
376.997	-4.02
377.208	-2.42
377.418	-20.12
377.629	-11.58
377.839	-2.79
378.049	-6.57
378.26	10.44
378.47	22.9
378.68	15.33
378.89	7.98
379.101	-6.89
379.311	-29.91
379.521	-52.45
379.732	-50.33
379.942	-43.19
380.152	-47.54
380.362	-23.19
380.572	-22.89
380.783	-11.69
380.993	-4.64
381.203	15.82
381.413	21.3
381.623	36.69
381.833	34.74
382.043	24.23
382.253	10.02
382.463	2.32
382.674	-12.65
382.884	-31.43
383.094	-26.26
383.304	-17.27
383.514	-12.16
383.724	4.55
383.934	3.53
384.144	-2.54
384.353	-12.92
384.563	-15.66
384.773	-15.51
384.983	-23.97
385.193	-7.27
385.403	-1.68
385.613	6.68
385.823	-6.91
386.033	5.3
386.242	-1.54
386.452	0.01
386.662	-8.58
386.872	9.56
387.082	11.09
387.291	6.1
387.501	5.97
387.711	8.27
387.921	-8.45
388.13	-11.13
388.34	1.22
388.55	-1.17
388.759	-3.99
388.969	2.28
389.179	0.85
389.388	-5.76
389.598	-1.29
389.807	-5.54
390.017	-6.67
390.227	-4.63
390.436	-4.35
390.646	-2.96
390.855	2.23
391.065	2.11
391.274	0.18
391.484	-3.35
391.693	-2
391.903	-1.76
392.112	2.2
392.322	5.27
392.531	11.02
392.74	11.84
392.95	7.81
393.159	5.4
393.369	3
393.578	2.23
393.787	-0.24
393.997	1.57
394.206	0.89
394.415	1.58
394.625	-0.62
394.834	-2.16
395.043	-1.31
395.252	0.51
395.462	2.43
395.671	3.6
395.88	4.51
396.089	5.43
396.298	4.49
396.508	3.4
396.717	2.93
396.926	3.81
397.135	3.02
397.344	2.6
397.553	3.08
397.762	4.81
397.971	4.36
398.181	3.85
398.39	3.26
398.599	3.01
398.808	2.39
399.017	3.27
399.226	4.9
399.435	6.05
399.644	6.44
399.853	5.55
400.062	5.1
400.27	4.49
400.479	4.08
400.688	3.1
400.897	3.59
401.106	3.59
401.315	3.36
401.524	3.36
401.733	3.94
401.941	3.91
402.15	4.08
402.359	3.86
402.568	4.23
402.777	4.28
402.985	4.34
403.194	4.08
403.403	4.33
403.612	3.88
403.82	3.79
404.029	3.89
404.238	3.88
404.446	4.15
404.655	4.13
404.864	4.04
405.072	3.92
405.281	4.08
405.489	3.68
405.698	3.82
405.906	3.98
406.115	4.02
406.324	4.07
406.532	4.3
406.741	4.44
406.949	4.38
407.158	4.38
407.366	4.28
407.574	4.23
407.783	4.18
407.991	3.99
408.2	4.15
408.408	4.14
408.617	4.08
408.825	3.9
409.033	4.05
409.242	3.93
409.45	3.84
409.658	3.68
409.867	3.83
410.075	3.66
410.283	3.51
410.491	3.56
410.7	3.59
410.908	3.58
411.116	3.89
411.324	3.96
411.533	3.89
411.741	4.13
411.949	4.1
412.157	3.8
412.365	3.83
412.573	3.91
412.781	3.81
412.99	3.71
413.198	3.95
413.406	3.92
413.614	3.87
413.822	3.7
414.03	3.68
414.238	3.4
414.446	3.48
414.654	3.28
414.862	3.45
415.07	3.53
415.278	3.81
415.486	3.52
415.694	3.67
415.902	3.48
416.109	3.34
416.317	3.23
416.525	3.2
416.733	3.16
416.941	3.24
417.149	3.24
417.357	3.21
417.564	3.47
417.772	3.69
417.98	3.66
418.188	3.69
418.395	3.72
418.603	3.7
418.811	3.39
419.019	3.39
419.226	3.56
419.434	3.63
419.642	3.43
419.849	3.5
420.057	3.45
420.265	3.43
420.472	3.2
420.68	3.17
420.887	3.1
421.095	3.17
421.302	2.96
421.51	3.16
421.717	3.34
421.925	3.43
422.132	3.26
422.34	3.12
422.547	3.11
422.755	2.98
422.962	2.87
423.17	2.91
423.377	3.12
423.585	3.12
423.792	3.03
423.999	3.09
424.207	3.04
424.414	3.21
424.621	3.21
424.829	3.35
425.036	3.35
425.243	3.59
425.451	3.33
425.658	3.13
425.865	3.26
426.072	3.27
426.28	3.45
426.487	3.43
426.694	3.58
426.901	3.43
427.108	3.58
427.315	3.37
427.523	3.76
427.73	3.7
427.937	3.7
428.144	3.48
428.351	3.39
428.558	3.32
428.765	3.27
428.972	3.17
429.179	3.41
429.386	3.69
429.593	3.35
429.8	3.26
430.007	3.35
430.214	3.33
430.421	2.98
430.628	2.94
430.835	2.91
431.042	3.15
431.249	3.16
431.456	3.32
431.662	3.56
431.869	3.86
432.076	3.83
432.283	3.88
432.49	3.89
432.697	3.87
432.903	3.54
433.11	3.43
433.317	3.42
433.524	3.58
433.73	3.42
433.937	3.7
434.144	3.54
434.35	3.49
434.557	3.22
434.764	3.32
434.97	3.19
435.177	3.45
435.384	3.39
435.59	3.47
435.797	3.59
436.003	3.68
436.21	3.58
436.416	3.69
436.623	3.75
436.829	3.88
437.036	3.96
437.242	3.92
437.449	3.85
437.655	3.82
437.862	3.71
438.068	3.57
438.275	3.8
438.481	3.99
438.687	3.98
438.894	3.88
439.1	3.95
439.307	4.04
439.513	3.94
439.719	3.95
439.926	4.12
440.132	4.05
440.338	3.79
440.544	3.87
440.751	3.88
440.957	3.92
441.163	3.95
441.369	4.08
441.575	3.89
441.782	3.9
441.988	3.68
442.194	3.64
442.4	3.64
442.606	3.99
442.812	4.03
443.018	4.24
443.224	4.35
443.431	4.35
443.637	4.01
443.843	3.98
444.049	3.89
444.255	3.85
444.461	3.92
444.667	3.99
444.873	4.17
445.079	4.24
445.284	4.3
445.49	4.1
445.696	3.91
445.902	3.71
446.108	3.64
446.314	3.55
446.52	3.67
446.726	4.04
446.931	4.06
447.137	4.16
447.343	4.2
447.549	4.09
447.755	3.92
447.96	4.04
448.166	3.9
448.372	3.89
448.578	4
448.783	4
448.989	4.13
449.195	4.41
449.4	4.43
449.606	4.39
449.812	4.28
450.017	4.18
450.223	4.05
450.428	3.99
450.634	4.07
450.84	4.31
451.045	4.21
451.251	4.14
451.456	4.36
451.662	4.43
451.867	4.4
452.073	4.47
452.278	4.56
452.483	4.58
452.689	4.46
452.894	4.39
453.1	4.3
453.305	4.18
453.51	4.05
453.716	4.01
453.921	4.14
454.127	4.11
454.332	4.07
454.537	4.04
454.742	4.14
454.948	4.06
455.153	4.22
455.358	4.31
455.563	4.46
455.769	4.52
455.974	4.51
456.179	4.29
456.384	4.31
456.589	4.24
456.795	3.99
457	3.97
457.205	4.32
457.41	4.32
457.615	4.28
457.82	4.34
458.025	4.4
458.23	4.18
458.435	4.17
458.64	4.09
458.845	4.29
459.05	4.2
459.255	4.21
459.46	4.19
459.665	4.24
459.87	4.12
460.075	4.19
460.28	4.2
460.485	4.27
460.69	4.34
460.895	4.32
461.099	4.23
461.304	4.41
461.509	4.46
461.714	4.41
461.919	4.59
462.123	4.51
462.328	4.53
462.533	4.42
462.738	4.5
462.942	4.37
463.147	4.55
463.352	4.48
463.556	4.54
463.761	4.52
463.966	4.56
464.17	4.51
464.375	4.35
