Data from Ofra_1a_PS_OCX4_Reflection_3.txt Node
Date: Tue Jul 20 10:39:26 EDT 2021
User: Adam
Spectrometer: FLMT01687
Trigger mode: 0
Integration Time (sec): 1.004000E0
Scans to average: 2
Electric dark correction enabled: true
Nonlinearity correction enabled: false
Boxcar width: 2
XAxis mode: Wavelengths
Number of Pixels in Spectrum: 3648
>>>>>Begin Spectral Data<<<<<
179.494	-40.61
179.716	-3.82
179.937	218.06
180.158	-285.35
180.38	114.15
180.601	56.45
180.823	42.33
181.044	-104.92
181.265	-302.63
181.486	245.02
181.708	128.85
181.929	-8145.45
182.15	-63.19
182.372	658.13
182.593	385.52
182.814	-383.7
183.035	-101.26
183.257	-27.25
183.478	-31.53
183.699	-67.43
183.92	-87.76
184.141	-97.62
184.363	-97.39
184.584	-82.93
184.805	-20.03
185.026	25.29
185.247	12.88
185.468	8.83
185.689	4.09
185.91	-36.71
186.132	-24.6
186.353	-0.54
186.574	6.46
186.795	-3.85
187.016	33.69
187.237	43.68
187.458	50.88
187.679	48.3
187.9	64.08
188.121	71.64
188.342	18.99
188.563	16.81
188.784	29.84
189.005	-2.46
189.226	-0.91
189.447	-0.43
189.667	-9.57
189.888	-15.17
190.109	-17.23
190.33	3.45
190.551	10.75
190.772	10.02
190.993	-10.63
191.214	-0.47
191.434	-60.35
191.655	-119.89
191.876	-57.39
192.097	-29.93
192.318	10.33
192.538	-8.38
192.759	5.27
192.98	-10.37
193.201	-9.38
193.421	-20.6
193.642	8.36
193.863	22.98
194.083	45.82
194.304	40.44
194.525	17.38
194.745	-6.8
194.966	-12.4
195.187	-20.71
195.407	-25.38
195.628	6.56
195.848	8.13
196.069	15.56
196.29	13.46
196.51	3.8
196.731	-26.59
196.951	-29.29
197.172	-18.06
197.392	-4.98
197.613	12.1
197.833	11.23
198.054	6.87
198.274	-20.33
198.495	-18.81
198.715	-17.21
198.936	16.05
199.156	22.99
199.377	42.25
199.597	44.86
199.817	23.05
200.038	-16.09
200.258	-11.01
200.479	-16.5
200.699	-25.02
200.919	-26.02
201.14	-17.7
201.36	-17.13
201.58	-61.67
201.801	-125.15
202.021	-110.65
202.241	-118.92
202.461	-102.67
202.682	-58.36
202.902	-9.29
203.122	7.62
203.342	14.49
203.563	14.3
203.783	12.03
204.003	-0.31
204.223	4.84
204.443	15.95
204.663	4.97
204.884	31.44
205.104	26.68
205.324	10.06
205.544	-40.73
205.764	-4.1
205.984	-11.14
206.204	-13.37
206.424	-23.62
206.644	-13.85
206.864	-55.03
207.084	-24.8
207.304	-10.27
207.525	9.19
207.745	19.52
207.964	36.46
208.184	36.97
208.404	26.01
208.624	25.12
208.844	10.1
209.064	4.99
209.284	-18.05
209.504	-33.41
209.724	-31.35
209.944	-31.71
210.164	-41.86
210.384	-20.03
210.604	-98.15
210.823	-114.82
211.043	-87.26
211.263	-170.45
211.483	-124.1
211.703	-49.95
211.922	-63.76
212.142	-46.42
212.362	-4.49
212.582	-1.89
212.801	-45.16
213.021	-52.64
213.241	-54.64
213.461	-55.91
213.68	-46.91
213.9	-18.84
214.12	-17.82
214.339	-37.07
214.559	-39.24
214.779	-52.55
214.998	-53.57
215.218	-44.63
215.438	-25.24
215.657	-35.41
215.877	-44.92
216.096	-19.21
216.316	-15.33
216.535	-21.67
216.755	-22.32
216.974	-24.09
217.194	-45.44
217.413	-38.24
217.633	-44.85
217.852	-32.65
218.072	-14.47
218.291	-24.83
218.511	-34.1
218.73	-25.28
218.95	-43.51
219.169	-63.07
219.389	-27.83
219.608	-21.29
219.827	-33.75
220.047	-22.89
220.266	-26.15
220.485	-60.21
220.705	-68.25
220.924	-45.9
221.143	-9.78
221.363	-4.89
221.582	-6.92
221.801	18.13
222.021	24.65
222.24	31.92
222.459	53.05
222.678	55.09
222.897	35.8
223.117	42.59
223.336	53.68
223.555	29.49
223.774	43.92
223.993	71.11
224.213	37.11
224.432	19.96
224.651	18.07
224.87	13.59
225.089	0.12
225.308	9.51
225.527	-5.12
225.746	-25.44
225.965	-30.33
226.184	-43.31
226.404	-40.55
226.623	-33.69
226.842	-5.6
227.061	-6.75
227.28	24.91
227.499	25.98
227.718	28.44
227.936	18.38
228.155	18.21
228.374	-1.32
228.593	-10.18
228.812	-16.49
229.031	-8.17
229.25	-3.46
229.469	-0.06
229.688	6.04
229.907	11.9
230.125	7.12
230.344	-2.3
230.563	8.77
230.782	6.28
231.001	8.53
231.22	13.49
231.438	22.76
231.657	11.26
231.876	8.35
232.095	3.36
232.313	-0.43
232.532	-1.07
232.751	-11.02
232.969	-15.07
233.188	-22.15
233.407	-24.01
233.625	-22.82
233.844	-14.68
234.063	-3.25
234.281	-3.72
234.5	6.41
234.719	-9.82
234.937	-32.98
235.156	-54.08
235.374	-39.84
235.593	-23.47
235.811	11.02
236.03	11.69
236.249	20.06
236.467	4.01
236.686	-15.59
236.904	-15.09
237.123	-7.74
237.341	-14.69
237.559	-4.74
237.778	10.25
237.996	-31.58
238.215	-133.14
238.433	-160
238.652	-52.41
238.87	-68.65
239.088	-46.33
239.307	-11.58
239.525	-9.18
239.743	-31.16
239.962	-38.11
240.18	-23.97
240.398	-27.26
240.617	-46.44
240.835	-73.64
241.053	-33.81
241.271	-14.47
241.49	2.89
241.708	13.7
241.926	13.18
242.144	0.88
242.363	-46.66
242.581	-103.39
242.799	-103.97
243.017	-51.21
243.235	-41.14
243.453	-46.59
243.672	-16.55
243.89	-14.86
244.108	4.37
244.326	14.28
244.544	24.22
244.762	10.59
244.98	11.15
245.198	8.54
245.416	7
245.634	7.49
245.852	-0.59
246.07	18.49
246.288	12.28
246.506	13.34
246.724	11.97
246.942	18.01
247.16	11.22
247.378	-5.24
247.596	3.88
247.814	-15.77
248.032	-13.96
248.25	8.86
248.468	25.82
248.685	27.3
248.903	30.01
249.121	35.01
249.339	31.38
249.557	20.94
249.775	-0.7
249.992	6.99
250.21	-0.21
250.428	-1.24
250.646	0.66
250.863	-10
251.081	-16.25
251.299	-7.34
251.517	-9.05
251.734	-14.37
251.952	0.57
252.17	-0.94
252.387	-38.83
252.605	-32.12
252.823	-46.17
253.04	-43.75
253.258	-48.56
253.475	-13.34
253.693	-26.65
253.911	-11.4
254.128	-10.24
254.346	11.15
254.563	21.08
254.781	29.32
254.998	25.13
255.216	-3.21
255.433	-52.29
255.651	-76.76
255.868	-84.69
256.086	-65.5
256.303	-27.63
256.521	-6.61
256.738	-4.24
256.956	9.31
257.173	4.6
257.39	-9.3
257.608	-23.17
257.825	-11.74
258.043	-1.15
258.26	-16.64
258.477	-10.21
258.695	0.52
258.912	-11.28
259.129	-35.76
259.346	-33.84
259.564	-26.3
259.781	-47.21
259.998	-15.46
260.216	-7.68
260.433	11.09
260.65	1.98
260.867	3.75
261.084	-8.44
261.302	-5.64
261.519	-13.75
261.736	-0.89
261.953	16.7
262.17	30.49
262.387	31.67
262.604	32.26
262.822	29.61
263.039	25.66
263.256	13.33
263.473	8.01
263.69	6.48
263.907	6.14
264.124	3.92
264.341	6.9
264.558	0.44
264.775	-17.26
264.992	-21.67
265.209	-29.7
265.426	-40.58
265.643	-32.58
265.86	-52.57
266.077	-54.61
266.294	-51.53
266.51	-1.51
266.727	-11.35
266.944	8.73
267.161	16.02
267.378	28.81
267.595	-9.13
267.812	-14.97
268.028	-7.15
268.245	4.52
268.462	-14.01
268.679	12.01
268.896	24.98
269.112	-10.57
269.329	-38.32
269.546	-23.16
269.763	-21.92
269.979	-21.31
270.196	3
270.413	4
270.629	-13.1
270.846	-22.65
271.063	-23.19
271.279	-33.08
271.496	-38.3
271.712	-28.92
271.929	-13.73
272.146	-26.11
272.362	-13
272.579	-6.36
272.795	1.68
273.012	-8.64
273.228	6.83
273.445	3.33
273.661	-1.67
273.878	-17.65
274.094	-13.15
274.311	-30.77
274.527	-44.71
274.744	-16.89
274.96	7.42
275.177	8.6
275.393	28
275.609	29.37
275.826	17.68
276.042	-2.81
276.259	-4.74
276.475	-21.96
276.691	-27.62
276.908	-20.39
277.124	-4.13
277.34	-22.55
277.557	-24.05
277.773	-26.55
277.989	-43.8
278.205	-48.16
278.422	-38.15
278.638	-27.14
278.854	-23.94
279.07	-14.07
279.286	-9.07
279.503	11.96
279.719	17.82
279.935	16.57
280.151	25.65
280.367	20.88
280.583	9.77
280.799	-12.02
281.016	-45.44
281.232	-54.77
281.448	-48.32
281.664	-28.08
281.88	-7.93
282.096	8.98
282.312	15.59
282.528	11.4
282.744	-5.53
282.96	-39.44
283.176	-59.97
283.392	-110.32
283.608	-87.35
283.824	-89.99
284.04	-90.56
284.256	-47.86
284.471	-28.94
284.687	-25.38
284.903	-18.12
285.119	-6.51
285.335	3.25
285.551	-4.2
285.767	-2.3
285.982	-5.44
286.198	-16.71
286.414	-42.39
286.63	-50.7
286.846	-76.02
287.061	-55.7
287.277	-48.57
287.493	-37.11
287.709	-0.08
287.924	2.21
288.14	9.3
288.356	16.24
288.571	8.28
288.787	-7.33
289.003	4.95
289.218	-26.84
289.434	-24.67
289.65	-9.01
289.865	-4.98
290.081	2.29
290.296	16.85
290.512	13.97
290.727	6.34
290.943	4.12
291.159	-1.18
291.374	-22.49
291.59	-9.81
291.805	-24.06
292.021	-22.18
292.236	-43.02
292.451	-13.86
292.667	-23.65
292.882	-3.36
293.098	6.16
293.313	18.2
293.529	9.96
293.744	-1.41
293.959	-11.31
294.175	-16.46
294.39	-41.95
294.605	-17.02
294.821	-12.64
295.036	-8.15
295.251	-10.06
295.467	-10.41
295.682	-10.67
295.897	-19.86
296.112	-14.78
296.328	6.13
296.543	5.03
296.758	0.31
296.973	6.75
297.188	2.95
297.404	-54.5
297.619	-20.36
297.834	-59.5
298.049	-22.36
298.264	-23.89
298.479	-29.03
298.694	-0.8
298.909	5.67
299.125	-12.2
299.34	-3.04
299.555	13.53
299.77	15.7
299.985	32.62
300.2	41.02
300.415	42.95
300.63	35.41
300.845	17.09
301.06	13.57
301.275	7.11
301.49	4.57
301.704	2.16
301.919	11.04
302.134	-4.81
302.349	-4.97
302.564	-5.68
302.779	-15.09
302.994	-13.1
303.209	-8.13
303.423	6.05
303.638	1.08
303.853	19.03
304.068	10.15
304.283	8.44
304.497	-20.53
304.712	-7.65
304.927	-0.05
305.142	16.51
305.356	19.67
305.571	21.61
305.786	15.71
306	5.38
306.215	-18.23
306.43	-25.56
306.644	-18.29
306.859	-32.53
307.074	-15.08
307.288	2.32
307.503	7.23
307.717	4.67
307.932	24.65
308.147	19.85
308.361	18.6
308.576	8.97
308.79	-0.22
309.005	-41.63
309.219	-27.38
309.434	-25.91
309.648	-8.58
309.863	17.17
310.077	37.34
310.292	42.55
310.506	24.98
310.72	27.94
310.935	12.46
311.149	7.95
311.364	-1.7
311.578	14.47
311.792	-0.61
312.007	-23.26
312.221	-46.49
312.435	-39.36
312.649	-26.89
312.864	-48.4
313.078	-34.58
313.292	-30.63
313.507	-27.01
313.721	-27.7
313.935	6.06
314.149	-4.67
314.363	-12.09
314.578	-21.03
314.792	-67.35
315.006	-71.93
315.22	-44.33
315.434	-30.25
315.648	-36.57
315.862	-25.48
316.077	-31.08
316.291	-21.36
316.505	-42.73
316.719	-28.97
316.933	-16.45
317.147	-6.99
317.361	-22.42
317.575	1.85
317.789	11.69
318.003	18.04
318.217	31.7
318.431	23.22
318.645	7.19
318.859	6.27
319.073	5.32
319.287	-0.87
319.5	1.06
319.714	-2.16
319.928	-13.94
320.142	-20.7
320.356	-3.1
320.57	-13.84
320.784	-6.05
320.997	-19.05
321.211	3.96
321.425	-47.05
321.639	-11.2
321.853	-4.55
322.066	-0.62
322.28	-23.64
322.494	-5.53
322.707	-15.7
322.921	-19.77
323.135	-7.55
323.349	-8.29
323.562	-11.85
323.776	-12.02
323.989	-8.77
324.203	-21.53
324.417	-14.21
324.63	-9.69
324.844	-21.46
325.057	-44.9
325.271	-28.92
325.485	-35.08
325.698	-12.83
325.912	4.79
326.125	13.91
326.339	18.33
326.552	15.19
326.766	-7.99
326.979	-23.45
327.193	-33.02
327.406	-49.77
327.619	-36.62
327.833	-35.59
328.046	-17.63
328.26	-18.89
328.473	-11.74
328.686	-19.51
328.9	-4.64
329.113	-10.31
329.326	9.66
329.54	16.78
329.753	22.8
329.966	13.35
330.179	14.08
330.393	2.74
330.606	-9.04
330.819	-24.52
331.032	-27.26
331.246	-12.11
331.459	-9.05
331.672	-6.45
331.885	-6.93
332.098	10.22
332.311	0.78
332.525	2.07
332.738	4.64
332.951	2.62
333.164	-2.17
333.377	-12.66
333.59	-30.82
333.803	-28.87
334.016	-21.32
334.229	-30.27
334.442	-31.43
334.655	-25.2
334.868	-31.48
335.081	-41.67
335.294	-57.72
335.507	-43.51
335.72	-20.99
335.933	-18.28
336.146	-0.42
336.359	26.24
336.572	25.06
336.785	19.24
336.997	17.83
337.21	29.18
337.423	5.35
337.636	-6.07
337.849	-6.38
338.062	11
338.274	2.89
338.487	-5.94
338.7	-14.8
338.913	-4.5
339.125	-27.78
339.338	-23.03
339.551	-14.15
339.763	-4.47
339.976	-5.97
340.189	-13.25
340.402	7.65
340.614	9.91
340.827	16.21
341.039	21.27
341.252	24.26
341.465	0.72
341.677	3.08
341.89	2.24
342.102	-2.55
342.315	7.98
342.527	14.34
342.74	-3.51
342.952	-18.47
343.165	-25.6
343.377	-26.21
343.59	-25.77
343.802	-6.75
344.015	3.5
344.227	19.32
344.44	9.51
344.652	1.24
344.864	0.49
345.077	-0.2
345.289	-8.14
345.502	11.71
345.714	17.54
345.926	8.53
346.139	11.17
346.351	7.28
346.563	-5.84
346.775	-3.54
346.988	4.58
347.2	-16.38
347.412	-13.67
347.624	-7.33
347.837	-2.63
348.049	-5.12
348.261	-10.51
348.473	-25.53
348.685	-40.38
348.897	-55.49
349.11	-36.19
349.322	-23.02
349.534	-23.39
349.746	-19.58
349.958	-30.17
350.17	-69.07
350.382	-62.58
350.594	-39.78
350.806	-1.4
351.018	8.11
351.23	17.65
351.442	24.04
351.654	25.91
351.866	2.75
352.078	6.22
352.29	7.96
352.502	3.06
352.714	3.92
352.926	7.76
353.138	12.17
353.35	8.04
353.561	2.67
353.773	-4.86
353.985	-5.05
354.197	-4.09
354.409	-3.42
354.621	-18.71
354.832	-22.2
355.044	-38.94
355.256	-35.1
355.468	-41.01
355.679	-9.53
355.891	4.38
356.103	9.79
356.314	-2.64
356.526	-16.52
356.738	-29.49
356.949	-42.79
357.161	-14.61
357.373	-3.9
357.584	6.21
357.796	11.4
358.008	17.99
358.219	-0.4
358.431	-8.07
358.642	3.18
358.854	6.92
359.065	-10.61
359.277	-2.82
359.488	-3.2
359.7	-7.64
359.911	-17.59
360.123	13.91
360.334	7.9
360.546	-0.04
360.757	10.84
360.969	8.38
361.18	-15.46
361.391	-12.79
361.603	-8.59
361.814	-21.58
362.025	-7.19
362.237	-2.97
362.448	7.81
362.659	-3.25
362.871	-25.12
363.082	-29.43
363.293	-27.67
363.504	-52.43
363.716	-25.17
363.927	4.25
364.138	-19.01
364.349	-32.61
364.56	-23.12
364.772	-15.21
364.983	-16.5
365.194	7.83
365.405	12.74
365.616	1.67
365.827	-29.18
366.038	-23.84
366.25	-19.94
366.461	-7.98
366.672	0.44
366.883	8.55
367.094	-7.17
367.305	-23.22
367.516	-20.17
367.727	-30.84
367.938	-30.28
368.149	-23.43
368.36	-23.27
368.571	-52.65
368.781	-45.49
368.992	-27.92
369.203	-29.23
369.414	-29.2
369.625	-24.93
369.836	-6.56
370.047	-10.75
370.258	8.66
370.468	6.31
370.679	21.12
370.89	9.2
371.101	14.64
371.312	-3.12
371.522	5.11
371.733	-8.82
371.944	-16.11
372.155	-11.29
372.365	4.39
372.576	4.54
372.787	6.5
372.997	13.96
373.208	8.69
373.419	-12.78
373.629	-14.07
373.84	-33.68
374.05	-32.87
374.261	-49.24
374.472	-29.73
374.682	-24.29
374.893	-19.77
375.103	-21.44
375.314	-10.77
375.524	-11.89
375.735	-9.61
375.945	3.47
376.156	1.8
376.366	1.18
376.577	-2.69
376.787	4.07
376.997	1.57
377.208	4.34
377.418	7.95
377.629	14.93
377.839	9.51
378.049	9.77
378.26	-3.03
378.47	-17.2
378.68	-25.51
378.89	-24.23
379.101	-22.32
379.311	-10.38
379.521	-17.98
379.732	-8.5
379.942	-0.86
380.152	2.37
380.362	1.67
380.572	17.84
380.783	20.3
380.993	15.84
381.203	8.69
381.413	12.11
381.623	14
381.833	11.45
382.043	2.01
382.253	6.86
382.463	13.99
382.674	14
382.884	13.3
383.094	16.87
383.304	17.99
383.514	6.05
383.724	0.45
383.934	-6.29
384.144	-1.89
384.353	2.32
384.563	11.94
384.773	17.68
384.983	13.14
385.193	4.51
385.403	-2.31
385.613	-5.2
385.823	-8.14
386.033	-3.58
386.242	-7.13
386.452	-8.13
386.662	-9.5
386.872	-9.34
387.082	-12.4
387.291	-5.48
387.501	1.41
387.711	2.38
387.921	1.22
388.13	4.84
388.34	8.22
388.55	2.99
388.759	-3.64
388.969	-3.55
389.179	-6.08
389.388	-11.21
389.598	-9.53
389.807	-8.34
390.017	-8.76
390.227	-9.75
390.436	-5.9
390.646	-5.71
390.855	-2.14
391.065	-2.33
391.274	-0.11
391.484	-1.06
391.693	-1.58
391.903	-2.17
392.112	-2.88
392.322	-4.79
392.531	-5.81
392.74	-4.67
392.95	-3.75
393.159	-2.55
393.369	0.13
393.578	1.15
393.787	0.21
393.997	0.28
394.206	0.1
394.415	0.67
394.625	-0.26
394.834	-1.07
395.043	-1.75
395.252	0.65
395.462	0.1
395.671	-0.14
395.88	1.53
396.089	2.23
396.298	1.86
396.508	1.89
396.717	2.67
396.926	1.77
397.135	2.3
397.344	1.61
397.553	1.52
397.762	2.17
397.971	2.79
398.181	2.11
398.39	1.88
398.599	2.2
398.808	2.3
399.017	2.37
399.226	2.37
399.435	2.04
399.644	2.51
399.853	2.4
400.062	2.49
400.27	2.27
400.479	2.43
400.688	2.27
400.897	2.14
401.106	2.02
401.315	2.44
401.524	2.71
401.733	2.1
401.941	2.49
402.15	2.38
402.359	2.38
402.568	2.33
402.777	2.41
402.985	1.92
403.194	1.7
403.403	1.65
403.612	1.51
403.82	1.59
404.029	1.74
404.238	1.94
404.446	2.01
404.655	2.15
404.864	2.28
405.072	2.3
405.281	2.31
405.489	2.23
405.698	2.33
405.906	2.43
406.115	2.36
406.324	2.38
406.532	2.53
406.741	2.36
406.949	2.37
407.158	2.49
407.366	2.51
407.574	2.56
407.783	2.59
407.991	2.47
408.2	2.53
408.408	2.45
408.617	2.32
408.825	2.23
409.033	2.3
409.242	2.23
409.45	2.29
409.658	2.27
409.867	2.4
410.075	2.41
410.283	2.34
410.491	2.2
410.7	2.12
410.908	2.13
411.116	2.08
411.324	2.03
411.533	2.06
411.741	2.17
411.949	2.07
412.157	1.98
412.365	1.93
412.573	2.09
412.781	1.94
412.99	1.96
413.198	2.05
413.406	2.39
413.614	2.35
413.822	2.51
414.03	2.6
414.238	2.6
414.446	2.4
414.654	2.28
414.862	2.1
415.07	1.96
415.278	1.98
415.486	1.91
415.694	2
415.902	2.11
416.109	2.14
416.317	2.14
416.525	2.12
416.733	1.99
416.941	1.9
417.149	1.94
417.357	1.9
417.564	1.93
417.772	2.11
417.98	2.17
418.188	2.09
418.395	1.89
418.603	1.85
418.811	1.67
419.019	1.71
419.226	1.73
419.434	1.82
419.642	1.64
419.849	1.66
420.057	1.64
420.265	1.65
420.472	1.68
420.68	1.86
420.887	1.78
421.095	1.9
421.302	1.91
421.51	1.82
421.717	1.87
421.925	2.05
422.132	1.94
422.34	1.77
422.547	1.91
422.755	1.91
422.962	1.91
423.17	1.79
423.377	1.97
423.585	2.04
423.792	1.99
423.999	1.99
424.207	1.96
424.414	1.99
424.621	1.87
424.829	1.95
425.036	1.97
425.243	2.23
425.451	2.12
425.658	2.18
425.865	2.14
426.072	2.03
426.28	1.87
426.487	1.87
426.694	1.65
426.901	1.61
427.108	1.64
427.315	1.54
427.523	1.55
427.73	1.71
427.937	1.62
428.144	1.64
428.351	1.71
428.558	1.79
428.765	1.7
428.972	1.85
429.179	1.72
429.386	1.85
429.593	1.73
429.8	1.84
430.007	1.82
430.214	1.88
430.421	1.79
430.628	1.85
430.835	1.81
431.042	1.75
431.249	1.81
431.456	1.83
431.662	1.81
431.869	1.9
432.076	2.01
432.283	2.12
432.49	2.1
432.697	2.1
432.903	1.98
433.11	1.99
433.317	1.9
433.524	1.92
433.73	1.86
433.937	2.09
434.144	1.98
434.35	1.9
434.557	2.01
434.764	2.09
434.97	1.84
435.177	2
435.384	2.13
435.59	2.12
435.797	2.13
436.003	2.31
436.21	2.17
436.416	2.04
436.623	2.08
436.829	2.18
437.036	2.05
437.242	2.12
437.449	2.3
437.655	2.29
437.862	2.17
438.068	2.22
438.275	2.28
438.481	2.16
438.687	2.04
438.894	2.17
439.1	2.11
439.307	2.15
439.513	2.26
439.719	2.34
439.926	2.24
440.132	2.46
440.338	2.42
440.544	2.34
440.751	2.25
440.957	2.37
441.163	2.17
441.369	2.15
441.575	2.09
441.782	2.18
441.988	2.18
442.194	2.15
442.4	2.11
442.606	2.14
442.812	2.17
443.018	2.07
443.224	2.21
443.431	2.26
443.637	2.35
443.843	2.28
444.049	2.39
444.255	2.38
444.461	2.25
444.667	2.22
444.873	2.23
445.079	2.17
445.284	2.24
445.49	2.37
445.696	2.35
445.902	2.31
446.108	2.37
446.314	2.35
446.52	2.4
446.726	2.42
446.931	2.44
447.137	2.41
447.343	2.43
447.549	2.38
447.755	2.41
447.96	2.45
448.166	2.5
448.372	2.48
448.578	2.42
448.783	2.43
448.989	2.5
449.195	2.44
449.4	2.56
449.606	2.68
449.812	2.58
450.017	2.59
450.223	2.57
450.428	2.48
450.634	2.4
450.84	2.43
451.045	2.37
451.251	2.41
451.456	2.39
451.662	2.46
451.867	2.58
452.073	2.6
452.278	2.64
452.483	2.66
452.689	2.64
452.894	2.62
453.1	2.58
453.305	2.66
453.51	2.65
453.716	2.6
453.921	2.61
454.127	2.62
454.332	2.56
454.537	2.53
454.742	2.56
454.948	2.52
455.153	2.49
455.358	2.45
455.563	2.55
455.769	2.48
455.974	2.5
456.179	2.48
456.384	2.46
456.589	2.38
456.795	2.43
457	2.39
457.205	2.35
457.41	2.38
457.615	2.34
457.82	2.39
458.025	2.48
458.23	2.58
458.435	2.58
458.64	2.62
458.845	2.53
459.05	2.44
459.255	2.38
459.46	2.4
459.665	2.35
459.87	2.4
460.075	2.45
460.28	2.51
460.485	2.57
460.69	2.59
460.895	2.66
461.099	2.58
461.304	2.48
461.509	2.43
461.714	2.57
461.919	2.51
462.123	2.65
462.328	2.63
462.533	2.6
462.738	2.4
462.942	2.36
463.147	2.26
463.352	2.3
463.556	2.39
463.761	2.52
