Data from Ofra_PS_T2_1A_2GT41_Reflection_1.txt Node
Date: Wed Jul 21 17:56:50 EDT 2021
User: Adam
Spectrometer: FLMT01687
Trigger mode: 0
Integration Time (sec): 1.100000E0
Scans to average: 2
Electric dark correction enabled: true
Nonlinearity correction enabled: false
Boxcar width: 2
XAxis mode: Wavelengths
Number of Pixels in Spectrum: 3648
>>>>>Begin Spectral Data<<<<<
179.494	605.2
179.716	704.94
179.937	648.89
180.158	612.62
180.38	1000.94
180.601	341.16
180.823	68.16
181.044	-11.61
181.265	255.51
181.486	23.19
181.708	98.27
181.929	807.14
182.15	-366.9
182.372	142.06
182.593	-6.1
182.814	8.35
183.035	17.83
183.257	37.95
183.478	-86.7
183.699	-58.56
183.92	-50.87
184.141	-3.82
184.363	-81.33
184.584	4.28
184.805	35.78
185.026	44.47
185.247	48.27
185.468	26.16
185.689	17.61
185.91	4.51
186.132	9.97
186.353	-8.85
186.574	59.99
186.795	49.7
187.016	17.61
187.237	-19.02
187.458	-47.96
187.679	-51.42
187.9	-31.29
188.121	-28.59
188.342	0.07
188.563	46.35
188.784	31.49
189.005	29.84
189.226	93.85
189.447	82.51
189.667	-119.17
189.888	-206.65
190.109	-969.48
190.33	-684.84
190.551	-1308.41
190.772	-274.46
190.993	-260.5
191.214	-233.73
191.434	-167.3
191.655	-50
191.876	-121.4
192.097	-144.67
192.318	-176.95
192.538	-261.14
192.759	-214.69
192.98	-73.39
193.201	-41.07
193.421	-29.6
193.642	-1.51
193.863	0.4
194.083	-27.67
194.304	-33.39
194.525	-37.39
194.745	-52.28
194.966	-50.15
195.187	-59.73
195.407	-71.4
195.628	-112.04
195.848	-117.25
196.069	-145.67
196.29	-94.03
196.51	-114.07
196.731	-101.85
196.951	-148.29
197.172	-140.77
197.392	-166.93
197.613	-155.6
197.833	-199.08
198.054	-146.68
198.274	-82.56
198.495	-101.02
198.715	-56.53
198.936	-58.69
199.156	-57.34
199.377	-155.44
199.597	-148.25
199.817	-169.45
200.038	-82.65
200.258	-131.85
200.479	-91.62
200.699	-78.36
200.919	0.45
201.14	-28.7
201.36	-58.63
201.58	5.42
201.801	39.03
202.021	-13.26
202.241	-20.82
202.461	-9.99
202.682	-116.75
202.902	-237.3
203.122	-130.81
203.342	-83.82
203.563	-26.76
203.783	11.13
204.003	22.13
204.223	6.13
204.443	49.61
204.663	7.23
204.884	1.16
205.104	38.67
205.324	88.16
205.544	39.33
205.764	54.84
205.984	58.94
206.204	52.43
206.424	29.13
206.644	-6.11
206.864	-13.69
207.084	-37.76
207.304	-32.97
207.525	-154.53
207.745	-50
207.964	5.62
208.184	-62.32
208.404	-110.85
208.624	-118.88
208.844	-140.22
209.064	-480.99
209.284	-542.36
209.504	-276.27
209.724	-75.03
209.944	-50.6
210.164	-6.36
210.384	27.69
210.604	14.7
210.823	-16.16
211.043	-37.96
211.263	-45.67
211.483	-36.76
211.703	-92.86
211.922	-82.72
212.142	-6.71
212.362	-0.85
212.582	-45.57
212.801	-25.7
213.021	-57.06
213.241	-82.96
213.461	-106.02
213.68	-106.04
213.9	-92.39
214.12	-51.67
214.339	-113.65
214.559	-76.76
214.779	-7.3
214.998	-3.55
215.218	-37.08
215.438	-22.78
215.657	-45.7
215.877	-82.15
216.096	-57.49
216.316	-28.49
216.535	-44.49
216.755	-22.71
216.974	-97.9
217.194	-141.01
217.413	-166.56
217.633	-140.77
217.852	-288.96
218.072	-125.37
218.291	-56.6
218.511	-8.46
218.73	-23.97
218.95	-19.54
219.169	-30.77
219.389	-73.13
219.608	-57.19
219.827	-55.98
220.047	-44.54
220.266	-31.44
220.485	-32.14
220.705	-42.23
220.924	-53.77
221.143	-3.74
221.363	-32.04
221.582	-21.58
221.801	-24.41
222.021	6.09
222.24	-110.13
222.459	-45.87
222.678	-52.66
222.897	-128.09
223.117	-199.74
223.336	-143.75
223.555	-113.34
223.774	-66.21
223.993	-29.34
224.213	67.45
224.432	31.29
224.651	47.43
224.87	18.17
225.089	26.16
225.308	7.74
225.527	33.47
225.746	22.18
225.965	13.27
226.184	-10.02
226.404	4.26
226.623	-16.42
226.842	-12.99
227.061	20.6
227.28	25.62
227.499	5.92
227.718	24.08
227.936	13.14
228.155	18.15
228.374	1.78
228.593	11.37
228.812	-4.54
229.031	3.8
229.25	-53.05
229.469	-44.74
229.688	-26.1
229.907	16.26
230.125	24.94
230.344	23
230.563	32.22
230.782	23.85
231.001	-56.4
231.22	-38.45
231.438	-9.3
231.657	-15.39
231.876	-32.64
232.095	3.75
232.313	-10.75
232.532	-47.34
232.751	-84.25
232.969	-79.79
233.188	-133.64
233.407	-58.9
233.625	-19.21
233.844	-32.17
234.063	-12.83
234.281	-10.61
234.5	-19.13
234.719	-33.64
234.937	-3.77
235.156	-7.67
235.374	-7.9
235.593	-20.06
235.811	-25.52
236.03	-52.88
236.249	-110.39
236.467	-91.05
236.686	-33.27
236.904	-17.07
237.123	-30.92
237.341	-24.29
237.559	-19.48
237.778	-40.96
237.996	-68
238.215	-18.49
238.433	7.01
238.652	5.26
238.87	-20.06
239.088	-8.67
239.307	-24.75
239.525	-43.41
239.743	-65.3
239.962	-53.75
240.18	-72.28
240.398	-125.29
240.617	-115.78
240.835	-95.09
241.053	-54.29
241.271	15.73
241.49	45.5
241.708	22.44
241.926	5.07
242.144	-28.89
242.363	-108.37
242.581	-140.79
242.799	-76.24
243.017	-40.27
243.235	-48.12
243.453	-35.54
243.672	-31.98
243.89	-37.04
244.108	-38.2
244.326	-5.94
244.544	-9.53
244.762	-3.43
244.98	6.66
245.198	-6.82
245.416	-51.91
245.634	-41.87
245.852	-61.88
246.07	-72.94
246.288	-48.62
246.506	-76.28
246.724	-53.19
246.942	-55.06
247.16	-16.75
247.378	-14.86
247.596	23.8
247.814	20.98
248.032	6.75
248.25	3.42
248.468	2.61
248.685	-6.86
248.903	18.44
249.121	24.11
249.339	-11.42
249.557	-31.66
249.775	-10.63
249.992	-81.23
250.21	-68.9
250.428	-43.87
250.646	-62.64
250.863	-88.82
251.081	-50.1
251.299	-64.24
251.517	-60.12
251.734	-38.44
251.952	-34.1
252.17	-28.32
252.387	-12.55
252.605	-29.13
252.823	-26.04
253.04	-10.61
253.258	12.95
253.475	-2.41
253.693	36.5
253.911	33.44
254.128	31.12
254.346	27.71
254.563	24.45
254.781	-12.89
254.998	-17.33
255.216	-34.02
255.433	-37.67
255.651	-12.81
255.868	12.09
256.086	54.69
256.303	52.03
256.521	32.05
256.738	2.72
256.956	-19.98
257.173	-75.07
257.39	-98.09
257.608	-125.39
257.825	-54.09
258.043	-28.52
258.26	-6.57
258.477	33.7
258.695	26.95
258.912	-33.17
259.129	-18.98
259.346	-57.74
259.564	-82.22
259.781	-94.86
259.998	-24.48
260.216	-11.67
260.433	35.79
260.65	19.16
260.867	40.05
261.084	-0.81
261.302	-11.6
261.519	-27.76
261.736	-47.38
261.953	-72.64
262.17	-24.87
262.387	-63.75
262.604	-106.77
262.822	-116.59
263.039	-101.33
263.256	-169.62
263.473	-135
263.69	-82.08
263.907	-24.52
264.124	-18.63
264.341	-1.22
264.558	4.75
264.775	10.51
264.992	-4.44
265.209	3.41
265.426	22.74
265.643	18.73
265.86	36.67
266.077	33.92
266.294	32.84
266.51	-15.07
266.727	-21.96
266.944	-34.27
267.161	-46.07
267.378	-67.61
267.595	-37.87
267.812	-42.94
268.028	-61.05
268.245	-29.18
268.462	-32.64
268.679	-41.45
268.896	-1.35
269.112	-5.61
269.329	-11.11
269.546	-16.24
269.763	-16.65
269.979	-39.35
270.196	-37.98
270.413	-75.41
270.629	-93.49
270.846	-104.34
271.063	-88.96
271.279	-98.46
271.496	-77.16
271.712	-18.96
271.929	-1.68
272.146	-20.98
272.362	0.32
272.579	31.74
272.795	24.44
273.012	29.49
273.228	39.66
273.445	12.76
273.661	-24.1
273.878	-71.29
274.094	-51.05
274.311	-90.46
274.527	-29.66
274.744	-11.95
274.96	-3.15
275.177	-6.25
275.393	21.78
275.609	26.49
275.826	44.97
276.042	39.43
276.259	23.19
276.475	30.23
276.691	23.29
276.908	-13.73
277.124	1.24
277.34	4.26
277.557	-28.75
277.773	-31.74
277.989	-27.98
278.205	-36.83
278.422	-14.16
278.638	-1.28
278.854	8.94
279.07	10.57
279.286	6.23
279.503	-29.7
279.719	-39.76
279.935	-60.76
280.151	-68.23
280.367	-36.81
280.583	-53.57
280.799	-42.3
281.016	-63.39
281.232	-12.96
281.448	-22.41
281.664	12.75
281.88	-14.33
282.096	3.72
282.312	-11.48
282.528	2.75
282.744	-8.73
282.96	13.97
283.176	5.39
283.392	-7.06
283.608	-18.01
283.824	-25.3
284.04	-29.98
284.256	-27.54
284.471	-20.05
284.687	-13.96
284.903	14.06
285.119	28.74
285.335	21.31
285.551	24.6
285.767	-3.68
285.982	-21.24
286.198	-46.23
286.414	-6.44
286.63	0.19
286.846	29.36
287.061	7.22
287.277	44.22
287.493	16.77
287.709	23.8
287.924	3.87
288.14	25.08
288.356	-8.26
288.571	25.69
288.787	10.59
289.003	11.27
289.218	-2.05
289.434	-31.46
289.65	-47.2
289.865	-68.04
290.081	-55.61
290.296	-32.82
290.512	-16.41
290.727	-43.27
290.943	-38.51
291.159	-39.42
291.374	-40.87
291.59	-62.65
291.805	-52.93
292.021	-26.33
292.236	-37.45
292.451	-26.27
292.667	-2.67
292.882	14.84
293.098	5.48
293.313	-7.86
293.529	-23.99
293.744	-54.46
293.959	-43.58
294.175	-44.32
294.39	3.6
294.605	13.31
294.821	44.22
295.036	41.11
295.251	43.3
295.467	-0.72
295.682	-17.05
295.897	-80.25
296.112	-86.37
296.328	-71.32
296.543	-75.97
296.758	-66.76
296.973	-12.48
297.188	19.23
297.404	-6.64
297.619	-22.92
297.834	-36.45
298.049	-64.94
298.264	-85.86
298.479	-38.04
298.694	-14.51
298.909	5.23
299.125	2.52
299.34	2.68
299.555	-13.11
299.77	-1.9
299.985	-43.31
300.2	-79.27
300.415	-101.6
300.63	-63.15
300.845	-81.49
301.06	-62.46
301.275	-41.29
301.49	-10.9
301.704	-24.78
301.919	-23.14
302.134	-48.15
302.349	-26.4
302.564	-96.49
302.779	-117.67
302.994	-107.6
303.209	-67.55
303.423	-45.51
303.638	28.32
303.853	-3.63
304.068	-20.35
304.283	-19.65
304.497	-30.56
304.712	-47.46
304.927	-23.86
305.142	-20.34
305.356	-11.28
305.571	-11.63
305.786	-25.73
306	-55.82
306.215	-49.22
306.43	-72.15
306.644	-80.21
306.859	-30.66
307.074	-1.44
307.288	-35.01
307.503	-42.85
307.717	-45.92
307.932	-58.69
308.147	-71.29
308.361	-60.11
308.576	-65.02
308.79	-109.62
309.005	-93.52
309.219	-75.02
309.434	-74.82
309.648	-66.74
309.863	-27.03
310.077	-20.93
310.292	-16.56
310.506	-15.01
310.72	2.52
310.935	-10.25
311.149	-21.09
311.364	-5.43
311.578	2.18
311.792	-10.46
312.007	8.31
312.221	-9.12
312.435	-11.62
312.649	-20.1
312.864	-12.83
313.078	-6.06
313.292	72.91
313.507	39.65
313.721	57.06
313.935	39.42
314.149	19.97
314.363	-0.91
314.578	12.73
314.792	19.62
315.006	6.5
315.22	19.93
315.434	20.77
315.648	21.94
315.862	20.61
316.077	20.16
316.291	6.57
316.505	9.01
316.719	-0.92
316.933	-31.01
317.147	-37.49
317.361	-83.8
317.575	-101.03
317.789	-146.59
318.003	-200.57
318.217	-146.46
318.431	-52.65
318.645	-8.89
318.859	0.8
319.073	25.89
319.287	2.38
319.5	-21.11
319.714	-54.1
319.928	-75.65
320.142	-96.85
320.356	-31.18
320.57	13.82
320.784	-2.44
320.997	-8.8
321.211	-31.29
321.425	-86.25
321.639	-131.83
321.853	-72.46
322.066	-52.97
322.28	-43.11
322.494	-25.12
322.707	-10.4
322.921	-12.72
323.135	-9.1
323.349	2.17
323.562	-16.01
323.776	-36.55
323.989	-41.91
324.203	-68.53
324.417	-92.32
324.63	-109.44
324.844	-100.43
325.057	-96.27
325.271	-62.61
325.485	-25.06
325.698	-4.95
325.912	12.28
326.125	-16.38
326.339	-24.8
326.552	-49.6
326.766	-53.91
326.979	-24.55
327.193	21.62
327.406	15.26
327.619	3.81
327.833	29.21
328.046	-3.68
328.26	-38.59
328.473	-7.15
328.686	-16.14
328.9	-25.09
329.113	-3.17
329.326	-7.91
329.54	-2.25
329.753	-6.53
329.966	-40.28
330.179	-61.15
330.393	-21.62
330.606	-26.11
330.819	-3.72
331.032	11.04
331.246	11.37
331.459	19.18
331.672	5.55
331.885	-4.34
332.098	-24.61
332.311	-45.81
332.525	-93.63
332.738	-92.56
332.951	-52.73
333.164	-12.61
333.377	8.76
333.59	28.67
333.803	36.07
334.016	19.86
334.229	3.97
334.442	3.34
334.655	11.37
334.868	9.69
335.081	21.72
335.294	11.29
335.507	8.83
335.72	0.75
335.933	-0.83
336.146	-17.28
336.359	-10.77
336.572	-39.02
336.785	-66.75
336.997	-51.78
337.21	-40.25
337.423	-47.73
337.636	-39.89
337.849	-16.84
338.062	-35.27
338.274	-15.57
338.487	-22.68
338.7	-14.87
338.913	-47.87
339.125	-70.7
339.338	-142.12
339.551	-113.05
339.763	-59.82
339.976	-20.23
340.189	1.63
340.402	24.72
340.614	4
340.827	-14.36
341.039	-52.73
341.252	-36.51
341.465	-15.34
341.677	-12.05
341.89	-33.32
342.102	1.59
342.315	-11.38
342.527	-41.5
342.74	-31.62
342.952	1.08
343.165	-9.77
343.377	1.11
343.59	-6.64
343.802	11.41
344.015	1.21
344.227	5.09
344.44	-2.33
344.652	6.5
344.864	-14.99
345.077	14.16
345.289	22.13
345.502	25.11
345.714	15.11
345.926	24.94
346.139	8.95
346.351	11.37
346.563	15.45
346.775	22.72
346.988	9.85
347.2	-2.98
347.412	-53.73
347.624	-68.52
347.837	-76.15
348.049	-46.55
348.261	-7.55
348.473	4.69
348.685	-2.86
348.897	-20.4
349.11	-39.03
349.322	-77.67
349.534	-39.9
349.746	-35.44
349.958	-17.98
350.17	-26.47
350.382	-0.49
350.594	-17.31
350.806	-17.91
351.018	-10.92
351.23	-20.14
351.442	-66.28
351.654	-86.86
351.866	-65.92
352.078	-58.82
352.29	-24.71
352.502	-10.6
352.714	14.11
352.926	-1.88
353.138	-11.29
353.35	-17.38
353.561	-13.46
353.773	-42.51
353.985	-19.35
354.197	-21.89
354.409	-28.52
354.621	-31.4
354.832	-26.84
355.044	-42.67
355.256	-33.79
355.468	-14.46
355.679	-19.84
355.891	5.53
356.103	-3.91
356.314	-11.02
356.526	-13.2
356.738	-18.03
356.949	-48.33
357.161	-20.23
357.373	-8.19
357.584	-25.97
357.796	2.23
358.008	4.94
358.219	21.38
358.431	22.13
358.642	31.64
358.854	19.33
359.065	11.27
359.277	-27.59
359.488	-42.71
359.7	-73.11
359.911	-88.72
360.123	-64.39
360.334	-57.19
360.546	-75.52
360.757	-58.46
360.969	-41.96
361.18	-18.87
361.391	-14.43
361.603	-19.73
361.814	-1.62
362.025	-17.65
362.237	-33.55
362.448	-24.26
362.659	-0.84
362.871	-12.6
363.082	-1.69
363.293	5.11
363.504	-6.21
363.716	-12.36
363.927	-16.47
364.138	-51.91
364.349	-65.08
364.56	-60.48
364.772	-64.03
364.983	-31.47
365.194	-15.52
365.405	-13.34
365.616	4.28
365.827	6.9
366.038	-26.59
366.25	-34.79
366.461	-65.72
366.672	-40.27
366.883	-21.99
367.094	-10.48
367.305	-20.91
367.516	-8.2
367.727	-43.5
367.938	-62.73
368.149	-48.75
368.36	-24.58
368.571	-28.69
368.781	-36.73
368.992	-50.39
369.203	-83
369.414	-105.99
369.625	-107.38
369.836	-94.07
370.047	-110.69
370.258	-91.91
370.468	-88.41
370.679	-94.25
370.89	-78.67
371.101	-52.66
371.312	-52.62
371.522	-40.27
371.733	-32.73
371.944	-32.79
372.155	-26.39
372.365	-34.53
372.576	-40.34
372.787	-37.24
372.997	-70.95
373.208	-71.46
373.419	-45.35
373.629	-73.35
373.84	-63.31
374.05	-66.11
374.261	-50
374.472	-61.18
374.682	0.96
374.893	-2.59
375.103	42.61
375.314	30.66
375.524	28.59
375.735	15.37
375.945	13.81
376.156	-24.63
376.366	-17.06
376.577	-14.03
376.787	-23.57
376.997	-22.88
377.208	-16.15
377.418	-32.95
377.629	-16.06
377.839	-17.45
378.049	-10.68
378.26	8.45
378.47	26.43
378.68	11.81
378.89	14.99
379.101	3.13
379.311	-29.41
379.521	-67.06
379.732	-69.41
379.942	-62.73
380.152	-74.23
380.362	-24.55
380.572	-15.54
380.783	3.74
380.993	13.63
381.203	34.63
381.413	43.09
381.623	41.45
381.833	30.49
382.043	12.65
382.253	-3.32
382.463	-13.1
382.674	-20.87
382.884	-37.78
383.094	-37.9
383.304	-27.13
383.514	-22.34
383.724	-11.47
383.934	-15.65
384.144	-24.73
384.353	-32.21
384.563	-35.55
384.773	-28.08
384.983	-37.79
385.193	-14.38
385.403	-14.97
385.613	-11.52
385.823	-26.86
386.033	-6.22
386.242	-13.94
386.452	-8.87
386.662	-22.18
386.872	-7.84
387.082	-15.93
387.291	-23.1
387.501	-24.39
387.711	-10.22
387.921	-17.61
388.13	-20.75
388.34	-7.84
388.55	-14.75
388.759	-18.09
388.969	-12.14
389.179	-11.37
389.388	-15.02
389.598	-9.41
389.807	-16.13
390.017	-19.06
390.227	-15.67
390.436	-18.65
390.646	-15.85
390.855	-10.76
391.065	-8.98
391.274	-12.08
391.484	-10.99
391.693	-7.3
391.903	-3.08
392.112	3.07
392.322	8.79
392.531	13.03
392.74	11.28
392.95	4.39
393.159	1.97
393.369	2.24
393.578	-0.48
393.787	-2
393.997	-0.15
394.206	-4.22
394.415	-4.56
394.625	-4.24
394.834	-5.55
395.043	-4.08
395.252	-0.24
395.462	-0.06
395.671	1.78
395.88	3.41
396.089	4.26
396.298	2.51
396.508	2.45
396.717	1.59
396.926	1.63
397.135	0.73
397.344	1.65
397.553	2.07
397.762	3.68
397.971	3.67
398.181	4.04
398.39	3.21
398.599	2.86
398.808	2.37
399.017	3.55
399.226	4.64
399.435	5.92
399.644	6.12
399.853	5.17
400.062	4.74
400.27	4.07
400.479	3.26
400.688	2.51
400.897	2.94
401.106	2.7
401.315	2.62
401.524	2.96
401.733	3.65
401.941	3.97
402.15	3.92
402.359	3.8
402.568	4.04
402.777	4.1
402.985	3.98
403.194	4.01
403.403	4.11
403.612	3.76
403.82	3.43
404.029	3.49
404.238	3.31
404.446	3.54
404.655	3.2
404.864	3.08
405.072	2.78
405.281	3.05
405.489	2.81
405.698	2.78
405.906	2.85
406.115	3.02
406.324	2.87
406.532	2.99
406.741	3.49
406.949	3.65
407.158	3.53
407.366	3.63
407.574	3.53
407.783	3.32
407.991	3.05
408.2	3.34
408.408	3.22
408.617	3.16
408.825	2.96
409.033	3.22
409.242	3.21
409.45	3.32
409.658	3.22
409.867	3.49
410.075	3.24
410.283	3
410.491	2.84
410.7	2.92
410.908	2.95
411.116	3.39
411.324	3.36
411.533	3.28
411.741	3.38
411.949	3.27
412.157	2.89
412.365	2.91
412.573	3.15
412.781	3.22
412.99	3.16
413.198	3.36
413.406	3.39
413.614	3.26
413.822	3.17
414.03	3.07
414.238	2.79
414.446	2.89
414.654	2.64
414.862	2.69
415.07	2.8
415.278	2.99
415.486	2.67
415.694	2.88
415.902	2.76
416.109	2.67
416.317	2.74
416.525	2.69
416.733	2.76
416.941	2.86
417.149	2.78
417.357	2.73
417.564	2.95
417.772	3.21
417.98	3.13
418.188	3.22
418.395	3.17
418.603	3.29
418.811	2.82
419.019	2.74
419.226	2.95
419.434	3.03
419.642	2.85
419.849	3.02
420.057	3.16
420.265	3.05
420.472	2.84
420.68	2.84
420.887	2.68
421.095	2.66
421.302	2.52
421.51	2.77
421.717	2.85
421.925	3.05
422.132	2.88
422.34	2.66
422.547	2.73
422.755	2.63
422.962	2.49
423.17	2.46
423.377	2.62
423.585	2.58
423.792	2.53
423.999	2.54
424.207	2.49
424.414	2.52
424.621	2.38
424.829	2.38
425.036	2.41
425.243	2.61
425.451	2.63
425.658	2.57
425.865	2.88
426.072	2.82
426.28	3.09
426.487	3.03
426.694	2.99
426.901	2.71
427.108	2.76
427.315	2.55
427.523	2.92
427.73	2.97
427.937	3.03
428.144	2.87
428.351	2.78
428.558	2.65
428.765	2.51
428.972	2.39
429.179	2.66
429.386	2.96
429.593	2.8
429.8	2.81
430.007	2.95
430.214	2.9
430.421	2.59
430.628	2.36
430.835	2.27
431.042	2.5
431.249	2.48
431.456	2.47
431.662	2.7
431.869	2.93
432.076	2.84
432.283	2.89
432.49	2.9
432.697	2.96
432.903	2.72
433.11	2.66
433.317	2.77
433.524	2.92
433.73	2.91
433.937	3.24
434.144	3.07
434.35	2.91
434.557	2.77
434.764	2.74
434.97	2.59
435.177	2.78
435.384	2.75
435.59	2.75
435.797	2.95
436.003	2.99
436.21	3.03
436.416	3.12
436.623	3.14
436.829	3.15
437.036	3.18
437.242	3.09
437.449	2.95
437.655	2.96
437.862	2.85
438.068	2.81
438.275	2.94
438.481	3.19
438.687	3.16
438.894	3.16
439.1	3.18
439.307	3.25
439.513	3.09
439.719	3.09
439.926	3.18
440.132	3.14
440.338	3
440.544	3.19
440.751	3.21
440.957	3.22
441.163	3.16
441.369	3.16
441.575	2.89
441.782	2.81
441.988	2.71
442.194	2.78
442.4	2.79
442.606	3.05
442.812	3.2
443.018	3.3
443.224	3.33
443.431	3.45
443.637	3.27
443.843	3.18
444.049	3.17
444.255	3.14
444.461	3.12
444.667	3.08
444.873	3.21
445.079	3.12
445.284	3.14
445.49	2.91
445.696	2.79
445.902	2.66
446.108	2.67
446.314	2.67
446.52	2.83
446.726	3.11
446.931	3.13
447.137	3.14
447.343	3.2
447.549	3.09
447.755	2.93
447.96	2.99
448.166	2.92
448.372	2.83
448.578	2.95
448.783	2.97
448.989	3.02
449.195	3.26
449.4	3.21
449.606	3.14
449.812	3.13
450.017	3.1
450.223	2.96
450.428	2.93
450.634	3.05
450.84	3.2
451.045	3.21
451.251	3.14
451.456	3.46
451.662	3.54
451.867	3.53
452.073	3.42
452.278	3.6
452.483	3.5
452.689	3.33
452.894	3.41
453.1	3.44
453.305	3.28
453.51	3.19
453.716	3.09
453.921	3
454.127	2.97
454.332	2.94
454.537	2.86
454.742	2.93
454.948	2.87
455.153	2.97
455.358	3.08
455.563	3.35
455.769	3.5
455.974	3.44
456.179	3.27
456.384	3.21
456.589	3.08
456.795	2.87
457	2.91
457.205	3.19
457.41	3.27
457.615	3.22
457.82	3.27
458.025	3.23
