Data from Ofra_2a_PS_2GT41_Reflection_1.txt Node
Date: Tue Jul 20 09:43:37 EDT 2021
User: Adam
Spectrometer: FLMT01687
Trigger mode: 0
Integration Time (sec): 9.450000E-1
Scans to average: 3
Electric dark correction enabled: true
Nonlinearity correction enabled: false
Boxcar width: 3
XAxis mode: Wavelengths
Number of Pixels in Spectrum: 3648
>>>>>Begin Spectral Data<<<<<
179.494	902.37
179.716	529.93
179.937	602.2
180.158	2607.81
180.38	-698.84
180.601	-144.24
180.823	-50.41
181.044	15.14
181.265	-76.56
181.486	51.64
181.708	921.74
181.929	-181.86
182.15	-281.82
182.372	69.68
182.593	41.44
182.814	240.12
183.035	185.54
183.257	111.29
183.478	76.32
183.699	70.93
183.92	60.64
184.141	57.43
184.363	42.38
184.584	29.74
184.805	21.05
185.026	-0.88
185.247	-10.34
185.468	-15.78
185.689	-3.57
185.91	10.9
186.132	20.29
186.353	1.37
186.574	6.65
186.795	-18.14
187.016	-16.71
187.237	-25.91
187.458	-49.02
187.679	-78.31
187.9	-49.26
188.121	-17.38
188.342	35.41
188.563	49.07
188.784	44.02
189.005	45.98
189.226	49.72
189.447	60.24
189.667	39.04
189.888	37.33
190.109	25.55
190.33	32.22
190.551	32.89
190.772	14.62
190.993	11.61
191.214	5.51
191.434	3.14
191.655	17.14
191.876	19.79
192.097	14.21
192.318	28.83
192.538	22.05
192.759	27.19
192.98	11.82
193.201	28.41
193.421	30.65
193.642	32.28
193.863	18.86
194.083	25.19
194.304	29.66
194.525	49.02
194.745	17.35
194.966	17.61
195.187	25.5
195.407	18.68
195.628	22.14
195.848	27.45
196.069	9.64
196.29	8.79
196.51	-3.04
196.731	7.41
196.951	10.09
197.172	-1.91
197.392	9.77
197.613	9.87
197.833	15.36
198.054	13.23
198.274	-15.51
198.495	-8.05
198.715	-7.76
198.936	-31.84
199.156	-9.17
199.377	-2.41
199.597	-5.8
199.817	15.99
200.038	12.45
200.258	8.7
200.479	7.84
200.699	-2.83
200.919	-28.09
201.14	-23.89
201.36	-21.93
201.58	-18.2
201.801	-7.95
202.021	-2.19
202.241	5.24
202.461	19.38
202.682	27.83
202.902	18.02
203.122	18.68
203.342	23.73
203.563	25.38
203.783	19.43
204.003	15.87
204.223	23.92
204.443	23.84
204.663	27.9
204.884	22.63
205.104	21.81
205.324	34.02
205.544	43.93
205.764	26.85
205.984	37.19
206.204	30.33
206.424	28.34
206.644	25.83
206.864	19.19
207.084	30.05
207.304	30.95
207.525	18.12
207.745	36.19
207.964	41.9
208.184	34.96
208.404	29.79
208.624	10.91
208.844	1.69
209.064	11.39
209.284	1.59
209.504	10.04
209.724	-19.05
209.944	-23.47
210.164	-9.61
210.384	4.73
210.604	-0.23
210.823	-13.92
211.043	-29.91
211.263	-4.93
211.483	2.09
211.703	8.21
211.922	10.42
212.142	13.24
212.362	23.76
212.582	34
212.801	33.28
213.021	40.35
213.241	24.52
213.461	11.41
213.68	14.91
213.9	10.51
214.12	-11.46
214.339	-7.55
214.559	-12.18
214.779	-9.05
214.998	4.74
215.218	4.63
215.438	13.53
215.657	19.13
215.877	18.34
216.096	21.98
216.316	31.59
216.535	29.23
216.755	7.09
216.974	-4.06
217.194	-2.11
217.413	8.18
217.633	3.73
217.852	-3.12
218.072	-18.62
218.291	14.92
218.511	18.1
218.73	16.12
218.95	17.33
219.169	22.58
219.389	5.6
219.608	20.29
219.827	14.1
220.047	4.45
220.266	9.31
220.485	13.88
220.705	0.15
220.924	10.37
221.143	2.73
221.363	-0.24
221.582	0.35
221.801	7.5
222.021	-12.29
222.24	-15.89
222.459	-20.46
222.678	-48.19
222.897	-36.77
223.117	-25.84
223.336	-24.93
223.555	-26.14
223.774	-11.19
223.993	9.76
224.213	24.07
224.432	30.78
224.651	27.45
224.87	17.21
225.089	26.17
225.308	35.26
225.527	25.91
225.746	24.72
225.965	9.87
226.184	12.68
226.404	7.37
226.623	12
226.842	1.07
227.061	0.19
227.28	13.82
227.499	27.03
227.718	20.64
227.936	24.31
228.155	25.75
228.374	29.77
228.593	22.1
228.812	16.76
229.031	9.8
229.25	19.48
229.469	27.58
229.688	26.69
229.907	17.88
230.125	30.65
230.344	33.26
230.563	36.23
230.782	33.82
231.001	24.91
231.22	29.53
231.438	35.77
231.657	34.51
231.876	26.02
232.095	27.89
232.313	28.5
232.532	33.58
232.751	33.07
232.969	39.3
233.188	39.6
233.407	40.98
233.625	37.28
233.844	33.97
234.063	28.65
234.281	16.24
234.5	11.55
234.719	-0.19
234.937	4.13
235.156	-4.69
235.374	-5.24
235.593	-1.97
235.811	-8.36
236.03	-17.48
236.249	2.68
236.467	3.2
236.686	8.63
236.904	2.46
237.123	17.22
237.341	24.87
237.559	20.91
237.778	20.68
237.996	26.75
238.215	23.84
238.433	32.83
238.652	21.89
238.87	28.52
239.088	21.91
239.307	19.48
239.525	7.47
239.743	6.73
239.962	-10.05
240.18	5.61
240.398	-2.64
240.617	16.68
240.835	15.33
241.053	29.92
241.271	42.17
241.49	45.21
241.708	27.46
241.926	21.91
242.144	11.94
242.363	6.45
242.581	-9.6
242.799	-19.82
243.017	-11.03
243.235	-14.12
243.453	-3.56
243.672	4.51
243.89	14.6
244.108	23.4
244.326	15.63
244.544	9.99
244.762	13.48
244.98	11.64
245.198	1.02
245.416	2.52
245.634	13.42
245.852	20.81
246.07	26.89
246.288	22.03
246.506	29.15
246.724	39.76
246.942	35.32
247.16	23.54
247.378	8.89
247.596	7.11
247.814	4.68
248.032	-5.09
248.25	-4.97
248.468	-5.91
248.685	0.07
248.903	-0.88
249.121	7.12
249.339	17.24
249.557	22.27
249.775	4.97
249.992	5.01
250.21	-12.21
250.428	-2.25
250.646	0.59
250.863	-7.58
251.081	-11.03
251.299	8
251.517	14.14
251.734	29.31
251.952	34.5
252.17	17.47
252.387	29.37
252.605	28.89
252.823	8.57
253.04	-1.57
253.258	-1.43
253.475	-2.45
253.693	9.34
253.911	6.5
254.128	4.31
254.346	11.61
254.563	9.91
254.781	1.69
254.998	0.81
255.216	-0.68
255.433	-5.79
255.651	-8.64
255.868	2.49
256.086	-1.13
256.303	6.53
256.521	-2.79
256.738	-5.06
256.956	-11.91
257.173	1.49
257.39	-2.26
257.608	5.44
257.825	4.71
258.043	13.78
258.26	15.29
258.477	30.05
258.695	29.41
258.912	36.45
259.129	30.41
259.346	34.01
259.564	21.47
259.781	21.85
259.998	8.53
260.216	14.44
260.433	-5.52
260.65	2.78
260.867	-10.5
261.084	2
261.302	-10.16
261.519	-8.7
261.736	-20.67
261.953	-6.28
262.17	-10.1
262.387	-8.02
262.604	-14.72
262.822	-3.56
263.039	-6.73
263.256	-1.81
263.473	-9.88
263.69	-6.05
263.907	1.18
264.124	5.01
264.341	-0.37
264.558	4.86
264.775	9.66
264.992	15.32
265.209	23
265.426	17.05
265.643	17.68
265.86	18.62
266.077	25.1
266.294	17.15
266.51	18.62
266.727	1.15
266.944	-0.03
267.161	-6.44
267.378	-2.22
267.595	-16.92
267.812	-17.87
268.028	-12.73
268.245	-6.08
268.462	-2.31
268.679	3.55
268.896	-0.44
269.112	17.55
269.329	27.72
269.546	23.06
269.763	29.23
269.979	24.89
270.196	26.2
270.413	25.14
270.629	16.96
270.846	21.35
271.063	22.32
271.279	23.83
271.496	21.63
271.712	17.71
271.929	26
272.146	19.47
272.362	3.09
272.579	-2.73
272.795	-11.89
273.012	-6.57
273.228	-6.17
273.445	-10.09
273.661	-8.55
273.878	3.13
274.094	11.24
274.311	16.89
274.527	19.46
274.744	13.22
274.96	15.33
275.177	17.47
275.393	6.2
275.609	1.67
275.826	-1.53
276.042	6.39
276.259	11.86
276.475	11.8
276.691	16.72
276.908	19.44
277.124	18.04
277.34	16.57
277.557	16.56
277.773	19.06
277.989	19.41
278.205	8.59
278.422	12.75
278.638	20.59
278.854	19.62
279.07	8.89
279.286	17.13
279.503	19.74
279.719	30.32
279.935	17.69
280.151	28
280.367	20.03
280.583	16.61
280.799	17.99
281.016	16.71
281.232	7.93
281.448	12.77
281.664	-2.24
281.88	10.22
282.096	20.82
282.312	11.27
282.528	8.07
282.744	9.83
282.96	14.81
283.176	14.38
283.392	22.59
283.608	24.64
283.824	17.51
284.04	27.2
284.256	32.08
284.471	32.64
284.687	30.79
284.903	25.93
285.119	9.09
285.335	20.04
285.551	16.91
285.767	13.77
285.982	5.62
286.198	13.74
286.414	13.51
286.63	32.13
286.846	26.68
287.061	35.46
287.277	37.18
287.493	40.05
287.709	34.99
287.924	39.42
288.14	33.18
288.356	45.67
288.571	29.72
288.787	30.41
289.003	31.58
289.218	34.97
289.434	28.28
289.65	25.9
289.865	17.17
290.081	23.46
290.296	22.07
290.512	24.55
290.727	27.69
290.943	25.52
291.159	14.42
291.374	22.89
291.59	14.41
291.805	1.24
292.021	-2.9
292.236	-9.58
292.451	-6.41
292.667	8.57
292.882	-3.09
293.098	-4.89
293.313	0.5
293.529	8.57
293.744	10.16
293.959	6.93
294.175	5.81
294.39	4.65
294.605	8.52
294.821	15.94
295.036	9
295.251	10.56
295.467	7.17
295.682	5.31
295.897	8.8
296.112	2.23
296.328	0.52
296.543	-3.05
296.758	-16.26
296.973	-10.22
297.188	-24.36
297.404	-18.45
297.619	-18.18
297.834	-8.24
298.049	-8.74
298.264	-3.74
298.479	-12.95
298.694	-0.25
298.909	-7.62
299.125	1.79
299.34	-8.92
299.555	-2.72
299.77	1.01
299.985	1.89
300.2	4.63
300.415	7.77
300.63	3.96
300.845	13.52
301.06	16.66
301.275	19.19
301.49	27.8
301.704	23.53
301.919	23.78
302.134	19.3
302.349	9.79
302.564	-0.98
302.779	-7.63
302.994	-7.89
303.209	-2.69
303.423	10.93
303.638	18.92
303.853	26.37
304.068	31.78
304.283	37.17
304.497	25.65
304.712	26.48
304.927	13.72
305.142	12.3
305.356	9.34
305.571	10.8
305.786	11.22
306	20.16
306.215	13.95
306.43	27.6
306.644	24.96
306.859	30.61
307.074	30.63
307.288	29.38
307.503	25.64
307.717	24.22
307.932	18.21
308.147	19.98
308.361	11.95
308.576	7.49
308.79	5.71
309.005	14.93
309.219	16.14
309.434	11.14
309.648	-0.95
309.863	5.13
310.077	-2.22
310.292	-0.29
310.506	6.6
310.72	5.32
310.935	13.11
311.149	24.3
311.364	23.85
311.578	30.64
311.792	22.89
312.007	7.81
312.221	14
312.435	13.91
312.649	-9.82
312.864	-18.42
313.078	-1.4
313.292	7.95
313.507	21.93
313.721	10.19
313.935	18.31
314.149	29.52
314.363	37.68
314.578	53.55
314.792	49.08
315.006	42.05
315.22	48.17
315.434	37.65
315.648	50.11
315.862	46.31
316.077	28.66
316.291	28.16
316.505	25.94
316.719	4.82
316.933	10.2
317.147	3.98
317.361	-3.87
317.575	-6.12
317.789	-4.11
318.003	-0.88
318.217	13.94
318.431	15.69
318.645	16.37
318.859	7.48
319.073	0.97
319.287	10.63
319.5	11.65
319.714	10.39
319.928	12.73
320.142	18.4
320.356	37.02
320.57	41.02
320.784	38.25
320.997	36.85
321.211	39.83
321.425	27.07
321.639	17.83
321.853	5.95
322.066	7.31
322.28	12.59
322.494	14.45
322.707	8.56
322.921	17.4
323.135	25.05
323.349	28.19
323.562	29.57
323.776	22.54
323.989	21.54
324.203	29.15
324.417	15.1
324.63	6.3
324.844	0.97
325.057	-4.03
325.271	-15.65
325.485	-15.55
325.698	-26.95
325.912	-0.03
326.125	4.84
326.339	-0.25
326.552	6.43
326.766	22.56
326.979	25.37
327.193	27.84
327.406	12.09
327.619	0.16
327.833	8.27
328.046	-0.53
328.26	-17.35
328.473	-14.01
328.686	-6.72
328.9	-4.6
329.113	1.83
329.326	6.61
329.54	9.31
329.753	13.35
329.966	11.12
330.179	15.02
330.393	15.44
330.606	25.9
330.819	32.47
331.032	31.49
331.246	27.11
331.459	23.99
331.672	23.61
331.885	19.87
332.098	20.94
332.311	-2.68
332.525	6.37
332.738	15.25
332.951	17.2
333.164	4.82
333.377	1.54
333.59	-2.67
333.803	19.33
334.016	2.07
334.229	0.27
334.442	11.26
334.655	27.78
334.868	38.64
335.081	41.26
335.294	29.77
335.507	45.53
335.72	36.44
335.933	36.56
336.146	33.8
336.359	26.05
336.572	19.76
336.785	32.12
336.997	24.08
337.21	28.85
337.423	20.96
337.636	19.98
337.849	11.39
338.062	16.45
338.274	5.71
338.487	12.76
338.7	12.32
338.913	11.11
339.125	6.57
339.338	18.21
339.551	20.26
339.763	17.85
339.976	8.65
340.189	6.33
340.402	6.85
340.614	13.53
340.827	5.87
341.039	-0.87
341.252	-1.65
341.465	-0.92
341.677	-2.79
341.89	-3.32
342.102	-1.07
342.315	7.09
342.527	1.21
342.74	4.14
342.952	-2.25
343.165	5.22
343.377	1.97
343.59	-3.79
343.802	-3.91
344.015	1.72
344.227	-0.51
344.44	-1.15
344.652	2.76
344.864	3.86
345.077	-2.16
345.289	-5.44
345.502	-2.7
345.714	-6.1
345.926	10.89
346.139	7.47
346.351	-4.33
346.563	5.42
346.775	3.91
346.988	2.16
347.2	0.45
347.412	-1.29
347.624	-0.8
347.837	9.18
348.049	11.34
348.261	8.56
348.473	4.08
348.685	13.29
348.897	8.42
349.11	1.97
349.322	-2.89
349.534	-12.47
349.746	-1.75
349.958	9.92
350.17	2.34
350.382	-0.11
350.594	6.77
350.806	18.54
351.018	27.83
351.23	22.07
351.442	17.93
351.654	20.81
351.866	26.63
352.078	21.7
352.29	24.29
352.502	20.45
352.714	24.43
352.926	25.69
353.138	20.95
353.35	13.42
353.561	11.2
353.773	4.81
353.985	8.33
354.197	4.49
354.409	5.34
354.621	7.5
354.832	10.76
355.044	20.21
355.256	19.48
355.468	11.79
355.679	15.69
355.891	14.03
356.103	19.18
356.314	21.71
356.526	12.46
356.738	8.79
356.949	8.62
357.161	8.1
357.373	7.41
357.584	0.87
357.796	-1.22
358.008	11.64
358.219	21.21
358.431	22.38
358.642	17.28
358.854	19.72
359.065	16.75
359.277	15.52
359.488	8.97
359.7	11.58
359.911	11.28
360.123	18.71
360.334	13.14
360.546	10.83
360.757	13.48
360.969	17.17
361.18	10.81
361.391	9.26
361.603	10.17
361.814	11.76
362.025	16.08
362.237	18.65
362.448	18.66
362.659	7.82
362.871	12.39
363.082	9.09
363.293	13.94
363.504	15.22
363.716	15
363.927	14.24
364.138	22.89
364.349	21.49
364.56	23.73
364.772	23.48
364.983	16.25
365.194	20.71
365.405	20.16
365.616	17.34
365.827	19.65
366.038	19.47
366.25	11.06
366.461	18.67
366.672	7.04
366.883	8.01
367.094	7.31
367.305	8.04
367.516	2.97
367.727	5.05
367.938	8
368.149	13.36
368.36	16.15
368.571	16.17
368.781	17.98
368.992	16.24
369.203	20.87
369.414	14.59
369.625	11.48
369.836	12.93
370.047	13.9
370.258	7.52
370.468	3.55
370.679	1.22
370.89	13.99
371.101	9.55
371.312	0.27
371.522	-1.92
371.733	-7.79
371.944	-2.45
372.155	-13.63
372.365	-17.24
372.576	-15.86
372.787	-14.89
372.997	-14.75
373.208	-3.06
373.419	-6.27
373.629	12.26
373.84	6.18
374.05	6.58
374.261	7.22
374.472	9.63
374.682	5.9
374.893	8.19
375.103	8.27
375.314	7.12
375.524	10.42
375.735	11.47
375.945	9.47
376.156	12.25
376.366	12.69
376.577	8.85
376.787	11.43
376.997	17.11
377.208	16.34
377.418	18.35
377.629	17.95
377.839	22
378.049	22.82
378.26	22.36
378.47	17.78
378.68	16.27
378.89	14.6
379.101	6.38
379.311	-1.2
379.521	0.93
379.732	-8.92
379.942	-12.41
380.152	-5.64
380.362	-1.75
380.572	3.75
380.783	5.59
380.993	5.3
381.203	11.83
381.413	17.67
381.623	14.13
381.833	13.92
382.043	10.27
382.253	17.52
382.463	13.57
382.674	13.96
382.884	10.33
383.094	12.51
383.304	15.06
383.514	17.38
383.724	6.61
383.934	10.32
384.144	12.04
384.353	10.12
384.563	7.44
384.773	6.51
384.983	8.42
385.193	12.74
385.403	11.64
385.613	6.42
385.823	4.35
386.033	8.26
386.242	4.67
386.452	4.18
386.662	3.3
386.872	0.86
387.082	1.02
387.291	5.83
387.501	3.56
387.711	3.65
387.921	1.68
388.13	-0.76
388.34	-1.98
388.55	1.51
388.759	0.09
388.969	-0.67
389.179	1.93
389.388	1.26
389.598	2.4
389.807	3.88
390.017	3.16
390.227	2.77
390.436	3.34
390.646	4.19
390.855	5.17
391.065	6.67
391.274	4.53
391.484	5.67
391.693	6.3
391.903	6.79
392.112	4.46
392.322	6.04
392.531	4.87
392.74	4.97
392.95	5.04
393.159	5.92
393.369	4.67
393.578	5.53
393.787	4.73
393.997	6.06
394.206	6.03
394.415	5.47
394.625	3.47
394.834	3.54
395.043	3.83
395.252	4.17
395.462	3.41
395.671	4.47
395.88	4.41
396.089	4.92
396.298	5.22
396.508	4.77
396.717	4.23
396.926	4.48
397.135	3.96
397.344	3.75
397.553	4.1
397.762	4.25
397.971	4.35
398.181	4.08
398.39	4.14
398.599	4.37
398.808	4.63
399.017	4.79
399.226	4.59
399.435	4.34
399.644	4.23
399.853	4.22
400.062	4.19
400.27	4.15
400.479	3.96
400.688	4.18
400.897	4.38
401.106	4.62
401.315	4.41
401.524	4.35
401.733	4.45
401.941	4.55
402.15	4.32
402.359	4.34
402.568	4.38
402.777	4.59
402.985	4.56
403.194	4.36
403.403	4.11
403.612	4.1
403.82	4.06
404.029	3.92
404.238	3.8
404.446	3.76
404.655	3.68
404.864	3.69
405.072	3.75
405.281	3.61
405.489	3.76
405.698	3.68
405.906	3.6
406.115	3.66
406.324	3.61
406.532	3.6
406.741	3.68
406.949	3.58
407.158	3.65
407.366	3.8
407.574	3.76
407.783	3.74
407.991	3.69
408.2	3.65
408.408	3.65
408.617	3.56
408.825	3.49
409.033	3.5
409.242	3.54
409.45	3.53
409.658	3.51
409.867	3.51
410.075	3.59
410.283	3.49
410.491	3.44
410.7	3.45
410.908	3.46
411.116	3.41
411.324	3.41
411.533	3.22
411.741	3.26
411.949	3.28
412.157	3.33
412.365	3.31
412.573	3.37
412.781	3.31
412.99	3.45
413.198	3.48
413.406	3.48
413.614	3.38
413.822	3.36
414.03	3.29
414.238	3.35
414.446	3.26
414.654	3.23
414.862	3.21
415.07	3.29
415.278	3.23
415.486	3.34
415.694	3.27
415.902	3.33
416.109	3.37
416.317	3.37
416.525	3.37
416.733	3.43
416.941	3.35
417.149	3.45
417.357	3.5
417.564	3.47
417.772	3.5
417.98	3.38
418.188	3.28
418.395	3.31
418.603	3.14
418.811	3.05
419.019	2.99
419.226	3.07
419.434	3.08
419.642	3.09
419.849	3.01
420.057	3.13
420.265	3.22
420.472	3.23
420.68	3.13
420.887	3.22
421.095	3.28
421.302	3.31
421.51	3.29
421.717	3.28
421.925	3.23
422.132	3.15
422.34	3.09
422.547	3.01
422.755	3.02
422.962	2.96
423.17	2.84
423.377	2.98
423.585	3.05
423.792	3.06
423.999	3.09
424.207	3.04
424.414	3.09
424.621	3.14
424.829	3.03
425.036	2.91
425.243	3
425.451	3.03
425.658	3.19
425.865	3.07
426.072	3.13
426.28	3.17
426.487	3.3
426.694	3.2
426.901	3.11
427.108	3.03
427.315	3.07
427.523	3.05
427.73	3.07
427.937	3.02
428.144	3.05
428.351	3.15
428.558	3.11
428.765	3.1
428.972	3.08
429.179	3.04
429.386	3.1
429.593	3.08
429.8	3.07
430.007	3.13
430.214	3.2
430.421	3.12
430.628	3.05
430.835	2.98
431.042	3.03
431.249	3.02
431.456	3.01
431.662	2.98
431.869	3.12
432.076	3.2
432.283	3.17
432.49	3.17
432.697	3.16
432.903	3.11
433.11	3.16
433.317	3.09
433.524	3.01
433.73	3.13
433.937	3.05
434.144	3.13
434.35	3.12
434.557	3.07
434.764	3.07
434.97	3.18
435.177	3.1
435.384	3.2
435.59	3.09
435.797	3.11
436.003	3.08
436.21	3.06
436.416	3.01
436.623	3.03
436.829	2.97
437.036	3
437.242	2.97
437.449	2.99
437.655	3
437.862	3.04
438.068	3.1
438.275	3.07
438.481	3.17
438.687	3.27
438.894	3.3
439.1	3.32
439.307	3.31
439.513	3.24
439.719	3.33
439.926	3.28
440.132	3.23
440.338	3.21
440.544	3.19
440.751	3.23
440.957	3.24
441.163	3.17
441.369	3.17
441.575	3.17
441.782	3.19
441.988	3.17
442.194	3.19
442.4	3.18
442.606	3.28
442.812	3.32
443.018	3.36
443.224	3.35
443.431	3.4
443.637	3.34
443.843	3.4
444.049	3.33
444.255	3.22
444.461	3.15
444.667	3.15
444.873	3.11
445.079	3.12
445.284	3.07
445.49	3.09
445.696	3.22
445.902	3.28
446.108	3.28
446.314	3.33
446.52	3.36
446.726	3.4
446.931	3.39
447.137	3.34
447.343	3.35
447.549	3.35
447.755	3.3
447.96	3.27
448.166	3.26
448.372	3.27
448.578	3.27
448.783	3.23
448.989	3.26
449.195	3.31
449.4	3.3
449.606	3.28
449.812	3.31
450.017	3.29
450.223	3.3
450.428	3.28
450.634	3.33
450.84	3.38
451.045	3.36
451.251	3.39
451.456	3.42
451.662	3.43
451.867	3.43
452.073	3.4
452.278	3.4
452.483	3.42
452.689	3.43
452.894	3.46
453.1	3.42
453.305	3.44
453.51	3.45
453.716	3.43
453.921	3.43
454.127	3.32
454.332	3.29
454.537	3.4
454.742	3.4
454.948	3.38
455.153	3.34
455.358	3.42
455.563	3.51
455.769	3.5
455.974	3.38
456.179	3.33
456.384	3.37
456.589	3.37
456.795	3.26
457	3.22
457.205	3.18
457.41	3.24
457.615	3.29
457.82	3.34
458.025	3.39
458.23	3.43
458.435	3.4
458.64	3.49
458.845	3.42
459.05	3.42
459.255	3.34
459.46	3.33
459.665	3.39
459.87	3.41
460.075	3.36
460.28	3.43
460.485	3.48
460.69	3.44
460.895	3.46
461.099	3.42
461.304	3.45
461.509	3.37
461.714	3.39
461.919	3.3
462.123	3.37
462.328	3.33
462.533	3.36
462.738	3.37
462.942	3.46
463.147	3.46
463.352	3.52
463.556	3.55
463.761	3.59
463.966	3.6
464.17	3.62
464.375	3.6
464.58	3.56
464.784	3.56
464.989	3.53
465.193	3.57
465.398	3.58
465.602	3.55
465.807	3.62
466.011	3.67
466.216	3.66
466.42	3.66
466.625	3.62
466.829	3.63
467.034	3.7
467.238	3.69
467.443	3.73
467.647	3.78
467.851	3.8
468.056	3.81
468.26	3.77
468.464	3.72
468.669	3.73
468.873	3.69
469.077	3.7
469.282	3.71
469.486	3.74
469.69	3.79
469.894	3.83
470.099	3.8
470.303	3.81
