Data from Ofra_1a_PS_6EV18_Reflection_2.txt Node
Date: Tue Jul 20 10:59:39 EDT 2021
User: Adam
Spectrometer: FLMT01687
Trigger mode: 0
Integration Time (sec): 1.004000E0
Scans to average: 2
Electric dark correction enabled: true
Nonlinearity correction enabled: false
Boxcar width: 2
XAxis mode: Wavelengths
Number of Pixels in Spectrum: 3648
>>>>>Begin Spectral Data<<<<<
179.494	-345.18
179.716	-473.28
179.937	960.54
180.158	-1057.32
180.38	122.42
180.601	24.89
180.823	-30.85
181.044	-135.32
181.265	-67.78
181.486	80.99
181.708	-7.4
181.929	10509.09
182.15	-213.82
182.372	250.25
182.593	194.99
182.814	127.67
183.035	72.96
183.257	78.64
183.478	23.85
183.699	-4.8
183.92	-65.16
184.141	-29.79
184.363	-20.09
184.584	2.86
184.805	52.19
185.026	66.03
185.247	30.38
185.468	11.53
185.689	0.16
185.91	-33.94
186.132	-17.84
186.353	14.8
186.574	25.58
186.795	36.84
187.016	43.12
187.237	36.06
187.458	25.39
187.679	11.92
187.9	34.74
188.121	24.03
188.342	20.98
188.563	11.98
188.784	33.04
189.005	3.61
189.226	17.38
189.447	20.34
189.667	11.91
189.888	4.01
190.109	-25.54
190.33	-30.66
190.551	-47.07
190.772	-54.48
190.993	-92.03
191.214	-91.91
191.434	-133.28
191.655	-144.72
191.876	-66.79
192.097	-36.11
192.318	-12.91
192.538	-41.23
192.759	-15.19
192.98	-14.41
193.201	-8.86
193.421	-4.92
193.642	3.16
193.863	0.68
194.083	-11.86
194.304	-16.03
194.525	-19.57
194.745	-9.59
194.966	-16.03
195.187	-0.72
195.407	-3.21
195.628	7.63
195.848	10.33
196.069	2.12
196.29	-5.99
196.51	-25.08
196.731	-31.84
196.951	-32.87
197.172	-19.04
197.392	-40.54
197.613	-2.06
197.833	-7.81
198.054	-12.55
198.274	-14.67
198.495	0.58
198.715	-19.73
198.936	-6.31
199.156	-8.84
199.377	-6.48
199.597	-3.45
199.817	3.1
200.038	2.19
200.258	18.09
200.479	20.99
200.699	26.17
200.919	3.19
201.14	-2.65
201.36	-7.55
201.58	-23.53
201.801	-47.11
202.021	-33.75
202.241	-25.98
202.461	-41.99
202.682	-51.63
202.902	-34.03
203.122	-33.61
203.342	-36.68
203.563	-33.06
203.783	-33.92
204.003	-28.74
204.223	-15.95
204.443	1.59
204.663	-4.18
204.884	30.78
205.104	24.39
205.324	42.5
205.544	-41.49
205.764	19.96
205.984	9.42
206.204	15.08
206.424	-19.98
206.644	-0.37
206.864	-46.58
207.084	-20.07
207.304	-36.54
207.525	-34.95
207.745	-24.15
207.964	-21.9
208.184	-24.88
208.404	-6.82
208.624	26.76
208.844	13.83
209.064	6.47
209.284	3.16
209.504	-24.49
209.724	-38.33
209.944	-40.11
210.164	-31.21
210.384	-60.71
210.604	-87.99
210.823	-101.26
211.043	-68.84
211.263	-150.36
211.483	-76.44
211.703	-36.65
211.922	-33.77
212.142	-8.41
212.362	24.91
212.582	16.96
212.801	11.24
213.021	-23
213.241	-37.94
213.461	-52.17
213.68	-42.15
213.9	-30.85
214.12	-8.67
214.339	-5.88
214.559	-4.4
214.779	5.61
214.998	0.67
215.218	-9.45
215.438	4.2
215.657	0.79
215.877	-11.18
216.096	11.54
216.316	18.79
216.535	7.2
216.755	13.76
216.974	12.48
217.194	-19.55
217.413	-24.36
217.633	-26.81
217.852	-29.85
218.072	-7.11
218.291	-11.91
218.511	-20.64
218.73	-32.12
218.95	-60.37
219.169	-89.63
219.389	-49.57
219.608	-41.18
219.827	-7.6
220.047	22.58
220.266	20.92
220.485	2.96
220.705	21.82
220.924	8.3
221.143	18.13
221.363	16.99
221.582	22.98
221.801	18.77
222.021	23.71
222.24	6.15
222.459	16.59
222.678	19.71
222.897	2.86
223.117	-3.59
223.336	21
223.555	31.14
223.774	42.09
223.993	63.14
224.213	70.06
224.432	44.96
224.651	13.74
224.87	-0.61
225.089	2.32
225.308	-3.49
225.527	-25.73
225.746	-12.76
225.965	-9.68
226.184	-31.71
226.404	-30.53
226.623	-2.42
226.842	0.1
227.061	5.22
227.28	15.98
227.499	16.21
227.718	9.63
227.936	13.03
228.155	11.93
228.374	12.43
228.593	34.74
228.812	37.97
229.031	38.18
229.25	27.82
229.469	24.93
229.688	10.57
229.907	9.43
230.125	4.12
230.344	14.3
230.563	24.24
230.782	29.55
231.001	28.64
231.22	33.45
231.438	34.88
231.657	32.22
231.876	27.01
232.095	35.23
232.313	16.51
232.532	20.41
232.751	2.44
232.969	10.26
233.188	-12.08
233.407	11.17
233.625	0.29
233.844	1.79
234.063	-15.85
234.281	-9.53
234.5	-18.05
234.719	-15.55
234.937	-12.08
235.156	-0.51
235.374	14.74
235.593	26.09
235.811	42.67
236.03	40.54
236.249	39.5
236.467	39.72
236.686	30.02
236.904	26.64
237.123	14.21
237.341	14.95
237.559	7.61
237.778	30.29
237.996	11.56
238.215	-29.75
238.433	-102
238.652	-31.86
238.87	-44.66
239.088	-34.03
239.307	-4.31
239.525	-0.9
239.743	-18.16
239.962	-44.55
240.18	-23.64
240.398	-36.85
240.617	-35.9
240.835	-32.56
241.053	0.96
241.271	-1.1
241.49	23.55
241.708	14.54
241.926	17.1
242.144	15.58
242.363	-6.94
242.581	-33.79
242.799	2
243.017	-5.99
243.235	-11.89
243.453	-20.73
243.672	-14.33
243.89	-18.6
244.108	-4.86
244.326	12.68
244.544	29.31
244.762	15.91
244.98	30.62
245.198	32.08
245.416	28.78
245.634	20.07
245.852	9.78
246.07	5.51
246.288	2.58
246.506	-15.46
246.724	-15.61
246.942	17.5
247.16	21.99
247.378	16.66
247.596	72.9
247.814	53.6
248.032	12.72
248.25	18.07
248.468	20.65
248.685	3.88
248.903	12.62
249.121	14.96
249.339	5.24
249.557	8.78
249.775	24.05
249.992	24.8
250.21	22.5
250.428	32.24
250.646	24.49
250.863	-4.34
251.081	-3.67
251.299	-5.03
251.517	-18.8
251.734	-8.61
251.952	1.04
252.17	-0.41
252.387	-10.8
252.605	-7.12
252.823	-6.34
253.04	25.53
253.258	34.76
253.475	36.35
253.693	18.33
253.911	7.03
254.128	-22.73
254.346	-11.45
254.563	-0.87
254.781	7.89
254.998	-1.08
255.216	-1.39
255.433	-37.15
255.651	-35.67
255.868	-39.68
256.086	-14.29
256.303	2.1
256.521	9.86
256.738	-3.7
256.956	9.49
257.173	-2.82
257.39	-2.13
257.608	4.79
257.825	13.11
258.043	15.74
258.26	9.56
258.477	11.93
258.695	-2.46
258.912	-6.92
259.129	-27.41
259.346	-42.02
259.564	-53.36
259.781	-39.17
259.998	-6.89
260.216	9.16
260.433	10.05
260.65	15.73
260.867	15.36
261.084	-11.72
261.302	-29.54
261.519	-11.51
261.736	-28.2
261.953	-33.95
262.17	-1.06
262.387	3.33
262.604	-0.19
262.822	12.12
263.039	23.1
263.256	8.27
263.473	15.32
263.69	18.56
263.907	9.08
264.124	15.13
264.341	25.02
264.558	13.5
264.775	-3.29
264.992	16.11
265.209	-17.46
265.426	-27.36
265.643	-31.84
265.86	-5.4
266.077	-13.15
266.294	23.39
266.51	33.27
266.727	41.17
266.944	29.52
267.161	25.47
267.378	22.77
267.595	-2.12
267.812	-13.39
268.028	-12.78
268.245	-4.44
268.462	1.7
268.679	14.19
268.896	30.45
269.112	3.05
269.329	-29.41
269.546	-10.99
269.763	-7.71
269.979	-12.68
270.196	15.67
270.413	25.96
270.629	-10.33
270.846	-18.76
271.063	-13.49
271.279	-28.79
271.496	-31.15
271.712	-11.46
271.929	8.09
272.146	0.13
272.362	10.2
272.579	-0.38
272.795	-1.61
273.012	1.46
273.228	8.04
273.445	-1.84
273.661	6.93
273.878	-7.98
274.094	-32.78
274.311	-37.26
274.527	-61.67
274.744	-35.55
274.96	-14.01
275.177	-7.38
275.393	11.17
275.609	29.25
275.826	14.89
276.042	6.05
276.259	3.37
276.475	-16.61
276.691	-24.88
276.908	-13.61
277.124	5.67
277.34	4.76
277.557	1.15
277.773	10.7
277.989	-8.64
278.205	-9.34
278.422	-2.88
278.638	-0.23
278.854	-12.23
279.07	-0.2
279.286	-15.24
279.503	-12.06
279.719	1.34
279.935	4.14
280.151	4.21
280.367	13.95
280.583	12.15
280.799	-8.08
281.016	-34.4
281.232	-38.18
281.448	-41.78
281.664	-27.08
281.88	-5.58
282.096	11.42
282.312	23.9
282.528	26.74
282.744	28.12
282.96	13.06
283.176	-17.05
283.392	-70.74
283.608	-65.61
283.824	-85.27
284.04	-135.2
284.256	-50.42
284.471	-18.63
284.687	-18.72
284.903	-12.33
285.119	14.66
285.335	10.23
285.551	-4.94
285.767	-8.44
285.982	-11.26
286.198	-42.9
286.414	-49.6
286.63	-41.36
286.846	-46.2
287.061	-25.74
287.277	-13.15
287.493	-13.17
287.709	4.94
287.924	16.73
288.14	27.32
288.356	41.4
288.571	56.03
288.787	43.24
289.003	57.79
289.218	29.14
289.434	13.89
289.65	17.06
289.865	12.29
290.081	7.09
290.296	21.38
290.512	7.93
290.727	-5.76
290.943	7.8
291.159	9.65
291.374	-6.4
291.59	7.01
291.805	2.08
292.021	2.17
292.236	-9.69
292.451	-10.7
292.667	1.35
292.882	19
293.098	8.05
293.313	4.39
293.529	12.17
293.744	-13.3
293.959	-32.54
294.175	-15.77
294.39	-10.68
294.605	11.06
294.821	11.22
295.036	14.06
295.251	14.64
295.467	2.92
295.682	-11.91
295.897	-8.82
296.112	-4.42
296.328	-1.45
296.543	9.29
296.758	23.69
296.973	27.85
297.188	20.45
297.404	2.75
297.619	-25.18
297.834	-69.4
298.049	-91.37
298.264	-71.5
298.479	-63.82
298.694	-17.09
298.909	2.96
299.125	16.35
299.34	20.28
299.555	18.9
299.77	31.02
299.985	11.6
300.2	10.08
300.415	12.87
300.63	19.16
300.845	-4.26
301.06	12.98
301.275	4.94
301.49	-0.85
301.704	-6.08
301.919	-11.46
302.134	-21.18
302.349	-2.05
302.564	1.39
302.779	-0.83
302.994	22
303.209	22.45
303.423	22.01
303.638	16.16
303.853	5.01
304.068	-16.21
304.283	-15
304.497	-32.99
304.712	-15.24
304.927	-3.93
305.142	8.77
305.356	16.2
305.571	14.44
305.786	4.8
306	12.64
306.215	-7.49
306.43	-19.18
306.644	-17.19
306.859	-14.87
307.074	-3.66
307.288	9.85
307.503	33.28
307.717	22.35
307.932	30.59
308.147	14.6
308.361	18.89
308.576	-3.33
308.79	-2.65
309.005	-24.16
309.219	-12.81
309.434	-14.51
309.648	-14.6
309.863	-6.77
310.077	15.27
310.292	12.17
310.506	1.33
310.72	14.53
310.935	20.04
311.149	10.19
311.364	16
311.578	24.73
311.792	12.99
312.007	10.55
312.221	-16.49
312.435	9.76
312.649	11.22
312.864	15.21
313.078	15.06
313.292	25.51
313.507	27.68
313.721	28.19
313.935	27.39
314.149	23.36
314.363	31.14
314.578	3.92
314.792	-33.33
315.006	-53.97
315.22	-43.36
315.434	-36.53
315.648	-26.85
315.862	-6.84
316.077	17.18
316.291	11.56
316.505	-12.32
316.719	-20.53
316.933	-27.99
317.147	-24.59
317.361	-10.61
317.575	-14.04
317.789	-4.97
318.003	-0.99
318.217	-1.75
318.431	-13.04
318.645	0.93
318.859	10.79
319.073	9.48
319.287	3.89
319.5	3.13
319.714	-3.22
319.928	-14.43
320.142	-8.92
320.356	3.72
320.57	-18.2
320.784	0.78
320.997	-3.87
321.211	0.12
321.425	-33.4
321.639	-3.66
321.853	4.15
322.066	2.38
322.28	-6.2
322.494	17.71
322.707	21.56
322.921	1.64
323.135	4.83
323.349	14.58
323.562	2.75
323.776	-1.31
323.989	24.92
324.203	18.67
324.417	17.87
324.63	13.67
324.844	5.22
325.057	-42.21
325.271	-34.33
325.485	-43.61
325.698	-10.45
325.912	12.45
326.125	24.07
326.339	33.81
326.552	32.46
326.766	10.11
326.979	-6.87
327.193	-1.52
327.406	-13.29
327.619	-8.13
327.833	-0.72
328.046	1.99
328.26	-1.88
328.473	11.52
328.686	8.57
328.9	17.32
329.113	16.54
329.326	16.49
329.54	6.4
329.753	13.37
329.966	14.19
330.179	20.9
330.393	25.75
330.606	20.29
330.819	6.96
331.032	-0.36
331.246	9.07
331.459	19.25
331.672	24.86
331.885	25.2
332.098	19.37
332.311	-11.63
332.525	-15.21
332.738	-2.73
332.951	-5.78
333.164	1.21
333.377	18.48
333.59	11.95
333.803	4.35
334.016	10.82
334.229	0.42
334.442	-6.72
334.655	0.55
334.868	2.94
335.081	-6.92
335.294	-13.69
335.507	-4.64
335.72	-3.24
335.933	-20.7
336.146	-13.07
336.359	12.56
336.572	13.35
336.785	8.03
336.997	23.64
337.21	24.16
337.423	1.47
337.636	-13.18
337.849	-8.11
338.062	-7.55
338.274	-2.34
338.487	-14.7
338.7	-27.93
338.913	-22.01
339.125	-28.74
339.338	-44.55
339.551	-15.46
339.763	-3.68
339.976	-4.45
340.189	-8.85
340.402	14.1
340.614	10.08
340.827	27.23
341.039	42.07
341.252	37.94
341.465	33.02
341.677	32.94
341.89	8.32
342.102	-2.4
342.315	-4.23
342.527	-0.05
342.74	-14.2
342.952	-2
343.165	-2.98
343.377	13.43
343.59	2.04
343.802	-10.4
344.015	-2.48
344.227	2.74
344.44	-17.95
344.652	-21.76
344.864	-2.85
345.077	1.63
345.289	-3.66
345.502	20.76
345.714	25.66
345.926	28.38
346.139	-5.02
346.351	-3.08
346.563	-16.85
346.775	3.61
346.988	8.3
347.2	17.95
347.412	24.62
347.624	27.56
347.837	10.44
348.049	7.56
348.261	5.39
348.473	-5.6
348.685	-11.36
348.897	-16.18
349.11	-6.58
349.322	-6.68
349.534	-13.5
349.746	-15.55
349.958	-7.7
350.17	-35.75
350.382	-12.29
350.594	2.83
350.806	9.41
351.018	17.34
351.23	31.73
351.442	28.7
351.654	25.5
351.866	18.89
352.078	20.61
352.29	8.38
352.502	-7.52
352.714	-0.06
352.926	-1.36
353.138	-1.11
353.35	-0.46
353.561	11.33
353.773	-0.16
353.985	6.04
354.197	2.55
354.409	-1.13
354.621	-12.49
354.832	-18.26
355.044	-28.48
355.256	-48.13
355.468	-54.79
355.679	-28.76
355.891	-13.17
356.103	-17.22
356.314	-14.74
356.526	-21.04
356.738	-32.98
356.949	-47.78
357.161	-31.38
357.373	-16.8
357.584	-3.51
357.796	11.99
358.008	22.18
358.219	19.16
358.431	17.96
358.642	29.92
358.854	17.04
359.065	-4.11
359.277	-1.6
359.488	-7.56
359.7	-16.35
359.911	-31.38
360.123	-9.9
360.334	-20.81
360.546	-22.63
360.757	-21.31
360.969	-1.68
361.18	-13.66
361.391	-3.42
361.603	-6.15
361.814	-5.02
362.025	-1.98
362.237	1.43
362.448	5.02
362.659	5.12
362.871	-7.21
363.082	-16.66
363.293	-21.36
363.504	-47.07
363.716	-38.14
363.927	-10.43
364.138	-34.77
364.349	-32.45
364.56	-41.92
364.772	-33.92
364.983	-27.25
365.194	-5.45
365.405	-1.95
365.616	7.7
365.827	9.2
366.038	0.88
366.25	5.73
366.461	1.6
366.672	11.74
366.883	3.5
367.094	-1.98
367.305	-14.05
367.516	-3.08
367.727	-21.64
367.938	-25.41
368.149	-36.4
368.36	-35.28
368.571	-62.09
368.781	-41.3
368.992	-47.4
369.203	-37.89
369.414	-50.2
369.625	-36.63
369.836	-20.47
370.047	-13.99
370.258	-4.48
370.468	-4.88
370.679	-14.39
370.89	-36.08
371.101	-15.01
371.312	-24.79
371.522	-11.58
371.733	-8.26
371.944	-15.82
372.155	-29.64
372.365	-27.67
372.576	-36.65
372.787	-25.12
372.997	-29.25
373.208	-17.24
373.419	-22.04
373.629	-23.01
373.84	-39.18
374.05	-20.96
374.261	-31.98
374.472	-20.44
374.682	-1.87
374.893	-2.73
375.103	9.36
375.314	8.94
375.524	5.03
375.735	1.32
375.945	13.21
376.156	1.46
376.366	1.06
376.577	5.16
376.787	8.84
376.997	9.81
377.208	11.52
377.418	6.39
377.629	1.6
377.839	-2.39
378.049	3.83
378.26	-10.17
378.47	-6.95
378.68	-4.93
378.89	-1.14
379.101	-3.05
379.311	9.13
379.521	9.24
379.732	21.01
379.942	10.48
380.152	1.6
380.362	4.23
380.572	11.27
380.783	17.77
380.993	18.41
381.203	18.21
381.413	17.87
381.623	14.09
381.833	2.59
382.043	3.34
382.253	-1.25
382.463	6.98
382.674	6.67
382.884	16.76
383.094	17.76
383.304	24
383.514	7.68
383.724	4.18
383.934	-10.99
384.144	-10.69
384.353	-7.76
384.563	-1.83
384.773	5.18
384.983	10.48
385.193	11.61
385.403	2.85
385.613	5.08
385.823	-3.79
386.033	-2.3
386.242	-5.6
386.452	-4.73
386.662	-6.15
386.872	-0.23
387.082	0.64
387.291	-3.78
387.501	0.04
387.711	1.06
387.921	0.38
388.13	-1.1
388.34	5.18
388.55	0.19
388.759	-6.05
388.969	-8.24
389.179	-5.26
389.388	-7.81
389.598	-7.75
389.807	-6.37
390.017	-7.04
390.227	-10.6
390.436	-4.6
390.646	-3.3
390.855	-0.7
391.065	2.7
391.274	3.16
391.484	-1.09
391.693	-0.13
391.903	-1.55
392.112	-0.6
392.322	0.51
392.531	0.52
392.74	1.07
392.95	2.71
393.159	0.62
393.369	-0.05
393.578	1.25
393.787	-0.77
393.997	-1.45
394.206	-2.18
394.415	-1
394.625	-1.16
394.834	-1.36
395.043	-0.84
395.252	1.75
395.462	1.5
395.671	1.15
395.88	2.81
396.089	2.5
396.298	1.36
396.508	1.83
396.717	1.75
396.926	1.28
397.135	1.09
397.344	0.87
397.553	0.49
397.762	1.77
397.971	2.05
398.181	2.28
398.39	2.36
398.599	2.63
398.808	1.75
399.017	2.21
399.226	2.28
399.435	1.7
399.644	1.78
399.853	2.1
400.062	1.49
400.27	0.99
400.479	1.66
400.688	1.5
400.897	1.14
401.106	1.37
401.315	1.75
401.524	1.62
401.733	1.33
401.941	1.94
402.15	1.75
402.359	1.95
402.568	1.98
402.777	2.41
402.985	1.92
403.194	2.02
403.403	2.05
403.612	1.95
403.82	1.48
404.029	1.68
404.238	1.73
404.446	1.87
404.655	1.94
404.864	2.33
405.072	2.35
405.281	2.45
405.489	2.13
405.698	2.09
405.906	1.89
406.115	1.8
406.324	1.71
406.532	1.84
406.741	2.1
406.949	2.16
407.158	2.24
407.366	2.12
407.574	2.04
407.783	1.82
407.991	1.85
408.2	1.94
408.408	1.94
408.617	1.89
408.825	1.68
409.033	1.68
409.242	1.63
409.45	1.8
409.658	1.77
409.867	1.87
410.075	1.84
410.283	1.76
410.491	1.54
410.7	1.55
410.908	1.72
411.116	1.74
411.324	1.74
411.533	1.71
411.741	1.77
411.949	1.75
412.157	1.76
412.365	1.77
412.573	1.85
412.781	1.67
412.99	1.64
413.198	1.64
413.406	1.7
413.614	1.88
413.822	2.08
414.03	2.04
414.238	2.04
414.446	2.01
414.654	1.85
414.862	1.82
415.07	1.7
415.278	1.84
415.486	1.65
415.694	1.66
415.902	1.63
416.109	1.66
416.317	1.52
416.525	1.55
416.733	1.63
416.941	1.75
417.149	1.76
417.357	1.84
417.564	1.85
417.772	1.78
417.98	1.76
418.188	1.74
418.395	1.47
418.603	1.45
418.811	1.34
419.019	1.35
419.226	1.42
419.434	1.64
419.642	1.61
419.849	1.6
420.057	1.34
420.265	1.25
420.472	1.27
420.68	1.31
420.887	1.41
421.095	1.59
421.302	1.69
421.51	1.44
421.717	1.52
421.925	1.5
422.132	1.54
422.34	1.31
422.547	1.26
422.755	1.25
422.962	1.4
423.17	1.25
423.377	1.28
423.585	1.5
423.792	1.43
423.999	1.39
424.207	1.47
424.414	1.62
424.621	1.56
424.829	1.59
425.036	1.49
425.243	1.53
425.451	1.54
425.658	1.61
425.865	1.71
426.072	1.72
426.28	1.71
426.487	1.68
426.694	1.68
426.901	1.58
427.108	1.52
427.315	1.5
427.523	1.42
427.73	1.42
427.937	1.34
428.144	1.29
428.351	1.15
428.558	1.27
428.765	1.11
428.972	1.24
429.179	1.11
429.386	1.25
429.593	1.27
429.8	1.39
430.007	1.38
430.214	1.5
430.421	1.54
430.628	1.5
430.835	1.43
431.042	1.28
431.249	1.25
431.456	1.25
431.662	1.33
431.869	1.49
432.076	1.56
432.283	1.75
432.49	1.69
432.697	1.58
432.903	1.53
433.11	1.63
433.317	1.63
433.524	1.63
433.73	1.68
433.937	1.74
434.144	1.57
434.35	1.38
434.557	1.59
434.764	1.64
434.97	1.5
435.177	1.69
435.384	1.87
435.59	1.66
435.797	1.7
436.003	1.78
436.21	1.69
436.416	1.68
436.623	1.78
436.829	1.7
437.036	1.71
437.242	1.84
437.449	1.68
437.655	1.76
437.862	1.87
438.068	1.85
438.275	1.93
438.481	1.97
438.687	1.81
438.894	1.87
439.1	1.86
439.307	1.77
439.513	1.85
439.719	1.96
439.926	1.97
440.132	2.04
440.338	1.95
440.544	1.98
440.751	1.91
440.957	1.86
441.163	1.73
441.369	1.83
441.575	1.71
441.782	1.83
441.988	1.79
442.194	1.89
442.4	1.9
442.606	2.08
442.812	2.03
443.018	2
443.224	2.06
443.431	2.01
443.637	1.89
443.843	1.84
444.049	2
444.255	1.96
444.461	1.93
444.667	1.93
444.873	1.96
445.079	1.83
445.284	1.84
445.49	1.84
445.696	1.84
445.902	1.81
446.108	1.86
446.314	1.84
446.52	2
446.726	2.08
446.931	2.09
447.137	2.14
447.343	2.24
447.549	2.22
447.755	2.26
447.96	2.26
448.166	2.3
448.372	2.21
448.578	2.07
448.783	2.04
448.989	2.13
449.195	2.03
449.4	2.09
449.606	2.17
449.812	2.16
450.017	2.19
450.223	2.17
450.428	2.11
450.634	2.09
450.84	2.09
451.045	2.02
451.251	2.09
451.456	2.16
451.662	2.2
451.867	2.26
452.073	2.31
452.278	2.28
452.483	2.33
452.689	2.31
452.894	2.29
453.1	2.21
453.305	2.18
453.51	2.19
453.716	2.21
453.921	2.19
454.127	2.19
454.332	2.23
454.537	2.12
454.742	2.09
454.948	2.13
455.153	2.13
455.358	2.12
455.563	2.21
455.769	2.23
455.974	2.19
456.179	2.2
456.384	2.12
456.589	2
456.795	1.97
457	1.96
457.205	1.9
457.41	1.88
457.615	1.85
457.82	1.91
458.025	1.9
458.23	1.96
458.435	2.09
458.64	2.15
458.845	2.13
459.05	2.24
459.255	2.21
459.46	2.17
459.665	2.17
459.87	2.18
460.075	2.12
460.28	2.23
460.485	2.33
460.69	2.37
460.895	2.45
461.099	2.34
461.304	2.24
461.509	2.19
461.714	2.24
461.919	2.14
462.123	2.26
462.328	2.21
462.533	2.14
462.738	2.06
462.942	2.03
463.147	2.07
463.352	2.18
463.556	2.28
463.761	2.29
463.966	2.28
464.17	2.28
464.375	2.35
464.58	2.24
464.784	2.25
464.989	2.29
465.193	2.24
465.398	2.2
465.602	2.36
465.807	2.35
