Data from Ofra_2a_PS_OGT35_Reflection_2.txt Node
Date: Tue Jul 20 09:29:43 EDT 2021
User: Adam
Spectrometer: FLMT01687
Trigger mode: 0
Integration Time (sec): 9.450000E-1
Scans to average: 3
Electric dark correction enabled: true
Nonlinearity correction enabled: false
Boxcar width: 3
XAxis mode: Wavelengths
Number of Pixels in Spectrum: 3648
>>>>>Begin Spectral Data<<<<<
179.494	636.69
179.716	428.17
179.937	485.71
180.158	1535.94
180.38	-382.56
180.601	-73.23
180.823	15.89
181.044	214.34
181.265	297.61
181.486	125
181.708	721.74
181.929	-146.05
182.15	-611.36
182.372	142.6
182.593	302.74
182.814	-209.58
183.035	22.73
183.257	-18.65
183.478	33.19
183.699	67.09
183.92	42.43
184.141	49.35
184.363	22.61
184.584	12.52
184.805	29.44
185.026	-3.17
185.247	-39.05
185.468	-42.11
185.689	-23.57
185.91	-12.08
186.132	-5.45
186.353	-26.63
186.574	6.94
186.795	0.16
187.016	19.18
187.237	18.52
187.458	12.91
187.679	0.46
187.9	11.01
188.121	-19.56
188.342	15.55
188.563	10.12
188.784	4.78
189.005	24.82
189.226	25.56
189.447	25.75
189.667	39.37
189.888	35.59
190.109	28.9
190.33	22.59
190.551	5.76
190.772	7.48
190.993	17.49
191.214	4.43
191.434	-4.91
191.655	8.42
191.876	9.71
192.097	8.34
192.318	19.9
192.538	13.8
192.759	19.95
192.98	12.08
193.201	14.45
193.421	22.14
193.642	28.5
193.863	15.91
194.083	18.75
194.304	18.54
194.525	39.92
194.745	30.38
194.966	23.17
195.187	39.18
195.407	34.47
195.628	41.82
195.848	47.57
196.069	48.22
196.29	45.93
196.51	53.06
196.731	48.17
196.951	49.11
197.172	33.13
197.392	29.03
197.613	24.96
197.833	23.89
198.054	22.72
198.274	-13.43
198.495	-11.73
198.715	-18.69
198.936	-44.09
199.156	-17.17
199.377	-17.6
199.597	-8.73
199.817	23.88
200.038	22.08
200.258	30.89
200.479	39.56
200.699	25.79
200.919	22.5
201.14	24.92
201.36	27.76
201.58	28.96
201.801	32.05
202.021	31.39
202.241	33.83
202.461	42.12
202.682	50.3
202.902	43.25
203.122	36.5
203.342	31.97
203.563	31.85
203.783	32.46
204.003	29.17
204.223	22.84
204.443	20.76
204.663	24.75
204.884	11.89
205.104	12.79
205.324	22.63
205.544	30.25
205.764	33.17
205.984	23.58
206.204	15.71
206.424	30.66
206.644	26.27
206.864	11.36
207.084	16.82
207.304	13.52
207.525	11.07
207.745	17.32
207.964	20.8
208.184	22.43
208.404	25.9
208.624	2.86
208.844	-3.3
209.064	21.77
209.284	25.32
209.504	27.78
209.724	2.21
209.944	1.33
210.164	16.25
210.384	21.78
210.604	-2.36
210.823	-15.09
211.043	-28.3
211.263	2.61
211.483	5.7
211.703	10.82
211.922	18.64
212.142	26.13
212.362	43.87
212.582	50
212.801	46.59
213.021	52.5
213.241	34.74
213.461	15.76
213.68	20.67
213.9	11.72
214.12	-8.59
214.339	1.44
214.559	3.36
214.779	17.67
214.998	25.4
215.218	8.96
215.438	23.55
215.657	34.76
215.877	29.17
216.096	25.91
216.316	20.39
216.535	19.17
216.755	19.67
216.974	3.59
217.194	5.46
217.413	11.15
217.633	17.6
217.852	13.38
218.072	16.62
218.291	38.19
218.511	46.95
218.73	44.41
218.95	48.88
219.169	38.36
219.389	39.3
219.608	37.6
219.827	23.84
220.047	18.2
220.266	25.14
220.485	24.14
220.705	25.59
220.924	27.72
221.143	24.42
221.363	20.43
221.582	13.05
221.801	12.05
222.021	9.32
222.24	4.53
222.459	4.06
222.678	-3.86
222.897	10.7
223.117	9.35
223.336	8.26
223.555	-1.2
223.774	12.47
223.993	16.69
224.213	11.04
224.432	11.25
224.651	1.92
224.87	-3.84
225.089	12.92
225.308	14.01
225.527	12.16
225.746	11.06
225.965	18.9
226.184	21.11
226.404	36.85
226.623	30.03
226.842	21.43
227.061	19
227.28	51
227.499	44.89
227.718	48.59
227.936	38.17
228.155	41.18
228.374	45.03
228.593	48.1
228.812	31.69
229.031	24.88
229.25	25.98
229.469	30.24
229.688	27.29
229.907	24.25
230.125	25.22
230.344	25.1
230.563	32.14
230.782	20.16
231.001	24.63
231.22	20.34
231.438	26.55
231.657	32.33
231.876	26.48
232.095	15.86
232.313	27.58
232.532	25.11
232.751	29.56
232.969	39.86
233.188	30.09
233.407	35
233.625	37.34
233.844	38.77
234.063	34.97
234.281	27.19
234.5	17.32
234.719	11.93
234.937	19.29
235.156	15.65
235.374	3.17
235.593	-3.43
235.811	-7.07
236.03	-15.39
236.249	9.8
236.467	7.3
236.686	20.12
236.904	25.34
237.123	35.22
237.341	29.87
237.559	28.5
237.778	26.67
237.996	17.4
238.215	11
238.433	15.83
238.652	15.57
238.87	16.17
239.088	13.77
239.307	11.73
239.525	12.24
239.743	5.75
239.962	8.13
240.18	13.96
240.398	17.87
240.617	28.35
240.835	26.7
241.053	31.52
241.271	34.99
241.49	24.66
241.708	19.77
241.926	11
242.144	8.34
242.363	6.72
242.581	17.18
242.799	19.82
243.017	28.53
243.235	25.86
243.453	31.36
243.672	24.56
243.89	18.65
244.108	19.25
244.326	28.33
244.544	27.09
244.762	33.22
244.98	33.43
245.198	22.72
245.416	31.67
245.634	42.58
245.852	34.6
246.07	34.62
246.288	21.77
246.506	21.79
246.724	41.27
246.942	34.41
247.16	9.05
247.378	0.32
247.596	1.79
247.814	6.5
248.032	11.02
248.25	7.96
248.468	13.52
248.685	32.04
248.903	34.12
249.121	30.93
249.339	31.66
249.557	26
249.775	15.36
249.992	12.94
250.21	2.29
250.428	1.14
250.646	-2.74
250.863	-2.64
251.081	-1.01
251.299	15.49
251.517	21.07
251.734	19.61
251.952	29.2
252.17	11.85
252.387	16.78
252.605	22.22
252.823	10.15
253.04	1.57
253.258	14.03
253.475	12.31
253.693	35
253.911	36.38
254.128	28.55
254.346	28.34
254.563	27.65
254.781	17.39
254.998	18.83
255.216	8
255.433	-0.21
255.651	-2.81
255.868	-0.14
256.086	-2.53
256.303	7.13
256.521	-2.19
256.738	-0.07
256.956	4.03
257.173	14.56
257.39	10.38
257.608	22.69
257.825	17.43
258.043	25.66
258.26	27.97
258.477	29.66
258.695	24.21
258.912	36.24
259.129	16.53
259.346	19.13
259.564	8.56
259.781	14.19
259.998	12.58
260.216	21.56
260.433	17.03
260.65	22.83
260.867	19.73
261.084	27.55
261.302	20.3
261.519	7.59
261.736	-6.13
261.953	-11.9
262.17	0.31
262.387	7.16
262.604	-10.32
262.822	1.49
263.039	9.37
263.256	8.75
263.473	1.61
263.69	2.26
263.907	-1
264.124	-0.7
264.341	-2.77
264.558	7.06
264.775	11.96
264.992	20.89
265.209	22.84
265.426	19.42
265.643	28.33
265.86	21.89
266.077	18.5
266.294	12.76
266.51	13.36
266.727	-3.17
266.944	-7
267.161	-18.95
267.378	-15.55
267.595	-25.97
267.812	-16.79
268.028	-16.2
268.245	-7.69
268.462	-4.16
268.679	-1.85
268.896	-4.41
269.112	9.25
269.329	10.51
269.546	9.23
269.763	16.78
269.979	17.43
270.196	18.54
270.413	17.16
270.629	9.12
270.846	17
271.063	14.12
271.279	12.75
271.496	0.74
271.712	1.71
271.929	17.55
272.146	27.5
272.362	-4.98
272.579	-0.71
272.795	-9.76
273.012	1.75
273.228	-1.91
273.445	-3
273.661	-6.5
273.878	16.77
274.094	18.47
274.311	16.57
274.527	12.52
274.744	11.94
274.96	1.27
275.177	5.86
275.393	-0.23
275.609	-1.42
275.826	4.29
276.042	19.02
276.259	28.64
276.475	29.96
276.691	27.45
276.908	27.17
277.124	25.99
277.34	17.94
277.557	12.18
277.773	6.69
277.989	1.14
278.205	-8.5
278.422	-5.17
278.638	7.25
278.854	4.88
279.07	-4.43
279.286	-6.53
279.503	4.84
279.719	22.88
279.935	16.7
280.151	19.49
280.367	26.55
280.583	31.27
280.799	32.69
281.016	24.57
281.232	15.63
281.448	3.56
281.664	-12.14
281.88	-0.23
282.096	-5.55
282.312	-15.3
282.528	-14.04
282.744	-16.13
282.96	-0.52
283.176	0.55
283.392	-4.84
283.608	6.99
283.824	10.79
284.04	15.09
284.256	18.29
284.471	19.1
284.687	18.24
284.903	16.91
285.119	2.67
285.335	7.88
285.551	16.26
285.767	15.96
285.982	10.07
286.198	12.52
286.414	23.72
286.63	34
286.846	31.41
287.061	26.52
287.277	25.11
287.493	22.04
287.709	20.32
287.924	14.61
288.14	12.85
288.356	13.39
288.571	8.6
288.787	15.78
289.003	26.77
289.218	20.43
289.434	19.6
289.65	23.91
289.865	25.51
290.081	22.05
290.296	16.28
290.512	21.22
290.727	36.25
290.943	27.27
291.159	12.04
291.374	11.07
291.59	21.04
291.805	32.2
292.021	20.62
292.236	15.47
292.451	13.97
292.667	28.79
292.882	27.1
293.098	20.18
293.313	14.97
293.529	19.95
293.744	17.52
293.959	26.39
294.175	20.88
294.39	25.67
294.605	25.42
294.821	22.6
295.036	29.06
295.251	20.63
295.467	15.31
295.682	19.05
295.897	18.83
296.112	16.97
296.328	21.32
296.543	15.82
296.758	18.58
296.973	24.18
297.188	16.73
297.404	20.54
297.619	12.74
297.834	17.64
298.049	14.9
298.264	16.08
298.479	3.49
298.694	9.06
298.909	-0.37
299.125	9.65
299.34	-2.41
299.555	2.21
299.77	-1.83
299.985	2.69
300.2	3.81
300.415	7.87
300.63	6.36
300.845	12.29
301.06	5.09
301.275	10.22
301.49	18.75
301.704	13.74
301.919	6.39
302.134	-1.9
302.349	-10.01
302.564	-17.22
302.779	-15.63
302.994	-30.47
303.209	-33.95
303.423	-14.21
303.638	-4.57
303.853	4.07
304.068	16.67
304.283	14.59
304.497	18.96
304.712	25.04
304.927	19.24
305.142	22.33
305.356	20.22
305.571	23.18
305.786	17.06
306	11.46
306.215	7.99
306.43	10.19
306.644	6.95
306.859	9.4
307.074	3.76
307.288	9.49
307.503	17.94
307.717	10.76
307.932	14.88
308.147	16.18
308.361	13.72
308.576	19.22
308.79	14.78
309.005	16.07
309.219	20.87
309.434	14.61
309.648	0.1
309.863	-2.14
310.077	-9.65
310.292	-1.61
310.506	10.37
310.72	11.82
310.935	14.73
311.149	26.68
311.364	31.05
311.578	28.61
311.792	12.9
312.007	2.83
312.221	2.41
312.435	1.23
312.649	5.08
312.864	3.46
313.078	2.25
313.292	19.94
313.507	35.53
313.721	41.99
313.935	50.42
314.149	29.64
314.363	30.14
314.578	42.42
314.792	39.71
315.006	35.61
315.22	41.83
315.434	25.66
315.648	31.28
315.862	39.73
316.077	41.74
316.291	46.42
316.505	37.93
316.719	22.84
316.933	36
317.147	30.88
317.361	17.77
317.575	9.99
317.789	12.45
318.003	7.29
318.217	12.94
318.431	12.8
318.645	12.25
318.859	4.05
319.073	8.14
319.287	9.79
319.5	18.4
319.714	19.39
319.928	23.23
320.142	27.34
320.356	40.66
320.57	37.26
320.784	33.07
320.997	33.73
321.211	29.64
321.425	21.25
321.639	22.89
321.853	19.22
322.066	17.65
322.28	21.12
322.494	9.98
322.707	14.55
322.921	21.18
323.135	23.32
323.349	24.79
323.562	24.78
323.776	21.25
323.989	22.06
324.203	18.32
324.417	7.84
324.63	-1.39
324.844	-12.69
325.057	-7.75
325.271	-26.88
325.485	-14.19
325.698	-2.5
325.912	10.08
326.125	12.16
326.339	19.37
326.552	22.54
326.766	42.12
326.979	32.24
327.193	25.65
327.406	15.91
327.619	6.73
327.833	-4.26
328.046	-0.22
328.26	-12.84
328.473	-5.1
328.686	0.44
328.9	-3.31
329.113	8.36
329.326	21.4
329.54	5.13
329.753	11.12
329.966	11.39
330.179	10.18
330.393	12.3
330.606	15.94
330.819	14.76
331.032	20.05
331.246	17.67
331.459	23.45
331.672	23.15
331.885	23.98
332.098	17.81
332.311	-3.6
332.525	8.87
332.738	12.66
332.951	10.42
333.164	3.77
333.377	-0.58
333.59	3.91
333.803	21.71
334.016	14.69
334.229	15.76
334.442	18.26
334.655	24.53
334.868	30.51
335.081	29.32
335.294	21.4
335.507	26.63
335.72	13.9
335.933	10.84
336.146	11.28
336.359	12.41
336.572	14.79
336.785	27.97
336.997	20.38
337.21	25.61
337.423	28.94
337.636	31.09
337.849	25.2
338.062	28.54
338.274	23.05
338.487	26.8
338.7	25.06
338.913	19.04
339.125	16.77
339.338	21.44
339.551	15.49
339.763	13.51
339.976	13.69
340.189	9.02
340.402	13.35
340.614	16.84
340.827	9.35
341.039	9.41
341.252	11.2
341.465	4.92
341.677	7.08
341.89	8.31
342.102	6.52
342.315	14.89
342.527	15.61
342.74	11.16
342.952	17.16
343.165	20.39
343.377	15.22
343.59	13.83
343.802	4.34
344.015	4.64
344.227	-0.32
344.44	-1.74
344.652	-0.86
344.864	7.66
345.077	5.01
345.289	7.61
345.502	9.71
345.714	11.67
345.926	5.45
346.139	6.25
346.351	-11.32
346.563	-7.61
346.775	-6.01
346.988	0.67
347.2	5.54
347.412	10.26
347.624	10.3
347.837	14.66
348.049	12.74
348.261	12.83
348.473	1.82
348.685	0.29
348.897	4.62
349.11	2.55
349.322	0.58
349.534	0.37
349.746	8.38
349.958	16.3
350.17	15.59
350.382	-0.47
350.594	0.2
350.806	11.23
351.018	16.35
351.23	16.34
351.442	11.36
351.654	22.52
351.866	36.41
352.078	35
352.29	37.46
352.502	36.24
352.714	40.75
352.926	41.38
353.138	33.58
353.35	19.48
353.561	19.25
353.773	8.57
353.985	11.03
354.197	3.67
354.409	5.38
354.621	8.36
354.832	8.98
355.044	18.28
355.256	16.4
355.468	11.84
355.679	11.18
355.891	13.89
356.103	13.77
356.314	17.27
356.526	7.37
356.738	-3.5
356.949	3.39
357.161	6.56
357.373	4.93
357.584	1.58
357.796	-0.72
358.008	10.21
358.219	32.47
358.431	28.18
358.642	17.87
358.854	17.39
359.065	9.24
359.277	2.5
359.488	-0.4
359.7	0.43
359.911	-3.29
360.123	3.44
360.334	2.59
360.546	-0.38
360.757	10.29
360.969	8.53
361.18	-0.62
361.391	8.27
361.603	11.26
361.814	14.83
362.025	24.69
362.237	25.72
362.448	25.36
362.659	20.95
362.871	21.78
363.082	24.12
363.293	29.65
363.504	28.36
363.716	22.46
363.927	25.4
364.138	34.62
364.349	39.97
364.56	37.09
364.772	27.81
364.983	21.14
365.194	26.01
365.405	21.87
365.616	10.35
365.827	-5.4
366.038	-0.42
366.25	6
366.461	14.91
366.672	14.51
366.883	15.49
367.094	15.27
367.305	14.56
367.516	10.43
367.727	9.58
367.938	7.21
368.149	2.54
368.36	7.73
368.571	13.77
368.781	12.02
368.992	17.04
369.203	14.42
369.414	10.05
369.625	14.42
369.836	10.77
370.047	5.17
370.258	0.48
370.468	-5.11
370.679	-4.32
370.89	5.06
371.101	1.38
371.312	-1.38
371.522	1.74
371.733	2.04
371.944	4.36
372.155	-3.49
372.365	-9.81
372.576	-12.16
372.787	-13.25
372.997	-19.1
373.208	-9.4
373.419	-13.76
373.629	-3.09
373.84	-6.43
374.05	2.39
374.261	2.6
374.472	8.51
374.682	3.63
374.893	-5.07
375.103	3.76
375.314	9.53
375.524	7.34
375.735	11.33
375.945	11.89
376.156	9.54
376.366	20.8
376.577	16.33
376.787	18.93
376.997	23.25
377.208	21.2
377.418	21.58
377.629	29.78
377.839	26.41
378.049	28.28
378.26	26
378.47	25.13
378.68	26.84
378.89	20.02
379.101	7.98
379.311	10.18
379.521	10.01
379.732	6.57
379.942	5.54
380.152	5.76
380.362	10.97
380.572	21.73
380.783	19.54
380.993	20.82
381.203	21.54
381.413	21.16
381.623	20.1
381.833	17.04
382.043	10.05
382.253	10.73
382.463	10.32
382.674	8.83
382.884	8.89
383.094	5.99
383.304	3.31
383.514	11.95
383.724	12.9
383.934	8.88
384.144	16.74
384.353	11.58
384.563	15.81
384.773	19.47
384.983	15.63
385.193	15.39
385.403	16.09
385.613	6.62
385.823	9.1
386.033	5.04
386.242	0.18
386.452	-0.63
386.662	-1.01
386.872	-3.05
387.082	-0.77
387.291	0.47
387.501	0.41
387.711	2.2
387.921	3.97
388.13	3.65
388.34	2.28
388.55	4.93
388.759	1.47
388.969	1.74
389.179	5.79
389.388	3.62
389.598	2.14
389.807	4.2
390.017	2.95
390.227	5.25
390.436	6.26
390.646	4.4
390.855	4.03
391.065	5.26
391.274	5.07
391.484	5.6
391.693	4.49
391.903	3.95
392.112	2.77
392.322	4.29
392.531	4.23
392.74	3.07
392.95	3.16
393.159	4.77
393.369	4.15
393.578	4.58
393.787	3.88
393.997	4.24
394.206	5.14
394.415	4.95
394.625	3.76
394.834	4.04
395.043	4.75
395.252	5.73
395.462	5.27
395.671	5.6
395.88	5.33
396.089	5.79
396.298	5.89
396.508	5.39
396.717	4.84
396.926	4.58
397.135	3.76
397.344	3.89
397.553	3.8
397.762	3.65
397.971	4.07
398.181	3.91
398.39	4.05
398.599	4.55
398.808	4.51
399.017	4.59
399.226	4.85
399.435	4.51
399.644	4.43
399.853	4.44
400.062	4.2
400.27	4.21
400.479	4.14
400.688	3.93
400.897	4.22
401.106	4.5
401.315	4.32
401.524	4.53
401.733	4.36
401.941	4.44
402.15	4.21
402.359	4.1
402.568	3.89
402.777	4.01
402.985	3.97
403.194	4.04
403.403	3.83
403.612	4.04
403.82	3.9
404.029	3.98
404.238	3.9
404.446	3.87
404.655	3.79
404.864	3.84
405.072	3.85
405.281	3.84
405.489	3.81
405.698	3.86
405.906	3.75
406.115	3.87
406.324	3.8
406.532	3.73
406.741	3.83
406.949	3.78
407.158	3.84
407.366	3.95
407.574	3.98
407.783	3.98
407.991	3.97
408.2	3.88
408.408	3.9
408.617	3.81
408.825	3.75
409.033	3.66
409.242	3.67
409.45	3.67
409.658	3.65
409.867	3.66
410.075	3.63
410.283	3.57
410.491	3.5
410.7	3.51
410.908	3.54
411.116	3.5
411.324	3.5
411.533	3.47
411.741	3.48
411.949	3.55
412.157	3.56
412.365	3.51
412.573	3.57
412.781	3.54
412.99	3.68
413.198	3.67
413.406	3.58
413.614	3.58
413.822	3.53
414.03	3.42
414.238	3.48
414.446	3.33
414.654	3.35
414.862	3.33
415.07	3.32
415.278	3.28
415.486	3.4
415.694	3.29
415.902	3.31
416.109	3.25
416.317	3.25
416.525	3.35
416.733	3.37
416.941	3.29
417.149	3.38
417.357	3.47
417.564	3.5
417.772	3.52
417.98	3.36
418.188	3.3
418.395	3.25
418.603	3.13
418.811	2.99
419.019	3.02
419.226	3.05
419.434	3.03
419.642	3.04
419.849	3.11
420.057	3.23
420.265	3.23
420.472	3.18
420.68	3.14
420.887	3.22
421.095	3.35
421.302	3.32
421.51	3.25
421.717	3.3
421.925	3.25
422.132	3.21
422.34	3.15
422.547	3.03
422.755	2.97
422.962	2.87
423.17	2.83
423.377	2.89
423.585	2.95
423.792	2.94
423.999	2.95
424.207	2.87
424.414	3.02
424.621	3.03
424.829	2.96
425.036	2.92
425.243	2.98
425.451	3
425.658	3.19
425.865	3.01
426.072	2.96
426.28	3.03
426.487	3.03
426.694	2.96
426.901	2.91
427.108	2.83
427.315	2.93
427.523	2.96
427.73	3.05
427.937	3.09
428.144	3.14
428.351	3.27
428.558	3.19
428.765	3.19
428.972	3.22
429.179	3.09
429.386	3.15
429.593	3.11
429.8	3.16
430.007	3.29
430.214	3.3
430.421	3.25
430.628	3.19
430.835	3.08
431.042	3.11
431.249	2.97
431.456	3.01
431.662	3.06
431.869	3.11
432.076	3.21
432.283	3.26
432.49	3.25
432.697	3.32
432.903	3.27
433.11	3.27
433.317	3.31
433.524	3.29
433.73	3.3
433.937	3.33
434.144	3.42
434.35	3.38
434.557	3.34
434.764	3.41
434.97	3.46
435.177	3.49
435.384	3.57
435.59	3.54
435.797	3.63
436.003	3.63
436.21	3.52
436.416	3.47
436.623	3.52
436.829	3.45
437.036	3.41
437.242	3.35
437.449	3.38
437.655	3.45
437.862	3.45
438.068	3.5
438.275	3.55
438.481	3.61
438.687	3.75
438.894	3.84
439.1	3.84
439.307	3.85
439.513	3.81
439.719	3.82
439.926	3.81
440.132	3.74
440.338	3.7
440.544	3.7
440.751	3.74
440.957	3.73
441.163	3.76
441.369	3.77
441.575	3.78
441.782	3.78
441.988	3.75
442.194	3.81
442.4	3.86
442.606	3.91
442.812	3.91
443.018	3.92
443.224	3.95
443.431	3.99
443.637	3.93
443.843	3.93
444.049	3.88
444.255	3.85
444.461	3.89
444.667	3.9
444.873	3.9
445.079	3.92
445.284	3.85
445.49	3.83
445.696	3.85
445.902	3.87
446.108	3.9
446.314	3.96
446.52	3.96
446.726	4.03
446.931	4.13
447.137	4.15
447.343	4.13
447.549	4.09
447.755	4.06
447.96	4.12
448.166	4.16
448.372	4.14
448.578	4.16
448.783	4.19
448.989	4.19
449.195	4.22
449.4	4.2
449.606	4.14
449.812	4.2
450.017	4.21
450.223	4.18
450.428	4.23
450.634	4.26
450.84	4.3
451.045	4.32
451.251	4.29
451.456	4.26
451.662	4.29
451.867	4.3
452.073	4.27
452.278	4.25
452.483	4.3
452.689	4.27
452.894	4.29
453.1	4.3
453.305	4.28
453.51	4.33
453.716	4.34
453.921	4.28
454.127	4.31
454.332	4.31
454.537	4.37
454.742	4.38
454.948	4.4
455.153	4.42
455.358	4.47
455.563	4.51
455.769	4.53
455.974	4.46
456.179	4.43
456.384	4.42
456.589	4.45
456.795	4.41
457	4.39
457.205	4.37
457.41	4.41
457.615	4.47
457.82	4.54
458.025	4.51
458.23	4.54
458.435	4.54
458.64	4.6
458.845	4.6
459.05	4.64
459.255	4.56
459.46	4.54
459.665	4.63
459.87	4.67
460.075	4.69
460.28	4.71
460.485	4.68
460.69	4.67
460.895	4.74
461.099	4.71
461.304	4.72
461.509	4.64
461.714	4.63
461.919	4.65
462.123	4.77
462.328	4.78
462.533	4.8
462.738	4.81
462.942	4.89
463.147	4.94
463.352	4.97
463.556	4.98
463.761	4.97
463.966	5
464.17	5.02
464.375	5.04
464.58	4.99
464.784	5.05
464.989	5
465.193	5.03
465.398	5
465.602	5
465.807	4.99
466.011	5.04
466.216	5
466.42	5.01
466.625	5.03
466.829	5.08
467.034	5.08
467.238	5.12
467.443	5.15
467.647	5.14
467.851	5.15
468.056	5.12
468.26	5.07
468.464	5.07
468.669	5.08
468.873	5.05
469.077	5.11
469.282	5.19
469.486	5.25
469.69	5.3
469.894	5.39
470.099	5.41
470.303	5.43
470.507	5.44
470.711	5.4
470.915	5.41
