Data from Ofra_PS_T2_2A_2GT38_Reflection_1.txt Node
Date: Wed Jul 21 17:03:57 EDT 2021
User: Adam
Spectrometer: FLMT01687
Trigger mode: 0
Integration Time (sec): 1.100000E0
Scans to average: 2
Electric dark correction enabled: true
Nonlinearity correction enabled: false
Boxcar width: 2
XAxis mode: Wavelengths
Number of Pixels in Spectrum: 3648
>>>>>Begin Spectral Data<<<<<
179.494	505.6
179.716	570.12
179.937	535.48
180.158	513.25
180.38	936.25
180.601	300.55
180.823	61.64
181.044	-10.9
181.265	190.44
181.486	10.72
181.708	100.69
181.929	883.67
182.15	-402.82
182.372	77.7
182.593	50.87
182.814	35.97
183.035	80.17
183.257	81.28
183.478	29.15
183.699	16.96
183.92	-5.37
184.141	-4.79
184.363	-39.94
184.584	31.71
184.805	53.8
185.026	66
185.247	62.86
185.468	42.28
185.689	37.35
185.91	23.51
186.132	25
186.353	31.33
186.574	84
186.795	55.26
187.016	40.85
187.237	33.55
187.458	19
187.679	14.44
187.9	46.27
188.121	45.51
188.342	105.27
188.563	88.35
188.784	83.56
189.005	71.34
189.226	116.97
189.447	67.41
189.667	41.75
189.888	-15.27
190.109	-515.58
190.33	-469.03
190.551	-940.71
190.772	-199.27
190.993	-174.94
191.214	-124.67
191.434	-93.45
191.655	-1.96
191.876	-11.37
192.097	-53.15
192.318	-104.1
192.538	-108.5
192.759	-102.73
192.98	-39.95
193.201	11.53
193.421	16.52
193.642	20.94
193.863	28.79
194.083	1.69
194.304	-19.49
194.525	-14.1
194.745	-26.76
194.966	-52.71
195.187	-25.59
195.407	-45.1
195.628	-86.12
195.848	-91.28
196.069	-69.18
196.29	-70.11
196.51	-73.86
196.731	-60.52
196.951	-58.95
197.172	-53.67
197.392	-71.01
197.613	-43.95
197.833	-85.94
198.054	-71.39
198.274	-39.58
198.495	-42.55
198.715	-16.34
198.936	-15.81
199.156	-18.51
199.377	-74.84
199.597	-75.79
199.817	-90.22
200.038	-34.89
200.258	-97.09
200.479	-29.49
200.699	-20.85
200.919	31.57
201.14	14.43
201.36	16.11
201.58	12.89
201.801	38.48
202.021	-8.61
202.241	-19.52
202.461	-6.81
202.682	-87.46
202.902	-148.54
203.122	-45.61
203.342	-30.16
203.563	-18.81
203.783	20.07
204.003	-17.34
204.223	-57.04
204.443	5.48
204.663	-11.2
204.884	-8.69
205.104	33.46
205.324	68.11
205.544	77.51
205.764	91.35
205.984	81.21
206.204	69.23
206.424	55.02
206.644	22.66
206.864	9.95
207.084	-33.98
207.304	-7.18
207.525	-74.38
207.745	-33.4
207.964	8.78
208.184	-18.81
208.404	-70.43
208.624	-95.97
208.844	-97.34
209.064	-379.72
209.284	-426.17
209.504	-220.26
209.724	-56.99
209.944	-20
210.164	12.27
210.384	36.04
210.604	39.83
210.823	14.29
211.043	-20.61
211.263	-14.58
211.483	-11.29
211.703	-53.98
211.922	-22.91
212.142	42.98
212.362	66.53
212.582	47.3
212.801	43.7
213.021	30.51
213.241	6.32
213.461	-26.22
213.68	-63.12
213.9	-51.5
214.12	-57.46
214.339	-114.66
214.559	-90.48
214.779	-16.75
214.998	19
215.218	13.86
215.438	37.04
215.657	20.7
215.877	-4.85
216.096	-8.89
216.316	-7.2
216.535	-16.72
216.755	-16
216.974	-96.37
217.194	-141.25
217.413	-123.84
217.633	-138.13
217.852	-243.19
218.072	-105.86
218.291	-53.07
218.511	-13.74
218.73	-16.64
218.95	-0.69
219.169	0.43
219.389	-44.09
219.608	-21.07
219.827	-4.23
220.047	8.89
220.266	22.67
220.485	46.12
220.705	27.96
220.924	0.71
221.143	22.25
221.363	1.28
221.582	6.41
221.801	12.05
222.021	26.67
222.24	-23.6
222.459	3.96
222.678	-37.81
222.897	-55.7
223.117	-83.99
223.336	-16.3
223.555	17.46
223.774	92.87
223.993	104.37
224.213	141.22
224.432	115.77
224.651	110.81
224.87	53.49
225.089	61.32
225.308	40.42
225.527	52.73
225.746	32.25
225.965	49.87
226.184	25.43
226.404	25.68
226.623	-8.86
226.842	9.07
227.061	19.93
227.28	30.78
227.499	32.02
227.718	42.3
227.936	24.78
228.155	29.93
228.374	9.98
228.593	14.67
228.812	10.17
229.031	21.45
229.25	-22.89
229.469	-20.86
229.688	-23.25
229.907	15.23
230.125	27.36
230.344	38.89
230.563	33.68
230.782	38.61
231.001	-47.91
231.22	-54.43
231.438	-30.32
231.657	-16.24
231.876	-15.16
232.095	46.25
232.313	51.58
232.532	32.15
232.751	13.53
232.969	-17.38
233.188	-99.83
233.407	-26.28
233.625	6.26
233.844	3.35
234.063	16.12
234.281	21.22
234.5	6.39
234.719	4.1
234.937	21.03
235.156	21.32
235.374	20.55
235.593	19.21
235.811	13.67
236.03	-1.84
236.249	-28.2
236.467	-10.83
236.686	8.52
236.904	18.73
237.123	4.37
237.341	13.57
237.559	10.11
237.778	-12.41
237.996	-32.37
238.215	9.29
238.433	17.81
238.652	17.48
238.87	2.08
239.088	11.54
239.307	0.5
239.525	-6.55
239.743	-15.27
239.962	12.59
240.18	-12.01
240.398	-38.97
240.617	-54.77
240.835	-41.54
241.053	-20.97
241.271	27.64
241.49	50.83
241.708	74.82
241.926	43.77
242.144	48.14
242.363	-4.11
242.581	-38.09
242.799	-37.69
243.017	6.15
243.235	-31.84
243.453	-18.71
243.672	-7.44
243.89	-7.37
244.108	-29.81
244.326	-7.96
244.544	-9.07
244.762	-13.89
244.98	2.28
245.198	17.37
245.416	2.85
245.634	-11.54
245.852	-11.84
246.07	-6.65
246.288	-11.12
246.506	-47.03
246.724	-2.66
246.942	-14.4
247.16	-7.81
247.378	2.15
247.596	32.66
247.814	20.43
248.032	-3.88
248.25	-3.46
248.468	12.49
248.685	16.85
248.903	41.83
249.121	52.48
249.339	35.66
249.557	24.05
249.775	22.29
249.992	-38.98
250.21	-29.24
250.428	-19.12
250.646	-65.62
250.863	-75.6
251.081	-30.27
251.299	-25.44
251.517	-23.71
251.734	9.08
251.952	2.28
252.17	-10.39
252.387	-1.88
252.605	-6.07
252.823	-4.56
253.04	17.02
253.258	42.68
253.475	48.85
253.693	79.34
253.911	77.78
254.128	84.37
254.346	74.63
254.563	41.98
254.781	5.77
254.998	-16.23
255.216	-39.91
255.433	-11.7
255.651	31.22
255.868	53.54
256.086	99.54
256.303	87.12
256.521	56.16
256.738	37.34
256.956	5.22
257.173	-23.03
257.39	-38.68
257.608	-62.93
257.825	-15.77
258.043	17.68
258.26	26.13
258.477	64.64
258.695	73.28
258.912	11.22
259.129	7.83
259.346	-35.21
259.564	-63.79
259.781	-78.56
259.998	6.77
260.216	45.6
260.433	83.42
260.65	70.54
260.867	72.44
261.084	32.44
261.302	-0.97
261.519	-15.45
261.736	-34.95
261.953	-46.05
262.17	-23.68
262.387	-32.92
262.604	-77.67
262.822	-77.2
263.039	-63.03
263.256	-91.08
263.473	-47.62
263.69	-12.45
263.907	16.01
264.124	6.87
264.341	9.91
264.558	-1.27
264.775	14.68
264.992	-1.29
265.209	10.42
265.426	33.2
265.643	37.35
265.86	38.07
266.077	46.38
266.294	48.52
266.51	8.77
266.727	-6.85
266.944	-6.51
267.161	-24.47
267.378	-15.37
267.595	2.34
267.812	-7.02
268.028	-30.13
268.245	2.76
268.462	-15.27
268.679	-17.82
268.896	25.69
269.112	40.23
269.329	30.57
269.546	41.3
269.763	43.58
269.979	18.03
270.196	0.63
270.413	-13.46
270.629	-40.39
270.846	-38.82
271.063	-23.24
271.279	-32.76
271.496	-38.77
271.712	-2.93
271.929	-14.31
272.146	-24.05
272.362	-6.91
272.579	27.62
272.795	17.77
273.012	40.87
273.228	52.23
273.445	13.11
273.661	13.87
273.878	-16.68
274.094	-42.97
274.311	-59.58
274.527	13.43
274.744	-6.15
274.96	2.12
275.177	11.17
275.393	11.13
275.609	4.97
275.826	19.16
276.042	14.33
276.259	5.04
276.475	35.27
276.691	41.85
276.908	27.62
277.124	47.92
277.34	46.31
277.557	35.2
277.773	14.17
277.989	18.5
278.205	-14.04
278.422	16.23
278.638	13.18
278.854	30.61
279.07	28.8
279.286	53.35
279.503	18.81
279.719	-3.94
279.935	-19.6
280.151	-17.94
280.367	-10.12
280.583	-29.86
280.799	-16.58
281.016	-46.57
281.232	-26.97
281.448	-31.15
281.664	-5.04
281.88	-28.81
282.096	4.43
282.312	35.62
282.528	46.01
282.744	37.32
282.96	46.95
283.176	18.21
283.392	19.01
283.608	6.64
283.824	15.59
284.04	16.65
284.256	32.54
284.471	11.39
284.687	11.42
284.903	35.19
285.119	62.83
285.335	32.47
285.551	63.27
285.767	60.8
285.982	34.57
286.198	-14.69
286.414	40.36
286.63	36.9
286.846	40.17
287.061	19.49
287.277	51.57
287.493	27.82
287.709	35.15
287.924	27.67
288.14	56.93
288.356	41.59
288.571	63.75
288.787	38.68
289.003	44.35
289.218	38.14
289.434	18.72
289.65	20.21
289.865	17.87
290.081	37.25
290.296	23.98
290.512	18.61
290.727	-3.97
290.943	-4.55
291.159	-17.01
291.374	-8.01
291.59	-10.14
291.805	-10.97
292.021	-12.2
292.236	-15.53
292.451	-0.52
292.667	6.9
292.882	21.77
293.098	33.35
293.313	17.11
293.529	-8.94
293.744	-23.1
293.959	-24.61
294.175	-13.02
294.39	18.64
294.605	26.78
294.821	36.25
295.036	36.48
295.251	39.56
295.467	23.48
295.682	20.36
295.897	-14.24
296.112	-25.86
296.328	-31.48
296.543	-60.6
296.758	-60.55
296.973	-5.34
297.188	26.39
297.404	1.95
297.619	8.37
297.834	5.9
298.049	-5.29
298.264	-29.48
298.479	5.67
298.694	16.84
298.909	21.71
299.125	23.91
299.34	22.42
299.555	6.07
299.77	2.65
299.985	-19.32
300.2	-56.03
300.415	-63.64
300.63	-25.98
300.845	-40.4
301.06	-34.13
301.275	-4.19
301.49	12.56
301.704	-10.43
301.919	-13.79
302.134	-27.94
302.349	-45.12
302.564	-90.69
302.779	-98.78
302.994	-64.11
303.209	-10.84
303.423	21.63
303.638	58.64
303.853	32.33
304.068	10.69
304.283	13.51
304.497	15.97
304.712	10.46
304.927	14.51
305.142	14.54
305.356	7.85
305.571	3.67
305.786	-20.5
306	-25.27
306.215	-19.82
306.43	-28.91
306.644	-18.16
306.859	40.74
307.074	43.41
307.288	25.28
307.503	6.3
307.717	-16.77
307.932	-36.61
308.147	-43.17
308.361	-14.15
308.576	-1.21
308.79	-26.96
309.005	-26.1
309.219	-10.81
309.434	-27.69
309.648	-18.82
309.863	9.07
310.077	20.9
310.292	16.71
310.506	14.63
310.72	26.8
310.935	39.45
311.149	29.37
311.364	46.39
311.578	54.35
311.792	37.79
312.007	31.79
312.221	22.42
312.435	13.26
312.649	-6.16
312.864	-21.66
313.078	-10.92
313.292	37.03
313.507	26.61
313.721	100
313.935	77.41
314.149	71.82
314.363	46.99
314.578	36.96
314.792	24.83
315.006	13.34
315.22	14.86
315.434	16.72
315.648	32.83
315.862	30.26
316.077	32.7
316.291	32.61
316.505	48.14
316.719	43.77
316.933	28.19
317.147	25.2
317.361	-15.55
317.575	-54.2
317.789	-68.5
318.003	-114.78
318.217	-67.07
318.431	-4.62
318.645	36.78
318.859	25.31
319.073	43.05
319.287	21.58
319.5	-12
319.714	-48.36
319.928	-68.69
320.142	-95.01
320.356	-31.05
320.57	18.11
320.784	22.9
320.997	10.44
321.211	20.59
321.425	-40.4
321.639	-75.22
321.853	-20.13
322.066	2.04
322.28	-0.55
322.494	23.28
322.707	51.03
322.921	22.82
323.135	14.42
323.349	26.28
323.562	-1.27
323.776	-26.15
323.989	-5.83
324.203	-19.09
324.417	-28.28
324.63	-43.52
324.844	-33.89
325.057	-44.66
325.271	-16.16
325.485	3.25
325.698	30.28
325.912	34.73
326.125	24
326.339	19.17
326.552	-2.85
326.766	5.6
326.979	15.61
327.193	36.9
327.406	17.77
327.619	30.83
327.833	33.79
328.046	17.09
328.26	-15.68
328.473	13.99
328.686	-17.54
328.9	-22.12
329.113	8.14
329.326	2.15
329.54	13.44
329.753	20.37
329.966	17.02
330.179	8.07
330.393	28.41
330.606	20.89
330.819	29.36
331.032	35.57
331.246	33.54
331.459	44.02
331.672	31.59
331.885	21.9
332.098	5.73
332.311	-7.1
332.525	-50.92
332.738	-29.54
332.951	6.69
333.164	33.82
333.377	50.45
333.59	73.31
333.803	75.77
334.016	55.12
334.229	53.07
334.442	37.05
334.655	46.54
334.868	44.52
335.081	55.87
335.294	33.72
335.507	37.46
335.72	16.77
335.933	3.19
336.146	-14.9
336.359	3.14
336.572	-16.14
336.785	-31.89
336.997	-20.04
337.21	16.83
337.423	-7.38
337.636	-2.17
337.849	11.8
338.062	7.11
338.274	-5.67
338.487	-5.32
338.7	-3.69
338.913	-33.21
339.125	-53.99
339.338	-101.06
339.551	-60.04
339.763	-34.38
339.976	-14.58
340.189	4.13
340.402	22.34
340.614	0.12
340.827	-4.21
341.039	-23.43
341.252	-18.8
341.465	-8.83
341.677	4.26
341.89	-28.18
342.102	9.67
342.315	2
342.527	-9.05
342.74	-20.9
342.952	19.88
343.165	16
343.377	33.14
343.59	30.56
343.802	39.48
344.015	29.64
344.227	37.06
344.44	27.43
344.652	34.61
344.864	17.88
345.077	39
345.289	33.55
345.502	35.49
345.714	18.44
345.926	35.37
346.139	35.93
346.351	52.68
346.563	53.31
346.775	59.73
346.988	48.11
347.2	24.92
347.412	-36.65
347.624	-60.44
347.837	-72.88
348.049	-57.13
348.261	-18.11
348.473	8.7
348.685	22.3
348.897	29.63
349.11	13.48
349.322	3.15
349.534	12.55
349.746	10
349.958	6.38
350.17	5.86
350.382	10.85
350.594	10
350.806	19.81
351.018	21.66
351.23	8.2
351.442	-24.86
351.654	-35.34
351.866	-41.03
352.078	-32.01
352.29	0.86
352.502	21.07
352.714	19.94
352.926	3.9
353.138	-4.52
353.35	-10.26
353.561	-11.67
353.773	-18.33
353.985	9.17
354.197	13.43
354.409	8.21
354.621	1.83
354.832	15.85
355.044	1.67
355.256	-3.22
355.468	11.62
355.679	11.09
355.891	15.44
356.103	7.35
356.314	22.05
356.526	16.44
356.738	21.61
356.949	6.63
357.161	28.55
357.373	17.02
357.584	9.66
357.796	22.2
358.008	24.4
358.219	29.83
358.431	28.81
358.642	41.01
358.854	25.74
359.065	27.34
359.277	-1.25
359.488	-7.43
359.7	-30.62
359.911	-45.67
360.123	-39.57
360.334	-44.69
360.546	-52.73
360.757	-50.47
360.969	-33.81
361.18	-37.89
361.391	-10.28
361.603	-15.87
361.814	-6.67
362.025	-2.46
362.237	-3.47
362.448	-3.82
362.659	5.7
362.871	5.86
363.082	-1.05
363.293	2.78
363.504	-7.3
363.716	-22.01
363.927	-34.65
364.138	-50.36
364.349	-49.17
364.56	-41.5
364.772	-22
364.983	2.46
365.194	5.63
365.405	16.35
365.616	24.44
365.827	20.6
366.038	5.11
366.25	11.33
366.461	-28.66
366.672	-5.69
366.883	4.44
367.094	11.88
367.305	-5.12
367.516	6.33
367.727	-13.59
367.938	-27.87
368.149	-31.73
368.36	-7.19
368.571	2.43
368.781	-10.9
368.992	-23.21
369.203	-33.81
369.414	-44.04
369.625	-59.23
369.836	-53.86
370.047	-70.01
370.258	-59.69
370.468	-62.58
370.679	-57.92
370.89	-47.35
371.101	-11.78
371.312	-15.9
371.522	-2.85
371.733	-6.62
371.944	3.57
372.155	-1.51
372.365	-4.83
372.576	-3.72
372.787	-4.64
372.997	-41.34
373.208	-32.09
373.419	-1.46
373.629	-32.19
373.84	-42.54
374.05	-31.26
374.261	-31.49
374.472	-50.87
374.682	-8.25
374.893	4.01
375.103	34.15
375.314	22.97
375.524	27.29
375.735	24.62
375.945	22.7
376.156	-4.68
376.366	5.92
376.577	-0.84
376.787	1.7
376.997	5.12
377.208	13.71
377.418	9.9
377.629	25.98
377.839	21.27
378.049	23.61
378.26	36.28
378.47	39.77
378.68	23.92
378.89	20.13
379.101	10.86
379.311	-15.91
379.521	-41.9
379.732	-38.87
379.942	-37.76
380.152	-50.3
380.362	-21.12
380.572	-15.15
380.783	-3.32
380.993	2.18
381.203	18.53
381.413	12.23
381.623	17.27
381.833	17.64
382.043	17.51
382.253	6.75
382.463	11.79
382.674	9.31
382.884	-6.6
383.094	-7.24
383.304	0.32
383.514	0.06
383.724	8.37
383.934	12.03
384.144	-4.24
384.353	-15.5
384.563	-13.45
384.773	-13
384.983	-22.21
385.193	4.72
385.403	14.03
385.613	17.05
385.823	4.37
386.033	13.46
386.242	7.37
386.452	2.25
386.662	-6.13
386.872	9.54
387.082	3.69
387.291	-2.33
387.501	4.16
387.711	11.02
387.921	2.58
388.13	3.5
388.34	12.05
388.55	4.22
388.759	0.34
388.969	2.41
389.179	-2.79
389.388	-4.01
389.598	0.8
389.807	-5.46
390.017	-1.74
390.227	2.96
390.436	-2.91
390.646	-3.77
390.855	1.99
391.065	-0.38
391.274	0.41
391.484	2.08
391.693	4.86
391.903	5.51
392.112	8.54
392.322	8.89
392.531	11.71
392.74	10.52
392.95	4.78
393.159	2.85
393.369	2.09
393.578	1.5
393.787	1.47
393.997	4.29
394.206	2.62
394.415	3.2
394.625	2.86
394.834	0.66
395.043	2.58
395.252	5.77
395.462	6.77
395.671	7
395.88	8.91
396.089	9.17
396.298	6.38
396.508	5.85
396.717	5.33
396.926	5.5
397.135	4.89
397.344	5.19
397.553	5.93
397.762	7.09
397.971	7.47
398.181	7.03
398.39	6.9
398.599	6.31
398.808	6.25
399.017	6.21
399.226	7.73
399.435	8.75
399.644	8.61
399.853	7.37
400.062	7.16
400.27	6.04
400.479	5.54
400.688	5.17
400.897	5.76
401.106	5.83
401.315	5.8
401.524	5.76
401.733	6.3
401.941	6.71
402.15	6.65
402.359	6.61
402.568	6.93
402.777	6.93
402.985	6.68
403.194	6.51
403.403	6.54
403.612	6.16
403.82	6.01
404.029	6.07
404.238	5.99
404.446	6.29
404.655	5.96
404.864	5.88
405.072	5.57
405.281	5.99
405.489	5.54
405.698	5.72
405.906	5.73
406.115	5.78
406.324	5.44
406.532	5.57
406.741	5.85
406.949	5.78
407.158	5.77
407.366	5.85
407.574	5.86
407.783	5.7
407.991	5.66
408.2	5.7
408.408	5.59
408.617	5.55
408.825	5.26
409.033	5.39
409.242	5.45
409.45	5.56
409.658	5.44
409.867	5.69
410.075	5.39
410.283	5.28
410.491	5.12
410.7	5.11
410.908	5.13
411.116	5.49
411.324	5.36
411.533	5.39
411.741	5.49
411.949	5.3
412.157	4.99
412.365	5.18
412.573	5.15
412.781	5.27
412.99	5.29
413.198	5.53
413.406	5.48
413.614	5.51
413.822	5.16
414.03	5.06
414.238	4.9
414.446	4.98
414.654	4.75
414.862	4.84
415.07	4.98
415.278	5.2
415.486	4.97
415.694	5.12
415.902	5.18
416.109	5.07
416.317	4.89
416.525	4.81
416.733	4.95
416.941	5.01
417.149	5.09
417.357	5.12
417.564	5.24
417.772	5.34
417.98	5.33
418.188	5.2
418.395	5.12
418.603	5.24
418.811	4.78
419.019	4.63
419.226	4.91
419.434	5.04
419.642	4.83
419.849	5.02
420.057	5.2
420.265	5.04
420.472	4.8
420.68	4.77
420.887	4.55
421.095	4.5
421.302	4.42
421.51	4.55
421.717	4.71
421.925	4.81
422.132	4.76
422.34	4.65
422.547	4.69
422.755	4.55
422.962	4.55
423.17	4.41
423.377	4.57
423.585	4.54
423.792	4.5
423.999	4.62
424.207	4.7
424.414	4.72
424.621	4.64
424.829	4.6
425.036	4.55
425.243	4.63
425.451	4.44
425.658	4.3
425.865	4.44
426.072	4.4
426.28	4.48
426.487	4.57
426.694	4.71
426.901	4.54
427.108	4.64
427.315	4.48
427.523	4.61
427.73	4.6
427.937	4.68
428.144	4.42
428.351	4.41
428.558	4.4
428.765	4.24
428.972	4.19
429.179	4.48
429.386	4.77
429.593	4.57
429.8	4.51
430.007	4.65
430.214	4.67
430.421	4.31
430.628	4.17
430.835	4.21
431.042	4.25
431.249	4.36
431.456	4.41
431.662	4.58
431.869	4.85
432.076	4.9
432.283	4.84
432.49	4.91
432.697	5.04
432.903	4.75
433.11	4.68
433.317	4.69
433.524	4.95
433.73	4.92
433.937	5.15
434.144	5.1
434.35	5.08
434.557	4.8
434.764	4.8
434.97	4.78
435.177	4.85
435.384	4.74
435.59	4.8
435.797	5.1
436.003	5.13
436.21	5.19
436.416	5.29
436.623	5.35
436.829	5.24
437.036	5.33
437.242	5.25
437.449	5.21
437.655	5.29
437.862	5.21
438.068	5.1
438.275	5.3
438.481	5.46
438.687	5.37
438.894	5.34
439.1	5.43
439.307	5.47
439.513	5.39
439.719	5.47
439.926	5.57
440.132	5.51
440.338	5.42
440.544	5.54
440.751	5.51
440.957	5.62
441.163	5.62
441.369	5.66
441.575	5.44
441.782	5.41
441.988	5.22
442.194	5.27
442.4	5.27
442.606	5.62
442.812	5.7
443.018	5.86
443.224	5.95
443.431	6.07
443.637	5.81
443.843	5.68
444.049	5.58
444.255	5.5
444.461	5.55
444.667	5.52
444.873	5.78
445.079	5.83
445.284	5.92
445.49	5.64
445.696	5.55
445.902	5.41
446.108	5.38
446.314	5.28
446.52	5.41
446.726	5.6
446.931	5.65
447.137	5.69
447.343	5.74
447.549	5.73
447.755	5.73
447.96	5.74
448.166	5.71
448.372	5.73
448.578	5.81
448.783	5.87
448.989	5.86
449.195	6.07
449.4	6.05
449.606	5.94
449.812	5.74
450.017	5.83
450.223	5.65
450.428	5.55
450.634	5.69
450.84	6.01
451.045	5.9
451.251	5.86
451.456	6.11
451.662	6.15
451.867	6.08
452.073	6.1
452.278	6.2
452.483	6.21
452.689	6.02
452.894	6.07
453.1	6.06
453.305	5.98
453.51	5.92
453.716	5.97
453.921	5.94
454.127	5.92
454.332	5.91
454.537	5.82
454.742	5.86
454.948	5.71
455.153	5.68
455.358	5.85
455.563	6.02
455.769	6.11
455.974	6.21
456.179	6.26
456.384	6.16
456.589	6.07
456.795	5.85
457	5.83
457.205	5.99
457.41	6
457.615	6
457.82	6.15
458.025	6.14
458.23	6.03
458.435	6.02
458.64	5.96
458.845	6.07
459.05	6.09
459.255	6.04
459.46	6.07
459.665	6.15
459.87	6.11
460.075	6.12
460.28	6.24
460.485	6.33
460.69	6.34
460.895	6.18
461.099	6.19
461.304	6.27
461.509	6.27
461.714	6.16
461.919	6.35
462.123	6.23
462.328	6.19
462.533	6.14
462.738	6.25
462.942	6.2
463.147	6.3
463.352	6.34
463.556	6.29
463.761	6.29
463.966	6.3
464.17	6.35
464.375	6.26
464.58	6.31
464.784	6.28
