Data from Ofra_PS_T2_2A_4HS13_Reflection_1.txt Node
Date: Wed Jul 21 17:12:23 EDT 2021
User: Adam
Spectrometer: FLMT01687
Trigger mode: 0
Integration Time (sec): 1.100000E0
Scans to average: 2
Electric dark correction enabled: true
Nonlinearity correction enabled: false
Boxcar width: 2
XAxis mode: Wavelengths
Number of Pixels in Spectrum: 3648
>>>>>Begin Spectral Data<<<<<
179.494	725.6
179.716	740.71
179.937	692.94
180.158	635.75
180.38	944.37
180.601	271.27
180.823	101.02
181.044	-38.86
181.265	202.21
181.486	90.62
181.708	123.79
181.929	928.57
182.15	-408.45
182.372	117.91
182.593	78.75
182.814	56.97
183.035	64.35
183.257	28.45
183.478	-103.83
183.699	-32.01
183.92	-40.35
184.141	-20.44
184.363	-79.42
184.584	-4.48
184.805	-28.23
185.026	7.22
185.247	36.74
185.468	31.88
185.689	10.53
185.91	31.13
186.132	25.46
186.353	-7.41
186.574	13.05
186.795	33.71
187.016	-13.54
187.237	-27.66
187.458	-14.11
187.679	11.83
187.9	22.17
188.121	30.12
188.342	32.16
188.563	39.19
188.784	47.62
189.005	32.13
189.226	67.19
189.447	58.15
189.667	-184.47
189.888	-354.19
190.109	-1128.57
190.33	-640
190.551	-1084.96
190.772	-205.33
190.993	-185.2
191.214	-147.82
191.434	-122.87
191.655	-13.13
191.876	-57.9
192.097	-91.61
192.318	-118.44
192.538	-181.82
192.759	-165.49
192.98	-80.63
193.201	-45.27
193.421	-33.6
193.642	-12.24
193.863	-15.09
194.083	-28.61
194.304	-39.77
194.525	-30.24
194.745	-35.64
194.966	-36.87
195.187	-43.24
195.407	-46.67
195.628	-128.8
195.848	-154.55
196.069	-156.25
196.29	-95.58
196.51	-105.01
196.731	-101.8
196.951	-94.15
197.172	-86.8
197.392	-126.31
197.613	-130.23
197.833	-125.31
198.054	-122.57
198.274	-105.75
198.495	-122.7
198.715	-56.03
198.936	-81.25
199.156	-70.64
199.377	-156.13
199.597	-135.97
199.817	-179.4
200.038	-93.73
200.258	-141.72
200.479	-56.97
200.699	-72.97
200.919	-21.52
201.14	-64.67
201.36	-89.99
201.58	-5.91
201.801	36.52
202.021	3.48
202.241	5.08
202.461	3.73
202.682	-133.02
202.902	-229.26
203.122	-129.5
203.342	-116.23
203.563	-65.38
203.783	-13.29
204.003	-56.15
204.223	-59.06
204.443	25.56
204.663	10.87
204.884	15.34
205.104	67.2
205.324	88.53
205.544	76.45
205.764	72.63
205.984	59.39
206.204	47.01
206.424	28.83
206.644	-40.32
206.864	2.99
207.084	-55.49
207.304	-55.43
207.525	-236.88
207.745	-98.87
207.964	-72.56
208.184	-63.51
208.404	-90.66
208.624	-87.07
208.844	-84.38
209.064	-393.09
209.284	-410.88
209.504	-267.17
209.724	-78.55
209.944	-44.08
210.164	-5.44
210.384	15.04
210.604	36.52
210.823	-20.03
211.043	-32.85
211.263	-15.31
211.483	-32.69
211.703	-87.68
211.922	-41.98
212.142	22.89
212.362	33.27
212.582	7.43
212.801	19.09
213.021	-12.12
213.241	-38.08
213.461	-83.57
213.68	-98.86
213.9	-67.73
214.12	-39.79
214.339	-104.05
214.559	-70.61
214.779	-5.93
214.998	-25.5
215.218	-65.25
215.438	-16.72
215.657	-14.88
215.877	-23.95
216.096	16.39
216.316	30.12
216.535	14.14
216.755	-2.65
216.974	-103.48
217.194	-152.97
217.413	-137.5
217.633	-164.72
217.852	-224.95
218.072	-96.43
218.291	-48.82
218.511	-14.43
218.73	-19.26
218.95	-16.65
219.169	-12.87
219.389	-52.31
219.608	-49.08
219.827	-46.34
220.047	-46.9
220.266	-30.63
220.485	-34.28
220.705	-19.64
220.924	-28
221.143	12.45
221.363	-14.64
221.582	5.84
221.801	-8.08
222.021	12.19
222.24	-27.51
222.459	81.24
222.678	48.45
222.897	16.3
223.117	-33.56
223.336	-39.24
223.555	-46.17
223.774	-9.86
223.993	25.96
224.213	89.75
224.432	56.83
224.651	62.42
224.87	22.26
225.089	43.04
225.308	17.23
225.527	40.34
225.746	38.28
225.965	40.73
226.184	-5.81
226.404	13.43
226.623	-12.56
226.842	-1.97
227.061	25.1
227.28	30.86
227.499	22.08
227.718	33.4
227.936	10.24
228.155	0.07
228.374	-8.45
228.593	1.75
228.812	-13.01
229.031	-3.9
229.25	-34.49
229.469	-43.08
229.688	-31.76
229.907	0.76
230.125	14.6
230.344	15.45
230.563	36.33
230.782	43.13
231.001	-15.33
231.22	-16.72
231.438	2.08
231.657	0.82
231.876	-16.6
232.095	33.52
232.313	35.06
232.532	29.25
232.751	-4.55
232.969	1.59
233.188	-61.44
233.407	-0.23
233.625	3.7
233.844	-6.25
234.063	7.47
234.281	28.44
234.5	-2.15
234.719	16.71
234.937	41.36
235.156	35.12
235.374	23.31
235.593	30.42
235.811	2.01
236.03	-0.67
236.249	-64.48
236.467	-62.86
236.686	-27.02
236.904	-12.98
237.123	-51.2
237.341	-29.69
237.559	-28.41
237.778	-50.42
237.996	-79.64
238.215	-11.39
238.433	6.06
238.652	7.38
238.87	2.02
239.088	11.66
239.307	-11.3
239.525	-16.8
239.743	-42.69
239.962	-42.84
240.18	-72
240.398	-95.94
240.617	-130.18
240.835	-96.5
241.053	-79.98
241.271	-41.81
241.49	-20.81
241.708	-25.7
241.926	-66.11
242.144	-49.35
242.363	-75.05
242.581	-72.73
242.799	-33.99
243.017	3.88
243.235	-18.68
243.453	-21.62
243.672	-24.91
243.89	-25.11
244.108	-46.81
244.326	-21.73
244.544	-5.89
244.762	-11.76
244.98	-21.1
245.198	-1.18
245.416	-37.48
245.634	-29.74
245.852	-23.2
246.07	-2.28
246.288	-3.27
246.506	2.29
246.724	-5.95
246.942	-27.31
247.16	-11.19
247.378	10.97
247.596	18.83
247.814	17.93
248.032	10.37
248.25	5.94
248.468	-8.71
248.685	-2.02
248.903	28.41
249.121	13.47
249.339	-12.08
249.557	-18.07
249.775	-11.29
249.992	-80.55
250.21	-59.46
250.428	-35.34
250.646	-65.89
250.863	-96.61
251.081	-59.93
251.299	-57.4
251.517	-54.73
251.734	-26.72
251.952	-5.9
252.17	-15.29
252.387	-11.26
252.605	-29.52
252.823	-37.09
253.04	-28.71
253.258	-6.9
253.475	-11.93
253.693	34.91
253.911	34.54
254.128	31.33
254.346	14.6
254.563	-0.49
254.781	-41.42
254.998	-52.04
255.216	-60.7
255.433	-39.76
255.651	-14.17
255.868	7.55
256.086	37.66
256.303	23.54
256.521	14.07
256.738	0.06
256.956	-24.67
257.173	-59.88
257.39	-59.02
257.608	-80.86
257.825	11.45
258.043	28.4
258.26	55.16
258.477	88.09
258.695	82.38
258.912	-2.69
259.129	15.3
259.346	-22.37
259.564	-79.74
259.781	-90.48
259.998	-26.22
260.216	-15.76
260.433	34.02
260.65	34.5
260.867	46.23
261.084	21.53
261.302	5.22
261.519	-32.48
261.736	-39.36
261.953	-50.54
262.17	-16.39
262.387	-36.74
262.604	-94.31
262.822	-110.93
263.039	-89.17
263.256	-144.7
263.473	-101.12
263.69	-39.75
263.907	12.25
264.124	8.77
264.341	18.4
264.558	16.65
264.775	25.93
264.992	7.39
265.209	9.86
265.426	18.6
265.643	14.12
265.86	13.27
266.077	16.21
266.294	-5.19
266.51	-46.83
266.727	-65.91
266.944	-51.63
267.161	-58.03
267.378	-68.73
267.595	-29.21
267.812	-34.06
268.028	-52.81
268.245	-30.43
268.462	-24.38
268.679	-15.11
268.896	25.12
269.112	17.13
269.329	12.42
269.546	21.58
269.763	-2.29
269.979	-28.39
270.196	-16.14
270.413	-49.97
270.629	-82.05
270.846	-81.13
271.063	-77.03
271.279	-104.28
271.496	-100
271.712	-52.42
271.929	-25.67
272.146	-42.5
272.362	-28.55
272.579	24.79
272.795	31.25
273.012	17.4
273.228	32.45
273.445	24.1
273.661	-4.27
273.878	-48.29
274.094	-31.09
274.311	-53.36
274.527	0.26
274.744	-14.97
274.96	-7.49
275.177	-4.4
275.393	18.74
275.609	6.96
275.826	42.3
276.042	33.98
276.259	10.27
276.475	16.84
276.691	25.23
276.908	2.55
277.124	18.93
277.34	28.04
277.557	15.31
277.773	-13.7
277.989	-11.42
278.205	-28.91
278.422	-15.03
278.638	-7.8
278.854	18.05
279.07	18.21
279.286	22.13
279.503	-18.6
279.719	-30.86
279.935	-51.41
280.151	-83.85
280.367	-59.18
280.583	-70.21
280.799	-33.73
281.016	-70
281.232	-19.74
281.448	-18.33
281.664	20.69
281.88	-27.44
282.096	6.62
282.312	22.67
282.528	36.32
282.744	25.88
282.96	22.12
283.176	13.13
283.392	8.88
283.608	-3.88
283.824	-2.44
284.04	7.73
284.256	6.82
284.471	-12.72
284.687	-16.8
284.903	-15.29
285.119	13.27
285.335	-9.26
285.551	2.6
285.767	0.48
285.982	0.88
286.198	-44.24
286.414	22.91
286.63	15.04
286.846	37.22
287.061	20.03
287.277	51.76
287.493	23.44
287.709	44.52
287.924	26.28
288.14	70.47
288.356	60.24
288.571	76.03
288.787	46.11
289.003	37.05
289.218	5.53
289.434	-36.56
289.65	-42.28
289.865	-42.73
290.081	-12.52
290.296	-1.22
290.512	23.41
290.727	-19.64
290.943	-21.2
291.159	-30.55
291.374	-45.21
291.59	-63.35
291.805	-38.89
292.021	-17.94
292.236	-24.7
292.451	-6.48
292.667	-5.76
292.882	6.11
293.098	-24.16
293.313	-47.99
293.529	-72.24
293.744	-93.19
293.959	-86.97
294.175	-64.3
294.39	-18.12
294.605	8.7
294.821	35.28
295.036	31.2
295.251	33.35
295.467	18.4
295.682	-9.41
295.897	-43.55
296.112	-52.61
296.328	-49.24
296.543	-95.71
296.758	-66.02
296.973	-28.86
297.188	7.7
297.404	-15.45
297.619	-21.91
297.834	-43.47
298.049	-62.6
298.264	-90.06
298.479	-21.01
298.694	-3.27
298.909	14.63
299.125	18.13
299.34	30.96
299.555	-8.53
299.77	1.23
299.985	-34.19
300.2	-82.79
300.415	-99.41
300.63	-55.74
300.845	-69.33
301.06	-60.67
301.275	-26.17
301.49	-13.9
301.704	-30.92
301.919	-46.8
302.134	-57.65
302.349	-68.78
302.564	-128.15
302.779	-182.89
302.994	-187.93
303.209	-137.68
303.423	-79.98
303.638	-7.21
303.853	-20.18
304.068	-11.43
304.283	7.5
304.497	-1.84
304.712	-1.3
304.927	13.74
305.142	6.79
305.356	4.85
305.571	10.42
305.786	-5.43
306	-26.12
306.215	-30.1
306.43	-49.84
306.644	-59.43
306.859	-10.34
307.074	11.7
307.288	-0.59
307.503	-10.13
307.717	-32.59
307.932	-45.18
308.147	-55.14
308.361	-32.09
308.576	-41.55
308.79	-73.31
309.005	-62.24
309.219	-55.53
309.434	-78.79
309.648	-67.08
309.863	-25.43
310.077	-36.76
310.292	-30.59
310.506	-27.59
310.72	-4.06
310.935	7.76
311.149	12.86
311.364	26.39
311.578	35.26
311.792	19.89
312.007	10.48
312.221	-4.92
312.435	-7.85
312.649	-17.08
312.864	6.4
313.078	13.63
313.292	74.61
313.507	54.51
313.721	108.82
313.935	43.75
314.149	36.49
314.363	19.81
314.578	27.97
314.792	14.36
315.006	-3.55
315.22	7.55
315.434	11.27
315.648	16.03
315.862	15.71
316.077	24.39
316.291	-1.16
316.505	2.5
316.719	-31.09
316.933	-29.3
317.147	-24.66
317.361	-54.41
317.575	-73.31
317.789	-87.1
318.003	-146.24
318.217	-94.7
318.431	6.89
318.645	21.98
318.859	14.12
319.073	43.92
319.287	19.18
319.5	-20.76
319.714	-59.17
319.928	-78.8
320.142	-107.85
320.356	-48.22
320.57	-8.23
320.784	-13.89
320.997	-6.02
321.211	-15.72
321.425	-67
321.639	-105.52
321.853	-41.09
322.066	-30.38
322.28	-35.87
322.494	-30.34
322.707	1.65
322.921	-12.69
323.135	-12.22
323.349	6.97
323.562	-12.32
323.776	-31.85
323.989	-29.17
324.203	-62.95
324.417	-87.21
324.63	-89.35
324.844	-88.19
325.057	-75.72
325.271	-30.19
325.485	13.66
325.698	30.38
325.912	43.66
326.125	11.05
326.339	8.22
326.552	-25.15
326.766	-32.38
326.979	-18.71
327.193	24.23
327.406	13.73
327.619	12.86
327.833	35.48
328.046	2.99
328.26	-30.49
328.473	-10.48
328.686	-41.12
328.9	-47.92
329.113	-24.75
329.326	-37.42
329.54	-30.38
329.753	-20.86
329.966	-59.67
330.179	-73.35
330.393	-42.26
330.606	-20.02
330.819	3.22
331.032	31.17
331.246	38.6
331.459	64.4
331.672	49.04
331.885	35.76
332.098	0.51
332.311	-3.55
332.525	-63.36
332.738	-66.8
332.951	-49.2
333.164	-13.63
333.377	-12.97
333.59	8.85
333.803	17.1
334.016	22.12
334.229	28.22
334.442	37.37
334.655	61.87
334.868	56.16
335.081	43.25
335.294	20.4
335.507	22.35
335.72	1.85
335.933	-0.46
336.146	-22.57
336.359	-22.75
336.572	-55.46
336.785	-84.93
336.997	-82.99
337.21	-43.94
337.423	-40.56
337.636	-28.25
337.849	-2.12
338.062	5.73
338.274	-8.88
338.487	-17.58
338.7	-14.83
338.913	-58.81
339.125	-96.55
339.338	-125.53
339.551	-117.25
339.763	-86.28
339.976	-54.34
340.189	-22.9
340.402	-13.42
340.614	-17.74
340.827	-28.88
341.039	-38.38
341.252	-49.78
341.465	-30.84
341.677	-23.4
341.89	-53.64
342.102	-23.05
342.315	-32.29
342.527	-52.32
342.74	-55.28
342.952	-24.78
343.165	-26.48
343.377	2.84
343.59	-7.89
343.802	13.22
344.015	22.17
344.227	21.99
344.44	12.15
344.652	18.13
344.864	6.18
345.077	17.69
345.289	13.63
345.502	13.32
345.714	9.16
345.926	16.47
346.139	5.82
346.351	14.44
346.563	26.98
346.775	45.19
346.988	35.61
347.2	31.98
347.412	-8.9
347.624	-41.06
347.837	-88.5
348.049	-79.56
348.261	-49.56
348.473	-40
348.685	-39.46
348.897	-28.93
349.11	-38.83
349.322	-58.26
349.534	-31.6
349.746	-19.85
349.958	-17.27
350.17	-9.98
350.382	16.85
350.594	17.57
350.806	10.26
351.018	10.15
351.23	7.53
351.442	-51.42
351.654	-61.52
351.866	-41.36
352.078	-38.05
352.29	-14.71
352.502	3.77
352.714	14.26
352.926	9.17
353.138	4.02
353.35	-18.46
353.561	-30.09
353.773	-49.78
353.985	-44.84
354.197	-60.93
354.409	-58.16
354.621	-48.25
354.832	-31.25
355.044	-31.67
355.256	-26.86
355.468	-12.23
355.679	-24.75
355.891	-18.48
356.103	-33.98
356.314	-9.33
356.526	-15.71
356.738	4.39
356.949	-5.58
357.161	11.97
357.373	-2.04
357.584	-17.95
357.796	-9.77
358.008	-8.59
358.219	1.53
358.431	-4.54
358.642	22.22
358.854	14.98
359.065	-1.53
359.277	-34.55
359.488	-34.8
359.7	-77.47
359.911	-78.71
360.123	-55.96
360.334	-55.86
360.546	-79.54
360.757	-65.02
360.969	-62.33
361.18	-46.46
361.391	-18.83
361.603	-30.3
361.814	-19.03
362.025	-12.81
362.237	-18.35
362.448	-17.39
362.659	10.4
362.871	4.99
363.082	3.61
363.293	3.58
363.504	-5.03
363.716	-33.96
363.927	-46.95
364.138	-63.14
364.349	-81.97
364.56	-81.1
364.772	-55.81
364.983	-27.29
365.194	-29.69
365.405	-16.58
365.616	10.45
365.827	13.81
366.038	-4.65
366.25	-3.36
366.461	-25.05
366.672	-22.99
366.883	-5.79
367.094	2.38
367.305	-4.19
367.516	6.75
367.727	-23.36
367.938	-37.4
368.149	-48.13
368.36	-26.75
368.571	-25.16
368.781	-31.73
368.992	-41.03
369.203	-40.7
369.414	-66.88
369.625	-75.61
369.836	-52.51
370.047	-67.27
370.258	-56.6
370.468	-51.02
370.679	-64.78
370.89	-57.58
371.101	-33.67
371.312	-41.98
371.522	-35.43
371.733	-21.75
371.944	-18.44
372.155	-18.76
372.365	-19.5
372.576	-17.84
372.787	-21.96
372.997	-35.52
373.208	-40.12
373.419	-13.2
373.629	-35.57
373.84	-18.23
374.05	-34.37
374.261	-11.44
374.472	-34.97
374.682	1.12
374.893	-1.69
375.103	40.59
375.314	22.93
375.524	19.7
375.735	15.9
375.945	15.24
376.156	-14.61
376.366	-0.19
376.577	12.94
376.787	11.77
376.997	24.71
377.208	25.45
377.418	3.06
377.629	13.4
377.839	0.62
378.049	-9.73
378.26	2.21
378.47	20.02
378.68	-0.76
378.89	-5.82
379.101	2.17
379.311	-31.81
379.521	-60.73
379.732	-44.29
379.942	-28.1
380.152	-53.2
380.362	-15.3
380.572	-17.64
380.783	-11.99
380.993	-7.49
381.203	11.73
381.413	18.57
381.623	29.8
381.833	25.3
382.043	14.13
382.253	-6.12
382.463	-9.48
382.674	-21.96
382.884	-45.19
383.094	-33.74
383.304	-20.59
383.514	-17.41
383.724	-3.14
383.934	0.03
384.144	-9.71
384.353	-14.99
384.563	-19.87
384.773	-21.7
384.983	-26.01
385.193	-14.45
385.403	-12.65
385.613	-11.89
385.823	-20.8
386.033	-13.17
386.242	-17.59
386.452	-17.68
386.662	-19.84
386.872	-2.78
387.082	-5.12
387.291	-5.33
387.501	-5.85
387.711	-0.93
387.921	-14.57
388.13	-10.8
388.34	-3.27
388.55	-10.09
388.759	-12.65
388.969	-4.94
389.179	-10.23
389.388	-15.67
389.598	-7.3
389.807	-11.74
390.017	-18.24
390.227	-12.52
390.436	-11.67
390.646	-7.62
390.855	-3.66
391.065	-1.44
391.274	-2.2
391.484	-3.31
391.693	-2.13
391.903	0.23
392.112	5.62
392.322	7.88
392.531	10.41
392.74	8.93
392.95	3.18
393.159	1
393.369	1.79
393.578	1.73
393.787	-1.07
393.997	1.6
394.206	0.17
394.415	-1.19
394.625	-1.97
394.834	-1.9
395.043	-1.55
395.252	0.13
395.462	1.84
395.671	3.93
395.88	5.14
396.089	6.59
396.298	5.09
396.508	4.05
396.717	3.19
396.926	3.33
397.135	2.09
397.344	2.62
397.553	3.71
397.762	5.61
397.971	5.94
398.181	6.87
398.39	6.36
398.599	5.83
398.808	5.23
399.017	5.64
399.226	6.24
399.435	7.94
399.644	8.09
399.853	6.92
400.062	6.19
400.27	5.42
400.479	4.39
400.688	3.72
400.897	4.44
401.106	4.79
401.315	4.83
401.524	5.23
401.733	6.08
401.941	6.37
402.15	6.66
402.359	6.56
402.568	6.74
402.777	6.77
402.985	6.53
403.194	6.16
403.403	6.19
403.612	5.56
403.82	5.32
404.029	5.61
404.238	5.53
404.446	5.73
404.655	5.82
404.864	5.72
405.072	5.32
405.281	5.37
405.489	5.17
405.698	5.21
405.906	5.22
406.115	5.22
406.324	5.19
406.532	5.26
406.741	5.5
406.949	5.53
407.158	5.59
407.366	5.74
407.574	5.74
407.783	5.69
407.991	5.5
408.2	5.59
408.408	5.53
408.617	5.45
408.825	5.35
409.033	5.42
409.242	5.4
409.45	5.54
409.658	5.4
409.867	5.43
410.075	5.35
410.283	5.11
410.491	4.89
410.7	4.93
410.908	4.87
411.116	5.21
411.324	5.3
411.533	5.24
411.741	5.44
411.949	5.42
412.157	5.12
412.365	5.1
412.573	5.18
412.781	5.13
412.99	5.09
413.198	5.15
413.406	5.16
413.614	5.16
413.822	4.89
414.03	4.84
414.238	4.73
414.446	4.71
414.654	4.51
414.862	4.76
415.07	4.75
415.278	4.9
415.486	4.7
415.694	4.89
415.902	4.68
416.109	4.57
416.317	4.53
416.525	4.49
416.733	4.36
416.941	4.61
417.149	4.67
417.357	4.61
417.564	4.69
417.772	5.01
417.98	4.84
418.188	4.81
418.395	4.91
418.603	5.18
418.811	4.75
419.019	4.75
419.226	4.93
419.434	4.85
419.642	4.5
419.849	4.72
420.057	4.58
420.265	4.56
420.472	4.32
420.68	4.44
420.887	4.14
421.095	4.39
421.302	4.3
421.51	4.7
421.717	4.83
421.925	5.01
422.132	4.81
422.34	4.6
422.547	4.51
422.755	4.29
422.962	4.11
423.17	4.02
423.377	4.11
423.585	3.86
423.792	3.77
423.999	3.83
424.207	3.8
424.414	4.06
424.621	4.15
424.829	4.2
425.036	4.26
425.243	4.46
425.451	4.13
425.658	3.96
425.865	4.16
426.072	4.06
426.28	4.3
426.487	4.36
426.694	4.63
426.901	4.5
427.108	4.64
427.315	4.3
427.523	4.46
427.73	4.22
427.937	4.18
428.144	4.02
428.351	4.14
428.558	4.33
428.765	4.35
428.972	4.34
429.179	4.52
429.386	4.62
429.593	4.28
429.8	4.25
430.007	4.45
430.214	4.44
430.421	4.26
430.628	4.17
430.835	4.09
431.042	4.11
431.249	4.23
431.456	4.17
431.662	4.36
431.869	4.63
432.076	4.62
432.283	4.69
432.49	4.8
432.697	4.74
432.903	4.44
433.11	4.35
433.317	4.28
433.524	4.47
433.73	4.38
433.937	4.79
434.144	4.73
434.35	4.69
434.557	4.42
434.764	4.42
434.97	4.24
435.177	4.39
435.384	4.23
435.59	4.47
435.797	4.73
436.003	4.81
436.21	4.82
436.416	5.07
436.623	5.03
436.829	5.08
437.036	5.16
437.242	5.11
437.449	5.02
437.655	4.99
437.862	4.94
438.068	4.84
438.275	4.89
438.481	5.11
438.687	5.15
438.894	5.1
439.1	5.12
439.307	5.29
439.513	5.11
439.719	4.97
439.926	5.06
440.132	4.99
440.338	4.75
440.544	4.91
440.751	4.99
440.957	5.02
441.163	4.99
441.369	5.16
441.575	5
441.782	4.94
441.988	4.76
442.194	4.88
442.4	4.78
442.606	5.01
442.812	5.13
443.018	5.35
443.224	5.33
443.431	5.49
443.637	5.26
443.843	5.17
444.049	5.09
444.255	5.09
444.461	5.09
444.667	5.07
444.873	5.19
445.079	5.24
445.284	5.33
445.49	5.04
445.696	4.97
445.902	4.85
446.108	4.72
446.314	4.6
446.52	4.69
446.726	4.92
446.931	4.98
447.137	5.12
447.343	5.15
447.549	5.14
447.755	5.01
447.96	5.07
448.166	4.96
448.372	4.96
448.578	5
448.783	5.12
448.989	5.18
449.195	5.27
449.4	5.3
449.606	5.32
449.812	5.17
450.017	5.17
450.223	5.1
450.428	5.01
450.634	5.16
450.84	5.34
451.045	5.23
451.251	5.22
451.456	5.45
451.662	5.42
451.867	5.37
452.073	5.4
452.278	5.5
452.483	5.52
452.689	5.39
452.894	5.4
453.1	5.35
453.305	5.26
453.51	5.2
453.716	5.23
453.921	5.16
454.127	5.17
454.332	5.15
454.537	5.02
454.742	4.95
454.948	4.99
455.153	4.98
455.358	5.05
455.563	5.19
455.769	5.4
455.974	5.36
456.179	5.32
456.384	5.26
456.589	5.15
456.795	4.95
457	4.93
457.205	5.17
457.41	5.13
457.615	5.12
457.82	5.11
458.025	5.16
458.23	4.99
458.435	4.97
458.64	4.91
458.845	5.06
459.05	4.96
459.255	4.96
459.46	5.08
459.665	5.09
459.87	5.11
460.075	5.22
