Data from Ofra_2a_PS_2GT10B_Reflection_3.txt Node
Date: Tue Jul 20 09:40:01 EDT 2021
User: Adam
Spectrometer: FLMT01687
Trigger mode: 0
Integration Time (sec): 9.450000E-1
Scans to average: 3
Electric dark correction enabled: true
Nonlinearity correction enabled: false
Boxcar width: 3
XAxis mode: Wavelengths
Number of Pixels in Spectrum: 3648
>>>>>Begin Spectral Data<<<<<
179.494	884.02
179.716	487.5
179.937	525.27
180.158	2158.59
180.38	-863.37
180.601	-142.19
180.823	-14.38
181.044	61.55
181.265	16.51
181.486	31.19
181.708	502.17
181.929	69.07
182.15	64.77
182.372	40.61
182.593	104.28
182.814	-29.64
183.035	25.41
183.257	36.44
183.478	-1.91
183.699	20.08
183.92	10.6
184.141	22.72
184.363	21.22
184.584	12.79
184.805	8.73
185.026	1.52
185.247	-12.94
185.468	25.64
185.689	22.22
185.91	14.83
186.132	22.14
186.353	12.28
186.574	20.55
186.795	13.64
187.016	10.51
187.237	10.1
187.458	15.54
187.679	16.22
187.9	36.11
188.121	35.31
188.342	40.41
188.563	42.14
188.784	35.96
189.005	33.91
189.226	28.52
189.447	15.13
189.667	9.65
189.888	23.76
190.109	15.95
190.33	12.38
190.551	13.98
190.772	21.81
190.993	26.29
191.214	25.87
191.434	18.09
191.655	23.71
191.876	35.69
192.097	35.05
192.318	33.77
192.538	45.55
192.759	49.74
192.98	37.57
193.201	55.46
193.421	54.59
193.642	58.58
193.863	67.95
194.083	49.79
194.304	53.23
194.525	78.68
194.745	50.63
194.966	47.28
195.187	47.71
195.407	41.72
195.628	34.88
195.848	32.4
196.069	13.67
196.29	20.27
196.51	11.05
196.731	15.25
196.951	26.02
197.172	43.95
197.392	47.05
197.613	45.66
197.833	39.77
198.054	34.08
198.274	12.29
198.495	1.67
198.715	-11.71
198.936	-28.99
199.156	-22.45
199.377	-10.17
199.597	-15.46
199.817	10.23
200.038	11.94
200.258	20.92
200.479	17.07
200.699	22.89
200.919	5.1
201.14	24.3
201.36	23.09
201.58	19.03
201.801	15.89
202.021	17.84
202.241	14.52
202.461	29.81
202.682	28.3
202.902	29.77
203.122	37.57
203.342	55.64
203.563	53.17
203.783	65
204.003	60.54
204.223	61.82
204.443	59.6
204.663	52.93
204.884	39.83
205.104	45.94
205.324	43.11
205.544	38.03
205.764	29.43
205.984	26.99
206.204	30.67
206.424	38.9
206.644	28.09
206.864	15.94
207.084	36.05
207.304	28.26
207.525	25.9
207.745	26.34
207.964	16.67
208.184	26.34
208.404	29.32
208.624	-2.74
208.844	-3.28
209.064	7.49
209.284	14.59
209.504	11.68
209.724	-10.72
209.944	-14.58
210.164	1.34
210.384	20.08
210.604	5.1
210.823	-9.88
211.043	-17.41
211.263	7.15
211.483	9.97
211.703	22.54
211.922	22.69
212.142	35.05
212.362	43.7
212.582	51.54
212.801	43.3
213.021	48.28
213.241	45.85
213.461	30.52
213.68	29.04
213.9	31.25
214.12	12.56
214.339	23.2
214.559	34.93
214.779	18.27
214.998	27.57
215.218	18.31
215.438	20.64
215.657	30.72
215.877	22.19
216.096	11.15
216.316	18.72
216.535	14.43
216.755	1.48
216.974	-6.21
217.194	-12.83
217.413	2.37
217.633	7.81
217.852	0.83
218.072	2.69
218.291	25.73
218.511	26.92
218.73	22.49
218.95	19.55
219.169	25.83
219.389	29.8
219.608	25.56
219.827	21.2
220.047	26.18
220.266	31.2
220.485	25.22
220.705	17.88
220.924	25.77
221.143	28.63
221.363	27.24
221.582	20.62
221.801	35.3
222.021	32.08
222.24	33.21
222.459	29.71
222.678	24.65
222.897	33.28
223.117	41.89
223.336	23.24
223.555	21.93
223.774	35.29
223.993	35.49
224.213	32.26
224.432	29.01
224.651	13.62
224.87	23.47
225.089	32.14
225.308	18.18
225.527	11.26
225.746	4.89
225.965	-6.74
226.184	-5.27
226.404	-20.92
226.623	-11.98
226.842	-8.54
227.061	5.99
227.28	22.42
227.499	37.58
227.718	44.59
227.936	47.66
228.155	41.85
228.374	49.61
228.593	36.19
228.812	30.46
229.031	21.16
229.25	24.11
229.469	34.63
229.688	46.19
229.907	45.79
230.125	46.44
230.344	54.21
230.563	68.03
230.782	60.83
231.001	57.25
231.22	46.3
231.438	40.23
231.657	47.9
231.876	41.14
232.095	23.25
232.313	24.83
232.532	20.38
232.751	26.89
232.969	26.51
233.188	19.86
233.407	18.64
233.625	30.46
233.844	30.95
234.063	34.89
234.281	29.97
234.5	40.49
234.719	39.76
234.937	47.04
235.156	43.72
235.374	51
235.593	41.55
235.811	38.27
236.03	18.51
236.249	32.67
236.467	31.8
236.686	36.42
236.904	13.31
237.123	28.93
237.341	29.19
237.559	28.42
237.778	30.58
237.996	21
238.215	16.09
238.433	30.12
238.652	24.21
238.87	29.15
239.088	25.7
239.307	25.06
239.525	18.46
239.743	15.39
239.962	10.65
240.18	19.43
240.398	15.82
240.617	26.16
240.835	17.82
241.053	31.62
241.271	36.58
241.49	29.95
241.708	28.53
241.926	16.27
242.144	12.91
242.363	15.81
242.581	18.9
242.799	8.87
243.017	19.84
243.235	0.61
243.453	13.62
243.672	14.99
243.89	18.1
244.108	13.73
244.326	22.89
244.544	21.83
244.762	32.97
244.98	35.39
245.198	26.85
245.416	22.29
245.634	29.44
245.852	26.78
246.07	23.41
246.288	23.02
246.506	18.71
246.724	27.51
246.942	33.11
247.16	18.47
247.378	11.21
247.596	21.56
247.814	13.45
248.032	9.09
248.25	7.46
248.468	10.75
248.685	22.09
248.903	19.26
249.121	17.05
249.339	28.38
249.557	30.04
249.775	18.14
249.992	12.54
250.21	9.87
250.428	10.04
250.646	15.21
250.863	12.19
251.081	18.49
251.299	36.42
251.517	38.26
251.734	35.77
251.952	53.1
252.17	38.99
252.387	45.24
252.605	52.14
252.823	46.22
253.04	53.84
253.258	54.75
253.475	32.82
253.693	39.4
253.911	30.51
254.128	19.97
254.346	19.31
254.563	12.21
254.781	11.52
254.998	16.97
255.216	13.16
255.433	12.96
255.651	11.66
255.868	11.22
256.086	7.65
256.303	8.94
256.521	-9.05
256.738	-13.49
256.956	-17.87
257.173	-10.21
257.39	-6.09
257.608	6.77
257.825	3.97
258.043	20.39
258.26	21.59
258.477	33.89
258.695	43.74
258.912	53.7
259.129	44.33
259.346	40.84
259.564	39.01
259.781	43.34
259.998	33.23
260.216	35.68
260.433	27.93
260.65	41.71
260.867	35.82
261.084	32.86
261.302	23.36
261.519	16.6
261.736	-0.62
261.953	5.52
262.17	-0.89
262.387	2.81
262.604	-5.86
262.822	-4.62
263.039	-1.67
263.256	9.92
263.473	2.33
263.69	-3.25
263.907	12.08
264.124	9.96
264.341	8.77
264.558	17.07
264.775	13.21
264.992	17.74
265.209	29.4
265.426	18.03
265.643	26.52
265.86	30.79
266.077	34.66
266.294	35.74
266.51	40.72
266.727	20.89
266.944	33.29
267.161	30.76
267.378	40.05
267.595	27.32
267.812	25.18
268.028	21.81
268.245	31.41
268.462	34.91
268.679	25.09
268.896	24.04
269.112	33.22
269.329	35.43
269.546	23.45
269.763	30.47
269.979	25.31
270.196	35.07
270.413	35.65
270.629	30.06
270.846	35.61
271.063	41.07
271.279	36.34
271.496	29.31
271.712	33.92
271.929	38.91
272.146	40.1
272.362	22.19
272.579	26.36
272.795	18.47
273.012	24.66
273.228	16.78
273.445	12.55
273.661	11.75
273.878	17.37
274.094	14.63
274.311	19.84
274.527	17.68
274.744	16.48
274.96	15
275.177	21.01
275.393	28.01
275.609	22.75
275.826	28.76
276.042	32.74
276.259	30.53
276.475	22.89
276.691	23.24
276.908	23.16
277.124	29.85
277.34	22.06
277.557	24.57
277.773	19.88
277.989	19.71
278.205	-1.05
278.422	5.07
278.638	7.66
278.854	16.16
279.07	8.54
279.286	14.85
279.503	19.82
279.719	39.76
279.935	19.53
280.151	29.35
280.367	24.33
280.583	25.51
280.799	31.93
281.016	29.86
281.232	22.1
281.448	30.02
281.664	25.77
281.88	33.19
282.096	33.67
282.312	19.8
282.528	21.57
282.744	23.99
282.96	28.81
283.176	16.18
283.392	17.52
283.608	33.11
283.824	35.86
284.04	35.14
284.256	27.4
284.471	22.65
284.687	24.22
284.903	19.6
285.119	-0.04
285.335	3.21
285.551	12.97
285.767	25.98
285.982	27.65
286.198	28.28
286.414	42.52
286.63	54.16
286.846	51.79
287.061	46.84
287.277	42.88
287.493	53.89
287.709	49.29
287.924	36.17
288.14	30.37
288.356	36.48
288.571	23.64
288.787	32.79
289.003	25.58
289.218	35.54
289.434	43.64
289.65	42.17
289.865	44.14
290.081	50.32
290.296	43.19
290.512	40.24
290.727	43.1
290.943	38.39
291.159	36.58
291.374	44.28
291.59	33.61
291.805	38.39
292.021	28.16
292.236	17.71
292.451	13.26
292.667	20.29
292.882	-3.85
293.098	3.05
293.313	-8.66
293.529	5.41
293.744	15.67
293.959	16.46
294.175	10.92
294.39	28.92
294.605	23.08
294.821	25.22
295.036	22.66
295.251	27.31
295.467	25.8
295.682	26.32
295.897	22.6
296.112	30.77
296.328	38.05
296.543	40.69
296.758	30.18
296.973	33.36
297.188	31.82
297.404	35.92
297.619	31.58
297.834	32.45
298.049	28.56
298.264	33.35
298.479	28.05
298.694	31.18
298.909	22.89
299.125	27.49
299.34	19.78
299.555	25.39
299.77	19.28
299.985	27.16
300.2	22.15
300.415	24.47
300.63	10.62
300.845	17.43
301.06	14.36
301.275	17.56
301.49	9.91
301.704	10.79
301.919	2.18
302.134	1.06
302.349	-7.05
302.564	-17.21
302.779	-19.69
302.994	-19.37
303.209	-28.3
303.423	-6.82
303.638	9.92
303.853	30.6
304.068	35.17
304.283	32.16
304.497	31.49
304.712	39.76
304.927	27.85
305.142	27.5
305.356	22.05
305.571	28.57
305.786	31.83
306	38.42
306.215	33.52
306.43	45.36
306.644	40.25
306.859	38.65
307.074	29.89
307.288	31.43
307.503	25.16
307.717	25.5
307.932	30.3
308.147	38.41
308.361	34.09
308.576	32.15
308.79	27.94
309.005	30.06
309.219	28.69
309.434	20.35
309.648	6.26
309.863	6.24
310.077	7.45
310.292	8.78
310.506	14.91
310.72	22.87
310.935	19.26
311.149	23.94
311.364	25.49
311.578	18.45
311.792	16.61
312.007	12.32
312.221	8.95
312.435	10.58
312.649	-9.73
312.864	-13.42
313.078	-7.11
313.292	-3.57
313.507	0.88
313.721	3.13
313.935	17.76
314.149	33.74
314.363	36.4
314.578	57.89
314.792	56.85
315.006	52.28
315.22	44.1
315.434	27.9
315.648	32.78
315.862	26.7
316.077	8.26
316.291	7.2
316.505	13.9
316.719	5.45
316.933	12.79
317.147	7.01
317.361	14.2
317.575	24.66
317.789	19.46
318.003	10.16
318.217	18.99
318.431	21.56
318.645	16.16
318.859	6.04
319.073	0.65
319.287	5.62
319.5	5.22
319.714	4.71
319.928	11.07
320.142	16.69
320.356	31.55
320.57	35.44
320.784	35.86
320.997	49.26
321.211	53.02
321.425	38.86
321.639	35.92
321.853	21.63
322.066	21.63
322.28	27.88
322.494	16.8
322.707	17.67
322.921	29.09
323.135	35.37
323.349	44.38
323.562	39.99
323.776	34.97
323.989	35.09
324.203	36.41
324.417	25.1
324.63	11.56
324.844	4.78
325.057	12.86
325.271	-10.15
325.485	-0.48
325.698	0.39
325.912	10.91
326.125	23.23
326.339	30.66
326.552	28.54
326.766	52.08
326.979	47.23
327.193	39.17
327.406	32.63
327.619	16.42
327.833	13.41
328.046	8.63
328.26	-5.16
328.473	-18.13
328.686	-11.85
328.9	-16.03
329.113	-3.36
329.326	3.43
329.54	9.21
329.753	11.77
329.966	17.99
330.179	22.78
330.393	26.14
330.606	32.56
330.819	30.16
331.032	26.78
331.246	30.17
331.459	34.27
331.672	34.35
331.885	33.94
332.098	33.98
332.311	23.57
332.525	20.05
332.738	22.25
332.951	24.7
333.164	20.51
333.377	13.65
333.59	17.24
333.803	29.68
334.016	28.72
334.229	23.14
334.442	26.6
334.655	29.23
334.868	35.57
335.081	34.87
335.294	19.96
335.507	33.51
335.72	24.59
335.933	24.03
336.146	23.86
336.359	22.53
336.572	12.02
336.785	20
336.997	9.04
337.21	14.11
337.423	10.94
337.636	9.93
337.849	1.79
338.062	9.49
338.274	9.25
338.487	10.07
338.7	10.38
338.913	5.32
339.125	14.53
339.338	23.22
339.551	21.35
339.763	20.9
339.976	23.76
340.189	21.55
340.402	23.32
340.614	21.27
340.827	18.57
341.039	23.86
341.252	16.73
341.465	17.2
341.677	16.53
341.89	19.07
342.102	15.05
342.315	22.08
342.527	15.55
342.74	28.13
342.952	36.03
343.165	45.39
343.377	46.21
343.59	43.91
343.802	43.53
344.015	41.57
344.227	32.09
344.44	19.64
344.652	22.83
344.864	25.16
345.077	28.29
345.289	17.53
345.502	16.89
345.714	20.33
345.926	25.73
346.139	17.03
346.351	5.81
346.563	8.04
346.775	18.07
346.988	19.37
347.2	15.97
347.412	13.36
347.624	15.45
347.837	15.86
348.049	14.92
348.261	11.07
348.473	2.34
348.685	7.35
348.897	8.63
349.11	14.44
349.322	15.45
349.534	18.36
349.746	25.95
349.958	33.97
350.17	31.86
350.382	25.86
350.594	18.17
350.806	25.5
351.018	25.8
351.23	25.32
351.442	24.15
351.654	25.57
351.866	35.34
352.078	34.34
352.29	38.18
352.502	38.38
352.714	35.98
352.926	34.37
353.138	36.65
353.35	28.97
353.561	20.71
353.773	18.73
353.985	18.14
354.197	9.85
354.409	15.05
354.621	15.82
354.832	8.02
355.044	21.71
355.256	11.28
355.468	7.49
355.679	18.14
355.891	14.53
356.103	13.91
356.314	15.61
356.526	8.71
356.738	10.41
356.949	10.32
357.161	9.01
357.373	8.34
357.584	13.1
357.796	12.47
358.008	9.28
358.219	17.05
358.431	15.17
358.642	14
358.854	14.29
359.065	14.4
359.277	15.99
359.488	23.88
359.7	21.82
359.911	26.51
360.123	30.9
360.334	22.84
360.546	11.75
360.757	20.87
360.969	20.18
361.18	11.95
361.391	12.38
361.603	8.44
361.814	15.21
362.025	17.88
362.237	17.16
362.448	17.9
362.659	21.72
362.871	24.27
363.082	29.69
363.293	34.49
363.504	34.74
363.716	27.13
363.927	25.75
364.138	29.13
364.349	26.06
364.56	22.14
364.772	16.39
364.983	11.39
365.194	14.84
365.405	16.06
365.616	3.71
365.827	8.14
366.038	22.22
366.25	23.8
366.461	32.75
366.672	38.5
366.883	39.6
367.094	44.81
367.305	40.87
367.516	21.6
367.727	17.77
367.938	22.05
368.149	17.35
368.36	15.15
368.571	17.78
368.781	17.64
368.992	18.47
369.203	20.81
369.414	9.93
369.625	7.84
369.836	10.53
370.047	5.78
370.258	3.8
370.468	6.47
370.679	5.18
370.89	11.82
371.101	10.48
371.312	4.42
371.522	8.56
371.733	-0.4
371.944	7.66
372.155	-7.61
372.365	-15.45
372.576	-13.23
372.787	-14.96
372.997	-14.33
373.208	-7.63
373.419	-15.62
373.629	8.59
373.84	10.99
374.05	15.23
374.261	17.35
374.472	9.88
374.682	9.11
374.893	12.57
375.103	6.49
375.314	7.52
375.524	5.76
375.735	7.42
375.945	13.57
376.156	24.91
376.366	28.33
376.577	28.22
376.787	32.67
376.997	43.71
377.208	45.78
377.418	43.57
377.629	34.99
377.839	32.25
378.049	31.69
378.26	34.34
378.47	28.48
378.68	23.58
378.89	20.03
379.101	12.55
379.311	6.05
379.521	7.47
379.732	-3.78
379.942	-10.03
380.152	-1.66
380.362	-1.81
380.572	3.34
380.783	7.9
380.993	4.26
381.203	1.94
381.413	9.91
381.623	10.92
381.833	11.08
382.043	6.91
382.253	3.56
382.463	9.09
382.674	18.55
382.884	11.76
383.094	8.67
383.304	7.29
383.514	9.56
383.724	12.39
383.934	8.38
384.144	11.72
384.353	14.52
384.563	10.12
384.773	12.34
384.983	16.88
385.193	16.48
385.403	17.37
385.613	8.41
385.823	5.93
386.033	9.18
386.242	9.52
386.452	3.3
386.662	2.03
386.872	1.19
387.082	0.92
387.291	3.47
387.501	6.2
387.711	3.84
387.921	5.12
388.13	5.56
388.34	4.01
388.55	8.37
388.759	6.5
388.969	2.64
389.179	8.01
389.388	10.04
389.598	8.7
389.807	9.89
390.017	8.65
390.227	6.61
390.436	6.09
390.646	5.04
390.855	2.39
391.065	2.89
391.274	2.59
391.484	3.26
391.693	5.58
391.903	6.26
392.112	5.71
392.322	8.1
392.531	8.49
392.74	7.75
392.95	8.24
393.159	7.7
393.369	8.3
393.578	8.28
393.787	8.31
393.997	8.96
394.206	9.22
394.415	8.74
394.625	7.43
394.834	5.85
395.043	5.4
395.252	4.98
395.462	4.34
395.671	4.48
395.88	4.22
396.089	4.71
396.298	5.69
396.508	5.62
396.717	5.44
396.926	5.13
397.135	5.21
397.344	5.1
397.553	5.76
397.762	5.34
397.971	4.92
398.181	4.78
398.39	5.13
398.599	5.2
398.808	5.5
399.017	5.28
399.226	5.79
399.435	5.85
399.644	5.84
399.853	5.95
400.062	5.8
400.27	5.62
400.479	5.62
400.688	5.35
400.897	5.76
401.106	6.07
401.315	5.71
401.524	6.02
401.733	5.85
401.941	5.7
402.15	5.57
402.359	5.56
402.568	5.3
402.777	5.51
402.985	5.4
403.194	5.5
403.403	5.41
403.612	5.44
403.82	5.25
404.029	5.39
404.238	5.41
404.446	5.31
404.655	5.15
404.864	5.09
405.072	5.2
405.281	5.14
405.489	5.07
405.698	4.86
405.906	4.89
406.115	5.06
406.324	5.03
406.532	5.06
406.741	5.22
406.949	5.2
407.158	5.35
407.366	5.37
407.574	5.37
407.783	5.38
407.991	5.2
408.2	5.13
408.408	5.14
408.617	5.08
408.825	5.09
409.033	5.03
409.242	5.08
409.45	5.09
409.658	5.07
409.867	5.02
410.075	4.92
410.283	4.87
410.491	4.87
410.7	4.89
410.908	4.97
411.116	4.87
411.324	4.94
411.533	4.88
411.741	4.84
411.949	4.86
412.157	4.88
412.365	4.88
412.573	4.97
412.781	5
412.99	5.19
413.198	5.28
413.406	5.24
413.614	5.23
413.822	5.17
414.03	5.14
414.238	5.13
414.446	4.97
414.654	4.83
414.862	4.82
415.07	4.84
415.278	4.85
415.486	4.86
415.694	4.67
415.902	4.67
416.109	4.83
416.317	4.8
416.525	4.86
416.733	4.92
416.941	4.88
417.149	5.08
417.357	5.14
417.564	5.08
417.772	5.1
417.98	4.93
418.188	4.81
418.395	4.85
418.603	4.73
418.811	4.64
419.019	4.7
419.226	4.81
419.434	4.84
419.642	4.99
419.849	4.98
420.057	5.02
420.265	5.11
420.472	4.93
420.68	4.79
420.887	4.82
421.095	4.79
421.302	4.8
421.51	4.84
421.717	4.86
421.925	4.87
422.132	4.81
422.34	4.79
422.547	4.65
422.755	4.63
422.962	4.57
423.17	4.47
423.377	4.53
423.585	4.59
423.792	4.61
423.999	4.66
424.207	4.6
424.414	4.66
424.621	4.63
424.829	4.55
425.036	4.51
425.243	4.55
425.451	4.52
425.658	4.61
425.865	4.57
426.072	4.69
426.28	4.67
426.487	4.66
426.694	4.64
426.901	4.63
427.108	4.64
427.315	4.51
427.523	4.5
427.73	4.59
427.937	4.63
428.144	4.56
428.351	4.62
428.558	4.54
428.765	4.62
428.972	4.56
429.179	4.51
429.386	4.48
429.593	4.48
429.8	4.47
430.007	4.55
430.214	4.59
430.421	4.61
430.628	4.5
430.835	4.5
431.042	4.59
431.249	4.64
431.456	4.67
431.662	4.72
431.869	4.83
432.076	4.96
432.283	4.94
432.49	4.9
432.697	4.91
432.903	4.88
433.11	4.83
433.317	4.75
433.524	4.69
433.73	4.72
433.937	4.63
434.144	4.66
434.35	4.62
434.557	4.59
434.764	4.57
434.97	4.71
435.177	4.7
435.384	4.82
435.59	4.75
435.797	4.72
436.003	4.68
436.21	4.66
436.416	4.48
436.623	4.56
436.829	4.51
437.036	4.51
437.242	4.53
437.449	4.6
437.655	4.61
437.862	4.64
438.068	4.64
438.275	4.67
438.481	4.69
438.687	4.71
438.894	4.63
439.1	4.63
439.307	4.66
439.513	4.62
439.719	4.58
439.926	4.59
440.132	4.63
440.338	4.69
440.544	4.65
440.751	4.71
440.957	4.69
441.163	4.69
441.369	4.63
441.575	4.6
441.782	4.55
441.988	4.6
442.194	4.6
442.4	4.63
442.606	4.61
442.812	4.68
443.018	4.68
443.224	4.71
443.431	4.72
443.637	4.67
443.843	4.67
444.049	4.67
444.255	4.65
444.461	4.68
444.667	4.67
444.873	4.68
445.079	4.7
445.284	4.69
445.49	4.65
445.696	4.64
445.902	4.59
446.108	4.55
446.314	4.6
446.52	4.65
446.726	4.63
446.931	4.69
447.137	4.73
447.343	4.79
447.549	4.79
447.755	4.74
447.96	4.73
448.166	4.75
448.372	4.72
448.578	4.69
448.783	4.62
448.989	4.63
449.195	4.65
449.4	4.6
449.606	4.55
449.812	4.59
450.017	4.56
450.223	4.64
450.428	4.66
450.634	4.59
450.84	4.59
451.045	4.61
451.251	4.61
451.456	4.59
451.662	4.5
451.867	4.5
452.073	4.5
452.278	4.48
452.483	4.46
452.689	4.44
452.894	4.49
453.1	4.49
453.305	4.42
453.51	4.49
453.716	4.53
453.921	4.57
454.127	4.56
454.332	4.52
454.537	4.55
454.742	4.55
454.948	4.53
455.153	4.5
455.358	4.52
455.563	4.57
455.769	4.57
455.974	4.53
456.179	4.57
456.384	4.53
456.589	4.58
456.795	4.47
457	4.43
457.205	4.4
457.41	4.44
457.615	4.47
457.82	4.55
458.025	4.5
458.23	4.55
458.435	4.52
458.64	4.52
458.845	4.53
459.05	4.47
459.255	4.4
459.46	4.41
459.665	4.47
459.87	4.47
460.075	4.47
460.28	4.45
460.485	4.5
460.69	4.51
460.895	4.54
461.099	4.49
461.304	4.52
461.509	4.49
461.714	4.54
461.919	4.51
462.123	4.51
462.328	4.5
462.533	4.5
462.738	4.48
462.942	4.57
463.147	4.52
463.352	4.56
463.556	4.59
463.761	4.59
463.966	4.64
464.17	4.65
464.375	4.6
464.58	4.61
464.784	4.6
464.989	4.55
465.193	4.58
465.398	4.57
465.602	4.59
465.807	4.61
466.011	4.61
466.216	4.59
466.42	4.61
466.625	4.59
466.829	4.62
467.034	4.61
467.238	4.62
467.443	4.64
467.647	4.68
467.851	4.68
468.056	4.64
468.26	4.56
468.464	4.53
468.669	4.57
468.873	4.57
469.077	4.57
469.282	4.61
