Data from Ofra_2a_PS_2H517_Reflection_3.txt Node
Date: Tue Jul 20 09:45:47 EDT 2021
User: Adam
Spectrometer: FLMT01687
Trigger mode: 0
Integration Time (sec): 9.450000E-1
Scans to average: 3
Electric dark correction enabled: true
Nonlinearity correction enabled: false
Boxcar width: 3
XAxis mode: Wavelengths
Number of Pixels in Spectrum: 3648
>>>>>Begin Spectral Data<<<<<
179.494	1347.34
179.716	856.69
179.937	856.04
180.158	3389.06
180.38	-2023.26
180.601	-419.33
180.823	-106.85
181.044	59.76
181.265	55.98
181.486	39.95
181.708	-691.3
181.929	113.02
182.15	-88.64
182.372	97.47
182.593	141.78
182.814	100.6
183.035	30.99
183.257	82.76
183.478	63.67
183.699	67.68
183.92	44.11
184.141	54.47
184.363	47.82
184.584	49.26
184.805	37.72
185.026	5.46
185.247	19.83
185.468	29.12
185.689	14.52
185.91	1.58
186.132	7.23
186.353	-12.49
186.574	7.01
186.795	-17.51
187.016	-14.68
187.237	-10.56
187.458	-10.41
187.679	-42.07
187.9	-12.62
188.121	-9.43
188.342	38.61
188.563	40.71
188.784	31.44
189.005	35.88
189.226	42.49
189.447	34.95
189.667	29.13
189.888	26.78
190.109	24.01
190.33	17.37
190.551	7.58
190.772	5
190.993	21.31
191.214	20.91
191.434	11.19
191.655	20.17
191.876	26.99
192.097	29.58
192.318	32.66
192.538	30.93
192.759	34.26
192.98	24.09
193.201	28.64
193.421	27.86
193.642	37.77
193.863	31.88
194.083	31.01
194.304	23.3
194.525	27.3
194.745	1.48
194.966	7.51
195.187	7.33
195.407	12.25
195.628	6.51
195.848	3.2
196.069	1.96
196.29	-5.46
196.51	-10.4
196.731	-12.34
196.951	-15.06
197.172	-26.15
197.392	1.62
197.613	-0.98
197.833	16.79
198.054	20.22
198.274	9.98
198.495	18.61
198.715	22.67
198.936	11.55
199.156	20.87
199.377	28.08
199.597	23.15
199.817	32.07
200.038	26.94
200.258	24.6
200.479	26.26
200.699	22.29
200.919	-3.27
201.14	-5.67
201.36	4.12
201.58	9.95
201.801	5.85
202.021	7.71
202.241	9.61
202.461	26.41
202.682	28.85
202.902	15.23
203.122	11
203.342	43.28
203.563	45.48
203.783	38.09
204.003	36.51
204.223	39.69
204.443	38.66
204.663	34.17
204.884	7.84
205.104	9.51
205.324	13.6
205.544	19.16
205.764	13.77
205.984	25.46
206.204	32.3
206.424	34.25
206.644	33.34
206.864	33.79
207.084	32.68
207.304	20.75
207.525	1.45
207.745	8.64
207.964	7.71
208.184	5.66
208.404	5.9
208.624	-21.92
208.844	-16.32
209.064	6.54
209.284	-4.34
209.504	-12.68
209.724	-45.92
209.944	-43.34
210.164	-22.84
210.384	-3.45
210.604	-24.54
210.823	-13.03
211.043	-16.24
211.263	12.7
211.483	12.55
211.703	15.47
211.922	11.74
212.142	17.46
212.362	14.73
212.582	15.58
212.801	12.11
213.021	6.75
213.241	4.53
213.461	3.53
213.68	4.52
213.9	13.61
214.12	9.16
214.339	7.62
214.559	23.61
214.779	23.55
214.998	23.3
215.218	26.79
215.438	23.32
215.657	29.73
215.877	26.21
216.096	16.32
216.316	14.64
216.535	14.48
216.755	-3.18
216.974	-12.42
217.194	-9.28
217.413	8.45
217.633	-0.34
217.852	3.85
218.072	-15.19
218.291	13.82
218.511	19.68
218.73	9.67
218.95	-3.02
219.169	6.8
219.389	11.76
219.608	23.41
219.827	11.36
220.047	21.3
220.266	28.77
220.485	38.12
220.705	24.64
220.924	22.87
221.143	19.82
221.363	21.41
221.582	13.49
221.801	16.3
222.021	17.2
222.24	21.92
222.459	12.27
222.678	-0.14
222.897	-1.88
223.117	-0.24
223.336	1.26
223.555	-15.78
223.774	-11.78
223.993	14.53
224.213	24.21
224.432	36.3
224.651	34.52
224.87	29.35
225.089	41.19
225.308	46.71
225.527	30.75
225.746	30.58
225.965	14.33
226.184	-2.91
226.404	-21.69
226.623	-26.58
226.842	-23.11
227.061	-20.59
227.28	-3.25
227.499	21.3
227.718	28.22
227.936	35.38
228.155	34.78
228.374	29.23
228.593	32.67
228.812	16.12
229.031	-9.47
229.25	8.59
229.469	13.85
229.688	18.17
229.907	12.53
230.125	14.3
230.344	15.7
230.563	33.39
230.782	20.85
231.001	19.92
231.22	21.46
231.438	29.56
231.657	28.32
231.876	29.06
232.095	25.96
232.313	40.56
232.532	43.5
232.751	44.54
232.969	45.42
233.188	49.59
233.407	48.67
233.625	48.27
233.844	27.37
234.063	22.43
234.281	17.02
234.5	13.18
234.719	10.94
234.937	18.16
235.156	15.21
235.374	18.36
235.593	17.95
235.811	12.54
236.03	9.86
236.249	12.35
236.467	9.61
236.686	17.47
236.904	14.01
237.123	5.91
237.341	3.56
237.559	2.28
237.778	5.31
237.996	2.78
238.215	2
238.433	17.78
238.652	17.81
238.87	25.29
239.088	24.2
239.307	21.26
239.525	9.38
239.743	3.67
239.962	-8.68
240.18	7.46
240.398	10.54
240.617	15.93
240.835	12.69
241.053	34.65
241.271	42.35
241.49	40.46
241.708	33.31
241.926	22.86
242.144	27.61
242.363	27.33
242.581	16.29
242.799	6.25
243.017	15.04
243.235	-1.78
243.453	9.48
243.672	10.3
243.89	19
244.108	21.5
244.326	25.77
244.544	25.22
244.762	31.65
244.98	26.89
245.198	16.64
245.416	15.68
245.634	25.31
245.852	27.01
246.07	24
246.288	27.22
246.506	29.99
246.724	45.79
246.942	44.03
247.16	28.62
247.378	17.56
247.596	29.24
247.814	25.89
248.032	35.58
248.25	23.05
248.468	19.08
248.685	32.21
248.903	36.09
249.121	34
249.339	38.52
249.557	33.04
249.775	20.33
249.992	12.91
250.21	-6.09
250.428	-11.87
250.646	-15.35
250.863	-24.29
251.081	-32.89
251.299	-5.36
251.517	7.47
251.734	24.58
251.952	36.79
252.17	20.24
252.387	31.66
252.605	22.18
252.823	16.47
253.04	8.92
253.258	11.47
253.475	12.6
253.693	29.82
253.911	27.33
254.128	30.69
254.346	19.21
254.563	10
254.781	10.46
254.998	5.55
255.216	1.01
255.433	-7.63
255.651	-14.12
255.868	-2.69
256.086	9.44
256.303	15.01
256.521	6.99
256.738	-2.15
256.956	4.81
257.173	14.89
257.39	11.84
257.608	13.54
257.825	7.54
258.043	21.84
258.26	24.95
258.477	27.17
258.695	27.57
258.912	30.05
259.129	23.11
259.346	29.45
259.564	25.97
259.781	29.5
259.998	20.54
260.216	25.14
260.433	30.98
260.65	35
260.867	9.33
261.084	11.38
261.302	4.82
261.519	4.55
261.736	-10.21
261.953	-21.19
262.17	-16.47
262.387	-5.8
262.604	-27.09
262.822	-23.24
263.039	-24.15
263.256	-11.66
263.473	-24.28
263.69	-28.62
263.907	-22.12
264.124	-3.98
264.341	-1.95
264.558	6.96
264.775	9.3
264.992	23.79
265.209	34.25
265.426	33.87
265.643	31.3
265.86	33.02
266.077	28.64
266.294	23.57
266.51	22.52
266.727	2.52
266.944	-8.34
267.161	-13.13
267.378	-22.11
267.595	-22.13
267.812	-21.31
268.028	-16.66
268.245	-6.23
268.462	0.73
268.679	0.77
268.896	-0.33
269.112	14.27
269.329	10.72
269.546	6.14
269.763	14.71
269.979	15.96
270.196	18.38
270.413	17.27
270.629	11.25
270.846	20.56
271.063	20.9
271.279	17.49
271.496	4.76
271.712	4.88
271.929	12.84
272.146	15.46
272.362	-7.38
272.579	-13.02
272.795	-26.65
273.012	-14.63
273.228	-21.79
273.445	-23.23
273.661	-23.25
273.878	-7.2
274.094	4.08
274.311	7.44
274.527	8.54
274.744	14.02
274.96	14.73
275.177	24.61
275.393	20.78
275.609	17.69
275.826	28.89
276.042	35.51
276.259	33.71
276.475	25.83
276.691	19.97
276.908	24.2
277.124	21.11
277.34	11.32
277.557	15.97
277.773	14.16
277.989	16.66
278.205	9.62
278.422	14.57
278.638	22.46
278.854	24.03
279.07	5.45
279.286	6.06
279.503	13.27
279.719	21.03
279.935	4.91
280.151	4.64
280.367	3.91
280.583	14.09
280.799	18.5
281.016	23.05
281.232	15.76
281.448	18.78
281.664	10.42
281.88	16.61
282.096	18.79
282.312	9.53
282.528	-17.46
282.744	-4.3
282.96	9.38
283.176	14.24
283.392	22.05
283.608	27.91
283.824	26.35
284.04	27.3
284.256	24.75
284.471	19.71
284.687	14.72
284.903	3.79
285.119	-11.93
285.335	-3.49
285.551	10.25
285.767	6.48
285.982	12.64
286.198	19.67
286.414	27.89
286.63	34.42
286.846	28.14
287.061	26.5
287.277	32.55
287.493	32.23
287.709	21.43
287.924	13.01
288.14	14.22
288.356	21.29
288.571	12.13
288.787	12.37
289.003	6.06
289.218	20.4
289.434	19.57
289.65	17.06
289.865	24.3
290.081	22.79
290.296	20.86
290.512	24.18
290.727	28.66
290.943	26.51
291.159	21.58
291.374	15.17
291.59	7.18
291.805	2.94
292.021	0.64
292.236	-1.52
292.451	5.19
292.667	6.03
292.882	-2.07
293.098	8.57
293.313	2.46
293.529	1.28
293.744	-8.07
293.959	1.37
294.175	8.81
294.39	14.59
294.605	19.08
294.821	15.6
295.036	17.96
295.251	22.95
295.467	14.22
295.682	9.26
295.897	13.67
296.112	12.83
296.328	18.5
296.543	16.8
296.758	20.29
296.973	26.03
297.188	26.87
297.404	31.6
297.619	34.83
297.834	36.34
298.049	35.51
298.264	27.94
298.479	19.16
298.694	28.86
298.909	15.82
299.125	15.89
299.34	12.58
299.555	22.33
299.77	24.75
299.985	22.55
300.2	16.01
300.415	31.32
300.63	31.49
300.845	37.45
301.06	27.99
301.275	30.92
301.49	36.8
301.704	39.93
301.919	17.52
302.134	12.33
302.349	0.44
302.564	-7.97
302.779	-14.76
302.994	-18.85
303.209	-29.63
303.423	0.7
303.638	5.04
303.853	23.82
304.068	25.19
304.283	27.03
304.497	19.26
304.712	20.64
304.927	11.57
305.142	10.18
305.356	5.8
305.571	19.16
305.786	15.97
306	22.49
306.215	24.05
306.43	28.56
306.644	31.18
306.859	24.48
307.074	12.66
307.288	16.66
307.503	20.21
307.717	10.94
307.932	11.83
308.147	6.91
308.361	12.48
308.576	16.19
308.79	11.21
309.005	10.72
309.219	22.14
309.434	20.31
309.648	12.91
309.863	6.88
310.077	-4.38
310.292	4.67
310.506	4.52
310.72	9.62
310.935	9.77
311.149	23.77
311.364	32.74
311.578	33.43
311.792	29.79
312.007	20.34
312.221	17.91
312.435	25.04
312.649	5.79
312.864	-6.17
313.078	5.16
313.292	16.92
313.507	25.61
313.721	21.14
313.935	25.19
314.149	32.27
314.363	38.23
314.578	63.11
314.792	55
315.006	53.42
315.22	57.27
315.434	48.01
315.648	49.64
315.862	46.48
316.077	15.72
316.291	15.46
316.505	19.62
316.719	-5.86
316.933	1.99
317.147	8.26
317.361	9.81
317.575	17.52
317.789	19.51
318.003	23.4
318.217	36.01
318.431	35.53
318.645	33.79
318.859	26.68
319.073	28.96
319.287	29.71
319.5	21.88
319.714	24.4
319.928	19.09
320.142	18.56
320.356	28.12
320.57	21
320.784	23.28
320.997	27.6
321.211	25.48
321.425	12.87
321.639	12.24
321.853	-3.18
322.066	-1.48
322.28	-5.1
322.494	-7.31
322.707	-6.42
322.921	8.3
323.135	13.89
323.349	25.44
323.562	25.22
323.776	23.56
323.989	28.01
324.203	24.51
324.417	15.64
324.63	3.79
324.844	-7.57
325.057	-2.48
325.271	-12.58
325.485	-11.95
325.698	-11.07
325.912	4.99
326.125	15.07
326.339	23.31
326.552	23.74
326.766	31.8
326.979	28.42
327.193	24.85
327.406	16.04
327.619	0.48
327.833	-5.35
328.046	-6.15
328.26	-10.22
328.473	-9.51
328.686	1.73
328.9	-3.25
329.113	6.07
329.326	8.1
329.54	4.58
329.753	10.55
329.966	9.05
330.179	8.52
330.393	13.69
330.606	17.59
330.819	23.65
331.032	30.01
331.246	30.62
331.459	38.79
331.672	38.71
331.885	34.46
332.098	38.29
332.311	26.53
332.525	18.47
332.738	14.44
332.951	11.44
333.164	-0.81
333.377	-11.77
333.59	-14.55
333.803	-0.3
334.016	2.42
334.229	-8.37
334.442	4.63
334.655	30.38
334.868	39.96
335.081	42.9
335.294	32.43
335.507	31.76
335.72	33.41
335.933	29.66
336.146	23.48
336.359	20.5
336.572	11.01
336.785	19.45
336.997	13.46
337.21	23.18
337.423	19.87
337.636	16.95
337.849	18.37
338.062	28.37
338.274	24.97
338.487	22.89
338.7	20.35
338.913	12.26
339.125	5.44
339.338	8.84
339.551	9.68
339.763	11.21
339.976	14.03
340.189	7.74
340.402	12.15
340.614	17.74
340.827	6.39
341.039	2.74
341.252	-0.75
341.465	-10
341.677	-12.21
341.89	-11.87
342.102	-9.01
342.315	7.11
342.527	3.5
342.74	2.04
342.952	17.85
343.165	31.77
343.377	33.64
343.59	28.04
343.802	25.92
344.015	30.75
344.227	27.99
344.44	16.72
344.652	17.03
344.864	19.92
345.077	22.24
345.289	19.91
345.502	12.01
345.714	12.89
345.926	3.32
346.139	2.55
346.351	-7.23
346.563	-6.67
346.775	-18.47
346.988	-14.39
347.2	-0.27
347.412	10.24
347.624	7.8
347.837	13.92
348.049	13.19
348.261	18.64
348.473	17.24
348.685	14.91
348.897	13.25
349.11	12.25
349.322	-1.19
349.534	-8.35
349.746	-1.46
349.958	-2.39
350.17	-8.44
350.382	-7.94
350.594	-9.73
350.806	6.19
351.018	14.1
351.23	10.1
351.442	17.82
351.654	22.32
351.866	24.32
352.078	25.25
352.29	25.67
352.502	25.12
352.714	27.01
352.926	24.26
353.138	21.82
353.35	16.48
353.561	11.81
353.773	11.24
353.985	13.14
354.197	12.11
354.409	14.42
354.621	12.97
354.832	12.41
355.044	23.71
355.256	15.27
355.468	10.69
355.679	16.15
355.891	14.43
356.103	11.42
356.314	13.08
356.526	6.21
356.738	0.54
356.949	5.33
357.161	1.06
357.373	4.04
357.584	10.76
357.796	6.59
358.008	6.17
358.219	18.74
358.431	20.55
358.642	16.08
358.854	10.5
359.065	0.73
359.277	1.51
359.488	-1.14
359.7	-0.81
359.911	-6.07
360.123	-0.76
360.334	-5.58
360.546	-2.85
360.757	6.63
360.969	18.31
361.18	14.91
361.391	15.77
361.603	20.45
361.814	30.23
362.025	30.03
362.237	25.51
362.448	22.13
362.659	19.79
362.871	19.21
363.082	19.79
363.293	19.97
363.504	23.18
363.716	23.85
363.927	18.73
364.138	20.6
364.349	22.32
364.56	16.45
364.772	7.95
364.983	2.7
365.194	-2.63
365.405	-9.57
365.616	-18.93
365.827	-18.95
366.038	-9.9
366.25	-3.5
366.461	-1.94
366.672	-4.49
366.883	5.36
367.094	3.01
367.305	1.71
367.516	-3.2
367.727	-3.36
367.938	0.45
368.149	3.13
368.36	6.17
368.571	12.36
368.781	9.95
368.992	7.37
369.203	9.51
369.414	2.23
369.625	4.66
369.836	-1.6
370.047	-0.71
370.258	2.54
370.468	0.45
370.679	-0.5
370.89	6.92
371.101	8.62
371.312	8.13
371.522	7.92
371.733	-2.94
371.944	10.01
372.155	-0.62
372.365	-2.7
372.576	-3.42
372.787	-3.85
372.997	-3.84
373.208	4.31
373.419	0.19
373.629	14.73
373.84	11.09
374.05	10.77
374.261	9.13
374.472	8.03
374.682	9.33
374.893	5.79
375.103	4.56
375.314	3.39
375.524	-0.85
375.735	3.41
375.945	4.17
376.156	9.25
376.366	10.31
376.577	6.08
376.787	14.35
376.997	22.62
377.208	21.67
377.418	20.56
377.629	14.04
377.839	17.54
378.049	23.17
378.26	22.75
378.47	21.28
378.68	20.59
378.89	21.64
379.101	15.7
379.311	8.97
379.521	9.39
379.732	-3.53
379.942	-9.25
380.152	-4.67
380.362	-4.53
380.572	0.4
380.783	1.59
380.993	-2.17
381.203	4.14
381.413	8.92
381.623	11.43
381.833	11.7
382.043	8.22
382.253	4.15
382.463	4.63
382.674	7.49
382.884	6.88
383.094	4.22
383.304	4.12
383.514	10.74
383.724	12.69
383.934	10.37
384.144	11.85
384.353	11.76
384.563	8.72
384.773	10.21
384.983	7.18
385.193	9.78
385.403	12.49
385.613	6.15
385.823	2.6
386.033	5.58
386.242	0.96
386.452	2.71
386.662	3.35
386.872	1.25
387.082	1.39
387.291	5.99
387.501	4.25
387.711	6.07
387.921	7.36
388.13	5.26
388.34	6.59
388.55	9.03
388.759	7.3
388.969	4.81
389.179	6.65
389.388	3.77
389.598	3.51
389.807	3.14
390.017	3.14
390.227	2.91
390.436	2.18
390.646	1.41
390.855	0.78
391.065	1.88
391.274	-0.23
391.484	0.29
391.693	1.69
391.903	3.85
392.112	3.16
392.322	5.38
392.531	4.3
392.74	4.24
392.95	4.03
393.159	3.75
393.369	3.32
393.578	4.22
393.787	3.04
393.997	4.47
394.206	4.57
394.415	4.43
394.625	3.38
394.834	3.44
395.043	4.12
395.252	4.72
395.462	4.25
395.671	4.86
395.88	4.63
396.089	4.99
396.298	4.79
396.508	3.88
396.717	3.38
396.926	2.79
397.135	2.79
397.344	2.45
397.553	2.57
397.762	2.65
397.971	2.55
398.181	2.47
398.39	2.96
398.599	2.97
398.808	3.75
399.017	3.95
399.226	4.03
399.435	4.19
399.644	4.27
399.853	4
400.062	3.83
400.27	3.63
400.479	3.38
400.688	3.35
400.897	3.39
401.106	3.54
401.315	3.44
401.524	3.57
401.733	3.54
401.941	3.46
402.15	3.23
402.359	3.14
402.568	2.98
402.777	3.01
402.985	2.78
403.194	2.69
403.403	2.45
403.612	2.48
403.82	2.57
404.029	2.58
404.238	2.62
404.446	2.69
404.655	2.58
404.864	2.76
405.072	2.83
405.281	2.66
405.489	2.69
405.698	2.57
405.906	2.43
406.115	2.62
406.324	2.48
406.532	2.47
406.741	2.49
406.949	2.44
407.158	2.58
407.366	2.74
407.574	2.71
407.783	2.77
407.991	2.67
408.2	2.66
408.408	2.63
408.617	2.54
408.825	2.55
409.033	2.52
409.242	2.5
409.45	2.56
409.658	2.54
409.867	2.58
410.075	2.62
410.283	2.54
410.491	2.45
410.7	2.5
410.908	2.52
411.116	2.42
411.324	2.48
411.533	2.37
411.741	2.34
411.949	2.4
412.157	2.38
412.365	2.33
412.573	2.42
412.781	2.3
412.99	2.4
413.198	2.46
413.406	2.43
413.614	2.44
413.822	2.39
414.03	2.35
414.238	2.38
414.446	2.27
414.654	2.21
414.862	2.2
415.07	2.27
415.278	2.28
415.486	2.36
415.694	2.31
415.902	2.31
416.109	2.3
416.317	2.23
416.525	2.14
416.733	2.17
416.941	1.99
417.149	2.09
417.357	2.13
417.564	2.16
417.772	2.15
417.98	2.17
418.188	2.07
418.395	2.18
418.603	2.06
418.811	2.02
419.019	2.03
419.226	2.22
419.434	2.07
419.642	2.1
419.849	2.12
420.057	2.21
420.265	2.21
420.472	2.11
420.68	1.98
420.887	2.06
421.095	2.12
421.302	2.17
421.51	2.19
421.717	2.22
421.925	2.18
422.132	2.15
422.34	2.13
422.547	2.09
422.755	2.03
422.962	1.92
423.17	1.84
423.377	2.01
423.585	2.07
423.792	2.05
423.999	1.99
424.207	1.86
424.414	1.91
424.621	2.06
424.829	1.99
425.036	1.93
425.243	2.04
425.451	2.04
425.658	2.18
425.865	2.08
426.072	2.02
426.28	2.03
426.487	2.03
426.694	1.96
426.901	1.92
427.108	1.9
427.315	1.88
427.523	1.82
427.73	1.77
427.937	1.83
428.144	1.88
428.351	2.1
428.558	2.09
428.765	2.09
428.972	2.11
429.179	2.09
429.386	2.07
429.593	1.98
429.8	1.87
430.007	1.88
430.214	1.98
430.421	1.89
430.628	1.78
430.835	1.71
431.042	1.77
431.249	1.75
431.456	1.76
431.662	1.68
431.869	1.84
432.076	2
432.283	1.99
432.49	1.96
432.697	1.95
432.903	1.98
433.11	2.07
433.317	2.03
433.524	1.99
433.73	2.06
433.937	2.05
434.144	2.15
434.35	2.11
434.557	2.06
434.764	2.07
434.97	2.14
435.177	2.1
435.384	2.21
435.59	2.16
435.797	2.17
436.003	2.19
436.21	2.1
436.416	2.04
436.623	2.12
436.829	2.07
437.036	2.06
437.242	2.03
437.449	2.06
437.655	2.06
437.862	2.11
438.068	2.1
438.275	2.1
438.481	2.17
438.687	2.23
438.894	2.2
439.1	2.31
439.307	2.24
439.513	2.22
439.719	2.28
439.926	2.25
440.132	2.25
440.338	2.31
440.544	2.27
440.751	2.3
440.957	2.3
441.163	2.33
441.369	2.32
441.575	2.33
441.782	2.28
441.988	2.29
442.194	2.35
442.4	2.34
442.606	2.29
442.812	2.34
443.018	2.34
443.224	2.34
443.431	2.33
443.637	2.28
443.843	2.3
444.049	2.3
444.255	2.25
444.461	2.3
444.667	2.32
444.873	2.33
445.079	2.35
445.284	2.32
445.49	2.28
445.696	2.31
445.902	2.32
446.108	2.32
446.314	2.41
446.52	2.46
446.726	2.51
446.931	2.57
447.137	2.55
447.343	2.52
447.549	2.49
447.755	2.43
447.96	2.35
448.166	2.4
448.372	2.35
448.578	2.41
448.783	2.37
448.989	2.42
449.195	2.43
449.4	2.46
449.606	2.38
449.812	2.47
450.017	2.4
450.223	2.43
450.428	2.41
450.634	2.42
450.84	2.47
451.045	2.51
451.251	2.51
451.456	2.53
451.662	2.52
451.867	2.55
452.073	2.55
452.278	2.5
452.483	2.47
452.689	2.45
452.894	2.42
453.1	2.41
453.305	2.4
453.51	2.38
453.716	2.4
453.921	2.38
454.127	2.35
454.332	2.37
454.537	2.42
454.742	2.4
454.948	2.41
455.153	2.4
455.358	2.48
455.563	2.53
455.769	2.54
455.974	2.48
456.179	2.41
456.384	2.42
456.589	2.46
456.795	2.39
457	2.38
457.205	2.34
457.41	2.39
457.615	2.43
457.82	2.51
458.025	2.48
458.23	2.49
458.435	2.46
458.64	2.54
458.845	2.52
459.05	2.56
459.255	2.48
459.46	2.49
459.665	2.56
459.87	2.57
460.075	2.56
460.28	2.62
460.485	2.66
460.69	2.62
460.895	2.63
461.099	2.61
461.304	2.64
461.509	2.56
461.714	2.54
461.919	2.51
462.123	2.6
462.328	2.61
462.533	2.55
462.738	2.58
462.942	2.71
463.147	2.71
463.352	2.74
463.556	2.73
463.761	2.76
463.966	2.83
464.17	2.84
464.375	2.76
464.58	2.73
464.784	2.73
464.989	2.72
465.193	2.78
465.398	2.79
465.602	2.76
465.807	2.77
466.011	2.8
466.216	2.79
466.42	2.82
466.625	2.78
466.829	2.77
467.034	2.83
467.238	2.89
467.443	2.9
467.647	2.92
467.851	2.9
468.056	2.86
468.26	2.85
468.464	2.83
468.669	2.82
468.873	2.82
469.077	2.83
469.282	2.89
469.486	2.98
469.69	3.01
469.894	3.1
