Data from Ofra_1a_PS_9GT30_Reflection_2.txt Node
Date: Tue Jul 20 11:06:24 EDT 2021
User: Adam
Spectrometer: FLMT01687
Trigger mode: 0
Integration Time (sec): 1.004000E0
Scans to average: 2
Electric dark correction enabled: true
Nonlinearity correction enabled: false
Boxcar width: 2
XAxis mode: Wavelengths
Number of Pixels in Spectrum: 3648
>>>>>Begin Spectral Data<<<<<
179.494	-449.24
179.716	-448.85
179.937	926.09
180.158	-701.27
180.38	114.54
180.601	17.51
180.823	-33.63
181.044	-138.15
181.265	-20.76
181.486	213.67
181.708	92.09
181.929	1718.18
182.15	-153.6
182.372	518.72
182.593	440.39
182.814	-366.21
183.035	-59.05
183.257	-6.25
183.478	-32.85
183.699	-66.67
183.92	-94.75
184.141	-122.14
184.363	-100.5
184.584	-81.97
184.805	-15.56
185.026	34.56
185.247	47.13
185.468	26.01
185.689	23.4
185.91	3.15
186.132	4.01
186.353	7.5
186.574	28.63
186.795	22.42
187.016	30.31
187.237	29.72
187.458	7.35
187.679	-0.87
187.9	20.95
188.121	20.83
188.342	32.54
188.563	57.76
188.784	68.84
189.005	45.17
189.226	30.47
189.447	8.32
189.667	-8.7
189.888	-26.68
190.109	-37.33
190.33	-11.7
190.551	-7.54
190.772	-11.33
190.993	-35.83
191.214	-35.13
191.434	-112.07
191.655	-169.81
191.876	-94.73
192.097	-48.26
192.318	-14.71
192.538	-29.92
192.759	-3.43
192.98	2.27
193.201	3.67
193.421	3.47
193.642	13.34
193.863	8.97
194.083	-6.43
194.304	-3.45
194.525	-13.6
194.745	7.71
194.966	18.01
195.187	29.79
195.407	28.08
195.628	18.65
195.848	-1.95
196.069	-19.49
196.29	-23.58
196.51	-48.72
196.731	-53.2
196.951	-74.02
197.172	-59.04
197.392	-61
197.613	-18.83
197.833	-30.07
198.054	-14.81
198.274	-3.87
198.495	-14.76
198.715	-43.5
198.936	-10.7
199.156	-10.56
199.377	-22.36
199.597	9.99
199.817	31.8
200.038	18.92
200.258	33.09
200.479	33.63
200.699	0.07
200.919	-4.47
201.14	-9.41
201.36	-11.39
201.58	-41.42
201.801	-35.96
202.021	-55.99
202.241	-46.55
202.461	-68.41
202.682	-19.62
202.902	-0.58
203.122	3.9
203.342	8.19
203.563	14.02
203.783	-17.88
204.003	-41.89
204.223	-7.6
204.443	-5.68
204.663	-44.65
204.884	-22.5
205.104	-8.09
205.324	-53.1
205.544	-94.89
205.764	-24.26
205.984	-30.01
206.204	-20.25
206.424	-41.66
206.644	-44.58
206.864	-80.87
207.084	-35.42
207.304	-69.62
207.525	-47.49
207.745	-10.76
207.964	-7.5
208.184	-27.13
208.404	-17.59
208.624	1.51
208.844	-6.17
209.064	-15.98
209.284	-2.23
209.504	10.39
209.724	-6.08
209.944	-13
210.164	-0.56
210.384	-12.7
210.604	-52.23
210.823	-66.55
211.043	-44.31
211.263	-139.51
211.483	-79.46
211.703	-52.87
211.922	-67.23
212.142	-25.79
212.362	14.03
212.582	22.28
212.801	24.84
213.021	18.66
213.241	-22.12
213.461	-19.8
213.68	-5.67
213.9	-11.8
214.12	-1.79
214.339	3.15
214.559	8.92
214.779	3.77
214.998	22.81
215.218	15.62
215.438	23.19
215.657	16.65
215.877	4.78
216.096	9.79
216.316	0.72
216.535	-6.63
216.755	-1.03
216.974	-9.68
217.194	-17.99
217.413	-20.33
217.633	-33.42
217.852	-25.65
218.072	-20.05
218.291	-30.47
218.511	-23.22
218.73	-16.4
218.95	-30.49
219.169	-19.62
219.389	-4.19
219.608	-0.2
219.827	4.86
220.047	18.91
220.266	-6.32
220.485	-25.68
220.705	-24.54
220.924	-73.37
221.143	-45.22
221.363	-12.85
221.582	0.51
221.801	11.83
222.021	23.82
222.24	15.61
222.459	32.75
222.678	25.95
222.897	5.7
223.117	13.75
223.336	19.19
223.555	10.85
223.774	22.39
223.993	66.44
224.213	69.94
224.432	48.63
224.651	31.18
224.87	24.95
225.089	12.68
225.308	12.5
225.527	10.53
225.746	6.72
225.965	5.57
226.184	11.23
226.404	3.94
226.623	20.77
226.842	25.67
227.061	19.76
227.28	21.03
227.499	19.59
227.718	1
227.936	6.64
228.155	17.87
228.374	5.88
228.593	9.35
228.812	25.04
229.031	19.58
229.25	6.04
229.469	-1.06
229.688	0.57
229.907	6.89
230.125	2.71
230.344	20.71
230.563	28.8
230.782	36.56
231.001	41.17
231.22	41.07
231.438	34.19
231.657	31.98
231.876	28.5
232.095	15
232.313	1.33
232.532	-7.57
232.751	-8.22
232.969	-15.74
233.188	-15.07
233.407	-1.63
233.625	-1.18
233.844	-7.18
234.063	-13.4
234.281	-11.58
234.5	2.35
234.719	4.07
234.937	1.29
235.156	14.8
235.374	27.11
235.593	7.71
235.811	15.77
236.03	15.88
236.249	11.43
236.467	10.54
236.686	6.16
236.904	4.61
237.123	3.73
237.341	-0.35
237.559	-4.84
237.778	29.6
237.996	0.95
238.215	-29.5
238.433	-79.1
238.652	-18.83
238.87	-53.63
239.088	-35.05
239.307	-6.41
239.525	20.99
239.743	6.02
239.962	-20.94
240.18	-0.12
240.398	1.61
240.617	-19.14
240.835	-9.98
241.053	22.89
241.271	25.36
241.49	14.8
241.708	10.78
241.926	7.14
242.144	11.87
242.363	-8.7
242.581	-6.89
242.799	-22.63
243.017	-7.79
243.235	-6.59
243.453	-15.85
243.672	-1.06
243.89	19.18
244.108	31.96
244.326	35.7
244.544	33.68
244.762	20.41
244.98	6.57
245.198	0.03
245.416	-13.28
245.634	0.98
245.852	-17.35
246.07	6.96
246.288	2.67
246.506	-3.76
246.724	-2.36
246.942	13.12
247.16	20.89
247.378	6.51
247.596	27.34
247.814	-17.7
248.032	9.2
248.25	22.31
248.468	38.24
248.685	35.51
248.903	47.33
249.121	26.89
249.339	13.66
249.557	2.04
249.775	9.26
249.992	-0.71
250.21	2.88
250.428	10.01
250.646	10.67
250.863	-12.82
251.081	3.18
251.299	3.95
251.517	1.19
251.734	-12.52
251.952	5.19
252.17	-9.08
252.387	-5.52
252.605	-9.87
252.823	-3.58
253.04	25.13
253.258	29.6
253.475	39.08
253.693	34.4
253.911	24.86
254.128	7.72
254.346	14.1
254.563	16.3
254.781	15.76
254.998	6.1
255.216	-10.35
255.433	-49.53
255.651	-66.59
255.868	-67.68
256.086	-42.02
256.303	-19.56
256.521	-8.7
256.738	-19.41
256.956	-12.93
257.173	-30.99
257.39	-28.82
257.608	-27.14
257.825	-20.28
258.043	2.67
258.26	21.71
258.477	27.19
258.695	37.39
258.912	36.39
259.129	11.95
259.346	-17.84
259.564	-39.24
259.781	-44.46
259.998	-17.52
260.216	-5.81
260.433	11.03
260.65	9.26
260.867	4.72
261.084	1.14
261.302	17.92
261.519	18.44
261.736	12.78
261.953	12.34
262.17	37.43
262.387	20.59
262.604	25.91
262.822	28.67
263.039	26.28
263.256	14
263.473	10.76
263.69	4.98
263.907	14.17
264.124	36.03
264.341	31.91
264.558	35.08
264.775	33.73
264.992	17.09
265.209	-24.23
265.426	-2.96
265.643	11.47
265.86	0.79
266.077	5.43
266.294	48.87
266.51	19.25
266.727	3.36
266.944	22.29
267.161	16.61
267.378	14.13
267.595	-3.78
267.812	-18.9
268.028	-57.23
268.245	-27.98
268.462	-31.58
268.679	-15.79
268.896	11.15
269.112	23.83
269.329	-16.55
269.546	-0.98
269.763	1.14
269.979	2.87
270.196	10.47
270.413	17.64
270.629	-1.1
270.846	-4.58
271.063	-12.82
271.279	-24.2
271.496	-18.15
271.712	5.38
271.929	8.18
272.146	5.62
272.362	22.63
272.579	4.25
272.795	-6.91
273.012	5.77
273.228	22.97
273.445	9.85
273.661	33.04
273.878	-1.92
274.094	-8.95
274.311	-18.85
274.527	-13.9
274.744	-14.46
274.96	22.96
275.177	11.52
275.393	21.91
275.609	20.68
275.826	15.98
276.042	3.66
276.259	14.54
276.475	-15.68
276.691	-33.17
276.908	-32.66
277.124	-28.6
277.34	-36.5
277.557	-30.03
277.773	-16.6
277.989	-8.51
278.205	0.24
278.422	0.87
278.638	22.96
278.854	22.03
279.07	31.28
279.286	13.17
279.503	11.18
279.719	6.13
279.935	8.83
280.151	-7.16
280.367	8.24
280.583	15.73
280.799	13.22
281.016	-21.23
281.232	-14.29
281.448	-16.1
281.664	-30.63
281.88	-18.88
282.096	-2.29
282.312	2.64
282.528	7.18
282.744	25.96
282.96	3.72
283.176	1.86
283.392	-40.52
283.608	-58.29
283.824	-94.84
284.04	-150.62
284.256	-72.78
284.471	-35.93
284.687	-26.9
284.903	-20.58
285.119	9.16
285.335	9.25
285.551	10.7
285.767	8.24
285.982	12.41
286.198	-10.63
286.414	-0.25
286.63	-1.07
286.846	-4.32
287.061	-1.66
287.277	1.07
287.493	-16.97
287.709	-4.96
287.924	8.76
288.14	6.05
288.356	22.03
288.571	22.95
288.787	2.69
289.003	5.57
289.218	-3.4
289.434	-11.38
289.65	7.72
289.865	15.27
290.081	14.02
290.296	31.12
290.512	24.45
290.727	6.81
290.943	7.87
291.159	3.94
291.374	-24.11
291.59	-15.73
291.805	-23.15
292.021	-20.37
292.236	-36.61
292.451	-10.61
292.667	-16.5
292.882	-12.09
293.098	-12.97
293.313	2.42
293.529	-14.56
293.744	-21.18
293.959	-13.02
294.175	-10.49
294.39	-28.52
294.605	5.59
294.821	22.73
295.036	17.35
295.251	20.99
295.467	18.74
295.682	13.83
295.897	-7.91
296.112	-2.71
296.328	6.07
296.543	7.58
296.758	-14.87
296.973	-5.77
297.188	-15.84
297.404	-68.57
297.619	-73.53
297.834	-67.56
298.049	-26.69
298.264	-11.84
298.479	3.47
298.694	24.7
298.909	32.71
299.125	17.46
299.34	13.49
299.555	8.43
299.77	11.88
299.985	11.17
300.2	17.67
300.415	19.76
300.63	28.06
300.845	12.07
301.06	7.5
301.275	-8.12
301.49	1
301.704	-10.26
301.919	-9.63
302.134	-11.93
302.349	11.71
302.564	-7.03
302.779	-18.06
302.994	10.99
303.209	16.02
303.423	11.93
303.638	22.56
303.853	11.23
304.068	-21.98
304.283	-20.9
304.497	-35.09
304.712	-12.36
304.927	3.65
305.142	19.79
305.356	25.17
305.571	20.98
305.786	17.76
306	29.26
306.215	16.45
306.43	8.97
306.644	9.25
306.859	2.45
307.074	-5.02
307.288	-8.21
307.503	-0.58
307.717	-11.85
307.932	-7.11
308.147	-13.41
308.361	-11.18
308.576	-36.87
308.79	-26.7
309.005	-31.87
309.219	-2.87
309.434	-5.27
309.648	-5.14
309.863	-1.68
310.077	-4.7
310.292	-3.35
310.506	-16.45
310.72	-14.15
310.935	-2.92
311.149	6.76
311.364	-14.37
311.578	-1.67
311.792	2.8
312.007	-4.05
312.221	-35.31
312.435	-21.14
312.649	-7.14
312.864	-2.82
313.078	2.05
313.292	8.83
313.507	22.69
313.721	16.77
313.935	14.52
314.149	13.2
314.363	17.34
314.578	3.12
314.792	-20.87
315.006	-27.6
315.22	-10.82
315.434	1.09
315.648	1.12
315.862	5.97
316.077	8.74
316.291	12.72
316.505	-3.23
316.719	4.69
316.933	3.77
317.147	7.32
317.361	-1.57
317.575	12.44
317.789	25.43
318.003	26.4
318.217	28.25
318.431	20.85
318.645	1.19
318.859	-9.6
319.073	1.51
319.287	-0.09
319.5	3.63
319.714	-1.03
319.928	-9.85
320.142	-16.12
320.356	1.92
320.57	-17.94
320.784	1.21
320.997	-4.17
321.211	12.61
321.425	-19.85
321.639	5.53
321.853	13.55
322.066	15.3
322.28	-1.29
322.494	13.44
322.707	21.36
322.921	7.9
323.135	27.56
323.349	24.18
323.562	24.08
323.776	22.08
323.989	37.34
324.203	11.03
324.417	13.92
324.63	8.21
324.844	-8.74
325.057	-40.02
325.271	-21.19
325.485	-23.79
325.698	-6.94
325.912	0.51
326.125	-3.6
326.339	3.51
326.552	-7.51
326.766	-29.95
326.979	-22.42
327.193	-8.15
327.406	-13.37
327.619	7.78
327.833	1.36
328.046	-4.9
328.26	-10.93
328.473	-12.35
328.686	-24.92
328.9	-2.52
329.113	1.24
329.326	-1.18
329.54	12.1
329.753	27.98
329.966	32.11
330.179	30.02
330.393	31
330.606	21.28
330.819	4.37
331.032	-7.15
331.246	1.44
331.459	7.58
331.672	6.1
331.885	11.55
332.098	27.52
332.311	12.29
332.525	9.4
332.738	4.82
332.951	8.17
333.164	-3.59
333.377	11.33
333.59	7.42
333.803	9.36
334.016	-6.17
334.229	5.33
334.442	-6.14
334.655	9.98
334.868	8.7
335.081	6.13
335.294	-3.25
335.507	-1.82
335.72	-13.62
335.933	-11.89
336.146	-17.24
336.359	-6.6
336.572	-6.17
336.785	-6.02
336.997	-27.61
337.21	9.22
337.423	-9.26
337.636	-31.94
337.849	-32.9
338.062	-13.14
338.274	-24.63
338.487	-33.79
338.7	-44.36
338.913	-39.13
339.125	-49.85
339.338	-41.38
339.551	-26.18
339.763	-13.68
339.976	-7.22
340.189	-14
340.402	-15.54
340.614	-10.97
340.827	-3.01
341.039	-8.09
341.252	-2.54
341.465	-2.74
341.677	2.68
341.89	-15.06
342.102	-9.8
342.315	-6.55
342.527	-0.91
342.74	-27.09
342.952	-29.21
343.165	-43.01
343.377	-24.19
343.59	-21.98
343.802	9.02
344.015	34.22
344.227	34.25
344.44	18.55
344.652	12.75
344.864	16.19
345.077	0.04
345.289	25.18
345.502	36.38
345.714	37.03
345.926	7.38
346.139	-6.81
346.351	-14.83
346.563	-11.52
346.775	-12.42
346.988	3.95
347.2	3.42
347.412	2.6
347.624	2.51
347.837	-9.23
348.049	-1.57
348.261	-5.13
348.473	-10.61
348.685	-19.14
348.897	-13.54
349.11	-12.22
349.322	7.25
349.534	6.36
349.746	14.92
349.958	11.2
350.17	-1.52
350.382	-4.36
350.594	2.93
350.806	4.69
351.018	7.23
351.23	15.55
351.442	22.91
351.654	19.84
351.866	8.67
352.078	12.92
352.29	-0.93
352.502	-14.89
352.714	-25.38
352.926	-10.06
353.138	-5.84
353.35	-0.94
353.561	1.97
353.773	-6.55
353.985	0.74
354.197	2.05
354.409	1.66
354.621	-7.2
354.832	7.17
355.044	-17.28
355.256	-16.83
355.468	-20.73
355.679	-5.1
355.891	-1.99
356.103	-3.05
356.314	-14.92
356.526	-20.81
356.738	-33.04
356.949	-27.88
357.161	-1.54
357.373	3.36
357.584	9.4
357.796	20.9
358.008	25.54
358.219	14.4
358.431	14.15
358.642	16.03
358.854	16.72
359.065	-13.38
359.277	-9.55
359.488	-9.31
359.7	-8.56
359.911	-27.26
360.123	1.57
360.334	1.07
360.546	-5.78
360.757	-3.39
360.969	0.31
361.18	-15.2
361.391	-7.87
361.603	-3.01
361.814	-3.43
362.025	6.21
362.237	13.1
362.448	14.97
362.659	8.51
362.871	-5.41
363.082	2.5
363.293	-5.37
363.504	-30.87
363.716	-25.88
363.927	9.09
364.138	-32.97
364.349	-40.61
364.56	-47.62
364.772	-38.63
364.983	-49.79
365.194	-13.98
365.405	-13.7
365.616	5.06
365.827	-5.58
366.038	0.51
366.25	-5.07
366.461	3.81
366.672	-3.21
366.883	10.9
367.094	7.45
367.305	0.82
367.516	-9.34
367.727	-9.01
367.938	-20.02
368.149	-27.41
368.36	-28.85
368.571	-31.62
368.781	-22.94
368.992	-25.59
369.203	-12.57
369.414	-11.71
369.625	-12.25
369.836	1.82
370.047	5.67
370.258	10.23
370.468	14.81
370.679	10.9
370.89	-2.44
371.101	4.09
371.312	-16.65
371.522	-13.92
371.733	-7.49
371.944	-17.62
372.155	-16.1
372.365	-5.52
372.576	-5.63
372.787	12.28
372.997	19.06
373.208	7.34
373.419	6.11
373.629	-5.74
373.84	-19.6
374.05	-21.71
374.261	-32.54
374.472	-34.51
374.682	-29.5
374.893	-30.4
375.103	-22.87
375.314	-1.31
375.524	7.32
375.735	20.4
375.945	22.45
376.156	24.97
376.366	17.69
376.577	17.06
376.787	8.02
376.997	11.27
377.208	8.47
377.418	4.13
377.629	5.49
377.839	11.47
378.049	10.01
378.26	-2.35
378.47	4.85
378.68	4.14
378.89	-2.18
379.101	-2.88
379.311	4.29
379.521	-1.29
379.732	-4.2
379.942	-6.67
380.152	-14.27
380.362	-8.18
380.572	2.54
380.783	5.96
380.993	11.49
381.203	14.12
381.413	14.72
381.623	7.26
381.833	7.53
382.043	3.71
382.253	4.18
382.463	13.08
382.674	20.11
382.884	15.74
383.094	12.94
383.304	14.61
383.514	6.48
383.724	3.99
383.934	2.25
384.144	6.51
384.353	8.89
384.563	11.52
384.773	16.39
384.983	11.33
385.193	6
385.403	1.49
385.613	1.44
385.823	-9.13
386.033	1.3
386.242	3.01
386.452	2.84
386.662	4.5
386.872	12.65
387.082	3.59
387.291	0.02
387.501	2.64
387.711	4.69
387.921	-0.38
388.13	2.07
388.34	4.9
388.55	-1.72
388.759	-8.7
388.969	-5.1
389.179	-0.29
389.388	-1.76
389.598	0.01
389.807	-1.58
390.017	-1.48
390.227	-5.81
390.436	-3.19
390.646	-1.6
390.855	2.28
391.065	4.69
391.274	7.77
391.484	4.73
391.693	4.53
391.903	3.59
392.112	2.04
392.322	0.44
392.531	1.98
392.74	2.17
392.95	1.85
393.159	1.58
393.369	1.41
393.578	2.58
393.787	2.82
393.997	4.02
394.206	2.72
394.415	4.4
394.625	3.98
394.834	3.43
395.043	3.56
395.252	6.41
395.462	6.68
395.671	5.84
395.88	6.86
396.089	5.78
396.298	4.88
396.508	4.23
396.717	5.31
396.926	5.06
397.135	6.01
397.344	5.66
397.553	5.36
397.762	6.05
397.971	5.91
398.181	6.02
398.39	5.46
398.599	5.76
398.808	5.39
399.017	6.3
399.226	6.22
399.435	6.94
399.644	7.51
399.853	7.88
400.062	7.21
400.27	6.84
400.479	6.48
400.688	6.13
400.897	5.49
401.106	5.77
401.315	5.86
401.524	6.35
401.733	6.05
401.941	6.22
402.15	5.85
402.359	5.95
402.568	6.03
402.777	6.32
402.985	6.14
403.194	6.44
403.403	6.62
403.612	6.2
403.82	5.91
404.029	6.06
404.238	5.88
404.446	5.81
404.655	6.11
404.864	6.13
405.072	6.29
405.281	6.31
405.489	6.13
405.698	6.02
405.906	6.09
406.115	5.98
406.324	6.1
406.532	6.21
406.741	6.25
406.949	6.35
407.158	6.33
407.366	6.19
407.574	6.17
407.783	6.11
407.991	6.01
408.2	6.14
408.408	6.27
408.617	6.23
408.825	5.97
409.033	5.98
409.242	5.87
409.45	5.77
409.658	5.68
409.867	5.83
410.075	5.84
410.283	5.78
410.491	5.59
410.7	5.68
410.908	5.77
411.116	5.68
411.324	5.67
411.533	5.61
411.741	5.52
411.949	5.4
412.157	5.33
412.365	5.29
412.573	5.5
412.781	5.36
412.99	5.39
413.198	5.56
413.406	5.64
413.614	5.64
413.822	5.87
414.03	5.94
414.238	5.87
414.446	5.88
414.654	5.72
414.862	5.66
415.07	5.51
415.278	5.5
415.486	5.21
415.694	5.23
415.902	5.17
416.109	5.13
416.317	5.16
416.525	5.24
416.733	5.13
416.941	5.21
417.149	5.07
417.357	5.01
417.564	5.12
417.772	5.32
417.98	5.21
418.188	5.4
418.395	5.25
418.603	5.14
418.811	4.92
419.019	4.85
419.226	4.83
419.434	4.96
419.642	4.9
419.849	4.94
420.057	4.97
420.265	5
420.472	4.94
420.68	5.02
420.887	5.02
421.095	5.01
421.302	5.02
421.51	5.01
421.717	5.01
421.925	5.24
422.132	5.23
422.34	4.9
422.547	4.75
422.755	4.91
422.962	4.65
423.17	4.5
423.377	4.62
423.585	4.85
423.792	4.69
423.999	4.85
424.207	4.82
424.414	4.91
424.621	4.9
424.829	4.84
425.036	4.74
425.243	4.91
425.451	4.82
425.658	4.68
425.865	4.74
426.072	4.79
426.28	4.74
426.487	4.77
426.694	4.68
426.901	4.59
427.108	4.51
427.315	4.52
427.523	4.52
427.73	4.73
427.937	4.65
428.144	4.73
428.351	4.74
428.558	4.83
428.765	4.71
428.972	4.89
429.179	4.64
429.386	4.66
429.593	4.7
429.8	4.74
430.007	4.73
430.214	4.99
430.421	5.04
430.628	5.03
430.835	5.09
431.042	5.05
431.249	4.99
431.456	5.03
431.662	5.14
431.869	5.33
432.076	5.5
432.283	5.62
432.49	5.61
432.697	5.5
432.903	5.32
433.11	5.27
433.317	5.28
433.524	5.26
433.73	5.28
433.937	5.42
434.144	5.31
434.35	5.24
434.557	5.34
434.764	5.31
434.97	5.23
435.177	5.32
435.384	5.25
435.59	5.23
435.797	5.31
436.003	5.35
436.21	5.3
436.416	5.41
436.623	5.42
436.829	5.49
437.036	5.5
437.242	5.66
437.449	5.5
437.655	5.54
437.862	5.6
438.068	5.53
438.275	5.48
438.481	5.71
438.687	5.66
438.894	5.68
439.1	5.65
439.307	5.71
439.513	5.67
439.719	5.67
439.926	5.56
440.132	5.69
440.338	5.69
440.544	5.68
440.751	5.72
440.957	5.82
441.163	5.8
441.369	5.87
441.575	5.86
441.782	5.93
441.988	5.92
442.194	5.87
442.4	5.84
442.606	6.08
442.812	6.09
443.018	6.05
443.224	6.31
443.431	6.26
443.637	6.09
443.843	6.18
444.049	6.33
444.255	6.26
444.461	6.33
444.667	6.41
444.873	6.28
445.079	6.2
445.284	6.08
445.49	6.05
445.696	5.96
445.902	6.03
446.108	6
446.314	6.04
446.52	6.18
446.726	6.31
446.931	6.23
447.137	6.25
447.343	6.41
447.549	6.38
447.755	6.35
447.96	6.46
448.166	6.47
448.372	6.39
448.578	6.32
448.783	6.28
448.989	6.26
449.195	6.25
449.4	6.28
449.606	6.35
449.812	6.29
450.017	6.35
450.223	6.35
450.428	6.31
450.634	6.25
450.84	6.27
451.045	6.27
451.251	6.3
451.456	6.37
451.662	6.44
451.867	6.54
452.073	6.44
452.278	6.4
452.483	6.39
452.689	6.4
452.894	6.41
453.1	6.44
453.305	6.53
453.51	6.56
453.716	6.49
453.921	6.59
454.127	6.61
454.332	6.61
454.537	6.56
454.742	6.55
454.948	6.46
455.153	6.46
455.358	6.4
455.563	6.45
455.769	6.5
455.974	6.53
456.179	6.52
456.384	6.48
456.589	6.42
456.795	6.41
457	6.3
457.205	6.28
457.41	6.32
457.615	6.33
457.82	6.49
458.025	6.51
458.23	6.53
458.435	6.58
458.64	6.58
458.845	6.49
459.05	6.61
459.255	6.59
459.46	6.57
459.665	6.55
459.87	6.51
460.075	6.44
460.28	6.51
460.485	6.64
460.69	6.66
460.895	6.7
461.099	6.62
461.304	6.52
461.509	6.51
461.714	6.61
461.919	6.53
462.123	6.54
462.328	6.52
462.533	6.33
462.738	6.24
462.942	6.22
463.147	6.22
463.352	6.32
463.556	6.51
463.761	6.46
463.966	6.58
464.17	6.72
464.375	6.79
464.58	6.62
464.784	6.67
464.989	6.64
465.193	6.61
465.398	6.6
465.602	6.87
465.807	6.93
466.011	7.02
466.216	6.94
466.42	6.99
466.625	6.96
466.829	6.94
467.034	7.01
