Data from Ofra_PS_T2_1A_2GT10_Reflection_2.txt Node
Date: Wed Jul 21 17:54:16 EDT 2021
User: Adam
Spectrometer: FLMT01687
Trigger mode: 0
Integration Time (sec): 1.100000E0
Scans to average: 2
Electric dark correction enabled: true
Nonlinearity correction enabled: false
Boxcar width: 2
XAxis mode: Wavelengths
Number of Pixels in Spectrum: 3648
>>>>>Begin Spectral Data<<<<<
179.494	656.2
179.716	732.47
179.937	718.6
180.158	676.56
180.38	1149.53
180.601	300.14
180.823	91.37
181.044	-134.95
181.265	-8.64
181.486	-24.06
181.708	112.3
181.929	784.18
182.15	-317.25
182.372	87.08
182.593	-60.71
182.814	27.32
183.035	81.87
183.257	37.41
183.478	-70.27
183.699	-3.16
183.92	-44.88
184.141	-39.23
184.363	-86.01
184.584	-14.61
184.805	-0.03
185.026	31.79
185.247	25.3
185.468	15.99
185.689	3.03
185.91	-0.27
186.132	-13.81
186.353	-4.47
186.574	19.72
186.795	23.51
187.016	-25.38
187.237	-50.77
187.458	-82.67
187.679	-48.67
187.9	-32.65
188.121	-29.77
188.342	5.64
188.563	32.14
188.784	46.01
189.005	58.78
189.226	122.6
189.447	92.93
189.667	-72.94
189.888	-397.66
190.109	-1558.77
190.33	-927.26
190.551	-1579.87
190.772	-336.38
190.993	-280.01
191.214	-241.76
191.434	-156.44
191.655	-57.45
191.876	-131.66
192.097	-152.14
192.318	-241.65
192.538	-387.17
192.759	-263.92
192.98	-123.9
193.201	-66.94
193.421	-28.24
193.642	12.96
193.863	13.68
194.083	-3.53
194.304	-7.98
194.525	-8.76
194.745	-5.55
194.966	-1.53
195.187	-10.99
195.407	-19.98
195.628	-62.96
195.848	-105.76
196.069	-144.5
196.29	-103.79
196.51	-129.51
196.731	-118.16
196.951	-156.06
197.172	-140.13
197.392	-171.77
197.613	-142.47
197.833	-137.56
198.054	-116.16
198.274	-57.48
198.495	-69.83
198.715	-44.45
198.936	-67.3
199.156	-55
199.377	-171.84
199.597	-147.31
199.817	-141.23
200.038	-73.6
200.258	-122.81
200.479	-51.51
200.699	-60.47
200.919	-15.88
201.14	-28.78
201.36	-58.03
201.58	-9.39
201.801	2.52
202.021	-41.98
202.241	-54.16
202.461	-38.38
202.682	-144.88
202.902	-189.93
203.122	-97.31
203.342	-76.98
203.563	-35.12
203.783	-14.61
204.003	-58.39
204.223	-92.14
204.443	-9.52
204.663	-53.51
204.884	-37.18
205.104	5.62
205.324	48.61
205.544	21.83
205.764	53.9
205.984	63.74
206.204	58.19
206.424	41.83
206.644	17.64
206.864	-5.3
207.084	-47.22
207.304	-45.12
207.525	-230.7
207.745	-139.07
207.964	-47.5
208.184	-69.57
208.404	-108.88
208.624	-93.93
208.844	-115.44
209.064	-459.74
209.284	-496.7
209.504	-193.67
209.724	-65.36
209.944	-12.98
210.164	31.94
210.384	29.18
210.604	-2.17
210.823	-48.89
211.043	-71.22
211.263	-61.75
211.483	-56.79
211.703	-102.67
211.922	-73.72
212.142	-11.42
212.362	-14.2
212.582	-17.76
212.801	5.03
213.021	-11.14
213.241	-26.45
213.461	-72.97
213.68	-110.1
213.9	-94.37
214.12	-78.75
214.339	-168.68
214.559	-134.5
214.779	-45.39
214.998	-49.83
215.218	-84.98
215.438	-27.36
215.657	-16.94
215.877	-45.88
216.096	-8.84
216.316	1.49
216.535	-5.18
216.755	-2.75
216.974	-72.75
217.194	-133.91
217.413	-128.77
217.633	-129.88
217.852	-261.47
218.072	-111.44
218.291	-68.93
218.511	-17.63
218.73	-57.17
218.95	-30.87
219.169	-39.91
219.389	-88.67
219.608	-80.67
219.827	-65.27
220.047	-47.65
220.266	-28.38
220.485	-30.02
220.705	-17.32
220.924	-41.05
221.143	-7.12
221.363	-34.26
221.582	-2.91
221.801	-4.82
222.021	21.08
222.24	-72.1
222.459	9.77
222.678	-33.27
222.897	-117.76
223.117	-140.59
223.336	-78.84
223.555	-66.78
223.774	-25.68
223.993	25.4
224.213	78.82
224.432	29.1
224.651	35.18
224.87	-9.83
225.089	-12.05
225.308	-27.53
225.527	5.34
225.746	-8.69
225.965	-7.58
226.184	-43.44
226.404	-17.96
226.623	-62.58
226.842	-52.58
227.061	-10.45
227.28	2.85
227.499	-20.65
227.718	11.35
227.936	-10.88
228.155	-4.04
228.374	-8.98
228.593	4.39
228.812	-8.52
229.031	4.58
229.25	-56.72
229.469	-54.52
229.688	-52.33
229.907	-12.59
230.125	9.44
230.344	15.36
230.563	27.13
230.782	34.8
231.001	-45.49
231.22	-37.81
231.438	-6.69
231.657	4.31
231.876	10.72
232.095	63.03
232.313	56.54
232.532	43.71
232.751	-19.55
232.969	-54.84
233.188	-188.86
233.407	-80.26
233.625	-48.47
233.844	-54.42
234.063	-50.54
234.281	-4.12
234.5	-16.76
234.719	-8.15
234.937	11.39
235.156	22.9
235.374	13.37
235.593	-2.48
235.811	-25.1
236.03	-31.88
236.249	-94
236.467	-85.32
236.686	-25.24
236.904	-1.41
237.123	-29.98
237.341	-8.8
237.559	-4.69
237.778	-36.53
237.996	-68.07
238.215	-30.19
238.433	-26.16
238.652	-42.64
238.87	-65.75
239.088	-43.34
239.307	-24.61
239.525	-36.07
239.743	-67.53
239.962	-36.75
240.18	-77.94
240.398	-133.2
240.617	-137.51
240.835	-112.09
241.053	-100.69
241.271	-35.3
241.49	-6.98
241.708	-36.09
241.926	-41.62
242.144	-44.35
242.363	-95.82
242.581	-158.83
242.799	-73.33
243.017	-24.48
243.235	-30.81
243.453	-19.23
243.672	0.69
243.89	-12.06
244.108	-44.39
244.326	-5.18
244.544	-2.72
244.762	-7.11
244.98	8.32
245.198	25.93
245.416	-23.41
245.634	-17.32
245.852	-24.5
246.07	-62.88
246.288	-65.23
246.506	-85.43
246.724	-95.03
246.942	-87.02
247.16	-34.7
247.378	-9.14
247.596	7.7
247.814	18.72
248.032	-13.68
248.25	-5.2
248.468	-13.6
248.685	6.25
248.903	23.29
249.121	57.04
249.339	35.53
249.557	19.72
249.775	4.8
249.992	-48.65
250.21	-67.38
250.428	-57.36
250.646	-81.8
250.863	-100.72
251.081	-59.4
251.299	-35.04
251.517	-24.77
251.734	-18.34
251.952	-7.06
252.17	-11.69
252.387	-17.53
252.605	-19.86
252.823	-1.61
253.04	9.42
253.258	31.96
253.475	40.01
253.693	60.15
253.911	47.08
254.128	48.18
254.346	26.5
254.563	7.7
254.781	-41.5
254.998	-71.47
255.216	-89.1
255.433	-81.6
255.651	-53.42
255.868	3.13
256.086	44.02
256.303	31.04
256.521	27.27
256.738	3.02
256.956	-46.65
257.173	-88.95
257.39	-95.13
257.608	-121.57
257.825	-77.35
258.043	-21.38
258.26	0.81
258.477	44.94
258.695	39.97
258.912	9.9
259.129	-3.06
259.346	-42.11
259.564	-104.01
259.781	-132.72
259.998	-58.56
260.216	-32.15
260.433	6.37
260.65	10.32
260.867	27.72
261.084	-22.75
261.302	-50.17
261.519	-55.1
261.736	-61.34
261.953	-95.68
262.17	-50.27
262.387	-95.04
262.604	-116.4
262.822	-131.52
263.039	-97.79
263.256	-154.28
263.473	-86.98
263.69	-62.74
263.907	-1.09
264.124	6.03
264.341	1.77
264.558	-11.89
264.775	-3.29
264.992	-38.46
265.209	-34.66
265.426	10.38
265.643	16.45
265.86	21.56
266.077	16.53
266.294	16.98
266.51	-33.12
266.727	-58.28
266.944	-48.87
267.161	-26.07
267.378	-29.44
267.595	-5.23
267.812	-14.34
268.028	-45.96
268.245	-36.49
268.462	-46.87
268.679	-56.04
268.896	5.52
269.112	19.8
269.329	16.69
269.546	22.44
269.763	15.26
269.979	-12.83
270.196	-18.59
270.413	-59.7
270.629	-86.15
270.846	-82.04
271.063	-71.17
271.279	-101.9
271.496	-75.93
271.712	-23.91
271.929	9.79
272.146	-2.95
272.362	15.8
272.579	26.68
272.795	21.44
273.012	-15.18
273.228	-9.75
273.445	-32.04
273.661	-64.62
273.878	-98.46
274.094	-92.13
274.311	-115.48
274.527	-32.02
274.744	-28.36
274.96	-28.86
275.177	-8.6
275.393	14.24
275.609	4.46
275.826	20.79
276.042	30.31
276.259	17.64
276.475	16.77
276.691	7.16
276.908	-11.43
277.124	-8.85
277.34	-14.33
277.557	-12.4
277.773	-14.08
277.989	-20.77
278.205	-31.28
278.422	-5.84
278.638	-18.92
278.854	-6.18
279.07	-3.33
279.286	-2.92
279.503	-20.64
279.719	-15.03
279.935	-54.83
280.151	-50.67
280.367	-34.35
280.583	-41.48
280.799	-42.9
281.016	-70.09
281.232	-29.93
281.448	-25.58
281.664	-5.17
281.88	-28.27
282.096	23.72
282.312	39.97
282.528	55.2
282.744	48.47
282.96	42.01
283.176	10.54
283.392	1.56
283.608	-7.14
283.824	-18.97
284.04	-14.2
284.256	0.33
284.471	-13.29
284.687	-16.33
284.903	13.06
285.119	39.62
285.335	9.83
285.551	-3
285.767	-31.38
285.982	-54.3
286.198	-108.38
286.414	-33.17
286.63	-2.01
286.846	30.77
287.061	12.03
287.277	50.19
287.493	16.3
287.709	24.07
287.924	6.33
288.14	42.07
288.356	25.75
288.571	54.65
288.787	24.19
289.003	21.05
289.218	-5.64
289.434	-49.65
289.65	-68.41
289.865	-72.16
290.081	-46.74
290.296	-35.88
290.512	-20.72
290.727	-57.95
290.943	-53.76
291.159	-67.44
291.374	-67.91
291.59	-88.35
291.805	-59.17
292.021	-49.57
292.236	-35.43
292.451	-23.82
292.667	-2.28
292.882	25
293.098	22.7
293.313	-7.91
293.529	-35.24
293.744	-58.05
293.959	-81.58
294.175	-68.53
294.39	-22.14
294.605	5.09
294.821	27.79
295.036	36.52
295.251	34.17
295.467	-7.41
295.682	-41.79
295.897	-115.16
296.112	-128.97
296.328	-112.36
296.543	-124.17
296.758	-99.86
296.973	-43.6
297.188	0.41
297.404	-39.54
297.619	-49.46
297.834	-60.88
298.049	-74.18
298.264	-96.7
298.479	-20.62
298.694	-2.64
298.909	14.32
299.125	11.59
299.34	20.59
299.555	-9.13
299.77	3.85
299.985	-37.29
300.2	-75.56
300.415	-111.85
300.63	-74.54
300.845	-84.65
301.06	-85.29
301.275	-48.52
301.49	-21.54
301.704	-33.42
301.919	-57.85
302.134	-65.31
302.349	-64.95
302.564	-146.47
302.779	-196.97
302.994	-143.93
303.209	-71.34
303.423	-53.54
303.638	17.98
303.853	-3.68
304.068	-8.54
304.283	-10.1
304.497	-7.88
304.712	-12.22
304.927	-1.32
305.142	-13.36
305.356	-13.02
305.571	-23.17
305.786	-38.41
306	-65.76
306.215	-58.82
306.43	-77.6
306.644	-64.59
306.859	3.35
307.074	29.39
307.288	4.17
307.503	25
307.717	-7.42
307.932	-16.16
308.147	-27.53
308.361	-22.23
308.576	-40.8
308.79	-79.24
309.005	-74.78
309.219	-63.76
309.434	-75.07
309.648	-67.89
309.863	-38.08
310.077	-50.92
310.292	-44.55
310.506	-17.81
310.72	2.04
310.935	28.41
311.149	23.43
311.364	33.51
311.578	45.16
311.792	32.72
312.007	16.57
312.221	9.13
312.435	12.04
312.649	-20.54
312.864	17.86
313.078	52.16
313.292	110.24
313.507	72.08
313.721	111.5
313.935	38.81
314.149	2.28
314.363	-7.23
314.578	-1.74
314.792	3.74
315.006	-16.28
315.22	4.25
315.434	8.51
315.648	23.84
315.862	23.04
316.077	21.17
316.291	9.58
316.505	19.12
316.719	-15.95
316.933	-43.83
317.147	-14.44
317.361	-62.38
317.575	-107.02
317.789	-132.64
318.003	-194.55
318.217	-191.96
318.431	-102.88
318.645	-35.7
318.859	-25.53
319.073	-0.78
319.287	-6.78
319.5	-29.06
319.714	-67.82
319.928	-103.97
320.142	-129.05
320.356	-81.43
320.57	-47.86
320.784	-85.21
320.997	-74.6
321.211	-65.44
321.425	-114.45
321.639	-145.03
321.853	-48.69
322.066	-22.76
322.28	-20.35
322.494	1.98
322.707	36.4
322.921	5.75
323.135	-2.53
323.349	10.52
323.562	-19.72
323.776	-47.38
323.989	-40.13
324.203	-62.63
324.417	-65.78
324.63	-67.91
324.844	-76.67
325.057	-92.97
325.271	-74.29
325.485	-55.77
325.698	-25.82
325.912	7.97
326.125	-1.61
326.339	6.34
326.552	-7.76
326.766	-21.12
326.979	-15.69
327.193	12.91
327.406	-4
327.619	0.28
327.833	18.86
328.046	-14.06
328.26	-47.94
328.473	-24.75
328.686	-59.54
328.9	-67.82
329.113	-42.24
329.326	-67.32
329.54	-50.86
329.753	-56.27
329.966	-81.55
330.179	-96.03
330.393	-51.12
330.606	-57.49
330.819	-23.94
331.032	-8.97
331.246	4.39
331.459	34.29
331.672	25.45
331.885	20.3
332.098	-3.36
332.311	-11.81
332.525	-90.25
332.738	-76.01
332.951	-51.47
333.164	-1.77
333.377	13.64
333.59	47.78
333.803	59.66
334.016	52.77
334.229	36.97
334.442	25.05
334.655	27.14
334.868	23.82
335.081	8.35
335.294	8.7
335.507	-11.35
335.72	-19.17
335.933	-26.82
336.146	-28.17
336.359	-33.84
336.572	-55.34
336.785	-70.78
336.997	-58.36
337.21	-28.23
337.423	-31.04
337.636	-17.78
337.849	-6.19
338.062	-21.92
338.274	-26.47
338.487	-36.81
338.7	-17.13
338.913	-68.08
339.125	-89.09
339.338	-141.61
339.551	-108.6
339.763	-90.87
339.976	-48.24
340.189	-11
340.402	3.02
340.614	-6.24
340.827	-4.97
341.039	-12.26
341.252	-30.75
341.465	-24.32
341.677	-34
341.89	-87.5
342.102	-56.82
342.315	-59.3
342.527	-96.32
342.74	-77.83
342.952	-28.88
343.165	-27.73
343.377	1.54
343.59	-9.65
343.802	14.54
344.015	16.61
344.227	19.73
344.44	5.64
344.652	14
344.864	-17.48
345.077	6.67
345.289	14.09
345.502	9.58
345.714	13.28
345.926	21.06
346.139	6.68
346.351	-7.62
346.563	4.7
346.775	4.22
346.988	5.66
347.2	-16.77
347.412	-50.98
347.624	-73.07
347.837	-82.74
348.049	-85.6
348.261	-23.39
348.473	-9.89
348.685	-10.62
348.897	-15.73
349.11	-24.17
349.322	-56.28
349.534	-38.12
349.746	-30.24
349.958	-18.48
350.17	-7.33
350.382	0.33
350.594	6.75
350.806	4.73
351.018	2.38
351.23	-23.82
351.442	-77.02
351.654	-105.76
351.866	-84.18
352.078	-48.39
352.29	-12.75
352.502	7.44
352.714	19.97
352.926	4.34
353.138	-3.37
353.35	-18.02
353.561	-18.91
353.773	-39.37
353.985	-17.25
354.197	-34.18
354.409	-33.31
354.621	-37.21
354.832	-25.02
355.044	-36.09
355.256	-34.37
355.468	-18.67
355.679	-20.12
355.891	-12.46
356.103	-24.75
356.314	-9.4
356.526	-20.68
356.738	-26.57
356.949	-52.98
357.161	-44.09
357.373	-49.32
357.584	-53.56
357.796	-26.27
358.008	-29.9
358.219	1.88
358.431	-9.85
358.642	-2.06
358.854	-10.3
359.065	-6.98
359.277	-52.34
359.488	-43.76
359.7	-72.2
359.911	-79.54
360.123	-60.08
360.334	-77.67
360.546	-99.68
360.757	-96.69
360.969	-86.74
361.18	-90.32
361.391	-54.58
361.603	-54.99
361.814	-24.07
362.025	-32.62
362.237	-30.01
362.448	-12.84
362.659	10.63
362.871	15.77
363.082	24.79
363.293	25
363.504	0.57
363.716	-15.86
363.927	-36.03
364.138	-63.39
364.349	-81.5
364.56	-68.94
364.772	-65.6
364.983	-37.55
365.194	-38.37
365.405	-21.23
365.616	4.48
365.827	3.02
366.038	-31.64
366.25	-30.11
366.461	-61.9
366.672	-49.19
366.883	-31.32
367.094	-13.1
367.305	-18.76
367.516	-4.18
367.727	-37.51
367.938	-51.22
368.149	-58.95
368.36	-49.9
368.571	-51.59
368.781	-66.18
368.992	-81.89
369.203	-94.89
369.414	-109.01
369.625	-107.96
369.836	-80.62
370.047	-92.04
370.258	-73.4
370.468	-81
370.679	-96.51
370.89	-90.71
371.101	-70.71
371.312	-85.91
371.522	-63.34
371.733	-46.75
371.944	-30.55
372.155	-6.68
372.365	-12.69
372.576	-25.51
372.787	-34.44
372.997	-73
373.208	-87.01
373.419	-44.4
373.629	-65.2
373.84	-60.94
374.05	-51.4
374.261	-31.96
374.472	-47.01
374.682	1.74
374.893	8.11
375.103	41.05
375.314	30.87
375.524	22.5
375.735	16.73
375.945	25.91
376.156	-9.3
376.366	-7.57
376.577	-5.26
376.787	-13.26
376.997	-8.82
377.208	-4.75
377.418	-17.38
377.629	-4.39
377.839	-6.88
378.049	-22.11
378.26	-6.74
378.47	1.49
378.68	-10.84
378.89	-14.98
379.101	-8.17
379.311	-35.74
379.521	-62.51
379.732	-58.88
379.942	-56.16
380.152	-89.56
380.362	-55.02
380.572	-39.58
380.783	-29.2
380.993	-20.37
381.203	1.25
381.413	3.37
381.623	1.91
381.833	2.28
382.043	-7
382.253	-17.53
382.463	-14.69
382.674	-24.51
382.884	-44.27
383.094	-37.04
383.304	-27.59
383.514	-22.96
383.724	-6.69
383.934	-14.68
384.144	-24.66
384.353	-30.23
384.563	-38.45
384.773	-35.66
384.983	-32.24
385.193	-16.69
385.403	-10.69
385.613	-8.81
385.823	-18.71
386.033	-10.52
386.242	-14.23
386.452	-20.76
386.662	-29.32
386.872	-14.75
387.082	-21.45
387.291	-34.78
387.501	-38.02
387.711	-23.92
387.921	-35.39
388.13	-30.07
388.34	-8.09
388.55	-10.47
388.759	-14.77
388.969	-3.19
389.179	-2.53
389.388	-9.52
389.598	1.14
389.807	-5.21
390.017	-16.53
390.227	-16.4
390.436	-16.97
390.646	-18.62
390.855	-12.44
391.065	-10.16
391.274	-13.35
391.484	-14.7
391.693	-13.39
391.903	-12.93
392.112	-8.12
392.322	-4.64
392.531	-1.58
392.74	-1.2
392.95	-3.48
393.159	-5.57
393.369	-5.03
393.578	-5.19
393.787	-7.31
393.997	-6.45
394.206	-7.03
394.415	-7.7
394.625	-8.5
394.834	-10.25
395.043	-7.64
395.252	-5.34
395.462	-2.02
395.671	0.25
395.88	2.67
396.089	2.54
396.298	1.27
396.508	-0.18
396.717	-1.65
396.926	-1.38
397.135	-1.85
397.344	-1.52
397.553	-0.97
397.762	0.69
397.971	1.08
398.181	1.78
398.39	1.17
398.599	1.01
398.808	0.67
399.017	0.98
399.226	1.74
399.435	3.33
399.644	3.33
399.853	2.33
400.062	1.66
400.27	0.91
400.479	-0.04
400.688	-0.52
400.897	-0.07
401.106	0.17
401.315	-0.1
401.524	-0.02
401.733	0.65
401.941	0.96
402.15	1.2
402.359	1.19
402.568	1.74
402.777	1.73
402.985	1.71
403.194	1.44
403.403	1.7
403.612	1.03
403.82	0.91
404.029	1.03
404.238	1.05
404.446	1.32
404.655	1.37
404.864	1.16
405.072	0.75
405.281	0.84
405.489	0.54
405.698	0.6
405.906	0.67
406.115	0.71
406.324	0.69
406.532	0.74
406.741	0.95
406.949	0.99
407.158	1.13
407.366	1.11
407.574	1.15
407.783	1.21
407.991	1.02
408.2	1.19
408.408	1.06
408.617	0.98
408.825	0.76
409.033	0.98
409.242	0.96
409.45	1.17
409.658	1.08
409.867	1.32
410.075	1.13
410.283	1.08
410.491	0.96
410.7	0.83
410.908	0.66
411.116	1.14
411.324	1.09
411.533	1.04
411.741	1.36
411.949	1.31
412.157	0.84
412.365	0.83
412.573	0.84
412.781	0.77
412.99	0.81
413.198	1.06
413.406	1.06
413.614	1.13
413.822	1.11
414.03	1.02
414.238	0.86
414.446	0.91
414.654	0.73
414.862	0.77
415.07	0.84
415.278	1.04
415.486	0.8
415.694	0.93
415.902	0.73
416.109	0.61
416.317	0.52
416.525	0.48
416.733	0.52
416.941	0.78
417.149	0.74
417.357	0.75
417.564	0.94
417.772	1.11
417.98	0.96
418.188	1.01
418.395	1.04
418.603	1.11
418.811	0.73
419.019	0.69
419.226	0.9
419.434	0.93
419.642	0.72
419.849	0.95
420.057	1.02
420.265	1.04
420.472	0.83
420.68	0.93
420.887	0.7
421.095	0.8
421.302	0.59
421.51	0.81
421.717	0.92
421.925	1.1
422.132	0.8
422.34	0.69
422.547	0.68
422.755	0.53
422.962	0.47
423.17	0.58
423.377	0.73
423.585	0.77
423.792	0.79
423.999	0.79
424.207	0.79
424.414	0.91
424.621	0.84
424.829	0.81
425.036	0.87
425.243	1.03
425.451	0.83
425.658	0.57
425.865	0.84
426.072	0.85
426.28	1.14
426.487	1.14
426.694	1.21
426.901	0.92
427.108	0.78
427.315	0.44
427.523	0.64
427.73	0.75
427.937	0.76
428.144	0.67
428.351	0.57
428.558	0.66
428.765	0.65
428.972	0.58
429.179	0.83
429.386	1.26
429.593	1.02
429.8	0.82
430.007	1.06
430.214	1.14
430.421	0.71
430.628	0.64
430.835	0.64
431.042	0.76
431.249	0.64
431.456	0.7
431.662	0.85
431.869	1.09
432.076	1.05
432.283	1.13
432.49	1.19
432.697	1.09
432.903	0.76
433.11	0.62
433.317	0.71
433.524	0.8
433.73	0.86
433.937	1.23
434.144	1.2
434.35	1.05
434.557	0.85
434.764	0.81
434.97	0.61
435.177	0.68
435.384	0.64
435.59	0.73
435.797	0.91
436.003	0.98
436.21	1
436.416	1.18
436.623	1.2
436.829	1.27
437.036	1.38
437.242	1.39
437.449	1.18
437.655	1.19
437.862	1.07
438.068	0.95
438.275	0.98
438.481	1.23
438.687	1.15
438.894	1.13
439.1	1.15
439.307	1.26
439.513	1.12
439.719	1.17
439.926	1.33
440.132	1.27
440.338	1.12
440.544	1.28
440.751	1.27
440.957	1.23
441.163	1.18
441.369	1.26
441.575	1
441.782	1.01
441.988	0.79
442.194	0.89
442.4	0.91
442.606	1.12
442.812	1.16
443.018	1.37
443.224	1.42
443.431	1.49
443.637	1.3
443.843	1.24
444.049	1.17
444.255	1.08
444.461	1.07
444.667	1.06
444.873	1.15
445.079	1.16
445.284	1.27
445.49	1
445.696	0.92
445.902	0.83
446.108	0.74
446.314	0.64
446.52	0.74
446.726	0.98
446.931	1.01
447.137	1.1
447.343	1.14
447.549	1.1
447.755	1.01
447.96	1.07
448.166	0.97
448.372	0.9
448.578	0.99
448.783	0.94
448.989	0.99
449.195	1.15
449.4	1.21
449.606	1.11
449.812	1.07
450.017	1.02
450.223	0.93
450.428	0.84
450.634	1.02
450.84	1.17
451.045	1.12
451.251	1.09
451.456	1.37
451.662	1.43
451.867	1.46
452.073	1.47
452.278	1.63
452.483	1.66
452.689	1.51
452.894	1.52
453.1	1.54
453.305	1.44
453.51	1.28
453.716	1.24
453.921	1.23
454.127	1.16
454.332	1.1
454.537	1.04
454.742	1.05
454.948	1.02
455.153	1.09
455.358	1.18
455.563	1.41
455.769	1.57
455.974	1.54
456.179	1.4
456.384	1.41
456.589	1.26
456.795	0.98
457	0.96
457.205	1.24
457.41	1.1
457.615	1.1
457.82	1.21
458.025	1.26
