Data from Ofra_PS_T2_2A_8HS23_Reflection_3.txt Node
Date: Wed Jul 21 17:20:38 EDT 2021
User: Adam
Spectrometer: FLMT01687
Trigger mode: 0
Integration Time (sec): 1.100000E0
Scans to average: 2
Electric dark correction enabled: true
Nonlinearity correction enabled: false
Boxcar width: 2
XAxis mode: Wavelengths
Number of Pixels in Spectrum: 3648
>>>>>Begin Spectral Data<<<<<
179.494	570.6
179.716	664.94
179.937	628.88
180.158	589.31
180.38	933.28
180.601	347.65
180.823	42.01
181.044	-104.15
181.265	156.07
181.486	13.47
181.708	96.13
181.929	1302.55
182.15	-548.24
182.372	60.05
182.593	-52
182.814	-24.66
183.035	33.52
183.257	13.17
183.478	-64.95
183.699	-9.73
183.92	18.83
184.141	38.13
184.363	7.89
184.584	56.11
184.805	34.57
185.026	57.38
185.247	54.08
185.468	44.08
185.689	40.81
185.91	55.44
186.132	56.59
186.353	47.34
186.574	85.9
186.795	62.65
187.016	24.46
187.237	-8.9
187.458	-29.61
187.679	-33.28
187.9	-11.11
188.121	5.63
188.342	70.64
188.563	77.43
188.784	113
189.005	125.16
189.226	125.71
189.447	59.07
189.667	-78.28
189.888	-318.84
190.109	-1276.95
190.33	-748.55
190.551	-1313.5
190.772	-292.55
190.993	-271.9
191.214	-252.67
191.434	-151.26
191.655	-44.45
191.876	-72.87
192.097	-104.76
192.318	-92.67
192.538	-127.35
192.759	-115.93
192.98	-40.47
193.201	-3.33
193.421	-6.58
193.642	11.14
193.863	26.7
194.083	-7.95
194.304	-6.95
194.525	-4.83
194.745	-26.57
194.966	-65.16
195.187	-50.11
195.407	-95.31
195.628	-207.72
195.848	-185.59
196.069	-186.97
196.29	-114.11
196.51	-104.37
196.731	-81.99
196.951	-85.05
197.172	-81.33
197.392	-125.61
197.613	-111.37
197.833	-129.74
198.054	-114.28
198.274	-75.84
198.495	-86.35
198.715	-59.03
198.936	-55.35
199.156	-50.91
199.377	-125.06
199.597	-106.82
199.817	-115.56
200.038	-44.7
200.258	-82.15
200.479	-3.92
200.699	-48.63
200.919	23.29
201.14	-34.9
201.36	-49.63
201.58	-9.12
201.801	38.25
202.021	-5.84
202.241	9.48
202.461	6.22
202.682	-70.21
202.902	-159.87
203.122	-69.59
203.342	-73.87
203.563	-23.89
203.783	-6.11
204.003	-43.17
204.223	-48.53
204.443	29.25
204.663	16.39
204.884	58.02
205.104	97.63
205.324	109.03
205.544	90.36
205.764	73.5
205.984	49.67
206.204	47.17
206.424	43.04
206.644	13.45
206.864	21.46
207.084	-1.22
207.304	-23.41
207.525	-171.33
207.745	-97.8
207.964	-34.77
208.184	-67.28
208.404	-91.56
208.624	-91.59
208.844	-72.29
209.064	-362.73
209.284	-408.61
209.504	-163.65
209.724	-50.95
209.944	-41.22
210.164	6.89
210.384	29.63
210.604	19.25
210.823	-16.66
211.043	-39.21
211.263	-28.75
211.483	-36.07
211.703	-88.47
211.922	-45.85
212.142	17.05
212.362	35.65
212.582	30.72
212.801	45.53
213.021	13.1
213.241	-2.07
213.461	-64.67
213.68	-87.48
213.9	-72.95
214.12	-45.22
214.339	-92.5
214.559	-54.27
214.779	-11.51
214.998	-8.92
215.218	-48.94
215.438	-32.8
215.657	-24.61
215.877	-14.19
216.096	4.9
216.316	5.03
216.535	-6.5
216.755	-21.78
216.974	-140.97
217.194	-192.98
217.413	-153.77
217.633	-132.6
217.852	-198.51
218.072	-73.51
218.291	-31.56
218.511	5.44
218.73	-23.53
218.95	-20.32
219.169	-30.12
219.389	-72.71
219.608	-55.24
219.827	-34.4
220.047	-22.89
220.266	-2.87
220.485	14.06
220.705	30.71
220.924	11.47
221.143	37.38
221.363	22.59
221.582	28.29
221.801	22.41
222.021	32.85
222.24	-30.9
222.459	16.65
222.678	14.29
222.897	-72.51
223.117	-116.91
223.336	-69.66
223.555	-40.82
223.774	-7.39
223.993	33.08
224.213	107.39
224.432	78.34
224.651	83.57
224.87	45.29
225.089	50.76
225.308	23.35
225.527	46.57
225.746	41.77
225.965	40.34
226.184	30.23
226.404	28.32
226.623	-12.77
226.842	-16.18
227.061	9.58
227.28	5.13
227.499	-11.58
227.718	16.42
227.936	14.36
228.155	5.49
228.374	-0.6
228.593	23.41
228.812	23.6
229.031	10.08
229.25	-24.12
229.469	-4.25
229.688	-8.94
229.907	12.62
230.125	26.81
230.344	35.94
230.563	35.54
230.782	51.73
231.001	-23.98
231.22	-16.04
231.438	16.07
231.657	20.92
231.876	-2
232.095	55.14
232.313	51.69
232.532	26.71
232.751	-24.72
232.969	-24.35
233.188	-165.15
233.407	-37.94
233.625	-24.62
233.844	-20.27
234.063	-25.91
234.281	12.74
234.5	-25.77
234.719	-10.92
234.937	15.6
235.156	22.11
235.374	31.75
235.593	37.78
235.811	9.47
236.03	-7.46
236.249	-32.86
236.467	-46.06
236.686	-13.41
236.904	17.69
237.123	-6.18
237.341	3.26
237.559	0.03
237.778	-27.34
237.996	-67.74
238.215	-10.07
238.433	-5.97
238.652	-22.72
238.87	-28.43
239.088	-12.1
239.307	-15.05
239.525	-33.92
239.743	-44.66
239.962	-26.06
240.18	-59.35
240.398	-124.69
240.617	-120.66
240.835	-110.24
241.053	-102.31
241.271	-25.85
241.49	24.85
241.708	-0.54
241.926	12.8
242.144	18.17
242.363	-46.96
242.581	-89.33
242.799	-36.99
243.017	-8.17
243.235	-18.5
243.453	-7.94
243.672	1.63
243.89	3.09
244.108	-8.27
244.326	11.5
244.544	15.37
244.762	9.14
244.98	25.93
245.198	34.1
245.416	12.43
245.634	6.72
245.852	8.22
246.07	-8.27
246.288	-27.47
246.506	-58.11
246.724	-21.28
246.942	-18.4
247.16	21.26
247.378	34.75
247.596	61.55
247.814	43.48
248.032	17.29
248.25	-6.03
248.468	0.04
248.685	-1.62
248.903	36.87
249.121	48.21
249.339	25.19
249.557	13.21
249.775	10.01
249.992	-76.24
250.21	-78.48
250.428	-59
250.646	-79.67
250.863	-94.94
251.081	-39.81
251.299	-27.64
251.517	-14.27
251.734	-4.52
251.952	-14.03
252.17	-11.13
252.387	-4.91
252.605	-11.87
252.823	-7.39
253.04	21.61
253.258	22.74
253.475	14.51
253.693	42.79
253.911	45.9
254.128	34.81
254.346	30.5
254.563	7.02
254.781	-25.38
254.998	-62.34
255.216	-75.66
255.433	-74.17
255.651	-21.74
255.868	19.86
256.086	53.09
256.303	35.03
256.521	41.16
256.738	17.22
256.956	-13.92
257.173	-26.47
257.39	-10.51
257.608	-28.9
257.825	50.32
258.043	84.54
258.26	72.68
258.477	75.47
258.695	70.46
258.912	-20.23
259.129	-15.2
259.346	-45.22
259.564	-75.85
259.781	-89.06
259.998	-17.84
260.216	7.63
260.433	38.6
260.65	41.76
260.867	54.99
261.084	22.15
261.302	12.82
261.519	-15.29
261.736	-34.59
261.953	-53.12
262.17	-10.99
262.387	-66.13
262.604	-83.21
262.822	-84.32
263.039	-61.84
263.256	-93.73
263.473	-37.12
263.69	-7.79
263.907	21.65
264.124	40.39
264.341	46.16
264.558	23.19
264.775	33.94
264.992	29.75
265.209	17.28
265.426	28.98
265.643	40.32
265.86	42.64
266.077	42.11
266.294	30.95
266.51	-19.22
266.727	-49.74
266.944	-35.92
267.161	-46.67
267.378	-37.7
267.595	2.86
267.812	-2.48
268.028	-18.81
268.245	15.06
268.462	-4.06
268.679	-18.34
268.896	30.8
269.112	23.72
269.329	2.2
269.546	-3.06
269.763	-6.97
269.979	-29.35
270.196	-34.05
270.413	-48.01
270.629	-65.61
270.846	-77.05
271.063	-66.59
271.279	-55.17
271.496	-57.04
271.712	-21.19
271.929	14.29
272.146	-0.73
272.362	-19.3
272.579	25.52
272.795	35.98
273.012	22.58
273.228	28.58
273.445	20.78
273.661	-19.71
273.878	-55.51
274.094	-44.47
274.311	-74.05
274.527	-17.69
274.744	-6.04
274.96	-3.93
275.177	4.17
275.393	25.01
275.609	32.1
275.826	51.34
276.042	51.78
276.259	27.71
276.475	36.96
276.691	27.92
276.908	-2.46
277.124	-0.11
277.34	9.15
277.557	-6.81
277.773	-12.76
277.989	3.08
278.205	0.21
278.422	25.42
278.638	22.58
278.854	46.99
279.07	54.67
279.286	53.27
279.503	14.82
279.719	6.88
279.935	-25.46
280.151	-42.27
280.367	-32.19
280.583	-38.54
280.799	-30.21
281.016	-60.16
281.232	-19.91
281.448	-19.64
281.664	-3.91
281.88	-28.67
282.096	22.77
282.312	32.59
282.528	47.88
282.744	52.69
282.96	39.37
283.176	11.27
283.392	-5.16
283.608	-6.51
283.824	-2.73
284.04	16.59
284.256	32.3
284.471	27.59
284.687	29.81
284.903	41.17
285.119	59.59
285.335	35.04
285.551	45.5
285.767	19.24
285.982	8.96
286.198	-32.08
286.414	24.71
286.63	23.68
286.846	63.06
287.061	31.04
287.277	46.82
287.493	22.7
287.709	41.88
287.924	7.22
288.14	51.62
288.356	70.99
288.571	79.35
288.787	50.65
289.003	52.27
289.218	35.26
289.434	-10.51
289.65	-9.18
289.865	-16.25
290.081	8.53
290.296	8
290.512	29.89
290.727	-14.97
290.943	-9.63
291.159	-24.18
291.374	-25.87
291.59	-61.9
291.805	-46.73
292.021	-35.94
292.236	-36.23
292.451	-18.63
292.667	-2.94
292.882	13.74
293.098	-7.65
293.313	-35.24
293.529	-60.59
293.744	-64.55
293.959	-68.49
294.175	-47.19
294.39	-1.5
294.605	10.47
294.821	30.62
295.036	32.8
295.251	37.74
295.467	15.43
295.682	9.89
295.897	-48.07
296.112	-46.01
296.328	-30.74
296.543	-54.27
296.758	-44.94
296.973	19.01
297.188	37.47
297.404	1.21
297.619	1.42
297.834	-19.28
298.049	-58.23
298.264	-90.92
298.479	-22.53
298.694	-19.2
298.909	12.93
299.125	16.87
299.34	22.98
299.555	-3.81
299.77	8.56
299.985	-41.16
300.2	-93.09
300.415	-102.96
300.63	-59.16
300.845	-68.69
301.06	-67.12
301.275	-18.28
301.49	4.25
301.704	-17.96
301.919	-38.92
302.134	-49.19
302.349	-42.53
302.564	-107.35
302.779	-105.53
302.994	-28.57
303.209	8.59
303.423	17.35
303.638	60.27
303.853	8.34
304.068	-2.18
304.283	12.78
304.497	0.18
304.712	-5.72
304.927	17.08
305.142	10.36
305.356	-2.13
305.571	4.25
305.786	-18.24
306	-43.97
306.215	-33.67
306.43	-29.94
306.644	-32.21
306.859	7.45
307.074	12.66
307.288	-33.67
307.503	-66.06
307.717	-67.74
307.932	-68.97
308.147	-67.25
308.361	-30.66
308.576	-27.37
308.79	-49.98
309.005	-42.73
309.219	-29.6
309.434	-46.78
309.648	-46.67
309.863	-15.38
310.077	-15.46
310.292	-17.08
310.506	-16.03
310.72	-4.51
310.935	7.11
311.149	13.14
311.364	33.82
311.578	53.46
311.792	49.78
312.007	44.97
312.221	19.23
312.435	13.89
312.649	-7.31
312.864	29.92
313.078	43.2
313.292	102.09
313.507	100.51
313.721	117.33
313.935	51.94
314.149	36.09
314.363	32.03
314.578	15.41
314.792	20.32
315.006	6.23
315.22	10.67
315.434	18.37
315.648	38.84
315.862	38.17
316.077	44.95
316.291	38.44
316.505	39.56
316.719	28.68
316.933	15.32
317.147	-10
317.361	-58.1
317.575	-94.34
317.789	-151.61
318.003	-212.77
318.217	-159.36
318.431	-63.72
318.645	-2.47
318.859	13.03
319.073	29.59
319.287	21.52
319.5	4.24
319.714	-47.52
319.928	-69.02
320.142	-91.43
320.356	-42.1
320.57	-21.77
320.784	-28.52
320.997	-35.67
321.211	-34
321.425	-97.05
321.639	-114.73
321.853	-35.46
322.066	-11.85
322.28	-10.62
322.494	3.3
322.707	27.8
322.921	6.85
323.135	11.05
323.349	30.98
323.562	8.44
323.776	-10.43
323.989	-8.38
324.203	-49.09
324.417	-69.98
324.63	-70.35
324.844	-70.2
325.057	-70.5
325.271	-24.58
325.485	4.77
325.698	29.46
325.912	45.07
326.125	21.23
326.339	10.94
326.552	-21.39
326.766	-25.55
326.979	-11.56
327.193	21.93
327.406	9.22
327.619	5.28
327.833	12.81
328.046	-7.84
328.26	-36.47
328.473	-4.59
328.686	-23.02
328.9	-10.36
329.113	-8.76
329.326	-26.76
329.54	-33.61
329.753	-40.36
329.966	-84.07
330.179	-57.59
330.393	-27.65
330.606	-24.02
330.819	5.8
331.032	25.83
331.246	29.9
331.459	53.72
331.672	46.58
331.885	40.38
332.098	8.86
332.311	-14.03
332.525	-59.94
332.738	-51.85
332.951	-11.28
333.164	30.06
333.377	42.28
333.59	52.43
333.803	56.12
334.016	33.59
334.229	12.44
334.442	-4.61
334.655	17.16
334.868	24.5
335.081	15.65
335.294	16.21
335.507	10.21
335.72	-10.52
335.933	-24.72
336.146	-32.67
336.359	-31.37
336.572	-39.41
336.785	-61.5
336.997	-47.81
337.21	-7.38
337.423	-17.04
337.636	-12.97
337.849	15.24
338.062	9.49
338.274	9.33
338.487	2.3
338.7	5.89
338.913	-43.6
339.125	-70.47
339.338	-137.74
339.551	-92.39
339.763	-43.95
339.976	-15.95
340.189	13.83
340.402	25.68
340.614	0.04
340.827	-12.75
341.039	-36.89
341.252	-41.74
341.465	-21.92
341.677	-8.06
341.89	-60.37
342.102	-20.11
342.315	-37.73
342.527	-95.54
342.74	-107.37
342.952	-44.21
343.165	-40.69
343.377	-8.49
343.59	6.55
343.802	39.7
344.015	33.29
344.227	40.54
344.44	21.87
344.652	24.75
344.864	1.88
345.077	29.34
345.289	30.16
345.502	36.6
345.714	29.88
345.926	38.74
346.139	15.53
346.351	23.14
346.563	29.2
346.775	35.18
346.988	17.61
347.2	19.16
347.412	-26.09
347.624	-48.04
347.837	-72.52
348.049	-28.23
348.261	5.18
348.473	-2.93
348.685	-6.7
348.897	1.79
349.11	-17.43
349.322	-51.59
349.534	-16.01
349.746	-8.7
349.958	-0.17
350.17	-5.65
350.382	17.35
350.594	3.51
350.806	7.96
351.018	9.96
351.23	-1.97
351.442	-53.38
351.654	-45.67
351.866	-23.19
352.078	-26.63
352.29	-10.66
352.502	17.84
352.714	23.73
352.926	0.58
353.138	-2.21
353.35	-14.57
353.561	-28.65
353.773	-48.2
353.985	-27.02
354.197	-28.55
354.409	-21.23
354.621	-24.9
354.832	-7.73
355.044	-9.75
355.256	-13.07
355.468	-3.9
355.679	1.3
355.891	4.38
356.103	-14.3
356.314	-5.11
356.526	-8.29
356.738	4.02
356.949	5.91
357.161	24.39
357.373	21.79
357.584	11.63
357.796	6.81
358.008	0.7
358.219	13.69
358.431	6.78
358.642	17.14
358.854	1.3
359.065	-9.46
359.277	-44.62
359.488	-52.75
359.7	-83.21
359.911	-81.74
360.123	-50.84
360.334	-57.83
360.546	-73.89
360.757	-70.49
360.969	-49
361.18	-56.04
361.391	-34.85
361.603	-37.32
361.814	-15.93
362.025	-25.87
362.237	-18.03
362.448	3.46
362.659	26.49
362.871	20.76
363.082	18.71
363.293	7.1
363.504	-15.91
363.716	-39.25
363.927	-46.97
364.138	-62.79
364.349	-68.01
364.56	-63.17
364.772	-53.88
364.983	-37.75
365.194	-27.97
365.405	-10.97
365.616	4.76
365.827	0.17
366.038	-14.05
366.25	-13.95
366.461	-54.07
366.672	-22.84
366.883	4.23
367.094	15.19
367.305	1.84
367.516	11.72
367.727	-20.91
367.938	-33.41
368.149	-37.83
368.36	-17.42
368.571	-11.53
368.781	-14.35
368.992	-26.29
369.203	-38.74
369.414	-57.43
369.625	-58.77
369.836	-52.35
370.047	-83
370.258	-57.94
370.468	-50.29
370.679	-65.08
370.89	-60.52
371.101	-23.17
371.312	-23.17
371.522	-17.08
371.733	-9.56
371.944	2.31
372.155	7.37
372.365	0.81
372.576	-2.73
372.787	-8.34
372.997	-24.39
373.208	-29.4
373.419	-7.71
373.629	-37.41
373.84	-23.69
374.05	-33.54
374.261	-22.94
374.472	-39.49
374.682	7.56
374.893	11.06
375.103	42.11
375.314	28.41
375.524	22.78
375.735	25.7
375.945	24.77
376.156	-2.59
376.366	9.88
376.577	15.22
376.787	5.95
376.997	15.13
377.208	19.9
377.418	4.18
377.629	8.54
377.839	7.48
378.049	-0.9
378.26	6
378.47	16.84
378.68	5.39
378.89	-3.91
379.101	-5.23
379.311	-28.07
379.521	-63.32
379.732	-55.98
379.942	-42.74
380.152	-69.26
380.362	-29.28
380.572	-17.31
380.783	-3.03
380.993	7.55
381.203	31.31
381.413	32.71
381.623	32.87
381.833	31.12
382.043	12.77
382.253	-1.02
382.463	0.76
382.674	-5.2
382.884	-29.15
383.094	-20.81
383.304	-11.79
383.514	-9.64
383.724	6.28
383.934	1.74
384.144	-14.28
384.353	-20.09
384.563	-20.33
384.773	-20.83
384.983	-26.56
385.193	-0.8
385.403	2.78
385.613	-2.03
385.823	-10.43
386.033	0.67
386.242	-7.03
386.452	-11.93
386.662	-18.53
386.872	-5.85
387.082	-11.64
387.291	-22.42
387.501	-24.54
387.711	-16.29
387.921	-24.23
388.13	-15.77
388.34	1.28
388.55	-0.24
388.759	0.17
388.969	4.26
389.179	2.73
389.388	-2.87
389.598	5.42
389.807	0.78
390.017	-1.9
390.227	-4.11
390.436	-4.73
390.646	-6.28
390.855	-2.11
391.065	-3.08
391.274	-3.91
391.484	-7.39
391.693	-5.09
391.903	-4
392.112	3.16
392.322	8.37
392.531	13.65
392.74	12.53
392.95	8.19
393.159	3.62
393.369	1.45
393.578	-1.09
393.787	-2.42
393.997	-0.29
394.206	-2.51
394.415	-1.73
394.625	-0.31
394.834	-1.42
395.043	-1.91
395.252	1.53
395.462	4.04
395.671	3.45
395.88	4.7
396.089	5.88
396.298	3.64
396.508	2.45
396.717	2.67
396.926	3.48
397.135	3.44
397.344	4.2
397.553	4.68
397.762	6.35
397.971	5.85
398.181	5.55
398.39	5.54
398.599	5.26
398.808	4.47
399.017	5.19
399.226	6.83
399.435	7.67
399.644	7.17
399.853	6.42
400.062	5.9
400.27	4.68
400.479	4.17
400.688	3.95
400.897	4.32
401.106	4.23
401.315	4.28
401.524	4.22
401.733	4.83
401.941	5.48
402.15	5.67
402.359	5.58
402.568	5.99
402.777	6.01
402.985	5.45
403.194	5.25
403.403	5.45
403.612	4.93
403.82	4.56
404.029	4.75
404.238	4.88
404.446	5.21
404.655	5.26
404.864	5.39
405.072	5.18
405.281	5.09
405.489	4.55
405.698	4.42
405.906	4.31
406.115	4.4
406.324	4.31
406.532	4.45
406.741	4.69
406.949	4.7
407.158	4.68
407.366	4.85
407.574	4.8
407.783	4.8
407.991	4.55
408.2	4.63
408.408	4.59
408.617	4.5
408.825	4.33
409.033	4.6
409.242	4.62
409.45	4.76
409.658	4.71
409.867	4.77
410.075	4.57
410.283	4.44
410.491	4.15
410.7	4.19
410.908	4.19
411.116	4.55
411.324	4.51
411.533	4.64
411.741	4.93
411.949	4.94
412.157	4.62
412.365	4.66
412.573	4.44
412.781	4.22
412.99	4.14
413.198	4.35
413.406	4.4
413.614	4.6
413.822	4.57
414.03	4.5
414.238	4.33
414.446	4.27
414.654	4.11
414.862	4.14
415.07	4.22
415.278	4.25
415.486	3.96
415.694	4.03
415.902	3.85
416.109	3.65
416.317	3.63
416.525	3.62
416.733	3.55
416.941	3.67
417.149	3.83
417.357	3.9
417.564	4.17
417.772	4.37
417.98	4.31
418.188	4.26
418.395	4.3
418.603	4.44
418.811	4.06
419.019	3.94
419.226	4.06
419.434	4.13
419.642	3.77
419.849	3.95
420.057	4.04
420.265	4.06
420.472	3.76
420.68	3.86
420.887	3.71
421.095	3.75
421.302	3.59
421.51	3.8
421.717	3.9
421.925	4.07
422.132	3.98
422.34	3.85
422.547	3.72
422.755	3.55
422.962	3.53
423.17	3.37
423.377	3.54
423.585	3.6
423.792	3.63
423.999	3.6
424.207	3.73
424.414	3.7
424.621	3.63
424.829	3.59
425.036	3.54
425.243	3.63
425.451	3.48
425.658	3.31
425.865	3.54
426.072	3.56
426.28	3.77
426.487	3.76
426.694	3.94
426.901	3.58
427.108	3.57
427.315	3.25
427.523	3.6
427.73	3.61
427.937	3.8
428.144	3.62
428.351	3.68
428.558	3.69
428.765	3.55
428.972	3.47
429.179	3.77
429.386	3.99
429.593	3.68
429.8	3.68
430.007	3.88
430.214	4.04
430.421	3.78
430.628	3.72
430.835	3.64
431.042	3.72
431.249	3.62
431.456	3.71
431.662	3.89
431.869	4.14
432.076	4.13
432.283	4.17
432.49	4.13
432.697	4.19
432.903	3.89
433.11	3.79
433.317	3.84
433.524	4.16
433.73	4.04
433.937	4.47
434.144	4.52
434.35	4.42
434.557	4.11
434.764	4.22
434.97	4.05
435.177	4.25
435.384	4.2
435.59	4.4
435.797	4.55
436.003	4.57
436.21	4.4
436.416	4.59
436.623	4.58
436.829	4.59
437.036	4.67
437.242	4.73
437.449	4.47
437.655	4.45
437.862	4.46
438.068	4.41
438.275	4.58
438.481	4.96
438.687	5.03
438.894	4.98
439.1	5.07
439.307	5.1
439.513	4.93
439.719	4.9
439.926	5
440.132	4.95
440.338	4.71
440.544	4.95
440.751	4.92
440.957	4.98
441.163	4.93
441.369	5.1
441.575	4.91
441.782	4.94
441.988	4.69
442.194	4.74
442.4	4.82
442.606	5.09
442.812	5.22
443.018	5.44
443.224	5.56
443.431	5.61
443.637	5.37
443.843	5.25
444.049	5.22
444.255	5.15
444.461	5.13
444.667	5.13
444.873	5.37
445.079	5.44
445.284	5.48
445.49	5.23
445.696	5.06
445.902	4.89
446.108	4.8
446.314	4.76
446.52	4.92
446.726	5.22
446.931	5.25
447.137	5.35
447.343	5.43
447.549	5.44
447.755	5.39
447.96	5.42
448.166	5.35
448.372	5.27
448.578	5.3
448.783	5.29
448.989	5.32
449.195	5.59
449.4	5.71
449.606	5.6
449.812	5.45
450.017	5.48
450.223	5.22
450.428	5.15
450.634	5.38
450.84	5.63
451.045	5.57
451.251	5.55
451.456	5.83
451.662	5.84
451.867	5.85
452.073	5.95
452.278	6.15
452.483	6.11
452.689	5.94
452.894	5.97
453.1	5.89
453.305	5.75
453.51	5.64
453.716	5.65
453.921	5.65
454.127	5.6
454.332	5.55
454.537	5.54
454.742	5.56
454.948	5.5
455.153	5.56
455.358	5.74
455.563	5.92
455.769	6.06
455.974	6.06
456.179	6.01
456.384	5.95
456.589	5.85
456.795	5.65
457	5.62
457.205	5.87
457.41	5.85
457.615	5.84
457.82	5.99
458.025	6.1
458.23	5.94
458.435	6.07
458.64	5.9
458.845	6.01
459.05	5.89
459.255	5.84
459.46	5.75
459.665	5.81
459.87	5.79
460.075	5.83
460.28	5.94
460.485	6.03
460.69	6.1
460.895	5.95
461.099	5.96
461.304	6.05
461.509	6.02
461.714	6.01
