Data from Ofra_PS_T2_2A_0CX05_Reflection_1.txt Node
Date: Wed Jul 21 16:49:41 EDT 2021
User: Adam
Spectrometer: FLMT01687
Trigger mode: 0
Integration Time (sec): 1.100000E0
Scans to average: 2
Electric dark correction enabled: true
Nonlinearity correction enabled: false
Boxcar width: 2
XAxis mode: Wavelengths
Number of Pixels in Spectrum: 3648
>>>>>Begin Spectral Data<<<<<
179.494	305.6
179.716	360.24
179.937	351.81
180.158	294.5
180.38	406.25
180.601	145.3
180.823	35.81
181.044	-82.94
181.265	83.09
181.486	24.66
181.708	69.75
181.929	255.1
182.15	107.04
182.372	27.7
182.593	-83.28
182.814	-4.99
183.035	-30.61
183.257	-55.59
183.478	-93.62
183.699	-27.34
183.92	-56.02
184.141	-16.56
184.363	-17.23
184.584	3.58
184.805	27.82
185.026	84.28
185.247	79.9
185.468	60.11
185.689	71.9
185.91	45.53
186.132	22.7
186.353	16.77
186.574	29.06
186.795	40.43
187.016	20.26
187.237	-14.49
187.458	-30.8
187.679	-45.68
187.9	-38.91
188.121	-32.72
188.342	2.16
188.563	27.82
188.784	85.99
189.005	68.61
189.226	88.83
189.447	54.79
189.667	-62.14
189.888	-237.44
190.109	-559.74
190.33	-225.81
190.551	-421.24
190.772	-114.53
190.993	-117.9
191.214	-175.33
191.434	-96.8
191.655	-27.85
191.876	-10.48
192.097	-41.26
192.318	-21.93
192.538	-81.52
192.759	-69.18
192.98	-6.46
193.201	12
193.421	25.22
193.642	33.69
193.863	25.08
194.083	-2.47
194.304	-4.02
194.525	-0.95
194.745	-53.2
194.966	-17.33
195.187	-2.1
195.407	-18.02
195.628	-62.78
195.848	-20.05
196.069	-35.23
196.29	-48.12
196.51	-23.58
196.731	-15.53
196.951	-38.25
197.172	-49.76
197.392	-31.67
197.613	-41.81
197.833	-52.69
198.054	-23.96
198.274	0.08
198.495	-8.95
198.715	14.96
198.936	20.77
199.156	37.46
199.377	6.19
199.597	16.74
199.817	-11.97
200.038	-8.17
200.258	-38.01
200.479	4.96
200.699	-13.6
200.919	43.04
201.14	35.45
201.36	10.82
201.58	29.37
201.801	39.53
202.021	9.75
202.241	14.3
202.461	18.57
202.682	-44.62
202.902	-83.64
203.122	-18.41
203.342	-21.24
203.563	10.51
203.783	26.99
204.003	13.71
204.223	23.45
204.443	54.29
204.663	33.7
204.884	30.31
205.104	44.92
205.324	45.26
205.544	66.95
205.764	58.43
205.984	61.29
206.204	71.28
206.424	62.24
206.644	46.92
206.864	77.73
207.084	78.49
207.304	74.79
207.525	68.75
207.745	62.66
207.964	42.77
208.184	30.35
208.404	4.77
208.624	5.15
208.844	-13.28
209.064	-203.69
209.284	-215.03
209.504	-127.02
209.724	-57.1
209.944	-36.16
210.164	-3.45
210.384	18.12
210.604	10.86
210.823	-6.97
211.043	13.77
211.263	17.18
211.483	20.94
211.703	11.12
211.922	39.69
212.142	44.76
212.362	57.69
212.582	21.62
212.801	23.18
213.021	9.05
213.241	10.5
213.461	-18.09
213.68	-7.03
213.9	18.96
214.12	14.75
214.339	-32.88
214.559	-26.8
214.779	-2.59
214.998	-7.11
215.218	-29.01
215.438	-13.71
215.657	-6.28
215.877	-7.18
216.096	-5.44
216.316	13.47
216.535	-0.62
216.755	13.5
216.974	-34.25
217.194	-54.74
217.413	-38.14
217.633	24.56
217.852	-24.57
218.072	9.63
218.291	34.42
218.511	33.43
218.73	9.42
218.95	9.92
219.169	-0.43
219.389	-30.5
219.608	-8.19
219.827	-1.75
220.047	24.33
220.266	39.51
220.485	52.76
220.705	36.42
220.924	27.55
221.143	32.23
221.363	12.25
221.582	20.14
221.801	41.23
222.021	47.08
222.24	15.22
222.459	82.27
222.678	61.74
222.897	9.18
223.117	-23.85
223.336	3.96
223.555	9.45
223.774	45.37
223.993	64.5
224.213	87.79
224.432	73.81
224.651	74.85
224.87	41.25
225.089	34.79
225.308	17.76
225.527	28.44
225.746	28.31
225.965	21.63
226.184	6.7
226.404	28.16
226.623	8.1
226.842	4.11
227.061	19.73
227.28	26.39
227.499	31.62
227.718	32.66
227.936	33.87
228.155	51.41
228.374	64.09
228.593	48.48
228.812	64.17
229.031	38.51
229.25	-5.8
229.469	-39.57
229.688	-65.73
229.907	-40.37
230.125	-33.13
230.344	-18.8
230.563	1.81
230.782	16.74
231.001	-25
231.22	-8.09
231.438	22.76
231.657	27.34
231.876	30.24
232.095	59.89
232.313	44.7
232.532	19.44
232.751	-0.52
232.969	5.16
233.188	-51.92
233.407	23.14
233.625	24.3
233.844	29.93
234.063	4.85
234.281	15.93
234.5	8.74
234.719	8.2
234.937	17.86
235.156	20.75
235.374	21.2
235.593	2.73
235.811	0.56
236.03	6.1
236.249	-0.22
236.467	0.39
236.686	26.79
236.904	35.08
237.123	21.83
237.341	24.8
237.559	29.16
237.778	17.06
237.996	-9.6
238.215	8.47
238.433	18.57
238.652	5.71
238.87	1.63
239.088	8.04
239.307	-3.29
239.525	-14.48
239.743	-17.73
239.962	-12.84
240.18	1.3
240.398	-18.47
240.617	-3.27
240.835	9.44
241.053	10.96
241.271	40.2
241.49	54.68
241.708	39.59
241.926	7.83
242.144	27.24
242.363	-27.44
242.581	-35.79
242.799	-26.96
243.017	4.48
243.235	-8.03
243.453	9.58
243.672	-1.7
243.89	-0.25
244.108	4.21
244.326	6.35
244.544	18.45
244.762	46.27
244.98	57.8
245.198	59.86
245.416	70.01
245.634	47.81
245.852	14.96
246.07	1.29
246.288	-6.33
246.506	-33.37
246.724	-9.14
246.942	20.66
247.16	44.48
247.378	36.55
247.596	55.11
247.814	31.81
248.032	9.7
248.25	2.78
248.468	8.65
248.685	5.71
248.903	45.52
249.121	55.5
249.339	35.09
249.557	32.96
249.775	24.64
249.992	-33.21
250.21	-51.83
250.428	-22.23
250.646	-51.3
250.863	-56.84
251.081	-28.29
251.299	-7.49
251.517	-4.12
251.734	20.69
251.952	35.92
252.17	25.9
252.387	23.93
252.605	24.27
252.823	34.27
253.04	44.38
253.258	48.09
253.475	55.67
253.693	61.85
253.911	59.24
254.128	44.39
254.346	54.04
254.563	38.98
254.781	27.17
254.998	3.02
255.216	13.71
255.433	22.85
255.651	35.88
255.868	46.27
256.086	54.27
256.303	39.19
256.521	28.44
256.738	15.05
256.956	-7.49
257.173	-10.85
257.39	-31.63
257.608	-45.43
257.825	-15.62
258.043	-0.64
258.26	17.61
258.477	59.31
258.695	63.07
258.912	50.12
259.129	49.01
259.346	31.24
259.564	3.74
259.781	-18.94
259.998	23.49
260.216	18.44
260.433	26.03
260.65	15.18
260.867	33.24
261.084	-0.35
261.302	-8.21
261.519	-26.92
261.736	-13.6
261.953	-29.41
262.17	-7.29
262.387	-13.26
262.604	-9.74
262.822	-17.85
263.039	15.31
263.256	24.03
263.473	35.32
263.69	33.91
263.907	44.52
264.124	44.49
264.341	36.02
264.558	25.18
264.775	22.16
264.992	21.42
265.209	18.99
265.426	22.46
265.643	37.29
265.86	54.37
266.077	43.12
266.294	19.47
266.51	-4.08
266.727	-15.87
266.944	-25.66
267.161	-12.34
267.378	-19.61
267.595	20.52
267.812	17.56
268.028	7.04
268.245	17.67
268.462	17.95
268.679	-1.21
268.896	13.19
269.112	10.37
269.329	-1.03
269.546	14.77
269.763	23.27
269.979	23.99
270.196	28.35
270.413	39.86
270.629	34.69
270.846	9.71
271.063	-13.47
271.279	-22.01
271.496	-23.45
271.712	-9.94
271.929	1.06
272.146	20.05
272.362	22.45
272.579	44.76
272.795	45.48
273.012	53.79
273.228	66.19
273.445	70.25
273.661	30.94
273.878	-3.5
274.094	6.41
274.311	-32.44
274.527	7.97
274.744	19.09
274.96	26.53
275.177	14.09
275.393	29.62
275.609	25.59
275.826	31.18
276.042	21.64
276.259	15.96
276.475	24.19
276.691	25.23
276.908	26.78
277.124	37.06
277.34	34.71
277.557	29.42
277.773	8.59
277.989	3.26
278.205	2.52
278.422	18.57
278.638	11.54
278.854	32.44
279.07	29.13
279.286	21.74
279.503	12.01
279.719	18.73
279.935	-27.44
280.151	-46.66
280.367	-20.45
280.583	-31.61
280.799	-19.8
281.016	-20.07
281.232	4.64
281.448	-9.5
281.664	2.46
281.88	-26.22
282.096	4.77
282.312	19.28
282.528	14.13
282.744	3.7
282.96	23.58
283.176	11.12
283.392	3.52
283.608	10.81
283.824	8.21
284.04	18.52
284.256	12.54
284.471	12.5
284.687	26.96
284.903	42.14
285.119	34.23
285.335	31.89
285.551	56.54
285.767	34.73
285.982	20.32
286.198	13.96
286.414	42.12
286.63	23.53
286.846	36.79
287.061	31.64
287.277	45.53
287.493	20.98
287.709	25.37
287.924	20.27
288.14	37.39
288.356	25.65
288.571	41.95
288.787	29.24
289.003	28.23
289.218	15.44
289.434	-0.41
289.65	0.42
289.865	0.27
290.081	16.79
290.296	29.28
290.512	44.72
290.727	30.69
290.943	31.68
291.159	11.07
291.374	8.01
291.59	-10.93
291.805	7.06
292.021	15.2
292.236	13.12
292.451	26.04
292.667	36.89
292.882	33.03
293.098	28.41
293.313	21.9
293.529	1.24
293.744	-10.96
293.959	-8.43
294.175	-15.31
294.39	10.79
294.605	27.45
294.821	36.1
295.036	37.38
295.251	41.56
295.467	40.01
295.682	25.5
295.897	16.27
296.112	19.47
296.328	26.49
296.543	6.99
296.758	6.41
296.973	8.27
297.188	23.14
297.404	4.72
297.619	-8.76
297.834	-16.92
298.049	-15.39
298.264	-35.9
298.479	9.38
298.694	16.79
298.909	42.64
299.125	48.81
299.34	46.57
299.555	23.19
299.77	26.77
299.985	-14.57
300.2	-64.01
300.415	-53.89
300.63	-39.85
300.845	-37.01
301.06	-29.14
301.275	2.04
301.49	6.61
301.704	6.7
301.919	-23.8
302.134	-29.06
302.349	-34.89
302.564	-76.58
302.779	-102.57
302.994	-53.92
303.209	-19.09
303.423	15.65
303.638	51.29
303.853	33.42
304.068	38.05
304.283	26.68
304.497	20.87
304.712	11.59
304.927	2.96
305.142	-6.42
305.356	-6.61
305.571	-17.11
305.786	-10.08
306	-10.8
306.215	-16.57
306.43	-34.38
306.644	-31.89
306.859	-23.23
307.074	1.57
307.288	-6.32
307.503	3.4
307.717	0.44
307.932	-1.71
308.147	-16.59
308.361	11.98
308.576	0.22
308.79	-13.69
309.005	-23.37
309.219	-4.39
309.434	-16.54
309.648	-4.54
309.863	5.72
310.077	9.75
310.292	-2.1
310.506	2.13
310.72	5.48
310.935	3.1
311.149	-2.28
311.364	23.19
311.578	25.8
311.792	24
312.007	30.67
312.221	38.83
312.435	34.13
312.649	35.52
312.864	62.86
313.078	72.82
313.292	90.56
313.507	69.31
313.721	67.71
313.935	46.92
314.149	33.99
314.363	34.08
314.578	36.75
314.792	31.45
315.006	13.15
315.22	27.34
315.434	23.92
315.648	25.96
315.862	35.72
316.077	39.86
316.291	13.96
316.505	15.83
316.719	16.03
316.933	8.41
317.147	-4.53
317.361	-14.59
317.575	-24.88
317.789	-44.77
318.003	-102.29
318.217	-75.14
318.431	-12.02
318.645	9.37
318.859	23.56
319.073	33.45
319.287	24.91
319.5	2.8
319.714	-12.33
319.928	-32.75
320.142	-44.56
320.356	-21.26
320.57	1.13
320.784	-33.78
320.997	-78.55
321.211	-49.49
321.425	-56.72
321.639	-57.71
321.853	-4.94
322.066	23.67
322.28	12.68
322.494	4.22
322.707	-8.43
322.921	-12.51
323.135	-18.51
323.349	-18.05
323.562	-6.52
323.776	2.79
323.989	-0.11
324.203	-0.53
324.417	8.39
324.63	6.96
324.844	-2.13
325.057	3.84
325.271	14.03
325.485	24.27
325.698	24.95
325.912	37.81
326.125	22.52
326.339	19.88
326.552	-5.69
326.766	-2.48
326.979	7.61
327.193	35.48
327.406	32.08
327.619	35.15
327.833	37.08
328.046	15.8
328.26	-14.16
328.473	-0.11
328.686	-16.97
328.9	-18.31
329.113	-2.74
329.326	-16.8
329.54	-23.28
329.753	-28.41
329.966	-15.86
330.179	-19.49
330.393	7.67
330.606	14.43
330.819	30.03
331.032	26.93
331.246	25.97
331.459	39.04
331.672	41.96
331.885	32.49
332.098	27.72
332.311	24.41
332.525	-8.63
332.738	-21.2
332.951	0.51
333.164	17.26
333.377	26.26
333.59	37.63
333.803	48.65
334.016	36.58
334.229	25.97
334.442	25.13
334.655	30.65
334.868	7.47
335.081	23.65
335.294	18.95
335.507	11.79
335.72	-1.55
335.933	14.91
336.146	2.73
336.359	4.47
336.572	1.69
336.785	-12.91
336.997	-2.31
337.21	11.57
337.423	16.62
337.636	20.46
337.849	34.13
338.062	24.23
338.274	27.57
338.487	22.4
338.7	26.24
338.913	-1.94
339.125	-2.95
339.338	-56.19
339.551	-58.15
339.763	-43.69
339.976	-9.96
340.189	-10.72
340.402	2.53
340.614	14.06
340.827	14.44
341.039	2.89
341.252	11.87
341.465	31.1
341.677	28
341.89	13.92
342.102	40.88
342.315	28.12
342.527	9.05
342.74	18.24
342.952	28.57
343.165	7.66
343.377	10.91
343.59	19.6
343.802	16.38
344.015	5.99
344.227	10.35
344.44	25.03
344.652	24.31
344.864	17.82
345.077	32.18
345.289	36.56
345.502	29.34
345.714	19.64
345.926	21.88
346.139	12.65
346.351	14.02
346.563	10.9
346.775	13.77
346.988	11.67
347.2	7.96
347.412	-26.82
347.624	-10.78
347.837	-17.73
348.049	-3.01
348.261	8.89
348.473	27.64
348.685	19.34
348.897	27.12
349.11	3.48
349.322	-10.76
349.534	-1.99
349.746	12.99
349.958	2.97
350.17	22.47
350.382	32.95
350.594	26.42
350.806	14.83
351.018	25.54
351.23	16.01
351.442	11.5
351.654	6.28
351.866	10.45
352.078	18.43
352.29	29.78
352.502	30.27
352.714	39.37
352.926	31.9
353.138	26.01
353.35	20.12
353.561	15.37
353.773	-4.2
353.985	5.12
354.197	1.41
354.409	3.54
354.621	-2.55
354.832	10.27
355.044	7.31
355.256	11.22
355.468	18.7
355.679	21.92
355.891	27.41
356.103	19.75
356.314	23.36
356.526	23.26
356.738	9.81
356.949	4.68
357.161	22.1
357.373	3.92
357.584	1.46
357.796	20.5
358.008	18.91
358.219	14.11
358.431	14.47
358.642	16.74
358.854	2.02
359.065	-15.3
359.277	-22.27
359.488	-26.59
359.7	-45
359.911	-39.7
360.123	-20.02
360.334	-27.08
360.546	-29.1
360.757	-34.73
360.969	-14.65
361.18	-8.22
361.391	-5.14
361.603	-7.13
361.814	-2.51
362.025	-18.82
362.237	-29.43
362.448	-13.63
362.659	-7.43
362.871	-8.05
363.082	-7.79
363.293	0.61
363.504	-10.1
363.716	-16.13
363.927	-16.79
364.138	-19.01
364.349	-19.25
364.56	-4.39
364.772	-3.84
364.983	16.67
365.194	22.12
365.405	34.84
365.616	30.43
365.827	36.79
366.038	16.34
366.25	14.53
366.461	-16.88
366.672	-5.92
366.883	1.4
367.094	0.56
367.305	-6.25
367.516	-6.45
367.727	-28.28
367.938	-28.96
368.149	-8.35
368.36	6.23
368.571	11.09
368.781	12.99
368.992	1.23
369.203	-27.17
369.414	-40.07
369.625	-38.14
369.836	-26.4
370.047	-36.97
370.258	-11.37
370.468	-18.41
370.679	-30.14
370.89	-25.91
371.101	-10.6
371.312	-13.96
371.522	-8.66
371.733	7.04
371.944	9.82
372.155	13.78
372.365	10.01
372.576	14.5
372.787	14.49
372.997	15.21
373.208	10.34
373.419	27.95
373.629	11.87
373.84	-0.59
374.05	-18.6
374.261	-28.68
374.472	-43.29
374.682	-6.81
374.893	-6.62
375.103	12.88
375.314	18.88
375.524	19.95
375.735	10.86
375.945	23.25
376.156	8.85
376.366	14.82
376.577	8.95
376.787	2.25
376.997	-12.79
377.208	-4.93
377.418	-3.98
377.629	9.14
377.839	8.31
378.049	20.9
378.26	25.06
378.47	25.3
378.68	18.34
378.89	23.84
379.101	17.53
379.311	3.07
379.521	-15.43
379.732	-22.2
379.942	-16.98
380.152	-23.8
380.362	-5.07
380.572	0.82
380.783	10.64
380.993	7.45
381.203	13.67
381.413	10.43
381.623	9.92
381.833	13.86
382.043	11.83
382.253	6.82
382.463	15.73
382.674	6.76
382.884	-4.38
383.094	6.55
383.304	12.46
383.514	6.76
383.724	17.26
383.934	18.64
384.144	0.91
384.353	-9.89
384.563	-4.29
384.773	-3.24
384.983	-10.03
385.193	2.32
385.403	4.79
385.613	4.43
385.823	-8.3
386.033	1.04
386.242	1.01
386.452	1.45
386.662	-1.58
386.872	9.44
387.082	5.39
387.291	-0.27
387.501	0.03
387.711	-3.05
387.921	-5.19
388.13	-2.94
388.34	7.58
388.55	6.55
388.759	9.14
388.969	13.28
389.179	6.8
389.388	2.8
389.598	6.28
389.807	2.91
390.017	-0.3
390.227	6.22
390.436	3.78
390.646	-0.07
390.855	-0.51
391.065	-2.68
391.274	-4.26
391.484	-4.1
391.693	-1.4
391.903	2.6
392.112	9.31
392.322	9.14
392.531	11.4
392.74	10.92
392.95	6.83
393.159	2.72
393.369	1.83
393.578	2.47
393.787	1.85
393.997	3.39
394.206	2.37
394.415	5.15
394.625	4.4
394.834	3.99
395.043	4.62
395.252	7.18
395.462	7.23
395.671	6.59
395.88	7.02
396.089	8.04
396.298	6.4
396.508	5
396.717	4.37
396.926	4.3
397.135	2.68
397.344	2.53
397.553	2.92
397.762	3.84
397.971	4.22
398.181	4.63
398.39	4.51
398.599	4.35
398.808	4.54
399.017	4.9
399.226	5.85
399.435	6.73
399.644	7.16
399.853	6.3
400.062	5.87
400.27	5.42
400.479	5.24
400.688	4.52
400.897	5.08
401.106	5.08
401.315	5.21
401.524	5.19
401.733	5.65
401.941	5.66
402.15	5.65
402.359	5.31
402.568	5.3
402.777	5.34
402.985	5.07
403.194	5.08
403.403	5.4
403.612	5.01
403.82	4.81
404.029	5.13
404.238	5.11
404.446	5
404.655	4.92
404.864	5
405.072	4.69
405.281	4.69
405.489	4.57
405.698	4.67
405.906	4.64
406.115	4.7
406.324	4.71
406.532	4.73
406.741	4.94
406.949	4.91
407.158	4.95
407.366	5.04
407.574	5.03
407.783	4.88
407.991	4.83
408.2	4.63
408.408	4.45
408.617	4.32
408.825	4.26
409.033	4.27
409.242	4.6
409.45	4.67
409.658	4.7
409.867	4.81
410.075	4.78
410.283	4.5
410.491	4.48
410.7	4.45
410.908	4.48
411.116	4.69
411.324	4.74
411.533	4.63
411.741	4.74
411.949	4.58
412.157	4.26
412.365	4.38
412.573	4.47
412.781	4.37
412.99	4.5
413.198	4.72
413.406	4.54
413.614	4.4
413.822	4.36
414.03	4.29
414.238	4.09
414.446	4.23
414.654	4.24
414.862	4.35
415.07	4.36
415.278	4.52
415.486	4.44
415.694	4.56
415.902	4.45
416.109	4.3
416.317	4.22
416.525	4.05
416.733	3.9
416.941	4.04
417.149	4.21
417.357	4.15
417.564	4.32
417.772	4.42
417.98	4.21
418.188	4.04
418.395	3.95
418.603	4.06
418.811	3.92
419.019	3.97
419.226	4.13
419.434	4.27
419.642	4.09
419.849	4.19
420.057	4.12
420.265	4.04
420.472	3.91
420.68	3.96
420.887	3.87
421.095	3.96
421.302	3.94
421.51	4.08
421.717	4.09
421.925	4.12
422.132	4
422.34	3.77
422.547	3.83
422.755	3.7
422.962	3.64
423.17	3.62
423.377	3.79
423.585	3.49
423.792	3.52
423.999	3.58
424.207	3.61
424.414	3.53
424.621	3.59
424.829	3.59
425.036	3.56
425.243	3.76
425.451	3.7
425.658	3.7
425.865	3.71
426.072	3.73
426.28	3.7
426.487	3.76
426.694	3.72
426.901	3.59
427.108	3.64
427.315	3.47
427.523	3.69
427.73	3.73
427.937	3.75
428.144	3.59
428.351	3.62
428.558	3.5
428.765	3.46
428.972	3.46
429.179	3.56
429.386	3.6
429.593	3.54
429.8	3.55
430.007	3.78
430.214	3.81
430.421	3.8
430.628	3.7
430.835	3.69
431.042	3.72
431.249	3.87
431.456	3.85
431.662	4.05
431.869	4.11
432.076	4.03
432.283	3.99
432.49	3.98
432.697	3.97
432.903	3.98
433.11	3.99
433.317	3.97
433.524	4.13
433.73	4.12
433.937	4.21
434.144	4.09
434.35	4.13
434.557	3.97
434.764	4.03
434.97	3.94
435.177	4.13
435.384	4.14
435.59	4.3
435.797	4.45
436.003	4.54
436.21	4.49
436.416	4.47
436.623	4.43
436.829	4.44
437.036	4.47
437.242	4.5
437.449	4.43
437.655	4.4
437.862	4.33
438.068	4.26
438.275	4.28
438.481	4.48
438.687	4.51
438.894	4.46
439.1	4.5
439.307	4.6
439.513	4.51
439.719	4.5
439.926	4.65
440.132	4.7
440.338	4.58
440.544	4.74
440.751	4.75
440.957	4.76
441.163	4.73
441.369	4.82
441.575	4.6
441.782	4.62
441.988	4.49
442.194	4.49
442.4	4.48
442.606	4.71
442.812	4.81
443.018	4.86
443.224	4.89
443.431	4.92
443.637	4.71
443.843	4.63
444.049	4.71
444.255	4.71
444.461	4.81
444.667	4.87
444.873	5.01
445.079	4.93
445.284	5.04
445.49	4.79
445.696	4.68
445.902	4.53
446.108	4.56
446.314	4.43
446.52	4.47
446.726	4.77
446.931	4.86
447.137	4.88
447.343	4.87
447.549	4.92
447.755	4.8
447.96	4.93
448.166	4.86
448.372	4.93
448.578	5
448.783	4.9
448.989	4.86
449.195	4.95
449.4	5.06
449.606	5.06
449.812	5.11
450.017	5.08
450.223	4.95
450.428	4.8
450.634	4.8
450.84	4.86
451.045	4.83
451.251	4.95
451.456	5.15
451.662	5.17
451.867	5.17
452.073	5.23
452.278	5.19
452.483	5.14
452.689	5.11
452.894	5.11
453.1	4.99
453.305	5.03
453.51	5.02
453.716	5.04
453.921	5.09
454.127	5.18
454.332	5.13
454.537	5.11
454.742	5.05
454.948	4.99
455.153	5.03
455.358	5.1
455.563	5.12
455.769	5.25
455.974	5.21
456.179	5.13
456.384	5.11
456.589	5.12
456.795	5
457	5.16
457.205	5.29
457.41	5.33
457.615	5.3
457.82	5.41
458.025	5.31
458.23	5.17
458.435	5.13
458.64	5.05
458.845	5.14
459.05	5.13
459.255	5.18
459.46	5.14
459.665	5.23
459.87	5.19
460.075	5.22
460.28	5.23
460.485	5.35
460.69	5.38
460.895	5.3
461.099	5.25
461.304	5.3
461.509	5.28
461.714	5.24
461.919	5.32
462.123	5.27
462.328	5.28
462.533	5.22
462.738	5.29
462.942	5.23
463.147	5.26
463.352	5.28
463.556	5.31
463.761	5.26
463.966	5.32
464.17	5.45
464.375	5.35
464.58	5.35
464.784	5.39
464.989	5.31
465.193	5.27
465.398	5.38
465.602	5.44
465.807	5.48
466.011	5.56
466.216	5.63
466.42	5.7
466.625	5.8
466.829	5.87
467.034	5.97
