Data from Ofra_PS_T2_2A_1GT43_Reflection_3.txt Node
Date: Wed Jul 21 16:56:13 EDT 2021
User: Adam
Spectrometer: FLMT01687
Trigger mode: 0
Integration Time (sec): 1.100000E0
Scans to average: 2
Electric dark correction enabled: true
Nonlinearity correction enabled: false
Boxcar width: 2
XAxis mode: Wavelengths
Number of Pixels in Spectrum: 3648
>>>>>Begin Spectral Data<<<<<
179.494	314.4
179.716	363.53
179.937	356.25
180.158	372.75
180.38	545.62
180.601	308.29
180.823	145.01
181.044	39.81
181.265	196.32
181.486	61.93
181.708	39.49
181.929	-110.2
182.15	-257.75
182.372	181.42
182.593	42.86
182.814	18.07
183.035	58.43
183.257	69.23
183.478	-35.11
183.699	-1.04
183.92	0
184.141	-13.2
184.363	-43.9
184.584	0.38
184.805	20.02
185.026	40.04
185.247	39.31
185.468	29.28
185.689	31.32
185.91	-1.99
186.132	-19.85
186.353	-22.52
186.574	28.6
186.795	28.45
187.016	38.03
187.237	37.29
187.458	33.38
187.679	4.62
187.9	18.55
188.121	12.51
188.342	56.35
188.563	91.22
188.784	99.39
189.005	103.47
189.226	179.49
189.447	138.98
189.667	107.77
189.888	16.26
190.109	-315.58
190.33	-319.35
190.551	-600
190.772	-100.24
190.993	-84.49
191.214	-43.89
191.434	-48.93
191.655	-29.08
191.876	-76.2
192.097	-87.06
192.318	-183.81
192.538	-259.53
192.759	-122.31
192.98	-43.85
193.201	-14.46
193.421	18.5
193.642	40.3
193.863	36.88
194.083	17.75
194.304	3.69
194.525	-9.15
194.745	-53.63
194.966	-52.91
195.187	-59.23
195.407	-92.87
195.628	-140.03
195.848	-121.05
196.069	-109.94
196.29	-53.89
196.51	-44.72
196.731	-42.99
196.951	-41.66
197.172	-35.57
197.392	-61.75
197.613	-42.7
197.833	-58.68
198.054	-54.95
198.274	-53.87
198.495	-64.2
198.715	-36.18
198.936	-45.77
199.156	-41.1
199.377	-119.09
199.597	-85.18
199.817	-101.5
200.038	-43.92
200.258	-75.5
200.479	27.75
200.699	-17.49
200.919	15.08
201.14	-2.42
201.36	-7.25
201.58	12.36
201.801	50.9
202.021	25.82
202.241	25.87
202.461	11.95
202.682	-68.88
202.902	-178.32
203.122	-87.55
203.342	-72.14
203.563	-48.85
203.783	-20.14
204.003	-26.01
204.223	-72.6
204.443	-6.02
204.663	-18.59
204.884	-6.93
205.104	21.99
205.324	82.11
205.544	51.32
205.764	81.66
205.984	90.99
206.204	79.66
206.424	51.6
206.644	39.34
206.864	31.69
207.084	0.89
207.304	43.07
207.525	-21.56
207.745	24.2
207.964	9.64
208.184	-45.22
208.404	-97.47
208.624	-87.72
208.844	-108.08
209.064	-402.3
209.284	-367.62
209.504	-166.6
209.724	-37.38
209.944	-16.08
210.164	39.68
210.384	43.79
210.604	17.9
210.823	-17.25
211.043	-30.41
211.263	-37.91
211.483	-33.88
211.703	-59.02
211.922	-29.97
212.142	21.41
212.362	41.01
212.582	38.51
212.801	41.62
213.021	25.87
213.241	11.21
213.461	-16.68
213.68	-35.65
213.9	-19.96
214.12	-15.44
214.339	-45.71
214.559	-18.3
214.779	12.68
214.998	23.11
215.218	-0.59
215.438	20.82
215.657	16.91
215.877	-8.67
216.096	19.62
216.316	36.74
216.535	28.36
216.755	24.79
216.974	-2.61
217.194	-64.04
217.413	-53.35
217.633	-53.73
217.852	-111.71
218.072	-19.36
218.291	16.6
218.511	29.21
218.73	7.22
218.95	3.18
219.169	5.74
219.389	-42.39
219.608	-22.31
219.827	-0.36
220.047	17.7
220.266	16.52
220.485	30.59
220.705	22.77
220.924	0.97
221.143	22.57
221.363	8.85
221.582	16.85
221.801	11.91
222.021	35.72
222.24	-24.3
222.459	0.52
222.678	-31.02
222.897	-46.52
223.117	-120.61
223.336	-63.61
223.555	-20.1
223.774	19.95
223.993	29.4
224.213	84.08
224.432	63.4
224.651	48.54
224.87	40.97
225.089	41.6
225.308	22.43
225.527	30.92
225.746	34.52
225.965	11.73
226.184	-7.85
226.404	8.63
226.623	-2.68
226.842	-4.9
227.061	8.95
227.28	20.75
227.499	13.53
227.718	15.49
227.936	13.46
228.155	31.21
228.374	7.21
228.593	8.63
228.812	13.74
229.031	-7.1
229.25	-40.21
229.469	-29.14
229.688	-14.43
229.907	15.08
230.125	29.52
230.344	50.24
230.563	68.65
230.782	75.32
231.001	13.33
231.22	24.03
231.438	30.02
231.657	21.07
231.876	2.74
232.095	40.9
232.313	42.75
232.532	29.72
232.751	19.21
232.969	20.26
233.188	18.53
233.407	37.67
233.625	32.83
233.844	-4.75
234.063	12.87
234.281	22.03
234.5	15.13
234.719	22.89
234.937	47.87
235.156	45.5
235.374	38.93
235.593	24.2
235.811	7.48
236.03	3.51
236.249	-41.01
236.467	-31.33
236.686	12.44
236.904	25.22
237.123	14.57
237.341	24.46
237.559	29.25
237.778	14.86
237.996	-7.45
238.215	20.43
238.433	28.59
238.652	11.28
238.87	-2.15
239.088	12.69
239.307	-1.12
239.525	-24.96
239.743	-24.75
239.962	-23.79
240.18	-56.25
240.398	-77.18
240.617	-84.09
240.835	-65.37
241.053	-52.05
241.271	10.25
241.49	14.14
241.708	7.46
241.926	-29.27
242.144	3.02
242.363	-53.92
242.581	-103.22
242.799	-61.68
243.017	-7.82
243.235	-29.21
243.453	-8.94
243.672	10.73
243.89	4.73
244.108	-16.45
244.326	2.58
244.544	1.62
244.762	2.73
244.98	17.96
245.198	8.51
245.416	-29.46
245.634	-40.44
245.852	-51.6
246.07	-77.16
246.288	-58.78
246.506	-63.5
246.724	-55.79
246.942	-42.3
247.16	-24.96
247.378	-20.46
247.596	1.88
247.814	-0.88
248.032	-19.25
248.25	-0.45
248.468	-9.11
248.685	-10.86
248.903	28.84
249.121	41.38
249.339	17.17
249.557	19.73
249.775	26.99
249.992	-41.28
250.21	-51.5
250.428	-31.14
250.646	-53.22
250.863	-72.14
251.081	-36.78
251.299	-42.07
251.517	-32.33
251.734	-18.09
251.952	-15.58
252.17	-8
252.387	3.11
252.605	0.27
252.823	15.87
253.04	29.36
253.258	34.79
253.475	43.37
253.693	54.69
253.911	48.34
254.128	42.31
254.346	47.27
254.563	23.13
254.781	-5.63
254.998	-34.01
255.216	-45.33
255.433	-41.98
255.651	-7.55
255.868	19.79
256.086	65.26
256.303	62.35
256.521	63.86
256.738	41.61
256.956	7.55
257.173	-22.73
257.39	-38.82
257.608	-70.34
257.825	-47.99
258.043	-9.36
258.26	-15.89
258.477	25.39
258.695	17.36
258.912	-17.06
259.129	-5.02
259.346	-18.07
259.564	-48.33
259.781	-58.56
259.998	-0.44
260.216	12.62
260.433	44.54
260.65	46.88
260.867	53.19
261.084	17.63
261.302	3.36
261.519	-12.97
261.736	-46.05
261.953	-43.65
262.17	-19.49
262.387	-48.84
262.604	-54.83
262.822	-35.33
263.039	-30.44
263.256	-47.53
263.473	-7.55
263.69	11.97
263.907	26.87
264.124	32.52
264.341	29.73
264.558	18.27
264.775	0.66
264.992	-12.2
265.209	-10.31
265.426	13.06
265.643	16.78
265.86	31.43
266.077	31.69
266.294	23.7
266.51	-5.21
266.727	-17.89
266.944	-14.3
267.161	-26.05
267.378	-22.01
267.595	17.45
267.812	-4.21
268.028	-33.77
268.245	-18.1
268.462	-39.66
268.679	-51.75
268.896	-6.39
269.112	8.7
269.329	12.84
269.546	26.02
269.763	21.82
269.979	35.8
270.196	20.97
270.413	0
270.629	-5.28
270.846	-5.74
271.063	-30.96
271.279	-24.34
271.496	-4.28
271.712	11.44
271.929	6.62
272.146	17.04
272.362	21.82
272.579	30.2
272.795	54.22
273.012	68.45
273.228	69.28
273.445	56.28
273.661	57.03
273.878	16.59
274.094	6.09
274.311	-22.69
274.527	7.52
274.744	10.65
274.96	-5.57
275.177	-1.82
275.393	19
275.609	16.02
275.826	13.98
276.042	23.64
276.259	18.64
276.475	31.65
276.691	22.3
276.908	11.72
277.124	23.91
277.34	13.5
277.557	-2.86
277.773	-7.43
277.989	-6.07
278.205	-1.32
278.422	16.58
278.638	14.98
278.854	51.06
279.07	68.08
279.286	75.1
279.503	65.34
279.719	61.18
279.935	14.42
280.151	-1.22
280.367	-25.33
280.583	-40.03
280.799	-39.91
281.016	-56.14
281.232	-13.14
281.448	-6.81
281.664	-0.52
281.88	-19.97
282.096	11.46
282.312	13.78
282.528	9.61
282.744	14.96
282.96	33.29
283.176	31.68
283.392	14.81
283.608	6.54
283.824	0.97
284.04	1.48
284.256	1.04
284.471	-1.49
284.687	-5.02
284.903	22.93
285.119	43.86
285.335	21.1
285.551	30.99
285.767	23.93
285.982	3.65
286.198	-39.69
286.414	5.26
286.63	3
286.846	26.72
287.061	7.79
287.277	26.8
287.493	5.05
287.709	23.78
287.924	7.52
288.14	43.4
288.356	50.47
288.571	57.85
288.787	32.42
289.003	26.76
289.218	9.32
289.434	-19.7
289.65	-22.8
289.865	-23.03
290.081	-14.89
290.296	-15.25
290.512	0.81
290.727	-28.28
290.943	-27.48
291.159	-21.31
291.374	-11.71
291.59	-29.32
291.805	-16.3
292.021	5.21
292.236	8.25
292.451	10.27
292.667	26.36
292.882	28.2
293.098	15.21
293.313	3.48
293.529	-13.3
293.744	-39.7
293.959	-25.49
294.175	-25.45
294.39	0.13
294.605	8.43
294.821	17.8
295.036	23.63
295.251	21.42
295.467	12.58
295.682	-5.01
295.897	-30.13
296.112	-41.66
296.328	-30.37
296.543	-49.09
296.758	-19.45
296.973	19.74
297.188	37.99
297.404	28.02
297.619	25.9
297.834	10.84
298.049	-2.09
298.264	-24.75
298.479	11.89
298.694	20.62
298.909	23.58
299.125	24.07
299.34	29.81
299.555	4.03
299.77	-3.48
299.985	-16.41
300.2	-57.55
300.415	-77.7
300.63	-43.69
300.845	-40.51
301.06	-35.04
301.275	4.85
301.49	32.79
301.704	14.27
301.919	5.84
302.134	-3.53
302.349	-14.9
302.564	-75.71
302.779	-111.12
302.994	-74.29
303.209	-36.95
303.423	-22.78
303.638	34.5
303.853	26.8
304.068	10.19
304.283	4.8
304.497	7.57
304.712	-8.14
304.927	5.68
305.142	3.99
305.356	12.7
305.571	-2.1
305.786	-19.11
306	-34.71
306.215	-41.05
306.43	-48.98
306.644	7.7
306.859	76.15
307.074	61.53
307.288	47.83
307.503	46.98
307.717	9.68
307.932	-15.08
308.147	-15.42
308.361	-2.53
308.576	-6.6
308.79	-45.87
309.005	-27.71
309.219	-8.89
309.434	-24.42
309.648	-24.1
309.863	-9.44
310.077	-21.67
310.292	-35.16
310.506	-26.09
310.72	-12.03
310.935	-5.3
311.149	-2.18
311.364	14.9
311.578	21.09
311.792	2.41
312.007	12.57
312.221	2.22
312.435	-5.4
312.649	-12.1
312.864	15.04
313.078	21.69
313.292	51.7
313.507	19.64
313.721	30.12
313.935	14.75
314.149	-6.33
314.363	3.29
314.578	7.06
314.792	12.78
315.006	3.02
315.22	18.53
315.434	10.52
315.648	26.17
315.862	16.67
316.077	15.17
316.291	-6.94
316.505	9.45
316.719	-6.18
316.933	-18.85
317.147	-22.03
317.361	-67.6
317.575	-78.83
317.789	-100.93
318.003	-142.93
318.217	-105.08
318.431	3.28
318.645	42.66
318.859	39.74
319.073	54.18
319.287	38.4
319.5	13.56
319.714	-33.35
319.928	-64.29
320.142	-76.78
320.356	-18.42
320.57	-8.84
320.784	-18.65
320.997	-20.43
321.211	-25.25
321.425	-75.47
321.639	-83.27
321.853	-18.59
322.066	-1.75
322.28	7.22
322.494	23.88
322.707	26.69
322.921	12.4
323.135	11.96
323.349	13.33
323.562	-5.35
323.776	-7.09
323.989	-20.8
324.203	-48.35
324.417	-58.05
324.63	-63.51
324.844	-50.43
325.057	-37.06
325.271	3.3
325.485	21.5
325.698	47.99
325.912	49.31
326.125	33.14
326.339	23.61
326.552	13.7
326.766	8.21
326.979	31.35
327.193	53.52
327.406	45.35
327.619	35.83
327.833	37.03
328.046	2.62
328.26	-26.16
328.473	2.39
328.686	-27.17
328.9	-20.83
329.113	2.2
329.326	0.25
329.54	-8.47
329.753	-1.95
329.966	-14.51
330.179	-18.22
330.393	0
330.606	1.38
330.819	33.88
331.032	34.76
331.246	37.98
331.459	51.51
331.672	41.28
331.885	23.17
332.098	14.75
332.311	-0.57
332.525	-47.63
332.738	-37.88
332.951	-10.47
333.164	7.2
333.377	12.07
333.59	32.98
333.803	35.44
334.016	18.49
334.229	13.52
334.442	37.69
334.655	64.58
334.868	54.45
335.081	52.69
335.294	41.95
335.507	17
335.72	-5.01
335.933	10.07
336.146	8.18
336.359	2.6
336.572	-3.05
336.785	-29.1
336.997	-29.07
337.21	0.93
337.423	6.28
337.636	8.09
337.849	31.4
338.062	31.91
338.274	29.96
338.487	25.72
338.7	29.6
338.913	2.91
339.125	-17.25
339.338	-65.28
339.551	-44.67
339.763	-13.25
339.976	4.27
340.189	21.77
340.402	16.71
340.614	8.12
340.827	-2.08
341.039	-25.25
341.252	-20.8
341.465	14.58
341.677	7.42
341.89	-18.67
342.102	19.46
342.315	-7.48
342.527	-47.21
342.74	-25.32
342.952	5.6
343.165	3.72
343.377	24.97
343.59	24.52
343.802	26.9
344.015	14.1
344.227	3.04
344.44	-1.73
344.652	5.42
344.864	12.87
345.077	32.25
345.289	37.94
345.502	36.16
345.714	31.21
345.926	25.26
346.139	15.1
346.351	6.92
346.563	5.88
346.775	9.23
346.988	-7.75
347.2	-10.12
347.412	-46.11
347.624	-47.27
347.837	-71.45
348.049	-21.87
348.261	-13.12
348.473	9.88
348.685	1.35
348.897	9.43
349.11	-31.87
349.322	-43.35
349.534	-17.67
349.746	-8.54
349.958	4.67
350.17	28.33
350.382	26.83
350.594	-1.73
350.806	-1.93
351.018	-11.97
351.23	-32.08
351.442	-67.04
351.654	-55.16
351.866	-28.31
352.078	-13.34
352.29	8.49
352.502	13.8
352.714	20.24
352.926	8.44
353.138	3.85
353.35	-0.49
353.561	0.66
353.773	-14.31
353.985	-2.13
354.197	-5.17
354.409	-21.55
354.621	-21.91
354.832	-15.03
355.044	-30.53
355.256	-26.49
355.468	-6.87
355.679	-10.62
355.891	4.63
356.103	1.89
356.314	8.78
356.526	17.04
356.738	25.47
356.949	17.17
357.161	29.32
357.373	6.93
357.584	-6.11
357.796	5.53
358.008	7.84
358.219	20.82
358.431	29.66
358.642	33.53
358.854	16.63
359.065	1.42
359.277	-32.56
359.488	-38.38
359.7	-48.5
359.911	-42.02
360.123	-25.67
360.334	-32.04
360.546	-35.85
360.757	-40.44
360.969	-30.02
361.18	-21.03
361.391	-1.16
361.603	-7.37
361.814	9.55
362.025	9.1
362.237	3.75
362.448	21.55
362.659	35.79
362.871	31.29
363.082	26.94
363.293	13.42
363.504	-1.59
363.716	-25.1
363.927	-46.66
364.138	-66.46
364.349	-69.9
364.56	-65.91
364.772	-56.28
364.983	-31.25
365.194	-28.25
365.405	-2.81
365.616	12.77
365.827	15
366.038	-5.64
366.25	-8.95
366.461	-50.24
366.672	-29.37
366.883	-6.89
367.094	9.98
367.305	1.33
367.516	11.69
367.727	-19.43
367.938	-38.04
368.149	-33.3
368.36	0.27
368.571	9.74
368.781	15.43
368.992	1.18
369.203	-15.05
369.414	-45.56
369.625	-50.93
369.836	-54.85
370.047	-72.76
370.258	-64.94
370.468	-56.43
370.679	-73.11
370.89	-60.28
371.101	-25.93
371.312	-21.93
371.522	-8.4
371.733	-0.55
371.944	0
372.155	-1.87
372.365	-5.18
372.576	-14.86
372.787	-10.8
372.997	-28.92
373.208	-25.95
373.419	0.42
373.629	-10.31
373.84	-24.53
374.05	-13.74
374.261	-16.23
374.472	-19.6
374.682	6.72
374.893	19.86
375.103	32.42
375.314	35.29
375.524	23.37
375.735	16.86
375.945	22.86
376.156	3.22
376.366	3.09
376.577	0.23
376.787	-6.62
376.997	-5.41
377.208	-2.08
377.418	-11.45
377.629	0.95
377.839	1.75
378.049	0
378.26	15.74
378.47	22.28
378.68	14.88
378.89	17.18
379.101	11.37
379.311	-14.53
379.521	-32.97
379.732	-22.25
379.942	-21.53
380.152	-20.55
380.362	5.99
380.572	3.67
380.783	10.82
380.993	23.24
381.203	23.95
381.413	33.68
381.623	45.02
381.833	32.13
382.043	20.36
382.253	12.93
382.463	4.62
382.674	-9.64
382.884	-20.14
383.094	-24.98
383.304	-17.27
383.514	-5.35
383.724	5.91
383.934	4.26
384.144	0.35
384.353	-4.28
384.563	-18.01
384.773	-12.57
384.983	-20.47
385.193	-0.41
385.403	-0.54
385.613	2.81
385.823	-8.56
386.033	3.7
386.242	-2.96
386.452	-1.49
386.662	-6.91
386.872	5.33
387.082	1
387.291	-6.54
387.501	-7.57
387.711	-0.58
387.921	-8.39
388.13	-4.91
388.34	4.1
388.55	0.97
388.759	0.15
388.969	8.05
389.179	1.73
389.388	-2.07
389.598	4.88
389.807	-2.22
390.017	-7.08
390.227	0.42
390.436	1.53
390.646	0.67
390.855	6.53
391.065	6.37
391.274	3.12
391.484	0.17
391.693	1.25
391.903	1.51
392.112	7.2
392.322	9.76
392.531	16
392.74	16.13
392.95	11.63
393.159	7.29
393.369	6.86
393.578	5.3
393.787	3.91
393.997	4.96
394.206	5.51
394.415	4.62
394.625	4.26
394.834	3.34
395.043	5.69
395.252	7.47
395.462	9.31
395.671	8.65
395.88	9.87
396.089	9.77
396.298	7.13
396.508	5.86
396.717	4.87
396.926	5.26
397.135	4.38
397.344	5.42
397.553	6.62
397.762	8.19
397.971	7.72
398.181	7.77
398.39	6.92
398.599	6.12
398.808	6.3
399.017	7.11
399.226	8.6
399.435	9.88
399.644	10.49
399.853	9.63
400.062	9.2
400.27	8.08
400.479	7.61
400.688	6.19
400.897	6.39
401.106	6.38
401.315	6.48
401.524	6.52
401.733	7.41
401.941	7.82
402.15	7.64
402.359	7.8
402.568	7.83
402.777	7.82
402.985	7.38
403.194	7.36
403.403	7.03
403.612	6.67
403.82	6.45
404.029	6.78
404.238	6.85
404.446	7.36
404.655	7.29
404.864	7.28
405.072	6.99
405.281	6.82
405.489	6.37
405.698	6.49
405.906	6.45
406.115	6.47
406.324	6.66
406.532	6.84
406.741	6.95
406.949	7.07
407.158	7.08
407.366	7.11
407.574	7.18
407.783	7.26
407.991	7.01
408.2	6.98
408.408	6.87
408.617	6.72
408.825	6.54
409.033	6.69
409.242	6.77
409.45	6.77
409.658	6.64
409.867	6.66
410.075	6.39
410.283	6.34
410.491	6.18
410.7	6.2
410.908	6.25
411.116	6.58
411.324	6.52
411.533	6.52
411.741	6.56
411.949	6.52
412.157	6.35
412.365	6.18
412.573	6.25
412.781	6.34
412.99	6.28
413.198	6.49
413.406	6.65
413.614	6.64
413.822	6.36
414.03	6.27
414.238	5.98
414.446	6.07
414.654	5.85
414.862	6.04
415.07	6.1
415.278	6.33
415.486	6.01
415.694	6.24
415.902	6.01
416.109	5.97
416.317	5.84
416.525	5.83
416.733	5.7
416.941	5.93
417.149	5.88
417.357	5.97
417.564	6.04
417.772	6.25
417.98	6.04
418.188	6.04
418.395	5.94
418.603	6.13
418.811	5.76
419.019	5.81
419.226	5.99
419.434	5.99
419.642	5.74
419.849	5.95
420.057	5.92
420.265	5.79
420.472	5.64
420.68	5.65
420.887	5.52
421.095	5.52
421.302	5.47
421.51	5.56
421.717	5.58
421.925	5.69
422.132	5.67
422.34	5.46
422.547	5.49
422.755	5.45
422.962	5.46
423.17	5.3
423.377	5.38
423.585	5.34
423.792	5.24
423.999	5.16
424.207	5.31
424.414	5.46
424.621	5.38
424.829	5.44
425.036	5.46
425.243	5.57
425.451	5.39
425.658	5.26
425.865	5.45
426.072	5.5
426.28	5.65
426.487	5.56
426.694	5.64
426.901	5.49
427.108	5.38
427.315	5.05
427.523	5.27
427.73	5.38
427.937	5.28
428.144	5.14
428.351	5.21
428.558	5.41
428.765	5.17
428.972	5.11
429.179	5.35
429.386	5.53
429.593	5.21
429.8	5.4
430.007	5.62
430.214	5.72
430.421	5.63
430.628	5.56
430.835	5.38
431.042	5.53
431.249	5.48
431.456	5.42
431.662	5.5
431.869	5.73
432.076	5.57
432.283	5.63
432.49	5.75
432.697	5.75
432.903	5.62
433.11	5.65
433.317	5.69
433.524	5.82
433.73	5.83
433.937	6.11
434.144	6.08
434.35	6.01
434.557	5.77
434.764	5.84
434.97	5.8
435.177	5.89
435.384	5.87
435.59	6.04
435.797	6.14
436.003	6.05
436.21	6
436.416	6.08
436.623	6.07
436.829	6.21
437.036	6.32
437.242	6.4
437.449	6.39
437.655	6.43
437.862	6.39
438.068	6.39
438.275	6.52
438.481	6.73
438.687	6.79
438.894	6.76
439.1	6.87
439.307	6.99
439.513	6.92
439.719	6.89
439.926	7.01
440.132	6.91
440.338	6.76
440.544	6.85
440.751	6.78
440.957	6.79
441.163	6.79
441.369	6.87
441.575	6.65
441.782	6.7
441.988	6.61
442.194	6.6
442.4	6.56
442.606	6.77
442.812	6.9
443.018	6.99
443.224	7.07
443.431	7.09
443.637	6.99
443.843	6.91
444.049	6.86
444.255	6.83
444.461	6.92
444.667	6.93
444.873	6.93
445.079	6.98
445.284	7.03
445.49	6.8
445.696	6.64
445.902	6.6
446.108	6.61
446.314	6.6
446.52	6.74
446.726	6.99
446.931	7.07
447.137	7.06
447.343	7.08
447.549	6.96
447.755	6.85
447.96	6.88
448.166	6.78
448.372	6.75
448.578	6.9
448.783	6.93
448.989	6.99
449.195	7.18
449.4	7.18
449.606	7.13
449.812	7.09
450.017	7.13
450.223	7.05
450.428	6.97
450.634	7.07
450.84	7.22
451.045	7.04
451.251	6.99
451.456	7.29
451.662	7.24
451.867	7.23
452.073	7.34
452.278	7.47
452.483	7.47
452.689	7.48
452.894	7.49
453.1	7.46
453.305	7.35
453.51	7.26
453.716	7.23
453.921	7.28
454.127	7.21
454.332	7.18
454.537	7.08
454.742	7.13
454.948	7.06
455.153	7.16
455.358	7.27
455.563	7.48
455.769	7.56
455.974	7.49
456.179	7.39
456.384	7.32
456.589	7.2
456.795	7.08
457	7.13
457.205	7.3
457.41	7.36
457.615	7.33
457.82	7.37
458.025	7.37
458.23	7.28
458.435	7.32
458.64	7.25
458.845	7.36
459.05	7.42
459.255	7.44
459.46	7.36
459.665	7.48
459.87	7.49
460.075	7.42
460.28	7.5
460.485	7.63
460.69	7.66
460.895	7.48
461.099	7.47
461.304	7.5
461.509	7.47
461.714	7.36
461.919	7.52
462.123	7.5
462.328	7.49
462.533	7.56
462.738	7.63
462.942	7.6
463.147	7.71
463.352	7.76
463.556	7.68
463.761	7.72
463.966	7.7
464.17	7.68
464.375	7.58
464.58	7.66
464.784	7.67
464.989	7.62
