Data from Ofra_PS_T2_2A_2GT10_Reflection_1.txt Node
Date: Wed Jul 21 17:00:41 EDT 2021
User: Adam
Spectrometer: FLMT01687
Trigger mode: 0
Integration Time (sec): 1.100000E0
Scans to average: 2
Electric dark correction enabled: true
Nonlinearity correction enabled: false
Boxcar width: 2
XAxis mode: Wavelengths
Number of Pixels in Spectrum: 3648
>>>>>Begin Spectral Data<<<<<
179.494	494.8
179.716	528.47
179.937	454.13
180.158	374.12
180.38	391.56
180.601	-26.8
180.823	-25.45
181.044	-27.25
181.265	251.1
181.486	158.31
181.708	124.6
181.929	1003.06
182.15	-100.7
182.372	114.7
182.593	70.21
182.814	53.27
183.035	131.57
183.257	101.52
183.478	63.94
183.699	108.56
183.92	47.53
184.141	8.99
184.363	-35.14
184.584	29.99
184.805	31.47
185.026	81.49
185.247	87.82
185.468	80.3
185.689	73.64
185.91	70.07
186.132	40.85
186.353	37.86
186.574	61.01
186.795	80.73
187.016	76.44
187.237	73.22
187.458	82.7
187.679	52.96
187.9	31.08
188.121	32.3
188.342	65.34
188.563	107.35
188.784	163.76
189.005	159.74
189.226	186.78
189.447	147.2
189.667	59.95
189.888	-58.87
190.109	-373.38
190.33	-249.35
190.551	-360.62
190.772	-75.42
190.993	-46.42
191.214	-0.55
191.434	-0.38
191.655	48.65
191.876	72.02
192.097	16.87
192.318	-57.07
192.538	-75.51
192.759	-110.67
192.98	-3.96
193.201	45.98
193.421	71.66
193.642	76.18
193.863	94.98
194.083	66.55
194.304	37.53
194.525	21.19
194.745	2.65
194.966	-2.66
195.187	1.69
195.407	36.34
195.628	24.89
195.848	-21.61
196.069	12.43
196.29	32.64
196.51	-16.96
196.731	13.88
196.951	39.89
197.172	-2.51
197.392	-35.38
197.613	-29.41
197.833	-82.09
198.054	-67.67
198.274	-34.92
198.495	-44.14
198.715	-1.79
198.936	2.53
199.156	7.78
199.377	-68.2
199.597	-72.23
199.817	-101.44
200.038	-47.29
200.258	-90.53
200.479	1.27
200.699	65.81
200.919	95.55
201.14	59.3
201.36	37.69
201.58	46.88
201.801	53.94
202.021	15.98
202.241	19.08
202.461	21.82
202.682	-50
202.902	-119.22
203.122	-55.81
203.342	-41.73
203.563	-4.7
203.783	26.95
204.003	12.15
204.223	10.93
204.443	37.57
204.663	43.42
204.884	33.32
205.104	68
205.324	119.11
205.544	105.86
205.764	91.68
205.984	84.9
206.204	84.96
206.424	60.89
206.644	63.47
206.864	49.96
207.084	38.35
207.304	23.62
207.525	1.09
207.745	21.48
207.964	67.92
208.184	36.85
208.404	12.6
208.624	12.14
208.844	19.5
209.064	-190.67
209.284	-185.62
209.504	-47.75
209.724	18.26
209.944	14.2
210.164	59.11
210.384	63.41
210.604	51.37
210.823	15.98
211.043	9.42
211.263	-6.68
211.483	2.51
211.703	-26.13
211.922	-9.3
212.142	36.35
212.362	73.02
212.582	40.08
212.801	37.09
213.021	22.92
213.241	12.59
213.461	-11.91
213.68	-9.36
213.9	26.03
214.12	29.37
214.339	-26.57
214.559	-23.8
214.779	5.37
214.998	-13.2
215.218	-25.5
215.438	8.82
215.657	14.74
215.877	5.36
216.096	17.45
216.316	14.73
216.535	-0.2
216.755	5.72
216.974	-43.03
217.194	-68.3
217.413	-81.12
217.633	-54.48
217.852	-128.31
218.072	-24.08
218.291	-1.78
218.511	31.11
218.73	4.28
218.95	-8.56
219.169	-31.41
219.389	-62.94
219.608	-45.88
219.827	-32.05
220.047	-6.96
220.266	12.27
220.485	29.64
220.705	39.23
220.924	10.48
221.143	31.65
221.363	15.06
221.582	21.81
221.801	16.96
222.021	34.51
222.24	-17.95
222.459	11.96
222.678	-15.44
222.897	-89.64
223.117	-107.24
223.336	-76.34
223.555	-44.08
223.774	1.48
223.993	64.04
224.213	102.45
224.432	76.49
224.651	96.66
224.87	60.42
225.089	55.21
225.308	38.76
225.527	62.31
225.746	60.03
225.965	50.54
226.184	32.67
226.404	30.16
226.623	0.8
226.842	-5.89
227.061	9.42
227.28	20.9
227.499	22.57
227.718	34.85
227.936	36.77
228.155	64.06
228.374	71.7
228.593	70.12
228.812	71.98
229.031	63.96
229.25	11.78
229.469	-2.38
229.688	-10.77
229.907	24.49
230.125	22.41
230.344	34.89
230.563	37.65
230.782	59.04
231.001	-7.8
231.22	-1.59
231.438	23.39
231.657	32.76
231.876	2.09
232.095	50.39
232.313	63.78
232.532	62.57
232.751	33.21
232.969	28.65
233.188	-2.92
233.407	29.71
233.625	21.32
233.844	3.74
234.063	21.49
234.281	26.35
234.5	7.7
234.719	11.95
234.937	39.08
235.156	39.03
235.374	43.54
235.593	38.38
235.811	44.41
236.03	56.98
236.249	19.75
236.467	26.74
236.686	30.63
236.904	29.87
237.123	4.45
237.341	18.77
237.559	11.11
237.778	2
237.996	11.22
238.215	35.93
238.433	34.14
238.652	45.58
238.87	25.59
239.088	24.14
239.307	21.65
239.525	15.06
239.743	-20.59
239.962	-10.82
240.18	-32.59
240.398	-66.39
240.617	-61.87
240.835	-35.55
241.053	-6.24
241.271	39.25
241.49	41.59
241.708	17.46
241.926	16.62
242.144	-0.55
242.363	-53.3
242.581	-85.56
242.799	-26.19
243.017	5.45
243.235	-8.85
243.453	-4.72
243.672	9
243.89	3.23
244.108	-16.26
244.326	2.93
244.544	10.49
244.762	9.85
244.98	7.52
245.198	29.1
245.416	16.68
245.634	23.8
245.852	17.08
246.07	29.84
246.288	7.09
246.506	-9.33
246.724	3.56
246.942	20.61
247.16	43.34
247.378	56.3
247.596	70.29
247.814	61.54
248.032	23.54
248.25	16.27
248.468	10.34
248.685	7.97
248.903	32.78
249.121	40.27
249.339	7.83
249.557	3.62
249.775	8.11
249.992	-53.13
250.21	-39.52
250.428	-12.73
250.646	-37.98
250.863	-48.2
251.081	-26.47
251.299	-22.69
251.517	-5.86
251.734	14.69
251.952	16.68
252.17	19.71
252.387	28.57
252.605	6.46
252.823	-0.56
253.04	12.46
253.258	36.31
253.475	19.38
253.693	50.07
253.911	65.61
254.128	58.71
254.346	48.23
254.563	44.09
254.781	38.6
254.998	16.68
255.216	30.44
255.433	25.42
255.651	56.52
255.868	54.54
256.086	77.98
256.303	64.69
256.521	54.43
256.738	27.48
256.956	15.32
257.173	10.29
257.39	-13.55
257.608	-28.41
257.825	23.01
258.043	43.24
258.26	41.09
258.477	82.04
258.695	79.23
258.912	44.31
259.129	43.07
259.346	14.13
259.564	-25.35
259.781	6.11
259.998	27.87
260.216	39.98
260.433	70.74
260.65	70.82
260.867	51.11
261.084	24.47
261.302	11.9
261.519	-14.52
261.736	-35.98
261.953	-52.21
262.17	-5.16
262.387	-23.71
262.604	-47.8
262.822	-24.91
263.039	18.36
263.256	-29.85
263.473	4.52
263.69	25.83
263.907	30.91
264.124	21.18
264.341	29.58
264.558	9.01
264.775	20.17
264.992	30.14
265.209	34.34
265.426	42.78
265.643	54.53
265.86	57.13
266.077	57.24
266.294	50.8
266.51	30.54
266.727	26.15
266.944	34.59
267.161	12.23
267.378	18.11
267.595	44.75
267.812	13.1
268.028	-6.42
268.245	4.96
268.462	-17.64
268.679	-18.57
268.896	33.38
269.112	23.39
269.329	17.81
269.546	27.59
269.763	16.55
269.979	4.18
270.196	14.18
270.413	14.81
270.629	-4.61
270.846	-16.17
271.063	-32.57
271.279	-42.34
271.496	-48.5
271.712	0.24
271.929	17.21
272.146	24.53
272.362	27.32
272.579	62.69
272.795	37.09
273.012	48.12
273.228	48.94
273.445	43.13
273.661	7.61
273.878	-5.76
274.094	-15.43
274.311	-32.48
274.527	16.03
274.744	16.58
274.96	32.06
275.177	33.87
275.393	51.51
275.609	42.89
275.826	63.23
276.042	56.57
276.259	63.21
276.475	62.04
276.691	68.53
276.908	47.71
277.124	55
277.34	43.47
277.557	27.86
277.773	17.41
277.989	11.33
278.205	5.79
278.422	33.47
278.638	35.36
278.854	49.2
279.07	64.21
279.286	79.77
279.503	38.46
279.719	44.16
279.935	30.66
280.151	29.65
280.367	17.83
280.583	8.38
280.799	-1.83
281.016	-32.96
281.232	-15.8
281.448	-15.42
281.664	17.05
281.88	-8.48
282.096	26.84
282.312	30.08
282.528	32.83
282.744	29.45
282.96	38.52
283.176	10.08
283.392	18.93
283.608	3.51
283.824	-11.19
284.04	-1.31
284.256	10.09
284.471	0.86
284.687	4.69
284.903	25.05
285.119	54.82
285.335	41
285.551	48.01
285.767	26.65
285.982	37.1
286.198	-17.98
286.414	32.18
286.63	39.82
286.846	59.41
287.061	31.46
287.277	64.67
287.493	27.6
287.709	34.92
287.924	21.91
288.14	51.45
288.356	32.32
288.571	45.99
288.787	27.75
289.003	34.75
289.218	23.7
289.434	-1.06
289.65	20.3
289.865	30.6
290.081	44.24
290.296	60.81
290.512	65.39
290.727	31.63
290.943	15.41
291.159	9.59
291.374	-0.91
291.59	-20.68
291.805	1.17
292.021	12.49
292.236	9.31
292.451	22.74
292.667	33.89
292.882	32.69
293.098	26.5
293.313	17.22
293.529	-5.79
293.744	-3.95
293.959	-4.69
294.175	-1.25
294.39	21.51
294.605	33.48
294.821	41.2
295.036	48.77
295.251	51.37
295.467	39.84
295.682	36.42
295.897	27.92
296.112	15.91
296.328	15.43
296.543	-5.92
296.758	-4.41
296.973	20.94
297.188	47.19
297.404	22.71
297.619	8.47
297.834	-6.29
298.049	-25.66
298.264	-70.63
298.479	-2.08
298.694	8.74
298.909	21.25
299.125	17.61
299.34	20.79
299.555	-14.69
299.77	-5.97
299.985	-36.71
300.2	-70.96
300.415	-80.61
300.63	-51.8
300.845	-47.05
301.06	-41.24
301.275	-7.69
301.49	5.58
301.704	-6.95
301.919	-38.42
302.134	-39.68
302.349	-46.45
302.564	-87.97
302.779	-88.33
302.994	-38.01
303.209	-35.04
303.423	9.03
303.638	58.11
303.853	29.15
304.068	31.53
304.283	39.22
304.497	21
304.712	-8.28
304.927	-4.49
305.142	-3
305.356	-4.31
305.571	-0.62
305.786	0.86
306	8.37
306.215	8.03
306.43	5.9
306.644	41.81
306.859	63.31
307.074	47.73
307.288	14.14
307.503	8.21
307.717	-12.31
307.932	2.34
308.147	-2.95
308.361	27.48
308.576	10.26
308.79	-12.47
309.005	-26.01
309.219	-12.38
309.434	-40.19
309.648	-27.56
309.863	-10.36
310.077	-10.01
310.292	-16.38
310.506	9.19
310.72	33.33
310.935	33.75
311.149	30.02
311.364	45.52
311.578	51.78
311.792	29.5
312.007	37.07
312.221	21.44
312.435	18.04
312.649	-4.73
312.864	-18.93
313.078	-16.45
313.292	49.27
313.507	18.4
313.721	35.89
313.935	62.57
314.149	50.06
314.363	31.08
314.578	45.66
314.792	46.43
315.006	28.1
315.22	40.71
315.434	33.56
315.648	33.93
315.862	38.45
316.077	43.44
316.291	35.16
316.505	61.11
316.719	58.23
316.933	30.55
317.147	40.3
317.361	-9.91
317.575	-34.31
317.789	-51.82
318.003	-106.94
318.217	-110.66
318.431	-24.41
318.645	17.87
318.859	17.35
319.073	43.43
319.287	39.46
319.5	14.39
319.714	-24.94
319.928	-50.11
320.142	-76.98
320.356	-27.18
320.57	-0.48
320.784	2.85
320.997	14.02
321.211	6.44
321.425	-34.58
321.639	-37.26
321.853	9.23
322.066	17.7
322.28	26.44
322.494	18.31
322.707	17.35
322.921	-3.29
323.135	0.97
323.349	-2.61
323.562	-5.78
323.776	-8.19
323.989	-6.25
324.203	-18.39
324.417	-22.09
324.63	-22.53
324.844	-18.18
325.057	-6.04
325.271	7.79
325.485	27.11
325.698	53.29
325.912	60.31
326.125	33.01
326.339	39.23
326.552	29.62
326.766	12.35
326.979	14.94
327.193	40.93
327.406	25.48
327.619	23.91
327.833	38.5
328.046	12.38
328.26	-7.17
328.473	12.31
328.686	0.47
328.9	-5.07
329.113	32.45
329.326	25.37
329.54	18.36
329.753	-2.39
329.966	-13.88
330.179	-9.75
330.393	12.13
330.606	17.17
330.819	32.89
331.032	41.93
331.246	34.52
331.459	55.09
331.672	38.86
331.885	35.73
332.098	0.03
332.311	-7.77
332.525	-58.59
332.738	-32.46
332.951	-16.75
333.164	32.33
333.377	33.06
333.59	46.41
333.803	45.34
334.016	48.04
334.229	22.37
334.442	36.17
334.655	31.68
334.868	39.9
335.081	28.95
335.294	27.09
335.507	27
335.72	25.81
335.933	14.88
336.146	8.02
336.359	14.84
336.572	-26.81
336.785	-37.65
336.997	-34.18
337.21	-3.31
337.423	-8.16
337.636	10.23
337.849	31.1
338.062	27.41
338.274	18.08
338.487	14.49
338.7	12.92
338.913	-32.43
339.125	-49.78
339.338	-69
339.551	-36.43
339.763	-11.79
339.976	12.62
340.189	39.58
340.402	42.56
340.614	35.97
340.827	27.84
341.039	18.12
341.252	14.08
341.465	10.69
341.677	10.21
341.89	-14.23
342.102	13.75
342.315	0.97
342.527	-16.48
342.74	-0.37
342.952	28.89
343.165	28.59
343.377	43.3
343.59	47.92
343.802	44.21
344.015	46.93
344.227	46.93
344.44	38.51
344.652	32.42
344.864	18.56
345.077	23.78
345.289	27.71
345.502	29.32
345.714	24.13
345.926	37.19
346.139	36.78
346.351	39.46
346.563	45.66
346.775	55.56
346.988	39.05
347.2	21.84
347.412	-16.58
347.624	-27.39
347.837	-39.86
348.049	-10.18
348.261	10.9
348.473	22.2
348.685	22.59
348.897	17.14
349.11	-3.57
349.322	-14.49
349.534	14.04
349.746	11.2
349.958	4.04
350.17	16.72
350.382	33.96
350.594	15.64
350.806	17.97
351.018	33.04
351.23	25.05
351.442	-13.32
351.654	-18.52
351.866	-8.3
352.078	0.04
352.29	19.97
352.502	30.24
352.714	48.19
352.926	29.56
353.138	20.65
353.35	7.57
353.561	6.5
353.773	-17.2
353.985	2.85
354.197	-5.83
354.409	-10.89
354.621	-14.82
354.832	-1.46
355.044	-8.04
355.256	-2.46
355.468	17.57
355.679	25.7
355.891	34.19
356.103	26.97
356.314	39.98
356.526	30.3
356.738	20.8
356.949	12.81
357.161	18.87
357.373	16.14
357.584	16.78
357.796	16.47
358.008	14.64
358.219	29.77
358.431	18.9
358.642	20.28
358.854	17.78
359.065	9.84
359.277	-10.71
359.488	-15.22
359.7	-28.8
359.911	-38.22
360.123	-20.05
360.334	-39.54
360.546	-48.99
360.757	-44.73
360.969	-20.57
361.18	-35.02
361.391	-4.98
361.603	-12.37
361.814	4.99
362.025	-8.38
362.237	-1.34
362.448	15.94
362.659	26.19
362.871	18.82
363.082	26.1
363.293	24.05
363.504	10.75
363.716	4.32
363.927	1.63
364.138	-18.67
364.349	-28.11
364.56	-32.05
364.772	-27.49
364.983	-18.87
365.194	-11.7
365.405	9.11
365.616	27.81
365.827	41.17
366.038	30.72
366.25	31.59
366.461	-1.19
366.672	-1.51
366.883	-11.51
367.094	2.35
367.305	-4.46
367.516	0.6
367.727	-16.13
367.938	-11.82
368.149	-6.61
368.36	14.73
368.571	23.8
368.781	5.38
368.992	-8.27
369.203	-25.37
369.414	-52.37
369.625	-61.3
369.836	-43.25
370.047	-58.88
370.258	-41.72
370.468	-43.75
370.679	-47.78
370.89	-38.07
371.101	-18.95
371.312	-22.76
371.522	-6.98
371.733	1.39
371.944	3.77
372.155	-0.78
372.365	-3.08
372.576	-6.68
372.787	-12.4
372.997	-30.44
373.208	-19.26
373.419	11.01
373.629	-20.89
373.84	-24.67
374.05	-29.82
374.261	-13.32
374.472	-38.82
374.682	14.55
374.893	25.25
375.103	51.5
375.314	38.65
375.524	36.25
375.735	38.91
375.945	49.04
376.156	26.7
376.366	34.51
376.577	37.59
376.787	21.51
376.997	13.86
377.208	20.7
377.418	3.04
377.629	3.45
377.839	3.75
378.049	7.42
378.26	17.37
378.47	20.88
378.68	11.46
378.89	11.25
379.101	2.93
379.311	-18.63
379.521	-31.37
379.732	-10.86
379.942	-8.98
380.152	-19.33
380.362	9
380.572	14.25
380.783	23.74
380.993	20.82
381.203	30.16
381.413	25.69
381.623	26.31
381.833	20.61
382.043	18.08
382.253	16.19
382.463	10.64
382.674	0.22
382.884	-15.27
383.094	-12.52
383.304	-8.97
383.514	-1.37
383.724	15.19
383.934	10.02
384.144	5.45
384.353	0.83
384.563	-3.41
384.773	0.81
384.983	0.46
385.193	14.08
385.403	13.07
385.613	13.82
385.823	-0.69
386.033	8.71
386.242	0.22
386.452	2.07
386.662	-7.99
386.872	0.42
387.082	-7.07
387.291	-15.96
387.501	-20.04
387.711	-5.84
387.921	-6.47
388.13	1.52
388.34	15.49
388.55	8.28
388.759	5.13
388.969	8.71
389.179	1.69
389.388	-1.51
389.598	6.61
389.807	0.39
390.017	-6.8
390.227	-3.52
390.436	-6.46
390.646	-4.97
390.855	-1.22
391.065	-0.87
391.274	-1.47
391.484	-0.99
391.693	0.99
391.903	2.18
392.112	8.24
392.322	11.03
392.531	12.44
392.74	11.23
392.95	7.71
393.159	4.99
393.369	1.9
393.578	2.01
393.787	1.38
393.997	1.57
394.206	-1
394.415	-0.57
394.625	-0.7
394.834	-2.95
395.043	-1.39
395.252	1.63
395.462	4.09
395.671	4.94
395.88	6.04
396.089	7
396.298	4.82
396.508	3.86
396.717	2.79
396.926	2.93
397.135	1.92
397.344	2.41
397.553	2.79
397.762	4.42
397.971	4.81
398.181	5.45
398.39	5.11
398.599	4.64
398.808	4.2
399.017	4.26
399.226	5.01
399.435	5.89
399.644	5.81
399.853	5.35
400.062	5.3
400.27	4.75
400.479	4.63
400.688	4.11
400.897	4.12
401.106	3.78
401.315	3.34
401.524	3.23
401.733	3.58
401.941	4.01
402.15	4.22
402.359	4.35
402.568	4.62
402.777	5.04
402.985	4.58
403.194	4.61
403.403	4.86
403.612	4.59
403.82	4.19
404.029	4.39
404.238	4.15
404.446	4.05
404.655	3.85
404.864	3.96
405.072	3.71
405.281	3.94
405.489	3.74
405.698	3.78
405.906	3.63
406.115	3.65
406.324	3.47
406.532	3.64
406.741	3.73
406.949	3.8
407.158	3.74
407.366	3.78
407.574	3.57
407.783	3.56
407.991	3.38
408.2	3.5
408.408	3.35
408.617	3.28
408.825	3.11
409.033	3.22
409.242	3.25
409.45	3.45
409.658	3.52
409.867	3.68
410.075	3.58
410.283	3.46
410.491	3.31
410.7	3.28
410.908	3.24
411.116	3.48
411.324	3.4
411.533	3.3
411.741	3.39
411.949	3.3
412.157	3.12
412.365	3.33
412.573	3.5
412.781	3.51
412.99	3.42
413.198	3.53
413.406	3.45
413.614	3.41
413.822	3.21
414.03	3.32
414.238	3.11
414.446	3.14
414.654	3.07
414.862	3.15
415.07	3.15
415.278	3.36
415.486	3.1
415.694	3.15
415.902	3.11
416.109	3.06
416.317	3
416.525	2.97
416.733	2.85
416.941	3.07
417.149	3.06
417.357	3.02
417.564	3.23
417.772	3.47
417.98	3.41
418.188	3.38
418.395	3.35
418.603	3.36
418.811	3.11
419.019	2.92
419.226	3.09
419.434	3.22
419.642	3.02
419.849	3.16
420.057	3.2
420.265	3.11
420.472	2.81
420.68	2.91
420.887	2.7
421.095	2.82
421.302	2.76
421.51	2.93
421.717	2.93
421.925	3.16
422.132	3.1
422.34	2.88
422.547	2.97
422.755	2.92
422.962	2.7
423.17	2.49
423.377	2.65
423.585	2.66
423.792	2.63
423.999	2.75
424.207	2.83
424.414	2.98
424.621	2.94
424.829	2.93
425.036	2.95
425.243	3.04
425.451	2.81
425.658	2.64
425.865	2.72
426.072	2.67
426.28	2.84
426.487	2.84
426.694	2.88
426.901	2.75
427.108	2.69
427.315	2.51
427.523	2.78
427.73	2.74
427.937	2.84
428.144	2.8
428.351	2.75
428.558	2.71
428.765	2.65
428.972	2.53
429.179	2.61
429.386	2.89
429.593	2.6
429.8	2.58
430.007	2.74
430.214	2.82
430.421	2.51
430.628	2.52
430.835	2.43
431.042	2.55
431.249	2.65
431.456	2.86
431.662	2.96
431.869	3.18
432.076	3.11
432.283	2.99
432.49	2.84
432.697	2.82
432.903	2.64
433.11	2.65
433.317	2.65
433.524	2.89
433.73	2.9
433.937	3.14
434.144	3
434.35	2.96
434.557	2.75
434.764	2.77
434.97	2.63
435.177	2.76
435.384	2.81
435.59	2.95
435.797	3.17
436.003	3.28
436.21	3.28
436.416	3.24
436.623	3.17
436.829	3.11
437.036	3.12
437.242	3.16
437.449	3.12
437.655	3.12
437.862	3.11
438.068	3.1
438.275	3.21
438.481	3.5
438.687	3.61
438.894	3.53
439.1	3.49
439.307	3.53
439.513	3.42
439.719	3.3
439.926	3.38
440.132	3.4
440.338	3.23
440.544	3.3
440.751	3.37
440.957	3.44
441.163	3.34
441.369	3.4
441.575	3.28
441.782	3.22
441.988	3.11
442.194	3.13
442.4	3.17
442.606	3.45
442.812	3.52
443.018	3.66
443.224	3.83
443.431	3.89
443.637	3.67
443.843	3.56
444.049	3.52
444.255	3.42
444.461	3.43
444.667	3.48
444.873	3.59
445.079	3.57
445.284	3.67
445.49	3.48
445.696	3.3
445.902	3.21
446.108	3.15
446.314	3.08
446.52	3.21
446.726	3.47
446.931	3.56
447.137	3.57
447.343	3.6
447.549	3.47
447.755	3.33
447.96	3.35
448.166	3.39
448.372	3.31
448.578	3.42
448.783	3.37
448.989	3.44
449.195	3.6
449.4	3.71
449.606	3.71
449.812	3.74
450.017	3.78
450.223	3.62
450.428	3.49
450.634	3.59
450.84	3.77
451.045	3.67
451.251	3.62
451.456	3.94
451.662	3.93
451.867	3.82
452.073	3.81
452.278	3.94
452.483	3.85
452.689	3.81
452.894	3.86
453.1	3.89
453.305	3.76
453.51	3.74
453.716	3.64
453.921	3.68
454.127	3.63
454.332	3.58
454.537	3.51
454.742	3.54
454.948	3.51
455.153	3.6
455.358	3.77
455.563	3.96
455.769	4.09
455.974	4.06
456.179	3.95
456.384	3.89
456.589	3.75
456.795	3.51
457	3.5
457.205	3.7
457.41	3.69
457.615	3.66
457.82	3.78
458.025	3.72
458.23	3.56
458.435	3.53
458.64	3.43
458.845	3.51
459.05	3.54
459.255	3.58
459.46	3.61
459.665	3.74
459.87	3.79
460.075	3.75
460.28	3.86
460.485	3.91
460.69	3.89
460.895	3.7
461.099	3.74
461.304	3.8
461.509	3.83
461.714	3.78
461.919	4.05
462.123	3.95
462.328	3.84
462.533	3.76
462.738	3.84
462.942	3.68
463.147	3.8
463.352	3.85
463.556	3.88
463.761	3.88
463.966	3.89
464.17	3.85
464.375	3.78
464.58	3.79
464.784	3.73
464.989	3.71
465.193	3.78
465.398	3.83
465.602	4.01
465.807	4.01
466.011	4.1
