Data from Ofra_1a_PS_2CX12_Reflection_3.txt Node
Date: Tue Jul 20 10:47:20 EDT 2021
User: Adam
Spectrometer: FLMT01687
Trigger mode: 0
Integration Time (sec): 1.004000E0
Scans to average: 2
Electric dark correction enabled: true
Nonlinearity correction enabled: false
Boxcar width: 2
XAxis mode: Wavelengths
Number of Pixels in Spectrum: 3648
>>>>>Begin Spectral Data<<<<<
179.494	-331.47
179.716	-356.49
179.937	610.37
180.158	-971.34
180.38	125.86
180.601	-61.51
180.823	-90.31
181.044	-123.25
181.265	-311.93
181.486	177.49
181.708	-78.81
181.929	10481.82
182.15	-225.25
182.372	278.33
182.593	167.41
182.814	-14.43
183.035	-36.34
183.257	3.78
183.478	-37.14
183.699	-21.78
183.92	-63.71
184.141	-44.89
184.363	-34.34
184.584	-46.66
184.805	-49.07
185.026	-9.58
185.247	-19.02
185.468	-68.12
185.689	-64.87
185.91	-100
186.132	-59.16
186.353	-36.99
186.574	-3.41
186.795	21.58
187.016	44.71
187.237	32.74
187.458	26.58
187.679	7.25
187.9	28.08
188.121	25.13
188.342	25.61
188.563	31.99
188.784	49.12
189.005	19.07
189.226	24.26
189.447	25.35
189.667	11.39
189.888	-15.93
190.109	-23.91
190.33	-1.2
190.551	-25.59
190.772	-20.74
190.993	-22
191.214	-41.3
191.434	-138.76
191.655	-170.03
191.876	-88.89
192.097	-37.47
192.318	-1.47
192.538	-31.44
192.759	-8.39
192.98	17.76
193.201	18.64
193.421	12.6
193.642	35
193.863	34.74
194.083	4.07
194.304	7.81
194.525	5.29
194.745	-4.43
194.966	5.25
195.187	10.56
195.407	-25.12
195.628	-10.93
195.848	-11.81
196.069	-33.75
196.29	-36.71
196.51	-18.22
196.731	-29.15
196.951	-24.26
197.172	-4.95
197.392	-4.4
197.613	25.75
197.833	25.29
198.054	14.13
198.274	16.32
198.495	26.56
198.715	7.03
198.936	15.46
199.156	11.61
199.377	5.24
199.597	17.67
199.817	15.62
200.038	12.54
200.258	45.49
200.479	55.12
200.699	44
200.919	29.44
201.14	27.29
201.36	9.09
201.58	10.8
201.801	10
202.021	26.25
202.241	22.65
202.461	20.49
202.682	25.88
202.902	21.15
203.122	23.06
203.342	32.1
203.563	23.87
203.783	12.98
204.003	-0.95
204.223	-2.37
204.443	0.94
204.663	11.83
204.884	7.28
205.104	2.59
205.324	17.7
205.544	-24.93
205.764	-10.72
205.984	-25.98
206.204	-12.49
206.424	-28.03
206.644	-26.98
206.864	-65.5
207.084	-12.49
207.304	-35.94
207.525	-39.28
207.745	-23.48
207.964	-14.3
208.184	-18.95
208.404	-10.15
208.624	-0.2
208.844	-4.79
209.064	1.04
209.284	-24.44
209.504	-22.08
209.724	-25.59
209.944	-36.96
210.164	-43.25
210.384	-26.08
210.604	-51.19
210.823	-72.49
211.043	-55.93
211.263	-132.15
211.483	-134.04
211.703	-89.26
211.922	-128.33
212.142	-101.92
212.362	-65.2
212.582	-33.61
212.801	-54.04
213.021	-31.55
213.241	-37.09
213.461	-27.58
213.68	-19.63
213.9	-3.4
214.12	0.9
214.339	-6.99
214.559	1.84
214.779	-3.24
214.998	9.48
215.218	17.89
215.438	17.57
215.657	22.61
215.877	5.54
216.096	0.49
216.316	-7.82
216.535	-12.59
216.755	-16.35
216.974	-19.5
217.194	-41.82
217.413	-27.78
217.633	-26.32
217.852	-7.09
218.072	9.96
218.291	5.73
218.511	5.56
218.73	9.6
218.95	-30.87
219.169	-66.87
219.389	-15.02
219.608	-15.46
219.827	-6.08
220.047	9.04
220.266	10.88
220.485	-12.91
220.705	-23.44
220.924	-34.16
221.143	-1.73
221.363	9.61
221.582	12.99
221.801	35.31
222.021	38.66
222.24	26.64
222.459	45.81
222.678	54.96
222.897	26.1
223.117	32.46
223.336	42.13
223.555	45.75
223.774	16.79
223.993	49.54
224.213	37.47
224.432	25.45
224.651	19.36
224.87	22.31
225.089	17.38
225.308	15.51
225.527	17.16
225.746	-0.66
225.965	5.5
226.184	-3.6
226.404	-0.63
226.623	15.62
226.842	11.98
227.061	6.67
227.28	13.04
227.499	10.59
227.718	10.36
227.936	22.63
228.155	18.25
228.374	28.74
228.593	30.05
228.812	12.3
229.031	12.57
229.25	-0.01
229.469	-6.82
229.688	-7.68
229.907	7.57
230.125	-3.19
230.344	22.35
230.563	12.61
230.782	18.25
231.001	26.49
231.22	42.65
231.438	40.38
231.657	48.57
231.876	46.02
232.095	39.17
232.313	6.61
232.532	8.11
232.751	0.37
232.969	3.1
233.188	-19.78
233.407	5.01
233.625	2.09
233.844	3.51
234.063	8.22
234.281	22.46
234.5	17.06
234.719	18.74
234.937	13.85
235.156	4.32
235.374	8.45
235.593	15.3
235.811	11.47
236.03	13.71
236.249	17.28
236.467	6.71
236.686	-3.65
236.904	2.64
237.123	1.43
237.341	-12.47
237.559	4.18
237.778	17.59
237.996	-14.89
238.215	-74.26
238.433	-92.93
238.652	-29.06
238.87	-34.87
239.088	-19.24
239.307	15.94
239.525	18.06
239.743	-4.41
239.962	-27.87
240.18	-11.31
240.398	-21.54
240.617	-31.4
240.835	-27.03
241.053	6.57
241.271	7.8
241.49	31.58
241.708	30.18
241.926	26.85
242.144	38.04
242.363	23.26
242.581	-16.39
242.799	-34.79
243.017	-14.63
243.235	-18.06
243.453	-20.91
243.672	-9.82
243.89	-0.81
244.108	10.32
244.326	29.6
244.544	36.71
244.762	29.86
244.98	35.72
245.198	39.04
245.416	25.85
245.634	19.95
245.852	17.38
246.07	25.78
246.288	17.91
246.506	12.48
246.724	9.8
246.942	15.3
247.16	2.72
247.378	-8.27
247.596	8.5
247.814	-7.14
248.032	-15.23
248.25	18.9
248.468	12.62
248.685	10.65
248.903	21.41
249.121	20.79
249.339	14.87
249.557	21.15
249.775	19.89
249.992	13.91
250.21	0.62
250.428	-1.5
250.646	-6.54
250.863	-19.77
251.081	-12.43
251.299	7.62
251.517	20.82
251.734	23.54
251.952	29.94
252.17	10.86
252.387	-14.33
252.605	-31.5
252.823	-61.99
253.04	-31.28
253.258	14.62
253.475	35.79
253.693	20.43
253.911	26.4
254.128	-1.09
254.346	0.16
254.563	-10.26
254.781	-6.11
254.998	-14.13
255.216	-22.41
255.433	-53.27
255.651	-42.12
255.868	-15.17
256.086	10.14
256.303	7.46
256.521	7.21
256.738	2.17
256.956	-17.31
257.173	-38.28
257.39	-19.79
257.608	-13.92
257.825	-12.88
258.043	5.53
258.26	0.95
258.477	-3.08
258.695	0.56
258.912	-5.88
259.129	-20.06
259.346	-12.04
259.564	-10.28
259.781	-7.49
259.998	26.35
260.216	31.19
260.433	20.04
260.65	22.64
260.867	19.57
261.084	9.46
261.302	-6.51
261.519	7.38
261.736	0.39
261.953	-3.37
262.17	12.84
262.387	15.55
262.604	16.51
262.822	23.69
263.039	26.35
263.256	22.76
263.473	21.57
263.69	21.85
263.907	9.26
264.124	2.15
264.341	3.22
264.558	-2.49
264.775	-1.81
264.992	7.54
265.209	-8.05
265.426	-52.9
265.643	-18.38
265.86	-46.49
266.077	-63.56
266.294	-35.63
266.51	9.58
266.727	-4.88
266.944	15.65
267.161	28.87
267.378	27.1
267.595	-2.08
267.812	-15.1
268.028	-32.72
268.245	-34.27
268.462	-13.57
268.679	14.44
268.896	23.26
269.112	4.81
269.329	-13.17
269.546	-10.53
269.763	-9.49
269.979	-5.99
270.196	17.8
270.413	10.89
270.629	-10.94
270.846	-24.27
271.063	-32.47
271.279	-42.55
271.496	-35.59
271.712	-13.8
271.929	2.75
272.146	-7.17
272.362	3.06
272.579	-0.34
272.795	-14.33
273.012	-2.87
273.228	14.59
273.445	6.58
273.661	5.18
273.878	2.62
274.094	-10.85
274.311	-16.94
274.527	-41.16
274.744	-24.9
274.96	-14.46
275.177	-18.81
275.393	-4.22
275.609	7.07
275.826	0.62
276.042	11.89
276.259	15.63
276.475	11.36
276.691	8.55
276.908	9.65
277.124	2.76
277.34	-6.32
277.557	-22.57
277.773	-16.44
277.989	-21.33
278.205	-26.15
278.422	-26.97
278.638	-20.32
278.854	-28.33
279.07	-19.07
279.286	-16.78
279.503	-5.22
279.719	1.65
279.935	8.51
280.151	2.48
280.367	8.9
280.583	14.09
280.799	9.23
281.016	-16.48
281.232	2.85
281.448	-1.45
281.664	-17.59
281.88	-11.74
282.096	-0.4
282.312	-4.6
282.528	-5.86
282.744	-7.1
282.96	-17.77
283.176	-15.44
283.392	-42
283.608	-63.98
283.824	-49.85
284.04	-93.9
284.256	-26.93
284.471	-2.72
284.687	12.97
284.903	6.48
285.119	29.9
285.335	10.92
285.551	11.99
285.767	3.71
285.982	6.97
286.198	-22.84
286.414	-21.33
286.63	-49.43
286.846	-13.92
287.061	-12.12
287.277	-2.03
287.493	14.3
287.709	16.56
287.924	19.07
288.14	36.73
288.356	48.24
288.571	41.49
288.787	27.75
289.003	31.93
289.218	10.73
289.434	-6.41
289.65	8.79
289.865	21.03
290.081	17.82
290.296	25.45
290.512	25.56
290.727	10.36
290.943	8.9
291.159	2
291.374	-27.87
291.59	-18.78
291.805	-22.38
292.021	-11.33
292.236	-12.24
292.451	7.81
292.667	6.5
292.882	32.27
293.098	27.53
293.313	15.86
293.529	24.6
293.744	23.24
293.959	-8.18
294.175	1.71
294.39	-12.18
294.605	-6.96
294.821	-23.73
295.036	-8.11
295.251	-11.09
295.467	-9.3
295.682	-9.94
295.897	-0.01
296.112	-17
296.328	-6.05
296.543	-16.57
296.758	-31.87
296.973	-22.6
297.188	-16.51
297.404	-54.71
297.619	-43.74
297.834	-81.85
298.049	-69.04
298.264	-53.71
298.479	-39.43
298.694	4.17
298.909	27.69
299.125	20.34
299.34	17.77
299.555	13.57
299.77	18.19
299.985	18.39
300.2	16.69
300.415	17.89
300.63	24.72
300.845	17.88
301.06	11.41
301.275	10.32
301.49	22.79
301.704	20.28
301.919	-0.96
302.134	-0.37
302.349	17.04
302.564	-6.93
302.779	-22.17
302.994	12.22
303.209	20.77
303.423	-0.18
303.638	12.2
303.853	5.27
304.068	-27.29
304.283	-31.55
304.497	-29.94
304.712	-15.01
304.927	-2.51
305.142	14.94
305.356	19.99
305.571	18.35
305.786	14.83
306	22.3
306.215	24.39
306.43	8.91
306.644	9.01
306.859	-8.61
307.074	-3.82
307.288	-21.66
307.503	1.85
307.717	-1.54
307.932	7.37
308.147	-9.02
308.361	1.81
308.576	-23.47
308.79	2.26
309.005	-2.63
309.219	11.46
309.434	9.87
309.648	4.5
309.863	-20.51
310.077	-10.23
310.292	-2.56
310.506	-19.3
310.72	-13.03
310.935	-8.91
311.149	-13.13
311.364	-15.89
311.578	-1.04
311.792	4.4
312.007	-7.75
312.221	-22.84
312.435	-24.87
312.649	-24.63
312.864	-17.13
313.078	-9.51
313.292	4.74
313.507	20.32
313.721	10.61
313.935	28.55
314.149	30.92
314.363	34.75
314.578	19.33
314.792	17.51
315.006	-12.55
315.22	2.12
315.434	3.3
315.648	-12.6
315.862	2.36
316.077	-8.88
316.291	-22.37
316.505	-50.12
316.719	-25.75
316.933	-29.06
317.147	-10.5
317.361	-5.56
317.575	10.8
317.789	13
318.003	11.06
318.217	28.19
318.431	17.16
318.645	10.69
318.859	18.06
319.073	27.5
319.287	14.99
319.5	21.08
319.714	9.53
319.928	12.79
320.142	-0.41
320.356	16.82
320.57	-4.05
320.784	17.98
320.997	-5.92
321.211	24.76
321.425	-10.98
321.639	7.19
321.853	17.4
322.066	27.37
322.28	1.81
322.494	14.42
322.707	14.81
322.921	-3.4
323.135	-4.08
323.349	14.62
323.562	13.56
323.776	15.42
323.989	18.24
324.203	10.35
324.417	4.57
324.63	-12.76
324.844	-26.05
325.057	-50.42
325.271	-45.3
325.485	-47.71
325.698	-17.56
325.912	-11.11
326.125	-14.27
326.339	-2.18
326.552	-5.67
326.766	-21.05
326.979	6.98
327.193	17.1
327.406	-12.11
327.619	-3.97
327.833	-6.13
328.046	-17.6
328.26	-15.34
328.473	3.25
328.686	3.85
328.9	17.23
329.113	14.77
329.326	12.58
329.54	6.72
329.753	14.31
329.966	8.07
330.179	11.39
330.393	11.62
330.606	9.11
330.819	-17.47
331.032	-9.64
331.246	5.51
331.459	22.19
331.672	17.49
331.885	30.57
332.098	31.94
332.311	12.23
332.525	5.27
332.738	15.66
332.951	12.52
333.164	17.49
333.377	17.07
333.59	8.14
333.803	2.53
334.016	4.02
334.229	-5
334.442	-6.03
334.655	-3.17
334.868	-13.97
335.081	-17.78
335.294	-42.95
335.507	-30.91
335.72	-21.86
335.933	-2.92
336.146	10.14
336.359	23.83
336.572	24.24
336.785	21.49
336.997	7.42
337.21	0.2
337.423	-9.35
337.636	-29.35
337.849	-23.96
338.062	-12.05
338.274	1.62
338.487	-6.05
338.7	-20.27
338.913	-9.51
339.125	-13.21
339.338	-22.99
339.551	-29.52
339.763	-14.05
339.976	-24.67
340.189	-30.47
340.402	-12.92
340.614	8.9
340.827	15.24
341.039	16.8
341.252	14.64
341.465	-10.68
341.677	-0.18
341.89	3.27
342.102	14.05
342.315	20.72
342.527	23.56
342.74	-1.33
342.952	-21.14
343.165	-30.67
343.377	-11.73
343.59	-5.64
343.802	9.12
344.015	17.81
344.227	21.07
344.44	-2.29
344.652	-4.73
344.864	-9.49
345.077	-5.5
345.289	7.79
345.502	23.66
345.714	19.83
345.926	15.55
346.139	-10.68
346.351	-19.79
346.563	-22.4
346.775	-11.47
346.988	4.63
347.2	10.49
347.412	15.85
347.624	16.33
347.837	16.88
348.049	20.81
348.261	15.88
348.473	1.04
348.685	-13.45
348.897	-22.66
349.11	-23.26
349.322	-0.6
349.534	5.01
349.746	22.93
349.958	11.61
350.17	8.81
350.382	3.39
350.594	6.44
350.806	12.9
351.018	19.01
351.23	23.09
351.442	26.13
351.654	23.79
351.866	13.84
352.078	24.77
352.29	7.86
352.502	8.54
352.714	7.19
352.926	7.64
353.138	5.72
353.35	0.69
353.561	2.7
353.773	2.11
353.985	3.92
354.197	7.3
354.409	21.91
354.621	9.39
354.832	14.4
355.044	0.31
355.256	0.17
355.468	-19.77
355.679	-1.33
355.891	-5.94
356.103	-5.7
356.314	-19.25
356.526	-27.41
356.738	-50.39
356.949	-58.2
357.161	-30.55
357.373	-17.96
357.584	-0.36
357.796	17.91
358.008	27.65
358.219	14.6
358.431	8.67
358.642	9.8
358.854	8
359.065	-5.16
359.277	-1.68
359.488	-0.86
359.7	0.24
359.911	-14.08
360.123	2.04
360.334	-11.65
360.546	-8.07
360.757	-6.47
360.969	2.84
361.18	-1.65
361.391	17.12
361.603	18.28
361.814	13.84
362.025	18.41
362.237	11.83
362.448	13.32
362.659	0.68
362.871	-13.91
363.082	-18.47
363.293	-24.2
363.504	-50.11
363.716	-30.14
363.927	-9.95
364.138	-41.47
364.349	-34.89
364.56	-52.14
364.772	-46.71
364.983	-37.79
365.194	-10.38
365.405	-3.49
365.616	22.22
365.827	19.41
366.038	22.53
366.25	20.95
366.461	27.82
366.672	25.23
366.883	16.17
367.094	8.44
367.305	-10.43
367.516	-29.51
367.727	-46.52
367.938	-39.68
368.149	-52.34
368.36	-46.92
368.571	-66.67
368.781	-53.47
368.992	-45.48
369.203	-29.64
369.414	-24.77
369.625	-8.41
369.836	5.23
370.047	4.64
370.258	12.39
370.468	9.66
370.679	10.85
370.89	-6.62
371.101	3.62
371.312	-11.72
371.522	-20.19
371.733	-16.86
371.944	-28.37
372.155	-21.21
372.365	-13.82
372.576	-13.33
372.787	-7.85
372.997	3.67
373.208	-9.75
373.419	-23.31
373.629	-31.92
373.84	-39.59
374.05	-41.28
374.261	-51.14
374.472	-33.95
374.682	-16.68
374.893	-32.03
375.103	-23.07
375.314	-14.49
375.524	-7.69
375.735	-3.86
375.945	10.75
376.156	4.82
376.366	1.94
376.577	3.64
376.787	4.87
376.997	-2.69
377.208	-5.83
377.418	-2.14
377.629	-1.97
377.839	-0.01
378.049	2.54
378.26	4.75
378.47	5.79
378.68	6.89
378.89	-2.66
379.101	-3.88
379.311	-3.1
379.521	-15.03
379.732	-17.6
379.942	-15.78
380.152	-11.91
380.362	-10.88
380.572	11.39
380.783	14.97
380.993	15.4
381.203	19.64
381.413	26.93
381.623	13.76
381.833	12.65
382.043	14.42
382.253	5.77
382.463	12.88
382.674	17.55
382.884	20.4
383.094	20.63
383.304	26.2
383.514	7.39
383.724	1.9
383.934	-14.52
384.144	-7.46
384.353	-10.85
384.563	-2.9
384.773	4.98
384.983	8.65
385.193	6.85
385.403	3.68
385.613	2.9
385.823	-2.22
386.033	-3.42
386.242	-9.41
386.452	-12.32
386.662	-10.48
386.872	-4.84
387.082	0.13
387.291	-0.38
387.501	7.4
387.711	8.98
387.921	4.89
388.13	9.4
388.34	10.45
388.55	4.84
388.759	-1.47
388.969	2.52
389.179	-0.21
389.388	1.31
389.598	-1.93
389.807	-3
390.017	-5.89
390.227	-10.59
390.436	-8.34
390.646	-3.1
390.855	0.18
391.065	1.02
391.274	2.75
391.484	0.06
391.693	-2.06
391.903	-2.51
392.112	-4.1
392.322	-5.33
392.531	-5.26
392.74	-5.96
392.95	-5.22
393.159	-4.65
393.369	-3.81
393.578	-1.48
393.787	0.69
393.997	3.04
394.206	1.72
394.415	2.23
394.625	1.19
394.834	-1.39
395.043	-2.34
395.252	1.23
395.462	2.53
395.671	2.29
395.88	4.81
396.089	4.54
396.298	3.18
396.508	2.7
396.717	2.63
396.926	1.71
397.135	2.04
397.344	1.93
397.553	1.67
397.762	2.97
397.971	2.79
398.181	2.36
398.39	2.05
398.599	2.2
398.808	1.36
399.017	2.6
399.226	3.26
399.435	3.18
399.644	3.32
399.853	3.5
400.062	2.88
400.27	2.12
400.479	2.31
400.688	2.2
400.897	1.79
401.106	1.74
401.315	1.84
401.524	2
401.733	1.75
401.941	2.31
402.15	2.23
402.359	2.31
402.568	2.42
402.777	2.66
402.985	2.2
403.194	2.2
403.403	2.45
403.612	2.1
403.82	1.68
404.029	1.97
404.238	2.02
404.446	1.93
404.655	2.05
404.864	2.42
405.072	2.19
405.281	2.3
405.489	2.17
405.698	2.34
405.906	2.27
406.115	2.3
406.324	2.24
406.532	2.48
406.741	2.4
406.949	2.37
407.158	2.53
407.366	2.37
407.574	2.27
407.783	2.31
407.991	2.43
408.2	2.37
408.408	2.53
408.617	2.47
408.825	2.39
409.033	2.32
409.242	2.37
409.45	2.31
409.658	2.34
409.867	2.44
410.075	2.45
410.283	2.34
410.491	2.23
410.7	2.12
410.908	1.97
411.116	2.02
411.324	2.03
411.533	2.03
411.741	2.05
411.949	2.19
412.157	2.12
412.365	2.25
412.573	2.31
412.781	2.21
412.99	2.11
413.198	2.08
413.406	2.03
413.614	2.05
413.822	2.26
414.03	2.16
414.238	2.24
414.446	2.31
414.654	2.26
414.862	2.21
415.07	2.3
415.278	2.25
415.486	2.05
415.694	2.06
415.902	2.02
416.109	1.92
416.317	2
416.525	2.02
416.733	1.94
416.941	1.93
417.149	1.94
417.357	1.81
417.564	1.86
417.772	2.05
417.98	2.01
418.188	2.01
418.395	1.91
418.603	1.84
418.811	1.67
419.019	1.69
419.226	1.78
419.434	1.67
419.642	1.61
419.849	1.59
420.057	1.56
420.265	1.51
420.472	1.8
420.68	1.79
420.887	1.82
421.095	1.98
421.302	2.16
421.51	1.89
421.717	2.03
421.925	2.16
422.132	2.06
422.34	1.75
422.547	1.73
422.755	1.71
422.962	1.7
423.17	1.53
423.377	1.75
423.585	2.12
423.792	2.04
423.999	1.95
424.207	1.93
424.414	1.87
424.621	1.68
424.829	1.71
425.036	1.73
425.243	1.85
425.451	1.88
425.658	1.87
425.865	1.94
426.072	1.84
426.28	1.87
426.487	1.74
426.694	1.7
426.901	1.66
427.108	1.72
427.315	1.73
427.523	1.59
427.73	1.79
427.937	1.71
428.144	1.68
428.351	1.64
428.558	1.97
428.765	1.87
428.972	1.97
429.179	1.86
429.386	1.85
429.593	1.66
429.8	1.55
430.007	1.53
430.214	1.73
430.421	1.87
430.628	1.82
430.835	1.88
431.042	1.91
431.249	1.82
431.456	1.57
431.662	1.7
431.869	1.9
432.076	1.85
432.283	1.94
432.49	2.04
432.697	1.95
432.903	1.76
433.11	1.91
433.317	1.93
433.524	1.9
433.73	1.94
433.937	2.05
434.144	1.84
434.35	1.81
434.557	1.94
434.764	2.01
434.97	1.89
435.177	2.05
435.384	2.11
435.59	2.11
435.797	2.12
436.003	2.12
436.21	1.97
436.416	1.96
436.623	1.89
436.829	1.85
437.036	1.91
437.242	2.02
437.449	1.96
437.655	2.04
437.862	2.04
438.068	1.97
438.275	2
438.481	1.98
438.687	1.86
438.894	2.05
439.1	2.05
439.307	2.12
439.513	2.2
439.719	2.31
439.926	2.24
440.132	2.32
440.338	2.17
440.544	2.09
440.751	2.02
440.957	2.03
441.163	1.93
441.369	1.93
441.575	1.94
441.782	2.01
441.988	1.89
442.194	1.93
442.4	1.97
442.606	2.1
442.812	2.1
443.018	2.18
443.224	2.26
443.431	2.27
443.637	2.14
443.843	2.08
444.049	2.08
444.255	2.09
444.461	2.03
444.667	2.11
444.873	2.13
445.079	2.12
445.284	2.07
445.49	2.02
445.696	1.95
445.902	1.99
446.108	1.98
446.314	2.06
446.52	2.22
446.726	2.21
446.931	2.21
447.137	2.21
447.343	2.21
447.549	2.15
447.755	2.2
447.96	2.11
448.166	2.16
448.372	2.09
448.578	2.06
448.783	2.14
448.989	2.28
449.195	2.26
449.4	2.37
449.606	2.4
449.812	2.28
450.017	2.28
450.223	2.23
450.428	2.18
450.634	2.13
450.84	2.15
451.045	2.17
451.251	2.27
451.456	2.25
451.662	2.38
451.867	2.41
452.073	2.42
452.278	2.36
452.483	2.28
452.689	2.3
452.894	2.31
453.1	2.18
453.305	2.15
453.51	2.26
453.716	2.13
453.921	2.1
454.127	2.2
454.332	2.21
454.537	2.12
454.742	2.09
454.948	2.11
455.153	2.12
455.358	2.06
455.563	2.19
455.769	2.29
455.974	2.34
456.179	2.24
456.384	2.23
456.589	2.08
456.795	2.06
457	2.02
457.205	2.06
457.41	2.04
457.615	2.06
457.82	2.11
458.025	2.08
458.23	2.05
458.435	2.21
458.64	2.32
458.845	2.28
459.05	2.27
459.255	2.35
459.46	2.27
459.665	2.25
459.87	2.19
460.075	2.33
460.28	2.3
460.485	2.39
460.69	2.38
460.895	2.45
461.099	2.31
461.304	2.26
461.509	2.19
461.714	2.2
461.919	2.13
462.123	2.19
462.328	2.13
462.533	1.98
462.738	1.93
462.942	1.92
463.147	1.91
463.352	1.95
463.556	2.09
463.761	2.13
463.966	2.12
464.17	2.14
464.375	2.25
464.58	2.22
464.784	2.21
464.989	2.24
465.193	2.27
465.398	2.21
465.602	2.36
465.807	2.36
