Data from Ofra_PS_T2_2A_9GT30_Reflection_3.txt Node
Date: Wed Jul 21 17:23:32 EDT 2021
User: Adam
Spectrometer: FLMT01687
Trigger mode: 0
Integration Time (sec): 1.100000E0
Scans to average: 2
Electric dark correction enabled: true
Nonlinearity correction enabled: false
Boxcar width: 2
XAxis mode: Wavelengths
Number of Pixels in Spectrum: 3648
>>>>>Begin Spectral Data<<<<<
179.494	531.2
179.716	603.76
179.937	568.35
180.158	549.5
180.38	966.87
180.601	362.43
180.823	74.94
181.044	-71.56
181.265	164.71
181.486	44.77
181.708	127.25
181.929	916.33
182.15	-425.35
182.372	145.27
182.593	77.7
182.814	92.6
183.035	136.35
183.257	119.01
183.478	102.34
183.699	124.22
183.92	66.33
184.141	47.87
184.363	-19.97
184.584	24.68
184.805	21.66
185.026	62.34
185.247	66.4
185.468	39.89
185.689	23.26
185.91	31.87
186.132	17.74
186.353	-1.02
186.574	42.34
186.795	33.45
187.016	-10.62
187.237	-19.25
187.458	-32.43
187.679	2.25
187.9	17.38
188.121	19.83
188.342	11.89
188.563	53.88
188.784	52.38
189.005	58.56
189.226	125.32
189.447	147.76
189.667	39.81
189.888	-204.93
190.109	-906.49
190.33	-643.87
190.551	-1151.33
190.772	-227.12
190.993	-169.45
191.214	-152.4
191.434	-79.42
191.655	-0.98
191.876	-33.39
192.097	-61.19
192.318	-81.56
192.538	-197.65
192.759	-169.82
192.98	-80.63
193.201	-38.19
193.421	-28.38
193.642	2.79
193.863	25.62
194.083	19.38
194.304	7.25
194.525	11.05
194.745	-5.74
194.966	-48.9
195.187	-49.82
195.407	-43.05
195.628	-91.14
195.848	-79.08
196.069	-54.83
196.29	-21.98
196.51	-37.26
196.731	-23.95
196.951	-32.4
197.172	-73.23
197.392	-125.58
197.613	-110.96
197.833	-144.38
198.054	-100.89
198.274	-53.79
198.495	-49.47
198.715	-12.98
198.936	-21.14
199.156	-31.14
199.377	-106.07
199.597	-126.47
199.817	-150.4
200.038	-79.18
200.258	-135.36
200.479	-50.13
200.699	-50.71
200.919	-29.25
201.14	-63.97
201.36	-68.93
201.58	-7.31
201.801	38.11
202.021	8.42
202.241	11.3
202.461	6.81
202.682	-106.39
202.902	-224.07
203.122	-142.05
203.342	-112.63
203.563	-66.09
203.783	-7.33
204.003	-18.65
204.223	-27.08
204.443	41.31
204.663	45.43
204.884	38.91
205.104	71.71
205.324	138.11
205.544	97.04
205.764	100.15
205.984	92.54
206.204	88.69
206.424	47.85
206.644	29.79
206.864	19.1
207.084	-8.31
207.304	32.72
207.525	-16.56
207.745	-14.45
207.964	3.09
208.184	-50.73
208.404	-106.42
208.624	-103.66
208.844	-83.74
209.064	-348.16
209.284	-369.69
209.504	-197.37
209.724	-41.17
209.944	-25.84
210.164	1.84
210.384	23.88
210.604	4.6
210.823	-48.78
211.043	-58.7
211.263	-42.82
211.483	-54.45
211.703	-109.24
211.922	-74.7
212.142	-14.35
212.362	-2.31
212.582	-22.97
212.801	-0.16
213.021	-21.1
213.241	-46.09
213.461	-84.32
213.68	-78.61
213.9	-43.94
214.12	-31.56
214.339	-71.07
214.559	-65.06
214.779	-0.37
214.998	-4.64
215.218	-56.63
215.438	-50.33
215.657	-48.43
215.877	-68.69
216.096	-12.05
216.316	22.55
216.535	19.77
216.755	17.36
216.974	-58.64
217.194	-158.75
217.413	-168.81
217.633	-142.74
217.852	-254.89
218.072	-92.25
218.291	-41.32
218.511	26.38
218.73	-13.95
218.95	-0.9
219.169	-14.95
219.389	-45.58
219.608	-53.77
219.827	-37.1
220.047	-17.41
220.266	13.08
220.485	14.67
220.705	13.43
220.924	-4.97
221.143	25.82
221.363	-5.29
221.582	-0.11
221.801	11.56
222.021	26.81
222.24	-47.21
222.459	5.34
222.678	-10.93
222.897	-50.63
223.117	-83.13
223.336	-53.01
223.555	-36.48
223.774	25.77
223.993	40.26
224.213	85.17
224.432	61.68
224.651	91.41
224.87	60.67
225.089	77.77
225.308	69.98
225.527	76.61
225.746	56.37
225.965	39.22
226.184	-8.5
226.404	9.71
226.623	-15.62
226.842	1.75
227.061	32.26
227.28	35.71
227.499	26.59
227.718	36.65
227.936	34.04
228.155	46.98
228.374	30.01
228.593	31.38
228.812	31.69
229.031	13.44
229.25	-51.66
229.469	-40.92
229.688	-31.16
229.907	-7.01
230.125	7.46
230.344	24.06
230.563	30.9
230.782	44.41
231.001	-4.62
231.22	-8.79
231.438	22.98
231.657	28.46
231.876	13.1
232.095	59.38
232.313	72.13
232.532	65.14
232.751	45.97
232.969	25.72
233.188	-50.42
233.407	14.77
233.625	27.7
233.844	-6.51
234.063	0.56
234.281	23.02
234.5	10.15
234.719	-5.23
234.937	28.05
235.156	40.59
235.374	36.7
235.593	18.93
235.811	22.99
236.03	12.88
236.249	-42.2
236.467	-50.68
236.686	-22.31
236.904	-11.16
237.123	-27.78
237.341	-8.01
237.559	5.79
237.778	4.53
237.996	-15.07
238.215	14.58
238.433	16.62
238.652	7.17
238.87	-8.52
239.088	0.6
239.307	-13.91
239.525	-15.64
239.743	-46.16
239.962	-36.38
240.18	-54.95
240.398	-84.62
240.617	-100
240.835	-63.23
241.053	-36.8
241.271	41.71
241.49	51.41
241.708	70.67
241.926	68.29
242.144	18.79
242.363	-51.24
242.581	-80.32
242.799	-51.85
243.017	-10.96
243.235	-21.45
243.453	-1.65
243.672	3.93
243.89	-8.03
244.108	-34.68
244.326	-5.76
244.544	-11.48
244.762	-9.04
244.98	5.63
245.198	16.47
245.416	-25.79
245.634	-24.32
245.852	-29.92
246.07	-50.55
246.288	-41.22
246.506	-31.18
246.724	-26.99
246.942	-30.88
247.16	-7.88
247.378	-3.93
247.596	10.08
247.814	3.6
248.032	-12.01
248.25	-2.85
248.468	-7.68
248.685	-3.27
248.903	27.43
249.121	23.33
249.339	-1.16
249.557	-7.71
249.775	16.22
249.992	-44.67
250.21	-35.38
250.428	-27.34
250.646	-43.9
250.863	-61.5
251.081	-29.93
251.299	-12.2
251.517	1.5
251.734	3.97
251.952	-19.56
252.17	-6.45
252.387	-2.21
252.605	-12.82
252.823	-11.6
253.04	11.88
253.258	24.41
253.475	12.53
253.693	52.53
253.911	58.53
254.128	43.65
254.346	44.58
254.563	30.91
254.781	-5.35
254.998	-20.47
255.216	-11.18
255.433	4.11
255.651	59.37
255.868	74.95
256.086	87.47
256.303	60.81
256.521	34.08
256.738	6.63
256.956	-10.89
257.173	-31.35
257.39	-34.87
257.608	-63.28
257.825	12.13
258.043	56
258.26	65.68
258.477	107.65
258.695	115.54
258.912	42.74
259.129	22.65
259.346	-28.33
259.564	-75.83
259.781	-93.65
259.998	-13.4
260.216	16.37
260.433	55.19
260.65	66.65
260.867	74.14
261.084	44.69
261.302	13.96
261.519	24.45
261.736	-44.6
261.953	-71.9
262.17	-32.64
262.387	-57.83
262.604	-82.67
262.822	-62.43
263.039	-26.48
263.256	-67.58
263.473	-19.76
263.69	-22.42
263.907	20.12
264.124	29.74
264.341	38.52
264.558	27.92
264.775	43.61
264.992	30.98
265.209	32
265.426	54.53
265.643	45.92
265.86	48.79
266.077	41.53
266.294	16.84
266.51	-49.96
266.727	-57.94
266.944	-31.14
267.161	-34.87
267.378	-28.19
267.595	14.51
267.812	3.86
268.028	-11.59
268.245	21.29
268.462	-16.37
268.679	-45.47
268.896	2.82
269.112	10.53
269.329	10.41
269.546	33.04
269.763	36.52
269.979	35.11
270.196	9.77
270.413	-22.59
270.629	-53.34
270.846	-64.11
271.063	-49.76
271.279	-58.08
271.496	-50.82
271.712	-11.57
271.929	17.01
272.146	-10.56
272.362	13.45
272.579	58.74
272.795	62.65
273.012	67.65
273.228	76.15
273.445	43.41
273.661	3.59
273.878	-26.73
274.094	-41.17
274.311	-73.78
274.527	14.14
274.744	25.75
274.96	32.29
275.177	30.27
275.393	52.3
275.609	26.52
275.826	39.44
276.042	20.79
276.259	14.78
276.475	19.87
276.691	31.76
276.908	5.68
277.124	27.77
277.34	38.12
277.557	23.51
277.773	9.38
277.989	12.71
278.205	6.8
278.422	8.11
278.638	22.3
278.854	44.95
279.07	56.83
279.286	49.23
279.503	30.68
279.719	11.68
279.935	-26.11
280.151	-57.67
280.367	-26.73
280.583	-41.62
280.799	-35.95
281.016	-60.14
281.232	-8.18
281.448	-9.14
281.664	30.49
281.88	13.72
282.096	52.25
282.312	57.68
282.528	65.41
282.744	51.42
282.96	48.75
283.176	25.36
283.392	25.26
283.608	14.44
283.824	11.81
284.04	29.16
284.256	29.71
284.471	15.98
284.687	1.49
284.903	23.75
285.119	44.98
285.335	28.72
285.551	47.36
285.767	38.65
285.982	13.23
286.198	-26.22
286.414	27.96
286.63	16.7
286.846	48.69
287.061	31.19
287.277	51.41
287.493	15.64
287.709	29.23
287.924	6.74
288.14	45.41
288.356	50.35
288.571	74
288.787	47.43
289.003	50.43
289.218	32.76
289.434	3.93
289.65	18.52
289.865	23.1
290.081	42.9
290.296	32.5
290.512	27.67
290.727	-12.42
290.943	-6.85
291.159	-30.26
291.374	-44.12
291.59	-62.06
291.805	-45.25
292.021	-29.46
292.236	-24.18
292.451	1.45
292.667	16.06
292.882	22.84
293.098	30.48
293.313	18.65
293.529	4.28
293.744	-14.25
293.959	-25.8
294.175	-44.45
294.39	1.58
294.605	11.67
294.821	34.24
295.036	43.42
295.251	53.89
295.467	27.13
295.682	30.32
295.897	-24.44
296.112	-47.32
296.328	-35.51
296.543	-62.59
296.758	-73.98
296.973	-16.35
297.188	34.42
297.404	9.73
297.619	5.95
297.834	6.74
298.049	-16.02
298.264	-67.84
298.479	-7.02
298.694	5.72
298.909	14.63
299.125	21.12
299.34	32.99
299.555	-7.65
299.77	14.97
299.985	-12.6
300.2	-53.92
300.415	-66.25
300.63	-13.18
300.845	-34.06
301.06	-22.52
301.275	6.53
301.49	21.75
301.704	-4.97
301.919	-22.6
302.134	-34.88
302.349	-31.52
302.564	-78.94
302.779	-89.73
302.994	-43.57
303.209	-6.53
303.423	28.42
303.638	67.57
303.853	42.48
304.068	34.53
304.283	32.8
304.497	15.78
304.712	3.79
304.927	10.97
305.142	8.44
305.356	14.77
305.571	7.66
305.786	-11.25
306	-33.68
306.215	-33.88
306.43	-59.22
306.644	-23.59
306.859	43.4
307.074	57.17
307.288	15.06
307.503	28.43
307.717	-6.2
307.932	-22.29
308.147	-34.46
308.361	1.14
308.576	-15.13
308.79	-54.55
309.005	-54.8
309.219	-33.29
309.434	-48.77
309.648	-40.22
309.863	-6.71
310.077	-0.82
310.292	10.16
310.506	22.35
310.72	37.16
310.935	33.78
311.149	22.04
311.364	28.51
311.578	29.27
311.792	12.52
312.007	25.46
312.221	29.3
312.435	31.64
312.649	19.89
312.864	72.46
313.078	88.86
313.292	146.93
313.507	118.88
313.721	152.78
313.935	60.17
314.149	45.69
314.363	23.89
314.578	24.36
314.792	15.19
315.006	-2.69
315.22	14.57
315.434	14.26
315.648	28.15
315.862	36.01
316.077	41.36
316.291	17.63
316.505	17.77
316.719	-7.04
316.933	-5.45
317.147	-16.77
317.361	-54.41
317.575	-61.2
317.789	-85.42
318.003	-171.08
318.217	-106.3
318.431	-18.57
318.645	29.93
318.859	21.86
319.073	58.08
319.287	40.8
319.5	8.28
319.714	-51.88
319.928	-67.63
320.142	-100.74
320.356	-56.76
320.57	-5.63
320.784	-4.56
320.997	7.6
321.211	-0.81
321.425	-62.94
321.639	-102.36
321.853	-39.83
322.066	-19.88
322.28	-13.07
322.494	-4.83
322.707	18.09
322.921	2.68
323.135	-5.45
323.349	-0.93
323.562	-11.25
323.776	-22.66
323.989	-10.68
324.203	-27.68
324.417	-37.69
324.63	-56.34
324.844	-59.97
325.057	-74.88
325.271	-52.49
325.485	-19.45
325.698	17.4
325.912	37.53
326.125	22.04
326.339	26.08
326.552	29.45
326.766	11.6
326.979	12.45
327.193	46.27
327.406	38.83
327.619	18.83
327.833	30.54
328.046	9.62
328.26	-28.91
328.473	-9.84
328.686	-35.95
328.9	-35.87
329.113	-27.75
329.326	-51.82
329.54	-37.48
329.753	-37.91
329.966	-68.67
330.179	-46.69
330.393	-24.32
330.606	-20.37
330.819	5.81
331.032	26.08
331.246	29.56
331.459	62.56
331.672	56.11
331.885	41.48
332.098	5.07
332.311	-10.02
332.525	-77.79
332.738	-84.1
332.951	-42.66
333.164	12
333.377	22.76
333.59	37.91
333.803	44.17
334.016	26.59
334.229	12.08
334.442	15.8
334.655	41.55
334.868	52.67
335.081	50.48
335.294	44.19
335.507	37.59
335.72	23.69
335.933	-0.11
336.146	6.72
336.359	9.07
336.572	-13.97
336.785	-33.85
336.997	-29
337.21	-24.81
337.423	-35.33
337.636	-32.83
337.849	-27.67
338.062	-27.31
338.274	-18.34
338.487	-20.4
338.7	-26.71
338.913	-59.25
339.125	-54.28
339.338	-100.29
339.551	-79.64
339.763	-27.37
339.976	1.99
340.189	0.07
340.402	18.86
340.614	6.28
340.827	-11.93
341.039	-28.39
341.252	-21.3
341.465	5.85
341.677	6.96
341.89	-34.55
342.102	-6.02
342.315	-28.74
342.527	-85.37
342.74	-66.1
342.952	-14.64
343.165	-14.31
343.377	13.08
343.59	17.9
343.802	25.16
344.015	31.07
344.227	36.67
344.44	18.27
344.652	18.28
344.864	11.08
345.077	23.24
345.289	19.01
345.502	22.91
345.714	12.65
345.926	18.35
346.139	-0.22
346.351	12.08
346.563	20.84
346.775	34.67
346.988	23.02
347.2	30.24
347.412	-1.62
347.624	-27.35
347.837	-38.02
348.049	-22.27
348.261	-0.75
348.473	5.65
348.685	27.63
348.897	11.76
349.11	12.91
349.322	-6.84
349.534	21.42
349.746	14.74
349.958	35.66
350.17	32.29
350.382	32.43
350.594	23.47
350.806	23.45
351.018	14.94
351.23	-2.15
351.442	-34.9
351.654	-52.38
351.866	-67.14
352.078	-56.39
352.29	-16.18
352.502	1.43
352.714	13.49
352.926	24
353.138	23.78
353.35	11.6
353.561	9.43
353.773	-10.95
353.985	-4.8
354.197	-11.12
354.409	-17.86
354.621	-21.29
354.832	-8.09
355.044	-25.86
355.256	-25.48
355.468	-9.29
355.679	-9.57
355.891	-8.64
356.103	-24.37
356.314	-18.42
356.526	-22.6
356.738	-3.37
356.949	-10.61
357.161	16.05
357.373	8.43
357.584	-6.84
357.796	-4.79
358.008	-11.91
358.219	11.27
358.431	11.37
358.642	29.06
358.854	41.62
359.065	42.96
359.277	7.73
359.488	-7.99
359.7	-36.22
359.911	-73.99
360.123	-55.34
360.334	-63.38
360.546	-71.44
360.757	-63.7
360.969	-52.13
361.18	-37.96
361.391	-25
361.603	-31.74
361.814	-16.65
362.025	-23.8
362.237	-31.82
362.448	-19.95
362.659	1.77
362.871	-8.33
363.082	-12.92
363.293	-8.71
363.504	-25.76
363.716	-43.7
363.927	-42.7
364.138	-49.88
364.349	-61.93
364.56	-41.24
364.772	-29.41
364.983	-14.93
365.194	-8.35
365.405	4.19
365.616	17.54
365.827	14.63
366.038	-7.93
366.25	-8.89
366.461	-46.09
366.672	-31.19
366.883	-7.44
367.094	4.97
367.305	1.37
367.516	17.41
367.727	-7.07
367.938	-18.6
368.149	-17.19
368.36	-13.7
368.571	-9.96
368.781	-16.83
368.992	-29.97
369.203	-49.06
369.414	-74.07
369.625	-86.55
369.836	-82.65
370.047	-108.98
370.258	-73.83
370.468	-67.84
370.679	-78.39
370.89	-64.28
371.101	-32.17
371.312	-52.03
371.522	-39
371.733	-13.93
371.944	-5.31
372.155	0.84
372.365	3.67
372.576	2.8
372.787	-15.21
372.997	-33.04
373.208	-41.57
373.419	-6.15
373.629	-32.69
373.84	-20.47
374.05	-30.13
374.261	-12.28
374.472	-40.35
374.682	15.64
374.893	13.24
375.103	47.84
375.314	31.16
375.524	30.83
375.735	22.69
375.945	31.38
376.156	-3.06
376.366	6.91
376.577	7.8
376.787	-11.46
376.997	-14.3
377.208	-8.16
377.418	-22.23
377.629	-19.83
377.839	-10.91
378.049	-12.41
378.26	9.51
378.47	20.19
378.68	13.77
378.89	11.07
379.101	1.88
379.311	-39.2
379.521	-77.07
379.732	-65.44
379.942	-56.38
380.152	-61.15
380.362	-18.92
380.572	-13.41
380.783	-3.35
380.993	3.14
381.203	17
381.413	23.21
381.623	32.36
381.833	19.9
382.043	10.06
382.253	-1.63
382.463	-3.02
382.674	-19.05
382.884	-44.11
383.094	-35.42
383.304	-20.86
383.514	-21.98
383.724	2.09
383.934	7.24
384.144	-4.45
384.353	-16.54
384.563	-12.48
384.773	-17.32
384.983	-20.71
385.193	0.19
385.403	5.33
385.613	2.76
385.823	-5.55
386.033	3.5
386.242	-10.4
386.452	-15.69
386.662	-22.6
386.872	-8.99
387.082	-13.42
387.291	-17.36
387.501	-14.31
387.711	-10.36
387.921	-17.67
388.13	-14.26
388.34	3.54
388.55	-2.89
388.759	-6.44
388.969	-3.83
389.179	-7.26
389.388	-16.02
389.598	-9.02
389.807	-12.17
390.017	-14.56
390.227	-13.71
390.436	-13.51
390.646	-12.12
390.855	-4.44
391.065	-1.08
391.274	-1.28
391.484	-1.56
391.693	1.23
391.903	0.67
392.112	3.53
392.322	7.11
392.531	11
392.74	9.19
392.95	3.51
393.159	-0.33
393.369	-1.01
393.578	-3.24
393.787	-4.24
393.997	-1.81
394.206	-1.54
394.415	-1.71
394.625	-2.61
394.834	-4.03
395.043	-2.9
395.252	0.17
395.462	2.46
395.671	3.39
395.88	4.32
396.089	4.97
396.298	2.09
396.508	0.51
396.717	0.69
396.926	1.75
397.135	1.02
397.344	0.78
397.553	1.52
397.762	2.41
397.971	2.1
398.181	2.07
398.39	2.25
398.599	1.79
398.808	1.36
399.017	2.28
399.226	3.72
399.435	4.88
399.644	5.22
399.853	4.42
400.062	3.84
400.27	2.98
400.479	2.38
400.688	1.55
400.897	2.3
401.106	2.32
401.315	2.5
401.524	2.6
401.733	3.33
401.941	3.76
402.15	3.76
402.359	3.34
402.568	3.81
402.777	3.89
402.985	3.35
403.194	3.3
403.403	3.54
403.612	2.91
403.82	2.51
404.029	2.64
404.238	2.55
404.446	2.75
404.655	2.58
404.864	2.74
405.072	2.45
405.281	2.74
405.489	2.43
405.698	2.68
405.906	2.65
406.115	2.91
406.324	2.76
406.532	2.95
406.741	3.26
406.949	3.2
407.158	3.07
407.366	3.18
407.574	3.12
407.783	2.93
407.991	2.85
408.2	3.11
408.408	2.84
408.617	2.71
408.825	2.44
409.033	2.55
409.242	2.56
409.45	2.7
409.658	2.81
409.867	3.01
410.075	2.86
410.283	2.62
410.491	2.61
410.7	2.4
410.908	2.42
411.116	2.79
411.324	2.84
411.533	2.75
411.741	3.09
411.949	2.98
412.157	2.56
412.365	2.5
412.573	2.44
412.781	2.38
412.99	2.37
413.198	2.62
413.406	2.65
413.614	2.73
413.822	2.61
414.03	2.55
414.238	2.35
414.446	2.4
414.654	2.2
414.862	2.23
415.07	2.3
415.278	2.59
415.486	2.36
415.694	2.54
415.902	2.45
416.109	2.42
416.317	2.2
416.525	2.12
416.733	2.06
416.941	2.21
417.149	2.19
417.357	2.28
417.564	2.47
417.772	2.73
417.98	2.58
418.188	2.6
418.395	2.56
418.603	2.71
418.811	2.27
419.019	2.22
419.226	2.45
419.434	2.55
419.642	2.38
419.849	2.66
420.057	2.66
420.265	2.44
420.472	2.11
420.68	2.14
420.887	2.13
421.095	2.25
421.302	2.2
421.51	2.55
421.717	2.51
421.925	2.45
422.132	2.23
422.34	2.02
422.547	1.76
422.755	1.72
422.962	1.59
423.17	1.56
423.377	1.75
423.585	2.02
423.792	1.93
423.999	2.08
424.207	2.04
424.414	2
424.621	1.91
424.829	2.19
425.036	2.05
425.243	2.35
425.451	2.26
425.658	2.07
425.865	2.14
426.072	2.23
426.28	2.37
426.487	2.48
426.694	2.61
426.901	2.25
427.108	2.21
427.315	2.01
427.523	2.25
427.73	2.21
427.937	2.28
428.144	2.18
428.351	2.06
428.558	2.15
428.765	2.11
428.972	2.07
429.179	2.27
429.386	2.55
429.593	2.16
429.8	2.06
430.007	2.27
430.214	2.37
430.421	2.16
430.628	2.18
430.835	2.13
431.042	2.15
431.249	2.09
431.456	2.02
431.662	2.2
431.869	2.37
432.076	2.4
432.283	2.41
432.49	2.45
432.697	2.39
432.903	2.16
433.11	2.06
433.317	2.19
433.524	2.43
433.73	2.35
433.937	2.65
434.144	2.55
434.35	2.38
434.557	2.22
434.764	2.27
434.97	2.18
435.177	2.4
435.384	2.31
435.59	2.37
435.797	2.59
436.003	2.68
436.21	2.64
436.416	2.91
436.623	2.89
436.829	2.96
437.036	3.03
437.242	3.07
437.449	2.89
437.655	2.89
437.862	2.78
438.068	2.68
438.275	2.76
438.481	3
438.687	3.04
438.894	3.04
439.1	3.06
439.307	3.22
439.513	3.09
439.719	3.08
439.926	3.16
440.132	3.18
440.338	2.88
440.544	3.05
440.751	3.04
440.957	3.1
441.163	3.03
441.369	3.29
441.575	3.08
441.782	3.17
441.988	2.97
442.194	2.98
442.4	2.86
442.606	3.19
442.812	3.22
443.018	3.39
443.224	3.56
443.431	3.67
443.637	3.35
443.843	3.25
444.049	3.23
444.255	3.07
444.461	3.08
444.667	3.08
444.873	3.15
445.079	3.1
445.284	3.24
445.49	3.07
445.696	2.97
445.902	2.94
446.108	2.91
446.314	2.85
446.52	2.87
446.726	3.15
446.931	3.09
447.137	3.22
447.343	3.24
447.549	3.23
447.755	3.05
447.96	3.17
448.166	2.98
448.372	3.01
448.578	3.09
448.783	3.14
448.989	3.21
449.195	3.53
449.4	3.48
449.606	3.41
449.812	3.39
450.017	3.39
450.223	3.21
450.428	3.18
450.634	3.3
450.84	3.37
451.045	3.34
451.251	3.31
451.456	3.58
451.662	3.62
451.867	3.71
452.073	3.66
452.278	3.78
452.483	3.9
452.689	3.76
452.894	3.8
453.1	3.84
453.305	3.81
453.51	3.61
453.716	3.62
453.921	3.57
454.127	3.54
454.332	3.43
454.537	3.32
454.742	3.39
454.948	3.37
455.153	3.4
455.358	3.57
455.563	3.77
455.769	3.82
455.974	3.79
456.179	3.76
456.384	3.68
456.589	3.58
456.795	3.36
457	3.4
457.205	3.69
457.41	3.68
457.615	3.69
457.82	3.86
458.025	3.92
458.23	3.7
458.435	3.7
458.64	3.6
458.845	3.77
459.05	3.7
459.255	3.72
459.46	3.68
459.665	3.73
459.87	3.65
460.075	3.63
460.28	3.63
460.485	3.8
460.69	3.82
460.895	3.69
461.099	3.64
461.304	3.79
461.509	3.77
461.714	3.72
461.919	3.9
462.123	3.87
