Data from Ofra_1a_PS_6GT17_Reflection_3.txt Node
Date: Tue Jul 20 11:00:49 EDT 2021
User: Adam
Spectrometer: FLMT01687
Trigger mode: 0
Integration Time (sec): 1.004000E0
Scans to average: 2
Electric dark correction enabled: true
Nonlinearity correction enabled: false
Boxcar width: 2
XAxis mode: Wavelengths
Number of Pixels in Spectrum: 3648
>>>>>Begin Spectral Data<<<<<
179.494	-471.07
179.716	-740.46
179.937	1559.87
180.158	-2206.37
180.38	315.53
180.601	178.32
180.823	93.27
181.044	1.19
181.265	-63.96
181.486	166.91
181.708	104.29
181.929	-7127.27
182.15	54.72
182.372	299.51
182.593	85.79
182.814	-207.13
183.035	-43.93
183.257	2.26
183.478	-26.24
183.699	-34.31
183.92	-56.38
184.141	-78.66
184.363	-66.75
184.584	-49.86
184.805	-24.16
185.026	17.95
185.247	-3.17
185.468	-45.58
185.689	-23.75
185.91	-71.88
186.132	-71.72
186.353	-30.38
186.574	-46.16
186.795	-63.22
187.016	-30.18
187.237	-48.2
187.458	-62.64
187.679	-29.32
187.9	12.77
188.121	20.52
188.342	39.69
188.563	89.81
188.784	82.32
189.005	66.87
189.226	49.62
189.447	43.44
189.667	9.57
189.888	-14.42
190.109	-47.7
190.33	-41.8
190.551	-40.93
190.772	-45.5
190.993	-70.78
191.214	-78.51
191.434	-98.77
191.655	-133.47
191.876	-40.87
192.097	23.75
192.318	43.41
192.538	17.81
192.759	12.87
192.98	24.1
193.201	9.56
193.421	-2.64
193.642	5.86
193.863	4.52
194.083	-38.37
194.304	-39.9
194.525	-20.42
194.745	-7.81
194.966	-6.29
195.187	6.17
195.407	5.09
195.628	2.03
195.848	13.26
196.069	11.82
196.29	10.67
196.51	-5.74
196.731	-11.46
196.951	-45.63
197.172	-35.87
197.392	-69.74
197.613	-17.54
197.833	-31.93
198.054	-29.65
198.274	-31.51
198.495	0.07
198.715	-26.61
198.936	-2.51
199.156	3.54
199.377	2.36
199.597	14.58
199.817	29.1
200.038	15.23
200.258	13.86
200.479	35.61
200.699	16
200.919	-0.17
201.14	-1.86
201.36	8.25
201.58	-30.06
201.801	-10.55
202.021	-23.28
202.241	0.75
202.461	-13.2
202.682	24.43
202.902	16.84
203.122	22.08
203.342	-0.79
203.563	10.79
203.783	-16.96
204.003	-43.74
204.223	-15.42
204.443	0.56
204.663	-55.46
204.884	-14.5
205.104	5.66
205.324	-27.79
205.544	-42.77
205.764	19.6
205.984	13.19
206.204	29.89
206.424	6.53
206.644	-13.39
206.864	-56.56
207.084	-20.57
207.304	-34.49
207.525	-18.45
207.745	-3.4
207.964	1.29
208.184	-19.91
208.404	-25.07
208.624	-2.13
208.844	-4.7
209.064	-1.41
209.284	-13
209.504	-21.28
209.724	-29.95
209.944	-38.41
210.164	-45.21
210.384	-58.67
210.604	-111.16
210.823	-133.94
211.043	-81.78
211.263	-162.08
211.483	-88.74
211.703	-50.03
211.922	-50.54
212.142	-44.61
212.362	-6.29
212.582	17.14
212.801	23.38
213.021	3.86
213.241	-24.97
213.461	-31.46
213.68	-43.17
213.9	-37.5
214.12	-31.44
214.339	-15.63
214.559	-10.65
214.779	-1.9
214.998	-19.16
215.218	-22.53
215.438	-34.01
215.657	-49.06
215.877	-60.62
216.096	-19.27
216.316	-14.03
216.535	0.46
216.755	-0.3
216.974	-7.07
217.194	-44.33
217.413	-42.65
217.633	-65.79
217.852	-51.51
218.072	-43.04
218.291	-27.94
218.511	-31.47
218.73	-28.77
218.95	-61.03
219.169	-36.61
219.389	-24.66
219.608	-12.74
219.827	14.5
220.047	48.55
220.266	53.53
220.485	53.46
220.705	55.94
220.924	49.11
221.143	30.86
221.363	24.58
221.582	11.03
221.801	13.99
222.021	23.08
222.24	-3.48
222.459	12.36
222.678	15.17
222.897	1.43
223.117	-12.85
223.336	6.09
223.555	6.42
223.774	26.7
223.993	55.35
224.213	65.7
224.432	41.11
224.651	21.3
224.87	17.22
225.089	5.01
225.308	11.25
225.527	8.74
225.746	11.68
225.965	10.9
226.184	-20.81
226.404	-47.57
226.623	-26.84
226.842	-21.09
227.061	-30.75
227.28	7.85
227.499	28.42
227.718	27.15
227.936	19.74
228.155	23.44
228.374	11.27
228.593	0.38
228.812	-6.9
229.031	12.14
229.25	-21.01
229.469	-34.86
229.688	-29.03
229.907	-19.48
230.125	-28.32
230.344	5.67
230.563	18.22
230.782	26.85
231.001	26.38
231.22	28.63
231.438	28.35
231.657	15.19
231.876	4.56
232.095	1.35
232.313	-8.04
232.532	-8.06
232.751	-11.47
232.969	9.62
233.188	16.34
233.407	19.99
233.625	14.77
233.844	23.41
234.063	14.68
234.281	9.53
234.5	7.28
234.719	7.96
234.937	-6.76
235.156	-33.76
235.374	-20.39
235.593	-14.18
235.811	-6.18
236.03	1.6
236.249	9.83
236.467	0.33
236.686	-20.44
236.904	-15.14
237.123	-16.29
237.341	-33.53
237.559	-27.19
237.778	3.31
237.996	-31.67
238.215	-71.08
238.433	-82.83
238.652	-38.26
238.87	-59.03
239.088	-35.03
239.307	-9.43
239.525	-6.87
239.743	-16.46
239.962	-38.18
240.18	-24.36
240.398	-24.78
240.617	-26.15
240.835	-30.64
241.053	-6.72
241.271	-12.69
241.49	-10.7
241.708	-16.22
241.926	-33.33
242.144	-30.03
242.363	-59.35
242.581	-127.36
242.799	-104.54
243.017	-45.96
243.235	-36.65
243.453	-45.68
243.672	-30.21
243.89	-16.5
244.108	-7.69
244.326	10.08
244.544	27.39
244.762	19.28
244.98	17.78
245.198	15.56
245.416	0.52
245.634	-5.45
245.852	-16.63
246.07	1.91
246.288	3.01
246.506	-7.37
246.724	-1.05
246.942	17.27
247.16	18
247.378	0.34
247.596	27.36
247.814	5.1
248.032	-14.41
248.25	-22.67
248.468	-0.71
248.685	8.74
248.903	8.53
249.121	7.86
249.339	10.2
249.557	13.22
249.775	7.01
249.992	7.68
250.21	11.72
250.428	18.05
250.646	13.66
250.863	0.51
251.081	4.77
251.299	0.95
251.517	-9.11
251.734	-8.84
251.952	1.46
252.17	4.97
252.387	6.23
252.605	2.35
252.823	-10.59
253.04	4.6
253.258	12.2
253.475	21.39
253.693	4.77
253.911	10.34
254.128	2.92
254.346	-0.12
254.563	4.61
254.781	6.9
254.998	4.91
255.216	-28.81
255.433	-43.77
255.651	-58.55
255.868	-52.73
256.086	-35.7
256.303	-4.26
256.521	4.09
256.738	10.42
256.956	12.13
257.173	-0.8
257.39	-11.11
257.608	-17.13
257.825	-8.14
258.043	8.77
258.26	9.1
258.477	4.22
258.695	2.75
258.912	-8.82
259.129	-21.85
259.346	-28.3
259.564	-18.7
259.781	-7.37
259.998	-3.44
260.216	11.05
260.433	15.95
260.65	14.74
260.867	19.99
261.084	20.64
261.302	-1.08
261.519	-2.62
261.736	-13.07
261.953	-27.12
262.17	-18.64
262.387	-12.87
262.604	-9.31
262.822	5.36
263.039	13.72
263.256	14.14
263.473	20.16
263.69	16.71
263.907	15.36
264.124	4.22
264.341	8.14
264.558	-1.93
264.775	-4.96
264.992	-3.98
265.209	1.98
265.426	-8.45
265.643	9.01
265.86	6.81
266.077	30.2
266.294	27.52
266.51	35.92
266.727	30.02
266.944	28.01
267.161	21.93
267.378	15.75
267.595	-26.85
267.812	-37.83
268.028	-44.92
268.245	-37.16
268.462	-23.9
268.679	14.72
268.896	28.45
269.112	32.29
269.329	6.34
269.546	28.52
269.763	27.01
269.979	6.2
270.196	-0.91
270.413	8.15
270.629	-8.1
270.846	-3.27
271.063	2.86
271.279	15.36
271.496	4.77
271.712	12.93
271.929	7.87
272.146	3.25
272.362	0.68
272.579	3.29
272.795	-25.46
273.012	-37.28
273.228	-13.52
273.445	-26.14
273.661	-23.93
273.878	-2.56
274.094	-6.47
274.311	-16.47
274.527	-22.36
274.744	-9.83
274.96	1.22
275.177	6.88
275.393	11.55
275.609	23.45
275.826	13.96
276.042	-2.42
276.259	-3.37
276.475	-19.34
276.691	-21
276.908	-18.92
277.124	-11.4
277.34	-8.96
277.557	-2.17
277.773	-20.99
277.989	-35.96
278.205	-38.95
278.422	-35.05
278.638	-36.4
278.854	-23.99
279.07	2.34
279.286	-1.69
279.503	8.73
279.719	6.42
279.935	5.35
280.151	-15.22
280.367	5.56
280.583	-12.31
280.799	-10.25
281.016	-46.51
281.232	-37.84
281.448	-51.25
281.664	-43.22
281.88	-26.91
282.096	-0.34
282.312	9.22
282.528	9.02
282.744	23.56
282.96	2.38
283.176	-7.62
283.392	-35.03
283.608	-39.95
283.824	-79.66
284.04	-125.02
284.256	-74.85
284.471	-37.44
284.687	-39.55
284.903	-14.5
285.119	11.95
285.335	22.83
285.551	16.79
285.767	22.4
285.982	8.93
286.198	-39.33
286.414	-29.39
286.63	-27.49
286.846	-18.53
287.061	-6.82
287.277	11.39
287.493	-27.57
287.709	-34.33
287.924	-26.9
288.14	-9.13
288.356	1
288.571	22.49
288.787	11.95
289.003	20.61
289.218	-3.18
289.434	-9.43
289.65	-7.15
289.865	-3.29
290.081	1.42
290.296	19.5
290.512	27.42
290.727	10.68
290.943	22.13
291.159	15.28
291.374	-14.19
291.59	-13.46
291.805	-18.53
292.021	-28.93
292.236	-29.93
292.451	-16.25
292.667	-19.3
292.882	0.84
293.098	1.95
293.313	0.53
293.529	6.68
293.744	-7.07
293.959	-17.54
294.175	-8.92
294.39	-24.84
294.605	-14.14
294.821	-2.59
295.036	6.61
295.251	13.26
295.467	17.4
295.682	29.56
295.897	21.64
296.112	11.54
296.328	11.7
296.543	6.45
296.758	-23.14
296.973	-2.44
297.188	6.1
297.404	-32.38
297.619	-29.47
297.834	-54.99
298.049	-70.2
298.264	-78.47
298.479	-73.14
298.694	-21.62
298.909	-7.78
299.125	-9.91
299.34	1.25
299.555	13.31
299.77	22.73
299.985	27.07
300.2	29.45
300.415	17.58
300.63	0.63
300.845	-30.47
301.06	-35.67
301.275	-36.44
301.49	-22.91
301.704	-7.74
301.919	-12.31
302.134	-11.74
302.349	-21.76
302.564	-26.31
302.779	-24.4
302.994	8.43
303.209	7.44
303.423	30.61
303.638	38.61
303.853	3.32
304.068	-32.65
304.283	-9.47
304.497	-41.3
304.712	-25.3
304.927	10.32
305.142	22.2
305.356	15.88
305.571	27.88
305.786	30.5
306	33.99
306.215	21.94
306.43	20.09
306.644	15.53
306.859	-1.83
307.074	3.03
307.288	9.42
307.503	20.98
307.717	10.57
307.932	20.86
308.147	11.87
308.361	14.49
308.576	-15.7
308.79	-10.16
309.005	-25.03
309.219	-17.97
309.434	-6.4
309.648	0.89
309.863	0.26
310.077	-3.95
310.292	0.91
310.506	-42.07
310.72	-40.95
310.935	-21.85
311.149	-22.66
311.364	-34.97
311.578	-13.45
311.792	-9.68
312.007	-8.13
312.221	-16.32
312.435	-4.56
312.649	10.31
312.864	-26.77
313.078	-28.58
313.292	-35.84
313.507	-41.24
313.721	-37.36
313.935	8.97
314.149	0.74
314.363	31.45
314.578	26.28
314.792	-1.22
315.006	-7.72
315.22	-9.25
315.434	-14.42
315.648	-11.99
315.862	-11.64
316.077	-24.74
316.291	-15.26
316.505	-35.37
316.719	-19.97
316.933	-6.64
317.147	-2.31
317.361	-3.7
317.575	-3.6
317.789	-6.61
318.003	-9.62
318.217	-4.5
318.431	-14.25
318.645	8.29
318.859	8.03
319.073	16.02
319.287	6.94
319.5	8.78
319.714	-0.79
319.928	-4.35
320.142	-7.77
320.356	4.84
320.57	-6.67
320.784	-8.11
320.997	-27.56
321.211	-5.53
321.425	-22.52
321.639	-0.97
321.853	14.31
322.066	15.88
322.28	-12.24
322.494	-1.62
322.707	-4.94
322.921	-21.36
323.135	-16.23
323.349	-1.23
323.562	-9.83
323.776	-20.26
323.989	-10.02
324.203	-19.68
324.417	-18.98
324.63	-17.1
324.844	-25.18
325.057	-41.45
325.271	-24.58
325.485	-39.96
325.698	-23.28
325.912	-3.85
326.125	-9.2
326.339	-3.42
326.552	-6.34
326.766	-19.42
326.979	-39.9
327.193	-32.17
327.406	-42.27
327.619	-18.72
327.833	-17.46
328.046	0.92
328.26	-9.94
328.473	0.59
328.686	-7.23
328.9	12.05
329.113	9.25
329.326	12.95
329.54	9.44
329.753	11.74
329.966	-2.49
330.179	-18.3
330.393	-6.4
330.606	-19.9
330.819	-22.19
331.032	-23.49
331.246	1.33
331.459	5.13
331.672	5.11
331.885	-7.85
332.098	-7.41
332.311	-19.74
332.525	-20.27
332.738	-10.6
332.951	-10.62
333.164	-9.33
333.377	-0.22
333.59	-0.87
333.803	-4.69
334.016	1.76
334.229	-1.19
334.442	-1.41
334.655	0.2
334.868	-2.39
335.081	-3.98
335.294	-14.52
335.507	-20.65
335.72	-19.67
335.933	-8.33
336.146	-17.94
336.359	7.23
336.572	8.93
336.785	4.1
336.997	-16.43
337.21	1.6
337.423	-31.51
337.636	-19.7
337.849	-16.03
338.062	4.01
338.274	18.19
338.487	-0.86
338.7	-9.02
338.913	-7.22
339.125	-33.97
339.338	-45.73
339.551	-22.73
339.763	-31.02
339.976	-31.86
340.189	-31.58
340.402	-21.44
340.614	-14.62
340.827	4.8
341.039	-4.64
341.252	3.92
341.465	-4.58
341.677	-6.71
341.89	-24.08
342.102	-1.98
342.315	-0.11
342.527	5.75
342.74	-12.28
342.952	-4
343.165	-19.83
343.377	-4.92
343.59	-15.86
343.802	2.64
344.015	19.09
344.227	24.58
344.44	9.15
344.652	15.33
344.864	8.72
345.077	-2.39
345.289	-6.6
345.502	10.31
345.714	-3.11
345.926	-5.13
346.139	-37.07
346.351	-29.69
346.563	-27.92
346.775	-13.43
346.988	-3.84
347.2	2.31
347.412	9.51
347.624	4.3
347.837	7.95
348.049	7.39
348.261	3.44
348.473	-16.89
348.685	-22.89
348.897	-30.91
349.11	-30.83
349.322	-8.2
349.534	6.37
349.746	12.3
349.958	0.97
350.17	-1.5
350.382	5.28
350.594	-2.66
350.806	12.06
351.018	16.62
351.23	22.66
351.442	21.08
351.654	29.86
351.866	15.42
352.078	26.32
352.29	14.27
352.502	-1.04
352.714	-14.55
352.926	-17.04
353.138	-17.44
353.35	-11.39
353.561	-0.34
353.773	1.92
353.985	11.36
354.197	10.05
354.409	11.59
354.621	2.51
354.832	-7.54
355.044	-27.72
355.256	-34.61
355.468	-41.69
355.679	-15.63
355.891	-7.66
356.103	-2.92
356.314	-9.19
356.526	-16.28
356.738	-27.11
356.949	-27.4
357.161	-20.04
357.373	-22.03
357.584	-17.67
357.796	-8.92
358.008	-7.67
358.219	-6.84
358.431	1.47
358.642	10.8
358.854	1.75
359.065	-14.18
359.277	-11.21
359.488	-18.65
359.7	-24.49
359.911	-40.2
360.123	-10.46
360.334	-27.05
360.546	-23.07
360.757	-16.29
360.969	-6.07
361.18	-22.57
361.391	-2.15
361.603	4.93
361.814	4.57
362.025	14.58
362.237	16.95
362.448	16.81
362.659	7.26
362.871	2.77
363.082	1.59
363.293	-1.56
363.504	-24.46
363.716	-13.11
363.927	-5.29
364.138	-31.08
364.349	-38.78
364.56	-54.38
364.772	-43.61
364.983	-30.56
365.194	-5.64
365.405	0.05
365.616	24.72
365.827	15.53
366.038	10.16
366.25	8.11
366.461	7.47
366.672	4.61
366.883	10.28
367.094	10.29
367.305	-4.61
367.516	12.15
367.727	1.48
367.938	-17.5
368.149	-35.09
368.36	-42.8
368.571	-69.19
368.781	-67.81
368.992	-53.78
369.203	-33.68
369.414	-18.13
369.625	-16.74
369.836	8.6
370.047	13.57
370.258	17.62
370.468	9.16
370.679	5.06
370.89	-16.97
371.101	-5.55
371.312	-22.5
371.522	-19.98
371.733	-19.87
371.944	-30.19
372.155	-38.23
372.365	-28.36
372.576	-39.45
372.787	-39.83
372.997	-27.09
373.208	-20.58
373.419	-10.08
373.629	-7.66
373.84	1.98
374.05	-4.25
374.261	-18.98
374.472	-21.86
374.682	-11.01
374.893	-12.88
375.103	6.73
375.314	11.97
375.524	8.25
375.735	8.61
375.945	18.72
376.156	9.92
376.366	13.68
376.577	8.22
376.787	13.47
376.997	11.92
377.208	11.88
377.418	7.02
377.629	11.14
377.839	7.57
378.049	6.35
378.26	-4
378.47	-5.14
378.68	0.7
378.89	0.81
379.101	-1.26
379.311	2.7
379.521	-1.88
379.732	-11.65
379.942	-16.56
380.152	-22.45
380.362	-10.2
380.572	5.54
380.783	12.68
380.993	26.08
381.203	26.46
381.413	22.49
381.623	15.92
381.833	16.58
382.043	6.69
382.253	9.77
382.463	18.78
382.674	20.93
382.884	20.27
383.094	20.82
383.304	16.87
383.514	3.53
383.724	-3.23
383.934	-8.38
384.144	-4.97
384.353	0.63
384.563	-0.68
384.773	4.19
384.983	0.32
385.193	-8.66
385.403	-14.06
385.613	-4.02
385.823	-6.32
386.033	-1.9
386.242	-3.39
386.452	-0.41
386.662	-5.1
386.872	1.89
387.082	-1.04
387.291	1.46
387.501	3.54
387.711	3.19
387.921	-0.99
388.13	3.48
388.34	5.37
388.55	-2.58
388.759	-6.65
388.969	-7.78
389.179	-10.07
389.388	-9.81
389.598	-9.99
389.807	-13.59
390.017	-13.08
390.227	-12.66
390.436	-10.34
390.646	-8.36
390.855	-1.32
391.065	-0.66
391.274	0.86
391.484	0.17
391.693	1.64
391.903	-2.03
392.112	-0.63
392.322	-2.73
392.531	-3.56
392.74	-4.9
392.95	-3.87
393.159	-5.12
393.369	-4.26
393.578	-4.34
393.787	-2.56
393.997	-1.61
394.206	-2.73
394.415	-1.48
394.625	-1.22
394.834	-1.97
395.043	-0.76
395.252	2.76
395.462	3.2
395.671	3.51
395.88	3.83
396.089	3.12
396.298	1.89
396.508	1.72
396.717	1.55
396.926	0.93
397.135	1.05
397.344	0.26
397.553	0.09
397.762	1.32
397.971	1.69
398.181	1.62
398.39	2.11
398.599	2.08
398.808	1.57
399.017	2.27
399.226	2.39
399.435	2.22
399.644	2.93
399.853	2.86
400.062	2.3
400.27	2.02
400.479	2.31
400.688	1.94
400.897	1.73
401.106	2
401.315	2.04
401.524	2.1
401.733	1.73
401.941	2.27
402.15	2.34
402.359	2.38
402.568	2.25
402.777	2.27
402.985	1.75
403.194	1.47
403.403	1.7
403.612	1.59
403.82	1.56
404.029	1.76
404.238	1.85
404.446	1.95
404.655	2.02
404.864	2.05
405.072	2.04
405.281	2.08
405.489	1.67
405.698	1.66
405.906	1.9
406.115	1.81
406.324	1.83
406.532	2.03
406.741	2.09
406.949	2.01
407.158	2.09
407.366	1.98
407.574	2.04
407.783	2.09
407.991	1.99
408.2	1.92
408.408	2.02
408.617	1.92
408.825	1.79
409.033	1.9
409.242	2.1
409.45	1.98
409.658	2.02
409.867	2.03
410.075	2
410.283	1.88
410.491	1.89
410.7	1.87
410.908	1.86
411.116	1.9
411.324	1.81
411.533	1.79
411.741	1.7
411.949	1.79
412.157	1.65
412.365	1.74
412.573	1.83
412.781	1.78
412.99	1.74
413.198	1.7
413.406	1.76
413.614	1.72
413.822	1.89
414.03	1.9
414.238	2
414.446	1.93
414.654	1.83
414.862	1.77
415.07	1.79
415.278	1.79
415.486	1.63
415.694	1.77
415.902	1.71
416.109	1.55
416.317	1.56
416.525	1.55
416.733	1.43
416.941	1.45
417.149	1.42
417.357	1.51
417.564	1.51
417.772	1.65
417.98	1.65
418.188	1.67
418.395	1.4
418.603	1.42
418.811	1.33
419.019	1.36
419.226	1.52
419.434	1.69
419.642	1.68
419.849	1.69
420.057	1.75
420.265	1.67
420.472	1.57
420.68	1.57
420.887	1.59
421.095	1.55
421.302	1.46
421.51	1.49
421.717	1.65
421.925	1.57
422.132	1.46
422.34	1.32
422.547	1.25
422.755	1.14
422.962	1.28
423.17	1.21
423.377	1.43
423.585	1.57
423.792	1.5
423.999	1.48
424.207	1.54
424.414	1.36
424.621	1.25
424.829	1.33
425.036	1.29
425.243	1.4
425.451	1.6
425.658	1.72
425.865	1.71
426.072	1.82
426.28	1.87
426.487	1.84
426.694	1.7
426.901	1.76
427.108	1.56
427.315	1.55
427.523	1.39
427.73	1.37
427.937	1.24
428.144	1.14
428.351	1.11
428.558	1.27
428.765	1.38
428.972	1.38
429.179	1.37
429.386	1.35
429.593	1.27
429.8	1.27
430.007	1.4
430.214	1.45
430.421	1.47
430.628	1.55
430.835	1.5
431.042	1.47
431.249	1.51
431.456	1.52
431.662	1.64
431.869	1.72
432.076	1.77
432.283	1.95
432.49	1.85
432.697	1.7
432.903	1.7
433.11	1.75
433.317	1.63
433.524	1.73
433.73	1.77
433.937	1.93
434.144	1.85
434.35	1.81
434.557	1.83
434.764	1.85
434.97	1.63
435.177	1.84
435.384	2.01
435.59	2.07
435.797	2.19
436.003	2.16
436.21	1.92
436.416	1.89
436.623	1.89
436.829	1.77
437.036	1.96
437.242	1.99
437.449	1.96
437.655	1.93
437.862	2.03
438.068	1.98
438.275	2.11
438.481	2.17
438.687	2.16
438.894	2.18
439.1	2.07
439.307	2.17
439.513	2.21
439.719	2.28
439.926	2.28
440.132	2.46
440.338	2.28
440.544	2.21
440.751	2.09
440.957	2.06
441.163	1.91
441.369	2.02
441.575	1.94
441.782	2.06
441.988	2.09
442.194	2.17
442.4	2.09
442.606	2.28
442.812	2.27
443.018	2.19
443.224	2.34
443.431	2.34
443.637	2.25
443.843	2.11
444.049	2.19
444.255	2.15
444.461	2.09
444.667	2.08
444.873	2.19
445.079	2.17
445.284	2.15
445.49	2.23
445.696	2.24
445.902	2.3
446.108	2.37
446.314	2.34
446.52	2.37
446.726	2.41
446.931	2.3
447.137	2.24
447.343	2.34
447.549	2.32
447.755	2.29
447.96	2.34
448.166	2.3
448.372	2.2
448.578	2.18
448.783	2.14
448.989	2.23
449.195	2.3
449.4	2.47
449.606	2.53
449.812	2.56
450.017	2.58
450.223	2.52
450.428	2.47
450.634	2.45
450.84	2.48
451.045	2.43
451.251	2.48
451.456	2.45
451.662	2.43
451.867	2.43
452.073	2.47
452.278	2.44
452.483	2.52
452.689	2.57
452.894	2.65
453.1	2.59
453.305	2.6
453.51	2.55
453.716	2.55
453.921	2.56
454.127	2.56
454.332	2.57
454.537	2.51
454.742	2.46
454.948	2.36
455.153	2.38
455.358	2.44
455.563	2.52
455.769	2.56
455.974	2.54
456.179	2.55
456.384	2.46
456.589	2.39
456.795	2.38
457	2.43
457.205	2.47
457.41	2.41
457.615	2.35
457.82	2.43
458.025	2.4
458.23	2.37
458.435	2.55
458.64	2.69
458.845	2.75
459.05	2.77
459.255	2.78
459.46	2.7
459.665	2.64
459.87	2.51
460.075	2.55
460.28	2.65
460.485	2.72
460.69	2.75
460.895	2.85
461.099	2.73
461.304	2.52
461.509	2.51
461.714	2.57
461.919	2.51
462.123	2.59
462.328	2.64
462.533	2.53
462.738	2.43
462.942	2.38
463.147	2.44
463.352	2.52
463.556	2.56
463.761	2.62
463.966	2.66
464.17	2.66
464.375	2.74
464.58	2.78
