Data from Ofra_2a_PS_8HS21_Reflection_1.txt Node
Date: Tue Jul 20 09:55:45 EDT 2021
User: Adam
Spectrometer: FLMT01687
Trigger mode: 0
Integration Time (sec): 9.450000E-1
Scans to average: 3
Electric dark correction enabled: true
Nonlinearity correction enabled: false
Boxcar width: 3
XAxis mode: Wavelengths
Number of Pixels in Spectrum: 3648
>>>>>Begin Spectral Data<<<<<
179.494	1158.58
179.716	698.59
179.937	819.78
180.158	3232.81
180.38	-1812.79
180.601	-328.62
180.823	-161.64
181.044	-18.73
181.265	14.83
181.486	113.08
181.708	1569.57
181.929	167.91
182.15	-311.36
182.372	-9.03
182.593	46.92
182.814	142.51
183.035	151.65
183.257	50.47
183.478	43.89
183.699	55.33
183.92	50.65
184.141	58.53
184.363	50.14
184.584	25.63
184.805	43.03
185.026	58.49
185.247	56.43
185.468	51.16
185.689	53.3
185.91	38.01
186.132	54.93
186.353	32.54
186.574	26.05
186.795	9.45
187.016	12.02
187.237	14.17
187.458	16.49
187.679	-5.83
187.9	22.9
188.121	32.78
188.342	67.22
188.563	65.85
188.784	60.19
189.005	65.43
189.226	64.99
189.447	52.85
189.667	48.22
189.888	36.38
190.109	30.48
190.33	7.56
190.551	-2.57
190.772	-6.48
190.993	6.45
191.214	-3.41
191.434	-2.55
191.655	11.41
191.876	28.69
192.097	29.44
192.318	43.65
192.538	47.68
192.759	61.51
192.98	66.19
193.201	63.68
193.421	70.55
193.642	65.3
193.863	75.39
194.083	62.7
194.304	61.94
194.525	55.32
194.745	40.09
194.966	28.06
195.187	50.3
195.407	41.41
195.628	43.49
195.848	26.49
196.069	24.93
196.29	27.81
196.51	31.12
196.731	36.38
196.951	34.94
197.172	28.07
197.392	37.98
197.613	32.15
197.833	42.88
198.054	45.51
198.274	29.23
198.495	35.39
198.715	23.02
198.936	31.22
199.156	34.51
199.377	40.25
199.597	16.28
199.817	29.92
200.038	24.29
200.258	32.89
200.479	35.81
200.699	45.95
200.919	24.95
201.14	40.78
201.36	53.34
201.58	68.62
201.801	63.37
202.021	57.51
202.241	51.81
202.461	64.6
202.682	66.56
202.902	50
203.122	33.79
203.342	41.39
203.563	44.94
203.783	41.69
204.003	41.25
204.223	37.15
204.443	34.55
204.663	43.88
204.884	36.95
205.104	38.92
205.324	53.77
205.544	49.06
205.764	51.1
205.984	52.21
206.204	52.59
206.424	57.68
206.644	43.32
206.864	22.59
207.084	39.18
207.304	28.05
207.525	31.56
207.745	37.92
207.964	41.11
208.184	39.4
208.404	53.23
208.624	27.45
208.844	26.39
209.064	26.32
209.284	28.14
209.504	20.07
209.724	13.72
209.944	2.76
210.164	9.36
210.384	31.58
210.604	35.31
210.823	16.58
211.043	13.53
211.263	31.31
211.483	27.07
211.703	31.38
211.922	36.25
212.142	41.32
212.362	46.61
212.582	46.51
212.801	45.36
213.021	56.64
213.241	53.22
213.461	26.24
213.68	18.82
213.9	23.74
214.12	21.92
214.339	23.79
214.559	36.97
214.779	47.43
214.998	54.45
215.218	59.78
215.438	65.81
215.657	61.56
215.877	66.55
216.096	55.75
216.316	55.96
216.535	59.06
216.755	41.72
216.974	32.79
217.194	28.15
217.413	36.05
217.633	23.19
217.852	19.28
218.072	20.31
218.291	46.55
218.511	43.49
218.73	46.71
218.95	42.27
219.169	47.91
219.389	45.06
219.608	45.37
219.827	37.13
220.047	46.25
220.266	43.61
220.485	39.33
220.705	23.2
220.924	20.65
221.143	11.56
221.363	13.32
221.582	10.6
221.801	15.31
222.021	19.01
222.24	30.84
222.459	29.04
222.678	28.24
222.897	18.85
223.117	19.25
223.336	23.79
223.555	17.56
223.774	21.18
223.993	31.46
224.213	40.05
224.432	51.28
224.651	45.48
224.87	28.59
225.089	30.9
225.308	48.24
225.527	43.14
225.746	36.57
225.965	35.14
226.184	33.47
226.404	46.92
226.623	48.23
226.842	26.83
227.061	29.47
227.28	44.75
227.499	48.04
227.718	46.1
227.936	47.72
228.155	44.54
228.374	51.6
228.593	54.9
228.812	43.14
229.031	35.16
229.25	45.21
229.469	45.68
229.688	47.62
229.907	38.08
230.125	26.39
230.344	33.73
230.563	41.63
230.782	30.38
231.001	22.16
231.22	16.91
231.438	21.68
231.657	30.26
231.876	27.62
232.095	25.19
232.313	35.25
232.532	42.4
232.751	50.65
232.969	63.9
233.188	68.87
233.407	61.26
233.625	56.71
233.844	57.1
234.063	58.6
234.281	46.23
234.5	39.33
234.719	32.03
234.937	46.44
235.156	46.48
235.374	43.52
235.593	34.81
235.811	48.61
236.03	38.92
236.249	46.11
236.467	34.91
236.686	42.69
236.904	41.2
237.123	51.7
237.341	47.48
237.559	52.76
237.778	54.65
237.996	54.48
238.215	45.43
238.433	43.73
238.652	37.91
238.87	37.21
239.088	29.71
239.307	25.72
239.525	17.3
239.743	13.61
239.962	14.81
240.18	25.52
240.398	27.34
240.617	40.04
240.835	38.87
241.053	56.93
241.271	56.6
241.49	45.77
241.708	42.75
241.926	24.37
242.144	12.6
242.363	27.16
242.581	21.72
242.799	22.99
243.017	25.63
243.235	22.76
243.453	42.52
243.672	49.09
243.89	44.02
244.108	43.64
244.326	52.58
244.544	66.65
244.762	56.26
244.98	48.82
245.198	42.16
245.416	43.8
245.634	49.55
245.852	42.53
246.07	36.08
246.288	41.15
246.506	46.85
246.724	58.61
246.942	56.26
247.16	54.9
247.378	53.2
247.596	58.51
247.814	43.11
248.032	40.67
248.25	34.82
248.468	38.19
248.685	34.79
248.903	37.28
249.121	34.35
249.339	43.11
249.557	44.09
249.775	36.73
249.992	22.44
250.21	18.38
250.428	10.71
250.646	8.86
250.863	10.34
251.081	5.38
251.299	24.04
251.517	37.74
251.734	31.84
251.952	48.71
252.17	43.38
252.387	37.5
252.605	36.25
252.823	21.87
253.04	18.52
253.258	24.61
253.475	17.46
253.693	34.4
253.911	39.23
254.128	35.62
254.346	32.69
254.563	21.15
254.781	21.42
254.998	21.68
255.216	19.45
255.433	13.41
255.651	20.75
255.868	20.29
256.086	37.86
256.303	34.36
256.521	22.05
256.738	13.78
256.956	17.03
257.173	20.53
257.39	24.21
257.608	18.58
257.825	19.2
258.043	24.18
258.26	19.84
258.477	22.11
258.695	18.18
258.912	32.04
259.129	28.36
259.346	29.14
259.564	26.31
259.781	38.43
259.998	37.4
260.216	38.74
260.433	28.09
260.65	38.13
260.867	34.24
261.084	52.51
261.302	50.39
261.519	42.23
261.736	36.49
261.953	34.28
262.17	37.95
262.387	41.01
262.604	15.52
262.822	14.77
263.039	20.73
263.256	18.72
263.473	19.91
263.69	3.04
263.907	3.02
264.124	15.97
264.341	13
264.558	16.83
264.775	18.85
264.992	18.21
265.209	28.88
265.426	32.96
265.643	30.54
265.86	27.49
266.077	29.86
266.294	30.62
266.51	29.08
266.727	18.35
266.944	4.25
267.161	2.1
267.378	-4.31
267.595	-15.93
267.812	-22.62
268.028	-7.77
268.245	-3.04
268.462	-0.33
268.679	0.28
268.896	11.95
269.112	22.18
269.329	31.87
269.546	30.06
269.763	36.04
269.979	41.69
270.196	43.12
270.413	41.97
270.629	38.36
270.846	38.44
271.063	34.46
271.279	26.81
271.496	21.13
271.712	22.89
271.929	26.65
272.146	26.1
272.362	14.13
272.579	11.93
272.795	13.75
273.012	12.94
273.228	10.71
273.445	11.23
273.661	10.94
273.878	15.15
274.094	18.47
274.311	24.02
274.527	21.91
274.744	30.72
274.96	22.28
275.177	30.21
275.393	34.66
275.609	36.18
275.826	25.41
276.042	44.42
276.259	36.12
276.475	40.91
276.691	41.9
276.908	35.64
277.124	34.99
277.34	44.69
277.557	33.95
277.773	34.25
277.989	39.21
278.205	14.41
278.422	23.89
278.638	25.05
278.854	18.18
279.07	9.11
279.286	7.85
279.503	4.57
279.719	29.84
279.935	20.64
280.151	28.22
280.367	29.99
280.583	40.48
280.799	41.59
281.016	36.16
281.232	29.06
281.448	25.71
281.664	24.92
281.88	29.73
282.096	21.3
282.312	15.07
282.528	13.89
282.744	12.53
282.96	17.23
283.176	19.79
283.392	24.56
283.608	31.38
283.824	28.7
284.04	29.54
284.256	37.19
284.471	44.07
284.687	28.14
284.903	18.64
285.119	1.22
285.335	11.21
285.551	22.85
285.767	12.72
285.982	11.68
286.198	15.28
286.414	26.46
286.63	51.28
286.846	43.32
287.061	38.68
287.277	47.06
287.493	37.41
287.709	41.67
287.924	35.58
288.14	35.29
288.356	43.05
288.571	36.71
288.787	44.17
289.003	53.5
289.218	48.05
289.434	50.44
289.65	42.41
289.865	38.68
290.081	37.98
290.296	27.94
290.512	33.41
290.727	41.63
290.943	44.15
291.159	33.79
291.374	36.94
291.59	33.34
291.805	37.79
292.021	19.02
292.236	9.76
292.451	2.58
292.667	8.78
292.882	3.17
293.098	10.19
293.313	11.02
293.529	15.35
293.744	23.97
293.959	36.17
294.175	35.8
294.39	39.84
294.605	35
294.821	29.01
295.036	33.25
295.251	32.49
295.467	23
295.682	26.39
295.897	27.87
296.112	29.31
296.328	31.23
296.543	28.75
296.758	25.7
296.973	33.09
297.188	36.88
297.404	28.75
297.619	23.51
297.834	28.07
298.049	29.21
298.264	24.18
298.479	14.34
298.694	16.05
298.909	13.21
299.125	22.96
299.34	21.99
299.555	25.83
299.77	24.5
299.985	19.7
300.2	19.28
300.415	27.33
300.63	21.52
300.845	27.41
301.06	29.06
301.275	36.95
301.49	48.76
301.704	43.29
301.919	38.42
302.134	41.27
302.349	30.22
302.564	22.65
302.779	18.23
302.994	11.02
303.209	14.37
303.423	23.25
303.638	19.21
303.853	30.27
304.068	32.95
304.283	31.35
304.497	28.14
304.712	31.38
304.927	30.07
305.142	30.37
305.356	28.26
305.571	25.8
305.786	22
306	23.67
306.215	25.05
306.43	28.5
306.644	34.99
306.859	31.57
307.074	32.8
307.288	34.12
307.503	34.24
307.717	29.6
307.932	32.15
308.147	22.59
308.361	25.55
308.576	27.18
308.79	30.31
309.005	32.84
309.219	38.25
309.434	34.23
309.648	33.06
309.863	32.62
310.077	19.73
310.292	20.35
310.506	24.02
310.72	22.53
310.935	23.27
311.149	26.88
311.364	23.07
311.578	24.11
311.792	19.16
312.007	12.24
312.221	17.45
312.435	15.09
312.649	-17.74
312.864	-21.43
313.078	-0.28
313.292	8.34
313.507	19.19
313.721	13.68
313.935	40.3
314.149	57.46
314.363	60.56
314.578	77.91
314.792	68.62
315.006	64.31
315.22	63.03
315.434	45.8
315.648	54.54
315.862	45.64
316.077	22.37
316.291	33.39
316.505	29.92
316.719	10.29
316.933	9.3
317.147	0.51
317.361	8.73
317.575	21.33
317.789	17.62
318.003	22.27
318.217	30.7
318.431	37.74
318.645	34.75
318.859	25.27
319.073	18.19
319.287	18.2
319.5	12.33
319.714	11.64
319.928	7.95
320.142	10.61
320.356	26.6
320.57	25.98
320.784	20.65
320.997	29.33
321.211	34.72
321.425	24.02
321.639	25.82
321.853	14.49
322.066	17.85
322.28	25.46
322.494	20.52
322.707	16.45
322.921	16.69
323.135	25.96
323.349	26.07
323.562	19.39
323.776	20.65
323.989	19.89
324.203	15.71
324.417	15.59
324.63	1.44
324.844	-0.3
325.057	1.31
325.271	-5.85
325.485	-5.12
325.698	5.87
325.912	22.34
326.125	23.14
326.339	30.88
326.552	38.28
326.766	41.98
326.979	47.85
327.193	38.62
327.406	36.38
327.619	37.65
327.833	26.09
328.046	15.35
328.26	-0.35
328.473	-3.79
328.686	8.29
328.9	2.05
329.113	4.88
329.326	9.06
329.54	7.9
329.753	20.02
329.966	21.16
330.179	22.4
330.393	25.56
330.606	25.32
330.819	25.5
331.032	34.41
331.246	35.74
331.459	39.41
331.672	35
331.885	28.95
332.098	32.02
332.311	26.74
332.525	23.2
332.738	18.63
332.951	18.07
333.164	15.22
333.377	8.66
333.59	17.72
333.803	29.74
334.016	28.71
334.229	33.41
334.442	36.4
334.655	51.97
334.868	59.48
335.081	56.23
335.294	55.62
335.507	57.86
335.72	52.03
335.933	55.45
336.146	46.56
336.359	37.86
336.572	29.84
336.785	37.05
336.997	32.04
337.21	35.02
337.423	23.83
337.636	29.49
337.849	29.88
338.062	35.63
338.274	35.01
338.487	30.96
338.7	28.03
338.913	26.37
339.125	20.75
339.338	20.74
339.551	24.59
339.763	14.95
339.976	16.88
340.189	23.36
340.402	23.48
340.614	27.06
340.827	25.38
341.039	27.02
341.252	24.26
341.465	19.74
341.677	6.75
341.89	8.38
342.102	7.92
342.315	23.88
342.527	12.92
342.74	23.35
342.952	31.64
343.165	42.98
343.377	48.49
343.59	42.71
343.802	36.27
344.015	38.88
344.227	32.22
344.44	22.45
344.652	27.44
344.864	25.71
345.077	25.51
345.289	16.35
345.502	16.46
345.714	13.17
345.926	15.23
346.139	9.44
346.351	-6.19
346.563	3.89
346.775	10.53
346.988	8.27
347.2	12.89
347.412	20.38
347.624	22.98
347.837	27.92
348.049	32.99
348.261	28.15
348.473	23.92
348.685	29.7
348.897	28.9
349.11	23.77
349.322	22.35
349.534	9.23
349.746	25.77
349.958	34.5
350.17	37.47
350.382	27.19
350.594	37.87
350.806	49.69
351.018	52.88
351.23	40.49
351.442	39.34
351.654	37.8
351.866	44.95
352.078	38.53
352.29	31.7
352.502	29.46
352.714	26
352.926	30.01
353.138	29.81
353.35	28.96
353.561	27.78
353.773	25.68
353.985	20.62
354.197	22.82
354.409	23.04
354.621	25.9
354.832	21.39
355.044	20.05
355.256	17.31
355.468	18.16
355.679	28.2
355.891	21.42
356.103	17.28
356.314	17.4
356.526	16.18
356.738	15.96
356.949	16.02
357.161	5.83
357.373	6.74
357.584	13.75
357.796	9.68
358.008	16.72
358.219	23.35
358.431	28.11
358.642	30.14
358.854	31.78
359.065	27.75
359.277	33.18
359.488	28.65
359.7	28.48
359.911	19.53
360.123	28.68
360.334	25.15
360.546	23.12
360.757	22.47
360.969	31.39
361.18	25.89
361.391	28.37
361.603	27.77
361.814	27.6
362.025	21.31
362.237	27.75
362.448	28.05
362.659	22.72
362.871	27.46
363.082	24.75
363.293	27.94
363.504	39.08
363.716	33.95
363.927	22.65
364.138	26.37
364.349	28.66
364.56	23.92
364.772	24.79
364.983	13.53
365.194	15.49
365.405	22.5
365.616	22.47
365.827	16.71
366.038	29.72
366.25	22.77
366.461	36.27
366.672	32.24
366.883	34.23
367.094	35.5
367.305	29.93
367.516	23.5
367.727	22.64
367.938	15.93
368.149	18.5
368.36	18.22
368.571	20.56
368.781	21.13
368.992	20.92
369.203	21.76
369.414	17.54
369.625	10.73
369.836	12.05
370.047	13.77
370.258	13.94
370.468	7.04
370.679	7.09
370.89	18.62
371.101	15.67
371.312	11.02
371.522	8.86
371.733	8.52
371.944	21.31
372.155	14.12
372.365	8.89
372.576	11.3
372.787	15.25
372.997	15.8
373.208	16.37
373.419	12.9
373.629	27.75
373.84	24.51
374.05	31.82
374.261	24.14
374.472	17.71
374.682	19.46
374.893	6.13
375.103	-0.3
375.314	-0.04
375.524	-4.01
375.735	-0.55
375.945	1.35
376.156	7.02
376.366	20.91
376.577	22.41
376.787	29.3
376.997	36.58
377.208	34.16
377.418	32.93
377.629	31.68
377.839	26.47
378.049	28.72
378.26	27.01
378.47	30.24
378.68	33.82
378.89	37.61
379.101	31.69
379.311	27.71
379.521	27.34
379.732	13.96
379.942	10.37
380.152	12.62
380.362	11.53
380.572	15.95
380.783	18.13
380.993	14.67
381.203	23.66
381.413	20.6
381.623	19.85
381.833	19.28
382.043	13.5
382.253	17.4
382.463	20.63
382.674	19.91
382.884	21.36
383.094	22.25
383.304	20.15
383.514	23.4
383.724	19.77
383.934	19.53
384.144	18.65
384.353	18.81
384.563	12.23
384.773	13.45
384.983	11.66
385.193	12.59
385.403	13.81
385.613	9
385.823	6.4
386.033	9.52
386.242	10.91
386.452	13.04
386.662	15.15
386.872	9.03
387.082	10.62
387.291	10.01
387.501	14.56
387.711	12.01
387.921	9.77
388.13	5.68
388.34	8.5
388.55	9.56
388.759	10.01
388.969	4.16
389.179	8.8
389.388	9.34
389.598	8.63
389.807	7.52
390.017	9.5
390.227	8.88
390.436	9.55
390.646	6.52
390.855	6.95
391.065	7.29
391.274	6.14
391.484	5.56
391.693	5.56
391.903	5.22
392.112	4.82
392.322	5.47
392.531	5.84
392.74	4.8
392.95	4.55
393.159	5.28
393.369	5.27
393.578	4.76
393.787	4.4
393.997	4.94
394.206	5.67
394.415	5.24
394.625	3.91
394.834	2.68
395.043	3.02
395.252	2.49
395.462	1.8
395.671	2.01
395.88	2.04
396.089	2.46
396.298	3.27
396.508	2.97
396.717	2.8
396.926	2.39
397.135	1.77
397.344	1.61
397.553	1.89
397.762	1.86
397.971	1.91
398.181	1.52
398.39	2.2
398.599	2.42
398.808	2.66
399.017	2.7
399.226	2.84
399.435	2.9
399.644	3.16
399.853	2.97
400.062	3
400.27	2.85
400.479	2.57
400.688	2.57
400.897	2.77
401.106	2.91
401.315	2.65
401.524	2.63
401.733	2.67
401.941	2.66
402.15	2.36
402.359	2.28
402.568	2.31
402.777	2.41
402.985	2.35
403.194	2.37
403.403	2.25
403.612	2.26
403.82	2.17
404.029	2.01
404.238	2.07
404.446	2.08
404.655	1.92
404.864	1.93
405.072	2
405.281	1.92
405.489	1.98
405.698	1.84
405.906	1.82
406.115	1.96
406.324	1.88
406.532	1.91
406.741	1.95
406.949	1.87
407.158	1.95
407.366	1.99
407.574	1.98
407.783	1.96
407.991	1.89
408.2	1.78
408.408	1.8
408.617	1.76
408.825	1.74
409.033	1.67
409.242	1.66
409.45	1.55
409.658	1.63
409.867	1.64
410.075	1.59
410.283	1.49
410.491	1.5
410.7	1.59
410.908	1.69
411.116	1.7
411.324	1.68
411.533	1.66
411.741	1.72
411.949	1.77
412.157	1.77
412.365	1.74
412.573	1.73
412.781	1.71
412.99	1.85
413.198	1.88
413.406	1.77
413.614	1.76
413.822	1.78
414.03	1.71
414.238	1.8
414.446	1.65
414.654	1.63
414.862	1.74
415.07	1.79
415.278	1.71
415.486	1.85
415.694	1.73
415.902	1.72
416.109	1.7
416.317	1.55
416.525	1.54
416.733	1.63
416.941	1.47
417.149	1.56
417.357	1.57
417.564	1.5
417.772	1.58
417.98	1.46
418.188	1.33
418.395	1.38
418.603	1.24
418.811	1.21
419.019	1.34
419.226	1.36
419.434	1.39
419.642	1.46
419.849	1.49
420.057	1.57
420.265	1.56
420.472	1.45
420.68	1.44
420.887	1.47
421.095	1.53
421.302	1.58
421.51	1.63
421.717	1.74
421.925	1.71
422.132	1.59
422.34	1.57
422.547	1.52
422.755	1.49
422.962	1.32
423.17	1.31
423.377	1.46
423.585	1.52
423.792	1.53
423.999	1.51
424.207	1.41
424.414	1.5
424.621	1.41
424.829	1.26
425.036	1.21
425.243	1.25
425.451	1.32
425.658	1.44
425.865	1.39
426.072	1.57
426.28	1.64
426.487	1.63
426.694	1.55
426.901	1.57
427.108	1.51
427.315	1.53
427.523	1.49
427.73	1.48
427.937	1.55
428.144	1.63
428.351	1.63
428.558	1.64
428.765	1.57
428.972	1.55
429.179	1.52
429.386	1.51
429.593	1.41
429.8	1.4
430.007	1.42
430.214	1.51
430.421	1.45
430.628	1.3
430.835	1.3
431.042	1.35
431.249	1.33
431.456	1.35
431.662	1.33
431.869	1.38
432.076	1.53
432.283	1.5
432.49	1.51
432.697	1.48
432.903	1.49
433.11	1.56
433.317	1.55
433.524	1.48
433.73	1.54
433.937	1.51
434.144	1.64
434.35	1.58
434.557	1.5
434.764	1.46
434.97	1.58
435.177	1.52
435.384	1.59
435.59	1.49
435.797	1.54
436.003	1.59
436.21	1.59
436.416	1.57
436.623	1.61
436.829	1.6
437.036	1.63
437.242	1.52
437.449	1.52
437.655	1.52
437.862	1.47
438.068	1.56
438.275	1.51
438.481	1.53
438.687	1.67
438.894	1.69
439.1	1.75
439.307	1.75
439.513	1.61
439.719	1.7
439.926	1.77
440.132	1.74
440.338	1.74
440.544	1.7
440.751	1.76
440.957	1.79
441.163	1.73
441.369	1.61
441.575	1.58
441.782	1.59
441.988	1.61
442.194	1.64
442.4	1.69
442.606	1.75
442.812	1.81
443.018	1.83
443.224	1.85
443.431	1.87
443.637	1.81
443.843	1.85
444.049	1.79
444.255	1.75
444.461	1.73
444.667	1.78
444.873	1.74
445.079	1.73
445.284	1.65
445.49	1.62
445.696	1.67
445.902	1.77
446.108	1.71
446.314	1.77
446.52	1.85
446.726	1.89
446.931	1.96
447.137	1.91
447.343	1.82
447.549	1.78
447.755	1.71
447.96	1.66
448.166	1.68
448.372	1.67
448.578	1.75
448.783	1.75
448.989	1.79
449.195	1.83
449.4	1.86
449.606	1.81
449.812	1.86
450.017	1.82
450.223	1.82
450.428	1.8
450.634	1.81
450.84	1.81
451.045	1.84
451.251	1.87
451.456	1.88
451.662	1.88
451.867	1.9
452.073	1.88
452.278	1.87
452.483	1.88
452.689	1.79
452.894	1.79
453.1	1.8
453.305	1.81
453.51	1.83
453.716	1.8
453.921	1.81
454.127	1.87
454.332	1.89
454.537	1.95
454.742	1.93
454.948	1.91
455.153	1.94
455.358	2.01
455.563	1.99
455.769	1.98
455.974	1.91
456.179	1.85
456.384	1.89
456.589	1.9
456.795	1.75
457	1.78
457.205	1.75
457.41	1.79
457.615	1.82
457.82	1.91
458.025	1.92
458.23	2.05
458.435	1.98
458.64	2.08
458.845	2.1
459.05	2.15
459.255	2.06
459.46	2.06
459.665	2.09
459.87	2.14
460.075	2.08
460.28	2.09
460.485	2.13
460.69	2.07
460.895	2.07
461.099	1.98
461.304	2.01
461.509	1.94
461.714	1.97
461.919	1.89
462.123	1.99
462.328	1.98
462.533	2.03
462.738	2
462.942	2.09
463.147	2.02
463.352	2.04
463.556	2.05
463.761	2.07
463.966	2.09
464.17	2.12
464.375	2.07
464.58	2.09
464.784	2.12
464.989	2.14
465.193	2.12
465.398	2.15
465.602	2.11
465.807	2.2
466.011	2.27
466.216	2.29
466.42	2.29
466.625	2.31
466.829	2.32
467.034	2.36
467.238	2.35
467.443	2.3
467.647	2.28
467.851	2.26
468.056	2.26
468.26	2.22
468.464	2.24
468.669	2.23
