Data from Ofra_2a_PS_1GT43_Reflection_2.txt Node
Date: Tue Jul 20 09:36:37 EDT 2021
User: Adam
Spectrometer: FLMT01687
Trigger mode: 0
Integration Time (sec): 9.450000E-1
Scans to average: 3
Electric dark correction enabled: true
Nonlinearity correction enabled: false
Boxcar width: 3
XAxis mode: Wavelengths
Number of Pixels in Spectrum: 3648
>>>>>Begin Spectral Data<<<<<
179.494	948.52
179.716	512.5
179.937	519.78
180.158	2146.09
180.38	-798.26
180.601	-71.19
180.823	46.16
181.044	140.04
181.265	30.38
181.486	23.25
181.708	171.74
181.929	-15.12
182.15	-442.05
182.372	102.71
182.593	60.45
182.814	138.62
183.035	204.75
183.257	113.87
183.478	87.14
183.699	99
183.92	87.24
184.141	74.84
184.363	60.48
184.584	47.24
184.805	55.66
185.026	67.76
185.247	46.48
185.468	40.41
185.689	48.29
185.91	51.16
186.132	55.78
186.353	20.03
186.574	15.52
186.795	4.07
187.016	3.78
187.237	9.26
187.458	-16.57
187.679	-44.79
187.9	-4.8
188.121	-2.85
188.342	36.63
188.563	32.32
188.784	35.19
189.005	62.84
189.226	70.97
189.447	60.05
189.667	60.12
189.888	53
190.109	67.44
190.33	41.62
190.551	29.85
190.772	22.47
190.993	28.13
191.214	21.76
191.434	7.56
191.655	16.89
191.876	38.07
192.097	34.09
192.318	34.65
192.538	36.84
192.759	46.24
192.98	51.66
193.201	53.07
193.421	52.32
193.642	61
193.863	72.17
194.083	65.95
194.304	31.04
194.525	42.5
194.745	8.52
194.966	10.04
195.187	21.3
195.407	13.04
195.628	14.88
195.848	31.85
196.069	19.64
196.29	29.18
196.51	20.26
196.731	11.55
196.951	25.37
197.172	32.59
197.392	23.63
197.613	22.44
197.833	19.36
198.054	15.1
198.274	7.38
198.495	6.28
198.715	-7.83
198.936	-22.66
199.156	-8.09
199.377	-7.03
199.597	0.37
199.817	-1.59
200.038	17.53
200.258	19
200.479	33.41
200.699	26.29
200.919	20.3
201.14	25.55
201.36	46.92
201.58	25.97
201.801	38.68
202.021	35.28
202.241	47.55
202.461	55.44
202.682	61.88
202.902	54
203.122	56.45
203.342	65.23
203.563	68.33
203.783	59.85
204.003	58.29
204.223	48.06
204.443	37.51
204.663	47.71
204.884	42.96
205.104	32.63
205.324	40.71
205.544	39.17
205.764	33.93
205.984	51.28
206.204	30.15
206.424	20.8
206.644	24.55
206.864	20.1
207.084	22.37
207.304	27.65
207.525	10.16
207.745	26.54
207.964	25.67
208.184	21.23
208.404	20.32
208.624	11.26
208.844	-0.25
209.064	14.99
209.284	18.14
209.504	26.81
209.724	8.52
209.944	-0.61
210.164	17.89
210.384	31.29
210.604	26.12
210.823	20.06
211.043	15.3
211.263	40.21
211.483	43.35
211.703	30.44
211.922	23.21
212.142	29.52
212.362	26.01
212.582	18.19
212.801	14.02
213.021	11.88
213.241	9.68
213.461	18.18
213.68	12.77
213.9	9.09
214.12	13.49
214.339	16.46
214.559	20.79
214.779	24.35
214.998	24.12
215.218	27.7
215.438	37.59
215.657	37.48
215.877	40.85
216.096	37.48
216.316	42.71
216.535	44.16
216.755	29.85
216.974	10.9
217.194	16.39
217.413	21.56
217.633	12.57
217.852	6.05
218.072	7.7
218.291	34.57
218.511	38.55
218.73	35.82
218.95	29.82
219.169	38.73
219.389	42.34
219.608	34.29
219.827	19.83
220.047	30.78
220.266	35.77
220.485	32.83
220.705	31.27
220.924	26.62
221.143	26.69
221.363	29.13
221.582	30.21
221.801	34.96
222.021	38.47
222.24	35.76
222.459	30.65
222.678	47.73
222.897	34.12
223.117	33.6
223.336	36.56
223.555	31.96
223.774	48.31
223.993	56.12
224.213	45.33
224.432	61.65
224.651	59.27
224.87	50.61
225.089	53.98
225.308	35.32
225.527	32.37
225.746	34.81
225.965	32.61
226.184	30.42
226.404	18.35
226.623	20.58
226.842	36.15
227.061	38.64
227.28	51.35
227.499	46.36
227.718	38.93
227.936	33.53
228.155	35.31
228.374	37.73
228.593	33.9
228.812	25.91
229.031	23.13
229.25	38.76
229.469	45.66
229.688	40.13
229.907	27.48
230.125	29.86
230.344	25.82
230.563	34.01
230.782	23
231.001	24.87
231.22	23.09
231.438	26.38
231.657	26.26
231.876	25.49
232.095	24.38
232.313	24.71
232.532	25.9
232.751	31.17
232.969	37.67
233.188	41.83
233.407	39.4
233.625	33.17
233.844	34.19
234.063	39.46
234.281	32.88
234.5	34.6
234.719	35.96
234.937	51.6
235.156	37.31
235.374	40.95
235.593	41.32
235.811	48.96
236.03	37.04
236.249	41.27
236.467	23.6
236.686	58.36
236.904	53.02
237.123	49.06
237.341	40.88
237.559	42.58
237.778	44.98
237.996	56.16
238.215	35.68
238.433	43.72
238.652	36.91
238.87	42.23
239.088	35.33
239.307	27.39
239.525	14.32
239.743	8.53
239.962	-0.99
240.18	10.03
240.398	14.88
240.617	32.34
240.835	32.29
241.053	33.3
241.271	44.88
241.49	40.39
241.708	34
241.926	12.65
242.144	4.17
242.363	3.81
242.581	8.16
242.799	5.55
243.017	12.6
243.235	11.47
243.453	18.14
243.672	16.87
243.89	20.06
244.108	28.01
244.326	33.36
244.544	38.5
244.762	36.38
244.98	37.89
245.198	28.66
245.416	25.55
245.634	22.33
245.852	19.56
246.07	24.75
246.288	13.46
246.506	21.65
246.724	43.15
246.942	41.75
247.16	37.26
247.378	27.28
247.596	18.99
247.814	24.51
248.032	15.57
248.25	13.91
248.468	18.33
248.685	26.4
248.903	24.29
249.121	38.89
249.339	41.15
249.557	52.49
249.775	24.31
249.992	24.37
250.21	18.89
250.428	24.1
250.646	21.88
250.863	18.51
251.081	8.61
251.299	45.66
251.517	64.6
251.734	65.33
251.952	75.27
252.17	48.94
252.387	48.53
252.605	50.36
252.823	23.35
253.04	4.48
253.258	3.93
253.475	-1.41
253.693	15.22
253.911	10.23
254.128	14.23
254.346	20.06
254.563	21.21
254.781	29.14
254.998	33.82
255.216	33.64
255.433	38.86
255.651	31.1
255.868	44.23
256.086	43.8
256.303	42.62
256.521	25.42
256.738	29.57
256.956	19.68
257.173	29.08
257.39	23.7
257.608	24.55
257.825	11.64
258.043	20.58
258.26	13.43
258.477	17.74
258.695	18.34
258.912	24.28
259.129	17.16
259.346	23.54
259.564	16.55
259.781	34.24
259.998	36.05
260.216	36.64
260.433	28.61
260.65	37.36
260.867	30.18
261.084	40.06
261.302	26.77
261.519	21.78
261.736	18.64
261.953	21.88
262.17	19.78
262.387	23.41
262.604	13.33
262.822	18.7
263.039	14.42
263.256	16.12
263.473	11.28
263.69	5.64
263.907	3.84
264.124	4.57
264.341	5.19
264.558	15.41
264.775	17.45
264.992	15.12
265.209	29.23
265.426	35.15
265.643	46.08
265.86	45.39
266.077	48.66
266.294	48.18
266.51	56.62
266.727	47.25
266.944	0.42
267.161	-32.31
267.378	-52.05
267.595	-60.67
267.812	-72.43
268.028	-64.52
268.245	-46.88
268.462	-7.45
268.679	5.64
268.896	15.47
269.112	30.36
269.329	40.76
269.546	38.68
269.763	37.52
269.979	41.47
270.196	47.65
270.413	44.94
270.629	33.47
270.846	31.46
271.063	25.52
271.279	26.94
271.496	19.37
271.712	13.88
271.929	18.39
272.146	21.98
272.362	12.7
272.579	11.36
272.795	7.36
273.012	13.1
273.228	2.37
273.445	3.12
273.661	4.31
273.878	12.57
274.094	17.02
274.311	19.6
274.527	14.98
274.744	24.55
274.96	26.3
275.177	28.17
275.393	31.66
275.609	30.38
275.826	31.66
276.042	46.6
276.259	45.1
276.475	35.74
276.691	41.73
276.908	38
277.124	39.4
277.34	40.64
277.557	37.3
277.773	36.36
277.989	39.67
278.205	21.51
278.422	33.58
278.638	35.07
278.854	35.78
279.07	28.16
279.286	19.45
279.503	18.36
279.719	36.94
279.935	13.14
280.151	17.79
280.367	8.64
280.583	16.95
280.799	25.18
281.016	29.84
281.232	18.4
281.448	26.37
281.664	23.99
281.88	42.97
282.096	44.37
282.312	46.3
282.528	32.58
282.744	38.44
282.96	46.16
283.176	39.72
283.392	40.01
283.608	34.5
283.824	35.74
284.04	37.33
284.256	41.05
284.471	38.09
284.687	31.92
284.903	20.05
285.119	4.44
285.335	6.44
285.551	19.9
285.767	15.02
285.982	17.49
286.198	23.03
286.414	33.54
286.63	47.12
286.846	42.71
287.061	42.06
287.277	42.71
287.493	37.32
287.709	28.64
287.924	18.66
288.14	18.18
288.356	33.77
288.571	22.45
288.787	25.91
289.003	26.24
289.218	36.51
289.434	43.87
289.65	45.64
289.865	37.64
290.081	38.04
290.296	33.56
290.512	31.28
290.727	40.02
290.943	35.33
291.159	30.25
291.374	29.59
291.59	17.27
291.805	20.51
292.021	22.08
292.236	15.1
292.451	19.24
292.667	20.34
292.882	13.92
293.098	22.9
293.313	22.52
293.529	29.3
293.744	20.56
293.959	18.69
294.175	25.81
294.39	40.66
294.605	47.87
294.821	36.52
295.036	31.84
295.251	36.99
295.467	29.13
295.682	25.88
295.897	23.01
296.112	13.97
296.328	21.92
296.543	13.03
296.758	10.2
296.973	21
297.188	13.27
297.404	11.97
297.619	15.05
297.834	22.41
298.049	28.53
298.264	28.03
298.479	15.79
298.694	20.14
298.909	12.08
299.125	16.16
299.34	7.8
299.555	10.31
299.77	13.62
299.985	15.86
300.2	13.83
300.415	18.34
300.63	18.37
300.845	22.79
301.06	23.67
301.275	29.62
301.49	28.99
301.704	34.13
301.919	28.97
302.134	25.36
302.349	18.02
302.564	20.3
302.779	9.79
302.994	4.66
303.209	-0.51
303.423	7.19
303.638	3.2
303.853	7.99
304.068	7.28
304.283	3.44
304.497	22.93
304.712	26.72
304.927	28.43
305.142	27.08
305.356	29.44
305.571	36.41
305.786	44.33
306	34.4
306.215	32.68
306.43	36.72
306.644	43.87
306.859	45.76
307.074	34.99
307.288	31.55
307.503	36.38
307.717	35.74
307.932	38.88
308.147	36.32
308.361	32.99
308.576	33.83
308.79	36.29
309.005	32.12
309.219	37.29
309.434	30.93
309.648	22.98
309.863	23.79
310.077	19.8
310.292	18.34
310.506	33.06
310.72	22.51
310.935	20.38
311.149	28.31
311.364	36.88
311.578	43.07
311.792	41.46
312.007	32.42
312.221	37.05
312.435	40.4
312.649	61.66
312.864	50.49
313.078	50.67
313.292	53.97
313.507	63.2
313.721	65.27
313.935	73.28
314.149	52.35
314.363	53.33
314.578	53.81
314.792	47.63
315.006	49.2
315.22	48.14
315.434	38.51
315.648	37.78
315.862	34.39
316.077	34.01
316.291	45.42
316.505	31.16
316.719	12.2
316.933	11.8
317.147	10.27
317.361	17.5
317.575	13.48
317.789	13.35
318.003	26.66
318.217	47.67
318.431	46.54
318.645	45.82
318.859	32.28
319.073	34.18
319.287	30.96
319.5	27.2
319.714	18.28
319.928	26.27
320.142	24.86
320.356	47.33
320.57	41.87
320.784	37.13
320.997	39.57
321.211	46.18
321.425	30.21
321.639	31.06
321.853	16.81
322.066	15.35
322.28	19.73
322.494	13.91
322.707	13.66
322.921	21.72
323.135	25.02
323.349	28.43
323.562	27.72
323.776	23.84
323.989	29.31
324.203	32.72
324.417	28.87
324.63	20.69
324.844	4.84
325.057	19.17
325.271	8.47
325.485	4.64
325.698	-6
325.912	2.96
326.125	11.53
326.339	24.07
326.552	15.61
326.766	32.48
326.979	35.6
327.193	35.44
327.406	33.44
327.619	23.47
327.833	25.12
328.046	20.14
328.26	5.79
328.473	-3.06
328.686	-1.23
328.9	-6.57
329.113	8.03
329.326	19.77
329.54	18.78
329.753	23.31
329.966	27.37
330.179	36.98
330.393	46.26
330.606	39.35
330.819	24.9
331.032	32.83
331.246	32.45
331.459	37.98
331.672	36.3
331.885	24.25
332.098	27.04
332.311	34.24
332.525	33.73
332.738	37.42
332.951	33.9
333.164	21.73
333.377	13.97
333.59	11.59
333.803	14.27
334.016	2.02
334.229	1.03
334.442	11.03
334.655	28.83
334.868	37.76
335.081	47.68
335.294	50.75
335.507	52.1
335.72	43.38
335.933	38.06
336.146	35.37
336.359	32
336.572	25.57
336.785	23.13
336.997	16.68
337.21	27.42
337.423	16.4
337.636	14.2
337.849	12.45
338.062	13.24
338.274	10.68
338.487	13.29
338.7	9.46
338.913	16.35
339.125	14.58
339.338	22.14
339.551	26.53
339.763	26.57
339.976	26.38
340.189	27.12
340.402	25.9
340.614	31.99
340.827	29.73
341.039	25.98
341.252	28.39
341.465	27.59
341.677	21.78
341.89	26.49
342.102	29.77
342.315	36.61
342.527	31.78
342.74	25.15
342.952	26.9
343.165	38.88
343.377	36.16
343.59	30.42
343.802	33.77
344.015	39.94
344.227	38.61
344.44	36.69
344.652	37.4
344.864	47
345.077	49.24
345.289	38.08
345.502	30.8
345.714	26.37
345.926	26.49
346.139	27.29
346.351	11
346.563	12.4
346.775	9.64
346.988	11.01
347.2	22.55
347.412	26.06
347.624	25.31
347.837	29.17
348.049	31.45
348.261	34.26
348.473	37.37
348.685	42.47
348.897	46.8
349.11	44.82
349.322	45.86
349.534	41.51
349.746	43.4
349.958	39.5
350.17	31.13
350.382	17.48
350.594	20.83
350.806	26.25
351.018	26.61
351.23	28.25
351.442	23.19
351.654	27.82
351.866	29.29
352.078	25.93
352.29	25.55
352.502	24.4
352.714	21.35
352.926	21.74
353.138	21.27
353.35	24.91
353.561	25.02
353.773	19.2
353.985	21.26
354.197	22.31
354.409	29.85
354.621	29.53
354.832	28.65
355.044	34.49
355.256	27.78
355.468	25.23
355.679	32.89
355.891	32.77
356.103	32.64
356.314	37.65
356.526	32.33
356.738	36.49
356.949	35.64
357.161	24.64
357.373	23.25
357.584	29.47
357.796	23.97
358.008	22.4
358.219	27.61
358.431	24.47
358.642	26.52
358.854	26.55
359.065	16.51
359.277	16.66
359.488	15.43
359.7	17.95
359.911	20.48
360.123	25.82
360.334	25.64
360.546	26.89
360.757	26.76
360.969	36.46
361.18	35.18
361.391	35.7
361.603	35.01
361.814	37.34
362.025	33.72
362.237	30.7
362.448	23.07
362.659	10
362.871	15.04
363.082	18.18
363.293	18.56
363.504	23.71
363.716	23.97
363.927	25.84
364.138	35.61
364.349	34.64
364.56	33.81
364.772	28.67
364.983	23.65
365.194	30.48
365.405	24.43
365.616	15.65
365.827	11.19
366.038	9.76
366.25	18.75
366.461	25.97
366.672	15.82
366.883	26.92
367.094	28.16
367.305	25.67
367.516	18.93
367.727	8.58
367.938	12.04
368.149	15.3
368.36	6.24
368.571	11.38
368.781	11.29
368.992	16.21
369.203	20.84
369.414	14.37
369.625	10.9
369.836	16.34
370.047	10.32
370.258	13.86
370.468	7.35
370.679	2.93
370.89	12.8
371.101	17.19
371.312	13.46
371.522	24.13
371.733	8.64
371.944	10.6
372.155	3.09
372.365	-4.74
372.576	-6.05
372.787	-6.29
372.997	-13.67
373.208	3.11
373.419	2.72
373.629	20.37
373.84	14.42
374.05	21.23
374.261	18.84
374.472	23.72
374.682	15.84
374.893	20.7
375.103	20.96
375.314	26.83
375.524	27.01
375.735	35.72
375.945	33.87
376.156	38.34
376.366	34.67
376.577	35.54
376.787	38.57
376.997	32.16
377.208	22.11
377.418	26.42
377.629	24.1
377.839	29.03
378.049	25.15
378.26	20.64
378.47	25.02
378.68	29.16
378.89	17.6
379.101	12.59
379.311	8.57
379.521	9.56
379.732	9.59
379.942	9.02
380.152	13.34
380.362	21.87
380.572	26.75
380.783	24.36
380.993	22.61
381.203	21.33
381.413	20.03
381.623	17.27
381.833	14.6
382.043	11.32
382.253	13.44
382.463	16.24
382.674	14.51
382.884	12.94
383.094	12.87
383.304	11.6
383.514	12.7
383.724	8.99
383.934	9.47
384.144	12.52
384.353	12.52
384.563	8.2
384.773	11.72
384.983	11.87
385.193	17.79
385.403	16.44
385.613	12.07
385.823	14.4
386.033	20.85
386.242	19.04
386.452	19.19
386.662	18.22
386.872	14.98
387.082	17.25
387.291	16.4
387.501	10.9
387.711	10.46
387.921	11.46
388.13	11.46
388.34	11.74
388.55	13.21
388.759	12.33
388.969	12.38
389.179	13.62
389.388	13.41
389.598	13.13
389.807	11.97
390.017	12.14
390.227	11.47
390.436	10.75
390.646	9.42
390.855	8.99
391.065	7.32
391.274	9.01
391.484	8.39
391.693	8.52
391.903	8.46
392.112	7.53
392.322	8.24
392.531	8.86
392.74	7.25
392.95	7.15
393.159	7.02
393.369	7.19
393.578	7.65
393.787	6.69
393.997	7.22
394.206	8.19
394.415	7.44
394.625	6.73
394.834	5.5
395.043	6.51
395.252	7.21
395.462	6.77
395.671	6.64
395.88	7.05
396.089	7.01
396.298	7.55
396.508	6.52
396.717	5.77
396.926	5.68
397.135	5.3
397.344	4.92
397.553	5.12
397.762	5.15
397.971	5.43
398.181	5.52
398.39	5.32
398.599	5.51
398.808	6
399.017	6.24
399.226	6.6
399.435	6.44
399.644	6.26
399.853	6.54
400.062	6.2
400.27	5.78
400.479	5.57
400.688	5.41
400.897	5.42
401.106	5.51
401.315	5.28
401.524	5.53
401.733	5.77
401.941	5.72
402.15	5.53
402.359	5.56
402.568	5.47
402.777	5.3
402.985	5.12
403.194	4.92
403.403	4.73
403.612	4.85
403.82	4.95
404.029	5
404.238	5.13
404.446	5.08
404.655	4.93
404.864	5
405.072	4.97
405.281	4.82
405.489	4.75
405.698	4.69
405.906	4.68
406.115	4.8
406.324	4.82
406.532	4.88
406.741	4.93
406.949	4.81
407.158	4.85
407.366	4.83
407.574	4.84
407.783	4.78
407.991	4.6
408.2	4.43
408.408	4.47
408.617	4.36
408.825	4.41
409.033	4.33
409.242	4.23
409.45	4.24
409.658	4.31
409.867	4.35
410.075	4.37
410.283	4.24
410.491	4.24
410.7	4.32
410.908	4.3
411.116	4.19
411.324	4.08
411.533	3.95
411.741	3.99
411.949	4.06
412.157	4.03
412.365	4.07
412.573	4.06
412.781	4.13
412.99	4.26
413.198	4.24
413.406	4.22
413.614	4.17
413.822	4.06
414.03	4.05
414.238	4.11
414.446	4.01
414.654	3.93
414.862	3.83
415.07	3.91
415.278	3.93
415.486	3.99
415.694	3.88
415.902	3.94
416.109	4.05
416.317	4
416.525	4.04
416.733	4.08
416.941	4.07
417.149	4.1
417.357	4.11
417.564	4.05
417.772	4.13
417.98	3.94
418.188	3.75
418.395	3.67
418.603	3.59
418.811	3.41
419.019	3.4
419.226	3.44
419.434	3.38
419.642	3.49
419.849	3.54
420.057	3.57
420.265	3.69
420.472	3.6
420.68	3.47
420.887	3.57
421.095	3.58
421.302	3.53
421.51	3.65
421.717	3.65
421.925	3.65
422.132	3.64
422.34	3.64
422.547	3.59
422.755	3.56
422.962	3.4
423.17	3.33
423.377	3.44
423.585	3.52
423.792	3.47
423.999	3.46
424.207	3.45
424.414	3.56
424.621	3.62
424.829	3.48
425.036	3.38
425.243	3.48
425.451	3.54
425.658	3.67
425.865	3.44
426.072	3.37
426.28	3.43
426.487	3.41
426.694	3.3
426.901	3.25
427.108	3.22
427.315	3.28
427.523	3.32
427.73	3.37
427.937	3.49
428.144	3.56
428.351	3.63
428.558	3.55
428.765	3.6
428.972	3.54
429.179	3.47
429.386	3.55
429.593	3.54
429.8	3.5
430.007	3.64
430.214	3.64
430.421	3.77
430.628	3.73
430.835	3.59
431.042	3.61
431.249	3.63
431.456	3.59
431.662	3.59
431.869	3.64
432.076	3.73
432.283	3.78
432.49	3.69
432.697	3.72
432.903	3.7
433.11	3.75
433.317	3.69
433.524	3.58
433.73	3.61
433.937	3.69
434.144	3.73
434.35	3.75
434.557	3.67
434.764	3.61
434.97	3.76
435.177	3.75
435.384	3.77
435.59	3.68
435.797	3.67
436.003	3.66
436.21	3.66
436.416	3.68
436.623	3.69
436.829	3.71
437.036	3.75
437.242	3.82
437.449	3.92
437.655	4
437.862	3.91
438.068	3.91
438.275	3.9
438.481	4.01
438.687	4.07
438.894	4.06
439.1	4.08
439.307	4.13
439.513	4.17
439.719	4.2
439.926	4.17
440.132	4.1
440.338	4.14
440.544	4.12
440.751	4.18
440.957	4.18
441.163	4.18
441.369	4.14
441.575	4.16
441.782	4.12
441.988	4.15
442.194	4.16
442.4	4.14
442.606	4.22
442.812	4.28
443.018	4.28
443.224	4.35
443.431	4.37
443.637	4.36
443.843	4.45
444.049	4.38
444.255	4.36
444.461	4.34
444.667	4.37
444.873	4.37
445.079	4.41
445.284	4.39
445.49	4.41
445.696	4.47
445.902	4.53
446.108	4.53
446.314	4.59
446.52	4.62
446.726	4.64
446.931	4.66
447.137	4.63
447.343	4.64
447.549	4.64
447.755	4.62
447.96	4.57
448.166	4.61
448.372	4.63
448.578	4.67
448.783	4.62
448.989	4.61
449.195	4.61
449.4	4.65
449.606	4.56
449.812	4.59
450.017	4.59
450.223	4.65
450.428	4.68
450.634	4.68
450.84	4.68
451.045	4.72
451.251	4.73
451.456	4.69
451.662	4.7
451.867	4.69
452.073	4.67
452.278	4.67
452.483	4.7
452.689	4.66
452.894	4.7
453.1	4.65
453.305	4.66
453.51	4.7
453.716	4.67
453.921	4.67
454.127	4.68
454.332	4.69
454.537	4.81
454.742	4.81
454.948	4.79
455.153	4.84
455.358	4.86
455.563	4.87
455.769	4.9
455.974	4.83
456.179	4.79
456.384	4.81
456.589	4.85
456.795	4.81
457	4.8
457.205	4.77
457.41	4.83
457.615	4.91
457.82	4.97
458.025	4.92
458.23	4.98
458.435	4.97
458.64	5.04
458.845	4.99
459.05	5.03
459.255	4.98
459.46	5
459.665	5.03
459.87	5.07
460.075	5.05
460.28	5.09
460.485	5.07
460.69	5.05
460.895	5.11
461.099	5.08
461.304	5.09
461.509	5.04
461.714	5.05
461.919	5.05
462.123	5.12
462.328	5.13
462.533	5.19
462.738	5.22
462.942	5.28
463.147	5.29
463.352	5.32
463.556	5.3
463.761	5.31
463.966	5.34
464.17	5.36
464.375	5.4
464.58	5.46
464.784	5.53
464.989	5.57
465.193	5.57
465.398	5.53
465.602	5.52
465.807	5.49
466.011	5.47
466.216	5.44
466.42	5.44
466.625	5.5
466.829	5.57
467.034	5.66
467.238	5.7
467.443	5.7
467.647	5.73
467.851	5.76
468.056	5.71
468.26	5.7
468.464	5.65
468.669	5.68
468.873	5.66
469.077	5.65
469.282	5.68
