Data from Ofra_2a_PS_4HS13_Reflection_2.txt Node
Date: Tue Jul 20 09:50:22 EDT 2021
User: Adam
Spectrometer: FLMT01687
Trigger mode: 0
Integration Time (sec): 9.450000E-1
Scans to average: 3
Electric dark correction enabled: true
Nonlinearity correction enabled: false
Boxcar width: 3
XAxis mode: Wavelengths
Number of Pixels in Spectrum: 3648
>>>>>Begin Spectral Data<<<<<
179.494	868.05
179.716	558.27
179.937	654.95
180.158	2721.09
180.38	-894.77
180.601	-142.19
180.823	-80.96
181.044	-34.06
181.265	-15.07
181.486	59.93
181.708	736.96
181.929	-131.86
182.15	-467.05
182.372	25.45
182.593	110.45
182.814	-87.13
183.035	-52.69
183.257	-17.63
183.478	-13.62
183.699	3.66
183.92	15.64
184.141	33.9
184.363	32.99
184.584	32.77
184.805	28.29
185.026	29.82
185.247	-1.93
185.468	-6.88
185.689	-12.1
185.91	-13.91
186.132	-13.28
186.353	-12.7
186.574	-5.58
186.795	-29.48
187.016	-22.95
187.237	-24.22
187.458	-30.99
187.679	-35.29
187.9	-22.74
188.121	-29.15
188.342	7.68
188.563	5.63
188.784	7.54
189.005	16.31
189.226	10.78
189.447	2.22
189.667	17.64
189.888	36.63
190.109	36.68
190.33	23.91
190.551	21.93
190.772	17.62
190.993	24.51
191.214	13.75
191.434	-1.47
191.655	11.33
191.876	25.36
192.097	29.46
192.318	27.5
192.538	23.29
192.759	29.37
192.98	15.55
193.201	18
193.421	17.78
193.642	12.04
193.863	6.94
194.083	4.29
194.304	-8.23
194.525	18.07
194.745	-2.76
194.966	7.81
195.187	5.85
195.407	6.13
195.628	10.34
195.848	8.73
196.069	3.86
196.29	4.01
196.51	-11.47
196.731	0.2
196.951	14.39
197.172	12.91
197.392	34.12
197.613	38.81
197.833	30.16
198.054	28.41
198.274	1.43
198.495	-12
198.715	-25.62
198.936	-62
199.156	-56.07
199.377	-35.23
199.597	-37.44
199.817	-13.17
200.038	0.31
200.258	15.55
200.479	31.58
200.699	25.67
200.919	9.05
201.14	11.54
201.36	19.54
201.58	14.32
201.801	2.81
202.021	1.39
202.241	2.43
202.461	15.91
202.682	20.27
202.902	23.12
203.122	26
203.342	28.61
203.563	30.91
203.783	35.12
204.003	26.7
204.223	27.68
204.443	21.93
204.663	22.85
204.884	17.45
205.104	2.35
205.324	22.09
205.544	26.27
205.764	19.29
205.984	7.64
206.204	-1.63
206.424	14.86
206.644	20.03
206.864	-4.52
207.084	13.6
207.304	4.45
207.525	9.3
207.745	12.61
207.964	4.08
208.184	-1.24
208.404	9.36
208.624	-25.93
208.844	-24.68
209.064	-3.16
209.284	2.55
209.504	-2.9
209.724	-24.98
209.944	-34.49
210.164	3
210.384	17.16
210.604	-10.28
210.823	-19.69
211.043	-21.26
211.263	10.57
211.483	19.29
211.703	10.84
211.922	8.21
212.142	13.22
212.362	21.55
212.582	28.25
212.801	15.47
213.021	0.27
213.241	-11.63
213.461	-9.69
213.68	-7.13
213.9	-11.85
214.12	-13.53
214.339	-3.96
214.559	13.28
214.779	18.47
214.998	13.54
215.218	14.24
215.438	32.55
215.657	30.81
215.877	25.53
216.096	26.12
216.316	22.66
216.535	22.02
216.755	13.99
216.974	-5.97
217.194	-9.35
217.413	10.25
217.633	1.2
217.852	-8.02
218.072	-24.94
218.291	-3.97
218.511	-2.87
218.73	-9.82
218.95	-18.54
219.169	-18.5
219.389	-7.23
219.608	10.81
219.827	8.52
220.047	7.88
220.266	24.33
220.485	27.88
220.705	20.73
220.924	22.14
221.143	16.15
221.363	5.02
221.582	9.96
221.801	12.68
222.021	8.15
222.24	2.87
222.459	-12.65
222.678	-23.64
222.897	-22.88
223.117	-12.31
223.336	-14.67
223.555	-28.77
223.774	-23.38
223.993	16.12
224.213	9.35
224.432	37.88
224.651	26.42
224.87	17.64
225.089	40.58
225.308	41.86
225.527	39.96
225.746	43.64
225.965	15.94
226.184	7.57
226.404	-15.32
226.623	-27.83
226.842	-23.17
227.061	-24.37
227.28	-3.31
227.499	16.45
227.718	18.37
227.936	27.21
228.155	30.28
228.374	28.63
228.593	20.79
228.812	10.32
229.031	9.24
229.25	17.67
229.469	26.08
229.688	19.39
229.907	15.17
230.125	17.34
230.344	20.67
230.563	18.05
230.782	9
231.001	11.54
231.22	2.91
231.438	15.54
231.657	23.57
231.876	22.5
232.095	28.85
232.313	35.44
232.532	38.15
232.751	48.31
232.969	46.88
233.188	35.41
233.407	41.06
233.625	33.49
233.844	38.44
234.063	24.59
234.281	24.11
234.5	28.38
234.719	28.67
234.937	33.3
235.156	34.06
235.374	28.91
235.593	29.52
235.811	20.31
236.03	14.51
236.249	15.99
236.467	2.29
236.686	1.25
236.904	-1.9
237.123	7.61
237.341	10.45
237.559	7.14
237.778	19.16
237.996	27.9
238.215	24.24
238.433	30.71
238.652	19.05
238.87	17.82
239.088	11.52
239.307	7.7
239.525	-2.33
239.743	-7.67
239.962	-13.65
240.18	2.41
240.398	9.33
240.617	19.02
240.835	11
241.053	25.37
241.271	35.56
241.49	32.46
241.708	24.78
241.926	14.8
242.144	16.08
242.363	19.1
242.581	12.36
242.799	5.28
243.017	10.78
243.235	8.97
243.453	15.48
243.672	8.13
243.89	8.41
244.108	8.91
244.326	5.3
244.544	3.93
244.762	8.93
244.98	11.46
245.198	13.53
245.416	19.92
245.634	36.42
245.852	38.68
246.07	35.09
246.288	30.75
246.506	36.8
246.724	51.63
246.942	45.63
247.16	30.16
247.378	24.69
247.596	29.68
247.814	24.36
248.032	16.48
248.25	-8.49
248.468	0.05
248.685	-0.9
248.903	-7.23
249.121	-13.84
249.339	-0.53
249.557	1.21
249.775	-11.76
249.992	-19.77
250.21	-28.83
250.428	-26.1
250.646	-20.93
250.863	-28.11
251.081	-23.73
251.299	14.06
251.517	20.97
251.734	21.95
251.952	29.55
252.17	12
252.387	18.09
252.605	16.26
252.823	0.44
253.04	-1.98
253.258	4.22
253.475	4
253.693	24.1
253.911	28.57
254.128	12.17
254.346	2.7
254.563	-2.97
254.781	-1.88
254.998	-0.45
255.216	-4.82
255.433	-10.16
255.651	-5.64
255.868	0.8
256.086	6.37
256.303	5.98
256.521	-6.09
256.738	-8.67
256.956	-13.87
257.173	-2.18
257.39	11.3
257.608	10.44
257.825	6.62
258.043	20.74
258.26	22.22
258.477	28.8
258.695	37.12
258.912	35.04
259.129	36.17
259.346	36.67
259.564	29.98
259.781	37.53
259.998	32.19
260.216	25.1
260.433	22.09
260.65	29.14
260.867	16.85
261.084	25.27
261.302	4.28
261.519	-4.39
261.736	-12.28
261.953	-12.99
262.17	-8.7
262.387	-4.04
262.604	-24.64
262.822	-21.95
263.039	-13.54
263.256	-13.13
263.473	-18.7
263.69	-25.18
263.907	-14.14
264.124	-9.39
264.341	-4.7
264.558	3.96
264.775	9.1
264.992	15.3
265.209	20.9
265.426	15.57
265.643	19.62
265.86	24.7
266.077	21.5
266.294	24.02
266.51	24.8
266.727	9.46
266.944	5.98
267.161	7.76
267.378	0.79
267.595	-12.15
267.812	-17.1
268.028	-13.38
268.245	-7.68
268.462	-3.78
268.679	-10.52
268.896	-8.92
269.112	6.82
269.329	14.15
269.546	12.39
269.763	17.02
269.979	12.96
270.196	20.2
270.413	17.03
270.629	10.71
270.846	4.43
271.063	6.7
271.279	1.78
271.496	-2.42
271.712	-5.93
271.929	-3.1
272.146	-4.89
272.362	-9.23
272.579	-9.99
272.795	-4.16
273.012	6.24
273.228	-4.75
273.445	1.27
273.661	3.86
273.878	7.23
274.094	8.73
274.311	8.71
274.527	4.84
274.744	15.15
274.96	14.62
275.177	21.1
275.393	28.8
275.609	27.6
275.826	24.42
276.042	33.8
276.259	27.89
276.475	16.94
276.691	20.78
276.908	16.77
277.124	11.57
277.34	13.3
277.557	11.73
277.773	14.42
277.989	23.76
278.205	5.73
278.422	5.67
278.638	12.47
278.854	16.01
279.07	10.61
279.286	13.67
279.503	12.78
279.719	31.06
279.935	28.79
280.151	26.95
280.367	22.25
280.583	20.64
280.799	21.76
281.016	20.09
281.232	15.8
281.448	7.79
281.664	-2.26
281.88	7.53
282.096	13.17
282.312	4.18
282.528	4.22
282.744	-4.57
282.96	9.24
283.176	16.79
283.392	12.65
283.608	6.91
283.824	7.47
284.04	9.9
284.256	14.98
284.471	20.61
284.687	21.24
284.903	17.32
285.119	13.85
285.335	17.49
285.551	25.19
285.767	21.9
285.982	12.15
286.198	6.74
286.414	20.75
286.63	33.03
286.846	23.2
287.061	20.65
287.277	25.65
287.493	28.47
287.709	32.63
287.924	25.65
288.14	26.18
288.356	37.01
288.571	38.17
288.787	43.92
289.003	45.57
289.218	39.85
289.434	38.66
289.65	37.91
289.865	41.85
290.081	37.37
290.296	26.72
290.512	20.43
290.727	37.65
290.943	37.94
291.159	24.15
291.374	16.05
291.59	15.16
291.805	13.19
292.021	-5.14
292.236	-12.45
292.451	-11.25
292.667	2.69
292.882	1.45
293.098	-7.38
293.313	-6.55
293.529	10.85
293.744	0.55
293.959	1.66
294.175	-5.8
294.39	-0.89
294.605	11.52
294.821	7.76
295.036	2
295.251	7.89
295.467	7.16
295.682	9.8
295.897	10.38
296.112	6.41
296.328	14.21
296.543	18.94
296.758	11.22
296.973	18.8
297.188	20.92
297.404	16.28
297.619	21.68
297.834	23.13
298.049	18.78
298.264	22.45
298.479	10.81
298.694	15.61
298.909	5.47
299.125	6.3
299.34	-2.47
299.555	6.73
299.77	7.32
299.985	7.14
300.2	2.09
300.415	14.4
300.63	13.16
300.845	23.12
301.06	22.15
301.275	24.57
301.49	26.7
301.704	24.26
301.919	14.69
302.134	8.32
302.349	-1
302.564	-16.95
302.779	-15.89
302.994	-19.94
303.209	-28.62
303.423	-14.8
303.638	-10.9
303.853	-9.37
304.068	6.76
304.283	3.38
304.497	13.61
304.712	23.37
304.927	16.48
305.142	12.9
305.356	13.53
305.571	14.92
305.786	11.63
306	8.87
306.215	10.52
306.43	21.77
306.644	24.88
306.859	23.05
307.074	17.74
307.288	22.46
307.503	21.92
307.717	16.72
307.932	12
308.147	13.49
308.361	14.73
308.576	15.38
308.79	10.73
309.005	10.3
309.219	10.76
309.434	6.25
309.648	-0.81
309.863	1.46
310.077	-6.1
310.292	-6.61
310.506	4.89
310.72	-4.98
310.935	3.24
311.149	8.83
311.364	18.2
311.578	19.69
311.792	22.82
312.007	10.38
312.221	23.05
312.435	21.19
312.649	-4.05
312.864	-23.47
313.078	-22.48
313.292	-11.76
313.507	4.32
313.721	0.17
313.935	10.49
314.149	46.86
314.363	49.79
314.578	78.15
314.792	67.3
315.006	64.01
315.22	59.19
315.434	51.68
315.648	35.01
315.862	30.01
316.077	12.85
316.291	14.28
316.505	12.07
316.719	2.79
316.933	7.67
317.147	11.02
317.361	23.32
317.575	18.67
317.789	23.8
318.003	25.84
318.217	34.64
318.431	30.98
318.645	33.22
318.859	17.91
319.073	16.53
319.287	18.74
319.5	11.17
319.714	8.41
319.928	14.49
320.142	14.65
320.356	26.87
320.57	22.93
320.784	17.2
320.997	25.47
321.211	21.96
321.425	7.18
321.639	7.49
321.853	-2.63
322.066	2.25
322.28	3.21
322.494	-3.69
322.707	0.1
322.921	5.82
323.135	5.59
323.349	11.37
323.562	8.98
323.776	9.95
323.989	16.58
324.203	18.61
324.417	20.28
324.63	19.08
324.844	14.68
325.057	17.75
325.271	4.91
325.485	-0.65
325.698	0.3
325.912	9.6
326.125	9.86
326.339	16.62
326.552	21.78
326.766	33.37
326.979	33.87
327.193	28.52
327.406	33.64
327.619	22.35
327.833	12.46
328.046	8.38
328.26	5.35
328.473	2.38
328.686	6.98
328.9	-7.68
329.113	1.5
329.326	15.94
329.54	0.99
329.753	-0.12
329.966	4.02
330.179	1.52
330.393	8.41
330.606	16.3
330.819	16.34
331.032	29.07
331.246	31.84
331.459	31.81
331.672	45.18
331.885	33.66
332.098	27.76
332.311	6.94
332.525	10.22
332.738	7.46
332.951	9.89
333.164	-9.87
333.377	-19.75
333.59	-12.69
333.803	11.67
334.016	-7.12
334.229	10.64
334.442	22.44
334.655	47.31
334.868	58.65
335.081	54.32
335.294	47.29
335.507	54.37
335.72	38.46
335.933	29.18
336.146	22.33
336.359	17.65
336.572	13.27
336.785	17.1
336.997	11.86
337.21	20.96
337.423	23.02
337.636	20.33
337.849	17.45
338.062	20.28
338.274	14.18
338.487	16.14
338.7	13.9
338.913	7.01
339.125	6.92
339.338	17.92
339.551	26.16
339.763	21.86
339.976	21.71
340.189	22.43
340.402	18.81
340.614	20.41
340.827	6.91
341.039	3.63
341.252	7.69
341.465	-2.31
341.677	-11.65
341.89	-3.13
342.102	-4.09
342.315	8.7
342.527	-2.66
342.74	-3.6
342.952	-0.68
343.165	9.91
343.377	9.85
343.59	10.64
343.802	4.94
344.015	13.16
344.227	16.92
344.44	20.28
344.652	19.64
344.864	17.39
345.077	19.43
345.289	16.28
345.502	17.06
345.714	4.2
345.926	1
346.139	0.36
346.351	-21.19
346.563	-21.3
346.775	-12.3
346.988	-13.79
347.2	-4.32
347.412	-4.27
347.624	-3.48
347.837	10.49
348.049	6.33
348.261	1.74
348.473	-1.95
348.685	-0.57
348.897	2.92
349.11	1.42
349.322	0.6
349.534	-2.6
349.746	9.17
349.958	11.76
350.17	12.53
350.382	7.98
350.594	5.75
350.806	11.79
351.018	17.54
351.23	12.96
351.442	9.19
351.654	15.13
351.866	22.79
352.078	20.11
352.29	21.82
352.502	25.89
352.714	21.78
352.926	32.63
353.138	21.36
353.35	14.61
353.561	17.56
353.773	12.8
353.985	16.36
354.197	13.25
354.409	5.72
354.621	7.61
354.832	6.46
355.044	10.21
355.256	-0.1
355.468	-7.94
355.679	-0.91
355.891	8.06
356.103	5.68
356.314	4.97
356.526	-5.24
356.738	-1.8
356.949	-6.45
357.161	-12.51
357.373	-17.86
357.584	-8.94
357.796	-13.06
358.008	-3.99
358.219	8.26
358.431	18.87
358.642	22.79
358.854	22.68
359.065	13.86
359.277	9.87
359.488	5.68
359.7	1.99
359.911	-5.14
360.123	2.63
360.334	-0.47
360.546	0.3
360.757	9.76
360.969	15.27
361.18	11.69
361.391	7.54
361.603	4.14
361.814	-1.39
362.025	-0.85
362.237	-1.26
362.448	5.93
362.659	-3.38
362.871	3.95
363.082	1.03
363.293	13.22
363.504	17.99
363.716	19
363.927	11.31
364.138	18.33
364.349	17.11
364.56	16.95
364.772	8.04
364.983	1.07
365.194	-1.35
365.405	-1.77
365.616	-9.66
365.827	-12.51
366.038	0.71
366.25	11.19
366.461	17.58
366.672	16.88
366.883	17.57
367.094	11.68
367.305	14.45
367.516	3.5
367.727	1.55
367.938	-2.13
368.149	-3.9
368.36	-7.99
368.571	5.77
368.781	1.03
368.992	1.66
369.203	-4.24
369.414	-9.62
369.625	-9.83
369.836	-8.87
370.047	-14.9
370.258	-14.08
370.468	-11.67
370.679	-9.09
370.89	-2.35
371.101	1.51
371.312	-0.44
371.522	2.06
371.733	-6.45
371.944	-1.71
372.155	-9.64
372.365	-11.98
372.576	-14.31
372.787	-10.06
372.997	-13.15
373.208	-0.88
373.419	-5.25
373.629	7.1
373.84	5.29
374.05	7.08
374.261	3.75
374.472	8.71
374.682	6.21
374.893	8.69
375.103	9.84
375.314	12.22
375.524	16.82
375.735	20.33
375.945	19.65
376.156	18.86
376.366	18.58
376.577	16.56
376.787	24.06
376.997	23.13
377.208	19.36
377.418	14.68
377.629	17.48
377.839	21.32
378.049	27.25
378.26	25.85
378.47	26.42
378.68	29.03
378.89	26.95
379.101	14.05
379.311	4.52
379.521	0.64
379.732	-6.41
379.942	-10.5
380.152	-5.37
380.362	2.98
380.572	11.48
380.783	12.78
380.993	12
381.203	8.77
381.413	16.96
381.623	19.18
381.833	16.2
382.043	13.9
382.253	19.56
382.463	22.78
382.674	27.17
382.884	18.18
383.094	16.77
383.304	15.79
383.514	21.94
383.724	13.07
383.934	11.69
384.144	13.04
384.353	10.63
384.563	2.81
384.773	5.86
384.983	1.91
385.193	7.6
385.403	7.55
385.613	3.93
385.823	8.37
386.033	11.18
386.242	9.11
386.452	7.66
386.662	3.85
386.872	-0.22
387.082	-1.47
387.291	-1.12
387.501	3.49
387.711	2.9
387.921	0.76
388.13	0.09
388.34	2.01
388.55	3.79
388.759	0.06
388.969	-4.02
389.179	-2.24
389.388	1.96
389.598	2.51
389.807	3.74
390.017	4.77
390.227	4.69
390.436	5.62
390.646	5.78
390.855	3.36
391.065	4.16
391.274	2.4
391.484	1.73
391.693	2.12
391.903	2.14
392.112	2.68
392.322	4.73
392.531	4.79
392.74	4.53
392.95	4.45
393.159	6.28
393.369	5.59
393.578	5.08
393.787	5.22
393.997	5.42
394.206	5.75
394.415	6.12
394.625	4.21
394.834	3.97
395.043	3.82
395.252	3.14
395.462	3.11
395.671	3.64
395.88	3.31
396.089	3.62
396.298	4.4
396.508	4.29
396.717	4.32
396.926	3.89
397.135	3.27
397.344	2.91
397.553	3
397.762	2.69
397.971	2.67
398.181	2.26
398.39	2.76
398.599	2.85
398.808	3.26
399.017	3.46
399.226	3.62
399.435	3.73
399.644	3.87
399.853	3.46
400.062	3.39
400.27	3.26
400.479	3.12
400.688	3.07
400.897	3.23
401.106	3.29
401.315	3.2
401.524	3.38
401.733	3.57
401.941	3.54
402.15	3.34
402.359	3.15
402.568	3.31
402.777	3.25
402.985	3.11
403.194	2.89
403.403	2.68
403.612	2.77
403.82	2.81
404.029	2.58
404.238	2.7
404.446	2.62
404.655	2.55
404.864	2.61
405.072	2.55
405.281	2.41
405.489	2.37
405.698	2.28
405.906	2.28
406.115	2.44
406.324	2.46
406.532	2.46
406.741	2.47
406.949	2.52
407.158	2.62
407.366	2.71
407.574	2.67
407.783	2.64
407.991	2.59
408.2	2.54
408.408	2.52
408.617	2.44
408.825	2.45
409.033	2.36
409.242	2.34
409.45	2.37
409.658	2.41
409.867	2.44
410.075	2.43
410.283	2.34
410.491	2.38
410.7	2.4
410.908	2.37
411.116	2.32
411.324	2.35
411.533	2.25
411.741	2.26
411.949	2.31
412.157	2.39
412.365	2.45
412.573	2.51
412.781	2.46
412.99	2.61
413.198	2.62
413.406	2.56
413.614	2.5
413.822	2.39
414.03	2.31
414.238	2.42
414.446	2.32
414.654	2.3
414.862	2.22
415.07	2.21
415.278	2.2
415.486	2.26
415.694	2.02
415.902	1.97
416.109	1.95
416.317	1.95
416.525	1.98
416.733	2.09
416.941	2.06
417.149	2.2
417.357	2.26
417.564	2.23
417.772	2.28
417.98	2.23
418.188	2.06
418.395	2.05
418.603	1.9
418.811	1.86
419.019	1.91
419.226	1.93
419.434	1.85
419.642	1.89
419.849	1.93
420.057	2.03
420.265	2.08
420.472	2.02
420.68	1.91
420.887	2.02
421.095	2.04
421.302	2.06
421.51	2.05
421.717	2.09
421.925	2.04
422.132	2.01
422.34	1.97
422.547	1.95
422.755	1.83
422.962	1.73
423.17	1.67
423.377	1.82
423.585	1.83
423.792	1.8
423.999	1.77
424.207	1.72
424.414	1.83
424.621	1.91
424.829	1.75
425.036	1.68
425.243	1.65
425.451	1.78
425.658	1.94
425.865	1.91
426.072	1.82
426.28	1.84
426.487	1.95
426.694	1.98
426.901	1.84
427.108	1.84
427.315	1.82
427.523	1.86
427.73	1.98
427.937	1.94
428.144	1.92
428.351	1.99
428.558	1.87
428.765	1.87
428.972	1.8
429.179	1.7
429.386	1.78
429.593	1.77
429.8	1.83
430.007	1.89
430.214	1.89
430.421	1.9
430.628	1.81
430.835	1.82
431.042	1.86
431.249	1.82
431.456	1.81
431.662	1.85
431.869	1.88
432.076	1.98
432.283	1.89
432.49	1.9
432.697	1.92
432.903	1.93
433.11	1.93
433.317	1.97
433.524	1.92
433.73	1.97
433.937	1.95
434.144	1.97
434.35	1.93
434.557	1.86
434.764	1.8
434.97	1.92
435.177	1.92
435.384	1.98
435.59	1.88
435.797	1.88
436.003	1.88
436.21	1.81
436.416	1.7
436.623	1.75
436.829	1.7
437.036	1.74
437.242	1.78
437.449	1.83
437.655	1.88
437.862	1.92
438.068	1.96
438.275	1.93
438.481	1.96
438.687	1.99
438.894	1.95
439.1	1.96
439.307	1.98
439.513	1.87
439.719	1.95
439.926	1.96
440.132	1.96
440.338	1.98
440.544	1.97
440.751	1.99
440.957	1.96
441.163	1.94
441.369	1.93
441.575	1.94
441.782	1.95
441.988	1.98
442.194	2.02
442.4	2.11
442.606	2.15
442.812	2.1
443.018	2.1
443.224	2.09
443.431	2.09
443.637	2.02
443.843	1.99
444.049	1.9
444.255	1.9
444.461	1.89
444.667	1.88
444.873	1.85
445.079	1.8
445.284	1.8
445.49	1.79
445.696	1.85
445.902	1.91
446.108	1.92
446.314	1.97
446.52	2.08
446.726	2.11
446.931	2.13
447.137	2.11
447.343	2.04
447.549	2
447.755	1.91
447.96	1.88
448.166	1.85
448.372	1.87
448.578	1.87
448.783	1.88
448.989	1.93
449.195	1.96
449.4	1.95
449.606	1.92
449.812	1.95
450.017	1.95
450.223	1.93
450.428	1.9
450.634	1.95
450.84	1.95
451.045	1.96
451.251	1.96
451.456	1.98
451.662	2.02
451.867	2.02
452.073	1.99
452.278	2.01
452.483	1.99
452.689	2
452.894	2.04
453.1	1.97
453.305	2
453.51	1.98
453.716	1.94
453.921	1.99
454.127	1.93
454.332	1.88
454.537	1.95
454.742	1.96
454.948	1.95
455.153	1.96
455.358	1.98
455.563	2.01
455.769	2
455.974	1.95
456.179	1.87
456.384	1.91
456.589	1.93
456.795	1.85
457	1.82
457.205	1.82
457.41	1.86
457.615	1.97
457.82	1.96
458.025	1.94
458.23	1.95
458.435	1.9
458.64	1.95
458.845	1.91
459.05	1.86
459.255	1.87
459.46	1.89
459.665	2.02
459.87	2.03
460.075	1.97
460.28	2.02
460.485	2.04
460.69	2
460.895	2
461.099	1.91
461.304	1.96
461.509	1.89
461.714	1.87
461.919	1.85
462.123	1.9
462.328	1.88
462.533	1.9
462.738	1.86
462.942	1.97
463.147	1.99
463.352	2.01
463.556	2
463.761	2.01
463.966	2.06
464.17	2.08
464.375	2.04
464.58	2
464.784	2.01
464.989	2
465.193	2.02
465.398	2
465.602	2.02
465.807	2.04
466.011	2.08
466.216	2.09
466.42	2.09
466.625	2.07
466.829	2.11
467.034	2.13
467.238	2.17
467.443	2.15
467.647	2.16
467.851	2.14
468.056	2.12
468.26	2.06
468.464	2
468.669	1.98
468.873	1.97
469.077	1.97
469.282	2
469.486	2.03
469.69	2.04
469.894	2.11
470.099	2.16
470.303	2.18
470.507	2.2
470.711	2.2
