Data from Ofra_PS_T2_1A_6CX18_Reflection_3.txt Node
Date: Wed Jul 21 18:09:13 EDT 2021
User: Adam
Spectrometer: FLMT01687
Trigger mode: 0
Integration Time (sec): 1.100000E0
Scans to average: 2
Electric dark correction enabled: true
Nonlinearity correction enabled: false
Boxcar width: 2
XAxis mode: Wavelengths
Number of Pixels in Spectrum: 3648
>>>>>Begin Spectral Data<<<<<
179.494	666
179.716	743.29
179.937	697.08
180.158	699.37
180.38	1187.81
180.601	383.7
180.823	22.63
181.044	-84.6
181.265	36.4
181.486	1.21
181.708	154.16
181.929	1698.98
182.15	-597.89
182.372	154.56
182.593	39.2
182.814	43.63
183.035	116.09
183.257	70.75
183.478	-61.6
183.699	-4.93
183.92	-6.75
184.141	-29.69
184.363	-81.63
184.584	-22.83
184.805	-8.16
185.026	15.77
185.247	24.72
185.468	7.9
185.689	-0.89
185.91	6.33
186.132	3.72
186.353	-41.57
186.574	-10.73
186.795	-5.3
187.016	-64.19
187.237	-74.16
187.458	-98.71
187.679	-72.96
187.9	-47.17
188.121	-53.52
188.342	-39.93
188.563	11.78
188.784	1.64
189.005	18.8
189.226	62.59
189.447	39.54
189.667	-241.02
189.888	-501.72
190.109	-2164.29
190.33	-1140.97
190.551	-2029.65
190.772	-434.75
190.993	-337.59
191.214	-251.2
191.434	-173.09
191.655	-48.4
191.876	-124.42
192.097	-206.91
192.318	-257.89
192.538	-398.97
192.759	-270.87
192.98	-131.36
193.201	-40.41
193.421	-5.1
193.642	19.72
193.863	29.85
194.083	5.36
194.304	-23.22
194.525	-51.15
194.745	-100.92
194.966	-114.08
195.187	-121.07
195.407	-145.28
195.628	-231.54
195.848	-209.78
196.069	-238.85
196.29	-163.87
196.51	-161.35
196.731	-99.05
196.951	-83.13
197.172	-98.11
197.392	-129.9
197.613	-116.18
197.833	-136.98
198.054	-139.75
198.274	-85.36
198.495	-89.46
198.715	-62.18
198.936	-103.26
199.156	-83.41
199.377	-190.58
199.597	-190.55
199.817	-209.03
200.038	-129.9
200.258	-208.01
200.479	-130.5
200.699	-159.81
200.919	-94.91
201.14	-115.88
201.36	-118.58
201.58	-43.95
201.801	-5.63
202.021	-29.15
202.241	-15.54
202.461	-19.18
202.682	-126.92
202.902	-202.86
203.122	-136.35
203.342	-125.2
203.563	-73.16
203.783	-30.72
204.003	-73.64
204.223	-66.68
204.443	-5.68
204.663	-41.9
204.884	-27.31
205.104	20.44
205.324	55.42
205.544	28.67
205.764	46.26
205.984	55
206.204	51.44
206.424	22.08
206.644	-9.77
206.864	-7.79
207.084	-82.12
207.304	-121.95
207.525	-269.53
207.745	-125.23
207.964	-56.55
208.184	-95.58
208.404	-104.33
208.624	-105.3
208.844	-114.93
209.064	-433.76
209.284	-451.17
209.504	-244.56
209.724	-84.99
209.944	-79.32
210.164	-54.56
210.384	-29.29
210.604	-54.24
210.823	-118.25
211.043	-105.28
211.263	-73.32
211.483	-62.04
211.703	-102.01
211.922	-71.36
212.142	-18.27
212.362	-38.44
212.582	-49.03
212.801	-43.91
213.021	-55.7
213.241	-88.75
213.461	-96.97
213.68	-125.33
213.9	-101.05
214.12	-81.17
214.339	-127.15
214.559	-111.88
214.779	-57.26
214.998	-50.82
215.218	-103.51
215.438	-72.87
215.657	-72.78
215.877	-82.9
216.096	-51.69
216.316	-28.42
216.535	-20.51
216.755	-11.94
216.974	-79.9
217.194	-151.93
217.413	-172.23
217.633	-200.07
217.852	-353.84
218.072	-172.94
218.291	-96.55
218.511	-38.64
218.73	-54.07
218.95	-43.19
219.169	-37.26
219.389	-84.68
219.608	-75.24
219.827	-71.87
220.047	-52.55
220.266	-39.73
220.485	-18.85
220.705	-3.39
220.924	-33.19
221.143	-11.77
221.363	-33.83
221.582	-32.25
221.801	-40.01
222.021	-11.59
222.24	-77.3
222.459	-58.61
222.678	-56.06
222.897	-143.59
223.117	-205.71
223.336	-204.83
223.555	-136.18
223.774	-102.79
223.993	-101.13
224.213	-11.29
224.432	-10.77
224.651	-7.48
224.87	-27.42
225.089	-9.37
225.308	-33.03
225.527	-16.43
225.746	-15.23
225.965	-24.31
226.184	-55.56
226.404	-13.8
226.623	-28.41
226.842	-28.14
227.061	-8.42
227.28	12.74
227.499	-8.76
227.718	10.11
227.936	-4.92
228.155	-11.78
228.374	-45.99
228.593	-24.63
228.812	-48.95
229.031	-41.89
229.25	-81.89
229.469	-106.7
229.688	-100.25
229.907	-65
230.125	-50.61
230.344	-22.45
230.563	4.36
230.782	3.39
231.001	-66.25
231.22	-57.5
231.438	-27.46
231.657	-24.36
231.876	-33.02
232.095	20.54
232.313	17.5
232.532	-27.62
232.751	-67.1
232.969	-72.54
233.188	-215.61
233.407	-123.66
233.625	-85.92
233.844	-102.33
234.063	-90.19
234.281	-40.04
234.5	-49.33
234.719	-27.52
234.937	-1.64
235.156	6.24
235.374	5.2
235.593	-28.61
235.811	-39.43
236.03	-51.3
236.249	-123.2
236.467	-129.26
236.686	-42.97
236.904	-16.88
237.123	-49.37
237.341	-22.49
237.559	-11.15
237.778	-42.15
237.996	-81.33
238.215	-21.67
238.433	-11.94
238.652	-18.49
238.87	-26.43
239.088	-18.58
239.307	-4.57
239.525	-29.24
239.743	-34.84
239.962	-19.78
240.18	-42.49
240.398	-115.33
240.617	-94.8
240.835	-88.57
241.053	-60.49
241.271	-22.76
241.49	4.68
241.708	-34.97
241.926	-68.36
242.144	-69.2
242.363	-128.06
242.581	-164.84
242.799	-101.04
243.017	-50.43
243.235	-59.51
243.453	-28.63
243.672	-23.12
243.89	-19.29
244.108	-39.47
244.326	-22.03
244.544	-28.4
244.762	-26.11
244.98	-30.68
245.198	-1.76
245.416	-20.8
245.634	-23.04
245.852	-36.84
246.07	-49.9
246.288	-70.56
246.506	-94.63
246.724	-66.79
246.942	-41.26
247.16	-10.94
247.378	-8.78
247.596	6.78
247.814	-8.05
248.032	-48.69
248.25	-49.25
248.468	-37.39
248.685	-40.63
248.903	-14.1
249.121	0.89
249.339	-32.34
249.557	-46.94
249.775	-26.91
249.992	-83.11
250.21	-69.81
250.428	-47.05
250.646	-84.76
250.863	-126.2
251.081	-97.29
251.299	-125.57
251.517	-116.26
251.734	-66.76
251.952	-46.62
252.17	-40.61
252.387	-16.46
252.605	-36.2
252.823	-27.01
253.04	-13.26
253.258	1.57
253.475	-41.03
253.693	-13.27
253.911	-15.02
254.128	-10.94
254.346	-20.87
254.563	-9.82
254.781	-33.25
254.998	-68.15
255.216	-68.52
255.433	-58.22
255.651	-21.67
255.868	16.49
256.086	63.3
256.303	26.57
256.521	15.37
256.738	-5.64
256.956	-34.64
257.173	-62.07
257.39	-59.85
257.608	-75.39
257.825	-57.2
258.043	-30.12
258.26	-36.42
258.477	5.92
258.695	-6.14
258.912	-44.39
259.129	-44.2
259.346	-88.25
259.564	-143.41
259.781	-168.32
259.998	-84.72
260.216	-54.51
260.433	17.08
260.65	22.1
260.867	39.41
261.084	2.87
261.302	-5.49
261.519	-30.05
261.736	-64.86
261.953	-90.21
262.17	-38.45
262.387	-100.22
262.604	-118.58
262.822	-127.15
263.039	-92.99
263.256	-153.78
263.473	-88.77
263.69	-71.7
263.907	-16.91
264.124	3.47
264.341	-4.01
264.558	-11.95
264.775	-4.01
264.992	-14.54
265.209	-32.2
265.426	5.86
265.643	4.87
265.86	18.32
266.077	13.26
266.294	1.08
266.51	-59.82
266.727	-72.88
266.944	-68.98
267.161	-53.03
267.378	-49.46
267.595	-7.52
267.812	-4.32
268.028	-11.8
268.245	-16.42
268.462	-25.99
268.679	-35.17
268.896	6.48
269.112	-1.37
269.329	-2.55
269.546	-6.74
269.763	-13.79
269.979	-39.1
270.196	-44.23
270.413	-71.6
270.629	-84.55
270.846	-92.38
271.063	-95.04
271.279	-104.02
271.496	-93.55
271.712	-59.53
271.929	-36.43
272.146	-40.33
272.362	-30.41
272.579	-9.86
272.795	-1.24
273.012	-15.05
273.228	-9.85
273.445	-37.32
273.661	-95.59
273.878	-131.47
274.094	-103.01
274.311	-148.87
274.527	-54.27
274.744	-28.25
274.96	-27.75
275.177	-8.67
275.393	14.02
275.609	-2.33
275.826	8.02
276.042	-6.25
276.259	-25.21
276.475	2
276.691	6.61
276.908	-14.93
277.124	-4.19
277.34	-16.35
277.557	-52.13
277.773	-56.19
277.989	-53.57
278.205	-49.78
278.422	-31.13
278.638	-16.21
278.854	-0.43
279.07	-7.31
279.286	-3
279.503	-50.47
279.719	-60.16
279.935	-102.63
280.151	-104.12
280.367	-86.36
280.583	-96.86
280.799	-82.33
281.016	-104.46
281.232	-55.01
281.448	-51.04
281.664	-5.93
281.88	-35.43
282.096	2.56
282.312	17.73
282.528	31.18
282.744	31.86
282.96	43.59
283.176	22.71
283.392	2.28
283.608	-9.52
283.824	-28.02
284.04	-39.24
284.256	-31.82
284.471	-38.91
284.687	-46
284.903	-7.3
285.119	17.35
285.335	-6.24
285.551	-1.72
285.767	-22.39
285.982	-46.69
286.198	-94.85
286.414	-36.49
286.63	-14.9
286.846	15.76
287.061	-10.36
287.277	29.45
287.493	-20.28
287.709	-28.18
287.924	-52.2
288.14	-17.44
288.356	-24.44
288.571	20.66
288.787	10.34
289.003	18.86
289.218	-6.14
289.434	-48.16
289.65	-48.94
289.865	-47.38
290.081	-28.97
290.296	-2.25
290.512	3.55
290.727	-34.04
290.943	-38.97
291.159	-50.39
291.374	-55.02
291.59	-71.75
291.805	-44.57
292.021	-27.7
292.236	-22.78
292.451	-6.15
292.667	14.1
292.882	17.92
293.098	-3.29
293.313	-26.59
293.529	-57.04
293.744	-93.62
293.959	-88.64
294.175	-69.24
294.39	-36.14
294.605	-14.54
294.821	12.39
295.036	22.63
295.251	22.67
295.467	-16.5
295.682	-40.93
295.897	-99.96
296.112	-121.12
296.328	-116.82
296.543	-103.3
296.758	-97.15
296.973	-43.09
297.188	3.41
297.404	-17.09
297.619	-29.92
297.834	-44.7
298.049	-61.32
298.264	-80.92
298.479	-37.39
298.694	-37.71
298.909	-9.31
299.125	-6.42
299.34	-20.37
299.555	-41.44
299.77	-21.77
299.985	-67.51
300.2	-118.95
300.415	-121.35
300.63	-93.54
300.845	-96.36
301.06	-80.3
301.275	-45.36
301.49	-29.01
301.704	-37.7
301.919	-42.48
302.134	-62.38
302.349	-52.78
302.564	-121.49
302.779	-133.68
302.994	-122.96
303.209	-67.43
303.423	-56.1
303.638	16.18
303.853	-13.21
304.068	-24
304.283	-16.29
304.497	-14.05
304.712	-28.41
304.927	-24.83
305.142	-20.85
305.356	-28.73
305.571	-40.72
305.786	-48.45
306	-52.26
306.215	-60.47
306.43	-65.04
306.644	-65.3
306.859	-21.65
307.074	-4.57
307.288	-25.02
307.503	-60.38
307.717	-54.21
307.932	-59.34
308.147	-78.07
308.361	-64.75
308.576	-48.46
308.79	-90.17
309.005	-89.18
309.219	-53.64
309.434	-51.13
309.648	-48.47
309.863	-14.24
310.077	-15.77
310.292	-30.38
310.506	-28.95
310.72	-16.65
310.935	-19.67
311.149	-15.07
311.364	0.2
311.578	6.53
311.792	-13.68
312.007	-4.61
312.221	-21.35
312.435	-13.37
312.649	-26.17
312.864	-13.19
313.078	-11.86
313.292	32.31
313.507	-31.06
313.721	-28.7
313.935	-11.11
314.149	-31.92
314.363	-32.54
314.578	-27.05
314.792	-14.66
315.006	-32.61
315.22	-16.59
315.434	-23.24
315.648	-4.83
315.862	-16.17
316.077	-18.7
316.291	-49.52
316.505	-27.75
316.719	-79.79
316.933	-80.82
317.147	-59.7
317.361	-107.82
317.575	-147.41
317.789	-160.79
318.003	-245.16
318.217	-176.85
318.431	-54.33
318.645	8.05
318.859	-5.8
319.073	20.55
319.287	-1.84
319.5	-41.72
319.714	-99.24
319.928	-123.44
320.142	-138.72
320.356	-81.27
320.57	-35.49
320.784	-25.03
320.997	-29.46
321.211	-33.01
321.425	-87.24
321.639	-119.4
321.853	-64.87
322.066	-40.5
322.28	-46.01
322.494	-42.97
322.707	-6.28
322.921	-32.92
323.135	-31.07
323.349	-5.02
323.562	-23.45
323.776	-60.66
323.989	-48.46
324.203	-70.64
324.417	-102.6
324.63	-110.41
324.844	-96.96
325.057	-94.52
325.271	-61.76
325.485	-29.03
325.698	0.08
325.912	17.17
326.125	-10.44
326.339	-19.9
326.552	-28.49
326.766	-51.69
326.979	-39.39
327.193	14.52
327.406	3.89
327.619	-16.53
327.833	3.27
328.046	-30.03
328.26	-81.89
328.473	-50.51
328.686	-74.3
328.9	-74.85
329.113	-36.92
329.326	-70.65
329.54	-69.05
329.753	-67.57
329.966	-96.18
330.179	-93.43
330.393	-38.52
330.606	-30.9
330.819	-9.3
331.032	6.12
331.246	-1.56
331.459	20.82
331.672	9.84
331.885	-4.7
332.098	-39.91
332.311	-60.4
332.525	-110.95
332.738	-71.2
332.951	-38.48
333.164	7.28
333.377	23.9
333.59	22.15
333.803	1.27
334.016	-7.98
334.229	-10.61
334.442	-5.93
334.655	14.01
334.868	11.61
335.081	-7.13
335.294	-26.97
335.507	-46.61
335.72	-51.46
335.933	-58.14
336.146	-56.21
336.359	-50.33
336.572	-72.51
336.785	-106.66
336.997	-83.36
337.21	-51.52
337.423	-58.48
337.636	-55.3
337.849	-23.64
338.062	-41.25
338.274	-46.7
338.487	-54.16
338.7	-33.72
338.913	-78.02
339.125	-92.42
339.338	-142.31
339.551	-129.64
339.763	-93.81
339.976	-65.61
340.189	-30.86
340.402	-20.03
340.614	-22.72
340.827	-40.04
341.039	-63.98
341.252	-72.24
341.465	-35.05
341.677	-26.48
341.89	-55.49
342.102	-14.5
342.315	-27.4
342.527	-80.61
342.74	-79.75
342.952	-32.8
343.165	-33.89
343.377	-7.52
343.59	-2.2
343.802	12.97
344.015	-0.07
344.227	5.48
344.44	-5.89
344.652	-6.71
344.864	-25.05
345.077	9.22
345.289	11.41
345.502	12.7
345.714	2.08
345.926	4.91
346.139	-13.72
346.351	-11.28
346.563	-7.39
346.775	1.09
346.988	-12.52
347.2	-33.9
347.412	-88.21
347.624	-113.88
347.837	-129.04
348.049	-79.28
348.261	-39.68
348.473	-29.53
348.685	-26.51
348.897	-33.79
349.11	-69.13
349.322	-104.57
349.534	-77.01
349.746	-58.8
349.958	-28.13
350.17	-18.16
350.382	2.34
350.594	-0.26
350.806	-12.75
351.018	-27.28
351.23	-47.71
351.442	-106.03
351.654	-122.29
351.866	-99.45
352.078	-65.89
352.29	-32.4
352.502	-9.31
352.714	-0.32
352.926	-9.87
353.138	-18.83
353.35	-23.06
353.561	-25.04
353.773	-48.3
353.985	-30.89
354.197	-43.22
354.409	-46.53
354.621	-51.97
354.832	-32.96
355.044	-43.81
355.256	-38.71
355.468	-20.44
355.679	-19.54
355.891	-11.37
356.103	-24.5
356.314	-16.12
356.526	-28.73
356.738	-21.58
356.949	-27.32
357.161	-0.27
357.373	-1.53
357.584	-10.1
357.796	-10.71
358.008	-15.48
358.219	-5.75
358.431	-6.54
358.642	0.34
358.854	9.37
359.065	-0.55
359.277	-35.88
359.488	-48.18
359.7	-73.04
359.911	-87.72
360.123	-60.76
360.334	-76.92
360.546	-103.61
360.757	-88.12
360.969	-70.14
361.18	-83.6
361.391	-47.72
361.603	-23.98
361.814	-25.8
362.025	-34.24
362.237	-32.64
362.448	-23.86
362.659	-14.73
362.871	-10.91
363.082	-19.74
363.293	-26.64
363.504	-40.67
363.716	-70.75
363.927	-75.67
364.138	-107.05
364.349	-104.57
364.56	-99.18
364.772	-83.72
364.983	-51.27
365.194	-30.28
365.405	-11.17
365.616	7.27
365.827	11.9
366.038	-22.94
366.25	-32.78
366.461	-67.9
366.672	-42.94
366.883	-14.9
367.094	-0.58
367.305	-7.32
367.516	-10.13
367.727	-39.21
367.938	-72.74
368.149	-81.7
368.36	-70.29
368.571	-57.36
368.781	-61.01
368.992	-67.86
369.203	-81.42
369.414	-94.01
369.625	-91.9
369.836	-98.92
370.047	-117.55
370.258	-94.51
370.468	-83.9
370.679	-102.2
370.89	-85.47
371.101	-57.12
371.312	-53.28
371.522	-56.87
371.733	-32.82
371.944	-16.94
372.155	-7.67
372.365	-20.64
372.576	-21.89
372.787	-30.58
372.997	-55.75
373.208	-70.98
373.419	-42.2
373.629	-68.14
373.84	-77.85
374.05	-88.44
374.261	-59.58
374.472	-74.31
374.682	-15.26
374.893	-2.83
375.103	22.06
375.314	2.92
375.524	-9.58
375.735	-19.95
375.945	-10.78
376.156	-25.07
376.366	-23.66
376.577	-21.64
376.787	-30.38
376.997	-49.01
377.208	-48.92
377.418	-51.91
377.629	-28.2
377.839	-27.54
378.049	-12.39
378.26	2.04
378.47	4.09
378.68	-7.88
378.89	-12.14
379.101	-20.46
379.311	-54.93
379.521	-80.05
379.732	-80.09
379.942	-89.14
380.152	-107.03
380.362	-63.8
380.572	-50.19
380.783	-31.32
380.993	-3.93
381.203	9.45
381.413	12.46
381.623	15.07
381.833	8.58
382.043	-11.33
382.253	-16.53
382.463	-12.79
382.674	-19.03
382.884	-42.8
383.094	-38.76
383.304	-33.01
383.514	-31.37
383.724	-23.19
383.934	-28.49
384.144	-34.7
384.353	-45.37
384.563	-53.26
384.773	-43.33
384.983	-45.93
385.193	-24.99
385.403	-18.02
385.613	-9.37
385.823	-24.95
386.033	-12.29
386.242	-19.19
386.452	-22
386.662	-32.41
386.872	-17.72
387.082	-24.06
387.291	-31.99
387.501	-32.42
387.711	-19.85
387.921	-26.96
388.13	-24
388.34	-5.75
388.55	-7.48
388.759	-10.23
388.969	-4.33
389.179	-8.09
389.388	-14.9
389.598	-9.69
389.807	-15.3
390.017	-19.68
390.227	-13.49
390.436	-16.13
390.646	-17.49
390.855	-15.76
391.065	-14.25
391.274	-18.06
391.484	-17.35
391.693	-12.45
391.903	-9.41
392.112	-4.75
392.322	-0.3
392.531	3.01
392.74	1.37
392.95	-0.54
393.159	-0.81
393.369	0.24
393.578	-0.29
393.787	-1.1
393.997	0.55
394.206	-1.53
394.415	-1.46
394.625	-2.35
394.834	-3.72
395.043	-2.41
395.252	-0.18
395.462	0.63
395.671	2.35
395.88	4.51
396.089	3.65
396.298	2.46
396.508	1.43
396.717	0.84
396.926	1.29
397.135	1.56
397.344	1.19
397.553	2.18
397.762	3.57
397.971	3.4
398.181	3.68
398.39	3.78
398.599	3.7
398.808	3.59
399.017	4.45
399.226	5.52
399.435	6.9
399.644	6.45
399.853	5.76
400.062	5.11
400.27	4.78
400.479	4.19
400.688	3.73
400.897	3.99
401.106	4.02
401.315	3.79
401.524	3.85
401.733	4.78
401.941	5.4
402.15	5.53
402.359	5.52
402.568	5.95
402.777	6.23
402.985	5.81
403.194	5.84
403.403	5.87
403.612	5.43
403.82	5.09
404.029	5.26
404.238	5.08
404.446	5.4
404.655	5.3
404.864	5.29
405.072	5.01
405.281	5.22
405.489	4.81
405.698	4.89
405.906	4.81
406.115	4.91
406.324	4.75
406.532	5.04
406.741	5.33
406.949	5.34
407.158	5.45
407.366	5.55
407.574	5.47
407.783	5.29
407.991	5.24
408.2	5.29
408.408	5.22
408.617	5.15
408.825	4.96
409.033	5.03
409.242	5.14
409.45	5.2
409.658	5.06
409.867	5.33
410.075	5.23
410.283	5.01
410.491	4.94
410.7	4.96
410.908	4.97
411.116	5.24
411.324	5.2
411.533	5.14
411.741	5.37
411.949	5.22
412.157	4.91
412.365	4.97
412.573	5.03
412.781	4.92
412.99	4.91
413.198	5.22
413.406	5.09
413.614	5.09
413.822	4.93
414.03	4.96
414.238	4.63
414.446	4.72
414.654	4.58
414.862	4.7
415.07	4.69
415.278	4.83
415.486	4.64
415.694	4.71
415.902	4.54
416.109	4.32
416.317	4.3
416.525	4.33
416.733	4.31
416.941	4.54
417.149	4.55
417.357	4.52
417.564	4.61
417.772	4.9
417.98	4.79
418.188	4.91
418.395	4.9
418.603	5.01
418.811	4.52
419.019	4.5
419.226	4.57
419.434	4.69
419.642	4.4
419.849	4.63
420.057	4.54
420.265	4.48
420.472	4.21
420.68	4.25
420.887	4.12
421.095	4.25
421.302	4.24
421.51	4.37
421.717	4.47
421.925	4.55
422.132	4.37
422.34	4.19
422.547	4.14
422.755	4.23
422.962	4.08
423.17	4.03
423.377	4.17
423.585	4.24
423.792	3.99
423.999	4.04
424.207	3.96
424.414	4.06
424.621	4.04
424.829	4.07
425.036	4.23
425.243	4.49
425.451	4.39
425.658	4.15
425.865	4.45
426.072	4.37
426.28	4.59
426.487	4.55
426.694	4.79
426.901	4.37
427.108	4.42
427.315	4.2
427.523	4.39
427.73	4.37
427.937	4.55
428.144	4.34
428.351	4.27
428.558	4.36
428.765	4.28
428.972	4.23
429.179	4.5
429.386	4.79
429.593	4.5
429.8	4.48
430.007	4.66
430.214	4.73
430.421	4.52
430.628	4.5
430.835	4.49
431.042	4.7
431.249	4.68
431.456	4.77
431.662	4.91
431.869	5.07
432.076	4.95
432.283	5.04
432.49	4.98
432.697	5.11
432.903	4.92
433.11	4.9
433.317	4.97
433.524	5.1
433.73	5.03
433.937	5.36
434.144	5.22
434.35	5.08
434.557	4.99
434.764	4.98
434.97	4.79
435.177	5.02
435.384	5.05
435.59	5.21
435.797	5.46
436.003	5.49
436.21	5.46
436.416	5.54
436.623	5.55
436.829	5.48
437.036	5.68
437.242	5.72
437.449	5.68
437.655	5.71
437.862	5.72
438.068	5.63
438.275	5.76
438.481	5.95
438.687	5.89
438.894	5.79
439.1	5.83
439.307	5.99
439.513	6
439.719	6.04
439.926	6.23
440.132	6.27
440.338	6.01
440.544	5.99
440.751	6.05
440.957	6.11
441.163	6.05
441.369	6.19
441.575	6.03
441.782	6.02
441.988	5.93
442.194	5.99
442.4	5.93
442.606	6.21
442.812	6.28
443.018	6.35
443.224	6.49
443.431	6.71
443.637	6.49
443.843	6.39
444.049	6.45
444.255	6.31
444.461	6.29
444.667	6.3
444.873	6.49
445.079	6.39
445.284	6.52
445.49	6.29
445.696	6.27
445.902	6.16
446.108	6.17
446.314	6.02
446.52	6.19
446.726	6.4
446.931	6.43
447.137	6.46
447.343	6.58
447.549	6.55
447.755	6.49
447.96	6.51
448.166	6.54
448.372	6.46
448.578	6.42
448.783	6.38
448.989	6.48
449.195	6.68
449.4	6.71
449.606	6.75
449.812	6.77
450.017	6.75
450.223	6.58
450.428	6.64
450.634	6.74
450.84	6.89
451.045	6.91
451.251	6.88
451.456	7.04
451.662	7.07
451.867	7.13
452.073	7.14
452.278	7.26
452.483	7.33
452.689	7.31
452.894	7.24
453.1	7.25
453.305	7.21
453.51	7.11
453.716	7.01
453.921	7.09
454.127	7.05
454.332	7.02
454.537	6.94
454.742	7.04
454.948	7.08
455.153	7.2
