Data from Ofra_PS_T2_1A_8HS21_Reflection_3.txt Node
Date: Wed Jul 21 18:15:12 EDT 2021
User: Adam
Spectrometer: FLMT01687
Trigger mode: 0
Integration Time (sec): 1.100000E0
Scans to average: 2
Electric dark correction enabled: true
Nonlinearity correction enabled: false
Boxcar width: 2
XAxis mode: Wavelengths
Number of Pixels in Spectrum: 3648
>>>>>Begin Spectral Data<<<<<
179.494	531.2
179.716	578.35
179.937	598.59
180.158	584
180.38	897.5
180.601	395.58
180.823	154.73
181.044	-129.86
181.265	-13.97
181.486	43.16
181.708	63.51
181.929	408.16
182.15	-505.63
182.372	35.81
182.593	-15.33
182.814	1.72
183.035	83.13
183.257	92.02
183.478	22.55
183.699	28.2
183.92	-0.73
184.141	-14.62
184.363	-61.59
184.584	6.65
184.805	44.46
185.026	63.99
185.247	43.25
185.468	24.93
185.689	24.79
185.91	14.24
186.132	20.5
186.353	28.17
186.574	81.16
186.795	71.47
187.016	26.44
187.237	18.04
187.458	8.68
187.679	-17.63
187.9	-11.73
188.121	1.48
188.342	32.97
188.563	52.77
188.784	95.86
189.005	55.96
189.226	105.37
189.447	18.37
189.667	-102.91
189.888	-343.84
190.109	-1031.17
190.33	-624.52
190.551	-1079.65
190.772	-218.4
190.993	-206.68
191.214	-179.91
191.434	-124.24
191.655	-8.34
191.876	-94.14
192.097	-127.27
192.318	-135.04
192.538	-207.33
192.759	-204.01
192.98	-110.6
193.201	-50.38
193.421	-17
193.642	9.28
193.863	32.93
194.083	13.91
194.304	-0.91
194.525	-28
194.745	-69.45
194.966	-87.68
195.187	-70.38
195.407	-90.93
195.628	-127.03
195.848	-135.49
196.069	-142.61
196.29	-123.73
196.51	-120.36
196.731	-79.56
196.951	-78.08
197.172	-90.1
197.392	-112.42
197.613	-125.31
197.833	-178.85
198.054	-143.37
198.274	-69.11
198.495	-70.22
198.715	-12.98
198.936	2.85
199.156	5.96
199.377	-59.42
199.597	-37.22
199.817	-81.36
200.038	-47.24
200.258	-114.3
200.479	-61.8
200.699	-93.64
200.919	-10.31
201.14	-21.36
201.36	3.91
201.58	15.02
201.801	39.85
202.021	9.18
202.241	8.89
202.461	3.34
202.682	-57.04
202.902	-133.91
203.122	-83.37
203.342	-75.35
203.563	-42.37
203.783	-18.42
204.003	-47.98
204.223	-53.3
204.443	13.28
204.663	-8.04
204.884	2.87
205.104	34.77
205.324	69.89
205.544	53.96
205.764	53.77
205.984	43.35
206.204	37.16
206.424	15.1
206.644	-44.34
206.864	-12.06
207.084	-57.72
207.304	-54.42
207.525	-162.81
207.745	-48.78
207.964	-22.87
208.184	-23.91
208.404	-50.1
208.624	-44.05
208.844	-58.87
209.064	-305.99
209.284	-371.24
209.504	-168.11
209.724	-55.8
209.944	-9.28
210.164	22.34
210.384	30.99
210.604	10.42
210.823	-8.01
211.043	-33.87
211.263	-33.72
211.483	-31.79
211.703	-60.48
211.922	-49.4
212.142	-14.82
212.362	-0.8
212.582	7.69
212.801	9.7
213.021	-2.92
213.241	11.83
213.461	-29.29
213.68	-44.68
213.9	-23.43
214.12	-18.95
214.339	-92.19
214.559	-66.45
214.779	-25.72
214.998	-28.42
215.218	-53.96
215.438	-3.93
215.657	6.47
215.877	-6.06
216.096	3.82
216.316	12.18
216.535	-2.03
216.755	-9.25
216.974	-72.57
217.194	-135.63
217.413	-134.79
217.633	-111.8
217.852	-192.13
218.072	-80.04
218.291	-20.17
218.511	18.72
218.73	-16.71
218.95	-4.88
219.169	-3.94
219.389	-28.26
219.608	-21.44
219.827	-5.2
220.047	6.85
220.266	13.08
220.485	16.05
220.705	16.93
220.924	-1.1
221.143	19.55
221.363	6.74
221.582	11.46
221.801	21.8
222.021	39.35
222.24	4.75
222.459	35.8
222.678	44.9
222.897	-24.05
223.117	-93.36
223.336	-90.51
223.555	-47.61
223.774	-18.76
223.993	7.28
224.213	113.63
224.432	95.05
224.651	80.83
224.87	44.67
225.089	45.62
225.308	14.25
225.527	20.71
225.746	14.09
225.965	9.9
226.184	-19.54
226.404	8.18
226.623	-8.93
226.842	-11.27
227.061	3.48
227.28	10.98
227.499	-21.45
227.718	11.12
227.936	-1.84
228.155	17.99
228.374	9.91
228.593	17.83
228.812	-0.8
229.031	1.53
229.25	-48.04
229.469	-38.76
229.688	-21.24
229.907	-2.44
230.125	22.91
230.344	37.59
230.563	44.67
230.782	57.24
231.001	11.59
231.22	8.24
231.438	33.88
231.657	18.5
231.876	0.08
232.095	50.42
232.313	56.43
232.532	37.94
232.751	-6.1
232.969	-20.16
233.188	-108.51
233.407	-65.12
233.625	-33.89
233.844	-20.77
234.063	-1.59
234.281	27.13
234.5	10.36
234.719	9.33
234.937	19.76
235.156	16.99
235.374	-2.41
235.593	-15.52
235.811	-31.75
236.03	-40.55
236.249	-81.59
236.467	-48.94
236.686	-12.39
236.904	4.11
237.123	-12.23
237.341	-6.4
237.559	-0.36
237.778	-2.63
237.996	-9.6
238.215	32.53
238.433	43.75
238.652	24.51
238.87	2.6
239.088	4.41
239.307	-13.54
239.525	-31.59
239.743	-42.04
239.962	-27.59
240.18	-34.98
240.398	-55.32
240.617	-48.41
240.835	-24.71
241.053	-9.63
241.271	36.28
241.49	29.88
241.708	20.31
241.926	11.3
242.144	27.54
242.363	-46.65
242.581	-55.47
242.799	-35.62
243.017	-7.55
243.235	-34.87
243.453	-16.49
243.672	-14.36
243.89	-22.22
244.108	-39
244.326	-16.89
244.544	-25.36
244.762	-20.5
244.98	-17.89
245.198	7.54
245.416	-23.31
245.634	2.57
245.852	-11.44
246.07	-3.77
246.288	-21.02
246.506	-48.07
246.724	-73.22
246.942	-69.91
247.16	-34.17
247.378	-35.73
247.596	1.32
247.814	14.18
248.032	-2.39
248.25	0.08
248.468	-6.3
248.685	-6.2
248.903	21.4
249.121	26.89
249.339	5.61
249.557	12.23
249.775	23.09
249.992	-36.67
250.21	-19.52
250.428	-13.39
250.646	-33.84
250.863	-62.98
251.081	-27.47
251.299	-31.53
251.517	-27.46
251.734	-8.85
251.952	-8.04
252.17	-4.61
252.387	5.13
252.605	-8.44
252.823	17.09
253.04	36.15
253.258	53.4
253.475	43.22
253.693	87.17
253.911	44.49
254.128	51.38
254.346	57.03
254.563	31.09
254.781	-11.81
254.998	-9.71
255.216	-31.35
255.433	-49.25
255.651	19.94
255.868	27.63
256.086	57.49
256.303	35.74
256.521	30.99
256.738	-11.4
256.956	-30.33
257.173	-71.25
257.39	-76.49
257.608	-100.26
257.825	9.63
258.043	46.4
258.26	52.89
258.477	77.55
258.695	68.14
258.912	-20.22
259.129	-3.89
259.346	-37.66
259.564	-70.95
259.781	-88.17
259.998	-27.76
260.216	-11.86
260.433	18.04
260.65	19.77
260.867	38.68
261.084	10.48
261.302	-15.37
261.519	-19.51
261.736	-32.98
261.953	-37.77
262.17	0.94
262.387	-14.86
262.604	-37.41
262.822	-56.82
263.039	-50.21
263.256	-86.46
263.473	-60.02
263.69	-45.94
263.907	-4.12
264.124	-5.27
264.341	-6.71
264.558	-11.68
264.775	6.11
264.992	-8.88
265.209	9.69
265.426	33.6
265.643	35.38
265.86	36.14
266.077	45.71
266.294	33.36
266.51	-7.47
266.727	-3.55
266.944	-3.02
267.161	-3.65
267.378	-9.88
267.595	14.1
267.812	-11.73
268.028	-28.97
268.245	-30.17
268.462	-44.52
268.679	-50.18
268.896	5.24
269.112	11.98
269.329	11.65
269.546	22.04
269.763	5.51
269.979	-17.84
270.196	-23.13
270.413	-40.51
270.629	-53.98
270.846	-53.25
271.063	-50.58
271.279	-64.84
271.496	-48.04
271.712	-18.52
271.929	-13.16
272.146	4.08
272.362	23
272.579	25.29
272.795	28.31
273.012	37.76
273.228	37.21
273.445	8.32
273.661	-9.8
273.878	-51.89
274.094	-42.34
274.311	-74.79
274.527	-5.33
274.744	-3.93
274.96	0.66
275.177	18.88
275.393	30.39
275.609	24.1
275.826	39.12
276.042	36.21
276.259	10.27
276.475	24.83
276.691	17.42
276.908	-4.48
277.124	5.53
277.34	15.35
277.557	-2.8
277.773	-2.95
277.989	-6.36
278.205	-5.38
278.422	-1.29
278.638	5.14
278.854	22.16
279.07	43.76
279.286	21.16
279.503	-17.95
279.719	-15.62
279.935	-51.63
280.151	-91.92
280.367	-43.68
280.583	-36.85
280.799	-27.78
281.016	-38.93
281.232	0.69
281.448	-4.9
281.664	10.37
281.88	-33.52
282.096	1.3
282.312	21.54
282.528	26.21
282.744	51.42
282.96	53.95
283.176	43.8
283.392	25.58
283.608	8.63
283.824	-6.04
284.04	-5.12
284.256	-13.29
284.471	-9.24
284.687	-1.91
284.903	25.84
285.119	34.76
285.335	17.47
285.551	-2.91
285.767	-3.65
285.982	-34.37
286.198	-57.39
286.414	-15.9
286.63	1.22
286.846	25.61
287.061	12.98
287.277	40.83
287.493	25.17
287.709	42.51
287.924	24.44
288.14	63.59
288.356	50.71
288.571	58.63
288.787	26.16
289.003	30.36
289.218	11.74
289.434	-10.34
289.65	-4.64
289.865	15.56
290.081	34.66
290.296	37.87
290.512	38.23
290.727	10.21
290.943	-3.4
291.159	-15.32
291.374	-25.55
291.59	-38.24
291.805	-26.34
292.021	-3.89
292.236	-6.65
292.451	22.15
292.667	27.54
292.882	42.59
293.098	27.66
293.313	22.6
293.529	-23.48
293.744	-23.18
293.959	-25.24
294.175	-16.92
294.39	12.84
294.605	24.01
294.821	48.31
295.036	45.57
295.251	49.49
295.467	16.03
295.682	13.61
295.897	-45.13
296.112	-39.82
296.328	-46.12
296.543	-57.82
296.758	-66.48
296.973	-23.58
297.188	12.43
297.404	-18.95
297.619	-32.7
297.834	-35.34
298.049	-67.62
298.264	-105.08
298.479	-28.39
298.694	-16.28
298.909	-9.86
299.125	4.53
299.34	2.08
299.555	-21.32
299.77	14
299.985	-2.08
300.2	-50.16
300.415	-68.02
300.63	-51.58
300.845	-75.07
301.06	-82.48
301.275	-39.64
301.49	-14.07
301.704	-14.54
301.919	-23.8
302.134	-31.18
302.349	-35.6
302.564	-84.62
302.779	-97.07
302.994	-88.71
303.209	-31.65
303.423	12.89
303.638	41.64
303.853	1.22
304.068	1.17
304.283	-0.44
304.497	-14.95
304.712	-30.13
304.927	-2.43
305.142	-4.63
305.356	-0.88
305.571	-9.17
305.786	-7.26
306	-33.48
306.215	-44.53
306.43	-70.47
306.644	-64.17
306.859	-14.64
307.074	-1.89
307.288	-18
307.503	-21.62
307.717	-24.05
307.932	-39.15
308.147	-47.08
308.361	-15.11
308.576	-10.35
308.79	-44.54
309.005	-38.25
309.219	-13.65
309.434	-5.34
309.648	-0.49
309.863	17.67
310.077	21.02
310.292	12.5
310.506	-9.45
310.72	2.1
310.935	20.45
311.149	16.07
311.364	41.15
311.578	55.87
311.792	30.66
312.007	18.5
312.221	7.36
312.435	-7.16
312.649	-29.32
312.864	8.14
313.078	28.09
313.292	82.86
313.507	56.76
313.721	110.45
313.935	41.88
314.149	25.75
314.363	5.38
314.578	11.5
314.792	4.63
315.006	-2.69
315.22	10.81
315.434	19.09
315.648	27.25
315.862	20.93
316.077	25.89
316.291	21.31
316.505	18.74
316.719	4.01
316.933	-2.96
317.147	-10.52
317.361	-66.72
317.575	-100.74
317.789	-123.55
318.003	-147.39
318.217	-106.63
318.431	-28.15
318.645	19.84
318.859	18.45
319.073	23.76
319.287	17.12
319.5	-0.91
319.714	-21.81
319.928	-49.16
320.142	-74.49
320.356	-42.88
320.57	-9.01
320.784	-47.46
320.997	-37.34
321.211	-19.98
321.425	-68.35
321.639	-99.21
321.853	-49.03
322.066	-20.23
322.28	-17.66
322.494	-7.36
322.707	23.39
322.921	17.69
323.135	7.6
323.349	6.47
323.562	0.66
323.776	-22.99
323.989	-20.91
324.203	-41.55
324.417	-39.11
324.63	-69.92
324.844	-76.98
325.057	-77.39
325.271	-43.37
325.485	-16.29
325.698	12.12
325.912	33.97
326.125	16.78
326.339	3.83
326.552	-20.98
326.766	-11.66
326.979	4.9
327.193	43.08
327.406	36.24
327.619	27.72
327.833	25.9
328.046	-11.99
328.26	-51.2
328.473	-29.31
328.686	-56.22
328.9	-45.06
329.113	-15.74
329.326	-42.88
329.54	-25.57
329.753	-19.89
329.966	-62.57
330.179	-63.01
330.393	-9.1
330.606	-9.12
330.819	26.29
331.032	43.64
331.246	47.63
331.459	56.48
331.672	55.47
331.885	29.49
332.098	4
332.311	-3.36
332.525	-69.08
332.738	-58.38
332.951	-21.51
333.164	0.94
333.377	7.99
333.59	43.36
333.803	44.02
334.016	20.18
334.229	28.22
334.442	36.98
334.655	43.26
334.868	42.6
335.081	55.23
335.294	30.21
335.507	5.34
335.72	-4.24
335.933	-25.73
336.146	-40.84
336.359	-41.96
336.572	-51.19
336.785	-71.74
336.997	-55.31
337.21	-25
337.423	-29.4
337.636	-28.43
337.849	-12.64
338.062	-31.09
338.274	-38.49
338.487	-33.73
338.7	-26.11
338.913	-65.97
339.125	-77.35
339.338	-110.74
339.551	-92.65
339.763	-70.66
339.976	-39.83
340.189	-9.32
340.402	2.91
340.614	5.59
340.827	-1.39
341.039	-5.03
341.252	4.18
341.465	5.23
341.677	-14.95
341.89	-44.83
342.102	-19.92
342.315	-44.64
342.527	-67.9
342.74	-49.56
342.952	-5.36
343.165	-17.69
343.377	0.67
343.59	-3.92
343.802	5.81
344.015	-16.43
344.227	-11.75
344.44	-5.45
344.652	0.95
344.864	-10.06
345.077	20.29
345.289	25.19
345.502	17.85
345.714	21.78
345.926	32.13
346.139	31.42
346.351	35.33
346.563	49.61
346.775	51.22
346.988	27.86
347.2	2.42
347.412	-32.23
347.624	-50.48
347.837	-77.01
348.049	-26.07
348.261	20.57
348.473	21.3
348.685	26.67
348.897	19.44
349.11	-9.54
349.322	-50.19
349.534	-43.76
349.746	-57.08
349.958	-51.74
350.17	-26.43
350.382	9.58
350.594	17.05
350.806	28.02
351.018	29.99
351.23	11.97
351.442	-37.57
351.654	-44.84
351.866	-34.54
352.078	-22.56
352.29	-7.14
352.502	12.19
352.714	23.36
352.926	20.19
353.138	11.85
353.35	-5.19
353.561	-1.81
353.773	-26.86
353.985	-22.28
354.197	-26.5
354.409	-18.14
354.621	-10.62
354.832	-1.44
355.044	-8.28
355.256	-14.31
355.468	2.25
355.679	-20.83
355.891	-5.74
356.103	-9.87
356.314	11.71
356.526	13.66
356.738	33.84
356.949	14.1
357.161	11.43
357.373	0.7
357.584	-15.61
357.796	-11.01
358.008	-5.8
358.219	14.24
358.431	2.07
358.642	6.75
358.854	-0.8
359.065	-20.21
359.277	-56.19
359.488	-60.28
359.7	-67.54
359.911	-74.37
360.123	-45.85
360.334	-52.75
360.546	-60.09
360.757	-70.28
360.969	-46.44
361.18	-50.92
361.391	-35.99
361.603	-32.81
361.814	-13.89
362.025	-12.99
362.237	-14.6
362.448	3.31
362.659	23.19
362.871	11.57
363.082	-5.37
363.293	3.72
363.504	-19.38
363.716	-42.87
363.927	-54.58
364.138	-59.32
364.349	-74.8
364.56	-54.26
364.772	-48.59
364.983	-13.03
365.194	-10.94
365.405	-4.68
365.616	6.31
365.827	8.85
366.038	-25
366.25	-32.32
366.461	-56.5
366.672	-23.51
366.883	-7.74
367.094	8.6
367.305	0.52
367.516	2.01
367.727	-32.25
367.938	-53.23
368.149	-61.39
368.36	-26.75
368.571	-18.54
368.781	-31.08
368.992	-34.18
369.203	-38.72
369.414	-60.57
369.625	-62.7
369.836	-40.95
370.047	-56.23
370.258	-47.98
370.468	-59.21
370.679	-72.03
370.89	-65.4
371.101	-40.63
371.312	-44.25
371.522	-32.31
371.733	-12.29
371.944	-2.23
372.155	-7.16
372.365	-15.62
372.576	-21.12
372.787	-26.28
372.997	-38.61
373.208	-33.01
373.419	-5.59
373.629	-23.9
373.84	-33.14
374.05	-58.11
374.261	-52.85
374.472	-74.51
374.682	-23.89
374.893	-19.53
375.103	17.2
375.314	15.18
375.524	18.59
375.735	5.7
375.945	16.89
376.156	-5.68
376.366	-3.28
376.577	1.98
376.787	-3.56
376.997	-12.54
377.208	-6.55
377.418	-17.83
377.629	-13.68
377.839	-8.35
378.049	1.06
378.26	16.43
378.47	22.92
378.68	18.34
378.89	17.31
379.101	7.62
379.311	-30.48
379.521	-52.84
379.732	-65.91
379.942	-65.53
380.152	-85.15
380.362	-33.01
380.572	-25.19
380.783	-5.76
380.993	7.67
381.203	26.28
381.413	28.09
381.623	35.44
381.833	25.3
382.043	15.07
382.253	6.4
382.463	-2.74
382.674	-14.13
382.884	-24.08
383.094	-24.56
383.304	-17.16
383.514	-13.43
383.724	-5.71
383.934	-8.91
384.144	-17.34
384.353	-24.09
384.563	-25.09
384.773	-16.68
384.983	-20.44
385.193	-1.77
385.403	8.17
385.613	7.24
385.823	-3.04
386.033	-0.56
386.242	-8.71
386.452	-17.82
386.662	-26.82
386.872	-17.05
387.082	-20.57
387.291	-26.28
387.501	-25.1
387.711	-9.63
387.921	-16.4
388.13	-8.35
388.34	0.65
388.55	-4.32
388.759	-12.65
388.969	-5.2
389.179	-10.13
389.388	-11.57
389.598	-6.68
389.807	-8.17
390.017	-12.56
390.227	-6.78
390.436	-10.1
390.646	-5.32
390.855	-1.92
391.065	-3.45
391.274	-5.31
391.484	-4.41
391.693	-7.42
391.903	-5.66
392.112	0.1
392.322	1.07
392.531	4.4
392.74	6.96
392.95	1.87
393.159	0.37
393.369	1.11
393.578	-0.01
393.787	-2.2
393.997	-0.27
394.206	-2.19
394.415	-4.04
394.625	-4.4
394.834	-5.72
395.043	-4.14
395.252	-1.13
395.462	0.87
395.671	2.27
395.88	3.36
396.089	4.37
396.298	2.01
396.508	1.25
396.717	1.01
396.926	1.13
397.135	-0.18
397.344	0.24
397.553	1.64
397.762	1.95
397.971	1.8
398.181	2.02
398.39	1.28
398.599	0.89
398.808	0.96
399.017	2.49
399.226	3.79
399.435	4.87
399.644	4.68
399.853	3.86
400.062	3.27
400.27	2.67
400.479	2.24
400.688	1.38
400.897	1.55
401.106	1.49
401.315	1.27
401.524	1.65
401.733	2.55
401.941	3.19
402.15	3.21
402.359	3.05
402.568	3.25
402.777	3.23
402.985	2.89
403.194	2.72
403.403	2.75
403.612	2.41
403.82	2.34
404.029	2.57
404.238	2.34
404.446	2.62
404.655	2.38
404.864	2.08
405.072	1.85
405.281	2.16
405.489	1.98
405.698	2.09
405.906	2.24
406.115	2.06
406.324	1.84
406.532	1.9
406.741	2.22
406.949	2.24
407.158	2.35
407.366	2.46
407.574	2.46
407.783	2.38
407.991	2.14
408.2	2.34
408.408	2.37
408.617	2.22
408.825	1.99
409.033	2.16
409.242	2.11
409.45	2.07
409.658	2.03
409.867	2.17
410.075	2.04
410.283	1.93
410.491	1.93
410.7	2
410.908	1.95
411.116	2.3
411.324	2.3
411.533	2.17
411.741	2.34
411.949	2.4
412.157	2.09
412.365	2.09
412.573	2.16
412.781	2.08
412.99	1.99
413.198	2.22
413.406	2.17
413.614	2.2
413.822	2.1
414.03	2.03
414.238	1.77
414.446	1.98
414.654	1.86
414.862	2
415.07	2.15
415.278	2.34
415.486	2.16
415.694	2.22
415.902	2.03
416.109	1.81
416.317	1.74
416.525	1.62
416.733	1.65
416.941	1.83
417.149	1.84
417.357	1.83
417.564	2.11
417.772	2.27
417.98	2.2
418.188	2.26
418.395	2.33
418.603	2.36
418.811	1.92
419.019	1.73
419.226	2.02
419.434	2.09
419.642	1.83
419.849	2.07
420.057	2.2
420.265	2.14
420.472	1.99
420.68	2.06
420.887	2.02
421.095	2.05
421.302	1.77
421.51	1.86
421.717	1.92
421.925	1.95
422.132	1.87
422.34	1.82
422.547	1.83
422.755	1.68
422.962	1.72
423.17	1.6
423.377	1.69
423.585	1.63
423.792	1.58
423.999	1.54
424.207	1.65
424.414	1.79
424.621	1.7
424.829	1.73
425.036	1.9
425.243	2.02
425.451	1.93
425.658	1.78
425.865	2.04
426.072	1.86
426.28	1.95
426.487	1.79
426.694	1.98
426.901	1.74
427.108	1.76
427.315	1.64
427.523	1.98
427.73	2.03
427.937	2.12
428.144	1.98
428.351	1.96
428.558	1.89
428.765	1.81
428.972	1.7
429.179	1.8
429.386	2.16
429.593	1.98
429.8	1.85
430.007	1.98
430.214	2.1
430.421	1.68
430.628	1.6
430.835	1.53
431.042	1.58
431.249	1.6
431.456	1.66
431.662	1.77
431.869	1.95
432.076	1.99
432.283	2.03
432.49	2.04
432.697	2.11
432.903	1.93
433.11	1.9
433.317	1.92
433.524	2.07
433.73	2.01
433.937	2.34
434.144	2.17
434.35	2.13
434.557	2
434.764	2.03
434.97	1.86
435.177	2.06
435.384	1.94
435.59	2.15
435.797	2.33
436.003	2.41
436.21	2.34
436.416	2.5
436.623	2.37
436.829	2.38
437.036	2.45
437.242	2.48
437.449	2.29
437.655	2.3
437.862	2.32
438.068	2.22
438.275	2.27
438.481	2.5
438.687	2.49
438.894	2.4
439.1	2.46
439.307	2.61
439.513	2.5
439.719	2.56
439.926	2.6
440.132	2.57
440.338	2.31
440.544	2.43
440.751	2.37
440.957	2.48
441.163	2.45
441.369	2.63
441.575	2.45
441.782	2.4
441.988	2.16
442.194	2.17
442.4	2.09
442.606	2.36
442.812	2.41
443.018	2.52
443.224	2.55
443.431	2.67
443.637	2.45
443.843	2.43
444.049	2.5
444.255	2.4
444.461	2.4
444.667	2.36
444.873	2.43
445.079	2.39
445.284	2.55
445.49	2.36
445.696	2.27
445.902	2.25
446.108	2.25
446.314	2.11
446.52	2.16
446.726	2.4
446.931	2.41
447.137	2.4
447.343	2.48
447.549	2.53
447.755	2.41
447.96	2.41
448.166	2.35
448.372	2.33
448.578	2.35
448.783	2.38
448.989	2.45
449.195	2.67
449.4	2.69
449.606	2.59
449.812	2.51
450.017	2.5
450.223	2.37
450.428	2.31
450.634	2.45
450.84	2.6
451.045	2.59
451.251	2.5
451.456	2.72
451.662	2.8
451.867	2.82
452.073	2.75
452.278	2.85
452.483	2.88
452.689	2.76
452.894	2.79
453.1	2.77
453.305	2.67
453.51	2.6
453.716	2.51
453.921	2.56
454.127	2.55
454.332	2.58
454.537	2.52
454.742	2.54
454.948	2.43
455.153	2.5
455.358	2.62
455.563	2.74
455.769	2.86
455.974	2.87
456.179	2.7
456.384	2.68
456.589	2.62
456.795	2.46
457	2.44
457.205	2.65
457.41	2.58
457.615	2.49
457.82	2.6
458.025	2.64
458.23	2.54
458.435	2.58
458.64	2.55
458.845	2.68
459.05	2.66
459.255	2.74
459.46	2.71
459.665	2.75
459.87	2.71
460.075	2.63
460.28	2.7
460.485	2.77
460.69	2.85
460.895	2.73
461.099	2.74
461.304	2.72
461.509	2.77
461.714	2.71
461.919	2.82
