Data from Ofra_PS_T2_2A_2GT38_Reflection_3.txt Node
Date: Wed Jul 21 17:04:21 EDT 2021
User: Adam
Spectrometer: FLMT01687
Trigger mode: 0
Integration Time (sec): 1.100000E0
Scans to average: 2
Electric dark correction enabled: true
Nonlinearity correction enabled: false
Boxcar width: 2
XAxis mode: Wavelengths
Number of Pixels in Spectrum: 3648
>>>>>Begin Spectral Data<<<<<
179.494	595.4
179.716	653.88
179.937	637.15
180.158	608.56
180.38	987.03
180.601	507.87
180.823	122.31
181.044	-13.63
181.265	137.68
181.486	32.51
181.708	15.53
181.929	351.53
182.15	-335.56
182.372	44.17
182.593	10.02
182.814	1.85
183.035	44.13
183.257	56.42
183.478	8.03
183.699	6.01
183.92	15.06
184.141	17.3
184.363	-12.08
184.584	55.08
184.805	48.23
185.026	53.91
185.247	43.31
185.468	33.2
185.689	3.97
185.91	10.08
186.132	10.64
186.353	15.45
186.574	41.74
186.795	45.93
187.016	26.52
187.237	12.5
187.458	13.67
187.679	12.63
187.9	6.26
188.121	-4.29
188.342	10.37
188.563	8.2
188.784	48.81
189.005	72.43
189.226	98.69
189.447	92.77
189.667	161.04
189.888	-192.73
190.109	-971.75
190.33	-387.9
190.551	-956.86
190.772	-208.05
190.993	-157.82
191.214	-130.62
191.434	-100.34
191.655	-10.46
191.876	-70.03
192.097	-132.91
192.318	-191.44
192.538	-310.92
192.759	-219.78
192.98	-94.43
193.201	-16.28
193.421	11.52
193.642	29.64
193.863	39.36
194.083	5.38
194.304	-17.76
194.525	-19.81
194.745	-59.94
194.966	-79.48
195.187	-53.31
195.407	-54.93
195.628	-105.65
195.848	-119.33
196.069	-106.71
196.29	-56.47
196.51	-71.22
196.731	-47.92
196.951	-37.79
197.172	-50.76
197.392	-82.37
197.613	-79.5
197.833	-129.98
198.054	-100.22
198.274	-65.22
198.495	-84.32
198.715	-51.39
198.936	-66.29
199.156	-61.5
199.377	-148.83
199.597	-134.19
199.817	-146.52
200.038	-60.58
200.258	-120.96
200.479	-49.63
200.699	-54.28
200.919	-10.99
201.14	-33.75
201.36	-30.87
201.58	1.51
201.801	29.43
202.021	4.1
202.241	4.93
202.461	-3.94
202.682	-98.49
202.902	-154.55
203.122	-91.45
203.342	-71.67
203.563	-42.31
203.783	12.45
204.003	-43.67
204.223	-42.03
204.443	11.95
204.663	12.58
204.884	5.71
205.104	46.69
205.324	76.92
205.544	51.5
205.764	56.49
205.984	52.9
206.204	49.87
206.424	20.6
206.644	-19.92
206.864	-5.92
207.084	-60.72
207.304	-44.78
207.525	-139.14
207.745	-77.35
207.964	-23.15
208.184	-71.86
208.404	-95.26
208.624	-80.81
208.844	-47.64
209.064	-240.84
209.284	-155.76
209.504	-52.02
209.724	20.99
209.944	4.46
210.164	34.74
210.384	32.76
210.604	37.01
210.823	-5.86
211.043	-33.55
211.263	-48.39
211.483	-35.99
211.703	-75.81
211.922	-51.81
212.142	15.26
212.362	50.23
212.582	36.89
212.801	22.03
213.021	-2.87
213.241	-22.53
213.461	-67.82
213.68	-95.94
213.9	-65.47
214.12	-47.96
214.339	-102.53
214.559	-91.06
214.779	-32.56
214.998	-27.24
215.218	-47.35
215.438	-5.62
215.657	-8.16
215.877	-14.1
216.096	17.54
216.316	25.2
216.535	21.46
216.755	25.38
216.974	-24.13
217.194	-86.4
217.413	-97.97
217.633	-120.25
217.852	-194.29
218.072	-88.6
218.291	-49.91
218.511	-1.33
218.73	-23.03
218.95	-17.4
219.169	-22.89
219.389	-62.86
219.608	-61.65
219.827	-45.39
220.047	-42.48
220.266	-2.22
220.485	15.12
220.705	34.07
220.924	11.73
221.143	34.08
221.363	-0.9
221.582	4.52
221.801	15.58
222.021	30
222.24	-14.42
222.459	35.41
222.678	13.55
222.897	-73.77
223.117	-121.34
223.336	-108.43
223.555	-76.23
223.774	-40.41
223.993	-30.36
224.213	17.2
224.432	17.16
224.651	42.24
224.87	22.74
225.089	41.36
225.308	45.84
225.527	50.33
225.746	57.34
225.965	54.97
226.184	31.3
226.404	16.69
226.623	-6.39
226.842	-1.08
227.061	4.71
227.28	12.75
227.499	1.32
227.718	22.37
227.936	1.83
228.155	26.09
228.374	21.76
228.593	31.59
228.812	31.09
229.031	26.24
229.25	-20.2
229.469	-35.45
229.688	-40.71
229.907	-6.72
230.125	0.13
230.344	13.65
230.563	21.83
230.782	38.04
231.001	-33.56
231.22	-11.99
231.438	10.8
231.657	18.17
231.876	-2.84
232.095	40.32
232.313	31.51
232.532	-9.93
232.751	-33.29
232.969	-24.26
233.188	-65.82
233.407	-8.87
233.625	7.6
233.844	9.13
234.063	12.53
234.281	17.66
234.5	11.21
234.719	22.43
234.937	32.24
235.156	32.94
235.374	36.04
235.593	20.01
235.811	3.76
236.03	3.16
236.249	-29.2
236.467	-16.37
236.686	6.99
236.904	17.18
237.123	-8.42
237.341	11.07
237.559	10.23
237.778	2.97
237.996	1.63
238.215	33.72
238.433	19.1
238.652	13.91
238.87	-7.3
239.088	-12.04
239.307	-14.61
239.525	-34.53
239.743	-63.26
239.962	-63.73
240.18	-72.42
240.398	-120.82
240.617	-104.32
240.835	-75.71
241.053	-43.3
241.271	10.43
241.49	35.59
241.708	14.17
241.926	-9.4
242.144	-25.75
242.363	-57.77
242.581	-79.2
242.799	-16.88
243.017	-4.7
243.235	-12.71
243.453	-13.97
243.672	-23.81
243.89	-24.01
244.108	-26
244.326	-10.23
244.544	-11.97
244.762	-12.63
244.98	-12.28
245.198	-16.28
245.416	-45.3
245.634	-49.91
245.852	-50.98
246.07	-71.03
246.288	-25.23
246.506	-23.28
246.724	-7.78
246.942	-25.15
247.16	28.63
247.378	7.47
247.596	32.02
247.814	46.86
248.032	46.03
248.25	16.59
248.468	17.98
248.685	24.98
248.903	49.14
249.121	57.31
249.339	34.26
249.557	36.2
249.775	34.83
249.992	-35.75
250.21	-36.7
250.428	-20.66
250.646	-47.14
250.863	-77.1
251.081	-28.85
251.299	-29.64
251.517	-4.33
251.734	20.29
251.952	13.78
252.17	-1.9
252.387	15.34
252.605	-0.6
252.823	5.04
253.04	25.55
253.258	42.17
253.475	29.04
253.693	56.84
253.911	48.09
254.128	52.71
254.346	58.7
254.563	46.37
254.781	16.17
254.998	-6.95
255.216	-3.52
255.433	-15.99
255.651	6.03
255.868	15.94
256.086	51.79
256.303	31.19
256.521	19.57
256.738	0.1
256.956	-24.81
257.173	-65.4
257.39	-58.75
257.608	-62.95
257.825	32.88
258.043	75.74
258.26	81.83
258.477	97.16
258.695	94.13
258.912	5.67
259.129	4.05
259.346	-19.74
259.564	-53.8
259.781	-55.5
259.998	-2.52
260.216	31.58
260.433	51.65
260.65	50.05
260.867	52.41
261.084	36.24
261.302	-3.45
261.519	-24.74
261.736	-52.53
261.953	-47.47
262.17	-20.45
262.387	-28.67
262.604	-35.02
262.822	-35.72
263.039	-44.73
263.256	-69.7
263.473	-37.58
263.69	-9.78
263.907	21.09
264.124	40.27
264.341	30.91
264.558	15.77
264.775	14.83
264.992	10.69
265.209	-2.1
265.426	31.7
265.643	44.69
265.86	49.58
266.077	55.33
266.294	46.11
266.51	-5.84
266.727	-26.21
266.944	-25.83
267.161	-54.67
267.378	-53.38
267.595	-19.74
267.812	-40.75
268.028	-57.97
268.245	-16.14
268.462	-13.44
268.679	-22.97
268.896	31.03
269.112	35.38
269.329	17.87
269.546	10.93
269.763	1.18
269.979	-30.42
270.196	-27.34
270.413	-50.9
270.629	-69.33
270.846	-65.5
271.063	-59.14
271.279	-74.92
271.496	-42.21
271.712	8.08
271.929	21.24
272.146	11.34
272.362	26.34
272.579	39.33
272.795	36.05
273.012	38.68
273.228	46.32
273.445	34.52
273.661	23.45
273.878	-11.73
274.094	-7.6
274.311	-21.79
274.527	6.67
274.744	5.63
274.96	6.28
275.177	10.66
275.393	19.55
275.609	26.01
275.826	34.4
276.042	30.25
276.259	10.32
276.475	26.31
276.691	16.5
276.908	-4.6
277.124	3.59
277.34	8.72
277.557	7.16
277.773	4.83
277.989	12.75
278.205	18.03
278.422	36.22
278.638	24.95
278.854	44.47
279.07	45.17
279.286	25.47
279.503	-11.16
279.719	-13.97
279.935	-46.47
280.151	-53.69
280.367	-22.91
280.583	-37.03
280.799	-27.18
281.016	-50.66
281.232	1.99
281.448	-3.02
281.664	14.89
281.88	-8.87
282.096	20.99
282.312	6.23
282.528	15.67
282.744	33.17
282.96	41.31
283.176	34.62
283.392	13.01
283.608	16.37
283.824	2.43
284.04	15.46
284.256	4.78
284.471	6.24
284.687	-8.68
284.903	13.38
285.119	12.43
285.335	-6.23
285.551	-9.28
285.767	-31.45
285.982	-43.64
286.198	-61.22
286.414	15.28
286.63	26.23
286.846	58.89
287.061	42.84
287.277	54.85
287.493	23.76
287.709	29.58
287.924	11.62
288.14	44.96
288.356	26.57
288.571	48.08
288.787	30.01
289.003	25.56
289.218	-9.09
289.434	-22.4
289.65	-33.37
289.865	-41.25
290.081	-26.2
290.296	4.63
290.512	-3.33
290.727	-29.54
290.943	-33.94
291.159	-34.71
291.374	-45.33
291.59	-52.86
291.805	-33.15
292.021	-25.32
292.236	-34.8
292.451	-15.47
292.667	-7.14
292.882	9.01
293.098	23.95
293.313	5.24
293.529	-22.26
293.744	-22.18
293.959	-37.46
294.175	-53.86
294.39	-17.84
294.605	3.99
294.821	16.35
295.036	22.64
295.251	37.64
295.467	31.61
295.682	22.76
295.897	-22.58
296.112	-37.56
296.328	-38.99
296.543	-57.53
296.758	-44.86
296.973	7.15
297.188	36.26
297.404	22.78
297.619	17.58
297.834	-0.8
298.049	-14.29
298.264	-54.04
298.479	-4.43
298.694	-3.66
298.909	13.23
299.125	15.91
299.34	28.5
299.555	-6.38
299.77	9.02
299.985	-36.1
300.2	-71.67
300.415	-85.43
300.63	-36.4
300.845	-48.13
301.06	-24.42
301.275	-5.82
301.49	11.36
301.704	-8.01
301.919	-21.52
302.134	-32.72
302.349	-29.52
302.564	-102.31
302.779	-124.85
302.994	-75.43
303.209	-45.23
303.423	-71.61
303.638	13.2
303.853	-10.11
304.068	-24.91
304.283	-24.71
304.497	-1.23
304.712	-9.91
304.927	-8.65
305.142	-16.71
305.356	-8.27
305.571	-19.17
305.786	-38.46
306	-49.92
306.215	-20.06
306.43	-29.39
306.644	-20.26
306.859	45.93
307.074	40.42
307.288	-2.3
307.503	-21.04
307.717	-21.16
307.932	-42.47
308.147	-47.04
308.361	-18.32
308.576	-15.42
308.79	-60.96
309.005	-42.85
309.219	-16.57
309.434	-25.1
309.648	-19.39
309.863	19.76
310.077	28.46
310.292	17.95
310.506	4.25
310.72	9.18
310.935	9.73
311.149	-3.99
311.364	16.18
311.578	28.34
311.792	26.58
312.007	26.83
312.221	13.66
312.435	17.4
312.649	13.81
312.864	45.04
313.078	53.9
313.292	122.25
313.507	89.67
313.721	95.9
313.935	26.99
314.149	12.57
314.363	8.09
314.578	15.93
314.792	19.67
315.006	13.47
315.22	34.51
315.434	31.21
315.648	33.72
315.862	29.08
316.077	35.69
316.291	4.61
316.505	9.59
316.719	-27.44
316.933	-23.13
317.147	-21.06
317.361	-48.84
317.575	-64.6
317.789	-63.48
318.003	-106.4
318.217	-63.45
318.431	-7.67
318.645	21.83
318.859	18.49
319.073	38.26
319.287	9.94
319.5	-8.62
319.714	-54.21
319.928	-74.18
320.142	-112.69
320.356	-55.89
320.57	-25.58
320.784	-20.34
320.997	-25.34
321.211	4.13
321.425	-47.45
321.639	-77.61
321.853	-27.66
322.066	-7.94
322.28	-10.73
322.494	4.63
322.707	23.44
322.921	16.52
323.135	8.59
323.349	25.27
323.562	0.55
323.776	-13.92
323.989	-25.5
324.203	-35.35
324.417	-52.25
324.63	-58.58
324.844	-54.32
325.057	-40.07
325.271	-22.58
325.485	1.23
325.698	21.06
325.912	33.72
326.125	17.3
326.339	15.68
326.552	8.06
326.766	-0.28
326.979	9.02
327.193	39.01
327.406	25.72
327.619	4.75
327.833	22.88
328.046	-1.92
328.26	-33.07
328.473	-18.9
328.686	-26.62
328.9	-37.05
329.113	-10.89
329.326	-8.3
329.54	-3.76
329.753	-12.52
329.966	-12.02
330.179	-14.53
330.393	-5.93
330.606	4.08
330.819	24.59
331.032	25.99
331.246	23.46
331.459	39.07
331.672	26.69
331.885	12.07
332.098	-8.43
332.311	-3.31
332.525	-40.86
332.738	-27.69
332.951	-8.81
333.164	0.1
333.377	-5.78
333.59	10.84
333.803	15.94
334.016	21.26
334.229	35.97
334.442	47.33
334.655	61.71
334.868	64.85
335.081	47.1
335.294	31.52
335.507	31.38
335.72	18.9
335.933	6.42
336.146	2.39
336.359	3.52
336.572	-28.36
336.785	-54.31
336.997	-52.29
337.21	-29.78
337.423	-27.61
337.636	-16.25
337.849	-3.41
338.062	-18.01
338.274	-20.58
338.487	-24.3
338.7	-23.84
338.913	-58.08
339.125	-63.93
339.338	-107.76
339.551	-85.79
339.763	-62.32
339.976	-21.85
340.189	6.31
340.402	22.9
340.614	21.53
340.827	15.12
341.039	-0.27
341.252	-4.58
341.465	1.03
341.677	0.1
341.89	-29.04
342.102	-2.85
342.315	-9.24
342.527	-33.38
342.74	-34.39
342.952	-10.57
343.165	-17.65
343.377	-4.41
343.59	-0.2
343.802	5.98
344.015	11.81
344.227	9.55
344.44	-2.89
344.652	-2.17
344.864	-8.64
345.077	18.63
345.289	27.76
345.502	38.96
345.714	33.41
345.926	40.54
346.139	25.81
346.351	23.05
346.563	28.85
346.775	40.99
346.988	30.8
347.2	17.95
347.412	-9.97
347.624	-26.69
347.837	-38.41
348.049	-17.93
348.261	19.6
348.473	25.82
348.685	6.28
348.897	0.45
349.11	-4.35
349.322	-14.16
349.534	-2.39
349.746	19.62
349.958	16.14
350.17	6.99
350.382	20.53
350.594	21.26
350.806	38.61
351.018	43.2
351.23	40.27
351.442	-16.13
351.654	-3.07
351.866	-28.92
352.078	-9.15
352.29	11
352.502	34.86
352.714	35.17
352.926	33.02
353.138	20.33
353.35	2.99
353.561	3.91
353.773	-20.86
353.985	-4.42
354.197	-0.06
354.409	7.5
354.621	-8.28
354.832	-0.3
355.044	-7.19
355.256	-2.96
355.468	7.56
355.679	9.69
355.891	23.4
356.103	5.45
356.314	-5.97
356.526	-8.23
356.738	-6.4
356.949	-10.14
357.161	8.1
357.373	10.89
357.584	-5.08
357.796	2.98
358.008	-1.25
358.219	7.51
358.431	10.73
358.642	17.05
358.854	1.77
359.065	-8.61
359.277	-31.61
359.488	-41.13
359.7	-64.82
359.911	-53.03
360.123	-30.72
360.334	-34.07
360.546	-41.41
360.757	-23.03
360.969	-9.7
361.18	-15.81
361.391	-4.9
361.603	-17.32
361.814	-24.68
362.025	-38.17
362.237	-38.76
362.448	-21.79
362.659	8.56
362.871	10.24
363.082	14.33
363.293	17.89
363.504	6.9
363.716	-18.73
363.927	-21.19
364.138	-29.31
364.349	-35.02
364.56	-39.61
364.772	-31.04
364.983	-4.8
365.194	3.65
365.405	13.2
365.616	29.99
365.827	32.28
366.038	2.13
366.25	-3
366.461	-30.92
366.672	-21.59
366.883	0.54
367.094	10.05
367.305	-2.11
367.516	4.7
367.727	-28.93
367.938	-47.42
368.149	-53.11
368.36	-24.66
368.571	-16.55
368.781	-13.66
368.992	-22.7
369.203	-26.67
369.414	-57.02
369.625	-71.62
369.836	-59.65
370.047	-74.52
370.258	-60.2
370.468	-49.79
370.679	-49.05
370.89	-44.29
371.101	-22.3
371.312	-25.67
371.522	-29.16
371.733	-25
371.944	-7.29
372.155	-2.19
372.365	-13.25
372.576	-11.36
372.787	-11.94
372.997	-41.97
373.208	-46.17
373.419	-14.57
373.629	-39.78
373.84	-45.44
374.05	-47.22
374.261	-38.94
374.472	-52.1
374.682	2.1
374.893	14.29
375.103	43.55
375.314	45.5
375.524	47.81
375.735	37.95
375.945	37.54
376.156	4.12
376.366	1.1
376.577	5.43
376.787	-1.68
376.997	-3.2
377.208	-0.63
377.418	-7.73
377.629	-4.54
377.839	-4.36
378.049	3.45
378.26	18.54
378.47	21.62
378.68	7.71
378.89	4.09
379.101	-7.23
379.311	-37.96
379.521	-57.39
379.732	-41.41
379.942	-32
380.152	-39.51
380.362	-8.28
380.572	-2.49
380.783	-0.81
380.993	0.51
381.203	7.29
381.413	12.47
381.623	2
381.833	8.9
382.043	1.63
382.253	1.83
382.463	3.01
382.674	7.59
382.884	-11.14
383.094	-14.06
383.304	-13.52
383.514	-5.56
383.724	-0.46
383.934	-1.18
384.144	-3.37
384.353	-6.14
384.563	-20.3
384.773	-13.4
384.983	-15.21
385.193	1.27
385.403	6.5
385.613	10.59
385.823	-1.84
386.033	0.98
386.242	-8.62
386.452	-16.17
386.662	-23.09
386.872	-10.34
387.082	-11.04
387.291	-16.01
387.501	-15.17
387.711	-8.8
387.921	-13.28
388.13	-8.2
388.34	7.6
388.55	1.92
388.759	2.29
388.969	3.78
389.179	1.07
389.388	-6.65
389.598	0.51
389.807	-5.51
390.017	-8.1
390.227	-3.93
390.436	-4.09
390.646	-4.84
390.855	-0.42
391.065	1.99
391.274	-1.98
391.484	-2.96
391.693	-3.24
391.903	-0.99
392.112	2.18
392.322	3.74
392.531	7.96
392.74	10.45
392.95	5.91
393.159	2.44
393.369	2.88
393.578	1.74
393.787	1.63
393.997	4.76
394.206	5.41
394.415	5.92
394.625	5.32
394.834	4.06
395.043	4.44
395.252	6.05
395.462	7.2
395.671	7.55
395.88	7.86
396.089	8.63
396.298	6.89
396.508	6.35
396.717	6.05
396.926	6.58
397.135	5.5
397.344	5.46
397.553	5.66
397.762	7.09
397.971	6.77
398.181	7.14
398.39	7.2
398.599	6.93
398.808	6.76
399.017	7.88
399.226	9.06
399.435	9.6
399.644	10.16
399.853	9.24
400.062	8.19
400.27	7.6
400.479	7.32
400.688	6.58
400.897	6.77
401.106	7.3
401.315	6.93
401.524	7.14
401.733	7.6
401.941	7.98
402.15	7.77
402.359	7.87
402.568	8.23
402.777	8.3
402.985	8.15
403.194	7.9
403.403	7.75
403.612	7.18
403.82	7.16
404.029	7.3
404.238	7.33
404.446	7.58
404.655	7.5
404.864	7.31
405.072	7.15
405.281	7.36
405.489	7.18
405.698	7.18
405.906	7.13
406.115	6.98
406.324	6.91
406.532	6.97
406.741	7.42
406.949	7.41
407.158	7.56
407.366	7.59
407.574	7.6
407.783	7.42
407.991	7.3
408.2	7.32
408.408	7.39
408.617	7.26
408.825	7.07
409.033	7.19
409.242	7.15
409.45	7.08
409.658	7.01
409.867	7
410.075	6.83
410.283	6.68
410.491	6.43
410.7	6.35
410.908	6.36
411.116	6.63
411.324	6.69
411.533	6.61
411.741	6.83
411.949	6.82
412.157	6.53
412.365	6.5
412.573	6.73
412.781	6.66
412.99	6.56
413.198	6.67
413.406	6.61
413.614	6.61
413.822	6.4
414.03	6.42
414.238	6.2
414.446	6.3
414.654	5.95
414.862	6.12
415.07	6.16
415.278	6.41
415.486	6.22
415.694	6.49
415.902	6.32
416.109	6.25
416.317	6.2
416.525	6.1
416.733	5.96
416.941	6.14
417.149	6.23
417.357	6.11
417.564	6.33
417.772	6.52
417.98	6.36
418.188	6.23
418.395	6.36
418.603	6.34
418.811	5.93
419.019	5.97
419.226	6.2
419.434	6.26
419.642	6.09
419.849	6.32
420.057	6.2
420.265	6
420.472	5.68
420.68	5.67
420.887	5.61
421.095	5.68
421.302	5.7
421.51	5.94
421.717	6.03
421.925	6.23
422.132	6.15
422.34	5.9
422.547	5.83
422.755	5.79
422.962	5.53
423.17	5.43
423.377	5.53
423.585	5.63
423.792	5.57
423.999	5.63
424.207	5.65
424.414	5.85
424.621	5.86
424.829	5.77
425.036	5.7
425.243	5.85
425.451	5.64
425.658	5.32
425.865	5.48
426.072	5.62
426.28	5.81
426.487	5.68
426.694	5.79
426.901	5.67
427.108	5.61
427.315	5.48
427.523	5.83
427.73	5.87
427.937	5.93
428.144	5.8
428.351	5.7
428.558	5.83
428.765	5.74
428.972	5.63
429.179	5.8
429.386	6.12
429.593	5.94
429.8	5.9
430.007	6.11
430.214	6.22
430.421	5.97
430.628	5.8
430.835	5.8
431.042	5.82
431.249	5.88
431.456	5.95
431.662	6.16
431.869	6.37
432.076	6.42
432.283	6.46
432.49	6.36
432.697	6.24
432.903	6
433.11	5.96
433.317	5.92
433.524	6.26
433.73	6.36
433.937	6.71
434.144	6.68
434.35	6.7
434.557	6.42
434.764	6.43
434.97	6.24
435.177	6.45
435.384	6.4
435.59	6.44
435.797	6.66
436.003	6.74
436.21	6.51
436.416	6.58
436.623	6.64
436.829	6.62
437.036	6.75
437.242	6.81
437.449	6.77
437.655	6.76
437.862	6.74
438.068	6.7
438.275	6.87
438.481	7.1
438.687	7.12
438.894	7.15
439.1	7.21
439.307	7.28
439.513	7.14
439.719	7.2
439.926	7.15
440.132	7.11
440.338	6.99
440.544	7.08
440.751	6.99
440.957	7.12
441.163	7.07
441.369	7.21
441.575	7.06
441.782	7.09
441.988	7.05
442.194	7.07
442.4	6.99
442.606	7.26
442.812	7.39
443.018	7.47
443.224	7.54
443.431	7.67
443.637	7.49
443.843	7.47
444.049	7.45
444.255	7.41
444.461	7.46
444.667	7.55
444.873	7.71
445.079	7.74
445.284	7.87
445.49	7.64
445.696	7.48
445.902	7.33
446.108	7.25
446.314	7.17
446.52	7.27
446.726	7.45
446.931	7.41
447.137	7.45
447.343	7.54
447.549	7.49
447.755	7.38
447.96	7.48
448.166	7.39
448.372	7.34
448.578	7.48
448.783	7.55
448.989	7.61
449.195	7.82
449.4	7.81
449.606	7.65
449.812	7.6
450.017	7.52
450.223	7.45
450.428	7.46
450.634	7.71
450.84	7.88
451.045	7.9
451.251	7.78
451.456	8.01
451.662	8.02
451.867	8
452.073	8.05
452.278	8.25
452.483	8.32
452.689	8.18
452.894	8.21
453.1	8.22
453.305	8.16
453.51	7.97
453.716	7.98
453.921	7.98
454.127	7.96
454.332	7.84
454.537	7.79
454.742	7.79
454.948	7.81
455.153	7.84
455.358	8
455.563	8.16
455.769	8.27
455.974	8.2
456.179	8.05
456.384	7.99
456.589	7.89
456.795	7.68
457	7.66
457.205	7.97
457.41	7.99
457.615	8.02
457.82	8.11
458.025	8.11
458.23	7.86
458.435	7.93
458.64	7.81
458.845	8.06
459.05	8.02
459.255	8.06
459.46	8.04
459.665	8.19
459.87	8.09
460.075	8.05
460.28	8.15
460.485	8.25
460.69	8.22
460.895	8.05
461.099	8.13
461.304	8.16
461.509	8.13
461.714	8.07
461.919	8.34
462.123	8.3
462.328	8.4
462.533	8.34
462.738	8.46
462.942	8.35
463.147	8.45
463.352	8.38
463.556	8.5
