Data from Ofra_2a_PS_2CX10_Reflection_1.txt Node
Date: Tue Jul 20 09:37:11 EDT 2021
User: Adam
Spectrometer: FLMT01687
Trigger mode: 0
Integration Time (sec): 9.450000E-1
Scans to average: 3
Electric dark correction enabled: true
Nonlinearity correction enabled: false
Boxcar width: 3
XAxis mode: Wavelengths
Number of Pixels in Spectrum: 3648
>>>>>Begin Spectral Data<<<<<
179.494	578.11
179.716	446.65
179.937	450.55
180.158	1875.78
180.38	-893.6
180.601	-160.78
180.823	-70
181.044	-85.06
181.265	-34.69
181.486	18.11
181.708	584.78
181.929	-14.19
182.15	-362.5
182.372	43.5
182.593	64.9
182.814	164.97
183.035	115.08
183.257	40.36
183.478	35.87
183.699	42.57
183.92	36.74
184.141	38.25
184.363	27.37
184.584	16.53
184.805	22.12
185.026	30.09
185.247	11.9
185.468	10.33
185.689	19.63
185.91	25.94
186.132	26.17
186.353	18.57
186.574	7.42
186.795	-5.02
187.016	0.33
187.237	-4.64
187.458	-21.34
187.679	-22.25
187.9	-16.92
188.121	-4.07
188.342	12.75
188.563	14.55
188.784	16.2
189.005	29.76
189.226	22.31
189.447	24.17
189.667	24.07
189.888	39.18
190.109	33.33
190.33	17.73
190.551	-0.64
190.772	0.21
190.993	12.41
191.214	10.96
191.434	9.29
191.655	20.15
191.876	36.27
192.097	42.12
192.318	40.64
192.538	29.84
192.759	35.79
192.98	26.84
193.201	40.59
193.421	31.15
193.642	25.02
193.863	33.07
194.083	41.74
194.304	25.32
194.525	42.81
194.745	5.51
194.966	13.1
195.187	23.99
195.407	21.3
195.628	20.66
195.848	20.13
196.069	13.71
196.29	19.15
196.51	29.33
196.731	44.58
196.951	50.67
197.172	50.42
197.392	49.57
197.613	43.41
197.833	49.42
198.054	41.92
198.274	18.69
198.495	26.15
198.715	18.56
198.936	9.87
199.156	7.59
199.377	7.54
199.597	5.21
199.817	12.63
200.038	9.41
200.258	13.22
200.479	23.11
200.699	23.33
200.919	20.53
201.14	0.75
201.36	16.89
201.58	28.62
201.801	23.96
202.021	27.43
202.241	33.98
202.461	51.03
202.682	77.91
202.902	58.89
203.122	53.14
203.342	78.95
203.563	77.47
203.783	72.88
204.003	52.58
204.223	44.82
204.443	53.43
204.663	56.16
204.884	42.64
205.104	47.54
205.324	62.14
205.544	72.75
205.764	74.43
205.984	70.03
206.204	61.57
206.424	56.73
206.644	44.79
206.864	34.63
207.084	38.24
207.304	30.97
207.525	17.47
207.745	33.25
207.964	20.13
208.184	17.54
208.404	16.65
208.624	-16.18
208.844	-19.15
209.064	-3.46
209.284	-4.03
209.504	-2.39
209.724	-12.98
209.944	-33.8
210.164	5.72
210.384	18.4
210.604	24.51
210.823	13.15
211.043	6.03
211.263	25.75
211.483	29.14
211.703	24.71
211.922	18.87
212.142	5.66
212.362	3.92
212.582	2.22
212.801	-15.73
213.021	-10.25
213.241	-11.47
213.461	9.61
213.68	26.41
213.9	25.61
214.12	25.64
214.339	40.78
214.559	46.33
214.779	48.55
214.998	34.8
215.218	36.4
215.438	49.37
215.657	54.06
215.877	50.63
216.096	47.97
216.316	35.27
216.535	32.28
216.755	23.78
216.974	7.43
217.194	1.53
217.413	15.84
217.633	-3.78
217.852	-1.18
218.072	-14.6
218.291	11.02
218.511	15.11
218.73	19.93
218.95	13.54
219.169	26.53
219.389	19.38
219.608	40.53
219.827	27.04
220.047	33.28
220.266	40.35
220.485	36.51
220.705	21.13
220.924	24.43
221.143	9.99
221.363	11.14
221.582	8.29
221.801	3.14
222.021	5.62
222.24	17.52
222.459	13.67
222.678	4.75
222.897	6.75
223.117	14.59
223.336	8.55
223.555	5.57
223.774	16.37
223.993	34.59
224.213	42.7
224.432	46.91
224.651	40.27
224.87	47.6
225.089	46.17
225.308	39.02
225.527	27.88
225.746	19.05
225.965	32.57
226.184	43.1
226.404	27.26
226.623	33.24
226.842	22.22
227.061	26.74
227.28	44.07
227.499	39.26
227.718	30.38
227.936	33.58
228.155	30.16
228.374	40.11
228.593	38.41
228.812	26.25
229.031	14.18
229.25	24.32
229.469	34.94
229.688	41.36
229.907	34.69
230.125	38.82
230.344	47.41
230.563	52.75
230.782	41.28
231.001	39.15
231.22	27.92
231.438	28.19
231.657	25.75
231.876	17.16
232.095	19.99
232.313	27.89
232.532	24.75
232.751	28.14
232.969	30.55
233.188	19.61
233.407	19.15
233.625	12.26
233.844	14.02
234.063	14.14
234.281	11.89
234.5	15.22
234.719	20.25
234.937	25.35
235.156	18.55
235.374	4.11
235.593	-4.3
235.811	-5.93
236.03	-19.89
236.249	-5.95
236.467	-1.25
236.686	13.52
236.904	22.14
237.123	26.54
237.341	33.91
237.559	36.07
237.778	45.22
237.996	56.13
238.215	51.62
238.433	55.21
238.652	51.45
238.87	47.87
239.088	38.59
239.307	25.48
239.525	17.94
239.743	7.11
239.962	8.59
240.18	16
240.398	20.62
240.617	32.94
240.835	30.97
241.053	36.95
241.271	46.5
241.49	29.56
241.708	24.81
241.926	19.99
242.144	29.37
242.363	36.69
242.581	30.96
242.799	22.74
243.017	28.4
243.235	31.45
243.453	24.81
243.672	12.6
243.89	14.04
244.108	21.83
244.326	18.58
244.544	27.47
244.762	28.64
244.98	33.3
245.198	30.12
245.416	27.98
245.634	18.42
245.852	22.57
246.07	20.06
246.288	17.68
246.506	12.34
246.724	28.77
246.942	38.42
247.16	37.03
247.378	32.78
247.596	34.31
247.814	27.63
248.032	28.18
248.25	22.11
248.468	20.41
248.685	24.04
248.903	31.43
249.121	29.32
249.339	33.46
249.557	41.27
249.775	24.8
249.992	14.36
250.21	9.47
250.428	13.57
250.646	7.75
250.863	2.1
251.081	-1.8
251.299	29.14
251.517	42.41
251.734	57.95
251.952	43.27
252.17	43.71
252.387	49.46
252.605	41.63
252.823	17.44
253.04	11.19
253.258	4.89
253.475	10.83
253.693	27.57
253.911	21.79
254.128	21.84
254.346	21.93
254.563	23.42
254.781	19.95
254.998	27.06
255.216	25.57
255.433	23.5
255.651	22.21
255.868	19.15
256.086	12.26
256.303	18.32
256.521	1.78
256.738	-4.84
256.956	-10.46
257.173	-7.06
257.39	7.69
257.608	11.43
257.825	6.97
258.043	17.6
258.26	13.96
258.477	27.52
258.695	35.45
258.912	36.66
259.129	37.21
259.346	37.36
259.564	37.52
259.781	46.73
259.998	39.92
260.216	37.07
260.433	25.83
260.65	27.85
260.867	13.87
261.084	15.86
261.302	-0.51
261.519	-9.68
261.736	-9.89
261.953	8.46
262.17	18.05
262.387	28.8
262.604	14.55
262.822	25.82
263.039	31.03
263.256	33.09
263.473	11.6
263.69	6.58
263.907	5.86
264.124	16.09
264.341	9.06
264.558	9.39
264.775	9.75
264.992	22.23
265.209	22.37
265.426	18.65
265.643	17.04
265.86	15.83
266.077	13.95
266.294	12.59
266.51	13.73
266.727	1.41
266.944	-40.29
267.161	-47
267.378	-44.72
267.595	-33.9
267.812	-48.36
268.028	-46.03
268.245	-33.98
268.462	3.81
268.679	1.95
268.896	1.96
269.112	2.27
269.329	16.22
269.546	11.45
269.763	16.11
269.979	16.31
270.196	27.59
270.413	26.01
270.629	31.3
270.846	37.39
271.063	49.28
271.279	45.45
271.496	45.44
271.712	36.13
271.929	40.56
272.146	31.66
272.362	8.88
272.579	-3.36
272.795	-0.41
273.012	3.43
273.228	10.17
273.445	5.3
273.661	7.07
273.878	17.83
274.094	20.17
274.311	20.95
274.527	20.88
274.744	22.73
274.96	25.34
275.177	31.19
275.393	25.5
275.609	31.97
275.826	30.8
276.042	52.29
276.259	47.37
276.475	41.59
276.691	39.24
276.908	38.76
277.124	24.5
277.34	20.07
277.557	10.61
277.773	7.26
277.989	16.72
278.205	-4.61
278.422	2.8
278.638	22.77
278.854	28.01
279.07	17.4
279.286	24.97
279.503	22.16
279.719	46.37
279.935	23.91
280.151	20.09
280.367	18.44
280.583	21.42
280.799	22.7
281.016	23.69
281.232	14.09
281.448	25.41
281.664	19.9
281.88	26.93
282.096	29.5
282.312	17.77
282.528	8.54
282.744	3.97
282.96	13.27
283.176	16.99
283.392	19.55
283.608	16.47
283.824	13.35
284.04	19.64
284.256	23.63
284.471	26.52
284.687	20.82
284.903	18.92
285.119	12.94
285.335	22.59
285.551	33.06
285.767	36.57
285.982	32.25
286.198	31.85
286.414	28.36
286.63	33.73
286.846	32.27
287.061	28.75
287.277	26.9
287.493	28.34
287.709	31.93
287.924	32.39
288.14	38.04
288.356	38.91
288.571	25.88
288.787	26.68
289.003	28.35
289.218	33.16
289.434	31.35
289.65	26.51
289.865	27.75
290.081	33.86
290.296	35.59
290.512	41.92
290.727	44.87
290.943	39.01
291.159	34.5
291.374	37.99
291.59	38.08
291.805	41.86
292.021	21.84
292.236	10.34
292.451	16.93
292.667	24.09
292.882	12.66
293.098	11.83
293.313	6.84
293.529	15.39
293.744	26.05
293.959	24.81
294.175	24.52
294.39	44.89
294.605	36.65
294.821	33.42
295.036	31.99
295.251	33.62
295.467	31.69
295.682	35.36
295.897	25.16
296.112	31.45
296.328	35.99
296.543	31.06
296.758	31.2
296.973	34.07
297.188	34.93
297.404	34.55
297.619	30.35
297.834	32.82
298.049	35.99
298.264	21.19
298.479	10.68
298.694	6.44
298.909	5.58
299.125	9.94
299.34	6.59
299.555	9.71
299.77	11.06
299.985	12.9
300.2	7.96
300.415	8.73
300.63	6.72
300.845	6.7
301.06	1.78
301.275	9.88
301.49	15.93
301.704	16.12
301.919	15.5
302.134	8.96
302.349	5.97
302.564	10.13
302.779	5.05
302.994	-0.3
303.209	-9.26
303.423	-1.51
303.638	9.4
303.853	13.55
304.068	19.29
304.283	14.64
304.497	20.87
304.712	29.93
304.927	19.95
305.142	24.58
305.356	27.95
305.571	29.77
305.786	36
306	34.76
306.215	35.17
306.43	48.56
306.644	49.6
306.859	43.36
307.074	37.16
307.288	34.16
307.503	36.43
307.717	33.62
307.932	32.87
308.147	23.69
308.361	21.14
308.576	18.01
308.79	10.62
309.005	7.33
309.219	13.3
309.434	5.01
309.648	-5.7
309.863	4.47
310.077	6.72
310.292	16.15
310.506	32.47
310.72	28.17
310.935	34.23
311.149	36.47
311.364	39.47
311.578	34.94
311.792	29.91
312.007	18.31
312.221	15.31
312.435	14.42
312.649	-9.27
312.864	-30.17
313.078	-13.39
313.292	-11.72
313.507	-10.01
313.721	-11.16
313.935	0.19
314.149	27.88
314.363	35.01
314.578	29.25
314.792	30
315.006	25.56
315.22	32.94
315.434	27.11
315.648	23.41
315.862	17.07
316.077	25.1
316.291	28.94
316.505	32.63
316.719	11.25
316.933	10.73
317.147	15.86
317.361	17.13
317.575	9.48
317.789	8.07
318.003	4.47
318.217	17.82
318.431	16.73
318.645	15.71
318.859	6.88
319.073	4.02
319.287	10.58
319.5	14.52
319.714	14.56
319.928	23.58
320.142	26.04
320.356	44.35
320.57	49.8
320.784	45.18
320.997	46.39
321.211	52.25
321.425	38.54
321.639	28.29
321.853	22.37
322.066	15.59
322.28	13.84
322.494	10.38
322.707	6.68
322.921	7.41
323.135	10.53
323.349	13.49
323.562	23.46
323.776	22.62
323.989	25.21
324.203	32.34
324.417	31.04
324.63	29.59
324.844	17.61
325.057	13.21
325.271	5.22
325.485	10.01
325.698	6.52
325.912	21.81
326.125	21.32
326.339	30.32
326.552	31.56
326.766	45.02
326.979	41
327.193	37.96
327.406	25.81
327.619	20.85
327.833	16.88
328.046	7.48
328.26	-16.86
328.473	-10.64
328.686	-4.47
328.9	-16.79
329.113	-4.63
329.326	-1.09
329.54	6.21
329.753	17.77
329.966	15.84
330.179	15.03
330.393	32.62
330.606	34.74
330.819	36.21
331.032	38.94
331.246	40.03
331.459	40.12
331.672	42.21
331.885	32.7
332.098	31.13
332.311	17.76
332.525	20.01
332.738	20.53
332.951	25.2
333.164	16.35
333.377	4.08
333.59	8.5
333.803	20.92
334.016	5.89
334.229	7.95
334.442	8.96
334.655	27.42
334.868	43.01
335.081	44.73
335.294	38.21
335.507	52.67
335.72	46.69
335.933	54.45
336.146	43.96
336.359	37.14
336.572	32.66
336.785	35.48
336.997	23.31
337.21	28.42
337.423	14.3
337.636	13.74
337.849	8.91
338.062	13.36
338.274	17.03
338.487	18.64
338.7	16.61
338.913	14.36
339.125	9.12
339.338	22.54
339.551	26.77
339.763	16.12
339.976	13.48
340.189	10.24
340.402	14.03
340.614	20.37
340.827	8.89
341.039	3.1
341.252	16.25
341.465	19.57
341.677	25.59
341.89	25.77
342.102	19.27
342.315	30.44
342.527	33.94
342.74	28.15
342.952	25.8
343.165	26.98
343.377	35.25
343.59	35.63
343.802	32.35
344.015	29.47
344.227	22.74
344.44	26.44
344.652	26.52
344.864	21.71
345.077	24.68
345.289	18.56
345.502	17.17
345.714	20.11
345.926	9.42
346.139	10.6
346.351	-4.87
346.563	-1.95
346.775	0.69
346.988	-4.95
347.2	4.14
347.412	10.65
347.624	8.9
347.837	16.12
348.049	13.65
348.261	18.12
348.473	21.13
348.685	21.15
348.897	23.01
349.11	24.57
349.322	21.84
349.534	23.08
349.746	18.32
349.958	19.11
350.17	16.42
350.382	10.85
350.594	4.1
350.806	6.8
351.018	12.98
351.23	14.55
351.442	15.76
351.654	15.03
351.866	20.01
352.078	22.14
352.29	25.46
352.502	19.86
352.714	25.2
352.926	24.76
353.138	21.74
353.35	15.98
353.561	10.49
353.773	7.99
353.985	13.78
354.197	3.57
354.409	3.69
354.621	10.46
354.832	4.54
355.044	11.22
355.256	12.27
355.468	8.72
355.679	20.63
355.891	23.14
356.103	15.04
356.314	21.08
356.526	13.28
356.738	14.03
356.949	17.9
357.161	5.8
357.373	2.73
357.584	4.44
357.796	12.19
358.008	22.65
358.219	22.17
358.431	16.5
358.642	16.82
358.854	19.53
359.065	22.24
359.277	2.47
359.488	-8.58
359.7	-4.93
359.911	-5.94
360.123	9.99
360.334	3.37
360.546	0.65
360.757	14.68
360.969	25.75
361.18	24.71
361.391	22.7
361.603	15.89
361.814	18.56
362.025	24.31
362.237	25.63
362.448	22.82
362.659	13.27
362.871	24.42
363.082	29.58
363.293	29.15
363.504	28.5
363.716	26.12
363.927	21.36
364.138	30.1
364.349	27.53
364.56	22.73
364.772	24.24
364.983	22.4
365.194	26.71
365.405	25.65
365.616	23.29
365.827	22.99
366.038	33.4
366.25	33.74
366.461	30.55
366.672	23.96
366.883	36.21
367.094	30.36
367.305	31.17
367.516	24.48
367.727	21.81
367.938	27.03
368.149	29.22
368.36	23.07
368.571	29.46
368.781	22.99
368.992	25.75
369.203	28.85
369.414	21.28
369.625	16.39
369.836	18.16
370.047	11.96
370.258	9.42
370.468	3.63
370.679	-2.43
370.89	6.69
371.101	7.25
371.312	-0.07
371.522	8.09
371.733	5.68
371.944	6.53
372.155	1.65
372.365	4.16
372.576	9.11
372.787	15.28
372.997	7.11
373.208	18.28
373.419	24.33
373.629	35.33
373.84	28.49
374.05	28.59
374.261	25.12
374.472	29.85
374.682	23.55
374.893	16.92
375.103	12.52
375.314	12.42
375.524	8.61
375.735	9.37
375.945	3.58
376.156	10.81
376.366	13.14
376.577	14.55
376.787	12.69
376.997	17.12
377.208	13.88
377.418	17.89
377.629	15.48
377.839	17.75
378.049	17.74
378.26	23.59
378.47	21.32
378.68	25.53
378.89	25.59
379.101	19.03
379.311	13.22
379.521	19.59
379.732	17.52
379.942	22.26
380.152	23.28
380.362	26.84
380.572	28.79
380.783	28.74
380.993	20.79
381.203	22.45
381.413	18.14
381.623	18.27
381.833	13.18
382.043	10.91
382.253	12.6
382.463	18.01
382.674	17.66
382.884	16.85
383.094	15.97
383.304	15.8
383.514	18.1
383.724	16.68
383.934	15.76
384.144	12.55
384.353	12.27
384.563	8.45
384.773	4.54
384.983	6.21
385.193	7.68
385.403	7.84
385.613	5.1
385.823	6.38
386.033	11.19
386.242	13.35
386.452	9.23
386.662	7.58
386.872	4.77
387.082	7.4
387.291	8.59
387.501	7.04
387.711	6.95
387.921	4.78
388.13	1.9
388.34	1.67
388.55	2.99
388.759	-1.2
388.969	-4.44
389.179	-0.44
389.388	1.6
389.598	2.98
389.807	1.92
390.017	0.83
390.227	2.16
390.436	3.66
390.646	1.96
390.855	1.21
391.065	2.66
391.274	2.88
391.484	2.33
391.693	3.21
391.903	2.77
392.112	1.84
392.322	3.91
392.531	3.64
392.74	3.05
392.95	3.75
393.159	4.77
393.369	4.35
393.578	4.92
393.787	4.81
393.997	5.63
394.206	5.68
394.415	5.21
394.625	3.45
394.834	3.93
395.043	4.57
395.252	4.84
395.462	3.38
395.671	4.32
395.88	4.88
396.089	5.54
396.298	5.41
396.508	5.11
396.717	4.17
396.926	3.63
397.135	3.15
397.344	2.66
397.553	2.81
397.762	2.56
397.971	2.1
398.181	2.01
398.39	2.78
398.599	2.99
398.808	3.42
399.017	3.45
399.226	3.84
399.435	3.79
399.644	3.81
399.853	3.67
400.062	3.63
400.27	3.39
400.479	3.25
400.688	3.14
400.897	3.34
401.106	3.47
401.315	3.4
401.524	3.47
401.733	3.62
401.941	3.51
402.15	3.4
402.359	3.35
402.568	3.32
402.777	3.24
402.985	3.11
403.194	3
403.403	2.88
403.612	2.86
403.82	2.85
404.029	2.81
404.238	2.89
404.446	2.88
404.655	2.79
404.864	2.87
405.072	2.89
405.281	2.76
405.489	2.92
405.698	2.91
405.906	2.88
406.115	2.88
406.324	2.74
406.532	2.76
406.741	2.88
406.949	2.71
407.158	2.74
407.366	2.74
407.574	2.81
407.783	2.82
407.991	2.74
408.2	2.66
408.408	2.74
408.617	2.66
408.825	2.61
409.033	2.56
409.242	2.59
409.45	2.57
409.658	2.57
409.867	2.54
410.075	2.54
410.283	2.51
410.491	2.5
410.7	2.53
410.908	2.57
411.116	2.45
411.324	2.45
411.533	2.37
411.741	2.37
411.949	2.4
412.157	2.41
412.365	2.39
412.573	2.43
412.781	2.43
412.99	2.54
413.198	2.57
413.406	2.49
413.614	2.49
413.822	2.42
414.03	2.42
414.238	2.47
414.446	2.36
414.654	2.31
414.862	2.3
415.07	2.29
415.278	2.29
415.486	2.36
415.694	2.23
415.902	2.22
416.109	2.3
416.317	2.2
416.525	2.26
416.733	2.33
416.941	2.28
417.149	2.43
417.357	2.5
417.564	2.46
417.772	2.53
417.98	2.41
418.188	2.26
418.395	2.24
418.603	1.99
418.811	1.95
419.019	1.87
419.226	1.98
419.434	1.97
419.642	2.07
419.849	2.1
420.057	2.27
420.265	2.37
420.472	2.4
420.68	2.22
420.887	2.28
421.095	2.29
421.302	2.39
421.51	2.38
421.717	2.35
421.925	2.27
422.132	2.27
422.34	2.18
422.547	2.07
422.755	1.92
422.962	1.8
423.17	1.72
423.377	1.85
423.585	1.95
423.792	2.03
423.999	2.04
424.207	1.99
424.414	2.06
424.621	2.05
424.829	1.93
425.036	1.81
425.243	1.8
425.451	1.85
425.658	1.99
425.865	1.88
426.072	1.98
426.28	2.1
426.487	2.12
426.694	2.03
426.901	1.94
427.108	1.91
427.315	1.95
427.523	1.89
427.73	1.88
427.937	1.95
428.144	2.09
428.351	2.2
428.558	2.11
428.765	2.12
428.972	2.13
429.179	2.05
429.386	2.11
429.593	2.01
429.8	2.06
430.007	2.18
430.214	2.25
430.421	2.24
430.628	2.2
430.835	2.14
431.042	2.15
431.249	2.12
431.456	2.13
431.662	2.1
431.869	2.19
432.076	2.31
432.283	2.3
432.49	2.35
432.697	2.32
432.903	2.3
433.11	2.36
433.317	2.34
433.524	2.2
433.73	2.28
433.937	2.22
434.144	2.35
434.35	2.3
434.557	2.26
434.764	2.22
434.97	2.36
435.177	2.3
435.384	2.4
435.59	2.37
435.797	2.44
436.003	2.42
436.21	2.41
436.416	2.37
436.623	2.43
436.829	2.4
437.036	2.36
437.242	2.34
437.449	2.41
437.655	2.39
437.862	2.44
438.068	2.45
438.275	2.42
438.481	2.52
438.687	2.59
438.894	2.54
439.1	2.62
439.307	2.62
439.513	2.56
439.719	2.6
439.926	2.57
440.132	2.53
440.338	2.58
440.544	2.55
440.751	2.51
440.957	2.5
441.163	2.49
441.369	2.5
441.575	2.53
441.782	2.5
441.988	2.51
442.194	2.62
442.4	2.67
442.606	2.74
442.812	2.75
443.018	2.73
443.224	2.75
443.431	2.76
443.637	2.7
443.843	2.73
444.049	2.71
444.255	2.68
444.461	2.7
444.667	2.78
444.873	2.79
445.079	2.81
445.284	2.77
445.49	2.71
445.696	2.72
445.902	2.77
446.108	2.76
446.314	2.81
446.52	2.83
446.726	2.89
446.931	2.95
447.137	3
447.343	2.95
447.549	2.89
447.755	2.87
447.96	2.85
448.166	2.85
448.372	2.87
448.578	2.85
448.783	2.89
448.989	2.96
449.195	2.96
449.4	2.93
449.606	2.93
449.812	2.98
450.017	2.99
450.223	2.95
450.428	2.92
450.634	3
450.84	3.07
451.045	3.05
451.251	3.02
451.456	3.02
451.662	3.06
451.867	3.1
452.073	3.06
452.278	3.05
452.483	3.09
452.689	3.07
452.894	3
453.1	2.96
453.305	2.97
453.51	2.94
453.716	2.95
453.921	2.98
454.127	3.01
454.332	3.07
454.537	3.16
454.742	3.13
454.948	3.16
455.153	3.17
455.358	3.13
455.563	3.15
455.769	3.2
455.974	3.13
456.179	3.12
456.384	3.09
456.589	3.16
456.795	3.11
457	3.15
457.205	3.12
457.41	3.12
457.615	3.17
457.82	3.26
458.025	3.19
458.23	3.25
458.435	3.17
458.64	3.23
458.845	3.26
459.05	3.24
459.255	3.21
459.46	3.23
459.665	3.27
459.87	3.32
460.075	3.3
460.28	3.33
460.485	3.38
460.69	3.32
460.895	3.36
461.099	3.37
461.304	3.36
461.509	3.32
461.714	3.29
461.919	3.28
462.123	3.35
462.328	3.35
462.533	3.36
462.738	3.38
462.942	3.43
463.147	3.42
463.352	3.49
463.556	3.51
463.761	3.54
463.966	3.56
464.17	3.6
464.375	3.56
464.58	3.59
464.784	3.56
464.989	3.57
465.193	3.59
465.398	3.51
465.602	3.5
465.807	3.58
466.011	3.61
466.216	3.61
466.42	3.62
466.625	3.6
466.829	3.68
467.034	3.73
467.238	3.72
467.443	3.8
467.647	3.85
467.851	3.85
468.056	3.82
468.26	3.79
468.464	3.74
468.669	3.78
468.873	3.71
469.077	3.73
469.282	3.75
469.486	3.82
469.69	3.84
