Data from Ofra_2a_PS_1GT36B_Reflection_3.txt Node
Date: Tue Jul 20 09:32:25 EDT 2021
User: Adam
Spectrometer: FLMT01687
Trigger mode: 0
Integration Time (sec): 9.450000E-1
Scans to average: 3
Electric dark correction enabled: true
Nonlinearity correction enabled: false
Boxcar width: 3
XAxis mode: Wavelengths
Number of Pixels in Spectrum: 3648
>>>>>Begin Spectral Data<<<<<
179.494	531.36
179.716	312.32
179.937	343.96
180.158	1060.94
180.38	-520.93
180.601	-40.52
180.823	6.3
181.044	49.8
181.265	66.99
181.486	47.43
181.708	-813.04
181.929	53.95
182.15	-227.27
182.372	48.01
182.593	44.52
182.814	83.83
183.035	33.06
183.257	69.44
183.478	30.73
183.699	62.72
183.92	47.53
184.141	48.26
184.363	38.98
184.584	28.34
184.805	23.98
185.026	20.15
185.247	-2.45
185.468	11.38
185.689	24.89
185.91	30.4
186.132	53.35
186.353	43.24
186.574	33.2
186.795	30.81
187.016	24.38
187.237	23.58
187.458	6.62
187.679	-3.8
187.9	30.38
188.121	45.35
188.342	42.01
188.563	52.38
188.784	33.68
189.005	32.85
189.226	34.03
189.447	14.14
189.667	20.48
189.888	29.59
190.109	21.67
190.33	23.02
190.551	27.92
190.772	18.46
190.993	26.7
191.214	18.15
191.434	20.82
191.655	16.94
191.876	28.26
192.097	39.22
192.318	46.4
192.538	51.1
192.759	56.24
192.98	36.7
193.201	59.5
193.421	55.1
193.642	43.62
193.863	29.99
194.083	25.66
194.304	11.02
194.525	30.89
194.745	-1.12
194.966	3.78
195.187	19.35
195.407	26.98
195.628	24.16
195.848	32.41
196.069	28.65
196.29	31.68
196.51	31.31
196.731	29.37
196.951	35.29
197.172	26.6
197.392	33.92
197.613	29.14
197.833	33.54
198.054	35.27
198.274	12.06
198.495	0.68
198.715	-0.5
198.936	-39.27
199.156	-20.43
199.377	-20.07
199.597	-45.01
199.817	-33.74
200.038	-13.51
200.258	-4.41
200.479	15.46
200.699	27.42
200.919	18.33
201.14	33.35
201.36	44.72
201.58	37.07
201.801	37.71
202.021	34.2
202.241	28.8
202.461	35.05
202.682	33.77
202.902	32.98
203.122	33.73
203.342	43.64
203.563	36.46
203.783	38.52
204.003	35.59
204.223	42.31
204.443	44
204.663	47.27
204.884	40.71
205.104	42.61
205.324	47.62
205.544	50.74
205.764	41.92
205.984	43.64
206.204	31.42
206.424	31.42
206.644	34.35
206.864	22.34
207.084	32.83
207.304	32.67
207.525	19.46
207.745	23.88
207.964	17.29
208.184	3.02
208.404	13.91
208.624	-4.12
208.844	-17.16
209.064	-4.92
209.284	-0.9
209.504	-6.08
209.724	-16.17
209.944	-22.68
210.164	-5.15
210.384	-6.01
210.604	-21.49
210.823	-25.41
211.043	-17.39
211.263	4.11
211.483	10.9
211.703	10.24
211.922	22.8
212.142	30.87
212.362	34.66
212.582	30.51
212.801	26.85
213.021	23.69
213.241	26.19
213.461	26.89
213.68	31.14
213.9	38.53
214.12	30.36
214.339	25.43
214.559	37.3
214.779	37.48
214.998	36.49
215.218	35.49
215.438	49.06
215.657	58.1
215.877	65.54
216.096	56.65
216.316	49.7
216.535	45.12
216.755	33.97
216.974	26.09
217.194	23.81
217.413	32.5
217.633	21.06
217.852	16.37
218.072	18.98
218.291	50.29
218.511	48.25
218.73	51.53
218.95	53.51
219.169	72.14
219.389	60.15
219.608	60.54
219.827	31.98
220.047	29.95
220.266	21.39
220.485	22.8
220.705	18.82
220.924	29.12
221.143	23.31
221.363	18.74
221.582	8.65
221.801	12.39
222.021	8.47
222.24	-6.56
222.459	-7.31
222.678	-13.06
222.897	-1.3
223.117	5.85
223.336	8.07
223.555	3.69
223.774	18.79
223.993	27.72
224.213	25.98
224.432	44.9
224.651	31.59
224.87	24.51
225.089	27.72
225.308	19.05
225.527	9.79
225.746	10.24
225.965	-5.65
226.184	8.07
226.404	9.47
226.623	21.17
226.842	20.61
227.061	19.85
227.28	26.69
227.499	37.42
227.718	26.75
227.936	26.4
228.155	21.94
228.374	19.59
228.593	23.8
228.812	15.22
229.031	5.34
229.25	24.04
229.469	29.53
229.688	33.25
229.907	41.73
230.125	36.56
230.344	39.59
230.563	55.75
230.782	46.18
231.001	53.26
231.22	46.5
231.438	43.28
231.657	47.99
231.876	47.02
232.095	35.27
232.313	45.79
232.532	41.06
232.751	53.6
232.969	57.08
233.188	54.68
233.407	60.04
233.625	61.37
233.844	53.43
234.063	44.84
234.281	31.83
234.5	26.64
234.719	32.46
234.937	36.54
235.156	29.99
235.374	22.45
235.593	31.58
235.811	39.61
236.03	48.12
236.249	43.93
236.467	47.69
236.686	52.83
236.904	57.31
237.123	47.75
237.341	36.06
237.559	31.24
237.778	31.57
237.996	20.48
238.215	16.85
238.433	22.05
238.652	23.66
238.87	32.99
239.088	33.54
239.307	32.8
239.525	26.23
239.743	21.86
239.962	24.19
240.18	29.46
240.398	30.61
240.617	38.96
240.835	35.44
241.053	48.15
241.271	59.93
241.49	46.64
241.708	38.37
241.926	20.9
242.144	14.41
242.363	18.52
242.581	13.14
242.799	6.53
243.017	17.3
243.235	7.01
243.453	15.87
243.672	24.39
243.89	20.96
244.108	33.84
244.326	26.24
244.544	29.28
244.762	45.22
244.98	44.95
245.198	28.26
245.416	29.7
245.634	24.68
245.852	29.1
246.07	25.25
246.288	23.6
246.506	35.79
246.724	54.98
246.942	64.53
247.16	63.95
247.378	52.26
247.596	54.63
247.814	44.71
248.032	38.17
248.25	31.05
248.468	20.98
248.685	20.63
248.903	33.94
249.121	27.64
249.339	31.6
249.557	35.07
249.775	25.9
249.992	23.36
250.21	14.93
250.428	12.7
250.646	22.46
250.863	20.21
251.081	10.86
251.299	28.81
251.517	41.89
251.734	46.68
251.952	56.71
252.17	38.75
252.387	47.41
252.605	49
252.823	31.02
253.04	15
253.258	13.69
253.475	-8.25
253.693	15.18
253.911	9.72
254.128	14.43
254.346	17.99
254.563	13.76
254.781	11.67
254.998	16.29
255.216	12.08
255.433	10.79
255.651	15.6
255.868	20.48
256.086	29.92
256.303	27.11
256.521	22.94
256.738	21.2
256.956	12.35
257.173	8.8
257.39	17.86
257.608	20.1
257.825	15.45
258.043	26.67
258.26	20.11
258.477	26.85
258.695	22.03
258.912	24.23
259.129	16.01
259.346	29.84
259.564	27.36
259.781	39.64
259.998	36.96
260.216	47.63
260.433	31.57
260.65	45.2
260.867	33.03
261.084	37.02
261.302	30.85
261.519	30.5
261.736	15.21
261.953	14.8
262.17	5.24
262.387	22.31
262.604	11
262.822	23
263.039	33.75
263.256	41.8
263.473	42.02
263.69	46.15
263.907	34.31
264.124	22.5
264.341	2.26
264.558	-0.99
264.775	-5.6
264.992	-5.22
265.209	10.7
265.426	16.58
265.643	28.29
265.86	41.4
266.077	43.24
266.294	41.47
266.51	37.88
266.727	12.92
266.944	-44.63
267.161	-62.31
267.378	-80.87
267.595	-82.05
267.812	-81.79
268.028	-62.91
268.245	-35.11
268.462	4.52
268.679	11.3
268.896	6.71
269.112	21.41
269.329	28.98
269.546	20.8
269.763	20.89
269.979	28.36
270.196	34.05
270.413	43.06
270.629	33.65
270.846	33.25
271.063	37.17
271.279	31.87
271.496	23.77
271.712	19.81
271.929	20.05
272.146	21.69
272.362	7.92
272.579	-0.03
272.795	5.26
273.012	12.11
273.228	8.22
273.445	10.77
273.661	6.82
273.878	15.47
274.094	28.4
274.311	28.23
274.527	34.64
274.744	33.63
274.96	32.23
275.177	40.98
275.393	48.19
275.609	45.9
275.826	41.72
276.042	45.41
276.259	43.19
276.475	37.96
276.691	31.7
276.908	18.29
277.124	10.64
277.34	18.51
277.557	16.4
277.773	20.57
277.989	15.76
278.205	13.44
278.422	24.51
278.638	25.96
278.854	5.37
279.07	-3.16
279.286	-1.12
279.503	1.66
279.719	10.87
279.935	0.7
280.151	10.3
280.367	23.54
280.583	20.05
280.799	17.78
281.016	17.3
281.232	7.25
281.448	4.1
281.664	-0.49
281.88	0.49
282.096	11.55
282.312	-6.62
282.528	-12.2
282.744	-4.55
282.96	11.35
283.176	8.86
283.392	17.53
283.608	11.69
283.824	21.03
284.04	30.26
284.256	33.74
284.471	30.36
284.687	27.44
284.903	19.3
285.119	7.47
285.335	16.63
285.551	14.77
285.767	13.68
285.982	6.07
286.198	13.15
286.414	22.7
286.63	36.21
286.846	37.47
287.061	32.96
287.277	29.02
287.493	34.9
287.709	30.94
287.924	25.5
288.14	14.77
288.356	19.3
288.571	17.01
288.787	24.44
289.003	25
289.218	22.12
289.434	24.78
289.65	28.88
289.865	28.53
290.081	26.16
290.296	23.03
290.512	24.95
290.727	35.84
290.943	25.67
291.159	21.89
291.374	20.45
291.59	24.06
291.805	24.88
292.021	14.18
292.236	6.66
292.451	14.09
292.667	22.31
292.882	16.7
293.098	20.38
293.313	18.96
293.529	22.45
293.744	23.15
293.959	28.36
294.175	26.57
294.39	37.37
294.605	29.11
294.821	29.97
295.036	35.89
295.251	30.17
295.467	29.37
295.682	27.17
295.897	25.07
296.112	30.38
296.328	38.68
296.543	31.22
296.758	25.81
296.973	34.06
297.188	27.38
297.404	19.09
297.619	16.27
297.834	13.57
298.049	13.86
298.264	22.01
298.479	-1.18
298.694	15.62
298.909	21.78
299.125	27.7
299.34	22.22
299.555	29.46
299.77	28.99
299.985	38.44
300.2	27.34
300.415	24.6
300.63	19.45
300.845	17.69
301.06	12.27
301.275	16
301.49	19.38
301.704	22.67
301.919	18.35
302.134	13.54
302.349	14.67
302.564	19.91
302.779	19.07
302.994	14.18
303.209	11.96
303.423	17.9
303.638	33.38
303.853	41.49
304.068	38.49
304.283	32.79
304.497	29.06
304.712	30.73
304.927	28.2
305.142	19.81
305.356	18.43
305.571	15.07
305.786	19.38
306	31.68
306.215	28.33
306.43	42.42
306.644	47.47
306.859	51.67
307.074	60.63
307.288	53.51
307.503	42.55
307.717	45.23
307.932	37.12
308.147	32.87
308.361	18.91
308.576	20.81
308.79	18.93
309.005	25.45
309.219	24.69
309.434	20.08
309.648	18.1
309.863	27.41
310.077	18.24
310.292	20.81
310.506	25.18
310.72	12.02
310.935	11.06
311.149	18.18
311.364	15.39
311.578	12.09
311.792	8.67
312.007	0.34
312.221	11.42
312.435	13.84
312.649	-28.33
312.864	-45.15
313.078	-43.31
313.292	-36.64
313.507	-32.82
313.721	-35.85
313.935	-16.27
314.149	21.56
314.363	29.95
314.578	45.6
314.792	40.83
315.006	40.02
315.22	43.53
315.434	32.23
315.648	26.28
315.862	32.12
316.077	27.42
316.291	32.66
316.505	31.95
316.719	11.15
316.933	10.55
317.147	12.32
317.361	6.03
317.575	5.87
317.789	7.81
318.003	12.02
318.217	24.75
318.431	31.47
318.645	38.07
318.859	35.8
319.073	32.29
319.287	32.99
319.5	30.67
319.714	27.38
319.928	29.6
320.142	22.64
320.356	32.59
320.57	28.18
320.784	29.83
320.997	29.22
321.211	31.33
321.425	19.39
321.639	25.42
321.853	18.27
322.066	19.62
322.28	14.52
322.494	7.21
322.707	5.38
322.921	12.22
323.135	18.07
323.349	14.02
323.562	20.49
323.776	19.61
323.989	31.65
324.203	36.71
324.417	33.29
324.63	21.76
324.844	22.09
325.057	16.4
325.271	17.51
325.485	13.58
325.698	5.02
325.912	11.58
326.125	7.16
326.339	17.16
326.552	21.1
326.766	27.71
326.979	25.86
327.193	23.75
327.406	16.94
327.619	18.16
327.833	2.26
328.046	-3.48
328.26	-10.44
328.473	-12.15
328.686	-2.18
328.9	-11.97
329.113	-1
329.326	11.17
329.54	24.78
329.753	21.85
329.966	22.34
330.179	31.76
330.393	36.58
330.606	36.82
330.819	44.65
331.032	31.23
331.246	37.36
331.459	30.33
331.672	26.24
331.885	26.17
332.098	24.28
332.311	-4.01
332.525	20.98
332.738	18.51
332.951	30.22
333.164	12.08
333.377	2.76
333.59	6.17
333.803	17.76
334.016	-9.1
334.229	-14.35
334.442	-8.08
334.655	8.69
334.868	26.8
335.081	26.04
335.294	28.92
335.507	33.52
335.72	31.21
335.933	25.07
336.146	28.73
336.359	23.99
336.572	21.08
336.785	24.9
336.997	24.94
337.21	29.72
337.423	26.45
337.636	23.33
337.849	22
338.062	26.42
338.274	19.12
338.487	10.93
338.7	12.32
338.913	15.05
339.125	13.09
339.338	17.08
339.551	17.92
339.763	21.39
339.976	24.19
340.189	20.49
340.402	19.42
340.614	27.08
340.827	18.34
341.039	13.15
341.252	12.6
341.465	9.08
341.677	11.26
341.89	10.23
342.102	6.61
342.315	25.78
342.527	26.64
342.74	24.96
342.952	36.19
343.165	44.63
343.377	47.77
343.59	50.2
343.802	37.1
344.015	32.67
344.227	29.41
344.44	22.34
344.652	17.96
344.864	16.98
345.077	3.3
345.289	3.39
345.502	7.81
345.714	-0.78
345.926	-3.7
346.139	-0.66
346.351	-15.22
346.563	-10.57
346.775	-11.06
346.988	-12.56
347.2	3.59
347.412	5.43
347.624	0.95
347.837	5.95
348.049	8.05
348.261	10.96
348.473	7.35
348.685	3.24
348.897	2.34
349.11	1.43
349.322	7.28
349.534	3.64
349.746	10.82
349.958	17.02
350.17	17.9
350.382	14.01
350.594	10.55
350.806	13.99
351.018	21.51
351.23	15.35
351.442	18.36
351.654	24.45
351.866	27.35
352.078	28.64
352.29	25.65
352.502	19.78
352.714	23.53
352.926	15.77
353.138	11.49
353.35	8.82
353.561	14.61
353.773	14.09
353.985	17.03
354.197	12.34
354.409	19.82
354.621	27.3
354.832	29.98
355.044	29.07
355.256	26.35
355.468	28.42
355.679	34.67
355.891	30.1
356.103	24.04
356.314	26.2
356.526	18.81
356.738	16.73
356.949	19.03
357.161	12.32
357.373	11.81
357.584	14.22
357.796	6.64
358.008	16.07
358.219	32.11
358.431	28.48
358.642	29
358.854	30.35
359.065	28.04
359.277	31
359.488	28.46
359.7	21.16
359.911	18.66
360.123	19.65
360.334	16.09
360.546	8.38
360.757	10.37
360.969	13.86
361.18	10.11
361.391	14.38
361.603	22.82
361.814	24.91
362.025	27.97
362.237	32.09
362.448	33.44
362.659	29.88
362.871	35.06
363.082	29.57
363.293	33.61
363.504	33.53
363.716	31.15
363.927	31.26
364.138	36.59
364.349	33.81
364.56	27.96
364.772	24.06
364.983	20.98
365.194	22.81
365.405	20.37
365.616	12.25
365.827	12.04
366.038	24.09
366.25	29.72
366.461	35.64
366.672	36.9
366.883	39.21
367.094	36.24
367.305	32.11
367.516	27.67
367.727	15.8
367.938	19.13
368.149	19.44
368.36	21.33
368.571	25.39
368.781	21.99
368.992	20.77
369.203	24.23
369.414	18.92
369.625	8.21
369.836	-0.45
370.047	-2.86
370.258	-5.35
370.468	-6.2
370.679	0.79
370.89	4.08
371.101	8.6
371.312	9.51
371.522	16.85
371.733	15.7
371.944	14.38
372.155	1.33
372.365	0.81
372.576	4.66
372.787	7.01
372.997	2.89
373.208	9.82
373.419	5.26
373.629	12.32
373.84	9.31
374.05	5.81
374.261	1.74
374.472	-5.85
374.682	-7.42
374.893	-1.1
375.103	7.77
375.314	7.23
375.524	-0.3
375.735	3.51
375.945	8.37
376.156	14.77
376.366	15.81
376.577	14.38
376.787	21.97
376.997	32.25
377.208	34.55
377.418	39.33
377.629	35.17
377.839	33.66
378.049	33.18
378.26	33.92
378.47	30.65
378.68	25.42
378.89	18.6
379.101	9.11
379.311	5.47
379.521	5.53
379.732	-0.58
379.942	4.05
380.152	12.98
380.362	15.78
380.572	26.92
380.783	29.36
380.993	26.97
381.203	22.49
381.413	23.25
381.623	17.2
381.833	16.21
382.043	8.59
382.253	10.39
382.463	13.72
382.674	17.37
382.884	13.57
383.094	13.77
383.304	11.72
383.514	11.34
383.724	8.49
383.934	7.32
384.144	10.51
384.353	13.85
384.563	11.17
384.773	12.03
384.983	16.96
385.193	19.59
385.403	18.92
385.613	12.85
385.823	8.37
386.033	11.84
386.242	14.2
386.452	11.29
386.662	10.48
386.872	5.37
387.082	9.27
387.291	11.21
387.501	10.94
387.711	7.17
387.921	3.98
388.13	1.58
388.34	1.74
388.55	0.85
388.759	-1.61
388.969	-4.77
389.179	-0.94
389.388	-0.2
389.598	-0.49
389.807	0.32
390.017	1.2
390.227	3.01
390.436	6.29
390.646	6.13
390.855	8.17
391.065	8.98
391.274	9.76
391.484	8.52
391.693	7.58
391.903	6.34
392.112	4.74
392.322	6.01
392.531	5.81
392.74	4.96
392.95	4.7
393.159	4.9
393.369	4.25
393.578	4.96
393.787	4.07
393.997	5.22
394.206	5.14
394.415	5.11
394.625	4.15
394.834	3.61
395.043	3.6
395.252	3.95
395.462	3.44
395.671	4.23
395.88	4.69
396.089	5.33
396.298	6.13
396.508	5.59
396.717	4.95
396.926	4.56
397.135	3.98
397.344	3.56
397.553	3.91
397.762	3.63
397.971	3.66
398.181	3.5
398.39	3.71
398.599	3.65
398.808	3.91
399.017	3.89
399.226	4.11
399.435	4.02
399.644	4.06
399.853	3.88
400.062	3.87
400.27	3.78
400.479	3.57
400.688	3.66
400.897	3.75
401.106	3.93
401.315	3.93
401.524	3.98
401.733	4.07
401.941	4.05
402.15	3.65
402.359	3.7
402.568	3.53
402.777	3.47
402.985	3.5
403.194	3.41
403.403	3.18
403.612	3.28
403.82	3.31
404.029	3.34
404.238	3.37
404.446	3.28
404.655	3.16
404.864	3.31
405.072	3.29
405.281	3.2
405.489	3.24
405.698	3.15
405.906	3.13
406.115	3.25
406.324	3.18
406.532	3.16
406.741	3.21
406.949	3.09
407.158	3.2
407.366	3.28
407.574	3.33
407.783	3.27
407.991	3.14
408.2	3.09
408.408	3.16
408.617	3.06
408.825	3.03
409.033	2.93
409.242	2.95
409.45	3.07
409.658	3.03
409.867	2.97
410.075	2.96
410.283	2.9
410.491	2.86
410.7	2.86
410.908	2.81
411.116	2.75
411.324	2.72
411.533	2.7
411.741	2.71
411.949	2.74
412.157	2.82
412.365	2.81
412.573	2.88
412.781	2.93
412.99	2.99
413.198	2.95
413.406	2.91
413.614	2.82
413.822	2.79
414.03	2.7
414.238	2.72
414.446	2.65
414.654	2.67
414.862	2.65
415.07	2.75
415.278	2.75
415.486	2.87
415.694	2.74
415.902	2.74
416.109	2.8
416.317	2.82
416.525	2.79
416.733	2.88
416.941	2.7
417.149	2.88
417.357	2.96
417.564	2.87
417.772	2.85
417.98	2.8
418.188	2.67
418.395	2.78
418.603	2.61
418.811	2.44
419.019	2.49
419.226	2.53
419.434	2.45
419.642	2.49
419.849	2.48
420.057	2.52
420.265	2.61
420.472	2.57
420.68	2.48
420.887	2.52
421.095	2.54
421.302	2.6
421.51	2.64
421.717	2.66
421.925	2.59
422.132	2.59
422.34	2.5
422.547	2.52
422.755	2.46
422.962	2.39
423.17	2.3
423.377	2.42
423.585	2.46
423.792	2.54
423.999	2.47
424.207	2.41
424.414	2.52
424.621	2.54
424.829	2.46
425.036	2.41
425.243	2.49
425.451	2.47
425.658	2.52
425.865	2.33
426.072	2.38
426.28	2.43
426.487	2.43
426.694	2.28
426.901	2.31
427.108	2.38
427.315	2.44
427.523	2.37
427.73	2.4
427.937	2.47
428.144	2.49
428.351	2.56
428.558	2.33
428.765	2.26
428.972	2.24
429.179	2.09
429.386	2.14
429.593	2.13
429.8	2.11
430.007	2.28
430.214	2.31
430.421	2.36
430.628	2.35
430.835	2.28
431.042	2.33
431.249	2.28
431.456	2.34
431.662	2.38
431.869	2.44
432.076	2.51
432.283	2.46
432.49	2.45
432.697	2.48
432.903	2.51
433.11	2.57
433.317	2.6
433.524	2.6
433.73	2.68
433.937	2.68
434.144	2.76
434.35	2.69
434.557	2.61
434.764	2.56
434.97	2.63
435.177	2.67
435.384	2.69
435.59	2.67
435.797	2.72
436.003	2.73
436.21	2.68
436.416	2.63
436.623	2.64
436.829	2.59
437.036	2.56
437.242	2.55
437.449	2.61
437.655	2.68
437.862	2.72
438.068	2.71
438.275	2.75
438.481	2.87
438.687	2.93
438.894	2.89
439.1	2.91
439.307	2.89
439.513	2.87
439.719	2.94
439.926	2.89
440.132	2.86
440.338	2.95
440.544	2.91
440.751	2.89
440.957	2.88
441.163	2.87
441.369	2.89
441.575	2.88
441.782	2.87
441.988	2.89
442.194	2.99
442.4	3.05
442.606	3.04
442.812	3.07
443.018	3.06
443.224	3.05
443.431	3.07
443.637	3.02
443.843	3.05
444.049	3.01
444.255	2.95
444.461	2.95
444.667	2.94
444.873	2.96
445.079	2.99
445.284	2.93
445.49	2.95
445.696	2.97
445.902	3.04
446.108	3.06
446.314	3.09
446.52	3.16
446.726	3.23
446.931	3.26
447.137	3.26
447.343	3.25
447.549	3.22
447.755	3.19
447.96	3.13
448.166	3.18
448.372	3.15
448.578	3.2
448.783	3.16
448.989	3.23
449.195	3.26
449.4	3.28
449.606	3.2
449.812	3.24
450.017	3.25
450.223	3.32
450.428	3.3
450.634	3.31
450.84	3.29
451.045	3.32
451.251	3.36
451.456	3.34
451.662	3.3
451.867	3.33
452.073	3.31
452.278	3.31
452.483	3.29
452.689	3.3
452.894	3.31
453.1	3.26
453.305	3.25
453.51	3.29
453.716	3.32
453.921	3.37
454.127	3.36
454.332	3.39
454.537	3.53
454.742	3.5
454.948	3.49
455.153	3.5
455.358	3.47
455.563	3.48
455.769	3.41
455.974	3.38
456.179	3.35
456.384	3.33
456.589	3.36
456.795	3.34
457	3.34
457.205	3.3
457.41	3.32
457.615	3.42
457.82	3.46
458.025	3.46
458.23	3.48
458.435	3.46
458.64	3.54
458.845	3.48
459.05	3.42
459.255	3.41
459.46	3.39
459.665	3.43
459.87	3.45
460.075	3.47
460.28	3.52
460.485	3.57
460.69	3.54
460.895	3.51
461.099	3.51
461.304	3.55
461.509	3.45
461.714	3.45
461.919	3.45
462.123	3.5
462.328	3.57
462.533	3.57
462.738	3.55
462.942	3.62
463.147	3.57
463.352	3.63
463.556	3.65
463.761	3.64
463.966	3.65
464.17	3.67
464.375	3.69
464.58	3.7
464.784	3.65
464.989	3.63
465.193	3.6
465.398	3.62
465.602	3.62
465.807	3.64
466.011	3.68
466.216	3.72
466.42	3.78
466.625	3.86
466.829	3.91
467.034	3.89
467.238	3.93
467.443	3.97
467.647	4.01
467.851	3.99
468.056	3.94
468.26	3.91
468.464	3.97
468.669	3.97
468.873	3.93
469.077	3.91
469.282	3.95
