Data from Ofra_2a_PS_2GT38_Reflection_3.txt Node
Date: Tue Jul 20 09:43:00 EDT 2021
User: Adam
Spectrometer: FLMT01687
Trigger mode: 0
Integration Time (sec): 9.450000E-1
Scans to average: 3
Electric dark correction enabled: true
Nonlinearity correction enabled: false
Boxcar width: 3
XAxis mode: Wavelengths
Number of Pixels in Spectrum: 3648
>>>>>Begin Spectral Data<<<<<
179.494	691.12
179.716	385.48
179.937	376.37
180.158	1266.02
180.38	-806.1
180.601	-195.26
180.823	-215.41
181.044	-139.94
181.265	-282.89
181.486	-128.33
181.708	-2179.35
181.929	-65.7
182.15	-14.2
182.372	-111.46
182.593	-172.52
182.814	723.8
183.035	526.76
183.257	153.25
183.478	88.35
183.699	89.4
183.92	65.44
184.141	52.31
184.363	34.05
184.584	27.61
184.805	35.72
185.026	39.2
185.247	17.98
185.468	16.6
185.689	32.26
185.91	33.6
186.132	47.02
186.353	32.34
186.574	31.53
186.795	22.98
187.016	37.56
187.237	40.24
187.458	24.06
187.679	3.52
187.9	29.87
188.121	30.97
188.342	57.55
188.563	46.41
188.784	38.31
189.005	62.13
189.226	57.67
189.447	48.36
189.667	29.85
189.888	24.26
190.109	20.85
190.33	10.75
190.551	-0.38
190.772	0.46
190.993	18.05
191.214	29.78
191.434	30.98
191.655	32.64
191.876	41.21
192.097	43.99
192.318	46.67
192.538	33.51
192.759	39.73
192.98	21.52
193.201	35.1
193.421	34.76
193.642	21.28
193.863	-0.47
194.083	10.9
194.304	-1.18
194.525	35.22
194.745	13.74
194.966	16.8
195.187	30.38
195.407	40.99
195.628	33.34
195.848	33.78
196.069	15.31
196.29	9.75
196.51	2.98
196.731	0.12
196.951	-3.74
197.172	-18.57
197.392	8.08
197.613	6.63
197.833	18.17
198.054	12.83
198.274	4.36
198.495	9.88
198.715	20.24
198.936	-2.49
199.156	8.27
199.377	7.55
199.597	17.73
199.817	36.18
200.038	38.07
200.258	35.96
200.479	44.38
200.699	37.27
200.919	23.54
201.14	30.16
201.36	11.22
201.58	-5.52
201.801	7.33
202.021	12.33
202.241	17.66
202.461	31.44
202.682	25.57
202.902	37.01
203.122	41.95
203.342	60.2
203.563	60.47
203.783	61.38
204.003	55.87
204.223	66.68
204.443	60.13
204.663	57.21
204.884	38.53
205.104	37.41
205.324	44.95
205.544	43.6
205.764	28.57
205.984	28.28
206.204	24.46
206.424	25.38
206.644	20.93
206.864	13.89
207.084	30.79
207.304	30.4
207.525	22.16
207.745	31.48
207.964	41.64
208.184	39.7
208.404	43.32
208.624	18.26
208.844	5.87
209.064	22.39
209.284	23.97
209.504	24.05
209.724	6.9
209.944	-7.5
210.164	11.47
210.384	22.12
210.604	16.4
210.823	4.33
211.043	4.25
211.263	17.09
211.483	25.91
211.703	21.77
211.922	21.54
212.142	24.43
212.362	32.21
212.582	24.89
212.801	19.49
213.021	23.39
213.241	20.86
213.461	20.95
213.68	19.46
213.9	22.33
214.12	25.86
214.339	25.25
214.559	18.51
214.779	27.04
214.998	28.06
215.218	33.53
215.438	32.88
215.657	28.87
215.877	22.65
216.096	32.63
216.316	25.7
216.535	31.99
216.755	20.17
216.974	23.05
217.194	27.45
217.413	41.21
217.633	30.67
217.852	34.62
218.072	8.58
218.291	25.05
218.511	22.22
218.73	21.43
218.95	13.32
219.169	12.15
219.389	9.04
219.608	23.9
219.827	13.64
220.047	7.19
220.266	17.39
220.485	27.07
220.705	17.09
220.924	23.55
221.143	19.52
221.363	15.41
221.582	27.83
221.801	34.42
222.021	32.61
222.24	37.87
222.459	11.18
222.678	-10.13
222.897	-1.89
223.117	-2.48
223.336	-9.49
223.555	-17.16
223.774	0.37
223.993	29.05
224.213	40.31
224.432	62.79
224.651	56.85
224.87	53.66
225.089	57.28
225.308	50.01
225.527	46.29
225.746	50.26
225.965	22.08
226.184	9.32
226.404	4.19
226.623	26.96
226.842	25.92
227.061	35.47
227.28	50.2
227.499	61.35
227.718	58.93
227.936	55.31
228.155	41.29
228.374	33.63
228.593	23.42
228.812	12.69
229.031	-3.65
229.25	15.38
229.469	19.7
229.688	25.18
229.907	32.75
230.125	31.84
230.344	37.47
230.563	46.05
230.782	27.02
231.001	21.02
231.22	21.64
231.438	24.28
231.657	32.46
231.876	24.57
232.095	17.33
232.313	27.18
232.532	31.92
232.751	32.12
232.969	30.72
233.188	24.45
233.407	28.45
233.625	16.71
233.844	19.19
234.063	12.13
234.281	3.93
234.5	9.97
234.719	12.7
234.937	15.26
235.156	26.08
235.374	28.56
235.593	36.4
235.811	40.73
236.03	26.72
236.249	32.6
236.467	33.19
236.686	50.84
236.904	46.91
237.123	49.91
237.341	48.58
237.559	56.93
237.778	54.7
237.996	55.34
238.215	40.4
238.433	37.58
238.652	27.42
238.87	25.92
239.088	15.13
239.307	14.46
239.525	7.49
239.743	2.93
239.962	-3.43
240.18	9.82
240.398	15.13
240.617	31.84
240.835	27.87
241.053	34.56
241.271	44.31
241.49	35.35
241.708	21.23
241.926	13.36
242.144	5.04
242.363	9.07
242.581	10.6
242.799	-5.85
243.017	9.93
243.235	11.36
243.453	10.13
243.672	16.85
243.89	12.91
244.108	16.49
244.326	5.85
244.544	11.63
244.762	20.76
244.98	24.85
245.198	9.36
245.416	18.05
245.634	16.33
245.852	29.4
246.07	12.5
246.288	-4.27
246.506	0.45
246.724	26.22
246.942	18.22
247.16	19.5
247.378	1.35
247.596	11.63
247.814	15.8
248.032	13.02
248.25	-10.2
248.468	-13.98
248.685	-9.33
248.903	9.49
249.121	10.98
249.339	12.9
249.557	15.93
249.775	13.35
249.992	9.41
250.21	-1.92
250.428	-4.19
250.646	-5.81
250.863	-1.3
251.081	-6.4
251.299	8.03
251.517	12.18
251.734	16.01
251.952	33.86
252.17	20.62
252.387	18.24
252.605	25.11
252.823	12.59
253.04	20.25
253.258	6.67
253.475	-6.91
253.693	5.84
253.911	2.94
254.128	-1.61
254.346	4.97
254.563	5.59
254.781	12.98
254.998	17.56
255.216	21.96
255.433	13.07
255.651	23.31
255.868	31.35
256.086	31.5
256.303	31.36
256.521	24.66
256.738	24.31
256.956	37.47
257.173	22.46
257.39	24.01
257.608	28.35
257.825	19.41
258.043	24.58
258.26	21.7
258.477	23.82
258.695	27.31
258.912	22.39
259.129	14.3
259.346	25.6
259.564	27.08
259.781	32.4
259.998	26.24
260.216	30.47
260.433	21.5
260.65	25.42
260.867	15.02
261.084	11.37
261.302	-4.24
261.519	-11.78
261.736	-8.98
261.953	-3.36
262.17	-0.57
262.387	9.88
262.604	3.75
262.822	9.75
263.039	8.62
263.256	4
263.473	4.22
263.69	8.14
263.907	-0.85
264.124	0.64
264.341	7.28
264.558	16.43
264.775	18.43
264.992	22.97
265.209	30.58
265.426	42.77
265.643	49.65
265.86	48.91
266.077	44.85
266.294	45.65
266.51	35.24
266.727	16.64
266.944	-6.94
267.161	-12.7
267.378	-24.9
267.595	-18.37
267.812	-19.97
268.028	0.72
268.245	1.2
268.462	15.1
268.679	13.54
268.896	13.23
269.112	31.29
269.329	34.2
269.546	28.01
269.763	36.48
269.979	36.68
270.196	38.06
270.413	40.44
270.629	20.27
270.846	22.31
271.063	26.94
271.279	23.22
271.496	14.59
271.712	15.46
271.929	10.88
272.146	24.26
272.362	5.2
272.579	-5.96
272.795	-4.12
273.012	-0.27
273.228	-5.48
273.445	-0.91
273.661	-9.8
273.878	-1.62
274.094	0.75
274.311	2.81
274.527	-0.85
274.744	0.38
274.96	2.86
275.177	13.86
275.393	26.47
275.609	34.53
275.826	35.73
276.042	53.61
276.259	49.33
276.475	38.54
276.691	35.1
276.908	37.91
277.124	37.71
277.34	30.78
277.557	20.47
277.773	26.27
277.989	26.01
278.205	29.77
278.422	35.35
278.638	35.77
278.854	43.98
279.07	36.72
279.286	30.87
279.503	45.24
279.719	41.08
279.935	21.01
280.151	28.18
280.367	31.31
280.583	35.13
280.799	33.29
281.016	28.13
281.232	22.05
281.448	30.81
281.664	18.98
281.88	9.98
282.096	13.12
282.312	6.77
282.528	-4.97
282.744	-3.79
282.96	0.27
283.176	1.46
283.392	17.65
283.608	26.19
283.824	27.92
284.04	40.52
284.256	44.67
284.471	38.54
284.687	43.19
284.903	37.15
285.119	17.2
285.335	22.28
285.551	20.85
285.767	15.09
285.982	19.89
286.198	9.04
286.414	10.39
286.63	26.79
286.846	26.24
287.061	26.26
287.277	32.24
287.493	25.97
287.709	32.9
287.924	40.93
288.14	40.6
288.356	48
288.571	39.37
288.787	43.96
289.003	51.16
289.218	44.53
289.434	39.48
289.65	32.82
289.865	32.34
290.081	28.19
290.296	24.14
290.512	31.13
290.727	39.57
290.943	31.76
291.159	31.49
291.374	38.08
291.59	49.79
291.805	47.07
292.021	31.07
292.236	16.86
292.451	19.85
292.667	21.2
292.882	6.37
293.098	-0.45
293.313	-3.7
293.529	6.55
293.744	17.74
293.959	25.14
294.175	29.02
294.39	37.82
294.605	45.31
294.821	50.7
295.036	46.89
295.251	48.93
295.467	49.19
295.682	42.21
295.897	39.34
296.112	37.5
296.328	37.08
296.543	31.91
296.758	27.82
296.973	24.06
297.188	33.49
297.404	32.46
297.619	39.67
297.834	38.29
298.049	34.76
298.264	33.39
298.479	18.23
298.694	22.02
298.909	18.77
299.125	22.8
299.34	18.76
299.555	27.16
299.77	22.4
299.985	24.59
300.2	15.74
300.415	20.66
300.63	8.75
300.845	17.08
301.06	13.46
301.275	23.09
301.49	30.3
301.704	28.37
301.919	21.59
302.134	13.9
302.349	4.64
302.564	-7.81
302.779	-11.05
302.994	-15.83
303.209	-15.09
303.423	-0.81
303.638	14.13
303.853	13.35
304.068	28.4
304.283	22.1
304.497	31.36
304.712	32.57
304.927	24.49
305.142	25.59
305.356	33.48
305.571	35.15
305.786	34.36
306	25.33
306.215	24.61
306.43	35.38
306.644	40.35
306.859	34.27
307.074	29.48
307.288	31.67
307.503	37.58
307.717	34.1
307.932	29.78
308.147	27.12
308.361	27.89
308.576	26.11
308.79	22.68
309.005	23.39
309.219	26.07
309.434	26.31
309.648	16.51
309.863	15.17
310.077	13.38
310.292	17.89
310.506	21.24
310.72	16.89
310.935	15.1
311.149	25.07
311.364	33.91
311.578	30.31
311.792	24.12
312.007	14.08
312.221	18.85
312.435	20.58
312.649	24.08
312.864	7.98
313.078	28.53
313.292	38.73
313.507	42.46
313.721	55.47
313.935	63.76
314.149	42.15
314.363	43.57
314.578	53.27
314.792	52.09
315.006	51.06
315.22	50.01
315.434	37.3
315.648	44.19
315.862	44.89
316.077	31.15
316.291	29.48
316.505	35.4
316.719	15.38
316.933	20.62
317.147	16.66
317.361	18.41
317.575	23.96
317.789	24.58
318.003	18.69
318.217	30.25
318.431	30.06
318.645	29.95
318.859	12.34
319.073	9.61
319.287	15.17
319.5	14.82
319.714	14.33
319.928	22.45
320.142	21.03
320.356	38.64
320.57	33.9
320.784	34.94
320.997	38.77
321.211	41.66
321.425	24.46
321.639	26.63
321.853	17.44
322.066	17.01
322.28	8.61
322.494	1.71
322.707	-3.86
322.921	0.81
323.135	8.4
323.349	17.88
323.562	23.74
323.776	28.74
323.989	31.53
324.203	30.37
324.417	25.86
324.63	12.26
324.844	-2.42
325.057	-0.73
325.271	-14.89
325.485	-13.96
325.698	-21.01
325.912	-8.67
326.125	1.62
326.339	9.63
326.552	9.67
326.766	23.45
326.979	26.16
327.193	32.87
327.406	28.82
327.619	16.07
327.833	19.75
328.046	8.67
328.26	-9.66
328.473	-5.14
328.686	-1.25
328.9	-12.13
329.113	-4.62
329.326	2.23
329.54	6.39
329.753	11.8
329.966	7.38
330.179	9.03
330.393	19.64
330.606	19.39
330.819	18.47
331.032	20.81
331.246	27.55
331.459	35.42
331.672	29.7
331.885	31.72
332.098	39.37
332.311	24.85
332.525	23.45
332.738	17.83
332.951	10.12
333.164	13.28
333.377	-1.14
333.59	-1.41
333.803	16.88
334.016	15.91
334.229	24.29
334.442	39.41
334.655	46.06
334.868	50.5
335.081	54.58
335.294	45.62
335.507	48.65
335.72	38.13
335.933	29.07
336.146	25.28
336.359	24.9
336.572	12.46
336.785	15.52
336.997	2.81
337.21	9.18
337.423	10.75
337.636	8.94
337.849	5.12
338.062	15.29
338.274	19.79
338.487	22.25
338.7	29.04
338.913	27.68
339.125	29.57
339.338	32.37
339.551	32.43
339.763	25.12
339.976	25.11
340.189	12.76
340.402	12.68
340.614	17.56
340.827	14.49
341.039	17.67
341.252	19.65
341.465	16.54
341.677	11.94
341.89	12.22
342.102	14.73
342.315	22.24
342.527	16.68
342.74	28.39
342.952	27.6
343.165	45.34
343.377	52.44
343.59	42.75
343.802	41.88
344.015	37.24
344.227	21.98
344.44	23.55
344.652	17.37
344.864	19.92
345.077	20.25
345.289	15.98
345.502	24.02
345.714	22.03
345.926	20.78
346.139	26.4
346.351	5.12
346.563	13.17
346.775	9.97
346.988	2.58
347.2	12.11
347.412	11.81
347.624	16.38
347.837	16.61
348.049	17.24
348.261	12.86
348.473	6.59
348.685	12.51
348.897	14.13
349.11	3.75
349.322	6.75
349.534	-5.2
349.746	15.23
349.958	21.36
350.17	7.38
350.382	10.69
350.594	14.51
350.806	24.75
351.018	32.08
351.23	28.29
351.442	27.91
351.654	38.96
351.866	38.17
352.078	36.01
352.29	36.14
352.502	30.5
352.714	28.19
352.926	33.75
353.138	28.43
353.35	27.72
353.561	21.59
353.773	15.94
353.985	18.7
354.197	16.74
354.409	13.69
354.621	12.72
354.832	9.22
355.044	20.75
355.256	24.22
355.468	23.25
355.679	22.81
355.891	23.4
356.103	26.65
356.314	28.46
356.526	24.37
356.738	12.13
356.949	19.11
357.161	23.96
357.373	21.93
357.584	24.78
357.796	30.39
358.008	25.2
358.219	38.37
358.431	33.29
358.642	25.68
358.854	25.28
359.065	20.64
359.277	7.97
359.488	7.28
359.7	8.09
359.911	7.92
360.123	15.68
360.334	15.29
360.546	9.2
360.757	17.49
360.969	30.13
361.18	21.59
361.391	23.62
361.603	21.48
361.814	20.79
362.025	20.99
362.237	17.99
362.448	11.79
362.659	8.28
362.871	7.38
363.082	6.3
363.293	11.54
363.504	16.45
363.716	21.68
363.927	22.57
364.138	30.2
364.349	28.54
364.56	29.72
364.772	28.02
364.983	24
365.194	24.67
365.405	26.35
365.616	20.72
365.827	20.48
366.038	29.24
366.25	30.54
366.461	32.28
366.672	29.71
366.883	27.11
367.094	32.2
367.305	31.37
367.516	23.13
367.727	23.86
367.938	31.55
368.149	27.26
368.36	28.38
368.571	26.28
368.781	23.72
368.992	23.73
369.203	22.14
369.414	12.99
369.625	20.69
369.836	19.89
370.047	15.28
370.258	16.45
370.468	14.1
370.679	7.56
370.89	14.11
371.101	6.08
371.312	-0.36
371.522	5.7
371.733	2.81
371.944	11.28
372.155	11.45
372.365	5.2
372.576	5.22
372.787	8.87
372.997	4.88
373.208	9.84
373.419	5.53
373.629	7.9
373.84	6.57
374.05	6.66
374.261	0.37
374.472	3.23
374.682	-2.77
374.893	-7.26
375.103	3.41
375.314	5.29
375.524	2.43
375.735	6.31
375.945	7.92
376.156	13.84
376.366	14.48
376.577	6.35
376.787	14.58
376.997	24.37
377.208	22.65
377.418	19.14
377.629	18.54
377.839	25.21
378.049	32.64
378.26	27.47
378.47	25.36
378.68	27.36
378.89	22.82
379.101	13.24
379.311	5.9
379.521	4.49
379.732	-9.24
379.942	-11.69
380.152	-5.74
380.362	4.58
380.572	14.22
380.783	15.99
380.993	14.14
381.203	25.14
381.413	27.67
381.623	23.68
381.833	17.82
382.043	12.64
382.253	16.61
382.463	22.7
382.674	23.92
382.884	19.03
383.094	19.08
383.304	21.6
383.514	25.55
383.724	18.47
383.934	15.45
384.144	15.55
384.353	18.04
384.563	19.9
384.773	21.35
384.983	20.72
385.193	25.47
385.403	27.8
385.613	23.31
385.823	20.48
386.033	19.22
386.242	14.21
386.452	11.6
386.662	8.68
386.872	2.55
387.082	2.68
387.291	2.72
387.501	4.25
387.711	6.04
387.921	7.01
388.13	7.16
388.34	5.07
388.55	6.82
388.759	7.08
388.969	2.51
389.179	3.16
389.388	2.14
389.598	1.71
389.807	3.64
390.017	4.56
390.227	3.73
390.436	5.11
390.646	6.61
390.855	6.36
391.065	6.33
391.274	5.97
391.484	5.92
391.693	6.95
391.903	7.4
392.112	4.88
392.322	7.21
392.531	7.87
392.74	6.63
392.95	6.81
393.159	7.42
393.369	5.83
393.578	5.44
393.787	4.74
393.997	4.64
394.206	4.93
394.415	5.04
394.625	3.42
394.834	3.87
395.043	5.19
395.252	5.19
395.462	4.78
395.671	5.7
395.88	5.7
396.089	6.71
396.298	7.17
396.508	6.6
396.717	6.02
396.926	6.11
397.135	5.58
397.344	5.32
397.553	5.32
397.762	4.86
397.971	4.69
398.181	4.42
398.39	4.31
398.599	4.63
398.808	4.6
399.017	4.68
399.226	5.28
399.435	5.51
399.644	5.62
399.853	5.89
400.062	5.62
400.27	5.51
400.479	5.43
400.688	5.34
400.897	5.4
401.106	5.53
401.315	5.36
401.524	5.65
401.733	5.85
401.941	5.86
402.15	5.48
402.359	5.44
402.568	5.34
402.777	5.12
402.985	4.85
403.194	4.73
403.403	4.37
403.612	4.49
403.82	4.39
404.029	4.42
404.238	4.62
404.446	4.55
404.655	4.51
404.864	4.63
405.072	4.64
405.281	4.66
405.489	4.75
405.698	4.56
405.906	4.63
406.115	4.7
406.324	4.67
406.532	4.66
406.741	4.66
406.949	4.61
407.158	4.72
407.366	4.69
407.574	4.61
407.783	4.59
407.991	4.5
408.2	4.44
408.408	4.38
408.617	4.38
408.825	4.46
409.033	4.46
409.242	4.45
409.45	4.48
409.658	4.53
409.867	4.58
410.075	4.54
410.283	4.42
410.491	4.38
410.7	4.41
410.908	4.41
411.116	4.3
411.324	4.27
411.533	4.19
411.741	4.21
411.949	4.26
412.157	4.25
412.365	4.3
412.573	4.29
412.781	4.27
412.99	4.39
413.198	4.38
413.406	4.32
413.614	4.32
413.822	4.27
414.03	4.27
414.238	4.32
414.446	4.18
414.654	4.23
414.862	4.22
415.07	4.24
415.278	4.16
415.486	4.34
415.694	4.18
415.902	4.2
416.109	4.24
416.317	4.2
416.525	4.23
416.733	4.32
416.941	4.14
417.149	4.29
417.357	4.33
417.564	4.21
417.772	4.32
417.98	4.17
418.188	4.07
418.395	4.11
418.603	4
418.811	3.87
419.019	4
419.226	3.99
419.434	3.95
419.642	3.95
419.849	3.85
420.057	3.93
420.265	4.03
420.472	3.88
420.68	3.77
420.887	3.78
421.095	3.88
421.302	4.06
421.51	4.11
421.717	4.13
421.925	4.04
422.132	3.94
422.34	3.98
422.547	3.86
422.755	3.7
422.962	3.6
423.17	3.49
423.377	3.71
423.585	3.79
423.792	3.73
423.999	3.76
424.207	3.73
424.414	3.76
424.621	3.79
424.829	3.63
425.036	3.61
425.243	3.74
425.451	3.71
425.658	3.84
425.865	3.76
426.072	3.84
426.28	3.85
426.487	3.87
426.694	3.77
426.901	3.75
427.108	3.66
427.315	3.67
427.523	3.65
427.73	3.72
427.937	3.75
428.144	3.81
428.351	3.91
428.558	3.88
428.765	3.84
428.972	3.79
429.179	3.63
429.386	3.64
429.593	3.58
429.8	3.6
430.007	3.67
430.214	3.74
430.421	3.72
430.628	3.66
430.835	3.63
431.042	3.72
431.249	3.71
431.456	3.77
431.662	3.8
431.869	3.96
432.076	4.11
432.283	4.07
432.49	3.99
432.697	3.96
432.903	3.95
433.11	3.9
433.317	3.86
433.524	3.76
433.73	3.82
433.937	3.82
434.144	3.98
434.35	3.93
434.557	3.93
434.764	3.85
434.97	3.98
435.177	3.95
435.384	4.02
435.59	3.93
435.797	3.99
436.003	3.95
436.21	3.95
436.416	3.88
436.623	3.92
436.829	3.89
437.036	3.91
437.242	3.9
437.449	3.95
437.655	3.99
437.862	3.98
438.068	4.01
438.275	4.03
438.481	4.08
438.687	4.11
438.894	4.08
439.1	4.11
439.307	4.16
439.513	4.1
439.719	4.11
439.926	4.06
440.132	4.04
440.338	4.11
440.544	4.08
440.751	4.07
440.957	4.08
441.163	4.09
441.369	4.1
441.575	4.09
441.782	4.07
441.988	4.08
442.194	4.14
442.4	4.2
442.606	4.23
442.812	4.21
443.018	4.26
443.224	4.3
443.431	4.33
443.637	4.31
443.843	4.32
444.049	4.3
444.255	4.27
444.461	4.23
444.667	4.21
444.873	4.2
445.079	4.22
445.284	4.23
445.49	4.2
445.696	4.26
445.902	4.3
446.108	4.3
446.314	4.32
446.52	4.39
446.726	4.34
446.931	4.39
447.137	4.4
447.343	4.38
447.549	4.36
447.755	4.33
447.96	4.27
448.166	4.34
448.372	4.32
448.578	4.32
448.783	4.31
448.989	4.36
449.195	4.37
449.4	4.41
449.606	4.39
449.812	4.43
450.017	4.45
450.223	4.45
450.428	4.45
450.634	4.48
450.84	4.41
451.045	4.39
451.251	4.42
451.456	4.38
451.662	4.39
451.867	4.4
452.073	4.36
452.278	4.42
452.483	4.47
452.689	4.46
452.894	4.45
453.1	4.39
453.305	4.37
453.51	4.4
453.716	4.41
453.921	4.41
454.127	4.4
454.332	4.49
454.537	4.57
454.742	4.56
454.948	4.5
455.153	4.45
455.358	4.46
455.563	4.49
455.769	4.43
455.974	4.4
456.179	4.34
456.384	4.42
456.589	4.45
456.795	4.43
457	4.43
457.205	4.38
457.41	4.39
457.615	4.45
457.82	4.51
458.025	4.49
458.23	4.47
458.435	4.42
458.64	4.49
458.845	4.48
459.05	4.54
459.255	4.47
459.46	4.47
459.665	4.53
459.87	4.58
460.075	4.55
460.28	4.57
460.485	4.57
460.69	4.55
460.895	4.63
461.099	4.64
461.304	4.61
461.509	4.59
461.714	4.62
461.919	4.64
462.123	4.71
462.328	4.69
462.533	4.65
462.738	4.66
462.942	4.72
463.147	4.72
463.352	4.71
463.556	4.7
463.761	4.7
463.966	4.81
464.17	4.85
464.375	4.82
464.58	4.79
464.784	4.83
464.989	4.87
465.193	4.86
465.398	4.77
465.602	4.73
465.807	4.78
466.011	4.84
466.216	4.85
466.42	4.84
466.625	4.85
466.829	4.9
467.034	4.97
467.238	5.01
467.443	4.99
467.647	4.97
467.851	4.96
468.056	4.95
468.26	4.93
468.464	4.93
468.669	4.94
468.873	4.93
469.077	4.99
469.282	5.03
469.486	5.1
