Data from Ofra_PS_T2_2A_9GT47_Reflection_1.txt Node
Date: Wed Jul 21 17:27:01 EDT 2021
User: Adam
Spectrometer: FLMT01687
Trigger mode: 0
Integration Time (sec): 1.100000E0
Scans to average: 2
Electric dark correction enabled: true
Nonlinearity correction enabled: false
Boxcar width: 2
XAxis mode: Wavelengths
Number of Pixels in Spectrum: 3648
>>>>>Begin Spectral Data<<<<<
179.494	544.8
179.716	645.18
179.937	667.74
180.158	705
180.38	1228.12
180.601	367.96
180.823	56.78
181.044	-194.79
181.265	-136.76
181.486	-24.93
181.708	182.22
181.929	1506.12
182.15	-739.44
182.372	54.73
182.593	-27.18
182.814	21.17
183.035	28.7
183.257	19.59
183.478	-127.02
183.699	-106.4
183.92	-126.71
184.141	-106.73
184.363	-185.21
184.584	-93.99
184.805	-48.67
185.026	-3.84
185.247	10.13
185.468	-2.74
185.689	-3.31
185.91	22.1
186.132	15.72
186.353	20.02
186.574	56.87
186.795	51.98
187.016	-44.53
187.237	-56.07
187.458	-111.94
187.679	-88.4
187.9	-90.83
188.121	-38.37
188.342	-13.38
188.563	14.14
188.784	38.37
189.005	42.06
189.226	70.86
189.447	29.23
189.667	-104.85
189.888	-375.37
190.109	-1449.35
190.33	-859.35
190.551	-1470.8
190.772	-384.99
190.993	-330.07
191.214	-258.08
191.434	-183.38
191.655	-51.17
191.876	-100.18
192.097	-152.1
192.318	-240.37
192.538	-321.11
192.759	-254.74
192.98	-102.31
193.201	-62.67
193.421	-18.5
193.642	-9.22
193.863	-13.69
194.083	-55.2
194.304	-64.31
194.525	-76.47
194.745	-108.56
194.966	-100.4
195.187	-108.87
195.407	-146.92
195.628	-190.1
195.848	-183.06
196.069	-181.11
196.29	-127.88
196.51	-115.8
196.731	-120.54
196.951	-134.47
197.172	-152.93
197.392	-169.55
197.613	-150.38
197.833	-168.7
198.054	-142.28
198.274	-78.53
198.495	-93.49
198.715	-69.85
198.936	-87.68
199.156	-81.14
199.377	-200.25
199.597	-188.01
199.817	-180.9
200.038	-101.52
200.258	-162.12
200.479	-97.32
200.699	-67.84
200.919	3.48
201.14	-36.72
201.36	-62.14
201.58	-2.19
201.801	26.16
202.021	-23.35
202.241	-25.67
202.461	-22.56
202.682	-157.63
202.902	-229.79
203.122	-137.76
203.342	-88.98
203.563	-34.86
203.783	3.08
204.003	-44.15
204.223	-69.08
204.443	-12.74
204.663	-70.76
204.884	-55.73
205.104	-13.25
205.324	9.79
205.544	-4.75
205.764	24.85
205.984	31.03
206.204	21.63
206.424	11.08
206.644	-48.71
206.864	-31.16
207.084	-107.72
207.304	-124.71
207.525	-350.63
207.745	-186.3
207.964	-107.17
208.184	-130.67
208.404	-143.58
208.624	-126.8
208.844	-117.64
209.064	-465.9
209.284	-420.47
209.504	-236.4
209.724	-96.86
209.944	-68.4
210.164	-20.94
210.384	-19.78
210.604	-21.14
210.823	-65.59
211.043	-80.32
211.263	-66.71
211.483	-78.53
211.703	-134.47
211.922	-96.79
212.142	-41.43
212.362	-50.35
212.582	-50.68
212.801	-45.47
213.021	-56.45
213.241	-75.27
213.461	-102.32
213.68	-124.62
213.9	-110.21
214.12	-88.25
214.339	-146.96
214.559	-130.04
214.779	-38.92
214.998	-27.82
215.218	-95.05
215.438	-60.2
215.657	-73.48
215.877	-114.35
216.096	-52.24
216.316	-38.47
216.535	-54.84
216.755	-44.35
216.974	-147.61
217.194	-236.92
217.413	-202.96
217.633	-227.95
217.852	-367.37
218.072	-156.41
218.291	-93.93
218.511	-48.07
218.73	-65.44
218.95	-40.56
219.169	-53.62
219.389	-118.82
219.608	-91.33
219.827	-95.53
220.047	-108.38
220.266	-82.77
220.485	-77.76
220.705	-75.77
220.924	-78.58
221.143	-27.59
221.363	-64.14
221.582	-52.24
221.801	-61.42
222.021	-24.44
222.24	-116.9
222.459	-33.05
222.678	-19.05
222.897	-84.02
223.117	-133.9
223.336	-119.15
223.555	-85.41
223.774	-31.71
223.993	-24.24
224.213	17.01
224.432	2.73
224.651	25.77
224.87	-23.04
225.089	-1.72
225.308	0.35
225.527	13.53
225.746	-2.77
225.965	2.46
226.184	-12.51
226.404	-3.72
226.623	-29.66
226.842	-14.54
227.061	17.15
227.28	16.53
227.499	-4.68
227.718	24.35
227.936	-8.8
228.155	-23.56
228.374	-47.63
228.593	-23.36
228.812	-36.85
229.031	-41.57
229.25	-85.62
229.469	-96.04
229.688	-91.68
229.907	-48.9
230.125	-20.52
230.344	-4.51
230.563	9.31
230.782	11
231.001	-105.84
231.22	-86.31
231.438	-48.7
231.657	-28.21
231.876	-40.67
232.095	22.14
232.313	27.99
232.532	-11.5
232.751	-69.73
232.969	-86.69
233.188	-200.33
233.407	-115.81
233.625	-71.77
233.844	-108.8
234.063	-85.78
234.281	-33.6
234.5	-50.24
234.719	-32.91
234.937	14.52
235.156	15.05
235.374	5.11
235.593	-15.17
235.811	-53.54
236.03	-65.97
236.249	-122.07
236.467	-121.28
236.686	-42.88
236.904	-16.95
237.123	-51.58
237.341	-30.47
237.559	-23.91
237.778	-60.14
237.996	-82.95
238.215	-26.35
238.433	-15.43
238.652	-15.67
238.87	-31.4
239.088	-24.29
239.307	-18.63
239.525	-44.61
239.743	-71.42
239.962	-43.45
240.18	-66.23
240.398	-152.32
240.617	-148.32
240.835	-126.95
241.053	-104.39
241.271	-51.56
241.49	-1.09
241.708	-29.22
241.926	-44.67
242.144	-44.62
242.363	-113.29
242.581	-167.78
242.799	-100.36
243.017	-61.36
243.235	-73.82
243.453	-48.7
243.672	-32
243.89	-28.06
244.108	-47.53
244.326	-35.02
244.544	-34.62
244.762	-39.84
244.98	-46.61
245.198	-43.39
245.416	-64.32
245.634	-60.88
245.852	-78.48
246.07	-77.76
246.288	-59.08
246.506	-107.61
246.724	-80.34
246.942	-53.03
247.16	-30.93
247.378	-27.35
247.596	-7.51
247.814	-40.56
248.032	-72.31
248.25	-70.77
248.468	-57.59
248.685	-40.74
248.903	7.98
249.121	14.22
249.339	-20.64
249.557	-28.31
249.775	-32.32
249.992	-111.53
250.21	-96.74
250.428	-73.34
250.646	-114.45
250.863	-119.75
251.081	-73.56
251.299	-89.37
251.517	-68.6
251.734	-38.47
251.952	-39.9
252.17	-43.02
252.387	-29.25
252.605	-43.11
252.823	-44.42
253.04	-37.29
253.258	-26.17
253.475	-53.6
253.693	-29.98
253.911	-12.09
254.128	-3.49
254.346	-23.06
254.563	-26.62
254.781	-40.44
254.998	-74.63
255.216	-105.33
255.433	-93.44
255.651	-49.49
255.868	-18.36
256.086	38.74
256.303	18.17
256.521	24.2
256.738	-1.35
256.956	-49.28
257.173	-118.13
257.39	-116.25
257.608	-151.03
257.825	-91.21
258.043	-46.56
258.26	-10.52
258.477	45.14
258.695	27.11
258.912	-27.9
259.129	-18.47
259.346	-61.95
259.564	-116.19
259.781	-131.54
259.998	-46.39
260.216	-38.33
260.433	26.96
260.65	25.06
260.867	38.44
261.084	0.21
261.302	-21.04
261.519	-60.11
261.736	-84.57
261.953	-115.63
262.17	-75.81
262.387	-106.23
262.604	-125.69
262.822	-141.87
263.039	-95.96
263.256	-137.25
263.473	-92.82
263.69	-56.74
263.907	8.03
264.124	8.18
264.341	2.14
264.558	-3.65
264.775	-1.15
264.992	-35.39
265.209	-16.56
265.426	7.42
265.643	5.59
265.86	0.19
266.077	3.59
266.294	-10.77
266.51	-67.51
266.727	-78.08
266.944	-52.42
267.161	-64.92
267.378	-81.78
267.595	-35.49
267.812	-54.99
268.028	-90.15
268.245	-63.36
268.462	-67.81
268.679	-87.03
268.896	-29.55
269.112	-31.9
269.329	-46.86
269.546	-37.48
269.763	-41.61
269.979	-67.65
270.196	-57.27
270.413	-84.7
270.629	-107.25
270.846	-109.71
271.063	-97.81
271.279	-115.63
271.496	-96.65
271.712	-55.55
271.929	-51.02
272.146	-81.19
272.362	-63.82
272.579	-12.48
272.795	-11.52
273.012	2.82
273.228	8.6
273.445	-16.72
273.661	-71.29
273.878	-105.9
274.094	-95.86
274.311	-126.05
274.527	-37.4
274.744	-35.95
274.96	-46.75
275.177	-25.76
275.393	7.97
275.609	-16.02
275.826	13.66
276.042	11.99
276.259	-11.77
276.475	-6.71
276.691	9.88
276.908	-16.57
277.124	4.11
277.34	-0.49
277.557	-17.73
277.773	-31.61
277.989	-26.83
278.205	-29.79
278.422	-12.1
278.638	-18.61
278.854	-7.71
279.07	-31.6
279.286	-53.03
279.503	-86.18
279.719	-82.34
279.935	-113.39
280.151	-121.37
280.367	-73.69
280.583	-98.89
280.799	-74.07
281.016	-101.79
281.232	-47.02
281.448	-44.7
281.664	4.64
281.88	-31.17
282.096	-2.86
282.312	12.65
282.528	11.83
282.744	-29.66
282.96	-7.7
283.176	-25.81
283.392	-50.42
283.608	-54.24
283.824	-42.07
284.04	-40.05
284.256	-32.77
284.471	-21.07
284.687	-27.26
284.903	-11.75
285.119	13.92
285.335	-9.32
285.551	-0.92
285.767	-14.44
285.982	-32.61
286.198	-81.09
286.414	-11.52
286.63	-18.98
286.846	14.23
287.061	-7.93
287.277	27.39
287.493	-10.68
287.709	16.37
287.924	1.17
288.14	47.82
288.356	30.18
288.571	49.15
288.787	26.41
289.003	17.79
289.218	-11.25
289.434	-38.47
289.65	-32.21
289.865	-44.63
290.081	-27.94
290.296	-37.15
290.512	-41.41
290.727	-82.12
290.943	-78.11
291.159	-84.97
291.374	-74.61
291.59	-86.13
291.805	-52.15
292.021	-43.56
292.236	-40.74
292.451	-35.94
292.667	-20.55
292.882	-16.73
293.098	-27.03
293.313	-52.71
293.529	-67.42
293.744	-89.98
293.959	-89.87
294.175	-71.56
294.39	-25.33
294.605	-9.26
294.821	17.56
295.036	15.85
295.251	4.99
295.467	-14.5
295.682	-21.53
295.897	-85.23
296.112	-105.36
296.328	-77.18
296.543	-102.22
296.758	-94.92
296.973	-51.6
297.188	2.5
297.404	-49.03
297.619	-68.87
297.834	-90.31
298.049	-97.56
298.264	-119.53
298.479	-36.71
298.694	-24.35
298.909	-3.26
299.125	0.25
299.34	-2.97
299.555	-17.7
299.77	-17.61
299.985	-48.69
300.2	-110.35
300.415	-111.64
300.63	-79.45
300.845	-69.38
301.06	-70.08
301.275	-22.46
301.49	-24.89
301.704	-42.81
301.919	-63.16
302.134	-73.41
302.349	-92.61
302.564	-155.91
302.779	-214.91
302.994	-253.45
303.209	-162.93
303.423	-92.52
303.638	7.93
303.853	-17.93
304.068	-15.19
304.283	-14.39
304.497	-18.35
304.712	-51.72
304.927	-28.83
305.142	-37.29
305.356	-28.5
305.571	-27.52
305.786	-40.55
306	-75.24
306.215	-45.71
306.43	-93.05
306.644	-115.5
306.859	-65.4
307.074	-31.88
307.288	-80.68
307.503	-73.28
307.717	-73.29
307.932	-70.79
308.147	-69.57
308.361	-42.08
308.576	-59.6
308.79	-99.03
309.005	-86.86
309.219	-65.23
309.434	-70.05
309.648	-46.35
309.863	-22.02
310.077	-33.12
310.292	-44.53
310.506	-44.24
310.72	-26.55
310.935	-23.29
311.149	-19.22
311.364	0.93
311.578	13.66
311.792	-0.71
312.007	-5.75
312.221	-25.47
312.435	-24.11
312.649	-32.35
312.864	-11.56
313.078	32.98
313.292	129.51
313.507	91.74
313.721	107.87
313.935	30.62
314.149	3.07
314.363	-32.93
314.578	-35.91
314.792	-25.43
315.006	-31.96
315.22	-8.14
315.434	10.8
315.648	28.49
315.862	26.82
316.077	22.08
316.291	-3.68
316.505	-9.21
316.719	-56.23
316.933	-79.85
317.147	-63.64
317.361	-110.57
317.575	-151.48
317.789	-192.06
318.003	-250.7
318.217	-207.85
318.431	-89.75
318.645	-30.25
318.859	-19.18
319.073	7.7
319.287	-10.3
319.5	-53.58
319.714	-90.58
319.928	-115.12
320.142	-143.74
320.356	-74.73
320.57	-35.1
320.784	-56.58
320.997	-50.4
321.211	-39.55
321.425	-94.95
321.639	-113.75
321.853	-33.22
322.066	-14.69
322.28	-30.51
322.494	-31.48
322.707	-7.25
322.921	-29.16
323.135	-28.95
323.349	-5.43
323.562	-21.69
323.776	-43.34
323.989	-36.82
324.203	-71.14
324.417	-90.12
324.63	-101.95
324.844	-103.47
325.057	-122.26
325.271	-85.13
325.485	-35.4
325.698	-3.47
325.912	10.55
326.125	-13.06
326.339	-7.27
326.552	-57.58
326.766	-65.67
326.979	-43.74
327.193	-5.17
327.406	-36.01
327.619	-18.64
327.833	-13.79
328.046	-43.39
328.26	-76.54
328.473	-41.17
328.686	-94.68
328.9	-86.18
329.113	-62.04
329.326	-73.01
329.54	-67.1
329.753	-56.25
329.966	-71.37
330.179	-86.76
330.393	-58.91
330.606	-41.89
330.819	-15.86
331.032	-5.09
331.246	6.83
331.459	39.58
331.672	22.25
331.885	12.4
332.098	-6.84
332.311	-23.78
332.525	-90.69
332.738	-79.5
332.951	-58.21
333.164	-17.55
333.377	-0.48
333.59	10.76
333.803	13.91
334.016	5.37
334.229	-19.9
334.442	-31.09
334.655	-27.58
334.868	-26.92
335.081	-27.39
335.294	-40.5
335.507	-39.09
335.72	-39.2
335.933	-43.71
336.146	-48.32
336.359	-34.82
336.572	-62.85
336.785	-70.97
336.997	-67.04
337.21	-47.9
337.423	-50.55
337.636	-51.17
337.849	-44.93
338.062	-54.75
338.274	-47.14
338.487	-54.07
338.7	-39.87
338.913	-81.94
339.125	-105.25
339.338	-158.99
339.551	-148.73
339.763	-119.95
339.976	-73.19
340.189	-33.16
340.402	-13.29
340.614	-8.99
340.827	-15.5
341.039	-42.59
341.252	-46.85
341.465	-32.62
341.677	-45.2
341.89	-93.15
342.102	-40.3
342.315	-59.29
342.527	-94.41
342.74	-72.5
342.952	-18.37
343.165	-33.8
343.377	-11.32
343.59	-15.59
343.802	3.16
344.015	-3.71
344.227	5.91
344.44	-0.31
344.652	1.51
344.864	-17.93
345.077	5.88
345.289	6.29
345.502	11.81
345.714	-4.17
345.926	0.99
346.139	-11.03
346.351	0.97
346.563	7.45
346.775	23.47
346.988	6.64
347.2	-6.8
347.412	-71.69
347.624	-107.84
347.837	-141.77
348.049	-104.36
348.261	-77.51
348.473	-57.39
348.685	-51.48
348.897	-27.24
349.11	-50.71
349.322	-61.34
349.534	-42.46
349.746	-30.88
349.958	-46.48
350.17	-65.8
350.382	-39.47
350.594	-38.15
350.806	-58.56
351.018	-55.93
351.23	-62.34
351.442	-131.17
351.654	-132.38
351.866	-78.1
352.078	-65.29
352.29	-32.49
352.502	-2.07
352.714	5.38
352.926	-22.05
353.138	-23.86
353.35	-32.01
353.561	-42.69
353.773	-67.45
353.985	-54.09
354.197	-70.78
354.409	-79.76
354.621	-71.79
354.832	-53.72
355.044	-56.56
355.256	-46.92
355.468	-22.59
355.679	-34.65
355.891	-39.67
356.103	-47.27
356.314	-45.11
356.526	-62.54
356.738	-52.2
356.949	-53.38
357.161	-41.05
357.373	-34.96
357.584	-44.31
357.796	-26.53
358.008	-30.56
358.219	-6.49
358.431	-9.71
358.642	6.02
358.854	-5.92
359.065	-25.65
359.277	-63.24
359.488	-68.21
359.7	-97.58
359.911	-105.72
360.123	-67.06
360.334	-62.94
360.546	-81.63
360.757	-80.69
360.969	-57.49
361.18	-39.52
361.391	-36.25
361.603	-31.62
361.814	-18.18
362.025	-35.87
362.237	-52.67
362.448	-40.71
362.659	-16.39
362.871	-13.72
363.082	-2.42
363.293	6.08
363.504	-17.54
363.716	-39.79
363.927	-47.9
364.138	-82.45
364.349	-92.7
364.56	-69.4
364.772	-70.17
364.983	-39.09
365.194	-37.62
365.405	-29.08
365.616	-12.18
365.827	-8.53
366.038	-53.24
366.25	-42.3
366.461	-83.73
366.672	-63.18
366.883	-42.84
367.094	-22.03
367.305	-39.19
367.516	-23.39
367.727	-65.97
367.938	-83.77
368.149	-83.1
368.36	-50.98
368.571	-41.06
368.781	-41.06
368.992	-50.29
369.203	-69.64
369.414	-101.29
369.625	-120.86
369.836	-94.1
370.047	-120.26
370.258	-100.22
370.468	-94.39
370.679	-96.79
370.89	-108
371.101	-66.47
371.312	-70.61
371.522	-57.73
371.733	-45.36
371.944	-22.9
372.155	-25.21
372.365	-33.26
372.576	-40.36
372.787	-53.6
372.997	-90.93
373.208	-93.81
373.419	-50.02
373.629	-86.1
373.84	-75.52
374.05	-76.48
374.261	-61.01
374.472	-92.25
374.682	-30.93
374.893	-34.8
375.103	5.08
375.314	0.48
375.524	-0.49
375.735	-1.26
375.945	6.36
376.156	-20.72
376.366	-16.39
376.577	-6.05
376.787	-13.36
376.997	-14.97
377.208	-18.37
377.418	-36.87
377.629	-36.66
377.839	-37.38
378.049	-30.95
378.26	-10.15
378.47	5.2
378.68	-4.49
378.89	-7.1
379.101	-17.3
379.311	-55.71
379.521	-98.33
379.732	-104
379.942	-100.61
380.152	-109.65
380.362	-52.52
380.572	-35.46
380.783	-17.16
380.993	-3.76
381.203	13.06
381.413	8.01
381.623	6.8
381.833	-0.52
382.043	-18.9
382.253	-34.63
382.463	-36.11
382.674	-49.31
382.884	-62.89
383.094	-52.63
383.304	-38.16
383.514	-31.93
383.724	-19.2
383.934	-20.01
384.144	-26.06
384.353	-37.86
384.563	-39.08
384.773	-32.79
384.983	-41.39
385.193	-27.24
385.403	-18.98
385.613	-18.52
385.823	-31.27
386.033	-16.24
386.242	-20
386.452	-25.73
386.662	-36.08
386.872	-16.39
387.082	-26.53
387.291	-33.66
387.501	-26.98
387.711	-9.43
387.921	-18.96
388.13	-14.15
388.34	1.15
388.55	-8.88
388.759	-13.84
388.969	-6.53
389.179	-8.76
389.388	-12.95
389.598	-2.58
389.807	-8.38
390.017	-14.44
390.227	-11.81
390.436	-12.93
390.646	-13.44
390.855	-7.16
391.065	-5.79
391.274	-9.56
391.484	-10.31
391.693	-8.82
391.903	-9.39
392.112	-5.89
392.322	-1.35
392.531	1.95
392.74	2.89
392.95	-0.15
393.159	-1.11
393.369	-1.49
393.578	-0.74
393.787	-3.52
393.997	-1.51
394.206	-3.09
394.415	-2.4
394.625	-4.71
394.834	-5.24
395.043	-4.69
395.252	-1.36
395.462	0.37
395.671	1.55
395.88	3.23
396.089	4.21
396.298	1.37
396.508	0.62
396.717	0.37
396.926	0.85
397.135	0.17
397.344	0.56
397.553	1.29
397.762	2.89
397.971	2.58
398.181	2.88
398.39	2.27
398.599	1.72
398.808	1.32
399.017	2.31
399.226	3.2
399.435	4.77
399.644	5.43
399.853	4.84
400.062	4.07
400.27	3.52
400.479	2.82
400.688	1.62
400.897	1.99
401.106	2.48
401.315	2.45
401.524	2.66
401.733	3.32
401.941	3.84
402.15	3.65
402.359	3.46
402.568	3.86
402.777	4.15
402.985	3.87
403.194	3.77
403.403	3.8
403.612	3.27
403.82	3.13
404.029	3.08
404.238	2.97
404.446	3.35
404.655	3.24
404.864	3.24
405.072	3.1
405.281	3.35
405.489	3.02
405.698	3.12
405.906	2.97
406.115	2.96
406.324	2.78
406.532	3.03
406.741	3.3
406.949	3.35
407.158	3.29
407.366	3.46
407.574	3.28
407.783	3.26
407.991	3.18
408.2	3.48
408.408	3.39
408.617	3.27
408.825	3.09
409.033	3.2
409.242	3.08
409.45	3.1
409.658	3.24
409.867	3.43
410.075	3.24
410.283	3.06
410.491	3
410.7	2.76
410.908	2.85
411.116	3.23
411.324	3.23
411.533	3.17
411.741	3.55
411.949	3.41
412.157	3.09
412.365	3.23
412.573	3.31
412.781	3.18
412.99	3.03
413.198	3.14
413.406	3.04
413.614	3.01
413.822	2.83
414.03	2.81
414.238	2.67
414.446	2.72
414.654	2.49
414.862	2.67
415.07	2.85
415.278	3
415.486	2.78
415.694	2.94
415.902	2.82
416.109	2.62
416.317	2.64
416.525	2.56
416.733	2.47
416.941	2.52
417.149	2.6
417.357	2.58
417.564	2.81
417.772	3.17
417.98	3.05
418.188	3.04
418.395	3.06
418.603	3.19
418.811	2.71
419.019	2.63
419.226	2.77
419.434	2.81
419.642	2.51
419.849	2.74
420.057	2.79
420.265	2.63
420.472	2.3
420.68	2.38
420.887	2.22
421.095	2.3
421.302	2.25
421.51	2.46
421.717	2.52
421.925	2.73
422.132	2.63
422.34	2.39
422.547	2.39
422.755	2.2
422.962	2.05
423.17	2.04
423.377	2.25
423.585	2.32
423.792	2.38
423.999	2.46
424.207	2.39
424.414	2.61
424.621	2.51
424.829	2.4
425.036	2.27
425.243	2.47
425.451	2.14
425.658	2.04
425.865	2.41
426.072	2.41
426.28	2.5
426.487	2.59
426.694	2.69
426.901	2.4
427.108	2.46
427.315	2.23
427.523	2.65
427.73	2.66
427.937	2.65
428.144	2.53
428.351	2.58
428.558	2.35
428.765	2.23
428.972	2.17
429.179	2.4
429.386	2.66
429.593	2.4
429.8	2.27
430.007	2.46
430.214	2.5
430.421	2.17
430.628	2.05
430.835	2.1
431.042	2.25
431.249	2.18
431.456	2.3
431.662	2.52
431.869	2.71
432.076	2.68
432.283	2.88
432.49	2.89
432.697	2.92
432.903	2.7
433.11	2.59
433.317	2.55
433.524	2.71
433.73	2.71
433.937	2.97
434.144	2.91
434.35	2.8
434.557	2.63
434.764	2.6
434.97	2.42
435.177	2.58
435.384	2.57
435.59	2.67
435.797	2.94
436.003	3.08
436.21	2.94
436.416	3.02
436.623	2.99
436.829	3.06
437.036	3.13
437.242	3.2
437.449	3.05
437.655	3.11
437.862	2.98
438.068	2.85
438.275	3
438.481	3.36
438.687	3.31
438.894	3.22
439.1	3.24
439.307	3.31
439.513	3.08
439.719	3.03
439.926	3.22
440.132	3.22
440.338	3.05
440.544	3.18
440.751	3.14
440.957	3.08
441.163	2.97
441.369	2.97
441.575	2.75
441.782	2.76
441.988	2.56
442.194	2.65
442.4	2.67
442.606	3
442.812	3.04
443.018	3.18
443.224	3.16
443.431	3.27
443.637	2.96
443.843	2.9
444.049	2.87
444.255	2.86
444.461	2.87
444.667	2.84
444.873	3.04
445.079	3.06
445.284	3.14
445.49	2.96
445.696	2.86
445.902	2.71
446.108	2.66
446.314	2.55
446.52	2.66
446.726	2.94
446.931	2.96
447.137	3.04
447.343	3.21
447.549	3.06
447.755	3
447.96	3.05
448.166	2.94
448.372	2.78
448.578	2.92
448.783	2.92
448.989	2.96
449.195	3.16
449.4	3.25
449.606	3.19
449.812	3.05
450.017	3.09
450.223	2.92
450.428	2.83
450.634	2.94
450.84	3.16
451.045	3.01
451.251	3
451.456	3.3
451.662	3.35
451.867	3.33
452.073	3.4
452.278	3.56
452.483	3.56
452.689	3.43
452.894	3.45
453.1	3.42
453.305	3.31
453.51	3.16
453.716	3.16
453.921	3.08
454.127	2.97
454.332	2.89
454.537	2.84
