Data from Ofra_1a_PS_8HS23_Reflection_2.txt Node
Date: Tue Jul 20 11:02:45 EDT 2021
User: Adam
Spectrometer: FLMT01687
Trigger mode: 0
Integration Time (sec): 1.004000E0
Scans to average: 2
Electric dark correction enabled: true
Nonlinearity correction enabled: false
Boxcar width: 2
XAxis mode: Wavelengths
Number of Pixels in Spectrum: 3648
>>>>>Begin Spectral Data<<<<<
179.494	-292.39
179.716	-357.25
179.937	686.29
180.158	-603.82
180.38	78.96
180.601	55.42
180.823	44.13
181.044	100.15
181.265	65.87
181.486	-6.17
181.708	15.14
181.929	-327.27
182.15	35.54
182.372	82.76
182.593	-53.48
182.814	26.49
183.035	30.71
183.257	52.95
183.478	-1.5
183.699	-48.22
183.92	-82.17
184.141	-77.01
184.363	-75.5
184.584	-59.31
184.805	-2.16
185.026	29.93
185.247	9.72
185.468	-17.29
185.689	-8.84
185.91	-15.69
186.132	-14.64
186.353	3.49
186.574	23.24
186.795	10.8
187.016	28.28
187.237	22.59
187.458	17.36
187.679	-0.95
187.9	43.77
188.121	59.17
188.342	77.76
188.563	78.53
188.784	90.15
189.005	50.32
189.226	33.5
189.447	15.81
189.667	12.74
189.888	0.41
190.109	-7.53
190.33	2.12
190.551	3.46
190.772	-0.78
190.993	-10.21
191.214	-11.38
191.434	-27.54
191.655	-26.74
191.876	36.31
192.097	60.71
192.318	79.89
192.538	47.7
192.759	52.32
192.98	55.55
193.201	25.38
193.421	18.2
193.642	34.4
193.863	37.17
194.083	5.05
194.304	32.7
194.525	20.76
194.745	22.5
194.966	5.44
195.187	17.68
195.407	8.37
195.628	12.34
195.848	7
196.069	6.36
196.29	0
196.51	-5.34
196.731	-8.4
196.951	0.55
197.172	24.87
197.392	-0.26
197.613	31.03
197.833	14.64
198.054	21.34
198.274	1.52
198.495	20.26
198.715	17.12
198.936	47.09
199.156	35.3
199.377	33.17
199.597	40.75
199.817	21.76
200.038	-8.57
200.258	15.31
200.479	17.15
200.699	10.87
200.919	-5.79
201.14	6.88
201.36	-5.61
201.58	-6.44
201.801	-14.73
202.021	-16.02
202.241	-10.22
202.461	-18.49
202.682	-1.04
202.902	6.92
203.122	30.98
203.342	21.84
203.563	23.88
203.783	19.95
204.003	17.48
204.223	30.58
204.443	65.78
204.663	62.36
204.884	85.03
205.104	81.68
205.324	38.86
205.544	-8.43
205.764	50.79
205.984	32.64
206.204	36.85
206.424	46.21
206.644	41
206.864	7.39
207.084	24.08
207.304	28.41
207.525	28.53
207.745	39.18
207.964	31.42
208.184	24.26
208.404	16.51
208.624	27.19
208.844	24.06
209.064	21.3
209.284	10.04
209.504	5.16
209.724	-5.71
209.944	-13.27
210.164	-5.74
210.384	-7.71
210.604	-12.11
210.823	-19.76
211.043	-4.28
211.263	-18.08
211.483	5.73
211.703	13.3
211.922	18.66
212.142	34.18
212.362	60.04
212.582	71.04
212.801	62.97
213.021	45.54
213.241	13.84
213.461	-14.02
213.68	-20.19
213.9	-30.11
214.12	-15.93
214.339	-11.04
214.559	-3.92
214.779	8.41
214.998	34.24
215.218	18.55
215.438	21.48
215.657	7.33
215.877	-10.08
216.096	-3.7
216.316	-8.83
216.535	-20.43
216.755	-8.8
216.974	-19.04
217.194	-38.47
217.413	-29.5
217.633	-17.61
217.852	-9.12
218.072	7.82
218.291	16.51
218.511	16.15
218.73	2.14
218.95	-29.71
219.169	-59.69
219.389	-44.99
219.608	-35.59
219.827	-16.11
220.047	0.57
220.266	9.84
220.485	-6.75
220.705	5.1
220.924	-5.22
221.143	20.22
221.363	35.88
221.582	51.13
221.801	59.73
222.021	71.12
222.24	75.1
222.459	65.41
222.678	57.47
222.897	42.49
223.117	33.65
223.336	43
223.555	34.73
223.774	70.62
223.993	56.68
224.213	50.27
224.432	30.42
224.651	32.16
224.87	9.59
225.089	12.09
225.308	27.79
225.527	17.54
225.746	20
225.965	8.18
226.184	8.86
226.404	-8.59
226.623	10.36
226.842	7.5
227.061	28.69
227.28	38.29
227.499	42.97
227.718	40.8
227.936	44.86
228.155	26.67
228.374	14.69
228.593	17.32
228.812	15.71
229.031	22.18
229.25	29.33
229.469	31.25
229.688	33.44
229.907	34.4
230.125	23.2
230.344	25.03
230.563	26.86
230.782	18.41
231.001	5.85
231.22	5.86
231.438	19.39
231.657	18.47
231.876	19.59
232.095	37.72
232.313	39.59
232.532	30.62
232.751	38.84
232.969	37.81
233.188	14.15
233.407	21.77
233.625	2.1
233.844	5.38
234.063	15.46
234.281	30.42
234.5	18.92
234.719	30.07
234.937	10.35
235.156	-2.39
235.374	-9.65
235.593	5.32
235.811	16.73
236.03	25.03
236.249	30.29
236.467	28.85
236.686	10.74
236.904	6.64
237.123	-2.4
237.341	-15.41
237.559	-18.88
237.778	17.81
237.996	-4.96
238.215	0.43
238.433	-8.02
238.652	7.12
238.87	-12.85
239.088	6.6
239.307	8.48
239.525	15.03
239.743	5.97
239.962	2.7
240.18	5.98
240.398	7.44
240.617	13.81
240.835	19.25
241.053	17.69
241.271	40.73
241.49	45.65
241.708	31.87
241.926	36.56
242.144	38.55
242.363	6.3
242.581	-21.49
242.799	-36.9
243.017	-33.98
243.235	-7.47
243.453	-8.46
243.672	3.34
243.89	13.02
244.108	23.43
244.326	39.01
244.544	38.47
244.762	27.34
244.98	40.8
245.198	33.38
245.416	18.96
245.634	25.47
245.852	31.81
246.07	36.42
246.288	37.99
246.506	37.49
246.724	26.11
246.942	34.42
247.16	17.43
247.378	26.54
247.596	24.71
247.814	26.68
248.032	-8.44
248.25	8.95
248.468	13.54
248.685	21.46
248.903	11.59
249.121	18.54
249.339	23.08
249.557	31.33
249.775	33.01
249.992	43.56
250.21	30.91
250.428	20.09
250.646	10.07
250.863	-2.76
251.081	-8.8
251.299	6.93
251.517	26.38
251.734	37.34
251.952	41.8
252.17	47.89
252.387	45.32
252.605	29
252.823	22.13
253.04	42.53
253.258	23.48
253.475	12.67
253.693	18.4
253.911	6.56
254.128	0
254.346	12.28
254.563	25.36
254.781	14.05
254.998	25.6
255.216	7.81
255.433	14.88
255.651	18.79
255.868	17.31
256.086	26.22
256.303	17.11
256.521	8.23
256.738	-0.36
256.956	3.96
257.173	-1.55
257.39	19.3
257.608	20.47
257.825	17.54
258.043	28.81
258.26	26.75
258.477	30.92
258.695	36.79
258.912	39.53
259.129	20.46
259.346	21.48
259.564	21.93
259.781	24.99
259.998	40.21
260.216	56.37
260.433	38.78
260.65	36.09
260.867	29.63
261.084	19.85
261.302	12.99
261.519	37.66
261.736	33.26
261.953	32.58
262.17	43.4
262.387	29.66
262.604	12.86
262.822	13.94
263.039	8.79
263.256	1.81
263.473	-1.95
263.69	-2.17
263.907	1.91
264.124	34.71
264.341	36.89
264.558	47.93
264.775	79.2
264.992	64.31
265.209	29.63
265.426	37.18
265.643	34.73
265.86	23.58
266.077	18.72
266.294	31.13
266.51	39.12
266.727	35.4
266.944	32.06
267.161	35.88
267.378	22.28
267.595	-0.16
267.812	-14.03
268.028	-33.33
268.245	-32.87
268.462	15.32
268.679	31.88
268.896	46.02
269.112	44.3
269.329	33.6
269.546	42.67
269.763	37.33
269.979	23.58
270.196	38.52
270.413	36.6
270.629	4.08
270.846	-2.96
271.063	3.17
271.279	-8.95
271.496	-13.7
271.712	-6.98
271.929	3.91
272.146	-0.6
272.362	9.65
272.579	15.53
272.795	20.69
273.012	24.39
273.228	17.24
273.445	11.76
273.661	-1.4
273.878	-6.15
274.094	9.41
274.311	17.52
274.527	21.69
274.744	56.9
274.96	51.82
275.177	34.44
275.393	41.23
275.609	41.17
275.826	38.35
276.042	26.41
276.259	23.33
276.475	13.38
276.691	3.6
276.908	-16.78
277.124	9.61
277.34	11.97
277.557	-7.11
277.773	-21.81
277.989	-8.35
278.205	-15.91
278.422	2.83
278.638	28.47
278.854	23.89
279.07	28.5
279.286	25.95
279.503	23.44
279.719	22.99
279.935	31.14
280.151	17.62
280.367	16.41
280.583	7.76
280.799	2.88
281.016	-18.07
281.232	13.11
281.448	9
281.664	5.64
281.88	13.9
282.096	22.55
282.312	13.52
282.528	17.68
282.744	20.61
282.96	-5.79
283.176	-21.85
283.392	-63.12
283.608	-45.95
283.824	-56.21
284.04	-56.09
284.256	-19.95
284.471	-6.76
284.687	-7.47
284.903	-2.12
285.119	16.35
285.335	22
285.551	31.4
285.767	24.39
285.982	12.58
286.198	-15.21
286.414	-31.14
286.63	-35.79
286.846	-27.79
287.061	2.3
287.277	2.51
287.493	-9.87
287.709	-7.03
287.924	7.05
288.14	9.54
288.356	18.51
288.571	27.4
288.787	13.39
289.003	9.5
289.218	-6.49
289.434	-13.18
289.65	6.08
289.865	12.77
290.081	20.57
290.296	31.58
290.512	39.46
290.727	36.17
290.943	26.24
291.159	14.23
291.374	-15.63
291.59	-8.86
291.805	-33.88
292.021	-22.47
292.236	-15.37
292.451	6.16
292.667	1.58
292.882	20
293.098	26.03
293.313	18.73
293.529	21.39
293.744	3.56
293.959	0
294.175	-2.07
294.39	-15.44
294.605	2.01
294.821	7.47
295.036	12.15
295.251	14.42
295.467	17.9
295.682	17.93
295.897	12.82
296.112	8.41
296.328	14.46
296.543	8.2
296.758	-13.81
296.973	2.49
297.188	1.61
297.404	-29.91
297.619	-21.54
297.834	-16.5
298.049	-19.35
298.264	-21.69
298.479	-0.97
298.694	33.03
298.909	39.6
299.125	35.13
299.34	50.52
299.555	54.02
299.77	47.68
299.985	48.31
300.2	52.35
300.415	44.58
300.63	44.75
300.845	51.72
301.06	44.5
301.275	43.66
301.49	41.14
301.704	31.91
301.919	13.47
302.134	13.2
302.349	14.59
302.564	4.66
302.779	-8.09
302.994	6.76
303.209	-2.92
303.423	-11.2
303.638	4.58
303.853	-3.45
304.068	-19.09
304.283	-9.13
304.497	-5.24
304.712	-2.78
304.927	8.89
305.142	12.68
305.356	20.69
305.571	16.64
305.786	14.39
306	17.24
306.215	15.82
306.43	2.19
306.644	18.41
306.859	21.48
307.074	28.96
307.288	35.41
307.503	39.68
307.717	23.47
307.932	19.25
308.147	9.54
308.361	3.23
308.576	-20.19
308.79	-5.67
309.005	-23.09
309.219	12.93
309.434	12.55
309.648	21.23
309.863	26.24
310.077	43.97
310.292	41.25
310.506	44.33
310.72	40.43
310.935	40.52
311.149	33.28
311.364	17.88
311.578	7.52
311.792	14.7
312.007	0.97
312.221	-20.76
312.435	1.16
312.649	34.35
312.864	25.96
313.078	27.05
313.292	33.66
313.507	34.36
313.721	18.78
313.935	21.33
314.149	18.12
314.363	21.61
314.578	8.14
314.792	-10.99
315.006	-8.27
315.22	16.5
315.434	20.42
315.648	13.31
315.862	14.24
316.077	10.18
316.291	-1.58
316.505	-25.6
316.719	-6.54
316.933	-5.59
317.147	2.88
317.361	9.3
317.575	14.94
317.789	17.62
318.003	28.55
318.217	49.99
318.431	37.02
318.645	39.04
318.859	38.55
319.073	32.08
319.287	15.36
319.5	18.25
319.714	11.42
319.928	6.95
320.142	4.5
320.356	23.22
320.57	5.71
320.784	16.33
320.997	-8.86
321.211	1.74
321.425	-40.71
321.639	-3.43
321.853	3.45
322.066	17.69
322.28	5.81
322.494	12.13
322.707	6.37
322.921	-8.78
323.135	-9.77
323.349	4.4
323.562	9
323.776	7.87
323.989	26.17
324.203	16.69
324.417	20.69
324.63	15.85
324.844	-8.94
325.057	-21.9
325.271	-8.82
325.485	-18.6
325.698	1.53
325.912	42.65
326.125	21.39
326.339	23.3
326.552	16.25
326.766	-1.9
326.979	-8.1
327.193	11.11
327.406	-8.51
327.619	-5.44
327.833	-4.63
328.046	-10.75
328.26	-10.83
328.473	-2.04
328.686	3.42
328.9	7.92
329.113	2.11
329.326	-7.74
329.54	5.19
329.753	13.41
329.966	18.33
330.179	21.56
330.393	19.47
330.606	19.82
330.819	1.34
331.032	-1.38
331.246	10.01
331.459	25.11
331.672	17.17
331.885	24.05
332.098	38.31
332.311	25.16
332.525	26.38
332.738	27.13
332.951	20.4
333.164	8.5
333.377	11.04
333.59	4.61
333.803	2.37
334.016	21.58
334.229	22.74
334.442	15.77
334.655	22.29
334.868	15.45
335.081	7.65
335.294	-2.04
335.507	6.79
335.72	0.91
335.933	6.93
336.146	17.64
336.359	25.2
336.572	20.17
336.785	-0.92
336.997	-10.93
337.21	-30.78
337.423	-44.03
337.636	-25.77
337.849	8.24
338.062	9.49
338.274	24.18
338.487	16.77
338.7	6.48
338.913	7.86
339.125	-2.68
339.338	-1.62
339.551	2.79
339.763	3.94
339.976	-7.43
340.189	10.66
340.402	16.13
340.614	22.55
340.827	34.91
341.039	49
341.252	38.16
341.465	16.54
341.677	25.08
341.89	7.06
342.102	15.31
342.315	32.79
342.527	48.25
342.74	34.53
342.952	53.67
343.165	40.69
343.377	26.32
343.59	28.94
343.802	34.7
344.015	33.09
344.227	37.26
344.44	27.92
344.652	21.28
344.864	30.57
345.077	37.5
345.289	28.03
345.502	40.12
345.714	40.6
345.926	34.16
346.139	8.76
346.351	25.23
346.563	34.14
346.775	22.49
346.988	32.15
347.2	32.83
347.412	21.95
347.624	11.54
347.837	12.94
348.049	5.47
348.261	2.45
348.473	-7.8
348.685	7.87
348.897	10.51
349.11	-0.16
349.322	13.11
349.534	16.04
349.746	-11.63
349.958	-18.65
350.17	-39.6
350.382	-41.08
350.594	-34.63
350.806	3.15
351.018	18.07
351.23	33.09
351.442	34.81
351.654	36.97
351.866	24.52
352.078	22.03
352.29	10.77
352.502	4.82
352.714	-4.74
352.926	1.14
353.138	4.22
353.35	1.12
353.561	2.97
353.773	5.4
353.985	10.25
354.197	10.12
354.409	11.01
354.621	-0.87
354.832	-1.21
355.044	-17.81
355.256	-15.96
355.468	2.06
355.679	18.31
355.891	29.54
356.103	19.55
356.314	10.92
356.526	-5.1
356.738	-6.37
356.949	-9.83
357.161	24.21
357.373	30.85
357.584	37.96
357.796	37.02
358.008	33.33
358.219	20.65
358.431	18
358.642	25.13
358.854	31.27
359.065	19.51
359.277	16.59
359.488	8.62
359.7	3.36
359.911	-12.81
360.123	6.79
360.334	4.56
360.546	12.42
360.757	5.06
360.969	23.1
361.18	2.62
361.391	22.25
361.603	20.12
361.814	35.69
362.025	23.39
362.237	32.24
362.448	22.36
362.659	15.02
362.871	-11.17
363.082	-24
363.293	-21.3
363.504	-37.93
363.716	-17.99
363.927	14.69
364.138	13.13
364.349	7.27
364.56	4.26
364.772	3.74
364.983	9.93
365.194	18.25
365.405	20.85
365.616	31.56
365.827	24.73
366.038	22.86
366.25	19.49
366.461	12.84
366.672	15.62
366.883	13.02
367.094	4.45
367.305	-1.09
367.516	13.16
367.727	1.11
367.938	9.14
368.149	11.31
368.36	21.59
368.571	4.81
368.781	11.13
368.992	4.27
369.203	3.65
369.414	3.76
369.625	9.89
369.836	29.37
370.047	35.21
370.258	40.17
370.468	37.15
370.679	37.04
370.89	23.8
371.101	36.08
371.312	22.25
371.522	20.79
371.733	11
371.944	3.76
372.155	6.8
372.365	18.41
372.576	17.15
372.787	31.76
372.997	26.99
373.208	15.33
373.419	13.17
373.629	4.54
373.84	-4.91
374.05	4.71
374.261	-5.81
374.472	-3.5
374.682	13.79
374.893	8.04
375.103	9.1
375.314	18.63
375.524	17.84
375.735	15.65
375.945	13.7
376.156	11.49
376.366	7.79
376.577	8.74
376.787	5.88
376.997	22.7
377.208	24.37
377.418	19.82
377.629	19.31
377.839	30.7
378.049	22.15
378.26	7.76
378.47	10.74
378.68	8.9
378.89	5.08
379.101	8.29
379.311	16.2
379.521	8.27
379.732	15.14
379.942	4.43
380.152	-10.81
380.362	-12.69
380.572	-0.87
380.783	0.19
380.993	4.13
381.203	9.25
381.413	12.05
381.623	13.68
381.833	17.45
382.043	15.45
382.253	13.69
382.463	25.76
382.674	23.98
382.884	19.42
383.094	18.03
383.304	17.16
383.514	9.97
383.724	8.66
383.934	1.57
384.144	8.58
384.353	15.16
384.563	11.27
384.773	13.24
384.983	8.28
385.193	5.66
385.403	0.15
385.613	4.47
385.823	-4.2
386.033	1.49
386.242	2.58
386.452	9.2
386.662	5.13
386.872	9.18
387.082	4.24
387.291	-2.07
387.501	-5.37
387.711	0.18
387.921	-0.45
388.13	7.08
388.34	11.95
388.55	8.77
388.759	1.47
388.969	3.06
389.179	4.99
389.388	-0.71
389.598	-2.02
389.807	-1.31
390.017	-0.04
390.227	-7.31
390.436	-4.23
390.646	-1.15
390.855	1.69
391.065	-1.65
391.274	0.13
391.484	0.1
391.693	-2.58
391.903	-3.03
392.112	-1.73
392.322	-1.59
392.531	-2.05
392.74	0.2
392.95	-0.94
393.159	1.28
393.369	1.69
393.578	1.19
393.787	0.57
393.997	1.1
394.206	-0.63
394.415	-0.12
394.625	0.51
394.834	0.37
395.043	1.03
395.252	3.71
395.462	4.74
395.671	5.17
395.88	6.61
396.089	6.67
396.298	6.06
396.508	5.81
396.717	5.77
396.926	4.74
397.135	4.93
397.344	3.96
397.553	3.5
397.762	4.24
397.971	4.64
398.181	3.97
398.39	4.17
398.599	4.02
398.808	3.21
399.017	3.9
399.226	4
399.435	3.79
399.644	4.58
399.853	5.13
400.062	4.42
400.27	4
400.479	4.12
400.688	3.6
400.897	3.19
401.106	3.26
401.315	3.76
401.524	3.9
401.733	3.7
401.941	3.95
402.15	3.85
402.359	3.57
402.568	3.59
402.777	3.97
402.985	3.71
403.194	3.92
403.403	4.33
403.612	4.17
403.82	3.83
404.029	4.06
404.238	4.06
404.446	3.94
404.655	3.94
404.864	3.99
405.072	3.88
405.281	3.91
405.489	3.76
405.698	3.85
405.906	4.02
406.115	3.93
406.324	3.89
406.532	3.95
406.741	3.84
406.949	3.87
407.158	3.89
407.366	3.78
407.574	3.72
407.783	3.8
407.991	3.79
408.2	4.01
408.408	4.1
408.617	4.04
408.825	3.86
409.033	3.72
409.242	3.66
409.45	3.66
409.658	3.7
409.867	3.69
410.075	3.74
410.283	3.51
410.491	3.45
410.7	3.33
410.908	3.55
411.116	3.73
411.324	3.8
411.533	3.67
411.741	3.82
411.949	3.76
412.157	3.53
412.365	3.6
412.573	3.71
412.781	3.67
412.99	3.65
413.198	3.69
413.406	3.71
413.614	3.73
413.822	3.8
414.03	3.78
414.238	3.78
414.446	3.73
414.654	3.69
414.862	3.65
415.07	3.51
415.278	3.6
415.486	3.37
415.694	3.37
415.902	3.27
416.109	3.2
416.317	3.04
416.525	3.16
416.733	3.03
416.941	3.11
417.149	3.06
417.357	3.16
417.564	3.23
417.772	3.42
417.98	3.34
418.188	3.37
418.395	3.06
418.603	2.82
418.811	2.72
419.019	2.69
419.226	2.87
419.434	3.04
419.642	3.02
419.849	2.96
420.057	3.13
420.265	3.09
420.472	3.17
420.68	3.23
420.887	3.25
421.095	3.12
421.302	3.11
421.51	2.99
421.717	3.09
421.925	3.17
422.132	3.13
422.34	3.02
422.547	3.02
422.755	3.13
422.962	3.14
423.17	2.95
423.377	2.91
423.585	2.96
423.792	2.88
423.999	2.86
424.207	2.88
424.414	3.04
424.621	2.93
424.829	2.9
425.036	2.91
425.243	2.95
425.451	2.92
425.658	2.96
425.865	2.93
426.072	2.85
426.28	3.05
426.487	3.1
426.694	3.04
426.901	3.08
427.108	3.02
427.315	2.95
427.523	2.77
427.73	2.77
427.937	2.56
428.144	2.55
428.351	2.59
428.558	2.77
428.765	2.93
428.972	3.16
429.179	3.14
429.386	3.19
429.593	3.02
429.8	2.98
430.007	2.99
430.214	3.17
430.421	3.26
430.628	3.3
430.835	3.27
431.042	3.2
431.249	3.2
431.456	3.03
431.662	3.21
431.869	3.39
432.076	3.46
432.283	3.55
432.49	3.62
432.697	3.54
432.903	3.43
433.11	3.51
433.317	3.38
433.524	3.36
433.73	3.36
433.937	3.43
434.144	3.3
434.35	3.26
434.557	3.33
434.764	3.42
434.97	3.29
435.177	3.42
435.384	3.6
435.59	3.59
435.797	3.58
436.003	3.78
436.21	3.68
436.416	3.54
436.623	3.62
436.829	3.55
437.036	3.39
437.242	3.53
437.449	3.65
437.655	3.75
437.862	3.84
438.068	3.86
438.275	3.9
438.481	3.9
438.687	3.8
438.894	3.88
439.1	3.91
439.307	4.01
439.513	4.06
439.719	4.07
439.926	4.04
440.132	4.22
440.338	4.13
440.544	4.09
440.751	4.03
440.957	4.12
441.163	3.95
441.369	3.86
441.575	3.8
441.782	3.89
441.988	3.79
442.194	3.8
442.4	3.83
442.606	4.03
442.812	4.04
443.018	4.07
443.224	4.18
443.431	4.23
443.637	4.05
443.843	4.03
444.049	4.13
444.255	4.23
444.461	4.1
444.667	4.21
444.873	4.22
445.079	4.11
445.284	4.02
445.49	4.11
445.696	4
445.902	4.01
446.108	4.07
446.314	4.05
446.52	4.21
446.726	4.28
446.931	4.35
447.137	4.32
447.343	4.39
447.549	4.3
447.755	4.37
447.96	4.36
448.166	4.47
448.372	4.43
448.578	4.42
448.783	4.42
448.989	4.41
449.195	4.41
449.4	4.45
449.606	4.43
449.812	4.38
450.017	4.44
450.223	4.35
450.428	4.35
450.634	4.4
450.84	4.46
451.045	4.45
451.251	4.56
451.456	4.65
451.662	4.71
451.867	4.7
452.073	4.74
452.278	4.75
452.483	4.69
452.689	4.78
452.894	4.89
453.1	4.83
453.305	4.85
453.51	4.87
453.716	4.81
453.921	4.76
454.127	4.83
454.332	4.77
454.537	4.79
454.742	4.7
454.948	4.7
455.153	4.7
455.358	4.71
455.563	4.75
455.769	4.79
455.974	4.72
456.179	4.67
456.384	4.67
456.589	4.55
456.795	4.52
457	4.5
457.205	4.46
457.41	4.46
457.615	4.44
457.82	4.51
458.025	4.61
458.23	4.74
458.435	4.79
458.64	4.87
458.845	4.89
459.05	4.93
459.255	4.87
459.46	4.87
459.665	4.87
459.87	4.85
460.075	4.88
460.28	4.94
460.485	5
460.69	5.05
460.895	5.11
461.099	5
461.304	4.92
461.509	4.95
461.714	4.97
461.919	4.91
462.123	5.05
462.328	4.99
462.533	4.89
462.738	4.79
462.942	4.8
463.147	4.74
463.352	4.93
463.556	4.97
463.761	5.1
463.966	5.08
464.17	5.14
464.375	5.18
464.58	5.07
464.784	5.03
464.989	5.16
465.193	5.18
465.398	5.13
465.602	5.41
465.807	5.44
466.011	5.41
466.216	5.3
466.42	5.41
466.625	5.34
466.829	5.35
467.034	5.43
467.238	5.57
467.443	5.43
467.647	5.46
467.851	5.49
468.056	5.54
468.26	5.58
468.464	5.7
468.669	5.73
468.873	5.79
469.077	5.68
469.282	5.7
469.486	5.61
469.69	5.54
469.894	5.49
