Data from Ofra_PS_T2_1A_1GT37_Reflection_3.txt Node
Date: Wed Jul 21 17:48:17 EDT 2021
User: Adam
Spectrometer: FLMT01687
Trigger mode: 0
Integration Time (sec): 1.100000E0
Scans to average: 2
Electric dark correction enabled: true
Nonlinearity correction enabled: false
Boxcar width: 2
XAxis mode: Wavelengths
Number of Pixels in Spectrum: 3648
>>>>>Begin Spectral Data<<<<<
179.494	558
179.716	660.71
179.937	636.59
180.158	583.12
180.38	921.56
180.601	423.48
180.823	132.35
181.044	-93.13
181.265	173.16
181.486	71.98
181.708	99.42
181.929	364.29
182.15	-437.32
182.372	68.41
182.593	-6.79
182.814	50.34
183.035	76.96
183.257	37.66
183.478	-55.21
183.699	-12.2
183.92	-24.6
184.141	-20.38
184.363	-82.55
184.584	-23.21
184.805	-1.39
185.026	13.57
185.247	17.97
185.468	23.49
185.689	29.16
185.91	20.49
186.132	42.6
186.353	59.64
186.574	121.4
186.795	105.13
187.016	86.29
187.237	30.42
187.458	-15.26
187.679	-30.36
187.9	-45.58
188.121	-48.8
188.342	-85.34
188.563	7.9
188.784	20.65
189.005	36.29
189.226	124.12
189.447	151.2
189.667	54.61
189.888	-225.37
190.109	-1011.04
190.33	-852.58
190.551	-1708.41
190.772	-383.9
190.993	-326.13
191.214	-270.2
191.434	-153.89
191.655	-14.17
191.876	-63.68
192.097	-63.2
192.318	-75.31
192.538	-142.08
192.759	-142.3
192.98	-33.8
193.201	-9.5
193.421	-19.33
193.642	0.6
193.863	17.8
194.083	1.46
194.304	-20.89
194.525	-19.22
194.745	-51.19
194.966	-84.02
195.187	-71.98
195.407	-88.33
195.628	-152.22
195.848	-102.18
196.069	-80.75
196.29	-77.41
196.51	-83.93
196.731	-45.54
196.951	-68.88
197.172	-88.2
197.392	-112.73
197.613	-83.69
197.833	-110.94
198.054	-111.24
198.274	-52.79
198.495	-83.6
198.715	-61.72
198.936	-94.16
199.156	-63.39
199.377	-186.03
199.597	-159.33
199.817	-159.67
200.038	-87.4
200.258	-162.32
200.479	-79.02
200.699	-82.42
200.919	-17.2
201.14	-34.47
201.36	-59.55
201.58	-0.5
201.801	38.93
202.021	0.85
202.241	6.12
202.461	8.19
202.682	-96.04
202.902	-170.15
203.122	-98.38
203.342	-111.37
203.563	-41.15
203.783	-11.4
204.003	-56.1
204.223	-57.41
204.443	46.22
204.663	15.16
204.884	38.12
205.104	74.58
205.324	115.42
205.544	61.62
205.764	58.47
205.984	50.35
206.204	44.4
206.424	23.73
206.644	-5.75
206.864	14.39
207.084	-29.15
207.304	-45.83
207.525	-230.16
207.745	-137.05
207.964	-63.97
208.184	-89.35
208.404	-126.51
208.624	-86.74
208.844	-86.56
209.064	-390.21
209.284	-372.67
209.504	-109.47
209.724	-28.44
209.944	1.56
210.164	28.77
210.384	39.66
210.604	29.01
210.823	-8.23
211.043	-38.13
211.263	-17.87
211.483	-48.13
211.703	-96.62
211.922	-69.16
212.142	-1.05
212.362	3.47
212.582	7.47
212.801	-0.84
213.021	-25.98
213.241	-54.58
213.461	-74.81
213.68	-84.84
213.9	-49.09
214.12	-33.83
214.339	-104
214.559	-107.44
214.779	-37.03
214.998	-25.92
215.218	-71.44
215.438	-31.73
215.657	-37.29
215.877	-48.51
216.096	-29.87
216.316	-12
216.535	-36.21
216.755	-29
216.974	-151.74
217.194	-213.08
217.413	-172.23
217.633	-135.75
217.852	-235.8
218.072	-105.61
218.291	-55.84
218.511	-17.51
218.73	-33.04
218.95	-31.42
219.169	-31.99
219.389	-79.18
219.608	-69.1
219.827	-63.53
220.047	-37.47
220.266	-14.48
220.485	-4.64
220.705	3.61
220.924	-19.65
221.143	4.81
221.363	-27.98
221.582	-15.4
221.801	-2.82
222.021	26.22
222.24	-23.67
222.459	39.5
222.678	-1.55
222.897	-112.74
223.117	-176.06
223.336	-169.7
223.555	-126.14
223.774	-85.69
223.993	-62.98
224.213	-9.65
224.432	-5.01
224.651	44.52
224.87	25.28
225.089	44.44
225.308	42.49
225.527	58.8
225.746	48.46
225.965	35.84
226.184	13.12
226.404	23.79
226.623	6.41
226.842	13.61
227.061	44.06
227.28	42.69
227.499	33.73
227.718	31.65
227.936	22.17
228.155	30.5
228.374	6.45
228.593	28.36
228.812	26.71
229.031	8.67
229.25	-56.14
229.469	-23.88
229.688	-56.66
229.907	-3.08
230.125	19.95
230.344	41.11
230.563	31.71
230.782	51.41
231.001	-24.17
231.22	-37.44
231.438	-4.56
231.657	-0.28
231.876	-19.54
232.095	26.96
232.313	31.68
232.532	4.63
232.751	-29.6
232.969	-40.96
233.188	-130.97
233.407	-36.1
233.625	-21.17
233.844	-32.88
234.063	-23.47
234.281	6.44
234.5	-24.71
234.719	-29.79
234.937	-3.02
235.156	4.87
235.374	10.66
235.593	14.25
235.811	20.86
236.03	5.39
236.249	-32.13
236.467	-40.47
236.686	-14.71
236.904	-2.59
237.123	-29.39
237.341	-20.58
237.559	-22.64
237.778	-37.86
237.996	-89.03
238.215	-20.34
238.433	-10.48
238.652	6.37
238.87	-22.92
239.088	29.64
239.307	18.91
239.525	31.55
239.743	-0.54
239.962	35.3
240.18	-32.26
240.398	-63.68
240.617	-68.23
240.835	-65.22
241.053	-41.61
241.271	43.87
241.49	42.75
241.708	25.65
241.926	22.14
242.144	2.56
242.363	-93.36
242.581	-123.07
242.799	-63.98
243.017	-12.33
243.235	-21.22
243.453	-1.05
243.672	-4.13
243.89	-17.16
244.108	-37.48
244.326	-14.93
244.544	-5.86
244.762	3.37
244.98	19.35
245.198	30.42
245.416	-14.73
245.634	-17.82
245.852	-35.64
246.07	-57.35
246.288	-61.38
246.506	-65.22
246.724	-35.23
246.942	-19.22
247.16	22.42
247.378	17.68
247.596	54.73
247.814	26.78
248.032	-1.23
248.25	-11.16
248.468	1.98
248.685	2.19
248.903	37.4
249.121	48.57
249.339	18.64
249.557	13.46
249.775	2.49
249.992	-64.3
250.21	-63.94
250.428	-39.56
250.646	-84.55
250.863	-95.94
251.081	-47.57
251.299	-37.24
251.517	-42.88
251.734	-25.31
251.952	-35.95
252.17	-41.77
252.387	-26.5
252.605	-33.46
252.823	-13.91
253.04	10.11
253.258	35.7
253.475	23.02
253.693	57.63
253.911	44.88
254.128	48.65
254.346	38.16
254.563	24.88
254.781	-1.98
254.998	-28.02
255.216	-45.98
255.433	-39.01
255.651	0.7
255.868	25.96
256.086	77.59
256.303	71.43
256.521	52.85
256.738	28.89
256.956	-2.74
257.173	-46.25
257.39	-66.1
257.608	-91.94
257.825	-44.92
258.043	-3
258.26	14.96
258.477	59.53
258.695	55.49
258.912	2.42
259.129	5.47
259.346	-40.01
259.564	-90.93
259.781	-110.34
259.998	-24.63
260.216	4.71
260.433	53.63
260.65	51.56
260.867	67.5
261.084	24.11
261.302	-19.81
261.519	-34.29
261.736	-44.57
261.953	-69.31
262.17	-8.77
262.387	-32.43
262.604	-69.96
262.822	-76.96
263.039	-45.01
263.256	-102.15
263.473	-59.69
263.69	-52.1
263.907	-5.02
264.124	-2.93
264.341	-8.1
264.558	-11.8
264.775	19.24
264.992	9.86
265.209	10.56
265.426	40.15
265.643	45.63
265.86	52.54
266.077	43.75
266.294	47.77
266.51	-5.6
266.727	-29.61
266.944	-38.96
267.161	-60.48
267.378	-62.2
267.595	-30.18
267.812	-41.61
268.028	-56.25
268.245	-1.94
268.462	-19.42
268.679	-20.21
268.896	34.99
269.112	35.85
269.329	28.22
269.546	16.03
269.763	12.39
269.979	-6.5
270.196	-15.26
270.413	-53.09
270.629	-60.06
270.846	-62.24
271.063	-72.28
271.279	-80.35
271.496	-65.11
271.712	-15.83
271.929	3.07
272.146	7.32
272.362	11.59
272.579	46.55
272.795	52.75
273.012	44.73
273.228	41.77
273.445	23.43
273.661	-3.64
273.878	-78.94
274.094	-76.29
274.311	-101.72
274.527	-20.34
274.744	-19.69
274.96	-8.26
275.177	10.32
275.393	19.23
275.609	-0.84
275.826	24.85
276.042	13.62
276.259	-4.22
276.475	20.54
276.691	30.03
276.908	1.17
277.124	20.03
277.34	22.04
277.557	4.86
277.773	-7.67
277.989	-5.48
278.205	-11.93
278.422	9.33
278.638	14.18
278.854	44.97
279.07	46.13
279.286	43.65
279.503	10.75
279.719	9.89
279.935	-21.41
280.151	-30.22
280.367	-14.13
280.583	-55.4
280.799	-39.45
281.016	-77.89
281.232	-16.86
281.448	-12.78
281.664	39.63
281.88	4.5
282.096	20.57
282.312	18.41
282.528	34.88
282.744	19.48
282.96	34.02
283.176	28.24
283.392	8.43
283.608	-5.74
283.824	-6.71
284.04	-5.99
284.256	0.43
284.471	-5.23
284.687	-4.75
284.903	16.39
285.119	54.35
285.335	35.08
285.551	51.53
285.767	15.58
285.982	-13.47
286.198	-68.55
286.414	-15.06
286.63	-10.9
286.846	31.87
287.061	13
287.277	45.67
287.493	13.35
287.709	33.58
287.924	4.43
288.14	44.46
288.356	37.15
288.571	51.98
288.787	25.45
289.003	22.41
289.218	-4.66
289.434	-42.58
289.65	-39.9
289.865	-31.49
290.081	4.01
290.296	12.35
290.512	17.56
290.727	-19.99
290.943	-30.5
291.159	-42.7
291.374	-41.75
291.59	-61.85
291.805	-51.09
292.021	-37.32
292.236	-51.83
292.451	-34.47
292.667	-13.68
292.882	7.09
293.098	1.6
293.313	-8.01
293.529	-20.65
293.744	-39.82
293.959	-40.5
294.175	-44.58
294.39	-0.06
294.605	11.45
294.821	38.1
295.036	32.7
295.251	42.32
295.467	1.41
295.682	-22.37
295.897	-97.94
296.112	-99.08
296.328	-102.25
296.543	-110.92
296.758	-98.32
296.973	-24.33
297.188	18.02
297.404	9.26
297.619	11.67
297.834	-9.12
298.049	-50.66
298.264	-81.14
298.479	-19.03
298.694	-21.93
298.909	11.92
299.125	19.77
299.34	21.62
299.555	-23.22
299.77	5.32
299.985	-47.18
300.2	-94.63
300.415	-114.29
300.63	-59.49
300.845	-75.04
301.06	-70.77
301.275	-24.16
301.49	-3.11
301.704	-20.35
301.919	-32.18
302.134	-35.91
302.349	-47.99
302.564	-115.58
302.779	-176.22
302.994	-125.78
303.209	-83.68
303.423	-52.65
303.638	31.82
303.853	10.89
304.068	-8.06
304.283	-5.37
304.497	-14.78
304.712	-24
304.927	-7.94
305.142	-11.08
305.356	2.71
305.571	9.15
305.786	-10.22
306	-22.59
306.215	-22.52
306.43	-61.05
306.644	-57.9
306.859	-19.5
307.074	-22.61
307.288	-49.27
307.503	-49.4
307.717	-49.65
307.932	-41.6
308.147	-37.94
308.361	-1.54
308.576	-10.81
308.79	-46.18
309.005	-43.8
309.219	-21.96
309.434	-49.33
309.648	-46.81
309.863	-21.63
310.077	-29.86
310.292	-35.61
310.506	-25.84
310.72	-12.98
310.935	5.06
311.149	-5.46
311.364	20.82
311.578	43.55
311.792	39.75
312.007	36.05
312.221	25.27
312.435	12.12
312.649	-11.35
312.864	-10.36
313.078	2.37
313.292	68.33
313.507	58.74
313.721	109.29
313.935	69.17
314.149	52.62
314.363	12.94
314.578	11.68
314.792	11.19
315.006	1.8
315.22	10.2
315.434	23.66
315.648	29.2
315.862	17.62
316.077	19.6
316.291	2.76
316.505	7.15
316.719	-44.04
316.933	-58.36
317.147	-47.19
317.361	-91.05
317.575	-105.64
317.789	-99.67
318.003	-143.12
318.217	-133.43
318.431	-32.39
318.645	4.56
318.859	-3.17
319.073	23.94
319.287	11.11
319.5	-23.64
319.714	-59.87
319.928	-73.29
320.142	-102.66
320.356	-32.7
320.57	15.99
320.784	9.17
320.997	0.17
321.211	21.75
321.425	-53.16
321.639	-95.23
321.853	-37.92
322.066	-25.98
322.28	-29.77
322.494	-10.95
322.707	13.88
322.921	-10.74
323.135	1.65
323.349	16.37
323.562	-12.91
323.776	-33.92
323.989	-21.22
324.203	-39.33
324.417	-41.91
324.63	-51.29
324.844	-58.54
325.057	-45.74
325.271	-9.99
325.485	2.51
325.698	27.54
325.912	49.24
326.125	14.9
326.339	9.76
326.552	-20.15
326.766	-31.76
326.979	-26.23
327.193	30.79
327.406	-4.41
327.619	-12.31
327.833	15.46
328.046	-3.32
328.26	-40.64
328.473	-3.11
328.686	-22.11
328.9	-38.5
329.113	-18.51
329.326	-62.46
329.54	-50.95
329.753	-41.03
329.966	-75
330.179	-98.05
330.393	-47.11
330.606	-33.84
330.819	-17.08
331.032	4.78
331.246	24.6
331.459	44.46
331.672	21.54
331.885	13.83
332.098	-9.66
332.311	-23.87
332.525	-77.98
332.738	-77.28
332.951	-49.6
333.164	-15.18
333.377	-5.96
333.59	19.63
333.803	30.28
334.016	26.91
334.229	24.69
334.442	20.89
334.655	29.62
334.868	40.58
335.081	33.96
335.294	7.35
335.507	-9.48
335.72	-15.3
335.933	-35.94
336.146	-53.36
336.359	-38.13
336.572	-57.66
336.785	-96.2
336.997	-82.17
337.21	-45.02
337.423	-46.28
337.636	-32.09
337.849	-4.43
338.062	-4.44
338.274	4.47
338.487	-8.17
338.7	-4.53
338.913	-33.92
339.125	-56.83
339.338	-136.51
339.551	-97.97
339.763	-52.88
339.976	-20.59
340.189	-2.5
340.402	31.42
340.614	18.75
340.827	5.99
341.039	-21.39
341.252	-13.77
341.465	-11.53
341.677	-22.34
341.89	-66.19
342.102	-18.5
342.315	-38.81
342.527	-52.52
342.74	-44.21
342.952	-14.08
343.165	-23.24
343.377	2.56
343.59	-6.45
343.802	21.07
344.015	29.02
344.227	32.14
344.44	20.03
344.652	18.31
344.864	-9.27
345.077	13.18
345.289	17.1
345.502	22.51
345.714	18.08
345.926	33.47
346.139	18.45
346.351	25.12
346.563	22.95
346.775	24.18
346.988	5.74
347.2	-11.62
347.412	-57.97
347.624	-75.2
347.837	-90.5
348.049	-60.26
348.261	-18.35
348.473	-5.5
348.685	-11.86
348.897	-15.8
349.11	-32.3
349.322	-71.14
349.534	-58.65
349.746	-45.44
349.958	-19.46
350.17	-22.05
350.382	-1.47
350.594	-9.62
350.806	-10.81
351.018	-27.28
351.23	-51.75
351.442	-98.74
351.654	-110.45
351.866	-111.58
352.078	-83.76
352.29	-41.26
352.502	-16.9
352.714	-1.73
352.926	-1.7
353.138	-10
353.35	-17.59
353.561	-14.74
353.773	-30.15
353.985	-5.61
354.197	-10.82
354.409	-6.93
354.621	-9.44
354.832	-0.68
355.044	-23.72
355.256	-17.46
355.468	-2.88
355.679	-11.07
355.891	-4.56
356.103	-24.5
356.314	-17.18
356.526	-15.86
356.738	-4.97
356.949	-23.76
357.161	-1.33
357.373	-11.36
357.584	-30.61
357.796	-17.76
358.008	-31.55
358.219	-8.86
358.431	4.11
358.642	7.46
358.854	-1.76
359.065	6.25
359.277	-23.95
359.488	-43.32
359.7	-58.91
359.911	-67.74
360.123	-43.02
360.334	-51.09
360.546	-67.56
360.757	-80.6
360.969	-62.88
361.18	-50.67
361.391	-21.69
361.603	-22.01
361.814	6.52
362.025	8.67
362.237	2.98
362.448	23
362.659	43.77
362.871	37.26
363.082	28.86
363.293	24.52
363.504	-12.4
363.716	-40.86
363.927	-41.43
364.138	-69.1
364.349	-78.45
364.56	-79.33
364.772	-68.43
364.983	-47.82
365.194	-39.29
365.405	-26.1
365.616	-1.95
365.827	-13.42
366.038	-44.55
366.25	-43.36
366.461	-95.27
366.672	-58.65
366.883	-21.04
367.094	-11.86
367.305	-25.46
367.516	-9.78
367.727	-51.25
367.938	-74.22
368.149	-70.36
368.36	-44.32
368.571	-39.17
368.781	-40.74
368.992	-53.38
369.203	-62.11
369.414	-98.57
369.625	-104.09
369.836	-85.43
370.047	-98.85
370.258	-82.91
370.468	-73.18
370.679	-83.25
370.89	-86.3
371.101	-51.25
371.312	-56.25
371.522	-39.6
371.733	-23.23
371.944	-3.68
372.155	-13.67
372.365	-25.56
372.576	-27.54
372.787	-30.99
372.997	-59.77
373.208	-49.95
373.419	-11.06
373.629	-38.13
373.84	-48.66
374.05	-51.47
374.261	-40.82
374.472	-73.44
374.682	-19.97
374.893	-9.35
375.103	28.67
375.314	20.93
375.524	24.92
375.735	17.05
375.945	13.73
376.156	-19.11
376.366	-11.75
376.577	-9.65
376.787	-19.58
376.997	-14.66
377.208	-9.99
377.418	-22.08
377.629	-12
377.839	-6.23
378.049	-1.8
378.26	18.06
378.47	22.06
378.68	15.01
378.89	11.86
379.101	2.67
379.311	-31.43
379.521	-61.28
379.732	-71.25
379.942	-69.02
380.152	-91.28
380.362	-53.7
380.572	-40.85
380.783	-23.67
380.993	-11.56
381.203	0.29
381.413	7.95
381.623	5.84
381.833	-1.09
382.043	-14.15
382.253	-16.64
382.463	-16.95
382.674	-24.56
382.884	-42.26
383.094	-39.15
383.304	-32.48
383.514	-28.96
383.724	-4.41
383.934	-2.01
384.144	-3.29
384.353	-11.06
384.563	-13.46
384.773	-18.26
384.983	-20.97
385.193	-7.65
385.403	1.19
385.613	-1.56
385.823	-18.27
386.033	-9.17
386.242	-14.55
386.452	-17.17
386.662	-25.28
386.872	-8.57
387.082	-14.41
387.291	-29.69
387.501	-36.36
387.711	-23.65
387.921	-33.16
388.13	-29.28
388.34	-8.06
388.55	-7.68
388.759	-12.33
388.969	-5.19
389.179	-7.4
389.388	-13.38
389.598	-7.2
389.807	-12.55
390.017	-17.59
390.227	-13.23
390.436	-13.85
390.646	-12.51
390.855	-6.18
391.065	-4.64
391.274	-10
391.484	-11.08
391.693	-10.54
391.903	-10.73
392.112	-5.33
392.322	-0.7
392.531	3.97
392.74	4.28
392.95	0.34
393.159	-1.76
393.369	-1.66
393.578	-3.13
393.787	-4.28
393.997	-2.52
394.206	-5.03
394.415	-5.43
394.625	-6.26
394.834	-7.77
395.043	-5.53
395.252	-1.93
395.462	0.14
395.671	1.57
395.88	2.24
396.089	3.34
396.298	1.17
396.508	0.45
396.717	-0.91
396.926	-0.4
397.135	-1.28
397.344	-0.94
397.553	0.1
397.762	2.34
397.971	1.93
398.181	1.58
398.39	0.65
398.599	-0.56
398.808	-1.41
399.017	0.29
399.226	1.81
399.435	3.19
399.644	3.74
399.853	3.08
400.062	2.34
400.27	1.8
400.479	1.57
400.688	0.62
400.897	1.13
401.106	0.88
401.315	0.34
401.524	0.2
401.733	1.2
401.941	1.66
402.15	1.97
402.359	2.09
402.568	2.69
402.777	2.62
402.985	1.94
403.194	1.62
403.403	1.71
403.612	1.01
403.82	0.87
404.029	1.18
404.238	1.19
404.446	1.36
404.655	1.44
404.864	1.47
405.072	1.24
405.281	1.44
405.489	1.13
405.698	0.98
405.906	0.86
406.115	0.78
406.324	0.72
406.532	0.89
406.741	1.34
406.949	1.31
407.158	1.36
407.366	1.37
407.574	1.2
407.783	1.02
407.991	0.98
408.2	1.21
408.408	1.14
408.617	1.18
408.825	1.01
409.033	1.13
409.242	1.09
409.45	1.19
409.658	1.02
409.867	1.26
410.075	1.11
410.283	1
410.491	0.95
410.7	0.99
410.908	0.93
411.116	1.27
411.324	1.28
411.533	1.22
411.741	1.52
411.949	1.49
412.157	1.18
412.365	1.19
412.573	1.25
412.781	1.19
412.99	1.15
413.198	1.32
413.406	1.35
413.614	1.32
413.822	1.08
414.03	0.96
414.238	0.81
414.446	0.81
414.654	0.64
414.862	0.87
415.07	1.03
415.278	1.24
415.486	1.14
415.694	1.41
415.902	1.28
416.109	1.1
416.317	1.08
416.525	1.05
416.733	0.96
416.941	1.09
417.149	1.1
417.357	1.03
417.564	1.19
417.772	1.38
417.98	1.18
418.188	1.3
418.395	1.37
418.603	1.54
418.811	1.15
419.019	1.1
419.226	1.28
419.434	1.33
419.642	0.94
419.849	1.22
420.057	1.33
420.265	1.2
420.472	0.82
420.68	1
420.887	0.73
421.095	0.84
421.302	0.95
421.51	1.3
421.717	1.34
421.925	1.52
422.132	1.24
422.34	0.83
422.547	0.81
422.755	0.67
422.962	0.59
423.17	0.63
423.377	0.93
423.585	0.9
423.792	0.93
423.999	1.01
424.207	1.02
424.414	1.14
424.621	1.19
424.829	1.18
425.036	1.15
425.243	1.26
425.451	1.14
425.658	0.78
425.865	1.08
426.072	1.1
426.28	1.44
426.487	1.23
426.694	1.46
426.901	1.11
427.108	1.14
427.315	0.86
427.523	1.31
427.73	1.29
427.937	1.3
428.144	1.12
428.351	1.06
428.558	1.12
428.765	0.91
428.972	0.81
429.179	0.93
429.386	1.27
429.593	0.8
429.8	0.74
430.007	0.9
430.214	1.04
430.421	0.63
430.628	0.61
430.835	0.6
431.042	0.87
431.249	0.9
431.456	1.02
431.662	1.23
431.869	1.47
432.076	1.41
432.283	1.45
432.49	1.46
432.697	1.42
432.903	1.2
433.11	1.07
433.317	1.1
433.524	1.33
433.73	1.34
433.937	1.66
434.144	1.56
434.35	1.48
434.557	1.13
434.764	1.06
434.97	0.95
435.177	1.12
435.384	0.98
435.59	1.15
435.797	1.37
436.003	1.44
436.21	1.35
436.416	1.47
436.623	1.43
436.829	1.47
437.036	1.53
437.242	1.5
437.449	1.41
437.655	1.45
437.862	1.27
438.068	1.13
438.275	1.33
438.481	1.61
438.687	1.56
438.894	1.6
439.1	1.63
439.307	1.73
439.513	1.56
439.719	1.53
439.926	1.67
440.132	1.65
440.338	1.33
440.544	1.47
440.751	1.42
440.957	1.38
441.163	1.36
441.369	1.53
441.575	1.17
441.782	1.22
441.988	1.04
442.194	1.07
442.4	0.95
442.606	1.37
442.812	1.45
443.018	1.62
443.224	1.61
443.431	1.75
443.637	1.48
443.843	1.37
444.049	1.29
444.255	1.29
444.461	1.33
444.667	1.34
444.873	1.51
445.079	1.52
445.284	1.61
445.49	1.37
445.696	1.28
445.902	1.15
446.108	1.12
446.314	0.99
446.52	1.08
446.726	1.32
446.931	1.34
447.137	1.37
447.343	1.48
447.549	1.35
447.755	1.17
447.96	1.21
448.166	1.22
448.372	1.13
448.578	1.27
448.783	1.33
448.989	1.4
449.195	1.64
449.4	1.73
449.606	1.59
449.812	1.58
450.017	1.63
450.223	1.37
450.428	1.21
450.634	1.47
450.84	1.57
451.045	1.4
451.251	1.34
451.456	1.7
451.662	1.7
451.867	1.68
452.073	1.68
452.278	1.82
452.483	1.79
452.689	1.63
452.894	1.7
453.1	1.71
453.305	1.6
453.51	1.52
453.716	1.47
453.921	1.5
454.127	1.48
454.332	1.5
454.537	1.36
454.742	1.41
454.948	1.37
455.153	1.41
455.358	1.48
455.563	1.72
455.769	1.83
455.974	1.78
456.179	1.71
456.384	1.74
456.589	1.58
456.795	1.4
457	1.35
457.205	1.62
457.41	1.44
457.615	1.39
457.82	1.49
458.025	1.54
458.23	1.37
458.435	1.48
458.64	1.46
458.845	1.61
459.05	1.55
459.255	1.52
459.46	1.54
459.665	1.59
459.87	1.56
