Data from Ofra_PS_T2_1A_2GT10_Reflection_1.txt Node
Date: Wed Jul 21 17:54:07 EDT 2021
User: Adam
Spectrometer: FLMT01687
Trigger mode: 0
Integration Time (sec): 1.100000E0
Scans to average: 2
Electric dark correction enabled: true
Nonlinearity correction enabled: false
Boxcar width: 2
XAxis mode: Wavelengths
Number of Pixels in Spectrum: 3648
>>>>>Begin Spectral Data<<<<<
179.494	537.2
179.716	629.18
179.937	586.19
180.158	585.87
180.38	1070.94
180.601	451.1
180.823	120.59
181.044	10.19
181.265	110.66
181.486	-14.34
181.708	66.63
181.929	405.1
182.15	-233.1
182.372	143.75
182.593	33.28
182.814	-5.25
183.035	29.65
183.257	35.2
183.478	-31.38
183.699	11.33
183.92	29.97
184.141	3.82
184.363	-76.91
184.584	-25.77
184.805	-4.06
185.026	21.07
185.247	60.73
185.468	44.63
185.689	31.54
185.91	33.49
186.132	44.9
186.353	24.42
186.574	110.27
186.795	81.94
187.016	54.55
187.237	16.5
187.458	10.92
187.679	-17.81
187.9	14.02
188.121	1.07
188.342	51.01
188.563	51.52
188.784	76.31
189.005	66.94
189.226	116.62
189.447	62.7
189.667	-52.67
189.888	-254.43
190.109	-1301.95
190.33	-681.61
190.551	-1317.26
190.772	-250
190.993	-210.62
191.214	-148.8
191.434	-68.67
191.655	43.01
191.876	-1.69
192.097	-56.73
192.318	-90.47
192.538	-187.54
192.759	-160.91
192.98	-65.83
193.201	-11.11
193.421	-2.65
193.642	10.56
193.863	19.51
194.083	3.87
194.304	-16.94
194.525	-10.81
194.745	-34.51
194.966	-69.19
195.187	-67.78
195.407	-70.07
195.628	-164.48
195.848	-146.89
196.069	-121.09
196.29	-93.77
196.51	-96.83
196.731	-51.45
196.951	-45.74
197.172	-87.71
197.392	-111.51
197.613	-105.48
197.833	-149.69
198.054	-154.8
198.274	-81.44
198.495	-98.41
198.715	-86.37
198.936	-103.72
199.156	-85.99
199.377	-200.7
199.597	-166.69
199.817	-136.77
200.038	-51.66
200.258	-73.18
200.479	16.02
200.699	68.29
200.919	54.83
201.14	5.14
201.36	-16.63
201.58	13.52
201.801	35.65
202.021	-0.03
202.241	1.37
202.461	10.19
202.682	-60.41
202.902	-167.22
203.122	-87.29
203.342	-63.78
203.563	-44.86
203.783	-8.87
204.003	-35.13
204.223	-32.36
204.443	23.13
204.663	4.18
204.884	-3.1
205.104	39.43
205.324	62.16
205.544	63.62
205.764	76.07
205.984	69.21
206.204	63.98
206.424	45.45
206.644	-8.88
206.864	-2.95
207.084	-68.62
207.304	-27.63
207.525	-164.22
207.745	-82.83
207.964	-17.12
208.184	-42.15
208.404	-116.49
208.624	-104.64
208.844	-89.64
209.064	-430.76
209.284	-424.48
209.504	-202.72
209.724	-59.53
209.944	-44.92
210.164	-16.57
210.384	5.54
210.604	-1.33
210.823	-34.02
211.043	-38.05
211.263	-26.68
211.483	-34.14
211.703	-79.08
211.922	-52.84
212.142	18.81
212.362	41.26
212.582	25.8
212.801	30.75
213.021	0.18
213.241	-37.14
213.461	-66.02
213.68	-77.33
213.9	-37.51
214.12	-29.12
214.339	-72.95
214.559	-48.57
214.779	2.63
214.998	-6.77
215.218	-30.05
215.438	-8.57
215.657	-17.79
215.877	-41.99
216.096	-24.72
216.316	-14.95
216.535	-32.15
216.755	-26.88
216.974	-125.47
217.194	-169.58
217.413	-134.99
217.633	-147.42
217.852	-255.18
218.072	-89.42
218.291	-44.16
218.511	-8.11
218.73	-31.27
218.95	-13.87
219.169	-21.09
219.389	-63.01
219.608	-61.13
219.827	-39.37
220.047	-50.95
220.266	-42.2
220.485	-25.1
220.705	-22.37
220.924	-36.23
221.143	19.48
221.363	-12.72
221.582	-10.07
221.801	-5.47
222.021	4.14
222.24	-76.33
222.459	2.5
222.678	2.58
222.897	-33.31
223.117	-31.26
223.336	-56.57
223.555	-15.13
223.774	29.87
223.993	35.7
224.213	87.95
224.432	85.49
224.651	83.7
224.87	42.43
225.089	43.98
225.308	32.39
225.527	44.28
225.746	41.14
225.965	29.1
226.184	11.49
226.404	22.15
226.623	-11.7
226.842	-16.08
227.061	13.69
227.28	25.08
227.499	2.57
227.718	19.31
227.936	17.74
228.155	26.95
228.374	1.49
228.593	9.11
228.812	4.76
229.031	-17.58
229.25	-84.3
229.469	-69.92
229.688	-55.66
229.907	-15.8
230.125	12.87
230.344	42.62
230.563	43.02
230.782	40.29
231.001	-50.22
231.22	-52.53
231.438	-24.94
231.657	-4.36
231.876	-22.43
232.095	33.44
232.313	40.64
232.532	19.02
232.751	-19.27
232.969	-31.03
233.188	-88.73
233.407	-34.94
233.625	-28.34
233.844	-67.12
234.063	-32.45
234.281	-7.87
234.5	-12.14
234.719	-4.76
234.937	30.04
235.156	23.92
235.374	26.39
235.593	2.22
235.811	-9.93
236.03	-48.2
236.249	-89.5
236.467	-81.29
236.686	-29.96
236.904	-12.21
237.123	-26.06
237.341	-27.12
237.559	-22.86
237.778	-42.99
237.996	-66.1
238.215	-23.14
238.433	1.92
238.652	-5.88
238.87	-23.24
239.088	-4.74
239.307	-15.12
239.525	-21.76
239.743	-49.75
239.962	-22.54
240.18	-53.61
240.398	-70.26
240.617	-81.56
240.835	-36.53
241.053	-31.79
241.271	10.2
241.49	13.67
241.708	-34.56
241.926	-101.73
242.144	-100.75
242.363	-159.8
242.581	-185.1
242.799	-99.05
243.017	-35.53
243.235	-39.7
243.453	-18.48
243.672	-16.74
243.89	-15.73
244.108	-43.24
244.326	-13.26
244.544	-13.37
244.762	-10.04
244.98	-1.1
245.198	26.54
245.416	-29.72
245.634	-15.05
245.852	-40.84
246.07	-63.51
246.288	-84.23
246.506	-75.44
246.724	-49.47
246.942	-36.4
247.16	2.39
247.378	26.87
247.596	57.3
247.814	40.3
248.032	28.62
248.25	5.82
248.468	-2.26
248.685	-9.44
248.903	20.18
249.121	11.93
249.339	-13.55
249.557	-22.36
249.775	-11.38
249.992	-88.44
250.21	-71.7
250.428	-44.61
250.646	-67.64
250.863	-86.78
251.081	-56.34
251.299	-37.15
251.517	-37.44
251.734	-34.85
251.952	-48.9
252.17	-23.87
252.387	-23.48
252.605	-23.43
252.823	-7.89
253.04	23.04
253.258	35.92
253.475	33.32
253.693	54.05
253.911	53.64
254.128	58.83
254.346	45.85
254.563	34.67
254.781	-0.45
254.998	-24.76
255.216	-40.66
255.433	-16.4
255.651	31.55
255.868	54.16
256.086	75.6
256.303	40.91
256.521	19.44
256.738	-7.78
256.956	-34.2
257.173	-76.04
257.39	-73.15
257.608	-101.94
257.825	-49.85
258.043	-15.16
258.26	8.01
258.477	46.24
258.695	41.71
258.912	-9.95
259.129	-8.1
259.346	-43.71
259.564	-90.6
259.781	-124.95
259.998	-37.81
260.216	-9.22
260.433	29.33
260.65	34.98
260.867	68.43
261.084	30.98
261.302	5.11
261.519	-12.49
261.736	-47
261.953	-72.25
262.17	-16.5
262.387	-52.36
262.604	-83.06
262.822	-86.68
263.039	-62.98
263.256	-141.08
263.473	-80.01
263.69	-58.01
263.907	-3.11
264.124	4.06
264.341	22.94
264.558	19.62
264.775	43.86
264.992	22.34
265.209	24.48
265.426	31.89
265.643	24.43
265.86	22.66
266.077	42.03
266.294	30.61
266.51	-9.17
266.727	-26.87
266.944	-13.86
267.161	-32.49
267.378	-45.21
267.595	-2.44
267.812	-23.42
268.028	-46.73
268.245	-30.56
268.462	-48.53
268.679	-64.4
268.896	-2.1
269.112	2.39
269.329	-6.52
269.546	12.05
269.763	-0.96
269.979	-11.53
270.196	-4.8
270.413	-39.82
270.629	-71.39
270.846	-72.01
271.063	-63.19
271.279	-95.15
271.496	-63.97
271.712	-16.17
271.929	11.98
272.146	-14.69
272.362	5.14
272.579	27.66
272.795	24.36
273.012	6.25
273.228	3.58
273.445	-31.59
273.661	-66.68
273.878	-109.54
274.094	-103.16
274.311	-133.91
274.527	-43.61
274.744	-31.23
274.96	-22.51
275.177	3.77
275.393	26.33
275.609	26.43
275.826	29.99
276.042	16.59
276.259	2.52
276.475	19.47
276.691	26.1
276.908	8.26
277.124	30.28
277.34	34.95
277.557	13.69
277.773	-22.95
277.989	-14.88
278.205	-21.26
278.422	-10.93
278.638	0.12
278.854	32.35
279.07	33.32
279.286	19.52
279.503	-22.83
279.719	-34.84
279.935	-83.03
280.151	-104.04
280.367	-52.37
280.583	-68.43
280.799	-52.75
281.016	-61.75
281.232	-24.09
281.448	-28.72
281.664	3.93
281.88	-45.33
282.096	-19.68
282.312	4.48
282.528	14.5
282.744	14.4
282.96	35.33
283.176	22.26
283.392	1.86
283.608	-17.91
283.824	-19.81
284.04	-8.74
284.256	9.86
284.471	3.79
284.687	6.07
284.903	33.51
285.119	48.94
285.335	9.47
285.551	22
285.767	-4.78
285.982	-29.61
286.198	-72.36
286.414	-5.69
286.63	-1.19
286.846	37.88
287.061	13.49
287.277	34.07
287.493	5.32
287.709	25.76
287.924	3.15
288.14	50.25
288.356	42.68
288.571	52.03
288.787	19.05
289.003	16.63
289.218	-2.84
289.434	-37.25
289.65	-27.35
289.865	-28.57
290.081	-0.73
290.296	3.4
290.512	27.17
290.727	-13.88
290.943	-18.35
291.159	-34.53
291.374	-49.35
291.59	-63.99
291.805	-35.39
292.021	-33.48
292.236	-32.87
292.451	4.02
292.667	21.23
292.882	30.4
293.098	37.89
293.313	18.3
293.529	-23.37
293.744	-65.82
293.959	-73.85
294.175	-55.9
294.39	-7.57
294.605	12.08
294.821	37.2
295.036	41.07
295.251	37.09
295.467	0.42
295.682	-26.21
295.897	-81.22
296.112	-93.06
296.328	-87.83
296.543	-87.25
296.758	-74.8
296.973	15.02
297.188	46.17
297.404	20.82
297.619	17.82
297.834	10.63
298.049	-46.83
298.264	-81.28
298.479	-13.72
298.694	-10.4
298.909	10.4
299.125	19.94
299.34	35.56
299.555	8.73
299.77	29.39
299.985	-20.72
300.2	-78.35
300.415	-100.49
300.63	-41.46
300.845	-56.78
301.06	-48.31
301.275	-14.4
301.49	-2.05
301.704	-37.32
301.919	-39.67
302.134	-34.79
302.349	-36.75
302.564	-92.78
302.779	-88.81
302.994	-64.97
303.209	-40.33
303.423	-3.51
303.638	52.89
303.853	25.42
304.068	22.58
304.283	13.37
304.497	4.78
304.712	-10.03
304.927	-0.17
305.142	-10.89
305.356	7.41
305.571	4.67
305.786	-16.15
306	-32.61
306.215	-41.09
306.43	-78.55
306.644	-76.46
306.859	-13.56
307.074	-4.98
307.288	-15.47
307.503	-25.57
307.717	-29.65
307.932	-37.29
308.147	-40.86
308.361	-21.34
308.576	-25.45
308.79	-66.54
309.005	-48.2
309.219	-29.68
309.434	-35.66
309.648	-34.43
309.863	-2.07
310.077	-9.54
310.292	-24.73
310.506	-26.81
310.72	-8.09
310.935	3.67
311.149	4.49
311.364	30.44
311.578	43.83
311.792	36.82
312.007	31.94
312.221	15.52
312.435	20.62
312.649	5.55
312.864	-11.37
313.078	6.51
313.292	56.32
313.507	3.49
313.721	3.19
313.935	46.08
314.149	24.5
314.363	5.15
314.578	8.44
314.792	9.84
315.006	-3.05
315.22	18.13
315.434	31.53
315.648	40.33
315.862	47.39
316.077	44.89
316.291	23.66
316.505	17.89
316.719	-27.68
316.933	-50.51
317.147	-32.68
317.361	-92.01
317.575	-105.31
317.789	-106.31
318.003	-173.95
318.217	-135.3
318.431	-35.84
318.645	11.02
318.859	12.65
319.073	45.84
319.287	33.23
319.5	8.04
319.714	-29.37
319.928	-44.26
320.142	-73.14
320.356	-20.6
320.57	29.85
320.784	16.74
320.997	-8.91
321.211	-1.88
321.425	-85.8
321.639	-119.05
321.853	-48.29
322.066	-29.94
322.28	-27.09
322.494	-2.2
322.707	13.94
322.921	-11.73
323.135	-4.75
323.349	6.39
323.562	-20.95
323.776	-36.92
323.989	-28.1
324.203	-52.15
324.417	-64.99
324.63	-71.69
324.844	-66.28
325.057	-87.75
325.271	-45.02
325.485	-9.63
325.698	27.14
325.912	31.9
326.125	28.01
326.339	20.86
326.552	1.16
326.766	-17.04
326.979	-0.23
327.193	40.12
327.406	26.8
327.619	20.8
327.833	39.62
328.046	18.04
328.26	-20.92
328.473	9.23
328.686	-13.84
328.9	-27.6
329.113	-9.24
329.326	-35.8
329.54	-39.66
329.753	-48.25
329.966	-81.29
330.179	-71.58
330.393	-17.59
330.606	-17.51
330.819	12.66
331.032	33.53
331.246	39.46
331.459	60.55
331.672	47.56
331.885	33.1
332.098	7.12
332.311	-15.44
332.525	-95.76
332.738	-85.85
332.951	-46.48
333.164	-17.93
333.377	2.51
333.59	37.01
333.803	47.38
334.016	40.38
334.229	53.47
334.442	51.85
334.655	63.47
334.868	57.29
335.081	39.73
335.294	9.41
335.507	-9.8
335.72	-22.58
335.933	-32.3
336.146	-26.85
336.359	-5.64
336.572	-17.32
336.785	-31.02
336.997	-15.46
337.21	0.71
337.423	-15.19
337.636	-13.22
337.849	1.81
338.062	-10.23
338.274	-7.21
338.487	-18.8
338.7	-15.74
338.913	-52.65
339.125	-68.84
339.338	-150.63
339.551	-108.91
339.763	-65.1
339.976	-47.83
340.189	-30.79
340.402	0.73
340.614	-11.78
340.827	-24.64
341.039	-42.05
341.252	-38.82
341.465	-24.49
341.677	-31.94
341.89	-73.88
342.102	-33.73
342.315	-36.32
342.527	-65.18
342.74	-53.54
342.952	-5.45
343.165	-11.52
343.377	-2.35
343.59	-5.55
343.802	17.27
344.015	4.43
344.227	18.7
344.44	23.38
344.652	21.07
344.864	-4.93
345.077	23.29
345.289	19.77
345.502	19.27
345.714	14.18
345.926	27.33
346.139	15.34
346.351	20.6
346.563	24.83
346.775	32.43
346.988	14.92
347.2	-11.56
347.412	-62.2
347.624	-80.25
347.837	-105.3
348.049	-74.68
348.261	-27.31
348.473	-16.99
348.685	-22.4
348.897	-34.43
349.11	-52.46
349.322	-65.76
349.534	-36.76
349.746	-22.81
349.958	-6.71
350.17	-2.32
350.382	1.88
350.594	-2.11
350.806	-2.32
351.018	-6.53
351.23	-19.2
351.442	-75.59
351.654	-89.91
351.866	-79.4
352.078	-64.14
352.29	-21.63
352.502	3.7
352.714	12.79
352.926	-3.56
353.138	-3.13
353.35	-18.64
353.561	-23.68
353.773	-42.69
353.985	-21.75
354.197	-24.52
354.409	-29.55
354.621	-24.53
354.832	-18.87
355.044	-37.56
355.256	-27.21
355.468	-12.79
355.679	-17.73
355.891	-9
356.103	-28.23
356.314	-31.66
356.526	-30.48
356.738	-16.47
356.949	-31.02
357.161	-3.58
357.373	-4.22
357.584	-26.64
357.796	-23.38
358.008	-8.26
358.219	8.63
358.431	4.83
358.642	25.16
358.854	22.8
359.065	1.24
359.277	-31.22
359.488	-45.28
359.7	-70.31
359.911	-98.4
360.123	-63.2
360.334	-66.57
360.546	-84.3
360.757	-79.4
360.969	-44.38
361.18	-47.84
361.391	-12.95
361.603	-11.89
361.814	-9.76
362.025	-17.19
362.237	-17.93
362.448	-13.03
362.659	12.77
362.871	16.86
363.082	17.65
363.293	8.88
363.504	-16.41
363.716	-40.15
363.927	-53.96
364.138	-69.22
364.349	-57.23
364.56	-52.44
364.772	-42.13
364.983	-15.23
365.194	-6.81
365.405	-1.93
365.616	21.97
365.827	12.09
366.038	-16.31
366.25	-26.55
366.461	-60.28
366.672	-32.81
366.883	1.77
367.094	5.94
367.305	-0.5
367.516	10.05
367.727	-19.32
367.938	-46.05
368.149	-40.25
368.36	-22.01
368.571	-14.31
368.781	-30.75
368.992	-35.96
369.203	-49.75
369.414	-78.71
369.625	-92.56
369.836	-69.42
370.047	-85.13
370.258	-78.71
370.468	-73.87
370.679	-89.42
370.89	-81.79
371.101	-49.7
371.312	-38.94
371.522	-23.68
371.733	-9.07
371.944	0.92
372.155	-4.02
372.365	-20.73
372.576	-33.94
372.787	-32.29
372.997	-71.16
373.208	-72.52
373.419	-33.42
373.629	-55.81
373.84	-74.1
374.05	-75.16
374.261	-50.73
374.472	-72.86
374.682	-16.83
374.893	-12.78
375.103	16.38
375.314	9.52
375.524	8.39
375.735	3.88
375.945	21.66
376.156	5.82
376.366	6.28
376.577	8.32
376.787	-4.55
376.997	-2.92
377.208	-12.26
377.418	-32.99
377.629	-15.98
377.839	-10.15
378.049	-14.31
378.26	10.51
378.47	19.09
378.68	-1.34
378.89	-7.6
379.101	-15.67
379.311	-53.19
379.521	-72.12
379.732	-74.83
379.942	-59.4
380.152	-69.18
380.362	-43.06
380.572	-40.14
380.783	-19.26
380.993	-5.44
381.203	2.96
381.413	10.87
381.623	17.04
381.833	10.38
382.043	-14.85
382.253	-18.27
382.463	-19.23
382.674	-33.36
382.884	-56.12
383.094	-44.95
383.304	-37.82
383.514	-26.68
383.724	-9.36
383.934	-6.98
384.144	-10.46
384.353	-18.4
384.563	-16.94
384.773	-14.42
384.983	-21.57
385.193	-12.28
385.403	-5.08
385.613	-13.75
385.823	-26.89
386.033	-15.67
386.242	-23.61
386.452	-22.83
386.662	-27.07
386.872	-11.55
387.082	-13.67
387.291	-14.06
387.501	-18.78
387.711	-9.08
387.921	-15.94
388.13	-14.92
388.34	-5.38
388.55	-10.58
388.759	-13.49
388.969	-7.7
389.179	-8.82
389.388	-10.38
389.598	-3.98
389.807	-11.04
390.017	-17.08
390.227	-15.22
390.436	-18.54
390.646	-18.94
390.855	-9.92
391.065	-8.67
391.274	-8.8
391.484	-8.61
391.693	-4.84
391.903	-6.44
392.112	-1.88
392.322	-0.41
392.531	3.1
392.74	2.58
392.95	-1.57
393.159	-4.41
393.369	-4.09
393.578	-4.93
393.787	-6.72
393.997	-3.99
394.206	-4.99
394.415	-4.84
394.625	-5.2
394.834	-6.78
395.043	-6.25
395.252	-3.32
395.462	-1.22
395.671	-0.29
395.88	1.21
396.089	1.46
396.298	-1.28
396.508	-2.64
396.717	-2.63
396.926	-2.54
397.135	-2.59
397.344	-1.84
397.553	-1.01
397.762	0.66
397.971	0.95
398.181	1.24
398.39	0.93
398.599	1.04
398.808	0.02
399.017	0.92
399.226	2.04
399.435	3.39
399.644	2.99
399.853	2.32
400.062	1.73
400.27	0.75
400.479	-0.56
400.688	-0.92
400.897	-0.42
401.106	-0.39
401.315	-0.19
401.524	0.4
401.733	0.88
401.941	1.11
402.15	1.27
402.359	0.96
402.568	1.21
402.777	1.37
402.985	0.98
403.194	0.95
403.403	1.09
403.612	0.58
403.82	0.37
404.029	0.78
404.238	0.53
404.446	0.73
404.655	0.84
404.864	0.74
405.072	0.35
405.281	0.73
405.489	0.58
405.698	0.52
405.906	0.6
406.115	0.71
406.324	0.47
406.532	0.56
406.741	0.97
406.949	0.86
407.158	0.83
407.366	0.89
407.574	0.82
407.783	0.58
407.991	0.54
408.2	0.75
408.408	0.72
408.617	0.69
408.825	0.57
409.033	0.78
409.242	0.75
409.45	0.78
409.658	0.74
409.867	0.91
410.075	0.66
410.283	0.48
410.491	0.45
410.7	0.46
410.908	0.5
411.116	0.93
411.324	1.04
411.533	1.05
411.741	1.34
411.949	1.27
412.157	0.83
412.365	0.81
412.573	0.75
412.781	0.62
412.99	0.57
413.198	0.84
413.406	0.8
413.614	0.94
413.822	0.82
414.03	0.79
414.238	0.54
414.446	0.67
414.654	0.35
414.862	0.45
415.07	0.5
415.278	0.79
415.486	0.59
415.694	0.8
415.902	0.6
416.109	0.51
416.317	0.54
416.525	0.43
416.733	0.37
416.941	0.61
417.149	0.6
417.357	0.49
417.564	0.77
417.772	1.13
417.98	0.98
418.188	1.01
418.395	1.04
418.603	1.03
418.811	0.53
419.019	0.53
419.226	0.82
419.434	0.86
419.642	0.62
419.849	0.95
420.057	1.01
420.265	0.84
420.472	0.65
420.68	0.78
420.887	0.55
421.095	0.46
421.302	0.46
421.51	0.68
421.717	0.8
421.925	0.98
422.132	0.99
422.34	0.77
422.547	0.73
422.755	0.73
422.962	0.68
423.17	0.45
423.377	0.65
423.585	0.58
423.792	0.43
423.999	0.45
424.207	0.68
424.414	0.79
424.621	0.94
424.829	0.95
425.036	0.85
425.243	1.02
425.451	0.76
425.658	0.44
425.865	0.73
426.072	0.77
426.28	0.87
426.487	0.93
426.694	1.18
426.901	0.72
427.108	0.77
427.315	0.48
427.523	0.78
427.73	0.75
427.937	0.76
428.144	0.69
428.351	0.65
428.558	0.71
428.765	0.63
428.972	0.67
429.179	0.78
429.386	1.11
429.593	0.76
429.8	0.56
430.007	0.65
430.214	0.69
430.421	0.48
430.628	0.32
430.835	0.31
431.042	0.58
431.249	0.46
431.456	0.47
431.662	0.6
431.869	0.84
432.076	0.76
432.283	0.91
432.49	0.81
432.697	0.91
432.903	0.7
433.11	0.67
433.317	0.65
433.524	0.92
433.73	0.78
433.937	0.98
434.144	0.83
434.35	0.83
434.557	0.66
434.764	0.75
434.97	0.71
435.177	0.82
435.384	0.62
435.59	0.67
435.797	0.84
436.003	0.82
436.21	0.8
436.416	1.05
436.623	1.01
436.829	1.01
437.036	1.1
437.242	1.06
437.449	0.9
437.655	0.91
437.862	0.82
438.068	0.73
438.275	0.86
438.481	1.08
438.687	1.03
438.894	1
439.1	0.98
439.307	1.09
439.513	0.99
439.719	1.07
439.926	1.14
440.132	1.1
440.338	0.96
440.544	1.07
440.751	0.95
440.957	0.99
441.163	0.94
441.369	0.92
441.575	0.65
441.782	0.65
441.988	0.55
442.194	0.57
442.4	0.57
442.606	0.89
442.812	1.01
443.018	1.08
443.224	1.14
443.431	1.19
443.637	0.91
443.843	0.76
444.049	0.75
444.255	0.7
444.461	0.75
444.667	0.73
444.873	0.92
445.079	0.93
445.284	1.07
445.49	0.86
445.696	0.77
445.902	0.65
446.108	0.55
446.314	0.43
446.52	0.5
446.726	0.78
446.931	0.78
447.137	0.8
447.343	0.86
447.549	0.78
447.755	0.61
447.96	0.65
448.166	0.6
448.372	0.5
448.578	0.59
448.783	0.59
448.989	0.64
449.195	0.9
449.4	0.99
449.606	0.95
449.812	0.95
450.017	1.01
450.223	0.81
450.428	0.72
450.634	0.94
450.84	1.08
451.045	0.95
451.251	0.9
451.456	1.21
451.662	1.15
451.867	1.13
452.073	1.14
452.278	1.28
452.483	1.31
452.689	1.18
452.894	1.17
453.1	1.18
453.305	1.07
453.51	0.89
453.716	0.87
453.921	0.93
454.127	0.83
454.332	0.78
454.537	0.67
454.742	0.74
454.948	0.57
455.153	0.65
455.358	0.8
455.563	1
455.769	1.05
455.974	1.13
456.179	1.07
456.384	1.04
456.589	0.99
456.795	0.86
457	0.81
457.205	1.12
457.41	1.09
457.615	1.04
457.82	1.06
458.025	1.09
458.23	0.78
458.435	0.79
458.64	0.69
458.845	0.86
459.05	0.88
459.255	0.96
459.46	0.93
