Data from Ofra_PS_T2_1A_4HS13_Reflection_3.txt Node
Date: Wed Jul 21 18:06:33 EDT 2021
User: Adam
Spectrometer: FLMT01687
Trigger mode: 0
Integration Time (sec): 1.100000E0
Scans to average: 2
Electric dark correction enabled: true
Nonlinearity correction enabled: false
Boxcar width: 2
XAxis mode: Wavelengths
Number of Pixels in Spectrum: 3648
>>>>>Begin Spectral Data<<<<<
179.494	569.8
179.716	599.76
179.937	576.46
180.158	557.31
180.38	890.78
180.601	212.29
180.823	77.56
181.044	-107.94
181.265	90.62
181.486	-18.43
181.708	118.53
181.929	833.16
182.15	-477.82
182.372	98.23
182.593	-27.26
182.814	41.27
183.035	53.7
183.257	26.96
183.478	-70.27
183.699	-63.88
183.92	-90.17
184.141	-42.72
184.363	-93.79
184.584	-11.92
184.805	12.6
185.026	52.9
185.247	36.64
185.468	31.58
185.689	29.27
185.91	32.51
186.132	18.45
186.353	6.09
186.574	65.01
186.795	49.89
187.016	29.23
187.237	22.97
187.458	27.65
187.679	-17.43
187.9	-1.95
188.121	-1.69
188.342	18.61
188.563	61.53
188.784	103.38
189.005	96
189.226	137.45
189.447	127.44
189.667	100.36
189.888	-124.26
190.109	-635.39
190.33	-489.84
190.551	-1173.67
190.772	-244.85
190.993	-186.93
191.214	-150.05
191.434	-100.65
191.655	-9.6
191.876	-69.32
192.097	-155.81
192.318	-255.17
192.538	-370.45
192.759	-255.26
192.98	-144.73
193.201	-62.12
193.421	-37.49
193.642	-4.97
193.863	2.91
194.083	-14.06
194.304	-26.25
194.525	-19.75
194.745	-23.43
194.966	-53.23
195.187	-53.22
195.407	-63.15
195.628	-105.5
195.848	-130.79
196.069	-107.85
196.29	-51.91
196.51	-53.75
196.731	-47.22
196.951	-66.9
197.172	-56.14
197.392	-101.98
197.613	-147.01
197.833	-183.77
198.054	-133.69
198.274	-81.42
198.495	-77.89
198.715	-27.73
198.936	-23.18
199.156	-25.65
199.377	-114.19
199.597	-137.81
199.817	-144.33
200.038	-67.61
200.258	-125.6
200.479	-62.37
200.699	-13.83
200.919	43.65
201.14	2.4
201.36	-19.71
201.58	11.54
201.801	23.14
202.021	-23.56
202.241	-26.09
202.461	-17.37
202.682	-109.38
202.902	-149.63
203.122	-79.42
203.342	-60.75
203.563	-13.06
203.783	4.5
204.003	-63.84
204.223	-79.98
204.443	-11.14
204.663	-63.94
204.884	-32.19
205.104	22.53
205.324	72.29
205.544	58.58
205.764	72.54
205.984	61.63
206.204	62.76
206.424	34.22
206.644	-6.18
206.864	-5.57
207.084	-44.55
207.304	-48.12
207.525	-217.58
207.745	-99.67
207.964	-43.42
208.184	-74.25
208.404	-131.35
208.624	-115.58
208.844	-141.26
209.064	-491.53
209.284	-497.47
209.504	-249.39
209.724	-69.58
209.944	-36.5
210.164	-14.35
210.384	0.94
210.604	-1.53
210.823	-47.84
211.043	-74.51
211.263	-44.21
211.483	-51.85
211.703	-94.46
211.922	-91.04
212.142	-3.04
212.362	3.29
212.582	-17
212.801	-15.18
213.021	-25.25
213.241	-61.68
213.461	-89.15
213.68	-100.69
213.9	-79.06
214.12	-45.56
214.339	-103.01
214.559	-79.6
214.779	-13.36
214.998	0.43
215.218	-33.59
215.438	-2.78
215.657	-6.68
215.877	-47.83
216.096	-29.78
216.316	-26.82
216.535	-31.89
216.755	-29.36
216.974	-98.44
217.194	-126.69
217.413	-133.8
217.633	-115.64
217.852	-222.89
218.072	-94.76
218.291	-42.1
218.511	-6.03
218.73	-37.41
218.95	-17.67
219.169	-13.26
219.389	-51.38
219.608	-35.41
219.827	-14.88
220.047	6.1
220.266	4.45
220.485	-6.73
220.705	4.36
220.924	-23.63
221.143	-0.85
221.363	-14.21
221.582	-2.74
221.801	-5.45
222.021	23.59
222.24	-28.95
222.459	41.27
222.678	7.05
222.897	-37.06
223.117	-87.44
223.336	-88.33
223.555	-84.72
223.774	-17.84
223.993	-6.39
224.213	48.39
224.432	42.44
224.651	45.76
224.87	9.8
225.089	28.52
225.308	6.64
225.527	31.8
225.746	31.92
225.965	22.68
226.184	-2.23
226.404	15.56
226.623	-20.68
226.842	-15.56
227.061	17.73
227.28	12.91
227.499	-13.71
227.718	16.96
227.936	-5.02
228.155	2
228.374	-3.51
228.593	15.39
228.812	-9.18
229.031	8.34
229.25	-50.62
229.469	-28.89
229.688	-17.46
229.907	34.71
230.125	46.79
230.344	42.22
230.563	35.86
230.782	37.74
231.001	-56.21
231.22	-61.84
231.438	-5.8
231.657	-7.35
231.876	-27.67
232.095	23.31
232.313	25.14
232.532	-23.01
232.751	-37.53
232.969	-41.43
233.188	-94.7
233.407	-46.08
233.625	-33.98
233.844	-62.87
234.063	-42.2
234.281	-37.54
234.5	-36.33
234.719	-20.44
234.937	4.13
235.156	6.83
235.374	24.12
235.593	16.59
235.811	-0.74
236.03	-2.53
236.249	-52.99
236.467	-65.01
236.686	-32.3
236.904	-12.62
237.123	-35.71
237.341	-19.49
237.559	-8.69
237.778	-33.67
237.996	-58.38
238.215	-19.68
238.433	-1.15
238.652	-0.64
238.87	-9.96
239.088	8.14
239.307	0.36
239.525	4.37
239.743	-37.57
239.962	-27.44
240.18	-59.68
240.398	-95.48
240.617	-128.22
240.835	-106.54
241.053	-42.64
241.271	8.12
241.49	29.13
241.708	39.15
241.926	19.22
242.144	-25.65
242.363	-83.48
242.581	-127.76
242.799	-78.47
243.017	-41.73
243.235	-54.29
243.453	-37.68
243.672	-32.72
243.89	-28.38
244.108	-29.76
244.326	-0.98
244.544	0.71
244.762	11.99
244.98	12.38
245.198	4.13
245.416	-41.17
245.634	-35.46
245.852	-56.66
246.07	-72.12
246.288	-68.29
246.506	-82.3
246.724	-54.54
246.942	-51.56
247.16	-15.26
247.378	-12.47
247.596	5.61
247.814	-3.77
248.032	-7.85
248.25	-9.03
248.468	9.27
248.685	27.77
248.903	49.69
249.121	46.54
249.339	20.79
249.557	-0.22
249.775	8.93
249.992	-55.78
250.21	-51.52
250.428	-42.9
250.646	-63.72
250.863	-89.09
251.081	-51.59
251.299	-39.48
251.517	-3.12
251.734	10.52
251.952	1.26
252.17	3.49
252.387	20.05
252.605	-1.11
252.823	13.24
253.04	32.49
253.258	42.23
253.475	18.22
253.693	42.32
253.911	31.26
254.128	36.22
254.346	44.72
254.563	24.95
254.781	-1.69
254.998	-21.55
255.216	-33.03
255.433	-31.32
255.651	19.55
255.868	48.45
256.086	64.32
256.303	46.45
256.521	29.64
256.738	-2.2
256.956	-34
257.173	-59.75
257.39	-84.13
257.608	-135.54
257.825	-70.3
258.043	-42.5
258.26	-27.87
258.477	22.93
258.695	37.24
258.912	-18.7
259.129	1.96
259.346	-38.53
259.564	-89.61
259.781	-136.75
259.998	-57.9
260.216	-55.11
260.433	16.36
260.65	13.95
260.867	49.66
261.084	28.88
261.302	8.94
261.519	-43.45
261.736	-51.99
261.953	-84.77
262.17	-53.95
262.387	-96.64
262.604	-103.21
262.822	-104.04
263.039	-84.89
263.256	-132.56
263.473	-73.28
263.69	-43.76
263.907	4.46
264.124	21.85
264.341	29.18
264.558	16.59
264.775	30.77
264.992	16.86
265.209	-2.72
265.426	10.82
265.643	12.93
265.86	21.93
266.077	30.08
266.294	43.32
266.51	6.75
266.727	-10.9
266.944	-9.79
267.161	-21.11
267.378	-25.97
267.595	-6.43
267.812	-23.4
268.028	-45.72
268.245	-26.14
268.462	-27.35
268.679	-23.54
268.896	24.7
269.112	12.88
269.329	-10.22
269.546	-22.16
269.763	-34.45
269.979	-60.88
270.196	-54.39
270.413	-72.11
270.629	-86.15
270.846	-84.5
271.063	-87.37
271.279	-80.26
271.496	-69.73
271.712	-28.2
271.929	-1.49
272.146	10.36
272.362	6.8
272.579	35.67
272.795	39.29
273.012	25.76
273.228	23.53
273.445	-6.61
273.661	-33.78
273.878	-75.51
274.094	-68.46
274.311	-105.9
274.527	-18.33
274.744	-20.37
274.96	-13.54
275.177	-13.06
275.393	14.54
275.609	-2.44
275.826	13.64
276.042	14.38
276.259	-1.19
276.475	15.65
276.691	13.37
276.908	1.39
277.124	5.93
277.34	14.79
277.557	-9.36
277.773	-14.24
277.989	-14.36
278.205	-26.34
278.422	-9.42
278.638	-12.66
278.854	-1.73
279.07	-1.58
279.286	-0.02
279.503	-28.46
279.719	-22.76
279.935	-59.04
280.151	-87.62
280.367	-58.43
280.583	-73.65
280.799	-49.95
281.016	-56.8
281.232	-15.21
281.448	-11.79
281.664	28.7
281.88	-17.31
282.096	-14.55
282.312	-5.89
282.528	7.62
282.744	-20.66
282.96	2.69
283.176	4.51
283.392	-8.84
283.608	-20.66
283.824	-20.91
284.04	-16.12
284.256	-4.7
284.471	-9.31
284.687	-8.62
284.903	5.86
285.119	31.87
285.335	8.95
285.551	9.39
285.767	-7.86
285.982	-16.83
286.198	-62.6
286.414	-22.66
286.63	1.15
286.846	28.01
287.061	7.19
287.277	48.89
287.493	32.18
287.709	33.8
287.924	20.36
288.14	53.7
288.356	28.04
288.571	49.87
288.787	36.22
289.003	29.45
289.218	10.79
289.434	-19.09
289.65	-22.45
289.865	-18.16
290.081	6.16
290.296	19.31
290.512	18.86
290.727	8.18
290.943	-5.89
291.159	-25.82
291.374	-29.67
291.59	-41.07
291.805	-42.54
292.021	-22.26
292.236	-27.18
292.451	-23.35
292.667	-17.02
292.882	-3.04
293.098	-39.82
293.313	-50.17
293.529	-73.5
293.744	-79.89
293.959	-89.69
294.175	-60.21
294.39	-29.31
294.605	-12.83
294.821	13.95
295.036	16.37
295.251	18.47
295.467	-13.48
295.682	-27.12
295.897	-88.4
296.112	-93.92
296.328	-79.91
296.543	-78.42
296.758	-76.19
296.973	-12.92
297.188	11.82
297.404	-17.52
297.619	-31.21
297.834	-30.36
298.049	-53.92
298.264	-63.06
298.479	-8.44
298.694	1.23
298.909	15.75
299.125	16.83
299.34	26.37
299.555	-9.13
299.77	24.95
299.985	-8.93
300.2	-60.73
300.415	-84.39
300.63	-49.76
300.845	-77.27
301.06	-70.1
301.275	-21.93
301.49	-8.93
301.704	-18.18
301.919	-18.89
302.134	-28.96
302.349	-47.74
302.564	-103.41
302.779	-125.09
302.994	-68.22
303.209	-29.59
303.423	-0.37
303.638	40.48
303.853	9.82
304.068	-11.87
304.283	-20.36
304.497	-17.78
304.712	-34.44
304.927	-25.5
305.142	-33.73
305.356	-29.59
305.571	-34.01
305.786	-45.89
306	-56.45
306.215	-52.39
306.43	-82.05
306.644	-94.2
306.859	-48.85
307.074	-26.96
307.288	-50.5
307.503	-62.06
307.717	-44.83
307.932	-40.64
308.147	-45.22
308.361	-18.08
308.576	-14.05
308.79	-51.09
309.005	-56.56
309.219	-47.27
309.434	-63.46
309.648	-64.03
309.863	-35.09
310.077	-35.6
310.292	-29.4
310.506	-20.92
310.72	-4.71
310.935	-6.76
311.149	-2.92
311.364	16.35
311.578	23.59
311.792	11.75
312.007	15.37
312.221	-3.15
312.435	-26.48
312.649	-32.36
312.864	-11.14
313.078	-34.81
313.292	26.37
313.507	5.45
313.721	-6.55
313.935	-8.98
314.149	-0.02
314.363	-13.81
314.578	-3.15
314.792	1.52
315.006	-8.79
315.22	6.25
315.434	2.83
315.648	2.44
315.862	-0.45
316.077	-7.37
316.291	-29.22
316.505	-24.5
316.719	-14.98
316.933	-47.99
317.147	-31.03
317.361	-66.31
317.575	-86.26
317.789	-112.45
318.003	-139.14
318.217	-113.4
318.431	-19.68
318.645	8.52
318.859	6.33
319.073	19.69
319.287	3.52
319.5	-33.1
319.714	-67.63
319.928	-101.23
320.142	-113.1
320.356	-42.73
320.57	4.4
320.784	4.64
320.997	-8.2
321.211	-16.46
321.425	-83.61
321.639	-120.86
321.853	-65.83
322.066	-35.87
322.28	-31.83
322.494	-12.5
322.707	13.6
322.921	-7.52
323.135	-11.18
323.349	2.62
323.562	-14.22
323.776	-37.07
323.989	-14.21
324.203	-26.57
324.417	-37.57
324.63	-62.27
324.844	-61.26
325.057	-67.22
325.271	-45.2
325.485	-10.91
325.698	8.14
325.912	21.79
326.125	-9.57
326.339	-10.31
326.552	-45.48
326.766	-32.46
326.979	-14.34
327.193	36.18
327.406	30.11
327.619	26.93
327.833	39.77
328.046	6.94
328.26	-38.28
328.473	-18.68
328.686	-57.39
328.9	-70.06
329.113	-40.64
329.326	-49.69
329.54	-46.74
329.753	-45.8
329.966	-80.39
330.179	-73.46
330.393	-46.64
330.606	-33.25
330.819	-15.87
331.032	13.55
331.246	20.83
331.459	41.29
331.672	36.77
331.885	36.93
332.098	4.85
332.311	-16.19
332.525	-71.01
332.738	-68.53
332.951	-51.25
333.164	-14.23
333.377	5.23
333.59	35.62
333.803	49.04
334.016	50.39
334.229	58.75
334.442	46.81
334.655	57.5
334.868	27.93
335.081	19.96
335.294	-4.19
335.507	-13.31
335.72	-25.97
335.933	-29.04
336.146	-32.36
336.359	-30.44
336.572	-45.37
336.785	-63.66
336.997	-54.8
337.21	-26.93
337.423	-28.78
337.636	-32.37
337.849	-24.9
338.062	-21.16
338.274	-21.04
338.487	-17.47
338.7	0.18
338.913	-30.91
339.125	-47.68
339.338	-100.12
339.551	-87.39
339.763	-58.69
339.976	-40.13
340.189	-26.38
340.402	-17.48
340.614	-36.48
340.827	-39.97
341.039	-51.46
341.252	-48.55
341.465	-19.77
341.677	-14.68
341.89	-45.33
342.102	-7.14
342.315	-28.63
342.527	-72.72
342.74	-51.68
342.952	-34.65
343.165	-46.32
343.377	-11.96
343.59	-15.03
343.802	-0.29
344.015	4.14
344.227	19.73
344.44	9.57
344.652	15.81
344.864	-6.29
345.077	26.24
345.289	24.44
345.502	29.51
345.714	23.76
345.926	33.08
346.139	10.75
346.351	16.87
346.563	17.64
346.775	30.9
346.988	21.85
347.2	12
347.412	-38.85
347.624	-53.02
347.837	-84.32
348.049	-49.47
348.261	-10.27
348.473	11.54
348.685	8.27
348.897	14.48
349.11	-21.09
349.322	-68.04
349.534	-60.16
349.746	-57.17
349.958	-57.84
350.17	-50.06
350.382	-11.61
350.594	-31.05
350.806	-32.02
351.018	-28.58
351.23	-30.08
351.442	-68.28
351.654	-43.61
351.866	-34.65
352.078	-13.6
352.29	3.12
352.502	18.76
352.714	20.74
352.926	12.92
353.138	8.19
353.35	-9.87
353.561	-18.12
353.773	-33.01
353.985	-13.71
354.197	-18.93
354.409	-3.37
354.621	-8.23
354.832	0.85
355.044	-9
355.256	-9.81
355.468	-9.95
355.679	-4.06
355.891	-6.09
356.103	-18.13
356.314	-19.84
356.526	-9.44
356.738	-13.02
356.949	-12.79
357.161	15.09
357.373	17.23
357.584	-2.52
357.796	18.23
358.008	10.22
358.219	8.91
358.431	4.71
358.642	14.36
358.854	-7.9
359.065	-19.49
359.277	-45.53
359.488	-46.94
359.7	-74.87
359.911	-90.47
360.123	-56.03
360.334	-62.47
360.546	-79.63
360.757	-74.87
360.969	-49.66
361.18	-48.46
361.391	-29.9
361.603	-40.25
361.814	-21.86
362.025	-19.41
362.237	-34.28
362.448	-19
362.659	16.66
362.871	5.2
363.082	11.25
363.293	16.66
363.504	-0.01
363.716	-27.75
363.927	-26.27
364.138	-57.4
364.349	-64.58
364.56	-61.16
364.772	-51.42
364.983	-30.19
365.194	-23.32
365.405	-9.22
365.616	8.86
365.827	-0.15
366.038	-21.15
366.25	-32.06
366.461	-63.94
366.672	-47.82
366.883	-15.74
367.094	-5.71
367.305	-14.16
367.516	-8.23
367.727	-38.61
367.938	-58.03
368.149	-58.36
368.36	-21.04
368.571	-11.7
368.781	-19.37
368.992	-35.95
369.203	-55.51
369.414	-93.24
369.625	-103.12
369.836	-94.64
370.047	-105.88
370.258	-76.38
370.468	-64.03
370.679	-73.27
370.89	-59.17
371.101	-32.77
371.312	-40.91
371.522	-45.14
371.733	-37.7
371.944	-25.59
372.155	-12.02
372.365	-20.98
372.576	-16.18
372.787	-15.81
372.997	-41.3
373.208	-54.53
373.419	-18.33
373.629	-50.64
373.84	-48.6
374.05	-46.48
374.261	-39.23
374.472	-69.55
374.682	-1.89
374.893	-2.04
375.103	30.24
375.314	30.4
375.524	29.79
375.735	11.06
375.945	24.26
376.156	-3.34
376.366	-6.54
376.577	-8.23
376.787	-11.16
376.997	-13.48
377.208	-13.41
377.418	-17.5
377.629	2.95
377.839	3.83
378.049	-5.66
378.26	8.24
378.47	14.7
378.68	-6.35
378.89	-19.98
379.101	-21.4
379.311	-50.39
379.521	-86.59
379.732	-72.76
379.942	-57.28
380.152	-73.36
380.362	-43.67
380.572	-37.69
380.783	-20.45
380.993	-12.74
381.203	-2.3
381.413	11.01
381.623	15.38
381.833	10.39
382.043	4.06
382.253	-2.3
382.463	-10.63
382.674	-20.7
382.884	-45.67
383.094	-44.64
383.304	-33.59
383.514	-24.95
383.724	-7.98
383.934	-4.93
384.144	-15.27
384.353	-22.31
384.563	-28.01
384.773	-22.53
384.983	-27.21
385.193	-2.13
385.403	-0.47
385.613	-6.15
385.823	-21.93
386.033	-9.65
386.242	-20.36
386.452	-24.18
386.662	-30.92
386.872	-9.56
387.082	-17.81
387.291	-28.32
387.501	-26.1
387.711	-9.44
387.921	-25.45
388.13	-20.07
388.34	-2.72
388.55	-7.61
388.759	-13.9
388.969	-7.7
389.179	-8.66
389.388	-12.9
389.598	-1.82
389.807	-5.26
390.017	-6.59
390.227	-8.25
390.436	-7.18
390.646	-9.77
390.855	-5.35
391.065	-6.52
391.274	-5.19
391.484	-7.78
391.693	-6.48
391.903	-4.6
392.112	1.15
392.322	1.66
392.531	4.65
392.74	4.11
392.95	-1.92
393.159	-3.54
393.369	-2.35
393.578	-4.3
393.787	-5.95
393.997	-2.1
394.206	-4.17
394.415	-4.59
394.625	-4.06
394.834	-4.29
395.043	-4.34
395.252	-1.77
395.462	-0.24
395.671	0.13
395.88	1.94
396.089	2.38
396.298	-0.65
396.508	-1.46
396.717	-1.92
396.926	-2.35
397.135	-2.15
397.344	-1.47
397.553	0.27
397.762	2.48
397.971	2.5
398.181	2.78
398.39	2.98
398.599	1.7
398.808	1.05
399.017	1.9
399.226	2.81
399.435	3.62
399.644	4.1
399.853	3.18
400.062	2.53
400.27	1.87
400.479	1.51
400.688	0.56
400.897	1.13
401.106	1.3
401.315	1.03
401.524	1.14
401.733	1.82
401.941	2.12
402.15	2.21
402.359	1.87
402.568	2.21
402.777	2.3
402.985	1.99
403.194	1.71
403.403	2.04
403.612	1.51
403.82	1.46
404.029	1.65
404.238	1.6
404.446	1.77
404.655	1.61
404.864	1.58
405.072	1.31
405.281	1.57
405.489	1.45
405.698	1.44
405.906	1.41
406.115	1.42
406.324	1.39
406.532	1.47
406.741	1.85
406.949	1.78
407.158	1.79
407.366	1.76
407.574	1.69
407.783	1.62
407.991	1.45
408.2	1.68
408.408	1.53
408.617	1.47
408.825	1.41
409.033	1.53
409.242	1.45
409.45	1.57
409.658	1.41
409.867	1.54
410.075	1.47
410.283	1.38
410.491	1.42
410.7	1.52
410.908	1.39
411.116	1.79
411.324	1.75
411.533	1.65
411.741	1.88
411.949	1.89
412.157	1.59
412.365	1.58
412.573	1.64
412.781	1.68
412.99	1.64
413.198	1.82
413.406	1.81
413.614	1.78
413.822	1.59
414.03	1.49
414.238	1.22
414.446	1.4
414.654	1.23
414.862	1.33
415.07	1.49
415.278	1.76
415.486	1.6
415.694	1.83
415.902	1.63
416.109	1.5
416.317	1.43
416.525	1.24
416.733	1.17
416.941	1.43
417.149	1.43
417.357	1.36
417.564	1.58
417.772	1.82
417.98	1.68
418.188	1.62
418.395	1.74
418.603	1.88
418.811	1.47
419.019	1.41
419.226	1.7
419.434	1.76
419.642	1.52
419.849	1.81
420.057	1.89
420.265	1.83
420.472	1.52
420.68	1.5
420.887	1.26
421.095	1.28
421.302	1.13
421.51	1.39
421.717	1.51
421.925	1.61
422.132	1.48
422.34	1.27
422.547	1.32
422.755	1.23
422.962	1.2
423.17	1.19
423.377	1.4
423.585	1.27
423.792	1.23
423.999	1.23
424.207	1.29
424.414	1.44
424.621	1.35
424.829	1.46
425.036	1.43
425.243	1.44
425.451	1.23
425.658	1.22
425.865	1.27
426.072	1.22
426.28	1.43
426.487	1.43
426.694	1.56
426.901	1.4
427.108	1.42
427.315	1.28
427.523	1.47
427.73	1.26
427.937	1.27
428.144	1.16
428.351	1.02
428.558	1.2
428.765	1.1
428.972	1.12
429.179	1.22
429.386	1.56
429.593	1.2
429.8	1.32
430.007	1.4
430.214	1.51
430.421	1.3
430.628	1.23
430.835	1.15
431.042	1.33
431.249	1.32
431.456	1.26
431.662	1.43
431.869	1.57
432.076	1.38
432.283	1.42
432.49	1.37
432.697	1.34
432.903	1.11
433.11	1.09
433.317	1.13
433.524	1.38
433.73	1.33
433.937	1.64
434.144	1.52
434.35	1.44
434.557	1.27
434.764	1.27
434.97	1.12
435.177	1.34
435.384	1.28
435.59	1.29
435.797	1.45
436.003	1.57
436.21	1.52
436.416	1.66
436.623	1.69
436.829	1.77
437.036	1.77
437.242	1.8
437.449	1.66
437.655	1.68
437.862	1.56
438.068	1.42
438.275	1.43
438.481	1.65
438.687	1.49
438.894	1.42
439.1	1.47
439.307	1.62
439.513	1.44
439.719	1.48
439.926	1.58
440.132	1.54
440.338	1.34
440.544	1.47
440.751	1.49
440.957	1.53
441.163	1.54
441.369	1.69
441.575	1.44
441.782	1.44
441.988	1.31
442.194	1.27
442.4	1.19
442.606	1.51
442.812	1.59
443.018	1.67
443.224	1.77
443.431	1.91
443.637	1.65
443.843	1.53
444.049	1.57
444.255	1.47
444.461	1.44
444.667	1.45
444.873	1.61
445.079	1.53
445.284	1.63
445.49	1.36
445.696	1.23
445.902	1.05
446.108	0.99
446.314	0.9
446.52	1.07
446.726	1.36
446.931	1.38
447.137	1.43
447.343	1.52
447.549	1.37
447.755	1.25
447.96	1.3
448.166	1.34
448.372	1.19
448.578	1.3
448.783	1.33
448.989	1.39
449.195	1.49
449.4	1.6
449.606	1.59
449.812	1.52
450.017	1.53
450.223	1.42
450.428	1.37
450.634	1.41
450.84	1.52
451.045	1.44
451.251	1.38
451.456	1.62
451.662	1.71
451.867	1.81
452.073	1.78
452.278	1.86
452.483	1.84
452.689	1.69
452.894	1.62
453.1	1.66
453.305	1.66
453.51	1.59
453.716	1.52
453.921	1.49
454.127	1.39
454.332	1.25
454.537	1.15
454.742	1.21
454.948	1.2
455.153	1.29
455.358	1.45
455.563	1.67
455.769	1.79
455.974	1.83
456.179	1.72
456.384	1.71
456.589	1.53
456.795	1.31
457	1.2
457.205	1.44
457.41	1.38
457.615	1.36
457.82	1.44
458.025	1.48
458.23	1.26
458.435	1.32
458.64	1.27
458.845	1.39
459.05	1.38
