Data from Ofra_1a_PS_2CX12_Reflection_1.txt Node
Date: Tue Jul 20 10:47:04 EDT 2021
User: Adam
Spectrometer: FLMT01687
Trigger mode: 0
Integration Time (sec): 1.004000E0
Scans to average: 2
Electric dark correction enabled: true
Nonlinearity correction enabled: false
Boxcar width: 2
XAxis mode: Wavelengths
Number of Pixels in Spectrum: 3648
>>>>>Begin Spectral Data<<<<<
179.494	-223.86
179.716	-400.76
179.937	1086.62
180.158	-1542.04
180.38	280.72
180.601	125.27
180.823	44.93
181.044	-114.9
181.265	-344.39
181.486	333.3
181.708	112.28
181.929	81.82
182.15	-80.82
182.372	767
182.593	540.67
182.814	-337.69
183.035	-62.96
183.257	-41.4
183.478	-52.31
183.699	-73.73
183.92	-121.46
184.141	-117.9
184.363	-80.8
184.584	-105.84
184.805	-60.3
185.026	1.3
185.247	-16.79
185.468	-68.84
185.689	-26.22
185.91	-69.75
186.132	-51.19
186.353	-28.08
186.574	-4.3
186.795	-23.05
187.016	18.25
187.237	-2.19
187.458	-7.77
187.679	-34.41
187.9	-8.39
188.121	-35.62
188.342	-13.03
188.563	9.44
188.784	46.63
189.005	11.77
189.226	14.91
189.447	-1.42
189.667	-26.75
189.888	-49.33
190.109	-60.96
190.33	-40.87
190.551	-56.15
190.772	-46.56
190.993	-51.3
191.214	-40.82
191.434	-78.41
191.655	-62.86
191.876	-30.22
192.097	-4.63
192.318	11.92
192.538	-22.49
192.759	-20.64
192.98	-11.26
193.201	-19.3
193.421	-25.18
193.642	-6.99
193.863	2.83
194.083	-17
194.304	-0.2
194.525	-17.15
194.745	-25.92
194.966	-21.73
195.187	-15.16
195.407	-38.64
195.628	-0.67
195.848	3.45
196.069	-22.43
196.29	-27.77
196.51	-47.99
196.731	-81.54
196.951	-83.66
197.172	-44.51
197.392	-49.67
197.613	-3.4
197.833	-11.66
198.054	-14.33
198.274	-20.86
198.495	-14.1
198.715	-41.24
198.936	-2.53
199.156	6.17
199.377	-0.4
199.597	2.04
199.817	-0.85
200.038	-50.49
200.258	-29.7
200.479	-27.63
200.699	-31.23
200.919	-38.22
201.14	-24.46
201.36	-45.26
201.58	-72.09
201.801	-78.9
202.021	-76.18
202.241	-90.31
202.461	-72.74
202.682	-48.63
202.902	-28.03
203.122	-5.93
203.342	6.05
203.563	3.9
203.783	-9.14
204.003	-31.64
204.223	-26.81
204.443	-33.67
204.663	-59.9
204.884	-25.16
205.104	-13.97
205.324	-15
205.544	-26.72
205.764	22.25
205.984	-12.79
206.204	-27.84
206.424	-62.94
206.644	-63.12
206.864	-133.32
207.084	-62.3
207.304	-77.4
207.525	-44.08
207.745	-23.21
207.964	-9.13
208.184	11.53
208.404	13.93
208.624	23.76
208.844	11.05
209.064	9.12
209.284	-11.5
209.504	-29.51
209.724	-45.61
209.944	-52.81
210.164	-55.68
210.384	-76.25
210.604	-128.38
210.823	-143.66
211.043	-93.97
211.263	-188.24
211.483	-121.74
211.703	-71.79
211.922	-110.55
212.142	-103.09
212.362	-56.05
212.582	-39.98
212.801	-43.2
213.021	-15.29
213.241	-48.23
213.461	-47.13
213.68	-33.66
213.9	-33.46
214.12	-40.97
214.339	-27.85
214.559	-23.45
214.779	-45.23
214.998	-19.18
215.218	-2.08
215.438	-2.73
215.657	-18.48
215.877	-14.35
216.096	-15.59
216.316	-17.95
216.535	-35.31
216.755	-24.73
216.974	-38.47
217.194	-59.55
217.413	-52
217.633	-52.76
217.852	-50.41
218.072	-33.55
218.291	-25.45
218.511	-38.22
218.73	-34.98
218.95	-57.91
219.169	-76.32
219.389	-71.67
219.608	-71.65
219.827	-45.55
220.047	-24.29
220.266	-42.74
220.485	-71.68
220.705	-58.47
220.924	-78.19
221.143	-24.71
221.363	1.59
221.582	13.75
221.801	14.83
222.021	5.33
222.24	-12.61
222.459	-17.44
222.678	8.51
222.897	1.22
223.117	28.22
223.336	38.97
223.555	42.77
223.774	23.31
223.993	38.24
224.213	39.83
224.432	13.26
224.651	14.69
224.87	9.82
225.089	-4.72
225.308	-12.05
225.527	-13.88
225.746	-27.68
225.965	-22.44
226.184	-28.42
226.404	-29.8
226.623	-20.86
226.842	-17.95
227.061	-15.8
227.28	-5.92
227.499	-7.4
227.718	-5.5
227.936	2.43
228.155	-1.82
228.374	3.99
228.593	13.27
228.812	5.76
229.031	5.5
229.25	-2.71
229.469	-6.94
229.688	-18.42
229.907	-11.77
230.125	-23.83
230.344	-12.48
230.563	-15.98
230.782	-11.15
231.001	-10.01
231.22	2.24
231.438	8.13
231.657	15.35
231.876	6.41
232.095	16.62
232.313	6.12
232.532	4.27
232.751	-8.8
232.969	-10.48
233.188	-25.14
233.407	-27.93
233.625	-43.73
233.844	-38.44
234.063	-39.78
234.281	-37.42
234.5	-27.65
234.719	-27.71
234.937	-43.42
235.156	-38.55
235.374	-29.11
235.593	-16.11
235.811	0.66
236.03	8.38
236.249	12.77
236.467	6.48
236.686	-11.2
236.904	-3.06
237.123	-3.81
237.341	-17.54
237.559	-22.55
237.778	6.53
237.996	-40.73
238.215	-114.02
238.433	-160.67
238.652	-72.24
238.87	-104.19
239.088	-85.19
239.307	-39.54
239.525	-14.99
239.743	-30.88
239.962	-54.62
240.18	-20.89
240.398	-8.76
240.617	-22.89
240.835	-6.25
241.053	11.57
241.271	0.05
241.49	3.52
241.708	-3.15
241.926	-6.11
242.144	1.51
242.363	-15.54
242.581	-99.38
242.799	-97.71
243.017	-60.03
243.235	-43.09
243.453	-61.37
243.672	-24.88
243.89	-16.52
244.108	-17.11
244.326	-5.53
244.544	5.8
244.762	6.11
244.98	5.37
245.198	3.08
245.416	-2.47
245.634	-0.12
245.852	-24.91
246.07	-10.24
246.288	-10.65
246.506	-26.76
246.724	-30.32
246.942	-22.16
247.16	-10.72
247.378	-38.33
247.596	-14.41
247.814	-34.78
248.032	-14.78
248.25	-16.81
248.468	-4.38
248.685	-11.6
248.903	-10.07
249.121	-3.25
249.339	-13.04
249.557	1.37
249.775	7.16
249.992	7.22
250.21	-14.94
250.428	-2.94
250.646	-8.05
250.863	-6.09
251.081	-8.61
251.299	9.46
251.517	0.05
251.734	-1.88
251.952	-14.94
252.17	-17.5
252.387	-36.72
252.605	-27.81
252.823	-43.68
253.04	-3.87
253.258	-0.44
253.475	18.96
253.693	8.23
253.911	-2.08
254.128	-21.02
254.346	-9.92
254.563	-3.7
254.781	1.34
254.998	16.58
255.216	8.14
255.433	-36.48
255.651	-33.01
255.868	-51.88
256.086	-49.74
256.303	-33.34
256.521	-5.17
256.738	-20.68
256.956	-5.18
257.173	-9.09
257.39	-9.69
257.608	-17.61
257.825	-21.89
258.043	-18.38
258.26	-21.5
258.477	-17.37
258.695	-19.99
258.912	-29.94
259.129	-46.08
259.346	-59.26
259.564	-84.81
259.781	-83.53
259.998	-40.16
260.216	-33.28
260.433	-25.37
260.65	-27.77
260.867	-32.88
261.084	-36.74
261.302	-37.06
261.519	-25.5
261.736	-11.24
261.953	-16.9
262.17	-17.65
262.387	-11.56
262.604	-19.55
262.822	-17.58
263.039	-1.86
263.256	-2.62
263.473	-13.26
263.69	-3.47
263.907	-15.13
264.124	-20.93
264.341	-18.08
264.558	-13.68
264.775	-25.04
264.992	-9.97
265.209	-29.58
265.426	-37.39
265.643	-19.54
265.86	-25.26
266.077	-18.31
266.294	-2.84
266.51	-1.4
266.727	-16.29
266.944	-2.45
267.161	1.98
267.378	2.72
267.595	-10.15
267.812	-13.81
268.028	-38.9
268.245	-45.68
268.462	-39.43
268.679	-35.59
268.896	-23.94
269.112	-24.09
269.329	-53.18
269.546	-36.85
269.763	-13.07
269.979	-24.37
270.196	-3.97
270.413	16.39
270.629	-6.48
270.846	-20.32
271.063	-0.89
271.279	1.73
271.496	-11.81
271.712	-7.12
271.929	-6.8
272.146	-12.47
272.362	-27.87
272.579	-35.39
272.795	-53.71
273.012	-58.4
273.228	-60.59
273.445	-53.78
273.661	-53.14
273.878	-47.85
274.094	-42.48
274.311	-42.46
274.527	-74.98
274.744	-45.33
274.96	-24.71
275.177	-11.94
275.393	1.44
275.609	19
275.826	3.2
276.042	-9.25
276.259	-16.61
276.475	-30.89
276.691	-50.98
276.908	-44.36
277.124	-27.68
277.34	-35.24
277.557	-51.16
277.773	-48.7
277.989	-48.95
278.205	-47.86
278.422	-47.37
278.638	-43.01
278.854	-48.85
279.07	-28.46
279.286	-41.41
279.503	-24.56
279.719	-4.4
279.935	-4.71
280.151	-16.7
280.367	-3.64
280.583	-12.32
280.799	-27.08
281.016	-58.17
281.232	-48.92
281.448	-42.27
281.664	-33.45
281.88	-21.4
282.096	7.89
282.312	8.34
282.528	3.41
282.744	3.9
282.96	-16.94
283.176	-35.66
283.392	-83.85
283.608	-54.26
283.824	-72.96
284.04	-88.04
284.256	-32.88
284.471	-8.74
284.687	-16.68
284.903	-16.77
285.119	6.49
285.335	7.28
285.551	-2.04
285.767	-12.8
285.982	-2.74
286.198	-20.49
286.414	-48.1
286.63	-51.25
286.846	-41.6
287.061	-41.99
287.277	-31.34
287.493	-30.55
287.709	-14
287.924	-17.37
288.14	3.05
288.356	13.33
288.571	12.06
288.787	-7.89
289.003	5.22
289.218	-24.29
289.434	-48.2
289.65	-21.4
289.865	4.39
290.081	6.21
290.296	16.92
290.512	13.27
290.727	-2.36
290.943	-5.91
291.159	-3.37
291.374	-28.9
291.59	-13.62
291.805	-22
292.021	-22.6
292.236	-41.06
292.451	-28.41
292.667	-41.15
292.882	-18.86
293.098	-31.83
293.313	-11.07
293.529	-10.48
293.744	-14.39
293.959	-32.25
294.175	-25.86
294.39	-59.59
294.605	-25.42
294.821	-20.31
295.036	-13.23
295.251	-9.04
295.467	-2.39
295.682	-3.14
295.897	-8.89
296.112	0.04
296.328	7.9
296.543	13.15
296.758	-6.21
296.973	8.01
297.188	5.68
297.404	-12.75
297.619	-51.67
297.834	-42.48
298.049	-77.64
298.264	-58.92
298.479	-59.54
298.694	-3.4
298.909	-10.05
299.125	-6.26
299.34	-21.78
299.555	-19.42
299.77	-9.93
299.985	1.53
300.2	6.85
300.415	11.84
300.63	6.39
300.845	-14.25
301.06	-34.51
301.275	-30.29
301.49	-29.46
301.704	-22.17
301.919	-31.18
302.134	-14.39
302.349	-18.7
302.564	-26
302.779	-45.99
302.994	-22.66
303.209	-6.66
303.423	-0.13
303.638	10.54
303.853	16.51
304.068	-7.67
304.283	-11.98
304.497	-40.08
304.712	-17.91
304.927	-12.32
305.142	1.77
305.356	-0.66
305.571	14.38
305.786	11.85
306	15.83
306.215	4.15
306.43	-2.5
306.644	-9.16
306.859	-26.19
307.074	0.9
307.288	8.12
307.503	19.26
307.717	12.84
307.932	15.77
308.147	-1.18
308.361	0.74
308.576	-24.76
308.79	-22.32
309.005	-41.31
309.219	-10.7
309.434	-18.58
309.648	-13.33
309.863	-11.25
310.077	3.88
310.292	-13.88
310.506	-12.27
310.72	-6.85
310.935	8.28
311.149	-4.92
311.364	-4.7
311.578	-0.3
311.792	0.23
312.007	-18.05
312.221	-30.95
312.435	-15.56
312.649	-6.96
312.864	-2.53
313.078	2.05
313.292	11.49
313.507	9.59
313.721	-7.82
313.935	-21.66
314.149	-16.54
314.363	-5.78
314.578	-0.14
314.792	8.96
315.006	2.19
315.22	-5
315.434	-12.35
315.648	-29.27
315.862	-24.02
316.077	-19.66
316.291	-26.89
316.505	-55.3
316.719	-36.23
316.933	-22.3
317.147	-26.18
317.361	-10.51
317.575	6.4
317.789	-5.04
318.003	-14.94
318.217	1.22
318.431	-14.64
318.645	-18.74
318.859	-9.6
319.073	-6.41
319.287	-6.52
319.5	-4.13
319.714	-12.81
319.928	-16.07
320.142	-23.81
320.356	-19.26
320.57	-41.13
320.784	-23.62
320.997	-42.34
321.211	-17.75
321.425	-56.09
321.639	-31.17
321.853	-22.33
322.066	-15.08
322.28	-40.98
322.494	-19.63
322.707	-14.92
322.921	-32.62
323.135	-30.57
323.349	-24.82
323.562	-24.74
323.776	-26.41
323.989	-2.11
324.203	-13.24
324.417	-8.02
324.63	-12.38
324.844	-27.91
325.057	-63.37
325.271	-43.23
325.485	-37.79
325.698	-22.27
325.912	-0.27
326.125	3.98
326.339	-0.54
326.552	-4.61
326.766	-24.44
326.979	-36.78
327.193	-32.37
327.406	-40.97
327.619	-27.63
327.833	-25.57
328.046	-22.34
328.26	-25.7
328.473	-13.43
328.686	-22.25
328.9	-2.01
329.113	-7.35
329.326	-0.72
329.54	6.35
329.753	16.84
329.966	5.94
330.179	13.54
330.393	8.25
330.606	-3.49
330.819	-26.23
331.032	-32.68
331.246	-30.9
331.459	-28.84
331.672	-18.31
331.885	-3.22
332.098	9.02
332.311	8.93
332.525	12.17
332.738	-0.91
332.951	-30.36
333.164	-25.84
333.377	-26.38
333.59	-45.8
333.803	-42.49
334.016	-9.59
334.229	-18.34
334.442	-22.72
334.655	-18.48
334.868	-23.13
335.081	-22.79
335.294	-32.72
335.507	-26.78
335.72	-24.85
335.933	-19.47
336.146	-21.7
336.359	4.37
336.572	0.46
336.785	5.93
336.997	-14.13
337.21	-22.65
337.423	-64.43
337.636	-74.6
337.849	-70.44
338.062	-45.85
338.274	-32.47
338.487	-28.81
338.7	-20.7
338.913	-9.61
339.125	-17.54
339.338	-33.29
339.551	-36.35
339.763	-35.76
339.976	-36.95
340.189	-38.53
340.402	-18.41
340.614	0.57
340.827	11.4
341.039	2.03
341.252	6.96
341.465	-12.79
341.677	-23.39
341.89	-25.9
342.102	-21.52
342.315	-10.89
342.527	-1.38
342.74	-4.23
342.952	-3.05
343.165	0.78
343.377	1.48
343.59	-3.66
343.802	-13.35
344.015	-3.02
344.227	-3.15
344.44	-22.42
344.652	-20.82
344.864	-10.51
345.077	-17.49
345.289	-10.51
345.502	6.67
345.714	12.82
345.926	15.25
346.139	-0.9
346.351	-13.13
346.563	-9.65
346.775	-18.35
346.988	-1.25
347.2	-2.58
347.412	14.62
347.624	3.74
347.837	10.66
348.049	-14.65
348.261	-25.51
348.473	-44.18
348.685	-48.97
348.897	-68.78
349.11	-51.39
349.322	-30.89
349.534	-32.05
349.746	-24.45
349.958	-19.23
350.17	-14.85
350.382	-9.37
350.594	1.57
350.806	16.25
351.018	15.52
351.23	14.23
351.442	12.39
351.654	8.6
351.866	-14.83
352.078	-24.25
352.29	-32.7
352.502	-36.5
352.714	-51.94
352.926	-36.11
353.138	-25.9
353.35	-31.48
353.561	-24.38
353.773	-25.47
353.985	-21.18
354.197	-11.78
354.409	-0.63
354.621	-29.34
354.832	-28.94
355.044	-43.09
355.256	-50.22
355.468	-60.64
355.679	-12.88
355.891	-6.53
356.103	-9.8
356.314	-25.06
356.526	-41.94
356.738	-65.96
356.949	-67.66
357.161	-54.86
357.373	-30.15
357.584	-15.94
357.796	-8.7
358.008	-5.75
358.219	-3.35
358.431	-15.77
358.642	-4.13
358.854	9.89
359.065	0.03
359.277	-1.31
359.488	-2.52
359.7	-13.29
359.911	-31.16
360.123	-9.31
360.334	-25.44
360.546	-11.99
360.757	-2.12
360.969	0.03
361.18	-18.48
361.391	4.28
361.603	2.78
361.814	-2.67
362.025	0.64
362.237	8.48
362.448	2.82
362.659	-3.98
362.871	-23.6
363.082	-17.96
363.293	-34.07
363.504	-50.66
363.716	-55.38
363.927	-13.61
364.138	-43.29
364.349	-53.51
364.56	-62.54
364.772	-55.38
364.983	-64.28
365.194	-47.84
365.405	-38.66
365.616	-12.88
365.827	-23.18
366.038	-17.84
366.25	-11.39
366.461	-2.49
366.672	-4.42
366.883	0.79
367.094	-6.34
367.305	-13.49
367.516	-20.38
367.727	-28.21
367.938	-32.85
368.149	-40.98
368.36	-39.08
368.571	-58.09
368.781	-78.04
368.992	-57.73
369.203	-50.72
369.414	-55.6
369.625	-40.14
369.836	4.63
370.047	-0.95
370.258	4.17
370.468	2.8
370.679	1.85
370.89	-32.35
371.101	-11.43
371.312	-24.7
371.522	-9.37
371.733	-13.33
371.944	-20.66
372.155	-28.12
372.365	-11.39
372.576	-9
372.787	-6.23
372.997	-2.32
373.208	-4.83
373.419	-11.4
373.629	-26.1
373.84	-23.62
374.05	-22.95
374.261	-33.34
374.472	-16.55
374.682	-7.69
374.893	-20.62
375.103	-4.06
375.314	2.04
375.524	-1.92
375.735	2.14
375.945	10.11
376.156	-4.22
376.366	-6.67
376.577	-8.27
376.787	-15.18
376.997	-3.51
377.208	1.09
377.418	2.73
377.629	5.41
377.839	6.74
378.049	-0.16
378.26	-0.9
378.47	-5.65
378.68	-9.98
378.89	-9.47
379.101	-16.87
379.311	-17.88
379.521	-20.64
379.732	-14.34
379.942	-7.71
380.152	-2.92
380.362	-1.15
380.572	13.07
380.783	15.88
380.993	8.55
381.203	9.27
381.413	6.87
381.623	1.35
381.833	-2.96
382.043	1.15
382.253	4.18
382.463	14.92
382.674	19.57
382.884	15.25
383.094	8.39
383.304	6.49
383.514	-4.19
383.724	-15.55
383.934	-16.22
384.144	-11.17
384.353	-10.06
384.563	-8.9
384.773	0.99
384.983	-1.39
385.193	-5.8
385.403	-6.69
385.613	-4.17
385.823	-7.13
386.033	-7.16
386.242	-8.55
386.452	-15.26
386.662	-17.15
386.872	-14.27
387.082	-16.53
387.291	-15.04
387.501	-6.25
387.711	-6.21
387.921	-9.89
388.13	-3.77
388.34	-2.46
388.55	-8.3
388.759	-10.01
388.969	-7.15
389.179	-8.14
389.388	-10.42
389.598	-9.4
389.807	-10.93
390.017	-12.25
390.227	-12.62
390.436	-7.3
390.646	-6.83
390.855	-1.18
391.065	-0.38
391.274	-1.33
391.484	-2.06
391.693	-2.27
391.903	-3.9
392.112	-3.2
392.322	-3.19
392.531	-4.22
392.74	-6.03
392.95	-4.43
393.159	-3.82
393.369	-1.69
393.578	-0.92
393.787	0.74
393.997	1.19
394.206	0.39
394.415	1.14
394.625	1.94
394.834	2.55
395.043	0.74
395.252	3.45
395.462	3.45
395.671	2.82
395.88	4.19
396.089	5.58
396.298	4.3
396.508	4.31
396.717	4.61
396.926	4.01
397.135	3.84
397.344	3.61
397.553	3.47
397.762	4.68
397.971	3.89
398.181	4.14
398.39	3.88
398.599	3.91
398.808	3.54
399.017	4.65
399.226	4.76
399.435	5.03
399.644	4.85
399.853	4.72
400.062	4.22
400.27	3.82
400.479	4.11
400.688	4.39
400.897	4.22
401.106	4.37
401.315	4.38
401.524	4.33
401.733	3.97
401.941	4.39
402.15	4.01
402.359	4.24
402.568	4.36
402.777	4.47
402.985	3.99
403.194	4.23
403.403	4.15
403.612	3.93
403.82	3.7
404.029	3.91
404.238	3.87
404.446	3.87
404.655	3.89
404.864	4
405.072	3.88
405.281	3.85
405.489	3.89
405.698	3.99
405.906	4.07
406.115	3.97
406.324	4.14
406.532	4.24
406.741	4.07
406.949	4.13
407.158	4.34
407.366	4.19
407.574	4.1
407.783	4.16
407.991	4.02
408.2	4.08
408.408	4.17
408.617	4.05
408.825	4.02
409.033	4.06
409.242	3.89
409.45	3.82
409.658	3.86
409.867	3.9
410.075	3.99
410.283	4.02
410.491	3.92
410.7	3.84
410.908	3.97
411.116	3.91
411.324	3.92
411.533	3.93
411.741	4
411.949	3.91
412.157	3.88
412.365	3.95
412.573	3.89
412.781	3.93
412.99	3.82
413.198	3.83
413.406	3.9
413.614	4.12
413.822	4.18
414.03	4.28
414.238	4.32
414.446	4.25
414.654	4.12
414.862	4
415.07	3.85
415.278	3.83
415.486	3.67
415.694	3.77
415.902	3.68
416.109	3.72
416.317	3.69
416.525	3.6
416.733	3.44
416.941	3.5
417.149	3.52
417.357	3.61
417.564	3.76
417.772	3.9
417.98	3.99
418.188	3.85
418.395	3.56
418.603	3.39
418.811	3.23
419.019	3.18
419.226	3.28
419.434	3.56
419.642	3.56
419.849	3.6
420.057	3.56
420.265	3.59
420.472	3.52
420.68	3.71
420.887	3.74
421.095	3.73
421.302	3.73
421.51	3.66
421.717	3.74
421.925	3.67
422.132	3.77
422.34	3.64
422.547	3.5
422.755	3.37
422.962	3.39
423.17	3.17
423.377	3.21
423.585	3.4
423.792	3.3
423.999	3.35
424.207	3.27
424.414	3.36
424.621	3.38
424.829	3.57
425.036	3.52
425.243	3.66
425.451	3.54
425.658	3.53
425.865	3.37
426.072	3.28
426.28	3.37
426.487	3.46
426.694	3.21
426.901	3.2
427.108	3.17
427.315	3.02
427.523	2.88
427.73	3.12
427.937	2.98
428.144	3.06
428.351	3.05
428.558	3.14
428.765	2.91
428.972	3.09
429.179	3.01
429.386	3.07
429.593	3.05
429.8	3.14
430.007	3.12
430.214	3.24
430.421	3.27
430.628	3.31
430.835	3.33
431.042	3.3
431.249	3.28
431.456	3.27
431.662	3.32
431.869	3.44
432.076	3.4
432.283	3.53
432.49	3.58
432.697	3.59
432.903	3.55
433.11	3.71
433.317	3.64
433.524	3.58
433.73	3.45
433.937	3.47
434.144	3.35
434.35	3.24
434.557	3.41
434.764	3.56
434.97	3.42
435.177	3.52
435.384	3.67
435.59	3.61
435.797	3.51
436.003	3.54
436.21	3.47
436.416	3.43
436.623	3.33
436.829	3.38
437.036	3.45
437.242	3.48
437.449	3.49
437.655	3.57
437.862	3.61
438.068	3.54
438.275	3.58
438.481	3.65
438.687	3.53
438.894	3.63
439.1	3.68
439.307	3.67
439.513	3.67
439.719	3.81
439.926	3.71
440.132	3.84
440.338	3.79
440.544	3.68
440.751	3.59
440.957	3.66
441.163	3.5
441.369	3.55
441.575	3.55
441.782	3.61
441.988	3.63
442.194	3.63
442.4	3.58
442.606	3.74
442.812	3.75
443.018	3.66
443.224	3.8
443.431	3.83
443.637	3.77
443.843	3.76
444.049	3.88
444.255	3.86
444.461	3.87
444.667	3.82
444.873	3.77
445.079	3.67
445.284	3.64
445.49	3.63
445.696	3.62
445.902	3.61
446.108	3.6
446.314	3.6
446.52	3.73
446.726	3.76
446.931	3.73
447.137	3.75
447.343	3.78
447.549	3.74
447.755	3.68
447.96	3.83
448.166	3.79
448.372	3.75
448.578	3.69
448.783	3.67
448.989	3.7
449.195	3.68
449.4	3.77
449.606	3.81
449.812	3.91
450.017	3.74
450.223	3.8
450.428	3.71
450.634	3.73
450.84	3.62
451.045	3.72
451.251	3.77
451.456	3.81
451.662	3.83
451.867	3.94
452.073	3.99
452.278	3.96
452.483	3.98
452.689	3.93
452.894	3.9
453.1	3.79
453.305	3.82
453.51	3.8
453.716	3.78
453.921	3.79
454.127	3.76
454.332	3.68
454.537	3.66
454.742	3.66
454.948	3.71
455.153	3.81
455.358	3.86
455.563	3.95
455.769	3.97
455.974	3.93
456.179	3.89
456.384	3.84
456.589	3.77
456.795	3.73
457	3.74
457.205	3.74
457.41	3.69
457.615	3.63
457.82	3.74
458.025	3.64
458.23	3.64
458.435	3.65
458.64	3.69
458.845	3.63
459.05	3.73
459.255	3.65
459.46	3.6
459.665	3.57
459.87	3.5
460.075	3.47
460.28	3.54
460.485	3.63
460.69	3.61
