Data from Ofra_PS_T2_1A_2GT38_Reflection_1.txt Node
Date: Wed Jul 21 17:56:03 EDT 2021
User: Adam
Spectrometer: FLMT01687
Trigger mode: 0
Integration Time (sec): 1.100000E0
Scans to average: 2
Electric dark correction enabled: true
Nonlinearity correction enabled: false
Boxcar width: 2
XAxis mode: Wavelengths
Number of Pixels in Spectrum: 3648
>>>>>Begin Spectral Data<<<<<
179.494	747.8
179.716	788.71
179.937	774.14
180.158	747.69
180.38	1171.72
180.601	265.06
180.823	55.18
181.044	-153.67
181.265	-46.51
181.486	26.47
181.708	136.43
181.929	1309.69
182.15	-430.63
182.372	90.29
182.593	1.13
182.814	-8.73
183.035	69.96
183.257	31.82
183.478	-59.31
183.699	-4.63
183.92	-23.04
184.141	-42.27
184.363	-117.95
184.584	-67.1
184.805	-16.3
185.026	46.37
185.247	43.67
185.468	38.36
185.689	47.9
185.91	31.06
186.132	-11.28
186.353	-10.82
186.574	46
186.795	24.59
187.016	-35.4
187.237	-42.03
187.458	-89.93
187.679	-105.41
187.9	-48.27
188.121	-21.66
188.342	-9.7
188.563	15.83
188.784	36.57
189.005	-11.88
189.226	21.68
189.447	-13.38
189.667	-270.75
189.888	-548.15
190.109	-1589.29
190.33	-1015.97
190.551	-1499.78
190.772	-345.7
190.993	-295.64
191.214	-249.51
191.434	-137.16
191.655	-61.81
191.876	-115.05
192.097	-197.68
192.318	-265.52
192.538	-429.25
192.759	-272.99
192.98	-134.07
193.201	-49.6
193.421	-30.81
193.642	0.7
193.863	-7.29
194.083	-30.8
194.304	-48.95
194.525	-51.64
194.745	-72.13
194.966	-69.11
195.187	-88.55
195.407	-116.05
195.628	-194.94
195.848	-200.97
196.069	-180.65
196.29	-123.83
196.51	-139.13
196.731	-92.86
196.951	-149.42
197.172	-167.21
197.392	-201.67
197.613	-165.46
197.833	-211.58
198.054	-154.13
198.274	-98.38
198.495	-103.23
198.715	-71.66
198.936	-90.42
199.156	-72.04
199.377	-175.95
199.597	-151.33
199.817	-148.42
200.038	-70.41
200.258	-116.79
200.479	-69.94
200.699	-100.13
200.919	-31.67
201.14	-80.34
201.36	-103.88
201.58	-24.1
201.801	24.27
202.021	-26
202.241	-18.63
202.461	-10.97
202.682	-97.6
202.902	-201.43
203.122	-113.89
203.342	-82.94
203.563	-41.72
203.783	-0.6
204.003	-31.73
204.223	-28.44
204.443	38.94
204.663	5.24
204.884	-11.9
205.104	34.99
205.324	31.61
205.544	-21.52
205.764	11.11
205.984	19.86
206.204	28.15
206.424	34.91
206.644	9.39
206.864	13.23
207.084	-37.35
207.304	-53.05
207.525	-181.8
207.745	-61.87
207.964	-8.87
208.184	-50.18
208.404	-98.91
208.624	-113
208.844	-121.44
209.064	-488.65
209.284	-521.44
209.504	-287.57
209.724	-117.63
209.944	-65.26
210.164	-18.94
210.384	-13.62
210.604	-4.3
210.823	-62.17
211.043	-103.86
211.263	-87.71
211.483	-60.79
211.703	-127.27
211.922	-91.54
212.142	-28.14
212.362	-18.67
212.582	-31.4
212.801	-33.66
213.021	-36.12
213.241	-52.02
213.461	-104.05
213.68	-142.56
213.9	-105.54
214.12	-90.29
214.339	-146.94
214.559	-106.17
214.779	-48.68
214.998	-50.47
215.218	-101.26
215.438	-55.66
215.657	-58.76
215.877	-53.38
216.096	-18.72
216.316	-0.63
216.535	-23.42
216.755	-21.82
216.974	-113.17
217.194	-185.83
217.413	-170.46
217.633	-168.89
217.852	-311.47
218.072	-151.61
218.291	-84.14
218.511	-35
218.73	-57.14
218.95	-41.82
219.169	-39.24
219.389	-80.89
219.608	-66.9
219.827	-63.25
220.047	-55.48
220.266	-50.31
220.485	-42.02
220.705	-45.09
220.924	-53.6
221.143	7.4
221.363	-5.83
221.582	1.89
221.801	-4.37
222.021	38.88
222.24	-75.8
222.459	-32.49
222.678	-45.61
222.897	-80.66
223.117	-223.3
223.336	-121.48
223.555	-88.25
223.774	-33.82
223.993	-22.62
224.213	85.74
224.432	59.78
224.651	58.22
224.87	15.59
225.089	21.16
225.308	0.01
225.527	6.55
225.746	3.34
225.965	-4.52
226.184	-33.59
226.404	-17.59
226.623	-45.14
226.842	-43.08
227.061	-9.23
227.28	1.5
227.499	-15.77
227.718	4
227.936	-9.3
228.155	-2.6
228.374	-13.53
228.593	8.48
228.812	5.9
229.031	12.55
229.25	-47.42
229.469	-59.33
229.688	-66.41
229.907	-17.35
230.125	-9.44
230.344	13.35
230.563	26.58
230.782	40.7
231.001	-44.14
231.22	-53.17
231.438	-31.56
231.657	-27.45
231.876	-64.41
232.095	3.39
232.313	17.42
232.532	-28.29
232.751	-60.72
232.969	-55.98
233.188	-143.7
233.407	-50.9
233.625	-22.62
233.844	-44.87
234.063	-30.48
234.281	-18.09
234.5	-41.34
234.719	-31.38
234.937	-1.89
235.156	-6.14
235.374	-8.62
235.593	-39.15
235.811	-40.01
236.03	-67.96
236.249	-123.33
236.467	-101.23
236.686	-41.69
236.904	-28.01
237.123	-35.69
237.341	-27.38
237.559	-26.17
237.778	-46.52
237.996	-75.97
238.215	-23.66
238.433	5.54
238.652	10.25
238.87	-10.91
239.088	-7.42
239.307	-28.49
239.525	-77.64
239.743	-110.69
239.962	-101.1
240.18	-134.15
240.398	-193.79
240.617	-168.68
240.835	-145.31
241.053	-134.68
241.271	-44.9
241.49	-13.69
241.708	-48.47
241.926	-88.16
242.144	-72.64
242.363	-151.98
242.581	-194.68
242.799	-118.73
243.017	-72.58
243.235	-75.38
243.453	-61.81
243.672	-42.89
243.89	-48.03
244.108	-52.51
244.326	-31.94
244.544	-23.96
244.762	-33.46
244.98	-23.72
245.198	-24.9
245.416	-45.63
245.634	-48.14
245.852	-67.42
246.07	-89.05
246.288	-89.67
246.506	-117.28
246.724	-93.07
246.942	-46.45
247.16	-4.84
247.378	3.35
247.596	27.95
247.814	18.09
248.032	-22.37
248.25	-36.04
248.468	-29.56
248.685	-36.96
248.903	-0.48
249.121	12.62
249.339	-13.16
249.557	-23.5
249.775	-14.26
249.992	-96.6
250.21	-88.69
250.428	-56.82
250.646	-74.98
250.863	-100.26
251.081	-46.42
251.299	-52.24
251.517	-44.12
251.734	-32.27
251.952	-27.51
252.17	-25.5
252.387	-9.88
252.605	-27.09
252.823	-19.94
253.04	-9.87
253.258	1.01
253.475	-21.11
253.693	-0.59
253.911	-15.98
254.128	-16.72
254.346	-32.49
254.563	-36.15
254.781	-63.15
254.998	-72.65
255.216	-76.75
255.433	-74.45
255.651	-37.72
255.868	-8.58
256.086	23.31
256.303	12.67
256.521	14.75
256.738	-18.01
256.956	-60.02
257.173	-81.33
257.39	-99.41
257.608	-143.25
257.825	-60.48
258.043	-17.26
258.26	4.97
258.477	46.47
258.695	50.34
258.912	-4.13
259.129	-3.21
259.346	-53.79
259.564	-108.85
259.781	-132.09
259.998	-55.21
260.216	-47.04
260.433	2.41
260.65	8.63
260.867	28.28
261.084	-16.55
261.302	-26.18
261.519	-40.75
261.736	-56.29
261.953	-79.86
262.17	-35.07
262.387	-65.64
262.604	-109.38
262.822	-119.7
263.039	-94.91
263.256	-150.13
263.473	-111.25
263.69	-53.63
263.907	0.48
264.124	4.1
264.341	20.31
264.558	20.42
264.775	30.64
264.992	24.22
265.209	30.1
265.426	44.1
265.643	32.94
265.86	27.54
266.077	11.98
266.294	-16.98
266.51	-71.66
266.727	-53.4
266.944	-44.3
267.161	-34.92
267.378	-37.28
267.595	1.02
267.812	-34.95
268.028	-52.63
268.245	-38
268.462	-43.13
268.679	-55.58
268.896	9.52
269.112	9.04
269.329	-12.51
269.546	0.32
269.763	-2.32
269.979	-13.55
270.196	-19.42
270.413	-28.15
270.629	-62.05
270.846	-90.82
271.063	-102.31
271.279	-122.37
271.496	-113.52
271.712	-66.35
271.929	-42.17
272.146	-58.54
272.362	-54.25
272.579	-23.19
272.795	-15.12
273.012	-8.65
273.228	-5.87
273.445	-27.3
273.661	-55.84
273.878	-105.05
274.094	-102.87
274.311	-131.83
274.527	-34.5
274.744	-28.33
274.96	-16.3
275.177	2
275.393	22.38
275.609	6.54
275.826	33.05
276.042	8.75
276.259	-22.35
276.475	-2.22
276.691	-7.47
276.908	-29.22
277.124	0.62
277.34	9.61
277.557	-7.04
277.773	-19.11
277.989	-25.8
278.205	-24.18
278.422	-13.73
278.638	-9.88
278.854	16.98
279.07	3.72
279.286	-15.66
279.503	-34.71
279.719	-52.52
279.935	-81.42
280.151	-105.44
280.367	-65.93
280.583	-91.48
280.799	-69.6
281.016	-97.48
281.232	-39.25
281.448	-46.34
281.664	-13.91
281.88	-36.99
282.096	-8.99
282.312	6.8
282.528	13.09
282.744	16.01
282.96	19.16
283.176	8.23
283.392	5.84
283.608	4.67
283.824	-4.28
284.04	3.41
284.256	11.63
284.471	-3.3
284.687	-7.16
284.903	16.12
285.119	19.74
285.335	-14.93
285.551	-18.8
285.767	-45.79
285.982	-69.67
286.198	-106.39
286.414	-24.65
286.63	-14.3
286.846	18.31
287.061	0.16
287.277	29.99
287.493	-2.3
287.709	13.29
287.924	-3.66
288.14	30.96
288.356	27.54
288.571	44.38
288.787	21.72
289.003	25.77
289.218	-2.21
289.434	-39.85
289.65	-47.75
289.865	-61.94
290.081	-73.03
290.296	-56.89
290.512	-40.98
290.727	-58.31
290.943	-59.61
291.159	-57.7
291.374	-50.56
291.59	-65.04
291.805	-47.08
292.021	-27.6
292.236	-21.65
292.451	-7.92
292.667	5.26
292.882	18.97
293.098	2.64
293.313	-25.06
293.529	-50.14
293.744	-79.62
293.959	-79.09
294.175	-61.94
294.39	-16.49
294.605	-4.14
294.821	21.88
295.036	13.04
295.251	17.91
295.467	-20.71
295.682	-48.25
295.897	-112.87
296.112	-109.09
296.328	-99.43
296.543	-112.69
296.758	-85.53
296.973	-22.46
297.188	11.14
297.404	-15.99
297.619	-20.19
297.834	-38.46
298.049	-71.22
298.264	-110.42
298.479	-36.55
298.694	-16.18
298.909	6.78
299.125	16.23
299.34	29.98
299.555	-13.83
299.77	2.73
299.985	-47.61
300.2	-104
300.415	-116.73
300.63	-59.38
300.845	-78.55
301.06	-62.67
301.275	-27.11
301.49	-4.02
301.704	-27.72
301.919	-43.75
302.134	-63.69
302.349	-67.4
302.564	-144.54
302.779	-191.05
302.994	-157.48
303.209	-90.86
303.423	-68.33
303.638	9.45
303.853	-15.6
304.068	-24.63
304.283	-15.37
304.497	-12.22
304.712	-29.66
304.927	-10.62
305.142	-12.79
305.356	-9.43
305.571	-20.55
305.786	-35.72
306	-57.97
306.215	-62.33
306.43	-93.03
306.644	-82.31
306.859	-42.66
307.074	-32.35
307.288	-67.87
307.503	-76.57
307.717	-76.88
307.932	-79.64
308.147	-79.02
308.361	-48.93
308.576	-50.67
308.79	-81.91
309.005	-59.69
309.219	-39.45
309.434	-49.22
309.648	-45.23
309.863	-21.85
310.077	-35.57
310.292	-50.11
310.506	-40.08
310.72	-16.42
310.935	-4.8
311.149	-3.48
311.364	20.63
311.578	29.24
311.792	8.51
312.007	3.49
312.221	-12.4
312.435	-21.05
312.649	-41.18
312.864	-35.52
313.078	-6.31
313.292	57.22
313.507	33.5
313.721	75.75
313.935	43.7
314.149	4.81
314.363	-7.04
314.578	-15.67
314.792	-14.16
315.006	-33.96
315.22	-10.88
315.434	-11.93
315.648	6.2
315.862	0.88
316.077	3.77
316.291	-2.03
316.505	9.23
316.719	-10.7
316.933	-14.12
317.147	-4.33
317.361	-60.5
317.575	-105.75
317.789	-133.43
318.003	-203.66
318.217	-187.93
318.431	-102.33
318.645	-29.46
318.859	-21.17
319.073	9.71
319.287	-10.29
319.5	-28.23
319.714	-88.38
319.928	-126.96
320.142	-173.16
320.356	-65.1
320.57	-40.27
320.784	-39.46
320.997	-32.66
321.211	-27.36
321.425	-111.97
321.639	-136.84
321.853	-53.05
322.066	-38.47
322.28	-27.71
322.494	-9.39
322.707	6.03
322.921	-8.54
323.135	-1.87
323.349	-2.45
323.562	-33.9
323.776	-52.99
323.989	-63.72
324.203	-103.42
324.417	-110.4
324.63	-105.07
324.844	-95.05
325.057	-91.05
325.271	-39.93
325.485	-3.57
325.698	16.91
325.912	29.23
326.125	0.17
326.339	-2.26
326.552	-39.3
326.766	-46.5
326.979	-25.15
327.193	22.21
327.406	12.82
327.619	8.75
327.833	18.89
328.046	-20.21
328.26	-70.73
328.473	-57.27
328.686	-95.09
328.9	-88.61
329.113	-65.43
329.326	-82.68
329.54	-61.58
329.753	-82.04
329.966	-127.35
330.179	-100.07
330.393	-34.51
330.606	-33.05
330.819	0.01
331.032	17.33
331.246	16.1
331.459	29.72
331.672	22.51
331.885	7.1
332.098	-15.5
332.311	-21.67
332.525	-87.46
332.738	-80.65
332.951	-31.16
333.164	6.16
333.377	10.18
333.59	38.44
333.803	41.59
334.016	28.34
334.229	15.97
334.442	17.11
334.655	35.94
334.868	24.06
335.081	12.57
335.294	2.56
335.507	-8.19
335.72	-27.55
335.933	-30.72
336.146	-38.6
336.359	-37.21
336.572	-65.68
336.785	-88.54
336.997	-79.28
337.21	-53.82
337.423	-66.4
337.636	-62.76
337.849	-26.88
338.062	-37.93
338.274	-21.01
338.487	-13.31
338.7	0.42
338.913	-71.18
339.125	-103.07
339.338	-187.98
339.551	-168.5
339.763	-108.34
339.976	-58.45
340.189	-20.16
340.402	-1.12
340.614	-3.1
340.827	-31.15
341.039	-55.76
341.252	-53.01
341.465	-18.49
341.677	-22.93
341.89	-29.56
342.102	0.36
342.315	-16.82
342.527	-75.75
342.74	-73.91
342.952	-44.24
343.165	-43.93
343.377	-6.35
343.59	-7.07
343.802	14.15
344.015	21.09
344.227	37.13
344.44	21.37
344.652	23.82
344.864	10.58
345.077	21.51
345.289	9.95
345.502	10.55
345.714	-2.02
345.926	4.97
346.139	-17.19
346.351	-1.23
346.563	3.93
346.775	25.66
346.988	5.13
347.2	-4.73
347.412	-65.7
347.624	-102.51
347.837	-126.88
348.049	-105.76
348.261	-46.53
348.473	-12.84
348.685	-4.42
348.897	-24.43
349.11	-38.88
349.322	-68.7
349.534	-61.27
349.746	-56.04
349.958	-33.78
350.17	-29.91
350.382	-21.11
350.594	-26.17
350.806	-24.78
351.018	-18.63
351.23	-27.62
351.442	-87.19
351.654	-100.07
351.866	-81.36
352.078	-75.75
352.29	-55
352.502	-24.97
352.714	-12.67
352.926	-29.39
353.138	-17.89
353.35	-21.9
353.561	-12.54
353.773	-32.32
353.985	-10.27
354.197	-29.8
354.409	-32.59
354.621	-47.27
354.832	-33.99
355.044	-45.19
355.256	-41.25
355.468	-26.01
355.679	-31.48
355.891	-26.05
356.103	-43.47
356.314	-31.92
356.526	-28.08
356.738	-9.92
356.949	-33.9
357.161	-7.63
357.373	-14.97
357.584	-35.06
357.796	-24.45
358.008	-23.51
358.219	-7.97
358.431	-13.47
358.642	-8.34
358.854	-15.21
359.065	-24.53
359.277	-66.29
359.488	-75.91
359.7	-88.02
359.911	-83.84
360.123	-56.94
360.334	-55.08
360.546	-72.3
360.757	-86.88
360.969	-83.96
361.18	-83.06
361.391	-69.97
361.603	-50.82
361.814	-32.3
362.025	-43.24
362.237	-46.01
362.448	-37.27
362.659	-9.48
362.871	-8.63
363.082	-5.55
363.293	-12.71
363.504	-25.07
363.716	-55.96
363.927	-74.14
364.138	-99.68
364.349	-104.46
364.56	-82.89
364.772	-81
364.983	-42.52
365.194	-26.63
365.405	-2.69
365.616	12.9
365.827	13.5
366.038	-6.09
366.25	-16.09
366.461	-63.09
366.672	-40.79
366.883	-7.93
367.094	0.01
367.305	-11.6
367.516	6.15
367.727	-24.76
367.938	-53.27
368.149	-49.5
368.36	-25
368.571	-24.68
368.781	-49.68
368.992	-58.57
369.203	-76.32
369.414	-103.02
369.625	-108.65
369.836	-76.74
370.047	-95.18
370.258	-90.93
370.468	-93.78
370.679	-112.03
370.89	-103.52
371.101	-64.27
371.312	-64.23
371.522	-58.49
371.733	-39.32
371.944	-35.21
372.155	-34.67
372.365	-43.86
372.576	-44.69
372.787	-47.65
372.997	-65.71
373.208	-60.89
373.419	-26.2
373.629	-51.07
373.84	-60.6
374.05	-74.6
374.261	-74.52
374.472	-97.1
374.682	-21.91
374.893	-16.66
375.103	26.71
375.314	28.39
375.524	28.33
375.735	8.69
375.945	18.75
376.156	-18.33
376.366	-16.95
376.577	-18.38
376.787	-26.48
376.997	-27.67
377.208	-14.89
377.418	-29.56
377.629	-9.92
377.839	-6.74
378.049	-10.79
378.26	3.42
378.47	12.51
378.68	-5.45
378.89	-14.01
379.101	-8.16
379.311	-41.05
379.521	-75.67
379.732	-67.21
379.942	-57.82
380.152	-90.89
380.362	-52.01
380.572	-39.23
380.783	-27.87
380.993	-21.57
381.203	-4.12
381.413	8.52
381.623	12.07
381.833	11.45
382.043	2.41
382.253	-3.75
382.463	-17.08
382.674	-29.52
382.884	-57.71
383.094	-51.34
383.304	-40.45
383.514	-26.06
383.724	-9.59
383.934	-5.65
384.144	-16.14
384.353	-31.67
384.563	-39.79
384.773	-33.42
384.983	-37.62
385.193	-21.09
385.403	-13.13
385.613	-11.23
385.823	-29.46
386.033	-20.22
386.242	-26.13
386.452	-25.16
386.662	-32.95
386.872	-12.97
387.082	-20.8
387.291	-28.46
387.501	-37.2
387.711	-25.37
387.921	-36.58
388.13	-30.32
388.34	-11.89
388.55	-12.15
388.759	-12.3
388.969	-5.66
389.179	-7.67
389.388	-14.87
389.598	-6.17
389.807	-16.38
390.017	-22.2
390.227	-15.59
390.436	-13.05
390.646	-13.52
390.855	-6.94
391.065	-3.82
391.274	-10.44
391.484	-14.42
391.693	-14.24
391.903	-12.16
392.112	-5.89
392.322	-1.72
392.531	3.69
392.74	5.83
392.95	1.34
393.159	-1.23
393.369	-0.95
393.578	-1.39
393.787	-4.15
393.997	-2.06
394.206	-3.92
394.415	-3.56
394.625	-3.37
394.834	-4.06
395.043	-4.42
395.252	-2.71
395.462	0.03
395.671	1.45
395.88	2.48
396.089	3.91
396.298	3.52
396.508	2.17
396.717	0.16
396.926	1.11
397.135	0.02
397.344	-0.27
397.553	0.58
397.762	2.48
397.971	2.21
398.181	2.38
398.39	1.87
398.599	1.43
398.808	1.45
399.017	2.38
399.226	3.83
399.435	5.23
399.644	5.25
399.853	4.06
400.062	3.5
400.27	2.91
400.479	2.32
400.688	1.59
400.897	1.84
401.106	2.23
401.315	2.12
401.524	2.39
401.733	3.08
401.941	3.66
402.15	3.45
402.359	3.39
402.568	3.79
402.777	3.88
402.985	3.64
403.194	3.48
403.403	3.75
403.612	2.99
403.82	2.66
404.029	2.58
404.238	2.59
404.446	2.56
404.655	2.56
404.864	2.65
405.072	2.58
405.281	2.74
405.489	2.66
405.698	2.78
405.906	2.81
406.115	2.96
406.324	2.89
406.532	2.91
406.741	3.2
406.949	3.15
407.158	2.99
407.366	3.05
407.574	3.03
407.783	2.96
407.991	2.92
408.2	3.2
408.408	3.15
408.617	3.09
408.825	2.94
409.033	3.07
409.242	3.05
409.45	3.08
409.658	2.96
409.867	3.17
410.075	2.93
410.283	2.7
410.491	2.62
410.7	2.58
410.908	2.48
411.116	2.97
411.324	3.08
411.533	2.98
411.741	3.24
411.949	3.24
412.157	2.8
412.365	2.82
412.573	2.9
412.781	2.88
412.99	2.7
413.198	2.98
413.406	2.96
413.614	2.99
413.822	2.86
414.03	2.9
414.238	2.58
414.446	2.64
414.654	2.43
414.862	2.54
415.07	2.67
415.278	2.94
415.486	2.71
415.694	2.89
415.902	2.78
416.109	2.6
416.317	2.43
416.525	2.36
416.733	2.28
416.941	2.46
417.149	2.44
417.357	2.59
417.564	2.85
417.772	3.05
417.98	2.86
418.188	2.84
418.395	2.72
418.603	2.78
418.811	2.37
419.019	2.39
419.226	2.64
419.434	2.73
419.642	2.53
419.849	2.76
420.057	2.77
420.265	2.7
420.472	2.49
420.68	2.57
420.887	2.42
421.095	2.44
421.302	2.32
421.51	2.54
421.717	2.55
421.925	2.8
422.132	2.6
422.34	2.51
422.547	2.52
422.755	2.47
422.962	2.18
423.17	2.22
423.377	2.26
423.585	2.3
423.792	2.18
423.999	2.37
424.207	2.44
424.414	2.51
424.621	2.37
424.829	2.4
425.036	2.39
425.243	2.45
425.451	2.29
425.658	2.16
425.865	2.37
426.072	2.35
426.28	2.57
426.487	2.56
426.694	2.66
426.901	2.3
427.108	2.28
427.315	2.1
427.523	2.46
427.73	2.51
427.937	2.72
428.144	2.58
428.351	2.52
428.558	2.57
428.765	2.41
428.972	2.3
429.179	2.49
429.386	2.72
429.593	2.45
429.8	2.41
430.007	2.55
430.214	2.61
430.421	2.44
430.628	2.22
430.835	2.24
431.042	2.47
431.249	2.51
431.456	2.57
431.662	2.82
431.869	2.96
432.076	2.71
432.283	2.76
432.49	2.76
432.697	2.81
432.903	2.62
433.11	2.62
433.317	2.69
433.524	2.86
433.73	2.69
433.937	2.96
434.144	2.88
434.35	2.74
434.557	2.59
434.764	2.59
434.97	2.47
435.177	2.66
435.384	2.59
435.59	2.65
435.797	2.97
436.003	3.05
436.21	3.08
436.416	3.22
436.623	3.19
436.829	3.1
437.036	3.18
437.242	3.19
437.449	3.13
437.655	3.08
437.862	3.11
438.068	2.95
438.275	3.08
438.481	3.29
438.687	3.3
438.894	3.24
439.1	3.32
439.307	3.46
439.513	3.3
439.719	3.36
439.926	3.42
440.132	3.41
440.338	3.18
440.544	3.31
440.751	3.29
440.957	3.32
441.163	3.18
441.369	3.31
441.575	3.05
441.782	2.99
441.988	2.83
442.194	2.94
442.4	2.83
442.606	3.24
442.812	3.4
443.018	3.56
443.224	3.67
443.431	3.79
443.637	3.44
443.843	3.28
444.049	3.22
444.255	3.03
444.461	3.03
444.667	3.04
444.873	3.18
445.079	3.23
445.284	3.33
445.49	3.05
445.696	2.97
445.902	2.87
446.108	2.77
446.314	2.69
446.52	2.9
446.726	3.18
446.931	3.22
447.137	3.37
447.343	3.49
447.549	3.4
447.755	3.21
447.96	3.19
448.166	3.12
448.372	3.06
448.578	3.2
448.783	3.31
448.989	3.48
449.195	3.69
449.4	3.66
449.606	3.56
449.812	3.38
450.017	3.3
450.223	3.06
450.428	3.03
450.634	3.17
450.84	3.44
451.045	3.34
451.251	3.35
451.456	3.64
451.662	3.63
451.867	3.51
452.073	3.57
452.278	3.7
452.483	3.7
452.689	3.59
452.894	3.6
453.1	3.56
453.305	3.47
453.51	3.38
453.716	3.38
453.921	3.46
454.127	3.42
454.332	3.39
454.537	3.37
454.742	3.34
454.948	3.27
455.153	3.39
455.358	3.45
455.563	3.54
455.769	3.76
455.974	3.8
456.179	3.63
456.384	3.69
