Data from Ofra_2a_PS_OGT1K_Reflection_3.txt Node
Date: Tue Jul 20 09:28:46 EDT 2021
User: Adam
Spectrometer: FLMT01687
Trigger mode: 0
Integration Time (sec): 9.450000E-1
Scans to average: 3
Electric dark correction enabled: true
Nonlinearity correction enabled: false
Boxcar width: 3
XAxis mode: Wavelengths
Number of Pixels in Spectrum: 3648
>>>>>Begin Spectral Data<<<<<
179.494	97.63
179.716	45.69
179.937	3.85
180.158	-221.48
180.38	555.52
180.601	115.15
180.823	38.84
181.044	77.99
181.265	36.24
181.486	10.69
181.708	-1027.17
181.929	-182.44
182.15	-966.48
182.372	93.95
182.593	-40.33
182.814	431.59
183.035	337.5
183.257	193.85
183.478	99.64
183.699	123.65
183.92	92.59
184.141	77.01
184.363	64.46
184.584	44.33
184.805	36.58
185.026	38.86
185.247	18.22
185.468	11.66
185.689	21.31
185.91	12.29
186.132	26.98
186.353	18.77
186.574	26.36
186.795	16.23
187.016	13.06
187.237	6.9
187.458	8.18
187.679	-3.1
187.9	15.83
188.121	10.63
188.342	32.62
188.563	27.23
188.784	21.85
189.005	33.07
189.226	43.03
189.447	34.73
189.667	35.79
189.888	34.67
190.109	36.77
190.33	34.37
190.551	14.82
190.772	1.66
190.993	16.89
191.214	16.23
191.434	12.17
191.655	24.58
191.876	35.66
192.097	40.71
192.318	52.8
192.538	57.5
192.759	59.31
192.98	53.84
193.201	61.32
193.421	64.31
193.642	75.24
193.863	78.58
194.083	63.31
194.304	50.13
194.525	74.24
194.745	67.04
194.966	59.29
195.187	47.57
195.407	48.16
195.628	44.1
195.848	57.69
196.069	38.28
196.29	30.59
196.51	29.54
196.731	39.89
196.951	29.41
197.172	22.31
197.392	17.49
197.613	19.95
197.833	21.22
198.054	17.15
198.274	-6.58
198.495	-2.87
198.715	8.2
198.936	5
199.156	3.52
199.377	3.41
199.597	5.96
199.817	40.5
200.038	38.6
200.258	38.5
200.479	42.8
200.699	50.72
200.919	42.37
201.14	33.81
201.36	21.49
201.58	21.28
201.801	12.88
202.021	18.02
202.241	15.32
202.461	27.83
202.682	38
202.902	37.59
203.122	32.24
203.342	49.56
203.563	46.65
203.783	41.77
204.003	39.73
204.223	40.99
204.443	37.11
204.663	39.55
204.884	16.95
205.104	22.71
205.324	40.38
205.544	40.59
205.764	39.66
205.984	42.35
206.204	41.13
206.424	54.87
206.644	41.51
206.864	34.48
207.084	42.94
207.304	29.86
207.525	24.31
207.745	28.21
207.964	19.9
208.184	29.49
208.404	18.18
208.624	-2.07
208.844	16.08
209.064	33.08
209.284	39.09
209.504	32.63
209.724	3.92
209.944	18.84
210.164	22.87
210.384	19.11
210.604	-6.18
210.823	-10.75
211.043	-6.02
211.263	23.97
211.483	24.73
211.703	30.66
211.922	32.39
212.142	44.19
212.362	53.84
212.582	53.57
212.801	46.59
213.021	42.26
213.241	48.44
213.461	38.9
213.68	35.96
213.9	28.16
214.12	34.63
214.339	42.02
214.559	55.18
214.779	49.46
214.998	52.56
215.218	56.49
215.438	66.78
215.657	57.59
215.877	53.49
216.096	48.5
216.316	46.66
216.535	51.76
216.755	33.7
216.974	12.56
217.194	19.24
217.413	40.67
217.633	36.76
217.852	30.56
218.072	12.31
218.291	36.22
218.511	42.11
218.73	36.53
218.95	23.78
219.169	17.95
219.389	17.78
219.608	33.8
219.827	29.15
220.047	37.24
220.266	45.96
220.485	46.75
220.705	37.99
220.924	43.22
221.143	36.89
221.363	40.51
221.582	33.71
221.801	36.6
222.021	38.77
222.24	52.63
222.459	48.25
222.678	48.76
222.897	40.02
223.117	37.62
223.336	35.89
223.555	30.85
223.774	26.8
223.993	37.94
224.213	37.94
224.432	41.94
224.651	43.71
224.87	34.63
225.089	35.67
225.308	43.01
225.527	40.39
225.746	42.62
225.965	38.11
226.184	36.12
226.404	35.44
226.623	46.91
226.842	40.22
227.061	45.05
227.28	54.11
227.499	47.42
227.718	45.61
227.936	47.72
228.155	38.31
228.374	29.25
228.593	21.42
228.812	14.97
229.031	14.86
229.25	32.77
229.469	32.47
229.688	42.3
229.907	48.65
230.125	51.32
230.344	61.5
230.563	62.66
230.782	49.48
231.001	53.74
231.22	43.41
231.438	42.44
231.657	32.01
231.876	30.62
232.095	17.89
232.313	23.74
232.532	22.37
232.751	23.22
232.969	30.41
233.188	41.93
233.407	25.03
233.625	26.47
233.844	20.34
234.063	12.71
234.281	19.81
234.5	13.5
234.719	6.94
234.937	15.63
235.156	17.36
235.374	16.81
235.593	25.21
235.811	19.68
236.03	20.33
236.249	25.84
236.467	38.93
236.686	50.52
236.904	52.38
237.123	43.55
237.341	40.1
237.559	40.05
237.778	49.77
237.996	42.29
238.215	34.19
238.433	29.45
238.652	33.67
238.87	29.56
239.088	26.05
239.307	21.88
239.525	19.59
239.743	8.54
239.962	6.12
240.18	15.95
240.398	27.69
240.617	35.09
240.835	36.18
241.053	40.41
241.271	52.59
241.49	56.4
241.708	41.41
241.926	32.01
242.144	29.41
242.363	27.25
242.581	17.17
242.799	14.37
243.017	14.63
243.235	12.99
243.453	21.41
243.672	23.85
243.89	18.83
244.108	23.1
244.326	21.95
244.544	36.25
244.762	38.11
244.98	35.79
245.198	29.01
245.416	27.38
245.634	37.29
245.852	40.13
246.07	25.21
246.288	13.92
246.506	27.16
246.724	50.71
246.942	59.32
247.16	42.02
247.378	31.07
247.596	33.96
247.814	38.94
248.032	28.9
248.25	17.11
248.468	18.53
248.685	25.46
248.903	32.42
249.121	34.75
249.339	33.01
249.557	37.37
249.775	27.59
249.992	22.83
250.21	19.68
250.428	23.34
250.646	26.79
250.863	28.55
251.081	27.05
251.299	22.69
251.517	30.14
251.734	37.94
251.952	30.87
252.17	20.79
252.387	19.88
252.605	16.88
252.823	14.13
253.04	1.69
253.258	4.44
253.475	9.12
253.693	16.44
253.911	14.29
254.128	7.09
254.346	17.12
254.563	13.52
254.781	9.93
254.998	13.97
255.216	11.54
255.433	9.44
255.651	26.93
255.868	24.48
256.086	31.72
256.303	30.04
256.521	24.59
256.738	22.91
256.956	18.66
257.173	15.45
257.39	15.75
257.608	21.79
257.825	26.97
258.043	35.94
258.26	31.44
258.477	39.97
258.695	39.73
258.912	50.13
259.129	45.77
259.346	40.9
259.564	26.91
259.781	48.77
259.998	47.57
260.216	54.83
260.433	49.68
260.65	47.51
260.867	43.67
261.084	55.95
261.302	43.99
261.519	50.1
261.736	43.99
261.953	33.37
262.17	34.37
262.387	28.07
262.604	8.56
262.822	18.91
263.039	15.55
263.256	1.09
263.473	-0.51
263.69	-5.51
263.907	0.86
264.124	7.66
264.341	-2.35
264.558	9.05
264.775	21.25
264.992	31.6
265.209	41.61
265.426	49.3
265.643	45.89
265.86	50.15
266.077	45.28
266.294	44.58
266.51	40.71
266.727	26.25
266.944	19.51
267.161	22.92
267.378	9.21
267.595	3.34
267.812	-1.54
268.028	6.17
268.245	13.05
268.462	14.04
268.679	11.52
268.896	18.27
269.112	26.74
269.329	31.63
269.546	27.15
269.763	30.29
269.979	31.36
270.196	35.54
270.413	34.57
270.629	31.9
270.846	29.57
271.063	29.51
271.279	28.35
271.496	23.42
271.712	23.05
271.929	24.26
272.146	24.04
272.362	15.45
272.579	20.2
272.795	14.62
273.012	25.24
273.228	21.56
273.445	25.7
273.661	27.1
273.878	30.06
274.094	24.36
274.311	30.23
274.527	18.23
274.744	21.13
274.96	26.69
275.177	26.82
275.393	30.27
275.609	33.79
275.826	36.84
276.042	50.83
276.259	42.14
276.475	23.76
276.691	23.68
276.908	24.07
277.124	30.7
277.34	25.76
277.557	26.23
277.773	29.25
277.989	33.41
278.205	25.86
278.422	37.26
278.638	37.96
278.854	30.54
279.07	17.52
279.286	16.26
279.503	19.35
279.719	35.43
279.935	22.33
280.151	21.48
280.367	26.15
280.583	27.89
280.799	28.83
281.016	29.12
281.232	19.08
281.448	12.31
281.664	8.23
281.88	13.28
282.096	21.47
282.312	20.66
282.528	10.96
282.744	3.28
282.96	15.68
283.176	12.36
283.392	20.45
283.608	21.08
283.824	19.23
284.04	32.44
284.256	41.85
284.471	38.49
284.687	36.44
284.903	31.02
285.119	23.79
285.335	28.97
285.551	28.82
285.767	22.81
285.982	23.86
286.198	21.37
286.414	30.33
286.63	32.03
286.846	33.06
287.061	31.8
287.277	40.96
287.493	40.96
287.709	40.13
287.924	38.31
288.14	47.94
288.356	54.98
288.571	58.18
288.787	51.64
289.003	50.93
289.218	58.16
289.434	57.33
289.65	54.6
289.865	52.95
290.081	43.73
290.296	48.31
290.512	50.29
290.727	59.31
290.943	47.85
291.159	38.49
291.374	35.75
291.59	35.3
291.805	22.48
292.021	8.83
292.236	-0.78
292.451	9.22
292.667	18.74
292.882	13.43
293.098	19.9
293.313	26.57
293.529	39.27
293.744	40.53
293.959	43.28
294.175	37.41
294.39	52.75
294.605	50.04
294.821	48.04
295.036	47.85
295.251	51.41
295.467	43.07
295.682	47.07
295.897	33.65
296.112	28.01
296.328	28.59
296.543	17.74
296.758	11.36
296.973	14.07
297.188	10.19
297.404	17.65
297.619	20.11
297.834	22.59
298.049	26.57
298.264	24.93
298.479	16.95
298.694	20.6
298.909	19.27
299.125	25.93
299.34	22.19
299.555	27.5
299.77	34.25
299.985	36.5
300.2	31.96
300.415	30.92
300.63	18.37
300.845	20.83
301.06	22.19
301.275	21.42
301.49	27.54
301.704	26.54
301.919	17.39
302.134	15.02
302.349	6.88
302.564	-2.41
302.779	-8.4
302.994	-13.81
303.209	-19.94
303.423	3.81
303.638	19.53
303.853	31.82
304.068	29.63
304.283	30.56
304.497	29.68
304.712	38.53
304.927	24.24
305.142	22.39
305.356	16.72
305.571	22.49
305.786	16.41
306	19.13
306.215	14.24
306.43	29.66
306.644	37.68
306.859	40.24
307.074	39.53
307.288	55.48
307.503	52.42
307.717	46.01
307.932	40.33
308.147	31.41
308.361	30.13
308.576	30.9
308.79	15.61
309.005	16.13
309.219	19.57
309.434	17.96
309.648	19.99
309.863	19.23
310.077	3.39
310.292	10.57
310.506	22.24
310.72	11.06
310.935	9.79
311.149	10.8
311.364	13.91
311.578	24.8
311.792	20.51
312.007	10.51
312.221	22.69
312.435	28.53
312.649	25.8
312.864	19.56
313.078	19.3
313.292	27.59
313.507	23.45
313.721	17.31
313.935	33.86
314.149	35.65
314.363	44.19
314.578	46.62
314.792	47.4
315.006	46.63
315.22	53.3
315.434	32.12
315.648	31.44
315.862	28.7
316.077	30.88
316.291	27.06
316.505	33
316.719	18.89
316.933	30.97
317.147	26.71
317.361	23.81
317.575	19.38
317.789	27.03
318.003	27.52
318.217	33.15
318.431	35.34
318.645	44.62
318.859	35.91
319.073	33.38
319.287	36.37
319.5	35.73
319.714	32.62
319.928	30.14
320.142	31.29
320.356	46.56
320.57	46.49
320.784	38.56
320.997	45.1
321.211	55.98
321.425	48.81
321.639	48.02
321.853	35.95
322.066	32.64
322.28	33.04
322.494	27.17
322.707	20.49
322.921	20.16
323.135	29.16
323.349	38.08
323.562	46.83
323.776	49.99
323.989	48.71
324.203	55.4
324.417	59.78
324.63	38.62
324.844	26.38
325.057	25.75
325.271	17.93
325.485	19.47
325.698	15.27
325.912	28.21
326.125	34.65
326.339	48.43
326.552	44.65
326.766	52.07
326.979	49.19
327.193	54.12
327.406	40.97
327.619	35.92
327.833	23.7
328.046	22.33
328.26	17.63
328.473	15.69
328.686	7.78
328.9	3.18
329.113	5.44
329.326	14.61
329.54	15.67
329.753	19.14
329.966	19.41
330.179	23.73
330.393	25.7
330.606	32.13
330.819	32.44
331.032	31.92
331.246	34.89
331.459	45.44
331.672	51.46
331.885	54.93
332.098	55.08
332.311	50.26
332.525	47.85
332.738	44.37
332.951	34.94
333.164	26.58
333.377	19.12
333.59	28.13
333.803	35.66
334.016	37.66
334.229	30.18
334.442	35.74
334.655	37.74
334.868	48.85
335.081	48.84
335.294	46.67
335.507	46.43
335.72	39.17
335.933	45.06
336.146	41.42
336.359	31.94
336.572	21.33
336.785	25.01
336.997	20.45
337.21	33.04
337.423	31.31
337.636	40.97
337.849	38.73
338.062	39.47
338.274	35.97
338.487	28.2
338.7	26.09
338.913	20.37
339.125	12.7
339.338	23.49
339.551	23.93
339.763	20.94
339.976	22.36
340.189	18.13
340.402	20.28
340.614	23.44
340.827	8.67
341.039	16.05
341.252	19.73
341.465	23.45
341.677	21.46
341.89	20.88
342.102	21.25
342.315	37.77
342.527	27.26
342.74	23.19
342.952	25.4
343.165	33.34
343.377	29.67
343.59	27.22
343.802	20.67
344.015	23.73
344.227	22.83
344.44	11.16
344.652	16.51
344.864	20.98
345.077	29.54
345.289	35.42
345.502	42.32
345.714	42.01
345.926	46.32
346.139	36.31
346.351	18.69
346.563	9.24
346.775	-2.95
346.988	-4.91
347.2	6.89
347.412	13.1
347.624	14.19
347.837	22.24
348.049	20.27
348.261	28.72
348.473	17.83
348.685	18.52
348.897	19.34
349.11	16.56
349.322	19.01
349.534	18.17
349.746	10.27
349.958	20.22
350.17	25.42
350.382	18.41
350.594	12.52
350.806	22.89
351.018	28.98
351.23	33.84
351.442	32.11
351.654	25.02
351.866	35.86
352.078	37.61
352.29	31.12
352.502	29.86
352.714	24.26
352.926	22.91
353.138	27.74
353.35	9.78
353.561	8.35
353.773	12.85
353.985	19.6
354.197	17.19
354.409	21.65
354.621	19.26
354.832	24.57
355.044	31.61
355.256	26.6
355.468	18.01
355.679	25.15
355.891	27.12
356.103	28.23
356.314	31.82
356.526	25.72
356.738	21.24
356.949	21.23
357.161	17.51
357.373	16.04
357.584	17.6
357.796	22.4
358.008	24.96
358.219	37.05
358.431	38.11
358.642	34.15
358.854	34.68
359.065	28.95
359.277	26.71
359.488	34.43
359.7	34.82
359.911	32.69
360.123	37.03
360.334	33.23
360.546	26.03
360.757	22.23
360.969	24.65
361.18	14.22
361.391	10.83
361.603	8.49
361.814	13.71
362.025	18.04
362.237	17.33
362.448	5.85
362.659	-0.49
362.871	5.5
363.082	12.32
363.293	14.45
363.504	21.34
363.716	21.1
363.927	21.04
364.138	33.97
364.349	37.46
364.56	31.75
364.772	28.04
364.983	22
365.194	24.96
365.405	27
365.616	16.52
365.827	13.14
366.038	21.9
366.25	20.07
366.461	28.71
366.672	28.48
366.883	35.97
367.094	32.75
367.305	28.91
367.516	26.62
367.727	27.77
367.938	23.62
368.149	20.03
368.36	15.07
368.571	17.77
368.781	16.96
368.992	14.2
369.203	15.9
369.414	10.04
369.625	13.75
369.836	14.81
370.047	11.51
370.258	12.44
370.468	11.65
370.679	7.15
370.89	12.86
371.101	9.76
371.312	3.23
371.522	8.24
371.733	6.68
371.944	5.34
372.155	-0.48
372.365	-1.59
372.576	-0.82
372.787	2.52
372.997	2.55
373.208	2.99
373.419	2.27
373.629	15.11
373.84	14.73
374.05	15.72
374.261	16.45
374.472	8.18
374.682	2.2
374.893	0.4
375.103	-2.52
375.314	-3.73
375.524	-9.35
375.735	-7.61
375.945	0.48
376.156	6.85
376.366	13.72
376.577	14.3
376.787	21.2
376.997	29.57
377.208	28.42
377.418	29.26
377.629	29.25
377.839	27.3
378.049	29.48
378.26	26.69
378.47	26.26
378.68	28.62
378.89	29.71
379.101	25.78
379.311	19.2
379.521	22.51
379.732	16.03
379.942	18.1
380.152	22.91
380.362	19.68
380.572	25.8
380.783	26.25
380.993	17.77
381.203	21.49
381.413	20.49
381.623	18.1
381.833	11.81
382.043	4.59
382.253	12.93
382.463	17.19
382.674	18.44
382.884	17.24
383.094	15.5
383.304	19.85
383.514	24.59
383.724	22.4
383.934	19.92
384.144	25.04
384.353	23.73
384.563	18.42
384.773	18.14
384.983	16.95
385.193	14.55
385.403	18.45
385.613	9.94
385.823	9.88
386.033	10.31
386.242	7.73
386.452	9.08
386.662	11.19
386.872	6.07
387.082	9.26
387.291	9.86
387.501	12.47
387.711	12.98
387.921	9.88
388.13	6.91
388.34	6.8
388.55	5.97
388.759	4.51
388.969	2.09
389.179	4.63
389.388	7.32
389.598	8.06
389.807	8.43
390.017	7.95
390.227	8.51
390.436	9.41
390.646	8.06
390.855	6.53
391.065	6.27
391.274	5.99
391.484	6.92
391.693	7.51
391.903	6.96
392.112	6.89
392.322	8.81
392.531	8.5
392.74	7.86
392.95	8.05
393.159	7.65
393.369	8.38
393.578	8.21
393.787	6.89
393.997	8.92
394.206	9.5
394.415	8.77
394.625	7.34
394.834	6.96
395.043	7.59
395.252	7.22
395.462	5.65
395.671	5.49
395.88	5.62
396.089	5.96
396.298	5.51
396.508	4.46
396.717	4.43
396.926	4.3
397.135	3.83
397.344	3.35
397.553	3.56
397.762	3.53
397.971	3.46
398.181	3.24
398.39	3.02
398.599	3.61
398.808	3.64
399.017	3.82
399.226	3.86
399.435	3.94
399.644	3.77
399.853	3.77
400.062	3.66
400.27	3.75
400.479	3.62
400.688	3.52
400.897	3.68
401.106	4.06
401.315	3.93
401.524	3.87
401.733	3.81
401.941	3.67
402.15	3.61
402.359	3.39
402.568	3.2
402.777	3.12
402.985	2.89
403.194	2.86
403.403	2.85
403.612	2.89
403.82	2.98
404.029	2.93
404.238	2.97
404.446	2.96
404.655	2.86
404.864	2.76
405.072	2.71
405.281	2.6
405.489	2.66
405.698	2.59
405.906	2.59
406.115	2.65
406.324	2.64
406.532	2.64
406.741	2.67
406.949	2.63
407.158	2.78
407.366	2.88
407.574	2.9
407.783	2.85
407.991	2.75
408.2	2.71
408.408	2.71
408.617	2.65
408.825	2.57
409.033	2.52
409.242	2.5
409.45	2.59
409.658	2.56
409.867	2.57
410.075	2.51
410.283	2.52
410.491	2.51
410.7	2.58
410.908	2.58
411.116	2.61
411.324	2.57
411.533	2.51
411.741	2.51
411.949	2.59
412.157	2.6
412.365	2.57
412.573	2.64
412.781	2.69
412.99	2.78
413.198	2.69
413.406	2.63
413.614	2.64
413.822	2.67
414.03	2.55
414.238	2.54
414.446	2.49
414.654	2.58
414.862	2.5
415.07	2.51
415.278	2.48
415.486	2.63
415.694	2.51
415.902	2.58
416.109	2.64
416.317	2.67
416.525	2.72
416.733	2.67
416.941	2.48
417.149	2.62
417.357	2.61
417.564	2.51
417.772	2.53
417.98	2.43
418.188	2.37
418.395	2.45
418.603	2.34
418.811	2.28
419.019	2.37
419.226	2.38
419.434	2.28
419.642	2.32
419.849	2.32
420.057	2.33
420.265	2.39
420.472	2.21
420.68	2.22
420.887	2.34
421.095	2.44
421.302	2.5
421.51	2.59
421.717	2.53
421.925	2.62
422.132	2.48
422.34	2.36
422.547	2.3
422.755	2.21
422.962	2.12
423.17	2.15
423.377	2.26
423.585	2.41
423.792	2.52
423.999	2.51
424.207	2.5
424.414	2.62
424.621	2.56
424.829	2.39
425.036	2.24
425.243	2.3
425.451	2.36
425.658	2.37
425.865	2.24
426.072	2.3
426.28	2.38
426.487	2.4
426.694	2.26
426.901	2.17
427.108	2.15
427.315	2.16
427.523	2.17
427.73	2.22
427.937	2.28
428.144	2.31
428.351	2.37
428.558	2.34
428.765	2.31
428.972	2.27
429.179	2.14
429.386	2.18
429.593	2.12
429.8	2.12
430.007	2.18
430.214	2.23
430.421	2.23
430.628	2.13
430.835	2.01
431.042	2.12
431.249	2.03
431.456	1.99
431.662	1.93
431.869	1.98
432.076	2.08
432.283	2.1
432.49	2.12
432.697	2.2
432.903	2.24
433.11	2.32
433.317	2.34
433.524	2.32
433.73	2.36
433.937	2.26
434.144	2.32
434.35	2.3
434.557	2.27
434.764	2.22
434.97	2.35
435.177	2.34
435.384	2.51
435.59	2.42
435.797	2.42
436.003	2.39
436.21	2.31
436.416	2.26
436.623	2.31
436.829	2.21
437.036	2.24
437.242	2.25
437.449	2.29
437.655	2.38
437.862	2.4
438.068	2.45
438.275	2.43
438.481	2.5
438.687	2.54
438.894	2.56
439.1	2.59
439.307	2.58
439.513	2.49
439.719	2.57
439.926	2.53
440.132	2.51
440.338	2.57
440.544	2.5
440.751	2.55
440.957	2.59
441.163	2.6
441.369	2.61
441.575	2.63
441.782	2.58
441.988	2.61
442.194	2.64
442.4	2.6
442.606	2.56
442.812	2.55
443.018	2.52
443.224	2.55
443.431	2.57
443.637	2.49
443.843	2.51
444.049	2.53
444.255	2.51
444.461	2.55
444.667	2.53
444.873	2.5
445.079	2.52
445.284	2.54
445.49	2.53
445.696	2.59
445.902	2.67
446.108	2.68
446.314	2.74
446.52	2.79
446.726	2.8
446.931	2.83
447.137	2.82
447.343	2.74
447.549	2.7
447.755	2.68
447.96	2.61
448.166	2.62
448.372	2.6
448.578	2.58
448.783	2.59
448.989	2.65
449.195	2.68
449.4	2.69
449.606	2.67
449.812	2.74
450.017	2.74
450.223	2.74
450.428	2.74
450.634	2.76
450.84	2.83
451.045	2.8
451.251	2.8
451.456	2.81
451.662	2.76
451.867	2.79
452.073	2.77
452.278	2.69
452.483	2.71
452.689	2.68
452.894	2.66
453.1	2.65
453.305	2.62
453.51	2.64
453.716	2.66
453.921	2.69
454.127	2.68
454.332	2.69
454.537	2.8
454.742	2.79
454.948	2.74
455.153	2.78
455.358	2.81
455.563	2.82
455.769	2.8
455.974	2.72
456.179	2.68
456.384	2.74
456.589	2.76
456.795	2.66
457	2.68
457.205	2.69
457.41	2.76
457.615	2.85
457.82	2.89
458.025	2.87
458.23	2.93
458.435	2.94
458.64	2.98
458.845	2.94
459.05	2.88
459.255	2.84
459.46	2.81
459.665	2.85
459.87	2.87
460.075	2.84
460.28	2.85
460.485	2.87
460.69	2.83
460.895	2.87
461.099	2.83
461.304	2.79
461.509	2.75
461.714	2.78
461.919	2.76
462.123	2.85
462.328	2.83
462.533	2.83
462.738	2.83
462.942	2.86
463.147	2.82
463.352	2.87
463.556	2.86
463.761	2.87
463.966	2.94
464.17	2.95
464.375	2.95
464.58	2.96
464.784	2.95
464.989	2.93
465.193	2.95
465.398	2.92
465.602	2.93
465.807	2.97
466.011	3
466.216	2.99
466.42	3.05
466.625	3.04
466.829	3.07
467.034	3.11
467.238	3.14
467.443	3.18
467.647	3.25
467.851	3.24
468.056	3.26
468.26	3.21
468.464	3.21
468.669	3.21
