Data from Ofra_1a_PS_OGT5_Reflection_3.txt Node
Date: Tue Jul 20 10:44:11 EDT 2021
User: Adam
Spectrometer: FLMT01687
Trigger mode: 0
Integration Time (sec): 1.004000E0
Scans to average: 2
Electric dark correction enabled: true
Nonlinearity correction enabled: false
Boxcar width: 2
XAxis mode: Wavelengths
Number of Pixels in Spectrum: 3648
>>>>>Begin Spectral Data<<<<<
179.494	255.33
179.716	296.95
179.937	-323.41
180.158	294.9
180.38	72
180.601	122.71
180.823	96.23
181.044	-1.04
181.265	-107.64
181.486	178.31
181.708	148.95
181.929	-5518.18
182.15	-58.25
182.372	20.2
182.593	232.03
182.814	78.61
183.035	46.67
183.257	64.21
183.478	21.13
183.699	-4.53
183.92	-69.99
184.141	-73.62
184.363	-45.49
184.584	-62.82
184.805	-12.51
185.026	29.01
185.247	55.62
185.468	52.04
185.689	64.01
185.91	52.17
186.132	54.52
186.353	14.55
186.574	5.22
186.795	9.44
187.016	39.38
187.237	49.59
187.458	52.81
187.679	40.36
187.9	44.66
188.121	42.7
188.342	23.52
188.563	34.31
188.784	35.59
189.005	18.56
189.226	9.84
189.447	-10.19
189.667	-24.6
189.888	-16.61
190.109	-38.28
190.33	-4.33
190.551	7.28
190.772	19.84
190.993	2.35
191.214	21.55
191.434	10.5
191.655	58.94
191.876	45.11
192.097	101.27
192.318	84.14
192.538	58.44
192.759	44.78
192.98	53.24
193.201	26.52
193.421	18.84
193.642	40.3
193.863	36.72
194.083	33.31
194.304	41.77
194.525	38.87
194.745	24.03
194.966	32.77
195.187	32.98
195.407	40.91
195.628	27.29
195.848	26.51
196.069	8.7
196.29	-9.21
196.51	-37.96
196.731	-16.38
196.951	-33.99
197.172	-12.91
197.392	-12.99
197.613	7.36
197.833	-14.94
198.054	-3.46
198.274	-23.83
198.495	-28.19
198.715	-28.56
198.936	11.74
199.156	5.22
199.377	10.66
199.597	15.42
199.817	15.55
200.038	-38.68
200.258	-8.62
200.479	10.93
200.699	20.57
200.919	22.31
201.14	31.09
201.36	19.99
201.58	3.24
201.801	-6.09
202.021	-27.37
202.241	-34.95
202.461	-14.28
202.682	1.45
202.902	-1.55
203.122	6.53
203.342	6.12
203.563	-4.13
203.783	-24.08
204.003	-20.14
204.223	-1.85
204.443	3.73
204.663	-35.39
204.884	-5.78
205.104	-1.44
205.324	21.35
205.544	14.4
205.764	47.74
205.984	47.44
206.204	47.84
206.424	12.49
206.644	4.66
206.864	6.19
207.084	7.01
207.304	37.15
207.525	42.33
207.745	63.37
207.964	51.95
208.184	58.54
208.404	44.57
208.624	48.27
208.844	46.38
209.064	52.65
209.284	35.14
209.504	-5.97
209.724	-11.71
209.944	-22.43
210.164	-28.77
210.384	-19.79
210.604	-25.94
210.823	-40.85
211.043	-12.63
211.263	-52.95
211.483	-44.22
211.703	-26.7
211.922	-21.13
212.142	-18.98
212.362	21.22
212.582	26.5
212.801	40.76
213.021	30.34
213.241	4.07
213.461	-23.22
213.68	-4.08
213.9	-8.02
214.12	-9.96
214.339	0.31
214.559	19.7
214.779	11.28
214.998	27.39
215.218	43.4
215.438	30.29
215.657	25.77
215.877	16.17
216.096	15.73
216.316	10.62
216.535	9.54
216.755	5.13
216.974	11.38
217.194	-6.75
217.413	-17.22
217.633	-10.31
217.852	-1.75
218.072	0.55
218.291	-12.46
218.511	-15.27
218.73	-24.02
218.95	-69.82
219.169	-89.06
219.389	-31.6
219.608	-16.07
219.827	-0.71
220.047	21.62
220.266	42.7
220.485	13.06
220.705	37.7
220.924	41.99
221.143	42.61
221.363	45.2
221.582	48.3
221.801	39.95
222.021	35.76
222.24	44.57
222.459	39.28
222.678	46.1
222.897	35.39
223.117	44.73
223.336	51.73
223.555	38.16
223.774	26.78
223.993	36.91
224.213	26.3
224.432	15.46
224.651	13.11
224.87	23.54
225.089	18.79
225.308	28.98
225.527	14.03
225.746	20.77
225.965	12.18
226.184	-6.84
226.404	-14.4
226.623	-4.08
226.842	-1.56
227.061	2.39
227.28	26.75
227.499	25.97
227.718	24.01
227.936	19.77
228.155	23.62
228.374	14.15
228.593	21.82
228.812	33.85
229.031	44.13
229.25	30.24
229.469	34.66
229.688	29.19
229.907	27.05
230.125	19.63
230.344	22.86
230.563	20.97
230.782	14.96
231.001	1.93
231.22	12.01
231.438	27.18
231.657	26.05
231.876	16.88
232.095	40.9
232.313	28.28
232.532	12.96
232.751	14.73
232.969	20.97
233.188	3.21
233.407	5.62
233.625	6.06
233.844	-8.47
234.063	-5.78
234.281	-15.96
234.5	-10.22
234.719	1.8
234.937	4.47
235.156	6.42
235.374	9.78
235.593	25.65
235.811	29.95
236.03	12.1
236.249	24.61
236.467	33.97
236.686	6.21
236.904	-0.95
237.123	18.84
237.341	4.86
237.559	-14.08
237.778	26.02
237.996	0.17
238.215	-52.52
238.433	-65.27
238.652	-3.4
238.87	-25.54
239.088	0.48
239.307	28.8
239.525	31.85
239.743	16.27
239.962	11.76
240.18	23.68
240.398	21.44
240.617	10.67
240.835	40.96
241.053	34.89
241.271	16.17
241.49	24.75
241.708	17.21
241.926	10
242.144	10.5
242.363	18.24
242.581	-20.75
242.799	-1.47
243.017	-1.52
243.235	7.8
243.453	-0.6
243.672	8.81
243.89	2.88
244.108	5.09
244.326	13.79
244.544	13.35
244.762	6.66
244.98	13.68
245.198	21.82
245.416	24.38
245.634	44.11
245.852	29.62
246.07	34.66
246.288	35.29
246.506	31.8
246.724	23.25
246.942	47.08
247.16	40.44
247.378	14.58
247.596	25.44
247.814	-8.33
248.032	-5.88
248.25	12.68
248.468	37.37
248.685	28.55
248.903	22.45
249.121	23.15
249.339	24.42
249.557	18.26
249.775	25.01
249.992	33.92
250.21	28.64
250.428	32.23
250.646	22.07
250.863	6.52
251.081	3.55
251.299	2.41
251.517	-3.33
251.734	8.3
251.952	14.6
252.17	16.06
252.387	9.26
252.605	12.7
252.823	-1.41
253.04	6.92
253.258	14.54
253.475	28.89
253.693	13.82
253.911	16.41
254.128	14.74
254.346	30.17
254.563	28.87
254.781	29.86
254.998	33.58
255.216	22.54
255.433	-24.65
255.651	-25.16
255.868	-33.63
256.086	-22.64
256.303	-6.55
256.521	13.37
256.738	19.74
256.956	29.83
257.173	2.69
257.39	2.49
257.608	0.56
257.825	3.59
258.043	11.85
258.26	22.99
258.477	22.5
258.695	19.26
258.912	14.33
259.129	-18.25
259.346	-21.07
259.564	2.73
259.781	-1.84
259.998	9.14
260.216	47.97
260.433	27.87
260.65	23.84
260.867	27.65
261.084	22.14
261.302	6.4
261.519	31.07
261.736	18.39
261.953	19.47
262.17	23.3
262.387	24.16
262.604	29.18
262.822	38.6
263.039	36.77
263.256	23.32
263.473	20.8
263.69	15.04
263.907	17.9
264.124	29.03
264.341	45.72
264.558	32.98
264.775	57.8
264.992	29.45
265.209	-1.42
265.426	-21.05
265.643	-1.1
265.86	-67.38
266.077	-42.94
266.294	-14.35
266.51	4.09
266.727	1.48
266.944	33.02
267.161	34.66
267.378	39.13
267.595	34.01
267.812	23.61
268.028	-0.3
268.245	7.49
268.462	19.36
268.679	29.81
268.896	43.84
269.112	38.03
269.329	16.71
269.546	8.37
269.763	0.65
269.979	-3.39
270.196	0.25
270.413	-1.16
270.629	-11.65
270.846	-8.04
271.063	-9.96
271.279	-12.58
271.496	-6.83
271.712	-0.26
271.929	9.05
272.146	17.21
272.362	27.63
272.579	25.82
272.795	35.5
273.012	13.97
273.228	31.35
273.445	31.83
273.661	18.91
273.878	11.12
274.094	31.61
274.311	24.91
274.527	9.87
274.744	23.4
274.96	24.84
275.177	15.9
275.393	4.99
275.609	14.59
275.826	11.72
276.042	5.89
276.259	7.19
276.475	-6.59
276.691	-20.27
276.908	-16.17
277.124	-11.72
277.34	-24.24
277.557	-23.25
277.773	-20.69
277.989	-17.67
278.205	-26.97
278.422	-24.36
278.638	-20.38
278.854	-7.82
279.07	2.22
279.286	2.15
279.503	12.67
279.719	25.7
279.935	20.75
280.151	9.19
280.367	15.64
280.583	9.76
280.799	4.78
281.016	-32.61
281.232	-18.73
281.448	-27.89
281.664	-3.55
281.88	15.17
282.096	29.84
282.312	21.29
282.528	29.07
282.744	21.83
282.96	-19.96
283.176	-24.01
283.392	-21.3
283.608	-14.41
283.824	-45.25
284.04	-49.76
284.256	-23.76
284.471	3.31
284.687	-2.66
284.903	5.87
285.119	33.15
285.335	41.84
285.551	26.31
285.767	38.28
285.982	46.05
286.198	5.8
286.414	-13.9
286.63	-3.66
286.846	-3.19
287.061	3.34
287.277	20.49
287.493	24.34
287.709	22
287.924	21.49
288.14	18.47
288.356	24.3
288.571	15.96
288.787	6.38
289.003	6.32
289.218	-5.15
289.434	-23.53
289.65	2.65
289.865	2.7
290.081	-1.84
290.296	14.76
290.512	17.81
290.727	0.34
290.943	8.5
291.159	7.38
291.374	-8.73
291.59	2.79
291.805	2.4
292.021	7.47
292.236	18.99
292.451	35.03
292.667	36.01
292.882	35.99
293.098	37.09
293.313	20.41
293.529	14.02
293.744	7.06
293.959	16.98
294.175	15.99
294.39	-0.27
294.605	16.75
294.821	13.55
295.036	7.9
295.251	8.35
295.467	9.5
295.682	7.39
295.897	12.76
296.112	6.08
296.328	15.67
296.543	25.67
296.758	3.05
296.973	-2.23
297.188	1.32
297.404	-29.17
297.619	-26.17
297.834	-32.8
298.049	-43.03
298.264	-40.58
298.479	-26.37
298.694	10.7
298.909	20.27
299.125	25.12
299.34	30.73
299.555	33.31
299.77	30.72
299.985	26.85
300.2	30.18
300.415	35.27
300.63	28.1
300.845	19.18
301.06	15.6
301.275	15.1
301.49	9.82
301.704	18.17
301.919	8.65
302.134	11.9
302.349	14.53
302.564	24.21
302.779	8.78
302.994	41.31
303.209	46.31
303.423	39.31
303.638	42.47
303.853	41.98
304.068	6.49
304.283	15.47
304.497	5.88
304.712	-3.78
304.927	8.14
305.142	15.96
305.356	17.86
305.571	21.17
305.786	11.15
306	14.99
306.215	18.86
306.43	7.94
306.644	13
306.859	25.43
307.074	37.96
307.288	27.63
307.503	40.71
307.717	26.31
307.932	31.42
308.147	21.58
308.361	23.64
308.576	-5.08
308.79	3.82
309.005	-12.73
309.219	-12.1
309.434	-14.91
309.648	-1.91
309.863	3.56
310.077	21.09
310.292	34.56
310.506	35.5
310.72	38.77
310.935	55.61
311.149	49.69
311.364	46.81
311.578	52.74
311.792	59.29
312.007	40.23
312.221	-0.88
312.435	20.73
312.649	14.63
312.864	15.49
313.078	25.98
313.292	39.46
313.507	30.13
313.721	26.28
313.935	36.47
314.149	17.53
314.363	26.42
314.578	36.81
314.792	24.23
315.006	-1.99
315.22	14.48
315.434	13.89
315.648	2.98
315.862	15.69
316.077	14.87
316.291	14.36
316.505	-0.75
316.719	5.19
316.933	11.28
317.147	14.14
317.361	18.53
317.575	23.62
317.789	10.73
318.003	11.17
318.217	14.45
318.431	4.31
318.645	-9.46
318.859	2.05
319.073	-5.29
319.287	2.09
319.5	2.25
319.714	8.2
319.928	3.61
320.142	2.59
320.356	-4.7
320.57	-17.38
320.784	-15.07
320.997	-28.77
321.211	-11.07
321.425	-31.18
321.639	-7.62
321.853	4.44
322.066	3.65
322.28	-0.57
322.494	13.1
322.707	18.64
322.921	0.86
323.135	12.96
323.349	15.56
323.562	24.86
323.776	17.1
323.989	50.14
324.203	30.03
324.417	30.22
324.63	18.39
324.844	9.52
325.057	-15.99
325.271	19.95
325.485	32.07
325.698	45.41
325.912	61.02
326.125	58.2
326.339	48.99
326.552	39.12
326.766	28.89
326.979	21.28
327.193	0.65
327.406	-16.33
327.619	-0.73
327.833	-9.32
328.046	8.08
328.26	19.35
328.473	39.94
328.686	43.17
328.9	53.07
329.113	38.85
329.326	33.92
329.54	28.13
329.753	22
329.966	4.77
330.179	13.83
330.393	8.92
330.606	3.34
330.819	-9.02
331.032	-8.17
331.246	-8.01
331.459	7.63
331.672	4.98
331.885	11.44
332.098	36.37
332.311	14.53
332.525	11.95
332.738	7.32
332.951	-2.86
333.164	-0.43
333.377	13.08
333.59	-5.14
333.803	0.44
334.016	17.95
334.229	11.15
334.442	10.5
334.655	12.74
334.868	1.84
335.081	-5.76
335.294	-19.97
335.507	-18.23
335.72	-9.32
335.933	3.32
336.146	13.47
336.359	27.85
336.572	28.43
336.785	34.29
336.997	38.5
337.21	35.49
337.423	-0.37
337.636	11.24
337.849	-12.91
338.062	3.62
338.274	-1.87
338.487	-2.03
338.7	-25.19
338.913	-2.73
339.125	-38.12
339.338	-31.45
339.551	-16.95
339.763	-11.11
339.976	-18.14
340.189	-8.87
340.402	3.51
340.614	12.69
340.827	37.89
341.039	44.76
341.252	55.64
341.465	32.7
341.677	32.44
341.89	15.69
342.102	29.46
342.315	13.11
342.527	17.5
342.74	-2.04
342.952	-13.84
343.165	-22.52
343.377	-15.8
343.59	-11
343.802	-2.65
344.015	11.91
344.227	7.9
344.44	6.92
344.652	28.22
344.864	31.98
345.077	30.57
345.289	35.05
345.502	45.03
345.714	26.55
345.926	16.74
346.139	13.82
346.351	18
346.563	9.06
346.775	17.91
346.988	43.04
347.2	30.69
347.412	34.22
347.624	33.46
347.837	39.58
348.049	18.5
348.261	16.79
348.473	-9.51
348.685	-14.66
348.897	-37.93
349.11	-8.98
349.322	4.8
349.534	12.09
349.746	21.95
349.958	15.84
350.17	-4
350.382	-9.5
350.594	-0.07
350.806	5.79
351.018	17.6
351.23	19.68
351.442	31.62
351.654	34.79
351.866	40.86
352.078	45.63
352.29	54.49
352.502	44.72
352.714	55.7
352.926	26.8
353.138	19.39
353.35	7.33
353.561	4.86
353.773	0.19
353.985	15.8
354.197	17.84
354.409	24.27
354.621	26.56
354.832	17.84
355.044	1.24
355.256	3.78
355.468	-9.96
355.679	8.38
355.891	15.98
356.103	17.25
356.314	6.19
356.526	-8.37
356.738	-6.44
356.949	-13.64
357.161	-5.92
357.373	-1.39
357.584	20.67
357.796	12.69
358.008	28.07
358.219	22.65
358.431	29.48
358.642	35.02
358.854	37
359.065	30.56
359.277	30.46
359.488	22.52
359.7	9.66
359.911	9.97
360.123	21.84
360.334	23.06
360.546	30.46
360.757	41.34
360.969	44.91
361.18	41.4
361.391	44
361.603	32.86
361.814	35.32
362.025	35.22
362.237	35.01
362.448	36.51
362.659	38.82
362.871	22.86
363.082	13.63
363.293	-6.57
363.504	-30.8
363.716	-28.32
363.927	7.65
364.138	-4.39
364.349	-2.22
364.56	5.54
364.772	27.02
364.983	18.17
365.194	25.92
365.405	36.74
365.616	41.69
365.827	18.3
366.038	25.9
366.25	29.24
366.461	30.55
366.672	23.63
366.883	23.46
367.094	20.11
367.305	5.38
367.516	7.2
367.727	-5.78
367.938	1.12
368.149	0.24
368.36	8.86
368.571	-16.93
368.781	-15.22
368.992	-21.09
369.203	-31.37
369.414	-31.72
369.625	-20.75
369.836	3.78
370.047	19.66
370.258	16.78
370.468	8.51
370.679	6.49
370.89	-8.66
371.101	-5.23
371.312	0.96
371.522	5.55
371.733	9.41
371.944	-3.97
372.155	-0.54
372.365	6.76
372.576	-1.29
372.787	9.2
372.997	22.94
373.208	15.7
373.419	7.75
373.629	11.08
373.84	2.62
374.05	2.71
374.261	-12.32
374.472	2.83
374.682	14.93
374.893	12.39
375.103	17.99
375.314	26.48
375.524	13.88
375.735	18.83
375.945	25.66
376.156	22.25
376.366	19.19
376.577	29.27
376.787	31.36
376.997	34.86
377.208	35.1
377.418	32.78
377.629	25.43
377.839	22.03
378.049	19
378.26	5.95
378.47	12.91
378.68	14.08
378.89	13.88
379.101	13.73
379.311	24.47
379.521	14.47
379.732	17.66
379.942	12.33
380.152	2.47
380.362	-0.9
380.572	7.3
380.783	3.07
380.993	9.59
381.203	12.21
381.413	21.51
381.623	21.06
381.833	28.17
382.043	23.8
382.253	25.82
382.463	24.85
382.674	27.11
382.884	29.84
383.094	26.69
383.304	29.76
383.514	28.55
383.724	22.21
383.934	10.68
384.144	18.69
384.353	21.2
384.563	14.44
384.773	15.44
384.983	14.91
385.193	2.44
385.403	-5.64
385.613	-1.73
385.823	-4.31
386.033	3.74
386.242	6.73
386.452	5.18
386.662	7.09
386.872	5.98
387.082	1.76
387.291	1.98
387.501	4.69
387.711	1.65
387.921	7.46
388.13	9.65
388.34	14.09
388.55	6.45
388.759	4.23
388.969	-0.07
389.179	-2.06
389.388	-6.6
389.598	-1.35
389.807	-1.19
390.017	-1.38
390.227	-4.14
390.436	-1.52
390.646	-0.78
390.855	-0.88
391.065	-0.33
391.274	1.88
391.484	-1.45
391.693	-2.59
391.903	-1.32
392.112	-1.99
392.322	-2.03
392.531	-0.33
392.74	-1.41
392.95	-0.88
393.159	-0.95
393.369	-0.43
393.578	0.03
393.787	1.02
393.997	1.25
394.206	1.94
394.415	2.87
394.625	1.36
394.834	0.71
395.043	0.4
395.252	2.04
395.462	2.01
395.671	2.1
395.88	4.14
396.089	3.62
396.298	2.35
396.508	2.25
396.717	2.95
396.926	2.26
397.135	2.8
397.344	2.46
397.553	1.92
397.762	2.45
397.971	2.14
398.181	1.92
398.39	2.16
398.599	2.46
398.808	2.36
399.017	3.61
399.226	3.74
399.435	3.63
399.644	3.8
399.853	3.62
400.062	2.82
400.27	1.91
400.479	1.85
400.688	1.67
400.897	1.49
401.106	1.4
401.315	1.83
401.524	2.2
401.733	1.96
401.941	1.83
402.15	1.79
402.359	2.05
402.568	1.81
402.777	2.04
402.985	1.85
403.194	1.95
403.403	1.99
403.612	2.07
403.82	1.76
404.029	2.21
404.238	2.21
404.446	2.26
404.655	2.15
404.864	2.48
405.072	2.35
405.281	2.21
405.489	2.22
405.698	2.36
405.906	2.36
406.115	2.27
406.324	2.3
406.532	2.18
406.741	2.06
406.949	2.02
407.158	2.18
407.366	2.04
407.574	2.1
407.783	2.16
407.991	2.06
408.2	2.01
408.408	2.11
408.617	2.05
408.825	1.95
409.033	1.99
409.242	2.1
409.45	2.12
409.658	2.03
409.867	2.08
410.075	2.15
410.283	1.97
410.491	1.86
410.7	1.81
410.908	1.91
411.116	1.87
411.324	1.91
411.533	1.93
411.741	2
411.949	2.08
412.157	1.9
412.365	1.97
412.573	2
412.781	1.95
412.99	1.8
413.198	1.95
413.406	1.97
413.614	1.98
413.822	2.18
414.03	2.27
414.238	2.24
414.446	2.26
414.654	2.18
414.862	2.04
415.07	1.81
415.278	1.88
415.486	1.69
415.694	1.84
415.902	1.77
416.109	1.89
416.317	1.88
416.525	1.92
416.733	1.74
416.941	1.88
417.149	1.77
417.357	1.66
417.564	1.53
417.772	1.74
417.98	1.62
418.188	1.57
418.395	1.43
418.603	1.38
418.811	1.31
419.019	1.41
419.226	1.52
419.434	1.76
419.642	1.78
419.849	1.69
420.057	1.5
420.265	1.46
420.472	1.31
420.68	1.41
420.887	1.5
421.095	1.6
421.302	1.65
421.51	1.59
421.717	1.63
421.925	1.6
422.132	1.64
422.34	1.5
422.547	1.48
422.755	1.46
422.962	1.54
423.17	1.44
423.377	1.58
423.585	1.77
423.792	1.81
423.999	1.75
424.207	1.71
424.414	1.63
424.621	1.62
424.829	1.83
425.036	1.84
425.243	2.01
425.451	2.18
425.658	2.13
425.865	1.89
426.072	1.81
426.28	1.8
426.487	1.73
426.694	1.7
426.901	1.73
427.108	1.8
427.315	1.67
427.523	1.63
427.73	1.72
427.937	1.6
428.144	1.63
428.351	1.7
428.558	1.68
428.765	1.45
428.972	1.53
429.179	1.25
429.386	1.29
429.593	1.2
429.8	1.25
430.007	1.3
430.214	1.58
430.421	1.56
430.628	1.69
430.835	1.77
431.042	1.63
431.249	1.65
431.456	1.72
431.662	1.69
431.869	1.82
432.076	1.86
432.283	1.85
432.49	1.74
432.697	1.69
432.903	1.67
433.11	1.8
433.317	1.83
433.524	1.94
433.73	1.89
433.937	1.94
434.144	1.76
434.35	1.62
434.557	1.58
434.764	1.79
434.97	1.5
435.177	1.6
435.384	1.68
435.59	1.76
435.797	1.65
436.003	1.89
436.21	1.93
436.416	2.05
436.623	1.97
436.829	2.06
437.036	1.99
437.242	2.01
437.449	1.85
437.655	1.93
437.862	1.96
438.068	1.96
438.275	1.97
438.481	2.02
438.687	1.99
438.894	2.07
439.1	2.1
439.307	2.16
439.513	2.18
439.719	2.19
439.926	2.03
440.132	2.11
440.338	2.04
440.544	2.02
440.751	1.94
440.957	1.99
441.163	1.86
441.369	1.87
441.575	1.79
441.782	1.91
441.988	1.89
442.194	1.96
442.4	1.89
442.606	2.14
442.812	2.11
443.018	2.11
443.224	2.2
443.431	2.24
443.637	2.04
443.843	2
444.049	2.06
444.255	2.1
444.461	2.06
444.667	2.14
444.873	2.2
445.079	2.19
445.284	2.06
445.49	2.09
445.696	2.06
445.902	2.06
446.108	2.01
446.314	2
446.52	2.1
446.726	2.17
446.931	2.07
447.137	2.14
447.343	2.23
447.549	2.24
447.755	2.23
447.96	2.31
448.166	2.31
448.372	2.3
448.578	2.19
448.783	2.12
448.989	2.14
449.195	2.09
449.4	2.13
449.606	2.18
449.812	2.14
450.017	2.17
450.223	2.15
450.428	2.13
450.634	2.13
450.84	2.2
451.045	2.16
451.251	2.22
451.456	2.27
451.662	2.28
451.867	2.28
452.073	2.36
452.278	2.3
452.483	2.28
452.689	2.28
452.894	2.33
453.1	2.27
453.305	2.28
453.51	2.26
453.716	2.27
453.921	2.35
454.127	2.4
454.332	2.44
454.537	2.39
454.742	2.37
454.948	2.29
455.153	2.23
455.358	2.28
455.563	2.35
455.769	2.35
455.974	2.3
456.179	2.25
456.384	2.2
456.589	2.19
456.795	2.19
457	2.23
457.205	2.2
457.41	2.19
457.615	2.19
457.82	2.33
458.025	2.36
458.23	2.39
458.435	2.43
458.64	2.39
458.845	2.32
459.05	2.34
459.255	2.34
459.46	2.36
459.665	2.41
459.87	2.31
460.075	2.35
460.28	2.39
460.485	2.47
460.69	2.49
460.895	2.63
461.099	2.57
461.304	2.52
461.509	2.46
461.714	2.52
461.919	2.44
462.123	2.45
462.328	2.36
462.533	2.35
462.738	2.27
462.942	2.24
463.147	2.21
463.352	2.37
463.556	2.43
463.761	2.44
463.966	2.47
464.17	2.58
464.375	2.65
464.58	2.58
464.784	2.57
464.989	2.58
465.193	2.54
465.398	2.55
465.602	2.72
465.807	2.75
466.011	2.83
466.216	2.86
466.42	2.87
466.625	2.94
466.829	2.93
467.034	2.98
467.238	2.99
467.443	3
467.647	2.87
467.851	2.94
468.056	2.95
468.26	2.9
468.464	2.94
468.669	3.03
468.873	3.05
