Data from Ofra_2a_PS_2CX12_Reflection_1.txt Node
Date: Tue Jul 20 09:37:56 EDT 2021
User: Adam
Spectrometer: FLMT01687
Trigger mode: 0
Integration Time (sec): 9.450000E-1
Scans to average: 3
Electric dark correction enabled: true
Nonlinearity correction enabled: false
Boxcar width: 3
XAxis mode: Wavelengths
Number of Pixels in Spectrum: 3648
>>>>>Begin Spectral Data<<<<<
179.494	718.93
179.716	429.93
179.937	428.57
180.158	1950
180.38	-1039.53
180.601	-148.33
180.823	-63.29
181.044	-70.52
181.265	-109.09
181.486	-14.72
181.708	-339.13
181.929	39.07
182.15	231.82
182.372	-64.98
182.593	-32.88
182.814	220.96
183.035	270.25
183.257	131.19
183.478	98.56
183.699	66.35
183.92	55.07
184.141	62.92
184.363	68.12
184.584	39.97
184.805	49.9
185.026	42.45
185.247	39.29
185.468	41.1
185.689	38.29
185.91	16.61
186.132	24.45
186.353	6.39
186.574	16.99
186.795	14.41
187.016	0.94
187.237	-7
187.458	-11.23
187.679	-30.67
187.9	-20.98
188.121	-22.71
188.342	-4.16
188.563	12.32
188.784	6.6
189.005	19.63
189.226	21.69
189.447	16.59
189.667	11.31
189.888	22.45
190.109	13.22
190.33	12.83
190.551	15.41
190.772	16.4
190.993	30.88
191.214	36.9
191.434	29.58
191.655	35.14
191.876	34.24
192.097	25.26
192.318	32.9
192.538	29.77
192.759	30.79
192.98	27.25
193.201	40.6
193.421	46.95
193.642	44.83
193.863	34.32
194.083	24.47
194.304	15.73
194.525	31.72
194.745	5.12
194.966	5.84
195.187	18.21
195.407	20.45
195.628	18.91
195.848	24.91
196.069	17.65
196.29	12.2
196.51	-1.14
196.731	-7.32
196.951	-0.6
197.172	-0.67
197.392	12.5
197.613	8.27
197.833	6.95
198.054	8.77
198.274	10.73
198.495	5.53
198.715	-3.02
198.936	-40.03
199.156	-33.79
199.377	-11.77
199.597	-7.44
199.817	2.35
200.038	12.61
200.258	19.36
200.479	29.14
200.699	34.5
200.919	25.73
201.14	30.55
201.36	29.28
201.58	24.88
201.801	16.75
202.021	20.66
202.241	22.63
202.461	27.34
202.682	37.38
202.902	36.38
203.122	29.42
203.342	50.69
203.563	47.1
203.783	41.93
204.003	37.93
204.223	31.25
204.443	33.29
204.663	39.29
204.884	27.73
205.104	32.82
205.324	49.23
205.544	49.84
205.764	45.6
205.984	37.91
206.204	33.63
206.424	30.81
206.644	19.89
206.864	6.09
207.084	28.11
207.304	26.97
207.525	26.85
207.745	27.58
207.964	34.54
208.184	33.11
208.404	35.05
208.624	7.17
208.844	2.01
209.064	-4.99
209.284	-4.45
209.504	-3.2
209.724	-21.02
209.944	-29.95
210.164	-17.61
210.384	-8.35
210.604	-4.49
210.823	7.57
211.043	-12.39
211.263	15.27
211.483	29.77
211.703	34.6
211.922	38.23
212.142	36.05
212.362	31.67
212.582	41.46
212.801	36.15
213.021	31.24
213.241	23.97
213.461	22.06
213.68	39.3
213.9	50.02
214.12	35.03
214.339	25.96
214.559	28.41
214.779	36.83
214.998	28.79
215.218	23.02
215.438	26.06
215.657	35.01
215.877	35.5
216.096	34.18
216.316	28.43
216.535	38.58
216.755	14.59
216.974	6.62
217.194	6.32
217.413	22.12
217.633	14.37
217.852	7.95
218.072	1.07
218.291	34.65
218.511	26.51
218.73	20.05
218.95	18.93
219.169	25.24
219.389	23.51
219.608	19.53
219.827	8.22
220.047	25.65
220.266	29.83
220.485	30.8
220.705	17.93
220.924	17.87
221.143	16.86
221.363	13.39
221.582	4.53
221.801	10.8
222.021	7.61
222.24	12.25
222.459	15.31
222.678	18.22
222.897	17.18
223.117	19.44
223.336	8.91
223.555	-2.36
223.774	4.87
223.993	25.16
224.213	18.81
224.432	28.72
224.651	31.63
224.87	31.75
225.089	41.19
225.308	36.58
225.527	30.07
225.746	36.28
225.965	23.64
226.184	13.56
226.404	6.86
226.623	11.52
226.842	7.62
227.061	19.54
227.28	23.48
227.499	32.12
227.718	34.01
227.936	31.58
228.155	27.9
228.374	37.24
228.593	16.37
228.812	6.13
229.031	-2.37
229.25	11.72
229.469	21.2
229.688	25.46
229.907	19.3
230.125	30.27
230.344	39.62
230.563	40.03
230.782	20.29
231.001	22.64
231.22	18.98
231.438	23.41
231.657	23.85
231.876	21.32
232.095	22.5
232.313	37
232.532	32.32
232.751	32.45
232.969	36.57
233.188	36.88
233.407	40.63
233.625	34.38
233.844	24.96
234.063	26.48
234.281	21.21
234.5	22.55
234.719	22.35
234.937	23.5
235.156	27.97
235.374	26.31
235.593	22.54
235.811	27.6
236.03	18.72
236.249	24.95
236.467	23.92
236.686	30.42
236.904	30.09
237.123	38.48
237.341	39.82
237.559	45.2
237.778	44.26
237.996	48.54
238.215	40.83
238.433	50.49
238.652	43.97
238.87	43.85
239.088	34.07
239.307	29.39
239.525	20.99
239.743	12.26
239.962	9.6
240.18	9.92
240.398	13.07
240.617	20.71
240.835	14.67
241.053	28.75
241.271	44.47
241.49	32.34
241.708	31.48
241.926	23.97
242.144	21.57
242.363	26.93
242.581	11.94
242.799	6.15
243.017	13.9
243.235	11.08
243.453	11.43
243.672	17.66
243.89	19.57
244.108	36.5
244.326	33.24
244.544	38.81
244.762	46.16
244.98	38.47
245.198	28.12
245.416	29.73
245.634	21.92
245.852	28.58
246.07	25.46
246.288	9.07
246.506	18.2
246.724	35.24
246.942	41.18
247.16	39.32
247.378	23.97
247.596	25.13
247.814	15.62
248.032	22.46
248.25	10.09
248.468	3.47
248.685	11.34
248.903	14.14
249.121	15.45
249.339	23.19
249.557	26.87
249.775	16.8
249.992	19.16
250.21	4.52
250.428	7.35
250.646	8.03
250.863	12.15
251.081	-0.63
251.299	17.72
251.517	14.06
251.734	16.02
251.952	26.58
252.17	15.96
252.387	17.07
252.605	22.51
252.823	14.35
253.04	10.2
253.258	17.64
253.475	4.27
253.693	18.13
253.911	21.53
254.128	15.83
254.346	12.41
254.563	11.26
254.781	11.08
254.998	15.34
255.216	14.35
255.433	7.86
255.651	12.28
255.868	13.7
256.086	16.76
256.303	13.84
256.521	10.16
256.738	5.34
256.956	9.93
257.173	4.73
257.39	18.63
257.608	21.32
257.825	16.84
258.043	20.71
258.26	26.29
258.477	26.3
258.695	30.12
258.912	32.19
259.129	24.3
259.346	31.37
259.564	29.62
259.781	30.23
259.998	30.24
260.216	30.39
260.433	32.31
260.65	34.16
260.867	28.51
261.084	38.99
261.302	33.05
261.519	26.87
261.736	33.2
261.953	20.3
262.17	21.64
262.387	27.67
262.604	3.64
262.822	12.87
263.039	21
263.256	8.28
263.473	6.86
263.69	2.23
263.907	3.73
264.124	12.52
264.341	2.03
264.558	2
264.775	13.56
264.992	11.94
265.209	26.55
265.426	25.44
265.643	28.24
265.86	26.92
266.077	27.05
266.294	24.53
266.51	30.01
266.727	22.28
266.944	-31.24
267.161	-36.24
267.378	-50.62
267.595	-49.39
267.812	-58.21
268.028	-60.17
268.245	-54.62
268.462	-2.64
268.679	-5.45
268.896	0.25
269.112	14.5
269.329	24.12
269.546	20.18
269.763	22.33
269.979	10.62
270.196	17.97
270.413	16.64
270.629	11.32
270.846	11.29
271.063	12.72
271.279	8.67
271.496	8.49
271.712	1.18
271.929	9.36
272.146	7.49
272.362	-7.1
272.579	-1.86
272.795	0.98
273.012	6.8
273.228	8.83
273.445	6.79
273.661	5.81
273.878	14.39
274.094	10.96
274.311	6.79
274.527	8.82
274.744	6.08
274.96	6.82
275.177	5.83
275.393	0.53
275.609	8.76
275.826	21.04
276.042	33.31
276.259	37.45
276.475	35.25
276.691	33.42
276.908	37.12
277.124	33.22
277.34	25.2
277.557	13.6
277.773	3.1
277.989	5.08
278.205	-8.7
278.422	0.09
278.638	16.52
278.854	15.11
279.07	9.57
279.286	18
279.503	17.46
279.719	33.82
279.935	11.36
280.151	3.76
280.367	7.99
280.583	17.08
280.799	19.35
281.016	16.08
281.232	11.03
281.448	18.44
281.664	9.31
281.88	10.76
282.096	14.84
282.312	7.86
282.528	6.08
282.744	16.17
282.96	15.75
283.176	20.63
283.392	25.68
283.608	18.86
283.824	19.86
284.04	24.85
284.256	17.08
284.471	26.54
284.687	25.06
284.903	25.4
285.119	17.04
285.335	17.93
285.551	22.64
285.767	22.04
285.982	8.25
286.198	9.44
286.414	16.36
286.63	23.33
286.846	21.8
287.061	20.08
287.277	23.33
287.493	28.35
287.709	23.13
287.924	21.71
288.14	23.18
288.356	30.11
288.571	17.52
288.787	20.02
289.003	25.03
289.218	33.76
289.434	26.38
289.65	27.54
289.865	25.48
290.081	36.5
290.296	34.37
290.512	32.39
290.727	31.79
290.943	33.39
291.159	27.72
291.374	32.36
291.59	26.31
291.805	28.24
292.021	27.58
292.236	21.95
292.451	10.84
292.667	22.9
292.882	9.03
293.098	2.74
293.313	-3.6
293.529	2.89
293.744	7.3
293.959	23.61
294.175	22.29
294.39	38.66
294.605	41.27
294.821	42.72
295.036	42.15
295.251	37.37
295.467	27.96
295.682	24.11
295.897	18.66
296.112	24.36
296.328	28.49
296.543	16.04
296.758	20.29
296.973	18.41
297.188	13.43
297.404	21.47
297.619	19.21
297.834	18.55
298.049	32.79
298.264	28.77
298.479	18.93
298.694	22.94
298.909	14.94
299.125	16.54
299.34	14.74
299.555	16.03
299.77	9.56
299.985	14.69
300.2	14.88
300.415	13.12
300.63	7.84
300.845	14.3
301.06	9.39
301.275	18.28
301.49	26.55
301.704	31.65
301.919	38.61
302.134	35.35
302.349	32.04
302.564	45.07
302.779	36.21
302.994	32.87
303.209	18.27
303.423	21.92
303.638	26.52
303.853	35.31
304.068	23.63
304.283	26.41
304.497	26
304.712	28.46
304.927	15.84
305.142	21.51
305.356	15.66
305.571	16.89
305.786	12.89
306	11.28
306.215	14.54
306.43	36.08
306.644	28.78
306.859	25.81
307.074	25.98
307.288	35.24
307.503	32.53
307.717	27.56
307.932	22.77
308.147	23.85
308.361	22.37
308.576	17.11
308.79	16.76
309.005	17.42
309.219	20.78
309.434	15.22
309.648	9.68
309.863	8.97
310.077	7.33
310.292	6.74
310.506	22.95
310.72	24.42
310.935	24.39
311.149	26.38
311.364	34.46
311.578	37.31
311.792	30.8
312.007	19.04
312.221	16.27
312.435	11.6
312.649	16.94
312.864	3.77
313.078	5.16
313.292	3.19
313.507	15.61
313.721	11.71
313.935	38.05
314.149	34.06
314.363	41.42
314.578	40.15
314.792	40.23
315.006	36.37
315.22	43.04
315.434	25.12
315.648	18.64
315.862	15.64
316.077	18.2
316.291	28.72
316.505	26.05
316.719	13.1
316.933	19.16
317.147	16.03
317.361	23.11
317.575	23.33
317.789	10.5
318.003	6.95
318.217	21.76
318.431	24.39
318.645	25.12
318.859	13.51
319.073	15.81
319.287	22.89
319.5	19.49
319.714	12.66
319.928	15.92
320.142	13.48
320.356	25.29
320.57	16.24
320.784	12.69
320.997	21.03
321.211	18.87
321.425	7.41
321.639	18.45
321.853	11.74
322.066	15.94
322.28	22.13
322.494	22.14
322.707	26.36
322.921	33.48
323.135	30.49
323.349	32.33
323.562	34.91
323.776	27.75
323.989	27.53
324.203	33.41
324.417	24.62
324.63	17.33
324.844	1.83
325.057	4.33
325.271	0.64
325.485	-3.23
325.698	-12.98
325.912	-1.14
326.125	7.27
326.339	23.16
326.552	27.5
326.766	36.61
326.979	39.88
327.193	42.84
327.406	38.61
327.619	31.97
327.833	23.48
328.046	11.11
328.26	-6.44
328.473	-8.95
328.686	-11.56
328.9	-18.18
329.113	-7.04
329.326	5.71
329.54	5.01
329.753	12.91
329.966	12.67
330.179	16.6
330.393	22.7
330.606	22.52
330.819	16.9
331.032	19.97
331.246	20.02
331.459	22.9
331.672	20.78
331.885	19.33
332.098	12.81
332.311	3.54
332.525	8.01
332.738	11.73
332.951	12.88
333.164	8.15
333.377	3.58
333.59	10.09
333.803	13.66
334.016	0.53
334.229	-3.23
334.442	3.89
334.655	15.97
334.868	26.36
335.081	28.22
335.294	32.18
335.507	44.56
335.72	38.14
335.933	39.3
336.146	37.93
336.359	34.33
336.572	24.24
336.785	27.11
336.997	16.98
337.21	17.86
337.423	17.28
337.636	12.37
337.849	11.41
338.062	16.62
338.274	19.55
338.487	14.55
338.7	15.8
338.913	5.99
339.125	2.1
339.338	10.18
339.551	10.14
339.763	5.76
339.976	9.09
340.189	14.03
340.402	20.8
340.614	27.16
340.827	12.03
341.039	18.22
341.252	17.39
341.465	12.27
341.677	7.98
341.89	11.1
342.102	14.88
342.315	31.03
342.527	29.43
342.74	27.49
342.952	39.65
343.165	52.06
343.377	48.17
343.59	38.08
343.802	40.71
344.015	39.12
344.227	36.53
344.44	28.64
344.652	21.99
344.864	20.82
345.077	23.27
345.289	20.41
345.502	22.53
345.714	24.36
345.926	26.99
346.139	24.65
346.351	14.19
346.563	21.08
346.775	8.05
346.988	-4.69
347.2	2.25
347.412	3.09
347.624	2.21
347.837	6.09
348.049	6.89
348.261	8.81
348.473	12.17
348.685	18.23
348.897	18.58
349.11	17.08
349.322	20.26
349.534	8.09
349.746	19.02
349.958	27.46
350.17	24.35
350.382	19.22
350.594	28.11
350.806	33.05
351.018	44.11
351.23	38.53
351.442	29.91
351.654	31.63
351.866	40.63
352.078	34.07
352.29	31.62
352.502	24.99
352.714	23.2
352.926	27.16
353.138	22.82
353.35	13.86
353.561	9.32
353.773	10.39
353.985	11.01
354.197	5.87
354.409	6.28
354.621	7.4
354.832	9.94
355.044	20.88
355.256	18.6
355.468	20.92
355.679	19.12
355.891	20.33
356.103	21.08
356.314	18.59
356.526	10.88
356.738	7.8
356.949	4.95
357.161	5.48
357.373	0.58
357.584	8.09
357.796	11.53
358.008	12.87
358.219	20.78
358.431	19.59
358.642	16.56
358.854	16.37
359.065	9.49
359.277	5.16
359.488	7.64
359.7	7.42
359.911	12.48
360.123	22.02
360.334	20.24
360.546	14.89
360.757	22.69
360.969	27.12
361.18	25.74
361.391	18.96
361.603	22.78
361.814	27.7
362.025	30.79
362.237	28.59
362.448	28.61
362.659	16.25
362.871	29.14
363.082	29.16
363.293	32.99
363.504	31.58
363.716	32.8
363.927	28.7
364.138	39.61
364.349	34.93
364.56	28.93
364.772	22.74
364.983	16.21
365.194	10.99
365.405	7.28
365.616	-5.08
365.827	-9.07
366.038	0.6
366.25	5.03
366.461	16.25
366.672	11.91
366.883	22.76
367.094	23.83
367.305	24.89
367.516	17.08
367.727	18.33
367.938	21
368.149	19.65
368.36	13.64
368.571	18.8
368.781	20.23
368.992	22.64
369.203	18.27
369.414	11.08
369.625	17.79
369.836	18.36
370.047	17.06
370.258	10.28
370.468	10.01
370.679	8.81
370.89	20.87
371.101	13.4
371.312	10.24
371.522	9.94
371.733	9.6
371.944	13.25
372.155	8.5
372.365	-6.87
372.576	-2.22
372.787	-2.69
372.997	-2.72
373.208	11.24
373.419	9.21
373.629	17.67
373.84	20.29
374.05	25.39
374.261	19.02
374.472	20.02
374.682	11.59
374.893	6.3
375.103	7.34
375.314	8.03
375.524	3.63
375.735	12.51
375.945	10.65
376.156	9.3
376.366	14.32
376.577	15.6
376.787	18.06
376.997	17.68
377.208	18.83
377.418	18.73
377.629	15.49
377.839	16.98
378.049	13.91
378.26	14.85
378.47	17.69
378.68	9.7
378.89	5.85
379.101	2.67
379.311	-6.08
379.521	-0.89
379.732	-8.06
379.942	-8.26
380.152	1.01
380.362	6.88
380.572	10.45
380.783	10.97
380.993	7.02
381.203	15.11
381.413	19.47
381.623	19.79
381.833	17.97
382.043	16.38
382.253	17.74
382.463	17.77
382.674	14.59
382.884	10.39
383.094	7.09
383.304	5.45
383.514	10.52
383.724	12.49
383.934	15.22
384.144	14.23
384.353	13.47
384.563	12.89
384.773	15.59
384.983	11.58
385.193	12.41
385.403	13.16
385.613	12.86
385.823	9.77
386.033	15.37
386.242	13.8
386.452	13.6
386.662	15.52
386.872	8.82
387.082	8.64
387.291	13.46
387.501	8.67
387.711	6.38
387.921	7.97
388.13	4.35
388.34	6.29
388.55	6.75
388.759	3.47
388.969	2.73
389.179	6.31
389.388	8.3
389.598	8.8
389.807	9.92
390.017	9.61
390.227	9.64
390.436	7.92
390.646	5.96
390.855	4.72
391.065	4.95
391.274	3.19
391.484	4.99
391.693	6.52
391.903	7.55
392.112	6.91
392.322	6.59
392.531	6.38
392.74	5.23
392.95	4.02
393.159	4.29
393.369	4.2
393.578	5
393.787	4.39
393.997	5.48
394.206	6.29
394.415	6.24
394.625	4.02
394.834	3.68
395.043	4.36
395.252	5.7
395.462	4.54
395.671	4.84
395.88	5.12
396.089	6.06
396.298	6.15
396.508	5.57
396.717	4.67
396.926	5.16
397.135	4.92
397.344	4.37
397.553	4.86
397.762	4.96
397.971	5.17
398.181	5.07
398.39	4.52
398.599	4.89
398.808	5.18
399.017	4.9
399.226	5.19
399.435	4.83
399.644	4.79
399.853	5.12
400.062	4.77
400.27	4.56
400.479	4.54
400.688	4.27
400.897	4.53
401.106	4.69
401.315	4.56
401.524	4.74
401.733	5.04
401.941	4.95
402.15	4.8
402.359	4.76
402.568	4.74
402.777	4.71
402.985	4.54
403.194	4.37
403.403	4.13
403.612	4.14
403.82	4.09
404.029	4.01
404.238	4.09
404.446	4.06
404.655	3.84
404.864	3.96
405.072	4.02
405.281	3.9
405.489	3.87
405.698	3.77
405.906	3.75
406.115	3.95
406.324	3.92
406.532	3.89
406.741	4.02
406.949	3.91
407.158	4.03
407.366	4.07
407.574	4.07
407.783	4.08
407.991	4.03
408.2	3.89
408.408	3.93
408.617	3.84
408.825	3.84
409.033	3.74
409.242	3.71
409.45	3.76
409.658	3.76
409.867	3.81
410.075	3.79
410.283	3.73
410.491	3.68
410.7	3.72
410.908	3.76
411.116	3.73
411.324	3.75
411.533	3.67
411.741	3.64
411.949	3.7
412.157	3.72
412.365	3.66
412.573	3.71
412.781	3.69
412.99	3.76
413.198	3.8
413.406	3.75
413.614	3.71
413.822	3.69
414.03	3.64
414.238	3.65
414.446	3.61
414.654	3.6
414.862	3.62
415.07	3.64
415.278	3.61
415.486	3.67
415.694	3.62
415.902	3.6
416.109	3.6
416.317	3.55
416.525	3.53
416.733	3.57
416.941	3.41
417.149	3.44
417.357	3.42
417.564	3.45
417.772	3.46
417.98	3.41
418.188	3.3
418.395	3.32
418.603	3.17
418.811	3.15
419.019	3.11
419.226	3.15
419.434	3.13
419.642	3.19
419.849	3.28
420.057	3.32
420.265	3.37
420.472	3.33
420.68	3.28
420.887	3.35
421.095	3.37
421.302	3.39
421.51	3.46
421.717	3.46
421.925	3.47
422.132	3.41
422.34	3.35
422.547	3.34
422.755	3.32
422.962	3.23
423.17	3.13
423.377	3.27
423.585	3.28
423.792	3.19
423.999	3.16
424.207	3.12
424.414	3.19
424.621	3.38
424.829	3.16
425.036	3.14
425.243	3.2
425.451	3.14
425.658	3.2
425.865	3.12
426.072	3
426.28	3.1
426.487	3.13
426.694	3.12
426.901	3.09
427.108	3.07
427.315	3.06
427.523	3.02
427.73	3.04
427.937	3.03
428.144	3.12
428.351	3.29
428.558	3.23
428.765	3.23
428.972	3.25
429.179	3.17
429.386	3.24
429.593	3.2
429.8	3.17
430.007	3.16
430.214	3.25
430.421	3.25
430.628	3.19
430.835	3.13
431.042	3.13
431.249	3.08
431.456	3.09
431.662	3.08
431.869	3.09
432.076	3.21
432.283	3.17
432.49	3.13
432.697	3.13
432.903	3.16
433.11	3.17
433.317	3.16
433.524	3.06
433.73	3.15
433.937	3.14
434.144	3.21
434.35	3.18
434.557	3.12
434.764	3.13
434.97	3.16
435.177	3.08
435.384	3.16
435.59	3.1
435.797	3.14
436.003	3.14
436.21	3.12
436.416	3.15
436.623	3.21
436.829	3.15
437.036	3.14
437.242	3.11
437.449	3.14
437.655	3.18
437.862	3.16
438.068	3.2
438.275	3.24
438.481	3.32
438.687	3.36
438.894	3.33
439.1	3.37
439.307	3.35
439.513	3.33
439.719	3.32
439.926	3.34
440.132	3.37
440.338	3.42
440.544	3.32
440.751	3.35
440.957	3.32
441.163	3.36
441.369	3.33
441.575	3.28
441.782	3.29
441.988	3.33
442.194	3.42
442.4	3.47
442.606	3.43
442.812	3.44
443.018	3.48
443.224	3.47
443.431	3.49
443.637	3.42
443.843	3.45
444.049	3.44
444.255	3.41
444.461	3.4
444.667	3.41
444.873	3.39
445.079	3.42
445.284	3.34
445.49	3.34
445.696	3.4
445.902	3.4
446.108	3.4
446.314	3.46
446.52	3.48
446.726	3.5
446.931	3.5
447.137	3.47
447.343	3.51
447.549	3.48
447.755	3.39
447.96	3.35
448.166	3.37
448.372	3.4
448.578	3.41
448.783	3.41
448.989	3.48
449.195	3.51
449.4	3.53
449.606	3.53
449.812	3.54
450.017	3.52
450.223	3.51
450.428	3.44
450.634	3.46
450.84	3.46
451.045	3.46
451.251	3.46
451.456	3.45
451.662	3.44
451.867	3.49
452.073	3.5
452.278	3.46
452.483	3.4
452.689	3.36
452.894	3.38
453.1	3.35
453.305	3.32
453.51	3.26
453.716	3.3
453.921	3.35
454.127	3.34
454.332	3.31
454.537	3.38
454.742	3.35
454.948	3.39
455.153	3.38
455.358	3.4
455.563	3.46
455.769	3.48
455.974	3.39
456.179	3.39
456.384	3.39
456.589	3.44
456.795	3.31
457	3.32
457.205	3.29
457.41	3.3
457.615	3.36
457.82	3.42
458.025	3.38
458.23	3.44
458.435	3.41
458.64	3.49
458.845	3.53
459.05	3.48
459.255	3.43
459.46	3.42
459.665	3.52
459.87	3.52
460.075	3.5
460.28	3.5
460.485	3.53
460.69	3.49
460.895	3.53
461.099	3.49
461.304	3.49
461.509	3.44
461.714	3.43
461.919	3.41
462.123	3.46
462.328	3.39
462.533	3.41
462.738	3.38
462.942	3.43
463.147	3.4
463.352	3.4
463.556	3.4
463.761	3.45
463.966	3.43
464.17	3.47
464.375	3.47
464.58	3.47
464.784	3.53
464.989	3.57
465.193	3.6
465.398	3.62
465.602	3.62
465.807	3.63
466.011	3.7
466.216	3.66
466.42	3.68
466.625	3.66
466.829	3.7
467.034	3.74
467.238	3.81
467.443	3.84
467.647	3.86
467.851	3.83
468.056	3.79
468.26	3.7
468.464	3.64
468.669	3.58
468.873	3.57
469.077	3.6
469.282	3.61
469.486	3.66
469.69	3.71
469.894	3.76
470.099	3.78
