Data from Ofra_PS_T2_2A_2GT41_Reflection_1.txt Node
Date: Wed Jul 21 17:04:43 EDT 2021
User: Adam
Spectrometer: FLMT01687
Trigger mode: 0
Integration Time (sec): 1.100000E0
Scans to average: 2
Electric dark correction enabled: true
Nonlinearity correction enabled: false
Boxcar width: 2
XAxis mode: Wavelengths
Number of Pixels in Spectrum: 3648
>>>>>Begin Spectral Data<<<<<
179.494	543.8
179.716	593.18
179.937	576.97
180.158	587.19
180.38	897.97
180.601	339.64
180.823	145.72
181.044	48.22
181.265	2.02
181.486	41.76
181.708	49.13
181.929	-12.76
182.15	105.99
182.372	123.73
182.593	31.45
182.814	19.15
183.035	75.17
183.257	9.18
183.478	-54.2
183.699	-5.67
183.92	-54.83
184.141	-79.92
184.363	-87.77
184.584	-49.46
184.805	-42.48
185.026	0.3
185.247	33.06
185.468	31.2
185.689	25.23
185.91	46.96
186.132	56.27
186.353	28.38
186.574	80.05
186.795	59.76
187.016	16.6
187.237	0.3
187.458	1.66
187.679	-24.82
187.9	7.7
188.121	16.43
188.342	37.33
188.563	45.77
188.784	68.36
189.005	75.59
189.226	107.39
189.447	82.95
189.667	-11.53
189.888	-231.9
190.109	-1043.83
190.33	-576.61
190.551	-1056.42
190.772	-209.14
190.993	-93.02
191.214	-88.37
191.434	-59.41
191.655	7.02
191.876	-36.72
192.097	-122.68
192.318	-121.06
192.538	-203.15
192.759	-156.46
192.98	-50.03
193.201	10.8
193.421	6.42
193.642	38.94
193.863	50.59
194.083	32.01
194.304	-0.37
194.525	5.1
194.745	-18.82
194.966	-53.78
195.187	-61.4
195.407	-49.67
195.628	-93.91
195.848	-94.12
196.069	-54.08
196.29	-6.4
196.51	-46.36
196.731	-34.84
196.951	-60.63
197.172	-79.92
197.392	-100.82
197.613	-79.69
197.833	-131.27
198.054	-88.19
198.274	-37.33
198.495	-41.72
198.715	-13.95
198.936	-20.11
199.156	-27.2
199.377	-99.34
199.597	-97.03
199.817	-113.55
200.038	-23.08
200.258	-47.25
200.479	14.91
200.699	29.73
200.919	92.04
201.14	37.44
201.36	16.25
201.58	21.35
201.801	41.87
202.021	1.34
202.241	-2.79
202.461	-1.72
202.682	-63.17
202.902	-125.63
203.122	-87.53
203.342	-81.44
203.563	-40.77
203.783	-3.07
204.003	-32.94
204.223	-31
204.443	23.88
204.663	-12.04
204.884	-24.65
205.104	13.84
205.324	25.29
205.544	33.29
205.764	60.6
205.984	72.01
206.204	63.85
206.424	56.08
206.644	18.76
206.864	29.07
207.084	-13.76
207.304	-7.47
207.525	-100.23
207.745	-37.66
207.964	-20.74
208.184	-55.8
208.404	-91.9
208.624	-89.39
208.844	-79.04
209.064	-322.75
209.284	-337.24
209.504	-156.43
209.724	-27.28
209.944	-22.06
210.164	9.94
210.384	14.61
210.604	-16.37
210.823	-73.93
211.043	-85.11
211.263	-84.46
211.483	-77.39
211.703	-101.35
211.922	-75.32
212.142	-22.56
212.362	-9.92
212.582	-24.3
212.801	-25.24
213.021	-43.6
213.241	-57.63
213.461	-99.07
213.68	-101.78
213.9	-71.08
214.12	-44.23
214.339	-85.61
214.559	-59.59
214.779	-34.67
214.998	-40.59
215.218	-84.93
215.438	-52.15
215.657	-43.78
215.877	-32.41
216.096	-4.83
216.316	9.96
216.535	-5.37
216.755	-9.08
216.974	-80.95
217.194	-105.9
217.413	-112.08
217.633	-122.08
217.852	-242.37
218.072	-88.75
218.291	-55.25
218.511	-16.35
218.73	-37.8
218.95	-22.57
219.169	-32.06
219.389	-75.59
219.608	-53
219.827	-44.4
220.047	-25.11
220.266	-14.36
220.485	-6.89
220.705	-18.38
220.924	-29.4
221.143	7.81
221.363	-14.52
221.582	-5.43
221.801	-12.1
222.021	2.73
222.24	-91.31
222.459	-19.58
222.678	-8.38
222.897	-19.9
223.117	-47.49
223.336	-18.95
223.555	-51.64
223.774	-38.09
223.993	-17.45
224.213	29.8
224.432	-3.61
224.651	43.73
224.87	31.6
225.089	33.37
225.308	23.85
225.527	44.17
225.746	38.05
225.965	39.93
226.184	27.25
226.404	34.55
226.623	1.93
226.842	2.04
227.061	15.82
227.28	20.89
227.499	3.48
227.718	24.51
227.936	6.05
228.155	-2.6
228.374	-28.39
228.593	-2.69
228.812	6.99
229.031	7.75
229.25	-34.54
229.469	-26.96
229.688	-21.32
229.907	-11.41
230.125	-1.36
230.344	8.42
230.563	18.63
230.782	35.38
231.001	-37.09
231.22	-30.31
231.438	-7.32
231.657	12.62
231.876	-14.6
232.095	30.1
232.313	30.66
232.532	30.3
232.751	-13.92
232.969	-0.27
233.188	-35.02
233.407	37.35
233.625	31.94
233.844	32.5
234.063	8.84
234.281	20.92
234.5	-12.49
234.719	-6.98
234.937	7.96
235.156	14.04
235.374	7.77
235.593	-8.39
235.811	-26.75
236.03	-48.64
236.249	-108.48
236.467	-86.73
236.686	-18.15
236.904	-5.73
237.123	-5.06
237.341	11.15
237.559	7.89
237.778	-13.05
237.996	-9.91
238.215	-2.28
238.433	17.88
238.652	17.78
238.87	-4.28
239.088	-11.04
239.307	-10.61
239.525	-34.19
239.743	-42.53
239.962	-12.39
240.18	-23.6
240.398	-60.61
240.617	-78.65
240.835	-78.19
241.053	-79.19
241.271	-24.1
241.49	0.45
241.708	-22.05
241.926	-58.5
242.144	-16.86
242.363	-91.75
242.581	-115.28
242.799	-36.23
243.017	10.24
243.235	-22.29
243.453	0.21
243.672	7.75
243.89	-0.75
244.108	-4.64
244.326	25.19
244.544	40.22
244.762	40.59
244.98	52.83
245.198	48.81
245.416	23.18
245.634	3.56
245.852	-20.62
246.07	-46.15
246.288	-56.3
246.506	-73.18
246.724	-87.33
246.942	-80.41
247.16	-30.69
247.378	-15.55
247.596	2.1
247.814	15.67
248.032	5.62
248.25	0.69
248.468	1.91
248.685	0.44
248.903	22.99
249.121	38.81
249.339	15.62
249.557	8.99
249.775	25.97
249.992	-28.51
250.21	-36.8
250.428	-25.85
250.646	-47.86
250.863	-78.26
251.081	-30.19
251.299	-34.47
251.517	-22.75
251.734	0.48
251.952	-15.56
252.17	-24.33
252.387	-1.12
252.605	-4.92
252.823	-8.58
253.04	22.93
253.258	35.8
253.475	27.82
253.693	36.07
253.911	45.33
254.128	42.32
254.346	43.83
254.563	17.09
254.781	4.19
254.998	-16.86
255.216	-20.68
255.433	-10.65
255.651	50.91
255.868	71.44
256.086	69.43
256.303	32
256.521	16.21
256.738	-6.89
256.956	-43.6
257.173	-48.12
257.39	-44.19
257.608	-48.86
257.825	18.9
258.043	66.26
258.26	57.79
258.477	85.6
258.695	68.87
258.912	-6.21
259.129	-8.95
259.346	-49.62
259.564	-94.69
259.781	-82.76
259.998	-20.75
260.216	12.64
260.433	46.55
260.65	55.88
260.867	60.05
261.084	25.73
261.302	5.84
261.519	2.67
261.736	-43.29
261.953	-65.69
262.17	-22.94
262.387	-51.22
262.604	-79.89
262.822	-60.26
263.039	-39.96
263.256	-64.19
263.473	-41.64
263.69	-14.63
263.907	17.15
264.124	20.81
264.341	21.56
264.558	9
264.775	18.68
264.992	17.31
265.209	10.15
265.426	35.04
265.643	40.77
265.86	40.56
266.077	29.52
266.294	18.7
266.51	-37.25
266.727	-39.87
266.944	-36.2
267.161	-32.24
267.378	-6.93
267.595	17.06
267.812	-9.04
268.028	-21.09
268.245	-1.53
268.462	-32.45
268.679	-39.11
268.896	17.99
269.112	15.16
269.329	4.34
269.546	6.05
269.763	0.01
269.979	-26.18
270.196	-32.37
270.413	-51.59
270.629	-53.61
270.846	-55.35
271.063	-38.74
271.279	-31.31
271.496	-35.26
271.712	-6.93
271.929	26.76
272.146	16.26
272.362	29.75
272.579	54.68
272.795	50.4
273.012	24.49
273.228	30.13
273.445	-2.34
273.661	-26.75
273.878	-51.41
274.094	-41.93
274.311	-93
274.527	-14.25
274.744	-1.32
274.96	-2.17
275.177	9.92
275.393	38.78
275.609	23.49
275.826	26.54
276.042	21.43
276.259	-12.74
276.475	9.44
276.691	6.7
276.908	-14.06
277.124	-2.88
277.34	9.12
277.557	-28.57
277.773	-12
277.989	-8.08
278.205	-10.02
278.422	6.73
278.638	16.74
278.854	18.35
279.07	31.03
279.286	27.11
279.503	2.19
279.719	-14.54
279.935	-29.27
280.151	-38.64
280.367	-18.2
280.583	-24.52
280.799	0.39
281.016	-27.63
281.232	-3.79
281.448	-10.84
281.664	7.06
281.88	-36.02
282.096	2.06
282.312	6.34
282.528	22.45
282.744	37.68
282.96	52.65
283.176	42.75
283.392	37.36
283.608	22.41
283.824	15.79
284.04	14.94
284.256	10.59
284.471	-10.11
284.687	-12.9
284.903	-2.26
285.119	15.69
285.335	0.89
285.551	20.22
285.767	1.26
285.982	-5.45
286.198	-34.8
286.414	11.34
286.63	13.67
286.846	32.97
287.061	10.74
287.277	24.58
287.493	-8.36
287.709	-3.54
287.924	-27.38
288.14	3.78
288.356	17.13
288.571	32.64
288.787	23.48
289.003	40
289.218	25.32
289.434	-12.55
289.65	-8.49
289.865	-18.33
290.081	-4.33
290.296	-12.01
290.512	3.06
290.727	-18.71
290.943	-24.01
291.159	-27.54
291.374	-21.37
291.59	-41.77
291.805	-22.64
292.021	0.8
292.236	-1.53
292.451	14.64
292.667	25.66
292.882	29.17
293.098	6.02
293.313	-24.36
293.529	-51.07
293.744	-61.53
293.959	-60.78
294.175	-45.61
294.39	-13.04
294.605	3.21
294.821	24.67
295.036	36.13
295.251	34.78
295.467	38.94
295.682	21.36
295.897	-24.04
296.112	-41.2
296.328	-30.57
296.543	-80.76
296.758	-66.54
296.973	-2.52
297.188	22.14
297.404	-8.32
297.619	-2.34
297.834	2.9
298.049	-28.39
298.264	-58.8
298.479	1.52
298.694	2.64
298.909	3.66
299.125	10.24
299.34	26.08
299.555	-0.86
299.77	16.08
299.985	-16.04
300.2	-65.05
300.415	-91.81
300.63	-65.05
300.845	-75.77
301.06	-74.74
301.275	-38.07
301.49	-14.28
301.704	-26.26
301.919	-42.89
302.134	-36.34
302.349	-35.29
302.564	-102.9
302.779	-115.86
302.994	-82.72
303.209	-76.08
303.423	-21.72
303.638	34.73
303.853	-9.62
304.068	-7.77
304.283	2.16
304.497	-7.42
304.712	-14.4
304.927	9.04
305.142	-0.13
305.356	4.35
305.571	-5.65
305.786	-14.94
306	-29.07
306.215	-19.73
306.43	-45.45
306.644	-36.11
306.859	2.18
307.074	23.5
307.288	-9.46
307.503	-20.91
307.717	-25.24
307.932	-32.1
308.147	-49.93
308.361	-20.94
308.576	-20.46
308.79	-64.4
309.005	-54.48
309.219	-38.71
309.434	-55.02
309.648	-40.63
309.863	4.1
310.077	-6.5
310.292	-9.54
310.506	-7.76
310.72	2.36
310.935	-25.68
311.149	-12.8
311.364	6.4
311.578	15.82
311.792	-2.96
312.007	19.94
312.221	8.5
312.435	12.48
312.649	5.45
312.864	23.35
313.078	31.42
313.292	73.44
313.507	44.45
313.721	84.29
313.935	46.87
314.149	28
314.363	16.01
314.578	25.26
314.792	13.91
315.006	12.39
315.22	12.91
315.434	9.82
315.648	7.87
315.862	5.67
316.077	5.12
316.291	-8.97
316.505	15.77
316.719	-26.95
316.933	-20.77
317.147	-19.29
317.361	-50.02
317.575	-87.46
317.789	-74.84
318.003	-153.22
318.217	-116.33
318.431	-27.71
318.645	1.57
318.859	3.72
319.073	30.95
319.287	19.73
319.5	-12.57
319.714	-46.64
319.928	-65.63
320.142	-115.52
320.356	-85.65
320.57	-35.85
320.784	-26.4
320.997	-47.3
321.211	-18.23
321.425	-64.09
321.639	-82.2
321.853	-38.84
322.066	-15.03
322.28	-4.09
322.494	9.79
322.707	13.45
322.921	15.56
323.135	16.53
323.349	15.98
323.562	-8.08
323.776	-17.23
323.989	-23.1
324.203	-38.42
324.417	-48.49
324.63	-47.61
324.844	-52.22
325.057	-43.32
325.271	-29.07
325.485	5.75
325.698	21.14
325.912	37.92
326.125	2.24
326.339	2.74
326.552	-26.19
326.766	-9.95
326.979	-2.31
327.193	38.03
327.406	26.33
327.619	20.98
327.833	22.23
328.046	-0.45
328.26	-32.64
328.473	-10.84
328.686	-27.8
328.9	-36.95
329.113	-18.4
329.326	-40.71
329.54	-44.18
329.753	-57.45
329.966	-82.95
330.179	-93.27
330.393	-52.45
330.606	-35.3
330.819	-8.93
331.032	9.94
331.246	15.76
331.459	41.42
331.672	28.04
331.885	22.09
332.098	3.21
332.311	2.3
332.525	-29.52
332.738	-0.68
332.951	13.54
333.164	40.21
333.377	49.25
333.59	47.1
333.803	35.31
334.016	37.74
334.229	13.53
334.442	12.06
334.655	23.11
334.868	36.18
335.081	22.65
335.294	28.71
335.507	24.45
335.72	15.23
335.933	-2.03
336.146	-3.98
336.359	-2.38
336.572	-25.2
336.785	-50.23
336.997	-33.21
337.21	-10.57
337.423	-18.46
337.636	-26.01
337.849	-5.33
338.062	-17.92
338.274	-24.69
338.487	-25.7
338.7	-16.29
338.913	-48.12
339.125	-55.63
339.338	-97.75
339.551	-68.4
339.763	-26.24
339.976	-7.66
340.189	1.02
340.402	21.66
340.614	13.15
340.827	-1.58
341.039	-6.96
341.252	-3.73
341.465	0.48
341.677	-16.89
341.89	-55.16
342.102	-28.13
342.315	-40.01
342.527	-85.19
342.74	-49.61
342.952	-17.3
343.165	-24.49
343.377	-6.81
343.59	1.71
343.802	7.01
344.015	2.39
344.227	13.01
344.44	13.36
344.652	28.49
344.864	11.5
345.077	41.31
345.289	37.34
345.502	35.53
345.714	23.55
345.926	33.76
346.139	11.7
346.351	29.21
346.563	32.31
346.775	33.49
346.988	13.85
347.2	15.82
347.412	-39
347.624	-55.03
347.837	-68.05
348.049	-25.89
348.261	-2.24
348.473	15.3
348.685	5.41
348.897	7.17
349.11	-22.26
349.322	-54.63
349.534	-34.87
349.746	-18.38
349.958	-6.88
350.17	-0.89
350.382	11.79
350.594	1.05
350.806	6.7
351.018	3.44
351.23	11.52
351.442	-23.3
351.654	-15.31
351.866	-19.44
352.078	-23.33
352.29	-8.66
352.502	7.19
352.714	9.49
352.926	9
353.138	9.21
353.35	-2.3
353.561	4.5
353.773	-15.89
353.985	-10.03
354.197	-17.55
354.409	-21.26
354.621	-23.34
354.832	-12.06
355.044	-28.27
355.256	-32.97
355.468	-16.93
355.679	-31.1
355.891	-36.33
356.103	-32.76
356.314	-11.64
356.526	-19.2
356.738	-16.24
356.949	-25.1
357.161	1.61
357.373	-9.01
357.584	-10.79
357.796	4.16
358.008	4.93
358.219	8.12
358.431	13.22
358.642	16.98
358.854	19.03
359.065	22.49
359.277	-6.97
359.488	-11.89
359.7	-24.43
359.911	-34.47
360.123	-17.73
360.334	-27.45
360.546	-36.04
360.757	-37.98
360.969	-33.14
361.18	-36.74
361.391	-16.95
361.603	-32.14
361.814	-18.53
362.025	-23.33
362.237	-27.09
362.448	-7.68
362.659	9.36
362.871	0.97
363.082	-2.84
363.293	-6.35
363.504	-27.1
363.716	-42.25
363.927	-38.13
364.138	-51.56
364.349	-63.99
364.56	-49.22
364.772	-40.98
364.983	-17.1
365.194	-10.97
365.405	-1.11
365.616	5.33
365.827	5.65
366.038	-34.43
366.25	-36.1
366.461	-57.98
366.672	-25.26
366.883	-15.86
367.094	5.45
367.305	-3.5
367.516	2.79
367.727	-27.5
367.938	-39.06
368.149	-42.13
368.36	-24.45
368.571	-22.08
368.781	-33.34
368.992	-39.74
369.203	-57.01
369.414	-76.56
369.625	-83.91
369.836	-68.15
370.047	-86.21
370.258	-65.09
370.468	-63.41
370.679	-71.92
370.89	-66.55
371.101	-34.25
371.312	-35.37
371.522	-27.68
371.733	-13.15
371.944	-5.21
372.155	-2.39
372.365	-13.32
372.576	-7.48
372.787	-8.9
372.997	-19.63
373.208	-30.73
373.419	3.25
373.629	-34.55
373.84	-42.16
374.05	-48.49
374.261	-41.9
374.472	-61.37
374.682	3.24
374.893	5.67
375.103	39.54
375.314	39.48
375.524	33.89
375.735	16.5
375.945	27.35
376.156	-4.4
376.366	-8.81
376.577	-9.01
376.787	-9.52
376.997	-2.38
377.208	3.48
377.418	3.28
377.629	5.21
377.839	0.59
378.049	-8.94
378.26	6.55
378.47	9.78
378.68	6.08
378.89	1.54
379.101	4.77
379.311	-29.06
379.521	-54.03
379.732	-49.38
379.942	-36.15
380.152	-52.94
380.362	-23.19
380.572	-17.44
380.783	-6
380.993	-0.43
381.203	7.69
381.413	19.17
381.623	30.79
381.833	23.2
382.043	12.12
382.253	3.24
382.463	-2.3
382.674	-15.16
382.884	-23.79
383.094	-20.53
383.304	-14.27
383.514	-12.68
383.724	1.38
383.934	-1.39
384.144	-9.73
384.353	-11.82
384.563	-15.03
384.773	-14.32
384.983	-21.99
385.193	-6.37
385.403	-5.22
385.613	-4.7
385.823	-14.61
386.033	-8.11
386.242	-17.6
386.452	-17.48
386.662	-24.51
386.872	-15.36
387.082	-19.3
387.291	-23.4
387.501	-26.57
387.711	-13.08
387.921	-19.1
388.13	-14.59
388.34	-5.08
388.55	-10.56
388.759	-11.79
388.969	-1.51
389.179	-1.98
389.388	-2.37
389.598	5.7
389.807	-1.1
390.017	-10.71
390.227	-7.69
390.436	-9.87
390.646	-7.98
390.855	-3.26
391.065	0.66
391.274	-4.31
391.484	-3.05
391.693	-1.91
391.903	-2.01
392.112	3.61
392.322	8.45
392.531	12.89
392.74	12.43
392.95	8.99
393.159	6.54
393.369	5.78
393.578	2.84
393.787	0.79
393.997	4.25
394.206	1.66
394.415	1.49
394.625	1.19
394.834	0.49
395.043	0.08
395.252	2.22
395.462	3.95
395.671	5.11
395.88	6.66
396.089	6.96
396.298	5.61
396.508	4.37
396.717	3.72
396.926	4.19
397.135	4.11
397.344	4.81
397.553	5.88
397.762	7.05
397.971	6.9
398.181	7.31
398.39	6.58
398.599	5.89
398.808	5.36
399.017	5.95
399.226	6.74
399.435	7.79
399.644	7.73
399.853	7.74
400.062	7.33
400.27	6.58
400.479	6.08
400.688	5.7
400.897	5.46
401.106	5.34
401.315	5.3
401.524	5.31
401.733	5.84
401.941	6.21
402.15	6.03
402.359	5.91
402.568	6.52
402.777	6.45
402.985	6.29
403.194	6.5
403.403	6.64
403.612	6.08
403.82	6.04
404.029	6.24
404.238	6.12
404.446	6.17
404.655	5.99
404.864	5.95
405.072	5.74
405.281	5.85
405.489	5.69
405.698	5.74
405.906	5.77
406.115	5.8
406.324	5.78
406.532	5.88
406.741	6
406.949	5.98
407.158	5.97
407.366	5.92
407.574	6.02
407.783	6.06
407.991	5.82
408.2	5.92
408.408	5.89
408.617	5.79
408.825	5.55
409.033	5.78
409.242	5.83
409.45	5.83
409.658	5.74
409.867	5.95
410.075	5.76
410.283	5.62
410.491	5.64
410.7	5.5
410.908	5.43
411.116	5.7
411.324	5.68
411.533	5.56
411.741	5.79
411.949	5.79
412.157	5.57
412.365	5.52
412.573	5.49
412.781	5.47
412.99	5.37
413.198	5.53
413.406	5.59
413.614	5.57
413.822	5.41
414.03	5.32
414.238	5.09
414.446	5.05
414.654	4.89
414.862	5.01
415.07	5.15
415.278	5.43
415.486	5.25
415.694	5.45
415.902	5.29
416.109	5.1
416.317	4.9
416.525	4.9
416.733	4.96
416.941	5.06
417.149	5.26
417.357	5.43
417.564	5.62
417.772	5.79
417.98	5.71
418.188	5.63
418.395	5.47
418.603	5.59
418.811	5.11
419.019	5.16
419.226	5.29
419.434	5.46
419.642	5.05
419.849	5.29
420.057	5.25
420.265	5.15
420.472	4.77
420.68	5.06
420.887	4.9
421.095	4.91
421.302	4.93
421.51	5.22
421.717	5.09
421.925	5.17
422.132	5.07
422.34	4.75
422.547	4.69
422.755	4.58
422.962	4.58
423.17	4.46
423.377	4.59
423.585	4.6
423.792	4.61
423.999	4.73
424.207	4.8
424.414	5
424.621	4.95
424.829	4.94
425.036	4.9
425.243	5.01
425.451	4.78
425.658	4.6
425.865	4.82
426.072	4.74
426.28	4.91
426.487	4.97
426.694	5.11
426.901	4.81
427.108	4.75
427.315	4.58
427.523	4.72
427.73	4.71
427.937	4.8
428.144	4.83
428.351	4.87
428.558	5.06
428.765	4.85
428.972	4.81
429.179	4.89
429.386	5.13
429.593	4.74
429.8	4.9
430.007	5.14
430.214	5.24
430.421	5
430.628	5.03
430.835	5.09
431.042	5.17
431.249	5.15
431.456	5.08
431.662	5.15
431.869	5.17
432.076	5.16
432.283	5.1
432.49	5.13
432.697	5.22
432.903	5.03
433.11	4.93
433.317	4.94
433.524	5.16
433.73	5.09
433.937	5.43
434.144	5.47
434.35	5.52
434.557	5.3
434.764	5.37
434.97	5.23
435.177	5.34
435.384	5.28
435.59	5.44
435.797	5.57
436.003	5.61
436.21	5.54
436.416	5.74
436.623	5.79
436.829	5.89
437.036	6.05
437.242	6.1
437.449	6
437.655	6.04
437.862	5.92
438.068	5.86
438.275	5.9
438.481	6.01
438.687	5.9
438.894	5.93
439.1	5.89
439.307	6.11
439.513	6.05
439.719	6.05
439.926	6.12
440.132	6.1
440.338	5.9
440.544	5.97
440.751	6.06
440.957	6.04
441.163	5.98
441.369	6.01
441.575	5.81
441.782	5.77
441.988	5.67
442.194	5.74
442.4	5.69
442.606	6.05
442.812	6.13
443.018	6.23
443.224	6.28
443.431	6.48
443.637	6.15
443.843	6.04
444.049	6.08
444.255	6
444.461	6.01
444.667	6.02
444.873	6.17
445.079	6.14
445.284	6.26
445.49	6.02
445.696	6.03
445.902	5.95
446.108	5.86
446.314	5.76
446.52	5.83
446.726	6.02
446.931	5.98
447.137	6.1
447.343	6.21
447.549	6.17
447.755	6.09
447.96	6.19
448.166	6.08
448.372	6.04
448.578	6.13
448.783	6.07
448.989	6.13
449.195	6.32
449.4	6.36
449.606	6.33
449.812	6.32
450.017	6.22
450.223	6.12
450.428	6.02
450.634	6.13
450.84	6.26
451.045	6.21
451.251	6.2
451.456	6.49
451.662	6.55
451.867	6.6
452.073	6.65
452.278	6.77
452.483	6.74
452.689	6.5
452.894	6.46
453.1	6.5
453.305	6.37
453.51	6.22
453.716	6.27
453.921	6.33
454.127	6.37
454.332	6.39
454.537	6.38
454.742	6.38
454.948	6.34
455.153	6.25
455.358	6.31
455.563	6.54
455.769	6.62
455.974	6.61
456.179	6.53
456.384	6.5
456.589	6.37
456.795	6.27
457	6.21
457.205	6.42
457.41	6.48
457.615	6.42
457.82	6.52
458.025	6.59
458.23	6.39
458.435	6.35
458.64	6.31
458.845	6.44
459.05	6.47
459.255	6.58
459.46	6.58
459.665	6.67
459.87	6.56
460.075	6.5
460.28	6.47
460.485	6.52
460.69	6.47
460.895	6.33
461.099	6.25
461.304	6.29
461.509	6.24
461.714	6.19
461.919	6.45
462.123	6.43
462.328	6.56
462.533	6.55
462.738	6.62
