Data from Ofra_1a_PS_9GT30_Reflection_3.txt Node
Date: Tue Jul 20 11:06:34 EDT 2021
User: Adam
Spectrometer: FLMT01687
Trigger mode: 0
Integration Time (sec): 1.004000E0
Scans to average: 2
Electric dark correction enabled: true
Nonlinearity correction enabled: false
Boxcar width: 2
XAxis mode: Wavelengths
Number of Pixels in Spectrum: 3648
>>>>>Begin Spectral Data<<<<<
179.494	-318.78
179.716	-527.48
179.937	921.74
180.158	-952.87
180.38	118.13
180.601	67.48
180.823	-38.03
181.044	-73.92
181.265	-75.42
181.486	165.67
181.708	177.96
181.929	-11272.73
182.15	88.58
182.372	122.17
182.593	436.77
182.814	-329.37
183.035	-41.69
183.257	43.35
183.478	47.69
183.699	45.97
183.92	17.23
184.141	33.32
184.363	18.6
184.584	25.86
184.805	47.52
185.026	70.95
185.247	51.47
185.468	17.65
185.689	39.63
185.91	27.17
186.132	23.75
186.353	23.56
186.574	49.71
186.795	32.99
187.016	31.21
187.237	32.57
187.458	28.66
187.679	6.43
187.9	25.95
188.121	43.98
188.342	61.33
188.563	89.2
188.784	98.77
189.005	82.27
189.226	75.26
189.447	62.37
189.667	41.88
189.888	11.29
190.109	0.35
190.33	-14.74
190.551	-3.61
190.772	2.16
190.993	9.7
191.214	-6.29
191.434	-17.68
191.655	-89.55
191.876	-40.44
192.097	19.75
192.318	42.45
192.538	28.09
192.759	27.28
192.98	38.65
193.201	16.46
193.421	9.61
193.642	31.39
193.863	43.55
194.083	30.6
194.304	23.6
194.525	7.93
194.745	-10.83
194.966	0.06
195.187	-7.71
195.407	-9.34
195.628	12.76
195.848	14.86
196.069	1.55
196.29	25.45
196.51	13.67
196.731	-0.7
196.951	-13.4
197.172	12.89
197.392	-4.29
197.613	27.46
197.833	27.68
198.054	27.65
198.274	17.5
198.495	12.71
198.715	-8.73
198.936	13.83
199.156	33.94
199.377	20.9
199.597	29.48
199.817	26.15
200.038	-13.62
200.258	12.32
200.479	26.3
200.699	48.09
200.919	48.18
201.14	52.11
201.36	24.84
201.58	0.86
201.801	-15.57
202.021	-12.07
202.241	-1.17
202.461	8.19
202.682	29.61
202.902	21.87
203.122	26.78
203.342	36.04
203.563	25.97
203.783	16.66
204.003	22.92
204.223	25.16
204.443	44.09
204.663	64.16
204.884	85.47
205.104	55.65
205.324	66.52
205.544	-14.81
205.764	1.43
205.984	-5.31
206.204	16.62
206.424	1.21
206.644	26.49
206.864	22.65
207.084	27.81
207.304	35.47
207.525	31.78
207.745	32.72
207.964	46.79
208.184	40.08
208.404	21.07
208.624	6.08
208.844	3.39
209.064	-13.85
209.284	-0.69
209.504	4.54
209.724	35.79
209.944	25.73
210.164	21.58
210.384	6.47
210.604	-33.84
210.823	-58.38
211.043	-26.86
211.263	-96.78
211.483	-34.64
211.703	-12.96
211.922	-5.55
212.142	4.58
212.362	51.54
212.582	40.13
212.801	45.76
213.021	38.36
213.241	40.29
213.461	19.23
213.68	34.72
213.9	23.06
214.12	26.25
214.339	14.6
214.559	13.47
214.779	2.06
214.998	21.08
215.218	14.35
215.438	32.09
215.657	46.62
215.877	39.98
216.096	42.74
216.316	44.19
216.535	28.94
216.755	28.06
216.974	25.39
217.194	24.06
217.413	32.17
217.633	35.94
217.852	37.3
218.072	44.98
218.291	43.32
218.511	28.14
218.73	30.41
218.95	-5.33
219.169	-46.75
219.389	-20.66
219.608	-20.07
219.827	-20.22
220.047	0.82
220.266	15.78
220.485	-6.03
220.705	23.22
220.924	23.82
221.143	59.91
221.363	40.98
221.582	48.01
221.801	36.25
222.021	37.42
222.24	12.96
222.459	34.65
222.678	31.45
222.897	28.72
223.117	43.11
223.336	34.47
223.555	34.58
223.774	40.46
223.993	67.6
224.213	73.66
224.432	92.04
224.651	60.68
224.87	69.98
225.089	59.03
225.308	36.7
225.527	16.51
225.746	25.01
225.965	2.11
226.184	-13.43
226.404	-9.13
226.623	-7.03
226.842	-0.4
227.061	4.64
227.28	20.33
227.499	24.7
227.718	36.14
227.936	28.17
228.155	30.14
228.374	20.27
228.593	13.12
228.812	-0.48
229.031	19.26
229.25	5.24
229.469	16.79
229.688	38.38
229.907	45.52
230.125	47.29
230.344	56.58
230.563	60.83
230.782	53.5
231.001	50.69
231.22	53.72
231.438	39.86
231.657	31.17
231.876	31
232.095	33.22
232.313	21.79
232.532	26.62
232.751	12.18
232.969	5.91
233.188	-0.9
233.407	5.75
233.625	4.61
233.844	11.15
234.063	5.1
234.281	15.34
234.5	14.82
234.719	12.14
234.937	6.28
235.156	32.17
235.374	35.84
235.593	14.54
235.811	38.97
236.03	33.57
236.249	30.34
236.467	32.54
236.686	43.35
236.904	38.54
237.123	30.34
237.341	27.73
237.559	22.68
237.778	26.78
237.996	-14.48
238.215	-44.05
238.433	-102.63
238.652	-21.55
238.87	-25.04
239.088	-17.91
239.307	3.3
239.525	26.07
239.743	0.41
239.962	-4.5
240.18	23.31
240.398	33.72
240.617	43.86
240.835	56.12
241.053	39.57
241.271	37.3
241.49	42.24
241.708	12.64
241.926	18.53
242.144	26.58
242.363	-3.2
242.581	-32.07
242.799	-20.45
243.017	-8.33
243.235	2.97
243.453	-2.16
243.672	1.63
243.89	8.35
244.108	23.86
244.326	29.03
244.544	45.62
244.762	43.33
244.98	52.57
245.198	41.04
245.416	47.85
245.634	48.95
245.852	39.07
246.07	37.49
246.288	37.88
246.506	17.99
246.724	-2.16
246.942	7.11
247.16	7.06
247.378	-0.43
247.596	45.54
247.814	58.46
248.032	45.03
248.25	51.99
248.468	37.34
248.685	27.25
248.903	28.07
249.121	30.68
249.339	19.79
249.557	19.89
249.775	27.88
249.992	19.21
250.21	15.67
250.428	30.55
250.646	34.37
250.863	13.98
251.081	25.05
251.299	31.85
251.517	29.89
251.734	26.06
251.952	38.11
252.17	33.04
252.387	27.3
252.605	28.11
252.823	32.11
253.04	30.23
253.258	38.71
253.475	44.93
253.693	27.67
253.911	40.12
254.128	46.48
254.346	54.32
254.563	51.92
254.781	66.96
254.998	50.06
255.216	26.38
255.433	-14.01
255.651	-16.96
255.868	-35.42
256.086	-23.71
256.303	-5.76
256.521	1.4
256.738	-12.48
256.956	0.42
257.173	-14.77
257.39	-6.8
257.608	0.52
257.825	26.07
258.043	34.39
258.26	38.45
258.477	28.18
258.695	27.46
258.912	4.24
259.129	-19.55
259.346	-29.32
259.564	-17.56
259.781	-13.98
259.998	18.09
260.216	36.93
260.433	37.49
260.65	39.89
260.867	50.48
261.084	28.65
261.302	38.58
261.519	57.46
261.736	56.12
261.953	44
262.17	57.81
262.387	56.28
262.604	52.38
262.822	52.63
263.039	50.64
263.256	56.18
263.473	41.38
263.69	40.25
263.907	41.28
264.124	39.48
264.341	32.9
264.558	37.57
264.775	24.25
264.992	15.52
265.209	10.96
265.426	-9.55
265.643	-11.08
265.86	3.29
266.077	-0.22
266.294	13.01
266.51	29.04
266.727	27.69
266.944	36.35
267.161	38.38
267.378	45.68
267.595	39.38
267.812	31.98
268.028	20.9
268.245	33.17
268.462	18.14
268.679	21.45
268.896	39.03
269.112	26.95
269.329	6.34
269.546	30.79
269.763	21
269.979	17
270.196	19.63
270.413	31.36
270.629	-2.88
270.846	10.43
271.063	9.02
271.279	14.8
271.496	1.91
271.712	32.23
271.929	28.39
272.146	37.04
272.362	47.49
272.579	39.85
272.795	36.81
273.012	49.51
273.228	47.52
273.445	29.29
273.661	18.26
273.878	18.97
274.094	6.41
274.311	1.64
274.527	-19.11
274.744	13.67
274.96	10.85
275.177	21.35
275.393	34.83
275.609	49.49
275.826	40.42
276.042	35.6
276.259	26.36
276.475	10.25
276.691	-9.7
276.908	-8.59
277.124	3.02
277.34	-1.61
277.557	-0.75
277.773	14.29
277.989	4.47
278.205	4.61
278.422	16.36
278.638	9.43
278.854	5.91
279.07	32.82
279.286	29.64
279.503	28.41
279.719	38.13
279.935	39.57
280.151	21.34
280.367	17.73
280.583	12.25
280.799	-2.52
281.016	-29.45
281.232	-16.73
281.448	-13.84
281.664	-3.92
281.88	2.23
282.096	21.82
282.312	18.03
282.528	25.79
282.744	28.39
282.96	22.84
283.176	27.33
283.392	26.04
283.608	6.62
283.824	-17.73
284.04	-39.17
284.256	-13.61
284.471	3.77
284.687	7.52
284.903	14.59
285.119	29.44
285.335	30.34
285.551	19.6
285.767	11.23
285.982	18.49
286.198	9.95
286.414	-14.64
286.63	6.74
286.846	35.7
287.061	15.37
287.277	29.98
287.493	33.41
287.709	45.55
287.924	49.02
288.14	62.59
288.356	65.08
288.571	61.74
288.787	41.87
289.003	26.31
289.218	1.49
289.434	-12.14
289.65	8.69
289.865	11.37
290.081	16.5
290.296	31.74
290.512	36.03
290.727	30.49
290.943	41.01
291.159	40.21
291.374	26.05
291.59	28.27
291.805	12.55
292.021	0.74
292.236	1.17
292.451	11.04
292.667	13.61
292.882	42.72
293.098	52.51
293.313	49.09
293.529	50.47
293.744	36.89
293.959	24.01
294.175	8.69
294.39	-2.64
294.605	8.54
294.821	-4.2
295.036	-3.72
295.251	16.6
295.467	14.98
295.682	13.29
295.897	40.8
296.112	33.87
296.328	36.7
296.543	30.05
296.758	29.52
296.973	10.69
297.188	7.71
297.404	-33.23
297.619	-29.79
297.834	-73.14
298.049	-59.88
298.264	-52.81
298.479	-54.65
298.694	-18.63
298.909	6.83
299.125	5.76
299.34	22.02
299.555	30.76
299.77	57.99
299.985	38.46
300.2	41.92
300.415	26.96
300.63	37.37
300.845	16.89
301.06	30.65
301.275	28.38
301.49	52.2
301.704	39.01
301.919	37.29
302.134	36.14
302.349	32.77
302.564	23.84
302.779	21.45
302.994	22.76
303.209	30.12
303.423	35.87
303.638	43
303.853	43.96
304.068	41.43
304.283	33.26
304.497	20.03
304.712	18.58
304.927	22.13
305.142	21.94
305.356	16.71
305.571	22.71
305.786	19.44
306	18.75
306.215	27.6
306.43	23.37
306.644	26.76
306.859	27.76
307.074	41.08
307.288	50.15
307.503	62.37
307.717	46.69
307.932	35.02
308.147	13.22
308.361	1.17
308.576	-16.66
308.79	-8.21
309.005	-23.82
309.219	-2.85
309.434	15.27
309.648	9.25
309.863	18.83
310.077	32.54
310.292	33.5
310.506	11.99
310.72	17.22
310.935	23.28
311.149	21.81
311.364	35.09
311.578	35.78
311.792	43.44
312.007	39.69
312.221	22.64
312.435	8.16
312.649	17.83
312.864	-27.62
313.078	-21.53
313.292	-22.3
313.507	-16.13
313.721	-22.22
313.935	12.86
314.149	8.43
314.363	31.26
314.578	19.23
314.792	22.07
315.006	9.06
315.22	26.47
315.434	26.41
315.648	29.55
315.862	26.83
316.077	26.82
316.291	14.49
316.505	-6.05
316.719	4.71
316.933	12.16
317.147	15.62
317.361	7.93
317.575	12.77
317.789	1.32
318.003	-8.06
318.217	-4.5
318.431	-4.71
318.645	-1.43
318.859	14.21
319.073	24.61
319.287	21.35
319.5	25.5
319.714	21.47
319.928	6.38
320.142	-2.21
320.356	5.56
320.57	-6.67
320.784	-5.61
320.997	-5.41
321.211	14.02
321.425	-10.89
321.639	3.66
321.853	21.67
322.066	15.17
322.28	4.87
322.494	26.35
322.707	28.3
322.921	6.06
323.135	19.76
323.349	16.95
323.562	13.76
323.776	4.15
323.989	26.62
324.203	9.78
324.417	11.57
324.63	-3.7
324.844	-9.53
325.057	-29.26
325.271	-2.74
325.485	-6.27
325.698	13
325.912	33.49
326.125	32.67
326.339	36.37
326.552	38.36
326.766	32.29
326.979	31
327.193	38.31
327.406	28.41
327.619	36.29
327.833	40.88
328.046	38.27
328.26	33.8
328.473	41.27
328.686	40.91
328.9	36.05
329.113	27.05
329.326	19.93
329.54	17.02
329.753	20.6
329.966	19.94
330.179	15.28
330.393	21.03
330.606	16.73
330.819	1.54
331.032	7.85
331.246	30.33
331.459	45.91
331.672	47.36
331.885	58.81
332.098	51.46
332.311	24.88
332.525	6.51
332.738	13.25
332.951	-0.22
333.164	3.79
333.377	18.7
333.59	20.97
333.803	25.82
334.016	38.25
334.229	46
334.442	42.32
334.655	41.31
334.868	31.48
335.081	30.52
335.294	21.52
335.507	40.29
335.72	38.13
335.933	34.24
336.146	43.19
336.359	49.36
336.572	33.89
336.785	23.77
336.997	19.38
337.21	-2.33
337.423	-34.62
337.636	-21.7
337.849	-6.64
338.062	9.82
338.274	26.19
338.487	23.91
338.7	6.86
338.913	12.96
339.125	-4.14
339.338	-6.74
339.551	9.07
339.763	7.46
339.976	12.05
340.189	25.6
340.402	41.63
340.614	31.7
340.827	43.27
341.039	41.83
341.252	25.17
341.465	2.37
341.677	11.44
341.89	-8.32
342.102	-1.98
342.315	13.07
342.527	36.44
342.74	11.07
342.952	24.09
343.165	4.26
343.377	0.53
343.59	-16.5
343.802	-5.43
344.015	16.16
344.227	27.36
344.44	25.69
344.652	17.05
344.864	29.15
345.077	36.17
345.289	46.57
345.502	58.87
345.714	71.17
345.926	75
346.139	41.96
346.351	35.84
346.563	30.84
346.775	40.96
346.988	39.09
347.2	59.53
347.412	40.11
347.624	36.44
347.837	25.79
348.049	22.47
348.261	-7.97
348.473	-13.89
348.685	-21.09
348.897	-20.05
349.11	-17.94
349.322	26.7
349.534	32.14
349.746	33.54
349.958	23.44
350.17	35.35
350.382	8.48
350.594	16.52
350.806	32.78
351.018	40.12
351.23	44.32
351.442	43.63
351.654	38.23
351.866	23.93
352.078	27.07
352.29	7.64
352.502	6.89
352.714	11.07
352.926	9.82
353.138	11.21
353.35	9.11
353.561	15.29
353.773	3.09
353.985	21.97
354.197	15.67
354.409	25.01
354.621	8.73
354.832	20.38
355.044	-11.06
355.256	-6.91
355.468	-31.61
355.679	2.81
355.891	15.57
356.103	14.49
356.314	7.97
356.526	16.08
356.738	11.89
356.949	0.21
357.161	31.69
357.373	31.69
357.584	33.95
357.796	36.36
358.008	41.42
358.219	32.16
358.431	40.45
358.642	48.29
358.854	48.79
359.065	31.61
359.277	25.2
359.488	18.12
359.7	11.87
359.911	4.22
360.123	23.6
360.334	27.59
360.546	31.08
360.757	40.04
360.969	56.56
361.18	57.92
361.391	63
361.603	56.14
361.814	53.06
362.025	39.79
362.237	41.3
362.448	34.44
362.659	24
362.871	13.66
363.082	1.59
363.293	-11.85
363.504	-35.18
363.716	-19.38
363.927	2.27
364.138	-8.94
364.349	-10.19
364.56	-3.04
364.772	1.66
364.983	1.68
365.194	24.43
365.405	33.86
365.616	40.65
365.827	37.07
366.038	36.75
366.25	22.35
366.461	19.56
366.672	23.36
366.883	30.38
367.094	11.92
367.305	12.65
367.516	8.37
367.727	-20.9
367.938	-28.71
368.149	-21.36
368.36	-21.86
368.571	-45.67
368.781	-34.42
368.992	-24.73
369.203	-16.21
369.414	-19.54
369.625	-5.05
369.836	13.71
370.047	14.27
370.258	20.28
370.468	20.62
370.679	29.01
370.89	25.67
371.101	44.1
371.312	18.2
371.522	23.72
371.733	19.12
371.944	14.37
372.155	1.79
372.365	20.69
372.576	11.69
372.787	23.55
372.997	17.6
373.208	6.64
373.419	10.61
373.629	15.72
373.84	8.98
374.05	13.89
374.261	14.08
374.472	23.49
374.682	21.26
374.893	4.63
375.103	5.82
375.314	9.29
375.524	8.9
375.735	14.45
375.945	20.42
376.156	14.63
376.366	20.01
376.577	11.43
376.787	7.92
376.997	8.28
377.208	8.87
377.418	3.48
377.629	3.87
377.839	10.38
378.049	14.73
378.26	12.55
378.47	11.89
378.68	10.6
378.89	2.58
379.101	1.97
379.311	9.84
379.521	6.89
379.732	9.39
379.942	6.94
380.152	-0.07
380.362	-2.95
380.572	12.69
380.783	16.86
380.993	19.66
381.203	12.98
381.413	17.02
381.623	11.59
381.833	15.94
382.043	12.01
382.253	25.18
382.463	30.26
382.674	32.61
382.884	28.01
383.094	28.46
383.304	28.96
383.514	27.28
383.724	22.11
383.934	17.26
384.144	21.13
384.353	21.25
384.563	14.66
384.773	18.55
384.983	19.4
385.193	16.12
385.403	13
385.613	19.88
385.823	16.99
386.033	16.87
386.242	15.98
386.452	15.01
386.662	8.93
386.872	11.55
387.082	7.37
387.291	3.22
387.501	4.56
387.711	4.87
387.921	4.58
388.13	6.5
388.34	8.98
388.55	6.65
388.759	4.79
388.969	6.76
389.179	6.13
389.388	7.31
389.598	9.87
389.807	7.45
390.017	3.49
390.227	2.22
390.436	2.94
390.646	2.42
390.855	4.15
391.065	6.94
391.274	6.62
391.484	2.88
391.693	2.22
391.903	2.63
392.112	1.43
392.322	2.2
392.531	4.58
392.74	5.06
392.95	3.82
393.159	3.18
393.369	5.71
393.578	6.11
393.787	6.26
393.997	6.76
394.206	5.96
394.415	5.47
394.625	4.78
394.834	3.69
395.043	4.33
395.252	7.04
395.462	7.43
395.671	7.75
395.88	10.53
396.089	10.9
396.298	10.44
396.508	9.62
396.717	9.68
396.926	8.12
397.135	8.56
397.344	7.55
397.553	7.56
397.762	8.23
397.971	8.45
398.181	8.15
398.39	8.3
398.599	8.56
398.808	8.38
399.017	8.89
399.226	8.85
399.435	9.19
399.644	9.18
399.853	9.32
400.062	8.91
400.27	8.76
400.479	8.45
400.688	8.33
400.897	8.05
401.106	8.15
401.315	8.02
401.524	8.23
401.733	8.07
401.941	7.71
402.15	7.53
402.359	7.69
402.568	7.8
402.777	8.13
402.985	8.34
403.194	8.34
403.403	8.49
403.612	8.23
403.82	7.81
404.029	7.91
404.238	7.92
404.446	8.04
404.655	8.13
404.864	8.38
405.072	8.4
405.281	8.45
405.489	8.2
405.698	8.08
405.906	8.2
406.115	8.15
406.324	8.06
406.532	8.25
406.741	8.47
406.949	8.37
407.158	8.39
407.366	8.28
407.574	8.16
407.783	8.09
407.991	8.05
408.2	8.17
408.408	8.35
408.617	8.25
408.825	8.09
409.033	8.07
409.242	7.98
409.45	7.94
409.658	7.9
409.867	8.03
410.075	8.05
410.283	7.94
410.491	7.75
410.7	7.8
410.908	7.69
411.116	7.68
411.324	7.65
411.533	7.65
411.741	7.69
411.949	7.77
412.157	7.64
412.365	7.73
412.573	7.79
412.781	7.68
412.99	7.7
413.198	7.85
413.406	7.9
413.614	7.93
413.822	7.98
414.03	7.94
414.238	7.82
414.446	7.73
414.654	7.64
414.862	7.53
415.07	7.48
415.278	7.62
415.486	7.42
415.694	7.43
415.902	7.37
416.109	7.35
416.317	7.2
416.525	7.26
416.733	7.29
416.941	7.44
417.149	7.35
417.357	7.5
417.564	7.64
417.772	7.64
417.98	7.71
418.188	7.68
418.395	7.28
418.603	7.09
418.811	7.14
419.019	6.96
419.226	7
419.434	7.3
419.642	7.21
419.849	7.18
420.057	7.2
420.265	7.19
420.472	7.04
420.68	7.25
420.887	7.17
421.095	7.23
421.302	7.21
421.51	7.17
421.717	7.1
421.925	7.11
422.132	7.01
422.34	6.88
422.547	6.9
422.755	6.99
422.962	6.93
423.17	6.92
423.377	7.09
423.585	7.13
423.792	7.04
423.999	7.04
424.207	6.97
424.414	6.85
424.621	6.87
424.829	6.8
425.036	6.82
425.243	6.79
425.451	6.77
425.658	6.73
425.865	6.75
426.072	6.67
426.28	6.83
426.487	6.94
426.694	6.85
426.901	6.94
427.108	7.02
427.315	6.9
427.523	6.72
427.73	6.89
427.937	6.84
428.144	6.8
428.351	6.87
428.558	7.05
428.765	7.01
428.972	6.97
429.179	6.96
429.386	7.02
429.593	7
429.8	6.97
430.007	7.13
430.214	7.09
430.421	7.24
430.628	7.35
430.835	7.42
431.042	7.29
431.249	7.48
431.456	7.3
431.662	7.31
431.869	7.48
432.076	7.52
432.283	7.61
432.49	7.59
432.697	7.57
432.903	7.45
433.11	7.53
433.317	7.44
433.524	7.51
433.73	7.51
433.937	7.61
434.144	7.39
434.35	7.27
434.557	7.25
434.764	7.33
434.97	7.26
435.177	7.55
435.384	7.68
435.59	7.7
435.797	7.64
436.003	7.65
436.21	7.54
436.416	7.57
436.623	7.53
436.829	7.52
437.036	7.54
437.242	7.58
437.449	7.62
437.655	7.9
437.862	7.93
438.068	7.98
438.275	8.08
438.481	8.15
438.687	8.05
438.894	8.26
439.1	8.2
439.307	8.3
439.513	8.26
439.719	8.24
439.926	8.18
440.132	8.3
440.338	8.25
440.544	8.19
440.751	8.13
440.957	8.12
441.163	8.03
441.369	8.05
441.575	8.09
441.782	8.17
441.988	8.19
442.194	8.12
442.4	8.11
442.606	8.26
442.812	8.31
443.018	8.24
443.224	8.42
443.431	8.42
443.637	8.27
443.843	8.28
444.049	8.4
444.255	8.33
444.461	8.29
444.667	8.36
444.873	8.31
445.079	8.25
445.284	8.28
445.49	8.33
445.696	8.32
445.902	8.41
446.108	8.44
446.314	8.39
446.52	8.51
446.726	8.57
446.931	8.52
447.137	8.58
447.343	8.71
447.549	8.62
447.755	8.59
447.96	8.66
448.166	8.65
448.372	8.6
448.578	8.47
448.783	8.48
448.989	8.54
449.195	8.59
449.4	8.64
449.606	8.81
449.812	8.77
450.017	8.69
450.223	8.63
450.428	8.62
450.634	8.49
450.84	8.51
451.045	8.56
451.251	8.53
451.456	8.49
451.662	8.61
451.867	8.6
452.073	8.56
452.278	8.56
452.483	8.62
452.689	8.72
452.894	8.83
453.1	8.84
453.305	8.92
453.51	8.89
453.716	8.71
453.921	8.71
454.127	8.72
454.332	8.61
454.537	8.54
454.742	8.62
454.948	8.54
455.153	8.43
455.358	8.51
455.563	8.67
455.769	8.64
455.974	8.63
456.179	8.62
456.384	8.47
456.589	8.36
456.795	8.34
457	8.34
457.205	8.42
457.41	8.47
457.615	8.5
457.82	8.64
458.025	8.7
458.23	8.73
458.435	8.82
458.64	8.84
458.845	8.74
459.05	8.77
459.255	8.75
459.46	8.76
459.665	8.68
459.87	8.73
460.075	8.75
460.28	8.78
460.485	8.86
460.69	8.98
460.895	9.02
461.099	8.87
461.304	8.83
461.509	8.76
461.714	8.68
461.919	8.6
462.123	8.72
462.328	8.57
462.533	8.48
462.738	8.42
462.942	8.37
463.147	8.28
463.352	8.49
463.556	8.6
463.761	8.67
463.966	8.74
464.17	8.86
464.375	8.9
464.58	8.76
464.784	8.83
464.989	8.86
465.193	8.87
465.398	8.81
465.602	9.02
465.807	9.03
466.011	9.02
466.216	8.92
466.42	9.08
466.625	9.07
466.829	9.04
467.034	9.22
467.238	9.33
467.443	9.31
467.647	9.23
467.851	9.31
468.056	9.2
468.26	9.23
468.464	9.23
