Data from Ofra_PS_T2_2A_9GT30_Reflection_1.txt Node
Date: Wed Jul 21 17:23:08 EDT 2021
User: Adam
Spectrometer: FLMT01687
Trigger mode: 0
Integration Time (sec): 1.100000E0
Scans to average: 2
Electric dark correction enabled: true
Nonlinearity correction enabled: false
Boxcar width: 2
XAxis mode: Wavelengths
Number of Pixels in Spectrum: 3648
>>>>>Begin Spectral Data<<<<<
179.494	615.4
179.716	706.35
179.937	679.28
180.158	675.06
180.38	1113.91
180.601	598.48
180.823	208.76
181.044	96.8
181.265	264.89
181.486	148.86
181.708	117.84
181.929	680.1
182.15	-105.99
182.372	182.35
182.593	176.57
182.814	109.42
183.035	124.65
183.257	49.6
183.478	-43.46
183.699	-36.89
183.92	-77.98
184.141	-52.04
184.363	-80.53
184.584	-16.53
184.805	12.6
185.026	65.24
185.247	61.48
185.468	40.85
185.689	30.79
185.91	14.13
186.132	-0.02
186.353	-10.03
186.574	18.02
186.795	14.98
187.016	-36.76
187.237	-53.57
187.458	-85.92
187.679	-73.88
187.9	-45.44
188.121	-21.71
188.342	-24.76
188.563	27.43
188.784	37.97
189.005	42.77
189.226	110.29
189.447	86.7
189.667	-131.19
189.888	-347.41
190.109	-1414.61
190.33	-832.42
190.551	-1173.67
190.772	-212.89
190.993	-188.37
191.214	-129.75
191.434	-74.58
191.655	-18.8
191.876	-53.33
192.097	-72.95
192.318	-153.74
192.538	-265.76
192.759	-172.43
192.98	-95.04
193.201	-38.59
193.421	-3.81
193.642	15.87
193.863	13.68
194.083	-1.97
194.304	-23.33
194.525	-24.02
194.745	-44.23
194.966	-64.65
195.187	-69.4
195.407	-95.8
195.628	-151.14
195.848	-137.52
196.069	-141.94
196.29	-68.8
196.51	-63.77
196.731	-60.45
196.951	-82.98
197.172	-47.71
197.392	-83.71
197.613	-75.6
197.833	-100.15
198.054	-75.77
198.274	-42.4
198.495	-55.19
198.715	-20.17
198.936	-54.34
199.156	-60.88
199.377	-167.67
199.597	-161.23
199.817	-173.33
200.038	-59.91
200.258	-77.52
200.479	0.37
200.699	23.28
200.919	22.39
201.14	-25.32
201.36	-51.12
201.58	-4.6
201.801	42.64
202.021	25.05
202.241	35.88
202.461	28.52
202.682	-44.76
202.902	-152.03
203.122	-91.03
203.342	-92.01
203.563	-45.08
203.783	-20.36
204.003	-62.63
204.223	-66.87
204.443	1.14
204.663	-22.53
204.884	10.79
205.104	60.03
205.324	58.71
205.544	47.18
205.764	42.14
205.984	31.86
206.204	34.28
206.424	30.75
206.644	-8.32
206.864	24.54
207.084	-7.6
207.304	-32.1
207.525	-104.14
207.745	-42.26
207.964	-13.01
208.184	-36.51
208.404	-81.74
208.624	-80.44
208.844	-86.11
209.064	-410.66
209.284	-415.87
209.504	-194.23
209.724	-58.86
209.944	-39.14
210.164	0.42
210.384	6.32
210.604	3.86
210.823	-24.06
211.043	-39.8
211.263	-27.53
211.483	-15.95
211.703	-68.54
211.922	-59.42
212.142	-4.67
212.362	-2.74
212.582	-30.68
212.801	-32.26
213.021	-34.87
213.241	-38.46
213.461	-81.68
213.68	-86.15
213.9	-35.85
214.12	-17
214.339	-83.34
214.559	-46.05
214.779	2.87
214.998	13.89
215.218	-16.36
215.438	17.54
215.657	6.35
215.877	-8.13
216.096	-9.28
216.316	1.71
216.535	-32.13
216.755	-2.29
216.974	-51.42
217.194	-90.09
217.413	-97.45
217.633	-55.8
217.852	-174.52
218.072	-83.44
218.291	-44.37
218.511	-4.16
218.73	-24.24
218.95	-27.53
219.169	-25.7
219.389	-64.01
219.608	-54.97
219.827	-44.79
220.047	-7.45
220.266	-9.34
220.485	1.96
220.705	6.33
220.924	-11.44
221.143	18.38
221.363	-7.86
221.582	2.54
221.801	8.97
222.021	14.4
222.24	-71.68
222.459	23.71
222.678	-15.55
222.897	-93.55
223.117	-90.5
223.336	-67.44
223.555	-56.37
223.774	35.24
223.993	57.98
224.213	81.43
224.432	52.15
224.651	56.81
224.87	-10.05
225.089	12.19
225.308	-3.52
225.527	14.56
225.746	3.68
225.965	7.36
226.184	-30.19
226.404	7.6
226.623	-12.64
226.842	-10.32
227.061	8.49
227.28	14.9
227.499	-15.79
227.718	4.56
227.936	1.37
228.155	15.29
228.374	19.43
228.593	24.2
228.812	15.03
229.031	-2.32
229.25	-63.27
229.469	-60.99
229.688	-57.44
229.907	-9.16
230.125	26.73
230.344	43.87
230.563	38.77
230.782	56.06
231.001	-4.2
231.22	-26.15
231.438	3.98
231.657	6.57
231.876	-17.61
232.095	26.52
232.313	39.52
232.532	17.08
232.751	-3.43
232.969	24.4
233.188	-28.59
233.407	10.44
233.625	9.94
233.844	1.3
234.063	7.13
234.281	27.99
234.5	17.54
234.719	27.41
234.937	46.47
235.156	39.67
235.374	28.7
235.593	10.44
235.811	9.87
236.03	10.26
236.249	-36.52
236.467	-12.21
236.686	9.07
236.904	20.45
237.123	-8.69
237.341	3.36
237.559	6.8
237.778	-1.45
237.996	-32.55
238.215	12.21
238.433	13.79
238.652	16.49
238.87	-2.55
239.088	1.25
239.307	0.17
239.525	3.68
239.743	-29.97
239.962	-17.61
240.18	-37.76
240.398	-98.96
240.617	-121.26
240.835	-94.29
241.053	-82.67
241.271	-27.16
241.49	-1.32
241.708	-15.57
241.926	-47.79
242.144	-28.37
242.363	-86.07
242.581	-119.48
242.799	-62.51
243.017	-28.09
243.235	-40.28
243.453	-27.6
243.672	-19.01
243.89	-19.99
244.108	-32.09
244.326	-5.5
244.544	0.35
244.762	-0.02
244.98	8.54
245.198	15.76
245.416	-21.38
245.634	-27.74
245.852	-40.1
246.07	-75.4
246.288	-88.19
246.506	-117.02
246.724	-80.05
246.942	-57.52
247.16	-22.77
247.378	0.2
247.596	20
247.814	14.31
248.032	-0.24
248.25	20.94
248.468	4.28
248.685	20.87
248.903	44.15
249.121	43.14
249.339	10.39
249.557	10.35
249.775	18.72
249.992	-59.46
250.21	-45.06
250.428	-26.9
250.646	-49.33
250.863	-83.59
251.081	-29.2
251.299	-40.79
251.517	-28.98
251.734	-23.84
251.952	-24.34
252.17	-29.86
252.387	-10.75
252.605	-28.07
252.823	-10.93
253.04	5.38
253.258	18.04
253.475	4.87
253.693	64.6
253.911	48.86
254.128	53.88
254.346	49.33
254.563	30.65
254.781	-27.54
254.998	-45.78
255.216	-53.47
255.433	-25.16
255.651	21.23
255.868	65.08
256.086	97.98
256.303	71.53
256.521	34.01
256.738	-0.52
256.956	-51.94
257.173	-85.38
257.39	-81.54
257.608	-86.66
257.825	2.94
258.043	55.9
258.26	48.68
258.477	79.73
258.695	71.57
258.912	3.67
259.129	12.54
259.346	-22.45
259.564	-65.44
259.781	-91.18
259.998	-27.85
260.216	-6.68
260.433	45.12
260.65	67.71
260.867	90.92
261.084	66.7
261.302	34.24
261.519	15.07
261.736	-42.65
261.953	-68.05
262.17	-17.78
262.387	-47.8
262.604	-80.45
262.822	-72.92
263.039	-46.45
263.256	-96.98
263.473	-36.09
263.69	-9.71
263.907	30.71
264.124	39.97
264.341	31.85
264.558	7.14
264.775	23.89
264.992	9.75
265.209	10.63
265.426	43.78
265.643	54.97
265.86	59.31
266.077	50.22
266.294	35.42
266.51	-39.64
266.727	-50.06
266.944	-72.46
267.161	-61.42
267.378	-62.8
267.595	-15.06
267.812	-31.62
268.028	-50.19
268.245	-25.88
268.462	-45.22
268.679	-73.57
268.896	-17.47
269.112	5.63
269.329	-15.94
269.546	-1.25
269.763	6.84
269.979	-17.92
270.196	-18.08
270.413	-33.7
270.629	-55.12
270.846	-61.94
271.063	-51.49
271.279	-87.02
271.496	-68.87
271.712	-17.38
271.929	-4.93
272.146	-20.52
272.362	4.34
272.579	40.91
272.795	9.02
273.012	18.18
273.228	16.96
273.445	-15.8
273.661	-62.29
273.878	-67.49
274.094	-72.68
274.311	-81.7
274.527	-1.94
274.744	-3.63
274.96	-12.15
275.177	8.57
275.393	20.67
275.609	0.54
275.826	21.11
276.042	21.57
276.259	8.81
276.475	21.88
276.691	18.95
276.908	-6.89
277.124	21.61
277.34	23.25
277.557	9.13
277.773	10.58
277.989	17.2
278.205	-3.96
278.422	-4.64
278.638	0.86
278.854	20.55
279.07	37.63
279.286	22.63
279.503	6.93
279.719	-4.57
279.935	-47.73
280.151	-68.29
280.367	-33.72
280.583	-41.96
280.799	-33.06
281.016	-46.95
281.232	-23.28
281.448	-24.29
281.664	-6.2
281.88	-42.39
282.096	-21.5
282.312	8.34
282.528	16.74
282.744	25.26
282.96	36.81
283.176	26.97
283.392	12.75
283.608	4.5
283.824	0.68
284.04	8.85
284.256	10.56
284.471	2.31
284.687	-5.57
284.903	6.81
285.119	43.32
285.335	28.82
285.551	32.57
285.767	7.62
285.982	-9.33
286.198	-79.65
286.414	-27.11
286.63	-12
286.846	31.64
287.061	10.27
287.277	46.42
287.493	28.28
287.709	42.14
287.924	5.33
288.14	49.44
288.356	56.28
288.571	69.44
288.787	39.89
289.003	45.1
289.218	17.16
289.434	-28.87
289.65	-34.03
289.865	-29.98
290.081	-14.68
290.296	6.21
290.512	12.16
290.727	-23.23
290.943	-32.5
291.159	-38
291.374	-38.25
291.59	-54.63
291.805	-30.49
292.021	-10.43
292.236	4.28
292.451	20.22
292.667	22.95
292.882	47.62
293.098	39.97
293.313	20.88
293.529	-28.25
293.744	-32.67
293.959	-60.43
294.175	-51.08
294.39	-9.48
294.605	14.71
294.821	31.05
295.036	32.49
295.251	47.81
295.467	23.08
295.682	15.21
295.897	-18.23
296.112	-18.31
296.328	-31.85
296.543	-52.92
296.758	-52.99
296.973	6.63
297.188	30.6
297.404	-2.52
297.619	1.36
297.834	-12.3
298.049	-74.6
298.264	-103.05
298.479	-27.55
298.694	-18.42
298.909	2.72
299.125	25.19
299.34	32.61
299.555	-5.1
299.77	-2.15
299.985	-29.09
300.2	-80.7
300.415	-96.75
300.63	-40.12
300.845	-48.89
301.06	-58.81
301.275	-26.96
301.49	2.68
301.704	-26.28
301.919	-34.85
302.134	-47.31
302.349	-49.69
302.564	-120.92
302.779	-116.29
302.994	-134.99
303.209	-51.02
303.423	-20.4
303.638	33.2
303.853	-1.56
304.068	-3.17
304.283	-14.4
304.497	-19.53
304.712	-20.2
304.927	-9.33
305.142	-10.06
305.356	4.01
305.571	5.98
305.786	-18.3
306	-37.44
306.215	-30.42
306.43	-59.79
306.644	-53.92
306.859	-15.69
307.074	13.57
307.288	-12.58
307.503	-18.4
307.717	-35.71
307.932	-35.14
308.147	-47.5
308.361	-26.2
308.576	-22.96
308.79	-56.93
309.005	-45.95
309.219	-31.7
309.434	-34.64
309.648	-35.7
309.863	-0.96
310.077	-13.05
310.292	-22.73
310.506	-25.59
310.72	-8.23
310.935	-29.08
311.149	-27.68
311.364	-4.27
311.578	-0.13
311.792	-19.99
312.007	-2.69
312.221	-6.54
312.435	-7.77
312.649	-18.77
312.864	19.6
313.078	62.33
313.292	128.67
313.507	103.94
313.721	169.71
313.935	71.48
314.149	36.6
314.363	12.53
314.578	21.31
314.792	18.89
315.006	-2.46
315.22	14.14
315.434	18.6
315.648	27.06
315.862	27.68
316.077	38.29
316.291	23.88
316.505	23.24
316.719	23.7
316.933	7.74
317.147	7.05
317.361	-42.73
317.575	-59.08
317.789	-110.21
318.003	-195.32
318.217	-171.74
318.431	-54.47
318.645	3.09
318.859	6.95
319.073	45.86
319.287	33.24
319.5	-0.34
319.714	-49.59
319.928	-63.39
320.142	-95.69
320.356	-53.94
320.57	-23.16
320.784	-22.72
320.997	-21.82
321.211	-22.54
321.425	-58.72
321.639	-94.07
321.853	-54.96
322.066	-40.77
322.28	-33.8
322.494	-22.45
322.707	11.48
322.921	4.53
323.135	1.25
323.349	12.49
323.562	-9.79
323.776	-22.41
323.989	-23.95
324.203	-30.93
324.417	-35.94
324.63	-50.78
324.844	-73.07
325.057	-76.01
325.271	-54.7
325.485	-27.53
325.698	-4.09
325.912	15.38
326.125	4.93
326.339	3.17
326.552	-7.56
326.766	-8.03
326.979	6.37
327.193	39.52
327.406	28.55
327.619	17.32
327.833	28.01
328.046	-4.03
328.26	-39.51
328.473	-10.23
328.686	-46.6
328.9	-48.42
329.113	-33.04
329.326	-61.36
329.54	-57.73
329.753	-71.85
329.966	-95.19
330.179	-69.65
330.393	-29.47
330.606	-25.46
330.819	-2.9
331.032	16.58
331.246	23.26
331.459	51.73
331.672	50.27
331.885	46.19
332.098	7.74
332.311	-12
332.525	-79.71
332.738	-77.18
332.951	-34.68
333.164	24.91
333.377	42.07
333.59	60.49
333.803	53.83
334.016	42.93
334.229	24.77
334.442	36.71
334.655	47.88
334.868	64.71
335.081	37.46
335.294	17.06
335.507	2.52
335.72	-17.74
335.933	-38.77
336.146	-33.88
336.359	-30.64
336.572	-71.81
336.785	-94.43
336.997	-85.65
337.21	-54.59
337.423	-56.14
337.636	-31.14
337.849	-5.86
338.062	-9.83
338.274	-11.76
338.487	-20.48
338.7	-34.65
338.913	-85.99
339.125	-107.85
339.338	-198.19
339.551	-139.14
339.763	-97.26
339.976	-60.83
340.189	-28.18
340.402	7.39
340.614	-10.04
340.827	-12.16
341.039	-11.13
341.252	-12.2
341.465	4.06
341.677	-1.91
341.89	-33.16
342.102	-14.95
342.315	-40.6
342.527	-105.29
342.74	-90.49
342.952	-38.67
343.165	-45.14
343.377	-2.03
343.59	13.59
343.802	26.61
344.015	21.07
344.227	31.54
344.44	25.43
344.652	32.68
344.864	22.97
345.077	34.96
345.289	31.44
345.502	31.61
345.714	20.16
345.926	29.11
346.139	18.5
346.351	37.49
346.563	43.15
346.775	58.35
346.988	50.77
347.2	27.02
347.412	-21.3
347.624	-37.47
347.837	-68.09
348.049	-46.85
348.261	7.37
348.473	4.46
348.685	-8.88
348.897	-9.79
349.11	-25.54
349.322	-50.75
349.534	-26.64
349.746	-9.65
349.958	-15.14
350.17	-3.45
350.382	15.39
350.594	12.64
350.806	2.8
351.018	9.05
351.23	-21.6
351.442	-87.71
351.654	-85.31
351.866	-65.23
352.078	-54.83
352.29	-19.4
352.502	11.58
352.714	13.06
352.926	-1.37
353.138	-2.62
353.35	-14.13
353.561	-27.1
353.773	-49.3
353.985	-25.4
354.197	-25.74
354.409	-23.8
354.621	-16.88
354.832	-9.87
355.044	-20.63
355.256	-25.68
355.468	-10.81
355.679	-16.07
355.891	6.21
356.103	-11.67
356.314	-2.59
356.526	-7.27
356.738	5.04
356.949	-23.67
357.161	3.72
357.373	-5.65
357.584	-6.9
357.796	6.07
358.008	0.39
358.219	6.21
358.431	2.69
358.642	-1.38
358.854	-19.6
359.065	-36.58
359.277	-70.07
359.488	-79.79
359.7	-103.33
359.911	-105.17
360.123	-60.23
360.334	-68.35
360.546	-81.85
360.757	-82.21
360.969	-72.81
361.18	-59.93
361.391	-31.83
361.603	-36.12
361.814	-12.87
362.025	-3.1
362.237	-27.29
362.448	-16.09
362.659	16.52
362.871	8.63
363.082	-1.29
363.293	13.55
363.504	3.47
363.716	-12.56
363.927	-19.88
364.138	-43.96
364.349	-55.75
364.56	-49.25
364.772	-47.81
364.983	-17.59
365.194	-10.74
365.405	-6.86
365.616	18.91
365.827	21.59
366.038	-8.31
366.25	-9.29
366.461	-35.35
366.672	-28.02
366.883	-21.58
367.094	-2.47
367.305	-7.99
367.516	2.31
367.727	-41.07
367.938	-47.96
368.149	-50.99
368.36	-34.92
368.571	-28.98
368.781	-35.45
368.992	-45.03
369.203	-67.68
369.414	-85
369.625	-85.01
369.836	-71.51
370.047	-80.81
370.258	-53.85
370.468	-50.78
370.679	-74.46
370.89	-62.8
371.101	-43.28
371.312	-67.37
371.522	-81.24
371.733	-50.31
371.944	-49.7
372.155	-42.83
372.365	-40.13
372.576	-31.17
372.787	-35.79
372.997	-49.03
373.208	-59.75
373.419	-19.46
373.629	-48.07
373.84	-53.09
374.05	-64.29
374.261	-52.58
374.472	-76.66
374.682	-16.15
374.893	-16.25
375.103	25.67
375.314	16.68
375.524	20.52
375.735	12.2
375.945	33.22
376.156	4.63
376.366	16.15
376.577	24.66
376.787	15.79
376.997	-2.02
377.208	2.88
377.418	-15.24
377.629	-15.15
377.839	-13.29
378.049	-8.64
378.26	-1.43
378.47	12.32
378.68	-0.01
378.89	-3.37
379.101	-10.51
379.311	-39.49
379.521	-79.13
379.732	-68.35
379.942	-56.44
380.152	-58.36
380.362	-22.96
380.572	-7.01
380.783	-0.45
380.993	10.28
381.203	21.88
381.413	20.02
381.623	16.92
381.833	12.05
382.043	-3.77
382.253	-16.39
382.463	-13.31
382.674	-23.91
382.884	-43.94
383.094	-36.45
383.304	-29.71
383.514	-19.94
383.724	-10.04
383.934	-9.76
384.144	-27.91
384.353	-35.69
384.563	-42.14
384.773	-30.09
384.983	-35.75
385.193	-13.17
385.403	-4
385.613	-0.77
385.823	-13.91
386.033	0.36
386.242	-6.49
386.452	-8.82
386.662	-21.32
386.872	2.04
387.082	-1.22
387.291	-3.8
387.501	-6.45
387.711	5.11
387.921	-11.57
388.13	-10.95
388.34	0.63
388.55	-5.26
388.759	-7.69
388.969	-2.03
389.179	-7.92
389.388	-7.95
389.598	2.91
389.807	-2.61
390.017	-6.95
390.227	-3.19
390.436	-8.19
390.646	-9.73
390.855	-3.38
391.065	-2.91
391.274	-5.78
391.484	-3.74
391.693	-2.57
391.903	-1.86
392.112	3.73
392.322	7.67
392.531	8.4
392.74	7.39
392.95	3.22
393.159	-0.58
393.369	-0.61
393.578	-1.75
393.787	-2.03
393.997	-0.23
394.206	-1.82
394.415	-2.31
394.625	-1.33
394.834	-2.08
395.043	-0.12
395.252	2.86
395.462	4.32
395.671	4.13
395.88	5.64
396.089	5.44
396.298	4.13
396.508	4.33
396.717	3.98
396.926	3.97
397.135	3.62
397.344	3.55
397.553	3.77
397.762	4.99
397.971	4.87
398.181	4.54
398.39	4.36
398.599	3.52
398.808	2.97
399.017	3.88
399.226	5.57
399.435	7.26
399.644	7.64
399.853	6.88
400.062	5.93
400.27	5.01
400.479	4.02
400.688	3.33
400.897	4.05
401.106	4.08
401.315	3.96
401.524	3.75
401.733	4.47
401.941	4.79
402.15	5.14
402.359	5.04
402.568	5.33
402.777	5.41
402.985	5.13
403.194	5.06
403.403	5.02
403.612	4.76
403.82	4.44
404.029	4.62
404.238	4.35
404.446	4.87
404.655	4.8
404.864	4.91
405.072	4.5
405.281	4.69
405.489	4.14
405.698	4.22
405.906	4.09
406.115	4.24
406.324	4.26
406.532	4.5
406.741	4.69
406.949	4.71
407.158	4.6
407.366	4.67
407.574	4.54
407.783	4.45
407.991	4.29
408.2	4.52
408.408	4.48
408.617	4.42
408.825	4.25
409.033	4.41
409.242	4.35
409.45	4.44
409.658	4.32
409.867	4.47
410.075	4.32
410.283	4.25
410.491	4.04
410.7	4.12
410.908	4.04
411.116	4.33
411.324	4.3
411.533	4.33
411.741	4.52
411.949	4.5
412.157	4.22
412.365	4.25
412.573	4.24
412.781	4.18
412.99	4.2
413.198	4.45
413.406	4.48
413.614	4.56
413.822	4.4
414.03	4.2
414.238	3.91
414.446	4
414.654	3.66
414.862	3.83
415.07	4.03
415.278	4.17
415.486	3.89
415.694	4.14
415.902	3.91
416.109	3.72
416.317	3.69
416.525	3.63
416.733	3.53
416.941	3.7
417.149	3.6
417.357	3.65
417.564	3.84
417.772	4.08
417.98	3.97
418.188	4.12
418.395	4.13
418.603	4.2
418.811	3.74
419.019	3.75
419.226	3.9
419.434	4.02
419.642	3.73
419.849	3.99
420.057	3.94
420.265	3.89
420.472	3.44
420.68	3.59
420.887	3.39
421.095	3.48
421.302	3.44
421.51	3.68
421.717	3.78
421.925	4.01
422.132	3.87
422.34	3.63
422.547	3.66
422.755	3.51
422.962	3.23
423.17	3.18
423.377	3.39
423.585	3.38
423.792	3.29
423.999	3.41
424.207	3.36
424.414	3.47
424.621	3.51
424.829	3.38
425.036	3.44
425.243	3.72
425.451	3.43
425.658	3.28
425.865	3.6
426.072	3.62
426.28	3.66
426.487	3.68
426.694	3.7
426.901	3.45
427.108	3.47
427.315	3.41
427.523	3.65
427.73	3.82
427.937	3.87
428.144	3.72
428.351	3.61
428.558	3.82
428.765	3.56
428.972	3.53
429.179	3.68
429.386	3.85
429.593	3.49
429.8	3.43
430.007	3.6
430.214	3.73
430.421	3.63
430.628	3.58
430.835	3.64
431.042	3.8
431.249	3.72
431.456	3.77
431.662	3.98
431.869	4.2
432.076	4.18
432.283	4.31
432.49	4.18
432.697	4.12
432.903	3.85
433.11	3.81
433.317	3.79
433.524	4.11
433.73	4.12
433.937	4.48
434.144	4.31
434.35	4.3
434.557	4.08
434.764	4.06
434.97	3.9
435.177	4.21
435.384	4.18
435.59	4.39
435.797	4.62
436.003	4.7
436.21	4.65
436.416	4.73
436.623	4.81
436.829	4.78
437.036	4.92
437.242	4.82
437.449	4.76
437.655	4.63
437.862	4.65
438.068	4.56
438.275	4.81
438.481	5.09
438.687	5.12
438.894	5.13
439.1	5.18
439.307	5.33
439.513	5.15
439.719	5.21
439.926	5.29
440.132	5.26
440.338	5.1
440.544	5.22
440.751	5.14
440.957	5.25
441.163	5.18
441.369	5.15
441.575	4.98
441.782	4.99
441.988	4.85
442.194	4.9
442.4	4.95
442.606	5.26
442.812	5.34
443.018	5.39
443.224	5.42
443.431	5.51
443.637	5.3
443.843	5.19
444.049	5.21
444.255	5.2
444.461	5.19
444.667	5.22
444.873	5.49
445.079	5.48
445.284	5.63
445.49	5.38
445.696	5.34
445.902	5.12
446.108	5.16
446.314	5.06
446.52	5.21
446.726	5.48
446.931	5.56
447.137	5.61
447.343	5.67
447.549	5.54
447.755	5.29
447.96	5.35
448.166	5.22
448.372	5.19
448.578	5.38
448.783	5.44
448.989	5.51
449.195	5.75
449.4	5.8
449.606	5.78
449.812	5.65
450.017	5.67
450.223	5.54
450.428	5.51
450.634	5.67
450.84	5.96
451.045	5.86
451.251	5.81
451.456	5.96
451.662	5.93
451.867	5.91
452.073	5.98
452.278	6.08
452.483	6.2
452.689	6.09
452.894	6.13
453.1	6.18
453.305	6.09
453.51	5.94
453.716	5.86
453.921	5.88
454.127	5.74
454.332	5.7
454.537	5.58
454.742	5.67
454.948	5.61
455.153	5.73
455.358	5.88
455.563	6.16
455.769	6.33
455.974	6.36
456.179	6.2
456.384	6.09
456.589	5.91
456.795	5.62
457	5.55
457.205	5.85
457.41	5.9
457.615	5.94
457.82	6.15
458.025	6.23
458.23	6.06
458.435	6.12
458.64	6.04
458.845	6.12
459.05	6.11
459.255	6.11
459.46	6.2
459.665	6.29
459.87	6.26
460.075	6.24
460.28	6.36
460.485	6.34
460.69	6.29
460.895	6.12
