Data from Ofra_PS_T2_2A_2GT03_Reflection_1.txt Node
Date: Wed Jul 21 17:28:53 EDT 2021
User: Adam
Spectrometer: FLMT01687
Trigger mode: 0
Integration Time (sec): 1.100000E0
Scans to average: 2
Electric dark correction enabled: true
Nonlinearity correction enabled: false
Boxcar width: 2
XAxis mode: Wavelengths
Number of Pixels in Spectrum: 3648
>>>>>Begin Spectral Data<<<<<
179.494	672.4
179.716	726.82
179.937	634.37
180.158	585.62
180.38	807.81
180.601	110.77
180.823	6.78
181.044	-94.08
181.265	1.84
181.486	36.86
181.708	143.3
181.929	1003.06
182.15	-620.42
182.372	19.43
182.593	-12.37
182.814	32.62
183.035	88.78
183.257	79.75
183.478	19.89
183.699	38.49
183.92	20.54
184.141	6.66
184.363	-50.69
184.584	4.67
184.805	21.92
185.026	48.58
185.247	64.67
185.468	50.6
185.689	54.03
185.91	49.46
186.132	58.5
186.353	35.36
186.574	97.11
186.795	87.2
187.016	32.88
187.237	3.41
187.458	-8.07
187.679	-20.53
187.9	-43.76
188.121	-13.02
188.342	-29.93
188.563	19.45
188.784	28.56
189.005	21.65
189.226	60.75
189.447	39.86
189.667	-110.44
189.888	-277.59
190.109	-957.79
190.33	-609.35
190.551	-942.04
190.772	-233.05
190.993	-210.38
191.214	-202.29
191.434	-111.51
191.655	-26.07
191.876	-56.39
192.097	-91.7
192.318	-86.58
192.538	-187.24
192.759	-151.61
192.98	-88
193.201	-52.69
193.421	-27.23
193.642	-2.53
193.863	9.53
194.083	-7.57
194.304	-12.21
194.525	-17.46
194.745	-27.57
194.966	-78.41
195.187	-51.78
195.407	-64.15
195.628	-119.13
195.848	-134.81
196.069	-80.04
196.29	-50.2
196.51	-58.34
196.731	-27.91
196.951	-37.58
197.172	-48.35
197.392	-73.39
197.613	-93.64
197.833	-148.11
198.054	-124.41
198.274	-72.75
198.495	-92.72
198.715	-34.77
198.936	-50.14
199.156	-34.65
199.377	-152.4
199.597	-140.44
199.817	-161.51
200.038	-67.54
200.258	-119.14
200.479	-3.95
200.699	18.11
200.919	31.38
201.14	-1.33
201.36	-15.82
201.58	-4.95
201.801	24.76
202.021	-5.09
202.241	-16.01
202.461	-20.21
202.682	-124.2
202.902	-212.97
203.122	-115.43
203.342	-88.93
203.563	-29.13
203.783	-2.02
204.003	-23.54
204.223	-38.97
204.443	16.25
204.663	-12.99
204.884	15.3
205.104	33.32
205.324	65.74
205.544	52.32
205.764	46.41
205.984	48.17
206.204	56.65
206.424	20.53
206.644	-32.6
206.864	-25.04
207.084	-91.17
207.304	-36.48
207.525	-139.53
207.745	-50.56
207.964	5.62
208.184	-28.64
208.404	-107.05
208.624	-92.17
208.844	-79.65
209.064	-324.08
209.284	-346.5
209.504	-146.25
209.724	-18.47
209.944	-16.76
210.164	4.45
210.384	26.15
210.604	28.29
210.823	-25.57
211.043	-28.08
211.263	-27.47
211.483	-42.15
211.703	-102.35
211.922	-67.32
212.142	-11.37
212.362	13.32
212.582	-0.72
212.801	-3.81
213.021	-11.3
213.241	-36.52
213.461	-66.93
213.68	-78.66
213.9	-23.47
214.12	-19
214.339	-78.64
214.559	-60.4
214.779	0.93
214.998	-14.32
215.218	-58.47
215.438	-29.81
215.657	-45.98
215.877	-74.04
216.096	-38.32
216.316	-26.77
216.535	-16.84
216.755	-7.24
216.974	-92.67
217.194	-141.01
217.413	-88.08
217.633	-99.66
217.852	-189.35
218.072	-73.24
218.291	-25.66
218.511	-0.59
218.73	-21.42
218.95	-9.36
219.169	-3.16
219.389	-43.17
219.608	-33.27
219.827	-20.63
220.047	-19.41
220.266	-10.65
220.485	-13.78
220.705	-13.54
220.924	-23
221.143	21.48
221.363	5.21
221.582	34.74
221.801	55.4
222.021	56.65
222.24	27.72
222.459	52.75
222.678	-5.24
222.897	-111
223.117	-145.06
223.336	-131.88
223.555	-67.05
223.774	-17.04
223.993	30.66
224.213	78.24
224.432	70.73
224.651	75.96
224.87	56.58
225.089	55.56
225.308	48.04
225.527	49.53
225.746	36.58
225.965	10.62
226.184	-5.6
226.404	1.55
226.623	-25.8
226.842	-20.25
227.061	21.79
227.28	16.8
227.499	5.75
227.718	21.86
227.936	18.66
228.155	12.11
228.374	5.5
228.593	16.62
228.812	23.36
229.031	30.12
229.25	-11.48
229.469	6.25
229.688	35.52
229.907	49.85
230.125	55.38
230.344	43.92
230.563	38.62
230.782	28.62
231.001	-55.36
231.22	-37.05
231.438	-7.3
231.657	-5.8
231.876	-21.67
232.095	28.08
232.313	18
232.532	-4.44
232.751	-22.57
232.969	-12.76
233.188	-74.54
233.407	-1.34
233.625	17.02
233.844	10.34
234.063	30.3
234.281	32.14
234.5	9.72
234.719	6.65
234.937	18.17
235.156	-2.71
235.374	-7.19
235.593	-18.83
235.811	-26
236.03	-29.56
236.249	-59.69
236.467	-35.06
236.686	-9.73
236.904	4.93
237.123	-14.06
237.341	0.76
237.559	5.23
237.778	-8.56
237.996	-53.35
238.215	-3.21
238.433	5.22
238.652	-7.49
238.87	-11.87
239.088	10.36
239.307	-1.27
239.525	-14.75
239.743	-32.31
239.962	-38.23
240.18	-41.84
240.398	-73.94
240.617	-68.06
240.835	-59.19
241.053	-27.69
241.271	2.76
241.49	28.32
241.708	-6.17
241.926	-11.1
242.144	-12.31
242.363	-79.68
242.581	-106.27
242.799	-52.98
243.017	1.24
243.235	-24.05
243.453	-7.77
243.672	-10.52
243.89	-6.53
244.108	-35.71
244.326	-7.56
244.544	7.96
244.762	11.13
244.98	19.71
245.198	15.4
245.416	-12.11
245.634	-24.36
245.852	-42.68
246.07	-65.79
246.288	-46.79
246.506	-72.21
246.724	-57.33
246.942	-22.89
247.16	-2.17
247.378	6.04
247.596	26.93
247.814	24.28
248.032	-14.29
248.25	-15.51
248.468	-8.22
248.685	2.33
248.903	47.61
249.121	41.89
249.339	23.79
249.557	31.93
249.775	27.71
249.992	-55.3
250.21	-38.94
250.428	-22.6
250.646	-42.29
250.863	-57.3
251.081	-30.79
251.299	-15.37
251.517	-3.05
251.734	-14.62
251.952	-24.08
252.17	-6.81
252.387	2.57
252.605	-20.23
252.823	-8.28
253.04	14.4
253.258	28.52
253.475	12.27
253.693	56.55
253.911	46.42
254.128	45.65
254.346	40.62
254.563	17.66
254.781	-12.68
254.998	-48.16
255.216	-70.7
255.433	-60.67
255.651	-8.9
255.868	23.85
256.086	62.99
256.303	72.28
256.521	51.33
256.738	25.29
256.956	-9.03
257.173	-28.05
257.39	-46.33
257.608	-73.41
257.825	-31.8
258.043	-1.4
258.26	11.18
258.477	30.31
258.695	37.29
258.912	-6.19
259.129	6.66
259.346	-40.67
259.564	-61.72
259.781	-92.55
259.998	-29.57
260.216	-1.11
260.433	60.95
260.65	46.52
260.867	56.73
261.084	38.28
261.302	6.08
261.519	-40.47
261.736	-39.17
261.953	-51.04
262.17	-19.68
262.387	-54.4
262.604	-81.68
262.822	-88.83
263.039	-66.51
263.256	-136.25
263.473	-81.87
263.69	-41.02
263.907	10.52
264.124	26.69
264.341	47.03
264.558	35.66
264.775	53.25
264.992	22
265.209	16.93
265.426	33.13
265.643	31.35
265.86	23.65
266.077	34.32
266.294	15.84
266.51	-23.94
266.727	-32.59
266.944	-18.07
267.161	-34.7
267.378	-42.59
267.595	-15.21
267.812	-39.15
268.028	-68.75
268.245	-17.54
268.462	-29.76
268.679	-44.23
268.896	4
269.112	11.79
269.329	-13.89
269.546	1.11
269.763	-4.34
269.979	-18.44
270.196	-16.34
270.413	-40.54
270.629	-63.51
270.846	-63.74
271.063	-42.21
271.279	-55.18
271.496	-36.1
271.712	11.88
271.929	55.97
272.146	28.53
272.362	30.05
272.579	57.45
272.795	15.17
273.012	-1.26
273.228	0.26
273.445	-13.62
273.661	-34
273.878	-39.77
274.094	-50.35
274.311	-57.44
274.527	4.85
274.744	-1.11
274.96	0.63
275.177	17.86
275.393	21.94
275.609	11.02
275.826	36.55
276.042	29.15
276.259	16.12
276.475	25.92
276.691	22.17
276.908	-4.98
277.124	11.6
277.34	6.86
277.557	-9.12
277.773	-12.62
277.989	-15.33
278.205	-17.91
278.422	-4.9
278.638	12.97
278.854	40.63
279.07	47.43
279.286	48.23
279.503	31.95
279.719	-11.11
279.935	-47.23
280.151	-70.68
280.367	-49.79
280.583	-62.87
280.799	-38.4
281.016	-65.32
281.232	-13.59
281.448	-5.3
281.664	28.57
281.88	16.11
282.096	41.58
282.312	56.06
282.528	45.4
282.744	30.22
282.96	53.09
283.176	33.72
283.392	17.36
283.608	13.11
283.824	11.09
284.04	5.64
284.256	14.25
284.471	1.36
284.687	3.26
284.903	15.19
285.119	42.48
285.335	19.2
285.551	39.98
285.767	27.89
285.982	7.33
286.198	-44.28
286.414	6.7
286.63	13.01
286.846	31.68
287.061	16.19
287.277	62.09
287.493	37.56
287.709	55.76
287.924	38.28
288.14	69.3
288.356	58.79
288.571	79.63
288.787	55.48
289.003	56.67
289.218	31.99
289.434	-15.49
289.65	-28.56
289.865	-38.49
290.081	-13.93
290.296	-5.12
290.512	6.53
290.727	-21.62
290.943	-26.24
291.159	-40.58
291.374	-35.87
291.59	-55.31
291.805	-45.11
292.021	-31.85
292.236	-34.36
292.451	-18.49
292.667	-8.9
292.882	15.16
293.098	6.41
293.313	-6.93
293.529	-35.19
293.744	-52.82
293.959	-57.55
294.175	-51.52
294.39	-12.52
294.605	3.46
294.821	33.4
295.036	38.7
295.251	49.46
295.467	33.47
295.682	33.08
295.897	-18.4
296.112	-34.57
296.328	-27.01
296.543	-47.86
296.758	-45.43
296.973	5.11
297.188	32.86
297.404	1.53
297.619	-14.68
297.834	-22.55
298.049	-43.21
298.264	-67.24
298.479	-8.25
298.694	5.42
298.909	19.95
299.125	27.09
299.34	37.49
299.555	9.67
299.77	24.81
299.985	-10.32
300.2	-63.45
300.415	-76.1
300.63	-37.61
300.845	-48.03
301.06	-46.3
301.275	-1.95
301.49	18.02
301.704	-1.27
301.919	-16.96
302.134	-18.5
302.349	-28.53
302.564	-108.08
302.779	-137.1
302.994	-106.66
303.209	-86.39
303.423	-57.94
303.638	11.39
303.853	-18.09
304.068	-28.32
304.283	-22.79
304.497	-23.42
304.712	-38.3
304.927	-12.21
305.142	-26.4
305.356	-14.38
305.571	-20.7
305.786	-19.92
306	-39.53
306.215	-10.61
306.43	-25.74
306.644	-12.98
306.859	24.62
307.074	43.78
307.288	3.12
307.503	-14.51
307.717	-29.59
307.932	-37.76
308.147	-56.4
308.361	-26.7
308.576	-19.46
308.79	-42.7
309.005	-32.52
309.219	-17.94
309.434	-27.38
309.648	-35.29
309.863	-5.48
310.077	-11.42
310.292	-5.02
310.506	-3.08
310.72	16.01
310.935	26.69
311.149	22.16
311.364	39.4
311.578	49.62
311.792	40.69
312.007	33.99
312.221	14
312.435	-3.44
312.649	-19.14
312.864	-45.53
313.078	-16.23
313.292	66.87
313.507	55.1
313.721	89.21
313.935	71.9
314.149	41.44
314.363	12.42
314.578	16.96
314.792	17.53
315.006	8.09
315.22	29.95
315.434	36.4
315.648	38.44
315.862	36.27
316.077	39.83
316.291	8.61
316.505	16.76
316.719	2.65
316.933	-20.19
317.147	-18.45
317.361	-49.48
317.575	-82.99
317.789	-88.27
318.003	-130.64
318.217	-102.04
318.431	-9.79
318.645	24.85
318.859	11.93
319.073	43.74
319.287	28.13
319.5	-6.75
319.714	-40.98
319.928	-63.11
320.142	-104.95
320.356	-52.8
320.57	-15.29
320.784	-22.64
320.997	-9.48
321.211	-2.69
321.425	-66.77
321.639	-114.23
321.853	-32.35
322.066	-12.04
322.28	-17.52
322.494	12.88
322.707	35.92
322.921	-2.42
323.135	-6.9
323.349	-6.23
323.562	-33.43
323.776	-48.79
323.989	-42.41
324.203	-74.27
324.417	-67.15
324.63	-70.58
324.844	-66.01
325.057	-65.91
325.271	-4.62
325.485	12.21
325.698	38.96
325.912	48.19
326.125	31.57
326.339	7.44
326.552	-6.32
326.766	-14.82
326.979	13.58
327.193	51.72
327.406	43.65
327.619	45.61
327.833	68.42
328.046	31.68
328.26	-12.79
328.473	29.87
328.686	-4.92
328.9	-18.35
329.113	2.84
329.326	-3.19
329.54	-36.37
329.753	-21.88
329.966	-61.46
330.179	-44.83
330.393	-5.62
330.606	19.07
330.819	23.23
331.032	45.2
331.246	47.26
331.459	64.26
331.672	38.73
331.885	39.82
332.098	2.46
332.311	-16.14
332.525	-67.52
332.738	-44.62
332.951	-24.38
333.164	13.02
333.377	33.38
333.59	54.94
333.803	57
334.016	39.99
334.229	38.52
334.442	28.79
334.655	28.05
334.868	29.62
335.081	20.01
335.294	2.94
335.507	-3.09
335.72	-10.35
335.933	-21.49
336.146	-16.52
336.359	10.84
336.572	-26.41
336.785	-48.12
336.997	-34.38
337.21	-3.5
337.423	-30.83
337.636	-15.27
337.849	8.55
338.062	14.57
338.274	16.68
338.487	11.11
338.7	26.61
338.913	-17.43
339.125	-53.67
339.338	-112.23
339.551	-64.14
339.763	-49.88
339.976	-10.42
340.189	11.22
340.402	26.8
340.614	14.89
340.827	8.5
341.039	-12.78
341.252	-24.33
341.465	-8.91
341.677	-9.98
341.89	-49.69
342.102	-21.69
342.315	-32.33
342.527	-59.44
342.74	-58.37
342.952	9.13
343.165	18.28
343.377	45.17
343.59	30.49
343.802	53
344.015	35.8
344.227	55.88
344.44	45.58
344.652	59.39
344.864	35.42
345.077	43.25
345.289	27.31
345.502	20.99
345.714	3.29
345.926	6.64
346.139	-11.27
346.351	2.51
346.563	16.11
346.775	25.42
346.988	20.09
347.2	12.2
347.412	-47.2
347.624	-68.52
347.837	-87.87
348.049	-61.53
348.261	-21.09
348.473	4.5
348.685	-4.6
348.897	-4.16
349.11	-26.36
349.322	-42.62
349.534	-32.56
349.746	0.91
349.958	4.71
350.17	9.63
350.382	13.01
350.594	11.65
350.806	7.24
351.018	20.38
351.23	13.55
351.442	-31.54
351.654	-40.04
351.866	-35.85
352.078	-27.36
352.29	2.25
352.502	24.17
352.714	34.61
352.926	23.43
353.138	10.21
353.35	-12.27
353.561	-15.18
353.773	-42.91
353.985	-21.12
354.197	-25.84
354.409	-25.16
354.621	-29.96
354.832	-12.3
355.044	-35.53
355.256	-33.37
355.468	-5.99
355.679	-13.13
355.891	-3.45
356.103	-1.39
356.314	10.62
356.526	-8.49
356.738	13.94
356.949	-7.71
357.161	-8.68
357.373	-22.37
357.584	-33.17
357.796	-42.12
358.008	-37.31
358.219	-11.2
358.431	-16.16
358.642	-1.89
358.854	13.69
359.065	4.46
359.277	-36.28
359.488	-34.5
359.7	-51.72
359.911	-70.07
360.123	-43.7
360.334	-35.45
360.546	-54.25
360.757	-49.62
360.969	-39.6
361.18	-34.6
361.391	-26.19
361.603	-18.11
361.814	-12.82
362.025	-17.48
362.237	-30.14
362.448	-13.31
362.659	12.96
362.871	16.08
363.082	20.4
363.293	26.73
363.504	11.04
363.716	-16.81
363.927	-25.34
364.138	-42.65
364.349	-48.34
364.56	-32.53
364.772	-25.41
364.983	-5.92
365.194	-6.89
365.405	7.09
365.616	19.29
365.827	22.73
366.038	-9.06
366.25	-1.44
366.461	-44.28
366.672	-30.71
366.883	-12.56
367.094	-2.05
367.305	-13.53
367.516	1.87
367.727	-25.84
367.938	-40.97
368.149	-34.01
368.36	-19.08
368.571	-12.71
368.781	-26
368.992	-40.92
369.203	-56.23
369.414	-62.35
369.625	-76.54
369.836	-55.52
370.047	-62.06
370.258	-43.54
370.468	-51.94
370.679	-64.06
370.89	-65.56
371.101	-41.2
371.312	-52.05
371.522	-49.92
371.733	-32.46
371.944	-14.44
372.155	-11.45
372.365	-10.46
372.576	-5.37
372.787	-6.59
372.997	-24.1
373.208	-21
373.419	16.65
373.629	-4.22
373.84	-2.54
374.05	-12.69
374.261	-13.49
374.472	-48.35
374.682	0.29
374.893	2.92
375.103	43.75
375.314	34.72
375.524	26.11
375.735	10.97
375.945	10.51
376.156	-27.73
376.366	-13.62
376.577	3.44
376.787	-7.3
376.997	3.8
377.208	7.07
377.418	-18.98
377.629	-9.32
377.839	7.24
378.049	0.74
378.26	13.67
378.47	27.93
378.68	11.55
378.89	-3.25
379.101	-15.44
379.311	-55.33
379.521	-83.97
379.732	-80.93
379.942	-72.16
380.152	-70.63
380.362	-22.06
380.572	-16.43
380.783	-11.57
380.993	5.11
381.203	13.88
381.413	18.8
381.623	24.52
381.833	25.49
382.043	9.62
382.253	0.75
382.463	-5.62
382.674	-19.27
382.884	-39.29
383.094	-31.29
383.304	-18.67
383.514	-13.79
383.724	2.24
383.934	-1.63
384.144	-14.02
384.353	-29.66
384.563	-33.3
384.773	-27.28
384.983	-28.9
385.193	-1.21
385.403	5.62
385.613	5.86
385.823	-3.99
386.033	6.68
386.242	-9.78
386.452	-11.22
386.662	-14.68
386.872	-9.14
387.082	-15.15
387.291	-24.36
387.501	-23.99
387.711	-19.58
387.921	-27.06
388.13	-24.96
388.34	-6.63
388.55	-9.79
388.759	-10.14
388.969	-3.33
389.179	-0.49
389.388	-4.49
389.598	1.73
389.807	-2.74
390.017	-4.8
390.227	-5.64
390.436	-8.22
390.646	-7.86
390.855	-3.41
391.065	-6
391.274	-8.89
391.484	-8.32
391.693	-7.96
391.903	-8.95
392.112	-4.39
392.322	0.46
392.531	3.75
392.74	4.22
392.95	0.63
393.159	-1.01
393.369	-2.09
393.578	-2.94
393.787	-3.68
393.997	-0.91
394.206	-1.89
394.415	-1.27
394.625	-1.29
394.834	-4.4
395.043	-2.28
395.252	1.48
395.462	2.11
395.671	3.47
395.88	5.88
396.089	5.51
396.298	2.3
396.508	2.33
396.717	0.37
396.926	0.91
397.135	0.55
397.344	1.38
397.553	1.21
397.762	2.62
397.971	1.91
398.181	1.84
398.39	1.37
398.599	1.36
398.808	1.56
399.017	3.03
399.226	4.41
399.435	5.78
399.644	5.9
399.853	5.09
400.062	4.27
400.27	3.01
400.479	2.86
400.688	2.24
400.897	2.43
401.106	2.45
401.315	2.56
401.524	2.33
401.733	2.98
401.941	3.58
402.15	3.67
402.359	3.69
402.568	4.04
402.777	3.94
402.985	3.59
403.194	3.67
403.403	3.59
403.612	3.02
403.82	2.91
404.029	3.08
404.238	2.85
404.446	3.07
404.655	2.91
404.864	2.95
405.072	2.55
405.281	2.77
405.489	2.46
405.698	2.59
405.906	2.55
406.115	2.65
406.324	2.5
406.532	2.63
406.741	2.86
406.949	2.79
407.158	2.79
407.366	2.86
407.574	2.82
407.783	2.7
407.991	2.54
408.2	2.74
408.408	2.72
408.617	2.7
408.825	2.64
409.033	2.79
409.242	2.8
409.45	2.91
409.658	2.85
409.867	2.99
410.075	2.89
410.283	2.73
410.491	2.57
410.7	2.55
410.908	2.51
411.116	2.83
411.324	2.73
411.533	2.65
411.741	2.87
411.949	2.95
412.157	2.62
412.365	2.73
412.573	2.77
412.781	2.78
412.99	2.51
413.198	2.66
413.406	2.56
413.614	2.65
413.822	2.51
414.03	2.5
414.238	2.36
414.446	2.63
414.654	2.4
414.862	2.54
415.07	2.75
415.278	2.95
415.486	2.64
415.694	2.84
415.902	2.56
416.109	2.37
416.317	2.21
416.525	2.16
416.733	2.11
416.941	2.2
417.149	2.25
417.357	2.33
417.564	2.5
417.772	2.74
417.98	2.77
418.188	2.79
418.395	2.88
418.603	2.92
418.811	2.48
419.019	2.31
419.226	2.44
419.434	2.36
419.642	2.25
419.849	2.54
420.057	2.73
420.265	2.58
420.472	2.38
420.68	2.35
420.887	2.13
421.095	2.08
421.302	2.13
421.51	2.34
421.717	2.47
421.925	2.67
422.132	2.58
422.34	2.28
422.547	2.3
422.755	2.12
422.962	1.9
423.17	1.95
423.377	2.12
423.585	2.2
423.792	2.16
423.999	2.35
424.207	2.24
424.414	2.39
424.621	2.3
424.829	2.36
425.036	2.38
425.243	2.51
425.451	2.3
425.658	2.03
425.865	2.3
426.072	2.11
426.28	2.37
426.487	2.29
426.694	2.31
426.901	1.89
427.108	1.89
427.315	1.66
427.523	2.03
427.73	2.28
427.937	2.41
428.144	2.38
428.351	2.38
428.558	2.48
428.765	2.28
428.972	2.25
429.179	2.41
429.386	2.56
429.593	2.23
429.8	2.08
430.007	2.22
430.214	2.21
430.421	1.98
430.628	1.84
430.835	1.92
431.042	2.04
431.249	2.06
431.456	2.08
431.662	2.26
431.869	2.44
432.076	2.36
432.283	2.46
432.49	2.45
432.697	2.46
432.903	2.27
433.11	2.13
433.317	2.18
433.524	2.37
433.73	2.29
433.937	2.57
434.144	2.59
434.35	2.44
434.557	2.26
434.764	2.31
434.97	2.12
435.177	2.24
435.384	2.19
435.59	2.31
435.797	2.5
436.003	2.6
436.21	2.54
436.416	2.67
436.623	2.65
436.829	2.58
437.036	2.63
437.242	2.64
437.449	2.49
437.655	2.48
437.862	2.5
438.068	2.32
438.275	2.5
438.481	2.73
438.687	2.72
438.894	2.61
439.1	2.76
439.307	2.91
439.513	2.8
439.719	2.81
439.926	3
440.132	2.91
440.338	2.63
440.544	2.74
440.751	2.63
440.957	2.62
441.163	2.62
441.369	2.69
441.575	2.49
441.782	2.59
441.988	2.36
442.194	2.35
442.4	2.3
442.606	2.56
442.812	2.62
443.018	2.78
443.224	2.91
443.431	3.08
443.637	2.83
443.843	2.75
444.049	2.71
444.255	2.6
444.461	2.56
444.667	2.57
444.873	2.7
445.079	2.66
445.284	2.79
445.49	2.57
445.696	2.43
445.902	2.38
446.108	2.42
446.314	2.32
446.52	2.43
446.726	2.72
446.931	2.62
447.137	2.6
447.343	2.67
447.549	2.64
447.755	2.47
447.96	2.62
448.166	2.63
448.372	2.54
448.578	2.56
448.783	2.65
448.989	2.69
449.195	2.89
449.4	2.95
449.606	2.9
449.812	2.77
450.017	2.75
450.223	2.56
450.428	2.56
450.634	2.73
450.84	2.92
451.045	2.85
451.251	2.81
451.456	3.04
451.662	3.04
451.867	3.05
452.073	2.99
452.278	3.17
452.483	3.25
452.689	3.2
452.894	3.18
453.1	3.27
453.305	3.11
453.51	2.93
453.716	2.88
453.921	2.85
454.127	2.81
454.332	2.8
454.537	2.73
454.742	2.76
454.948	2.69
455.153	2.76
455.358	2.86
455.563	2.94
455.769	3.09
455.974	3.14
456.179	2.98
456.384	2.91
456.589	2.82
456.795	2.55
457	2.57
457.205	2.87
457.41	2.93
457.615	2.94
457.82	3.06
458.025	3.1
458.23	2.81
458.435	2.77
458.64	2.73
458.845	2.88
459.05	2.77
459.255	2.9
459.46	2.85
459.665	2.9
459.87	2.84
460.075	2.84
460.28	2.86
460.485	3.05
460.69	3.05
460.895	2.88
461.099	2.82
461.304	2.99
461.509	2.87
