Data from Ofra_1a_PS_6GT17_Reflection_1.txt Node
Date: Tue Jul 20 11:00:13 EDT 2021
User: Adam
Spectrometer: FLMT01687
Trigger mode: 0
Integration Time (sec): 1.004000E0
Scans to average: 2
Electric dark correction enabled: true
Nonlinearity correction enabled: false
Boxcar width: 2
XAxis mode: Wavelengths
Number of Pixels in Spectrum: 3648
>>>>>Begin Spectral Data<<<<<
179.494	-473.6
179.716	-684.73
179.937	1186.96
180.158	-1511.46
180.38	130.15
180.601	89.87
180.823	-27.17
181.044	-63.04
181.265	-12.17
181.486	74.31
181.708	155.68
181.929	-5045.45
182.15	32.58
182.372	-155.17
182.593	196.38
182.814	-133.96
183.035	6.28
183.257	43.31
183.478	28.51
183.699	20.07
183.92	-39.63
184.141	-27.11
184.363	-44.69
184.584	-86.82
184.805	-45.21
185.026	-1.82
185.247	-22.84
185.468	-35.33
185.689	-6.82
185.91	-34.07
186.132	-4.15
186.353	-2.96
186.574	-3.09
186.795	15.64
187.016	37.55
187.237	26.05
187.458	16.59
187.679	1.66
187.9	2.3
188.121	11.31
188.342	2.63
188.563	27.56
188.784	58.16
189.005	47.33
189.226	34.57
189.447	35.52
189.667	24.57
189.888	-6.27
190.109	-24.09
190.33	-25.11
190.551	-15.38
190.772	-10.55
190.993	4.41
191.214	-0.98
191.434	1.15
191.655	-36.13
191.876	-13.56
192.097	19.36
192.318	37.1
192.538	-8.5
192.759	-6.68
192.98	14.19
193.201	-6.17
193.421	-26.62
193.642	1.72
193.863	15.84
194.083	-17
194.304	4.66
194.525	33.73
194.745	35.55
194.966	28.72
195.187	33.43
195.407	25.57
195.628	17.93
195.848	26.65
196.069	26.46
196.29	41.19
196.51	29.91
196.731	13.45
196.951	-16.73
197.172	-12.74
197.392	-15.91
197.613	18.55
197.833	15.32
198.054	30.27
198.274	12.03
198.495	-2.34
198.715	-34.94
198.936	7.58
199.156	9.03
199.377	6.92
199.597	24.7
199.817	33.38
200.038	5.5
200.258	20.4
200.479	55.44
200.699	28.97
200.919	27.76
201.14	35.1
201.36	23.42
201.58	-4.83
201.801	6.97
202.021	-13.06
202.241	-14.93
202.461	4.98
202.682	30.37
202.902	42.81
203.122	61.37
203.342	55.29
203.563	36.68
203.783	12.16
204.003	-10.9
204.223	12.01
204.443	18
204.663	22.11
204.884	55.55
205.104	67.71
205.324	52.53
205.544	9.29
205.764	23.32
205.984	0.84
206.204	5.76
206.424	-9.73
206.644	9.34
206.864	-25.61
207.084	-7.26
207.304	-16.82
207.525	-22.86
207.745	10.05
207.964	33.11
208.184	41.92
208.404	30.62
208.624	51.68
208.844	38.43
209.064	40.13
209.284	27.88
209.504	29.63
209.724	0.9
209.944	-0.39
210.164	-24.12
210.384	-20.94
210.604	-67.07
210.823	-59.57
211.043	-56.81
211.263	-107.37
211.483	-68.71
211.703	-23.97
211.922	-11.58
212.142	27.55
212.362	50.3
212.582	54.57
212.801	46.33
213.021	10.04
213.241	-22.38
213.461	-20.73
213.68	-5.28
213.9	-2.83
214.12	17.99
214.339	17.68
214.559	15.72
214.779	9.71
214.998	25.06
215.218	16.47
215.438	31.15
215.657	42.29
215.877	29.26
216.096	27.27
216.316	23.47
216.535	15.96
216.755	21.77
216.974	25.16
217.194	3.62
217.413	-2.11
217.633	-6.68
217.852	-21.92
218.072	-13.61
218.291	-3.9
218.511	1.01
218.73	5.39
218.95	-17.92
219.169	-23.5
219.389	-28.18
219.608	-18.52
219.827	-11.87
220.047	22.87
220.266	31.71
220.485	43.01
220.705	37
220.924	11.34
221.143	25.14
221.363	8.59
221.582	9.87
221.801	27.03
222.021	46.83
222.24	41.6
222.459	61.08
222.678	55.68
222.897	52.48
223.117	41.33
223.336	37.25
223.555	44.18
223.774	62.75
223.993	58.18
224.213	81.3
224.432	57.59
224.651	42.11
224.87	30.3
225.089	16.53
225.308	18.63
225.527	11.62
225.746	-3.17
225.965	-13.03
226.184	-13.03
226.404	-33.28
226.623	-14.5
226.842	1.99
227.061	18.7
227.28	25.99
227.499	25.79
227.718	26.03
227.936	23.1
228.155	20
228.374	13.15
228.593	29.12
228.812	32
229.031	40.76
229.25	16.08
229.469	18.06
229.688	5.97
229.907	8.49
230.125	-0.13
230.344	20.85
230.563	26.76
230.782	35.82
231.001	35.51
231.22	34.47
231.438	29.94
231.657	23.5
231.876	11.08
232.095	15.49
232.313	14.04
232.532	16.28
232.751	20.62
232.969	17.78
233.188	8.77
233.407	11.77
233.625	14.93
233.844	18.02
234.063	23.74
234.281	18.84
234.5	16.34
234.719	1.74
234.937	-31.21
235.156	-29.01
235.374	-9.59
235.593	7.29
235.811	34.32
236.03	40.06
236.249	41.99
236.467	41.63
236.686	26.65
236.904	23.19
237.123	25.52
237.341	24.75
237.559	7.05
237.778	27.37
237.996	-16.54
238.215	-34.64
238.433	-55.52
238.652	28.01
238.87	15.21
239.088	33.1
239.307	23.28
239.525	13.89
239.743	-8.74
239.962	-34.45
240.18	-3.28
240.398	-11.89
240.617	-32.25
240.835	-43.02
241.053	-10.44
241.271	-15.79
241.49	5.95
241.708	20.51
241.926	4.9
242.144	7.29
242.363	-11.16
242.581	-69.02
242.799	-68.54
243.017	-22.68
243.235	-33.76
243.453	-36.5
243.672	-1.28
243.89	6.36
244.108	14.62
244.326	34.91
244.544	31.13
244.762	19.65
244.98	18.7
245.198	15.68
245.416	11.32
245.634	23.94
245.852	4.61
246.07	18.42
246.288	20.43
246.506	21.6
246.724	17.27
246.942	29.64
247.16	22.09
247.378	-5.09
247.596	21.66
247.814	-12.01
248.032	-0.93
248.25	22.31
248.468	41.59
248.685	25.7
248.903	25.37
249.121	22.6
249.339	18.95
249.557	3.37
249.775	10.88
249.992	25.93
250.21	15.97
250.428	19.08
250.646	26.56
250.863	19.18
251.081	10.73
251.299	18.69
251.517	2.72
251.734	3.18
251.952	-4.02
252.17	-4.34
252.387	-21.82
252.605	-19.22
252.823	-16.86
253.04	13.31
253.258	20.51
253.475	43.91
253.693	33.79
253.911	23.8
254.128	14.86
254.346	18.55
254.563	20.85
254.781	40.52
254.998	28.88
255.216	12.82
255.433	-29.17
255.651	-27
255.868	-47.12
256.086	-23.93
256.303	0.54
256.521	16.17
256.738	7.5
256.956	22.2
257.173	9.35
257.39	-1.71
257.608	-6.52
257.825	0.18
258.043	0.59
258.26	6.48
258.477	14.52
258.695	17.79
258.912	1.88
259.129	-6.84
259.346	-24.99
259.564	-36.39
259.781	-34.12
259.998	5.99
260.216	21.14
260.433	6.72
260.65	8.63
260.867	22.22
261.084	10.06
261.302	0.52
261.519	37.49
261.736	31.26
261.953	13.82
262.17	19.74
262.387	13.99
262.604	2.81
262.822	5.73
263.039	9.48
263.256	5.69
263.473	20.64
263.69	23.22
263.907	26.4
264.124	19.03
264.341	20.26
264.558	5
264.775	8.11
264.992	17.44
265.209	25.28
265.426	21.55
265.643	25.12
265.86	21.21
266.077	9.11
266.294	17.74
266.51	46.23
266.727	44.79
266.944	42.05
267.161	32.02
267.378	23.52
267.595	2.11
267.812	-15.04
268.028	-18.69
268.245	10.17
268.462	24.6
268.679	37.67
268.896	52.24
269.112	34
269.329	9.56
269.546	27.68
269.763	13.16
269.979	11.67
270.196	18.5
270.413	27.14
270.629	-1.26
270.846	15.04
271.063	5.27
271.279	26.35
271.496	2.3
271.712	16.22
271.929	9.81
272.146	22.11
272.362	16.48
272.579	29.32
272.795	36.99
273.012	38.51
273.228	33.51
273.445	28.56
273.661	18.45
273.878	-7.86
274.094	-21.01
274.311	-9.4
274.527	-22.63
274.744	7.66
274.96	21.8
275.177	28.66
275.393	26.12
275.609	24.52
275.826	22.56
276.042	17.31
276.259	12.27
276.475	-3.64
276.691	-1.84
276.908	-14.53
277.124	10.03
277.34	28.83
277.557	28.91
277.773	40.98
277.989	40.93
278.205	28.26
278.422	23.5
278.638	31.81
278.854	22.66
279.07	33.27
279.286	18.55
279.503	17.98
279.719	24.27
279.935	19.45
280.151	14.57
280.367	18.56
280.583	13.98
280.799	8.37
281.016	-1.56
281.232	-7.73
281.448	-8.13
281.664	-3.61
281.88	-5.99
282.096	9.31
282.312	23.35
282.528	23.31
282.744	31.44
282.96	23.02
283.176	17.54
283.392	-9.13
283.608	6.29
283.824	-8.33
284.04	-4.48
284.256	14.67
284.471	21.83
284.687	18.54
284.903	18.82
285.119	21.32
285.335	23.35
285.551	20.78
285.767	15.5
285.982	2.85
286.198	-6.41
286.414	18.44
286.63	19.55
286.846	44.82
287.061	62.3
287.277	76.18
287.493	45.24
287.709	42.52
287.924	40.5
288.14	35.73
288.356	42.28
288.571	53.72
288.787	38.22
289.003	35.1
289.218	12.22
289.434	-10.03
289.65	-11.16
289.865	3.08
290.081	8.95
290.296	27.32
290.512	28.95
290.727	19.31
290.943	28.89
291.159	23.83
291.374	5.61
291.59	14.6
291.805	11.55
292.021	-10.76
292.236	-22.73
292.451	-4.78
292.667	-7.7
292.882	12.48
293.098	11.74
293.313	17.5
293.529	17.53
293.744	0.72
293.959	-14.65
294.175	14.38
294.39	-9.02
294.605	0.81
294.821	8.38
295.036	4.64
295.251	-2.9
295.467	11.07
295.682	0.86
295.897	-7.75
296.112	2.14
296.328	-5.3
296.543	-14.55
296.758	-10.82
296.973	-6.93
297.188	-9.4
297.404	-7.05
297.619	-12.78
297.834	-22.02
298.049	10.4
298.264	1.12
298.479	-13.08
298.694	14.83
298.909	22.32
299.125	15.7
299.34	20.06
299.555	39.63
299.77	42.81
299.985	41.45
300.2	35.44
300.415	27.19
300.63	23.82
300.845	17.93
301.06	11.75
301.275	27.54
301.49	40.23
301.704	36.5
301.919	29.2
302.134	32.43
302.349	21.23
302.564	15.15
302.779	7.18
302.994	26.77
303.209	31.14
303.423	31.11
303.638	35.54
303.853	14.48
304.068	-10.62
304.283	-6.59
304.497	-22.13
304.712	4.68
304.927	19.89
305.142	19.12
305.356	20.45
305.571	33.6
305.786	16.85
306	24.91
306.215	33.05
306.43	36.83
306.644	19.01
306.859	12.94
307.074	20.77
307.288	21.33
307.503	16.01
307.717	15.89
307.932	25.33
308.147	4.6
308.361	9.57
308.576	-18.8
308.79	-6.77
309.005	-24.04
309.219	4.05
309.434	-9.08
309.648	5.23
309.863	1.96
310.077	10.63
310.292	7
310.506	-3.93
310.72	6.36
310.935	13.71
311.149	18.76
311.364	31.79
311.578	47.73
311.792	47.83
312.007	52.95
312.221	36.21
312.435	20.08
312.649	23.12
312.864	23
313.078	24.21
313.292	26.99
313.507	29.93
313.721	27.11
313.935	20.82
314.149	2.78
314.363	0.99
314.578	-10.44
314.792	-69.55
315.006	-57.14
315.22	-18.2
315.434	-10.43
315.648	-3.91
315.862	18.85
316.077	17.44
316.291	-0.31
316.505	-25.98
316.719	-18.72
316.933	-18.94
317.147	-15.18
317.361	-14.62
317.575	-7.59
317.789	-7.9
318.003	-8.7
318.217	-4.18
318.431	-4.91
318.645	8.44
318.859	19.31
319.073	32.92
319.287	26.22
319.5	30.19
319.714	23.23
319.928	19.54
320.142	4.01
320.356	13.39
320.57	-0.46
320.784	-2.62
320.997	-17.67
321.211	10.51
321.425	-22.09
321.639	8.62
321.853	38.02
322.066	24.71
322.28	10.67
322.494	16.38
322.707	16.1
322.921	-0.12
323.135	18.93
323.349	16.37
323.562	24.37
323.776	14.37
323.989	18.42
324.203	15.96
324.417	25.59
324.63	26.83
324.844	9.3
325.057	-29.08
325.271	-21.79
325.485	-20.95
325.698	-7.79
325.912	14.26
326.125	31.14
326.339	31.58
326.552	16.14
326.766	1.08
326.979	-1.06
327.193	3.14
327.406	-19.42
327.619	-1.11
327.833	5.33
328.046	12.39
328.26	3.41
328.473	14.86
328.686	11.33
328.9	19.83
329.113	7.73
329.326	9.29
329.54	12.94
329.753	14.69
329.966	20.41
330.179	21.09
330.393	24.68
330.606	14.37
330.819	2.87
331.032	-10.36
331.246	10.3
331.459	22.24
331.672	33.71
331.885	54.33
332.098	63.03
332.311	44.83
332.525	41.32
332.738	39.79
332.951	32.43
333.164	34.65
333.377	28.02
333.59	10.96
333.803	3.43
334.016	8.89
334.229	0.51
334.442	16.3
334.655	28.65
334.868	30.65
335.081	23.64
335.294	25.27
335.507	17.19
335.72	13.24
335.933	20.36
336.146	20.36
336.359	26.59
336.572	34.73
336.785	34.97
336.997	17.5
337.21	21.23
337.423	3.95
337.636	-8.83
337.849	-17.19
338.062	-9.74
338.274	10.17
338.487	-4.34
338.7	-14.54
338.913	15.47
339.125	28.72
339.338	-3.36
339.551	13.65
339.763	23.06
339.976	18.11
340.189	6.3
340.402	23.16
340.614	30.28
340.827	47.66
341.039	37.83
341.252	28.06
341.465	23.22
341.677	19.68
341.89	-6.69
342.102	6.44
342.315	21.42
342.527	22.03
342.74	7.61
342.952	0.44
343.165	-16.19
343.377	-3.01
343.59	1.97
343.802	-2.24
344.015	13.09
344.227	26.16
344.44	10.36
344.652	2.32
344.864	16.05
345.077	24.88
345.289	10.44
345.502	22.36
345.714	18.08
345.926	19.18
346.139	-2.43
346.351	10.97
346.563	8.44
346.775	18.66
346.988	10.45
347.2	15.05
347.412	15.58
347.624	6.21
347.837	7.39
348.049	18.59
348.261	9.27
348.473	-2.06
348.685	4.96
348.897	-14.26
349.11	-15.72
349.322	1.07
349.534	7.01
349.746	-3.22
349.958	-3.63
350.17	-10.54
350.382	-18.18
350.594	-19.14
350.806	15.8
351.018	30.47
351.23	29.39
351.442	39.29
351.654	40.47
351.866	36.24
352.078	34.32
352.29	40.78
352.502	32.69
352.714	28.13
352.926	5.09
353.138	8.18
353.35	9.38
353.561	13.6
353.773	13.78
353.985	26.61
354.197	22.52
354.409	18.78
354.621	-0.98
354.832	1.4
355.044	-17.28
355.256	-22.52
355.468	-35.13
355.679	5.43
355.891	8.49
356.103	11.28
356.314	17.98
356.526	9.22
356.738	2.47
356.949	8.31
357.161	17.92
357.373	14.66
357.584	19.01
357.796	25.03
358.008	28.71
358.219	16.21
358.431	15.19
358.642	21.27
358.854	19.61
359.065	-0.64
359.277	13.39
359.488	14.71
359.7	4.02
359.911	-10.83
360.123	0.29
360.334	-15.13
360.546	-16.87
360.757	-3.01
360.969	-2.82
361.18	0.04
361.391	16.58
361.603	19.4
361.814	19.61
362.025	33.97
362.237	29.45
362.448	30.67
362.659	23.08
362.871	16.08
363.082	-4.42
363.293	-2.3
363.504	-34.79
363.716	-28.81
363.927	-11.83
364.138	-16.84
364.349	-37.14
364.56	-21.65
364.772	-4.05
364.983	16.81
365.194	30.69
365.405	53.43
365.616	45.37
365.827	33.42
366.038	29.43
366.25	27.45
366.461	28.24
366.672	33.08
366.883	29.36
367.094	23.03
367.305	1.75
367.516	-9.49
367.727	-17.74
367.938	-10.88
368.149	-20.62
368.36	-16.68
368.571	-23.84
368.781	-20.94
368.992	-17.22
369.203	-14.55
369.414	-12.97
369.625	-2.06
369.836	17.14
370.047	21.3
370.258	33.27
370.468	31.52
370.679	26.35
370.89	5.66
371.101	6.19
371.312	-7.87
371.522	1.86
371.733	0.45
371.944	-7.2
372.155	-16.57
372.365	-12.5
372.576	-20.94
372.787	-7.94
372.997	-2.47
373.208	4.19
373.419	10.17
373.629	5.26
373.84	-5.77
374.05	-8.55
374.261	-16.25
374.472	-11.22
374.682	-3.6
374.893	-3.27
375.103	5.8
375.314	12.36
375.524	7.45
375.735	13.2
375.945	12.37
376.156	3.94
376.366	11.36
376.577	14.41
376.787	13.01
376.997	17.8
377.208	30.22
377.418	20.99
377.629	20.53
377.839	22.73
378.049	26.22
378.26	18.33
378.47	10.15
378.68	13.15
378.89	14.5
379.101	6.16
379.311	0.88
379.521	8.69
379.732	6.93
379.942	-4.72
380.152	-1.28
380.362	5.14
380.572	16.35
380.783	16.85
380.993	29.65
381.203	29.18
381.413	31.89
381.623	23.94
381.833	31.39
382.043	23.16
382.253	18.69
382.463	19.74
382.674	17.31
382.884	11.95
383.094	12.2
383.304	17.18
383.514	15.75
383.724	12.33
383.934	7.93
384.144	8.89
384.353	5.4
384.563	2.68
384.773	6.12
384.983	9.04
385.193	6.47
385.403	7.32
385.613	8.88
385.823	10.93
386.033	7.12
386.242	8.1
386.452	6.1
386.662	7.07
386.872	9.89
387.082	10.6
387.291	6.85
387.501	9.51
387.711	13.61
387.921	11.55
388.13	16.27
388.34	20.15
388.55	19.59
388.759	11.82
388.969	8.97
389.179	5.11
389.388	2.19
389.598	-4.37
389.807	-7.14
390.017	-4.34
390.227	-6.07
390.436	-5.8
390.646	-2.32
390.855	5.3
391.065	3.17
391.274	5.34
391.484	5.27
391.693	5.23
391.903	4.38
392.112	7.21
392.322	5.61
392.531	5.84
392.74	5.16
392.95	3.66
393.159	2.88
393.369	3.27
393.578	4.46
393.787	4.32
393.997	3.57
394.206	2.33
394.415	3.52
394.625	2.54
394.834	2.96
395.043	4.13
395.252	6.63
395.462	6.29
395.671	6.75
395.88	7.71
396.089	7.82
396.298	7.32
396.508	7.21
396.717	6.85
396.926	6.5
397.135	6.8
397.344	6.5
397.553	6.29
397.762	7.72
397.971	7.63
398.181	6.72
398.39	5.51
398.599	6.15
398.808	5.59
399.017	6.01
399.226	6.4
399.435	6.6
399.644	6.9
399.853	6.88
400.062	6.5
400.27	6.2
400.479	6.64
400.688	6.48
400.897	6.08
401.106	6.1
401.315	6.16
401.524	6.13
401.733	5.56
401.941	5.91
402.15	5.95
402.359	6.02
402.568	5.94
402.777	6.22
402.985	5.81
403.194	5.8
403.403	6.06
403.612	6.09
403.82	5.77
404.029	6.15
404.238	5.96
404.446	5.92
404.655	5.9
404.864	6
405.072	5.62
405.281	5.74
405.489	5.6
405.698	5.53
405.906	5.68
406.115	5.82
406.324	5.9
406.532	5.9
406.741	6.02
406.949	6.02
407.158	6.11
407.366	5.94
407.574	5.96
407.783	6.05
407.991	6.07
408.2	6.1
408.408	6.21
408.617	6.12
408.825	5.81
409.033	5.71
409.242	5.77
409.45	5.63
409.658	5.59
409.867	5.74
410.075	5.79
410.283	5.6
410.491	5.54
410.7	5.59
410.908	5.59
411.116	5.59
411.324	5.52
411.533	5.67
411.741	5.62
411.949	5.63
412.157	5.55
412.365	5.71
412.573	5.67
412.781	5.78
412.99	5.77
413.198	5.84
413.406	5.78
413.614	5.83
413.822	5.86
414.03	5.74
414.238	5.79
414.446	5.81
414.654	5.63
414.862	5.47
415.07	5.42
415.278	5.38
415.486	5.12
415.694	5.28
415.902	5.21
416.109	5.17
416.317	5.13
416.525	5.27
416.733	5.25
416.941	5.29
417.149	5.27
417.357	5.23
417.564	5.12
417.772	5.06
417.98	5.12
418.188	5.18
418.395	4.99
418.603	5
418.811	4.86
419.019	4.77
419.226	4.83
419.434	4.99
419.642	4.89
419.849	4.99
420.057	5.06
420.265	4.98
420.472	4.85
420.68	4.96
420.887	4.86
421.095	4.77
421.302	4.77
421.51	4.78
421.717	4.73
421.925	4.87
422.132	4.89
422.34	4.71
422.547	4.77
422.755	4.84
422.962	4.73
423.17	4.6
423.377	4.8
423.585	4.98
423.792	4.87
423.999	4.93
424.207	4.96
424.414	4.88
424.621	4.68
424.829	4.81
425.036	4.88
425.243	4.99
425.451	5.14
425.658	5.19
425.865	5.13
426.072	5.11
426.28	5.16
426.487	5.05
426.694	4.91
426.901	4.89
427.108	4.89
427.315	4.73
427.523	4.63
427.73	4.92
427.937	4.86
428.144	4.81
428.351	4.92
428.558	5.04
428.765	4.83
428.972	4.96
429.179	4.89
429.386	4.93
429.593	4.77
429.8	4.69
430.007	4.69
430.214	4.79
430.421	4.72
430.628	4.86
430.835	5.03
431.042	4.91
431.249	4.91
431.456	4.94
431.662	5.13
431.869	5.22
432.076	5.25
432.283	5.37
432.49	5.34
432.697	5.17
432.903	4.99
433.11	5.17
433.317	5.08
433.524	5.03
433.73	5
433.937	5.17
434.144	5
434.35	5.01
434.557	5.11
434.764	5.23
434.97	4.98
435.177	5.1
435.384	5.11
435.59	5.18
435.797	5.12
436.003	5.3
436.21	5.2
436.416	5.24
436.623	5.13
436.829	5.11
437.036	5.11
437.242	5.22
437.449	5.21
437.655	5.35
437.862	5.38
438.068	5.38
438.275	5.47
438.481	5.42
438.687	5.32
438.894	5.46
439.1	5.41
439.307	5.42
439.513	5.46
439.719	5.58
439.926	5.53
440.132	5.58
440.338	5.36
440.544	5.38
440.751	5.29
440.957	5.27
441.163	5.2
441.369	5.37
441.575	5.37
441.782	5.49
441.988	5.53
442.194	5.54
442.4	5.42
442.606	5.53
442.812	5.42
443.018	5.4
443.224	5.55
443.431	5.6
443.637	5.51
443.843	5.61
444.049	5.66
444.255	5.69
444.461	5.59
444.667	5.61
444.873	5.56
445.079	5.61
445.284	5.49
445.49	5.53
445.696	5.49
445.902	5.49
446.108	5.49
446.314	5.5
446.52	5.63
446.726	5.67
446.931	5.58
447.137	5.55
447.343	5.6
447.549	5.62
447.755	5.65
447.96	5.82
448.166	5.74
448.372	5.76
448.578	5.64
448.783	5.67
448.989	5.66
449.195	5.67
449.4	5.74
449.606	5.83
449.812	5.74
450.017	5.72
450.223	5.72
450.428	5.68
450.634	5.65
450.84	5.65
451.045	5.66
451.251	5.77
451.456	5.77
451.662	5.83
451.867	5.98
452.073	5.97
452.278	5.96
452.483	5.91
452.689	5.88
452.894	5.88
453.1	5.84
453.305	5.77
453.51	5.91
453.716	5.84
453.921	5.79
454.127	5.78
454.332	5.85
454.537	5.7
454.742	5.79
454.948	5.79
455.153	5.78
455.358	5.82
455.563	5.91
455.769	5.82
455.974	5.77
456.179	5.8
456.384	5.64
456.589	5.56
456.795	5.65
457	5.66
457.205	5.63
457.41	5.66
457.615	5.6
457.82	5.6
458.025	5.61
458.23	5.66
458.435	5.76
458.64	5.8
458.845	5.84
459.05	5.92
459.255	5.93
459.46	5.85
459.665	5.93
459.87	5.85
460.075	5.8
460.28	5.81
460.485	5.9
460.69	5.86
460.895	6
461.099	5.96
461.304	5.83
461.509	5.8
461.714	5.84
461.919	5.75
462.123	5.74
462.328	5.77
462.533	5.63
462.738	5.6
462.942	5.56
463.147	5.59
463.352	5.69
463.556	5.83
463.761	5.81
463.966	5.81
464.17	5.87
464.375	5.94
464.58	5.94
464.784	5.99
464.989	6.09
465.193	6.07
465.398	6.04
465.602	6.17
465.807	6.23
466.011	6.26
466.216	6.22
466.42	6.24
466.625	6.2
466.829	6.15
467.034	6.12
467.238	6.27
467.443	6.28
467.647	6.23
467.851	6.27
468.056	6.34
468.26	6.28
