Data from Ofra_PS_T2_2A_6CX18_Reflection_1.txt Node
Date: Wed Jul 21 17:15:21 EDT 2021
User: Adam
Spectrometer: FLMT01687
Trigger mode: 0
Integration Time (sec): 1.100000E0
Scans to average: 2
Electric dark correction enabled: true
Nonlinearity correction enabled: false
Boxcar width: 2
XAxis mode: Wavelengths
Number of Pixels in Spectrum: 3648
>>>>>Begin Spectral Data<<<<<
179.494	522.2
179.716	621.41
179.937	613.26
180.158	634.44
180.38	1106.09
180.601	598.2
180.823	227.05
181.044	127.84
181.265	330.7
181.486	84.38
181.708	79.62
181.929	-98.47
182.15	173.59
182.372	235.22
182.593	121.34
182.814	101.25
183.035	124.74
183.257	98.44
183.478	100.27
183.699	137.59
183.92	68.83
184.141	78.43
184.363	71.38
184.584	69.85
184.805	69.64
185.026	85.85
185.247	72.61
185.468	44.05
185.689	39.49
185.91	27.09
186.132	46.35
186.353	43.95
186.574	100.14
186.795	95.45
187.016	53.66
187.237	-3.9
187.458	-30.5
187.679	-58.91
187.9	-57.54
188.121	-49.75
188.342	-4.02
188.563	30.24
188.784	80.05
189.005	88.62
189.226	170.62
189.447	128
189.667	135.56
189.888	-186.08
190.109	-887.99
190.33	-611.45
190.551	-1122.79
190.772	-224.39
190.993	-196.12
191.214	-137.5
191.434	-74.96
191.655	12.55
191.876	-35.12
192.097	-38.24
192.318	-124.74
192.538	-209.31
192.759	-166.09
192.98	-86.57
193.201	-46.2
193.421	-14.68
193.642	14.53
193.863	31.24
194.083	23.03
194.304	28.19
194.525	36.22
194.745	24.4
194.966	0.63
195.187	19.77
195.407	-5.05
195.628	-42.5
195.848	-46.67
196.069	-72.41
196.29	-66.72
196.51	-67.05
196.731	-59.79
196.951	-78.17
197.172	-71.12
197.392	-109.96
197.613	-104.63
197.833	-134.57
198.054	-112.85
198.274	-59.84
198.495	-64.18
198.715	-30.9
198.936	-42.16
199.156	-23.2
199.377	-112.23
199.597	-109.25
199.817	-132.54
200.038	-55.58
200.258	-115.99
200.479	-31.74
200.699	-27.52
200.919	5.83
201.14	-41.2
201.36	-54.86
201.58	8.79
201.801	29.03
202.021	7.61
202.241	8.24
202.461	5.03
202.682	-111.45
202.902	-148.37
203.122	-82.19
203.342	-49.57
203.563	-0.93
203.783	39.47
204.003	13.03
204.223	19.22
204.443	61.18
204.663	47.64
204.884	41.06
205.104	77
205.324	105.5
205.544	89.99
205.764	107.41
205.984	102.41
206.204	107.99
206.424	85.68
206.644	76.29
206.864	71.85
207.084	29.41
207.304	14.07
207.525	-96.48
207.745	-39.35
207.964	-24.07
208.184	-33.03
208.404	-84.9
208.624	-77.3
208.844	-77.44
209.064	-362.85
209.284	-397.09
209.504	-203.71
209.724	-50.35
209.944	-7.66
210.164	27.57
210.384	39.77
210.604	41.43
210.823	-17.75
211.043	-62.56
211.263	-38.75
211.483	-53.61
211.703	-117.77
211.922	-61.85
212.142	13.05
212.362	13.89
212.582	-13.91
212.801	17.34
213.021	-23.5
213.241	-50.16
213.461	-85.87
213.68	-53.02
213.9	-34.16
214.12	-12.59
214.339	-68.25
214.559	-45.73
214.779	-4.87
214.998	-9.41
215.218	-47.2
215.438	-20.8
215.657	-11.62
215.877	-14.24
216.096	-3.51
216.316	3.04
216.535	-5.37
216.755	1.61
216.974	-118.4
217.194	-130.94
217.413	-82.31
217.633	-80.16
217.852	-204.37
218.072	-58.96
218.291	-15.45
218.511	12.66
218.73	0.44
218.95	6.85
219.169	-2.06
219.389	-44.62
219.608	-42.34
219.827	-29.53
220.047	-28.61
220.266	-18.25
220.485	-26.63
220.705	-11.15
220.924	-32.11
221.143	11.58
221.363	2.85
221.582	19.41
221.801	26.55
222.021	34.28
222.24	-27.2
222.459	23.8
222.678	-6.17
222.897	-107.24
223.117	-125.68
223.336	-90.63
223.555	-71.38
223.774	-22.77
223.993	34.6
224.213	53.68
224.432	27.33
224.651	41.66
224.87	17.73
225.089	34.23
225.308	48.2
225.527	65.28
225.746	63.34
225.965	64.14
226.184	46.87
226.404	33.37
226.623	-2.47
226.842	6.77
227.061	33.41
227.28	32.57
227.499	33.83
227.718	58.15
227.936	40.55
228.155	37.47
228.374	19.25
228.593	13.05
228.812	15.93
229.031	20.49
229.25	-32.29
229.469	-24.53
229.688	-18.61
229.907	5.96
230.125	19.16
230.344	39.59
230.563	41.71
230.782	61.04
231.001	-18.01
231.22	-17.01
231.438	6.91
231.657	15.44
231.876	-0.89
232.095	48.69
232.313	60.92
232.532	57.5
232.751	34.74
232.969	11.94
233.188	-78.59
233.407	-21.95
233.625	-22.17
233.844	-34.57
234.063	-22.62
234.281	-0.17
234.5	-3.01
234.719	16.66
234.937	38.21
235.156	39.69
235.374	46.17
235.593	21.14
235.811	7.5
236.03	-7.25
236.249	-21.61
236.467	-9.26
236.686	25.57
236.904	21.03
237.123	-12.27
237.341	-21.96
237.559	-21.49
237.778	-62.1
237.996	-84.17
238.215	-18.7
238.433	5.37
238.652	6.08
238.87	-14.22
239.088	-8.32
239.307	-13.21
239.525	-24.02
239.743	-46.65
239.962	-19.63
240.18	-25.55
240.398	-42.63
240.617	-41.25
240.835	-25.07
241.053	-8.27
241.271	25.95
241.49	17.42
241.708	-19.87
241.926	-9.21
242.144	-9.92
242.363	-57.91
242.581	-75.58
242.799	-17.83
243.017	-1.99
243.235	-18.73
243.453	2.49
243.672	8.1
243.89	-4.26
244.108	-18.43
244.326	10.99
244.544	-1.07
244.762	1.47
244.98	15.84
245.198	32.61
245.416	9.69
245.634	18.36
245.852	-4.06
246.07	-25.89
246.288	-43.75
246.506	-88.19
246.724	-84.46
246.942	-52.41
247.16	-7.27
247.378	-1.76
247.596	15.86
247.814	32.42
248.032	2.48
248.25	-11.25
248.468	0.19
248.685	12.55
248.903	31.14
249.121	48.99
249.339	28.97
249.557	25.13
249.775	35.95
249.992	-33.27
250.21	-41.89
250.428	-28.06
250.646	-76.22
250.863	-104.71
251.081	-69.43
251.299	-65.83
251.517	-58.74
251.734	-9.14
251.952	-17.48
252.17	-8.32
252.387	-6.63
252.605	-18.74
252.823	-19.5
253.04	3.76
253.258	8.13
253.475	6.69
253.693	27.97
253.911	26.85
254.128	25.77
254.346	34.61
254.563	17.82
254.781	8.77
254.998	-8.05
255.216	-10.72
255.433	-8.99
255.651	40.84
255.868	59.11
256.086	102.86
256.303	84.45
256.521	75.52
256.738	42.63
256.956	1.15
257.173	-35.2
257.39	-41.39
257.608	-87.65
257.825	-8.85
258.043	30.98
258.26	34.89
258.477	76.76
258.695	91.5
258.912	26.08
259.129	19.2
259.346	-11.7
259.564	-65.15
259.781	-98.05
259.998	-24.5
260.216	20.45
260.433	66.33
260.65	57.8
260.867	67.25
261.084	29.76
261.302	7.63
261.519	-19.57
261.736	-25.51
261.953	-15.77
262.17	23.84
262.387	-11.19
262.604	-20.15
262.822	-51
263.039	-52.86
263.256	-112.04
263.473	-52.26
263.69	-32.38
263.907	24.41
264.124	32.54
264.341	41.85
264.558	31.69
264.775	28.34
264.992	1.85
265.209	-1.51
265.426	22.58
265.643	20.63
265.86	43.35
266.077	58.82
266.294	68.02
266.51	31.04
266.727	20.57
266.944	-8.8
267.161	-29.14
267.378	-44.23
267.595	-4.6
267.812	-20.21
268.028	-9.66
268.245	21.23
268.462	3.1
268.679	-6.61
268.896	33.37
269.112	34.33
269.329	19.03
269.546	29.28
269.763	23.55
269.979	-2.62
270.196	-11.58
270.413	-41.15
270.629	-71.55
270.846	-82.01
271.063	-63.14
271.279	-78.64
271.496	-42.53
271.712	14.72
271.929	31.17
272.146	17.86
272.362	31.93
272.579	46.94
272.795	39.55
273.012	38.57
273.228	37.15
273.445	10.62
273.661	-20.93
273.878	-72.14
274.094	-60.21
274.311	-65.78
274.527	9.46
274.744	19.8
274.96	21.9
275.177	29.57
275.393	35.87
275.609	29.27
275.826	30.82
276.042	24.51
276.259	-8.62
276.475	2.73
276.691	-2.06
276.908	-16.4
277.124	3.06
277.34	11.08
277.557	-8.18
277.773	-19.59
277.989	-18.38
278.205	-19.9
278.422	-4.32
278.638	12.52
278.854	36.51
279.07	28.88
279.286	15.69
279.503	-22.12
279.719	-40.01
279.935	-72.98
280.151	-73.14
280.367	-36.83
280.583	-31.91
280.799	-22.63
281.016	-38.98
281.232	-6.32
281.448	-6.79
281.664	18.24
281.88	-6.8
282.096	11.89
282.312	21.93
282.528	46.12
282.744	59.87
282.96	58.48
283.176	55.32
283.392	50.12
283.608	30.4
283.824	13.3
284.04	18.34
284.256	22.21
284.471	6.49
284.687	1.63
284.903	30.72
285.119	57.27
285.335	30.96
285.551	49.6
285.767	28.7
285.982	7.92
286.198	-39.91
286.414	24.48
286.63	33.48
286.846	47.93
287.061	28.22
287.277	63.25
287.493	31.05
287.709	32.59
287.924	16.05
288.14	39.81
288.356	29.13
288.571	45.98
288.787	28.62
289.003	28.19
289.218	21.03
289.434	-19.53
289.65	-22.24
289.865	-20.16
290.081	6.89
290.296	7.96
290.512	23.77
290.727	10.55
290.943	6.06
291.159	-2.74
291.374	-6.07
291.59	-27.29
291.805	-22.8
292.021	-13.56
292.236	-20.27
292.451	-4.34
292.667	12.06
292.882	24.39
293.098	5.46
293.313	-3.7
293.529	-35.67
293.744	-52.13
293.959	-60.02
294.175	-42.25
294.39	-13.55
294.605	7.37
294.821	32.46
295.036	39.36
295.251	35.95
295.467	23.25
295.682	19.88
295.897	-36.19
296.112	-52.44
296.328	-43.88
296.543	-68.13
296.758	-51.54
296.973	6.66
297.188	48.85
297.404	39.37
297.619	27.09
297.834	-3.96
298.049	-30.07
298.264	-79.32
298.479	-15.63
298.694	-4.55
298.909	8.61
299.125	23.59
299.34	39.5
299.555	8.08
299.77	26.34
299.985	-1.41
300.2	-58.32
300.415	-86.51
300.63	-60.32
300.845	-65.27
301.06	-59.75
301.275	-33.4
301.49	-10.92
301.704	-19.45
301.919	-35
302.134	-48.51
302.349	-51.97
302.564	-123.96
302.779	-173.44
302.994	-170.18
303.209	-122.26
303.423	-47.61
303.638	21.02
303.853	5.41
304.068	3.91
304.283	4.48
304.497	-14.55
304.712	-23.05
304.927	-13.39
305.142	-15.4
305.356	9.62
305.571	13.94
305.786	-0.15
306	-4.25
306.215	0.02
306.43	-34.2
306.644	-17.45
306.859	22.44
307.074	20.28
307.288	-0.2
307.503	-3.3
307.717	-23.15
307.932	-28.02
308.147	-25.57
308.361	-14.61
308.576	-15.84
308.79	-54.19
309.005	-50.57
309.219	-46.12
309.434	-40.41
309.648	-47.81
309.863	-13.36
310.077	-1.22
310.292	10.65
310.506	5.54
310.72	30.67
310.935	41.93
311.149	21.86
311.364	29.81
311.578	44.58
311.792	25.94
312.007	19.94
312.221	13.72
312.435	18.16
312.649	0.83
312.864	-18.3
313.078	-22.57
313.292	33.3
313.507	0.35
313.721	36.67
313.935	60.87
314.149	56.95
314.363	30.59
314.578	22.75
314.792	25.02
315.006	6.06
315.22	21.05
315.434	30.28
315.648	42.68
315.862	21.62
316.077	15.94
316.291	4.51
316.505	0.5
316.719	3.28
316.933	6.68
317.147	30.76
317.361	-33.52
317.575	-49.4
317.789	-93.62
318.003	-141.37
318.217	-92.13
318.431	-4.77
318.645	35.7
318.859	28
319.073	51.42
319.287	27.38
319.5	-7.41
319.714	-54.66
319.928	-80.22
320.142	-96.63
320.356	-37.88
320.57	-5.18
320.784	-26.71
320.997	-6.1
321.211	-16.4
321.425	-94.93
321.639	-94.81
321.853	-24.22
322.066	-30.95
322.28	-35.58
322.494	-9.39
322.707	17.52
322.921	2.28
323.135	17.63
323.349	38.03
323.562	22.31
323.776	-15.13
323.989	-9.07
324.203	-48.73
324.417	-71.23
324.63	-90.44
324.844	-71.43
325.057	-72.21
325.271	-28.49
325.485	-2.14
325.698	15.56
325.912	22.1
326.125	-10.5
326.339	-10.58
326.552	-26.79
326.766	-20.11
326.979	12.6
327.193	55.51
327.406	36.54
327.619	21.13
327.833	20.49
328.046	-19.29
328.26	-70.9
328.473	-40.68
328.686	-64.04
328.9	-42.67
329.113	-10.79
329.326	-15.13
329.54	17.42
329.753	6.59
329.966	-26.38
330.179	-39.42
330.393	-13.05
330.606	-29.59
330.819	3.76
331.032	21.81
331.246	33.47
331.459	61.96
331.672	61.22
331.885	53.31
332.098	28.14
332.311	11.62
332.525	-55.63
332.738	-42.77
332.951	-23.96
333.164	12.48
333.377	25.26
333.59	45
333.803	45.48
334.016	47.88
334.229	41.69
334.442	38.88
334.655	50.69
334.868	41.93
335.081	24.56
335.294	27.8
335.507	18.78
335.72	10.75
335.933	-8.35
336.146	-11.97
336.359	-18.2
336.572	-33.95
336.785	-59.44
336.997	-29.65
337.21	2.8
337.423	3.33
337.636	8.1
337.849	24.23
338.062	14.18
338.274	-5.07
338.487	-24.77
338.7	-23.14
338.913	-74.53
339.125	-105.45
339.338	-157.52
339.551	-128.63
339.763	-87.99
339.976	-37.32
340.189	-4.18
340.402	15.59
340.614	6.41
340.827	0.01
341.039	-21.47
341.252	-19.66
341.465	-14.1
341.677	-18.62
341.89	-58.51
342.102	-21.53
342.315	-38.33
342.527	-76.69
342.74	-53.69
342.952	-16.08
343.165	-14.18
343.377	10.41
343.59	17.44
343.802	31.3
344.015	31.93
344.227	45.06
344.44	41.48
344.652	42.05
344.864	21
345.077	33.85
345.289	24.26
345.502	28.26
345.714	13.64
345.926	25.27
346.139	16.16
346.351	28.38
346.563	33.1
346.775	56.57
346.988	45.95
347.2	37.79
347.412	-13.43
347.624	-43.37
347.837	-73.91
348.049	-52.52
348.261	-12.7
348.473	17.72
348.685	9.08
348.897	5.08
349.11	-2.9
349.322	-30.19
349.534	-16.28
349.746	8.78
349.958	27.37
350.17	14.64
350.382	28.23
350.594	4.35
350.806	3.18
351.018	-7
351.23	-14.31
351.442	-69.7
351.654	-47.33
351.866	-50.78
352.078	-31.43
352.29	-16.05
352.502	10.22
352.714	20.76
352.926	0.96
353.138	-6.95
353.35	-13.74
353.561	-26.69
353.773	-53.39
353.985	-30.11
354.197	-30.34
354.409	-33.01
354.621	-25.5
354.832	-11.32
355.044	-21.4
355.256	-27.45
355.468	-6.5
355.679	-2.39
355.891	11.74
356.103	7.26
356.314	13.03
356.526	15.79
356.738	18.8
356.949	-0.82
357.161	10.68
357.373	1.14
357.584	-23.32
357.796	-17.81
358.008	-17.79
358.219	-0.26
358.431	0.01
358.642	16.3
358.854	16.08
359.065	-4.74
359.277	-28.11
359.488	-38.53
359.7	-63.57
359.911	-93.26
360.123	-57.25
360.334	-60.48
360.546	-60.96
360.757	-51.52
360.969	-25.1
361.18	-14.22
361.391	-8.66
361.603	-17.05
361.814	-11.37
362.025	-14.06
362.237	-14.64
362.448	4.46
362.659	27.61
362.871	23.34
363.082	23.95
363.293	20.64
363.504	1.61
363.716	-31.52
363.927	-36.35
364.138	-60.82
364.349	-71.72
364.56	-57.95
364.772	-39.31
364.983	-19
365.194	-9.98
365.405	3.04
365.616	14.08
365.827	8.68
366.038	-12.83
366.25	-20.49
366.461	-60.84
366.672	-26.28
366.883	3.31
367.094	12.32
367.305	7.39
367.516	23.75
367.727	-12.44
367.938	-26.18
368.149	-25.92
368.36	-15.93
368.571	-15.32
368.781	-30.2
368.992	-42.11
369.203	-61.57
369.414	-86.03
369.625	-99.15
369.836	-79.37
370.047	-94.44
370.258	-68.57
370.468	-55.22
370.679	-55.93
370.89	-53.57
371.101	-38.75
371.312	-48.53
371.522	-47.13
371.733	-40.01
371.944	-17.94
372.155	-11.99
372.365	-3.48
372.576	0.14
372.787	1.63
372.997	-24.42
373.208	-31.89
373.419	-7.03
373.629	-38.34
373.84	-39.11
374.05	-47.64
374.261	-35.82
374.472	-68.83
374.682	-7.12
374.893	-1.73
375.103	39.54
375.314	33.4
375.524	36.24
375.735	26.18
375.945	28.76
376.156	1.92
376.366	11.81
376.577	13.26
376.787	14.88
376.997	20.9
377.208	16.18
377.418	2.4
377.629	12.54
377.839	2.34
378.049	-0.09
378.26	19.35
378.47	26.16
378.68	12.51
378.89	12.49
379.101	4.48
379.311	-25.79
379.521	-56.32
379.732	-54.75
379.942	-45.02
380.152	-57.29
380.362	-18.7
380.572	-7.44
380.783	10.5
380.993	19.49
381.203	41.15
381.413	41.7
381.623	43.62
381.833	40.67
382.043	27.16
382.253	11.59
382.463	11.74
382.674	-1.9
382.884	-25.3
383.094	-18.95
383.304	-15.5
383.514	-19.24
383.724	-3.94
383.934	-7.37
384.144	-18.77
384.353	-20.2
384.563	-19.26
384.773	-11.61
384.983	-13.28
385.193	8.84
385.403	12.07
385.613	13.29
385.823	0.24
386.033	13.2
386.242	-3.73
386.452	-7.6
386.662	-13.96
386.872	-4.91
387.082	-15.65
387.291	-17.53
387.501	-16.66
387.711	-6.72
387.921	-8.17
388.13	-5.47
388.34	9.53
388.55	6.69
388.759	3.08
388.969	6.63
389.179	2.43
389.388	-1.56
389.598	0.91
389.807	-7.37
390.017	-11.89
390.227	-6.88
390.436	-9.01
390.646	-5.21
390.855	1.97
391.065	3.31
391.274	0.18
391.484	-0.2
391.693	-1.54
391.903	-0.97
392.112	5.49
392.322	11.28
392.531	13.78
392.74	15.06
392.95	11.53
393.159	7.42
393.369	5.51
393.578	5.04
393.787	3.3
393.997	5.01
394.206	6.2
394.415	6.57
394.625	6.74
394.834	6.1
395.043	7.25
395.252	9.06
395.462	9.7
395.671	10.11
395.88	11.06
396.089	11.05
396.298	8.82
396.508	8.35
396.717	7.95
396.926	8.22
397.135	8.3
397.344	8.25
397.553	8.88
397.762	10.31
397.971	10.3
398.181	10.11
398.39	8.95
398.599	9.07
398.808	8.8
399.017	9.76
399.226	11.12
399.435	13.42
399.644	13.33
399.853	12.35
400.062	11.66
400.27	11
400.479	10.07
400.688	9.29
400.897	9.58
401.106	9.47
401.315	9.2
401.524	9.53
401.733	10.47
401.941	11.3
402.15	11.48
402.359	11.3
402.568	11.24
402.777	11.31
402.985	10.76
403.194	10.86
403.403	11.12
403.612	10.85
403.82	10.36
404.029	10.38
404.238	10.06
404.446	10.06
404.655	9.9
404.864	9.93
405.072	9.81
405.281	10.09
405.489	9.8
405.698	9.74
405.906	9.67
406.115	9.63
406.324	9.3
406.532	9.51
406.741	9.85
406.949	9.91
407.158	9.87
407.366	9.97
407.574	9.91
407.783	9.71
407.991	9.56
408.2	9.79
408.408	9.56
408.617	9.39
408.825	9.33
409.033	9.32
409.242	9.24
409.45	9.64
409.658	9.64
409.867	9.67
410.075	9.54
410.283	9.32
410.491	9.03
410.7	8.99
410.908	9
411.116	9.31
411.324	9.14
411.533	9.21
411.741	9.4
411.949	9.43
412.157	9.14
412.365	9.27
412.573	9.22
412.781	9.14
412.99	8.87
413.198	9.02
413.406	9.11
413.614	9.01
413.822	8.9
414.03	8.95
414.238	8.74
414.446	8.66
414.654	8.41
414.862	8.45
415.07	8.59
415.278	8.93
415.486	8.67
415.694	8.91
415.902	8.72
416.109	8.43
416.317	8.12
416.525	8.1
416.733	8.06
416.941	8.25
417.149	8.23
417.357	8.34
417.564	8.36
417.772	8.48
417.98	8.23
418.188	8.36
418.395	8.35
418.603	8.55
418.811	8.13
419.019	8.11
419.226	8.23
419.434	8.33
419.642	8.1
419.849	8.31
420.057	8.33
420.265	8.19
420.472	7.81
420.68	7.95
420.887	7.9
421.095	8.01
421.302	7.88
421.51	8.11
421.717	8.19
421.925	8.31
422.132	8.1
422.34	7.8
422.547	7.79
422.755	7.73
422.962	7.51
423.17	7.39
423.377	7.68
423.585	7.65
423.792	7.45
423.999	7.65
424.207	7.7
424.414	7.79
424.621	7.79
424.829	7.79
425.036	7.83
425.243	8.05
425.451	7.81
425.658	7.55
425.865	7.84
426.072	7.81
426.28	8.01
426.487	8.18
426.694	8.43
426.901	8.07
427.108	7.98
427.315	7.74
427.523	7.81
427.73	7.8
427.937	7.86
428.144	7.7
428.351	7.74
428.558	7.89
428.765	7.77
428.972	7.67
429.179	7.96
429.386	8.26
429.593	8.09
429.8	8.04
430.007	8.2
430.214	8.14
430.421	7.96
430.628	7.86
430.835	7.87
431.042	8.02
431.249	8.04
431.456	7.91
431.662	8
431.869	8.23
432.076	8.27
432.283	8.3
432.49	8.34
432.697	8.46
432.903	8.22
433.11	8.11
433.317	8.31
433.524	8.53
433.73	8.52
433.937	8.75
434.144	8.7
434.35	8.55
434.557	8.33
434.764	8.36
434.97	8.33
435.177	8.55
435.384	8.53
435.59	8.63
435.797	8.82
436.003	8.88
436.21	8.86
436.416	9.06
436.623	9.11
436.829	9.04
437.036	9.11
437.242	9.02
437.449	8.9
437.655	8.94
437.862	8.94
438.068	8.88
438.275	9.07
438.481	9.24
438.687	9.26
438.894	9.26
439.1	9.41
439.307	9.54
439.513	9.47
439.719	9.53
439.926	9.6
440.132	9.45
440.338	9.24
440.544	9.39
440.751	9.31
440.957	9.43
441.163	9.43
441.369	9.63
441.575	9.34
441.782	9.34
441.988	9.22
442.194	9.35
442.4	9.28
442.606	9.6
442.812	9.67
443.018	9.68
443.224	9.64
443.431	9.72
443.637	9.52
443.843	9.45
444.049	9.4
444.255	9.36
444.461	9.5
444.667	9.53
444.873	9.73
445.079	9.84
445.284	10.02
445.49	9.72
445.696	9.6
445.902	9.44
446.108	9.37
446.314	9.29
446.52	9.41
446.726	9.78
446.931	9.82
447.137	9.88
447.343	10.01
447.549	9.99
447.755	9.76
447.96	9.88
448.166	9.82
448.372	9.75
448.578	9.81
448.783	9.84
448.989	9.94
449.195	10.25
449.4	10.23
449.606	10.25
449.812	10.27
450.017	10.27
450.223	10.13
450.428	10.15
450.634	10.33
450.84	10.49
451.045	10.43
451.251	10.36
451.456	10.55
451.662	10.62
451.867	10.69
452.073	10.69
452.278	10.91
452.483	11.04
452.689	10.91
452.894	10.94
453.1	10.98
453.305	10.82
453.51	10.73
453.716	10.7
453.921	10.78
454.127	10.79
454.332	10.8
454.537	10.81
454.742	10.9
454.948	10.84
455.153	10.94
455.358	11.15
455.563	11.22
455.769	11.16
455.974	11.18
456.179	11.11
456.384	11.02
456.589	10.95
456.795	10.94
457	10.93
457.205	11.23
457.41	11.3
457.615	11.44
457.82	11.56
458.025	11.67
458.23	11.54
458.435	11.68
458.64	11.58
458.845	11.76
459.05	11.62
459.255	11.6
459.46	11.53
459.665	11.69
459.87	11.78
460.075	11.9
460.28	11.99
460.485	12.05
460.69	12.13
460.895	11.97
461.099	12.05
461.304	12.23
