Data from Ofra_PS_T2_1A_1GT42_Reflection_3.txt Node
Date: Wed Jul 21 17:49:10 EDT 2021
User: Adam
Spectrometer: FLMT01687
Trigger mode: 0
Integration Time (sec): 1.100000E0
Scans to average: 2
Electric dark correction enabled: true
Nonlinearity correction enabled: false
Boxcar width: 2
XAxis mode: Wavelengths
Number of Pixels in Spectrum: 3648
>>>>>Begin Spectral Data<<<<<
179.494	630.6
179.716	684
179.937	584.12
180.158	567.56
180.38	833.91
180.601	117.27
180.823	23.59
181.044	-111.26
181.265	43.57
181.486	35.99
181.708	163.34
181.929	831.12
182.15	-907.39
182.372	176.6
182.593	51.48
182.814	55.38
183.035	68.48
183.257	96.77
183.478	-64.31
183.699	28.16
183.92	20.14
184.141	34.64
184.363	-38.3
184.584	16.21
184.805	27.18
185.026	49.15
185.247	22.49
185.468	6.37
185.689	11.52
185.91	0.56
186.132	-17.03
186.353	-1.32
186.574	79.43
186.795	46.36
187.016	-0.89
187.237	-14.23
187.458	-19.44
187.679	-30.8
187.9	0.72
188.121	11.19
188.342	66.99
188.563	72.71
188.784	86.69
189.005	61.51
189.226	133.77
189.447	106.03
189.667	-46.24
189.888	-259.73
190.109	-871.75
190.33	-632.42
190.551	-1233.85
190.772	-193.04
190.993	-168.08
191.214	-122.33
191.434	-82.2
191.655	7.45
191.876	-39.83
192.097	-85.36
192.318	-135.09
192.538	-183.65
192.759	-159.75
192.98	-71.16
193.201	-17.79
193.421	2.67
193.642	19.17
193.863	29.81
194.083	6.29
194.304	-5.97
194.525	-11.75
194.745	-29.17
194.966	-61.85
195.187	-37.77
195.407	-34.73
195.628	-96.94
195.848	-93.68
196.069	-61.68
196.29	-38.91
196.51	-76
196.731	-62.15
196.951	-83.95
197.172	-111.77
197.392	-159.59
197.613	-134.41
197.833	-181.08
198.054	-162.4
198.274	-95.23
198.495	-112.23
198.715	-73.45
198.936	-79.34
199.156	-57.58
199.377	-153.89
199.597	-144.82
199.817	-158.72
200.038	-74.93
200.258	-135.4
200.479	-47.35
200.699	13.91
200.919	41.85
201.14	10.13
201.36	3.54
201.58	24.17
201.801	44.12
202.021	11.82
202.241	-2.96
202.461	-7.47
202.682	-107.13
202.902	-157.48
203.122	-88.1
203.342	-63.35
203.563	-19.62
203.783	28.61
204.003	-14.74
204.223	-11.43
204.443	62.14
204.663	51.93
204.884	31.12
205.104	84.38
205.324	112.82
205.544	72.94
205.764	90.59
205.984	87.88
206.204	71.26
206.424	54.29
206.644	39.67
206.864	9.31
207.084	-41.28
207.304	-31.93
207.525	-126.33
207.745	-81.47
207.964	26.42
208.184	-16.14
208.404	-63.25
208.624	-91.31
208.844	-53.16
209.064	-406.28
209.284	-449.03
209.504	-198.55
209.724	-19.75
209.944	-32.58
210.164	20.11
210.384	36.35
210.604	20.33
210.823	-33.91
211.043	-44.53
211.263	-42.62
211.483	-28.44
211.703	-76.15
211.922	-38.98
212.142	37.53
212.362	72.14
212.582	35.28
212.801	39.03
213.021	0.91
213.241	-29.03
213.461	-71.89
213.68	-79.21
213.9	-52.44
214.12	-34.41
214.339	-87.58
214.559	-75.35
214.779	-16.18
214.998	-21.26
215.218	-59.03
215.438	-24.27
215.657	-4.37
215.877	-10.55
216.096	11.08
216.316	32.47
216.535	5.21
216.755	7.79
216.974	-69.12
217.194	-105.34
217.413	-91.91
217.633	-51.19
217.852	-147.26
218.072	-59.21
218.291	-14.95
218.511	18.91
218.73	-5.9
218.95	-12.05
219.169	-11.45
219.389	-64.15
219.608	-55.24
219.827	-49.44
220.047	-30.1
220.266	-24.24
220.485	-8.63
220.705	-20.09
220.924	-33.24
221.143	16.06
221.363	-13.15
221.582	-7.61
221.801	2.56
222.021	20.53
222.24	-58.14
222.459	47.63
222.678	47.08
222.897	-4.63
223.117	-46.38
223.336	-16.97
223.555	-54.46
223.774	-20.93
223.993	-6.26
224.213	66.82
224.432	37.99
224.651	64.93
224.87	32.06
225.089	44.4
225.308	47.71
225.527	54
225.746	50.26
225.965	35.61
226.184	23.61
226.404	7.15
226.623	-23.68
226.842	-15.17
227.061	13.31
227.28	15.57
227.499	2.99
227.718	21.88
227.936	12.46
228.155	13.14
228.374	5.52
228.593	7.32
228.812	3.32
229.031	6.53
229.25	-29.54
229.469	-26.1
229.688	-1.43
229.907	24.73
230.125	49.17
230.344	59.52
230.563	59.97
230.782	48.61
231.001	-40.18
231.22	-51.96
231.438	-30.41
231.657	-24.22
231.876	-16.85
232.095	46.35
232.313	45.82
232.532	22.5
232.751	0.7
232.969	-35.38
233.188	-136.1
233.407	-52.94
233.625	-13.75
233.844	-40.34
234.063	-18.29
234.281	4.34
234.5	-14.27
234.719	-18.87
234.937	9.89
235.156	13.38
235.374	15.55
235.593	2.72
235.811	-0.18
236.03	-9.72
236.249	-74.52
236.467	-68.4
236.686	-15.77
236.904	-8.93
237.123	-37.62
237.341	-23.25
237.559	-18.27
237.778	-51.86
237.996	-73.7
238.215	-12.36
238.433	6.7
238.652	13.84
238.87	0.05
239.088	14.73
239.307	1.72
239.525	-5.49
239.743	-53.56
239.962	-42.87
240.18	-75.67
240.398	-130.2
240.617	-136.65
240.835	-97.98
241.053	-41.4
241.271	21.18
241.49	45.74
241.708	37.38
241.926	42.07
242.144	9.72
242.363	-53.27
242.581	-63.09
242.799	-14.81
243.017	2.26
243.235	-28.37
243.453	-13.65
243.672	-22.82
243.89	-29.4
244.108	-35.86
244.326	3.43
244.544	4.19
244.762	6.59
244.98	16.3
245.198	9.81
245.416	-24.01
245.634	-18.71
245.852	-25.62
246.07	-37.16
246.288	-41.86
246.506	-93.14
246.724	-74.52
246.942	-71.13
247.16	-27.56
247.378	7.84
247.596	43.83
247.814	42.82
248.032	28.26
248.25	32.96
248.468	21.02
248.685	48.94
248.903	59.19
249.121	73.75
249.339	36.29
249.557	25.76
249.775	20.33
249.992	-42.09
250.21	-42.64
250.428	-24.63
250.646	-67.14
250.863	-94.94
251.081	-41.04
251.299	-44.36
251.517	-25.23
251.734	18.15
251.952	16.7
252.17	-6.96
252.387	5.97
252.605	-1.88
252.823	-6.37
253.04	3.78
253.258	15.45
253.475	-7.73
253.693	8.56
253.911	7.69
254.128	6.67
254.346	19.2
254.563	13.45
254.781	2.35
254.998	-11.19
255.216	-16.18
255.433	-17.73
255.651	36.42
255.868	90.7
256.086	94.6
256.303	101.28
256.521	87.01
256.738	50.41
256.956	-7.32
257.173	-24.46
257.39	-58.82
257.608	-111.92
257.825	-42.7
258.043	17.82
258.26	38.43
258.477	87.7
258.695	84.12
258.912	35.11
259.129	17.98
259.346	-13.65
259.564	-40.95
259.781	-25.89
259.998	23.91
260.216	45.73
260.433	77.75
260.65	69.12
260.867	75.88
261.084	39.78
261.302	20.43
261.519	9.07
261.736	-36.87
261.953	-57.76
262.17	-10.56
262.387	-37.57
262.604	-87.61
262.822	-79.56
263.039	-70.61
263.256	-130.56
263.473	-69.27
263.69	-25.74
263.907	14.09
264.124	27.59
264.341	29.78
264.558	12.68
264.775	35.41
264.992	26.9
265.209	24.38
265.426	51.99
265.643	67.17
265.86	68.3
266.077	63.24
266.294	52.02
266.51	6.84
266.727	-32.09
266.944	-26.63
267.161	-32.62
267.378	-42.34
267.595	-14.39
267.812	-19.33
268.028	-41.91
268.245	-0.19
268.462	8.68
268.679	-3.58
268.896	36.68
269.112	33.39
269.329	20.91
269.546	14.91
269.763	7.52
269.979	-12.77
270.196	-17.86
270.413	-51.76
270.629	-62.86
270.846	-67.62
271.063	-65.98
271.279	-68.46
271.496	-60.89
271.712	-10.16
271.929	18.46
272.146	14.17
272.362	19.98
272.579	72.19
272.795	47.72
273.012	49.01
273.228	51.45
273.445	16.78
273.661	-12.15
273.878	-51.36
274.094	-49.86
274.311	-77.33
274.527	11.62
274.744	-2.62
274.96	4.43
275.177	12.26
275.393	28.69
275.609	14.21
275.826	39.11
276.042	26.6
276.259	6.33
276.475	37.28
276.691	46.56
276.908	21.77
277.124	50.29
277.34	52.59
277.557	18.92
277.773	3.2
277.989	-1.14
278.205	-12.3
278.422	0.49
278.638	11.96
278.854	22.14
279.07	26.19
279.286	19.6
279.503	16.12
279.719	-7.22
279.935	-37.44
280.151	-31.75
280.367	-1.41
280.583	-28.3
280.799	-24.27
281.016	-46.87
281.232	-24.02
281.448	-27.18
281.664	16.89
281.88	9.31
282.096	22.97
282.312	60.37
282.528	78.2
282.744	76.68
282.96	56.85
283.176	43.62
283.392	19.58
283.608	3.09
283.824	-8.54
284.04	2.99
284.256	17.04
284.471	9.17
284.687	9.91
284.903	29.8
285.119	45.14
285.335	13.94
285.551	34.95
285.767	13.46
285.982	-1.16
286.198	-22.34
286.414	34.42
286.63	35.5
286.846	51.29
287.061	23.25
287.277	55.75
287.493	26.31
287.709	32.62
287.924	17.08
288.14	62.27
288.356	51.4
288.571	70.65
288.787	47.42
289.003	39.03
289.218	11.88
289.434	-37.5
289.65	-30.71
289.865	-29.3
290.081	13.11
290.296	22.82
290.512	43.49
290.727	-9.7
290.943	-15.34
291.159	-34.47
291.374	-40.23
291.59	-62.26
291.805	-38.58
292.021	-27.42
292.236	-27.12
292.451	-4.94
292.667	10.66
292.882	26.96
293.098	19.01
293.313	7.02
293.529	-31.67
293.744	-56.32
293.959	-59.61
294.175	-41.58
294.39	-7.77
294.605	16.52
294.821	51.91
295.036	50.12
295.251	60.33
295.467	22.24
295.682	8.96
295.897	-59.54
296.112	-69.82
296.328	-84
296.543	-67.61
296.758	-59.71
296.973	-0.15
297.188	41.22
297.404	26.72
297.619	11.04
297.834	-14.04
298.049	-25.02
298.264	-60.45
298.479	7.26
298.694	19.82
298.909	42.89
299.125	34.71
299.34	50.3
299.555	14.59
299.77	40.89
299.985	-14.76
300.2	-60.27
300.415	-82.75
300.63	-40.62
300.845	-57.7
301.06	-39.47
301.275	-2.11
301.49	11.65
301.704	-16.18
301.919	-28.28
302.134	-38.07
302.349	-40.05
302.564	-91.98
302.779	-87.56
302.994	-35.15
303.209	10.81
303.423	29.78
303.638	70.77
303.853	29.93
304.068	8.2
304.283	-4.09
304.497	-6.95
304.712	-18.27
304.927	-6.23
305.142	-4.09
305.356	15.68
305.571	16.88
305.786	-1.29
306	-9.26
306.215	-0.39
306.43	-39.32
306.644	-23.62
306.859	16.66
307.074	18.6
307.288	-20
307.503	-12.19
307.717	-32.99
307.932	-29.58
308.147	-36.4
308.361	-10.07
308.576	-22.58
308.79	-60.2
309.005	-59.84
309.219	-36.64
309.434	-58.19
309.648	-44.65
309.863	-0.75
310.077	4.62
310.292	-8.97
310.506	8.86
310.72	22.33
310.935	4.06
311.149	-3.31
311.364	27.84
311.578	30.82
311.792	18.46
312.007	38.02
312.221	28.64
312.435	19.99
312.649	7.51
312.864	48.67
313.078	52.24
313.292	106.48
313.507	85.06
313.721	149.49
313.935	65.01
314.149	52.76
314.363	35.48
314.578	29.21
314.792	22.55
315.006	-0.54
315.22	13.43
315.434	31.16
315.648	46.44
315.862	47.16
316.077	46.01
316.291	35.79
316.505	31.08
316.719	12.43
316.933	-20.17
317.147	7.96
317.361	-34.52
317.575	-55.54
317.789	-72.27
318.003	-101.94
318.217	-60.25
318.431	15.95
318.645	39.22
318.859	27.26
319.073	54.53
319.287	29.02
319.5	-6.74
319.714	-51.53
319.928	-68.79
320.142	-99.04
320.356	-37.03
320.57	-9.03
320.784	-27.28
320.997	-32.6
321.211	-15.14
321.425	-87.31
321.639	-112.11
321.853	-22.93
322.066	-4.68
322.28	-18.82
322.494	2.58
322.707	38.58
322.921	8.08
323.135	4.13
323.349	20.45
323.562	-9.59
323.776	-33.47
323.989	-27.7
324.203	-51.27
324.417	-52.72
324.63	-57.61
324.844	-56.99
325.057	-61.29
325.271	-13.14
325.485	1.33
325.698	31.43
325.912	38.52
326.125	15.02
326.339	3.07
326.552	-10.08
326.766	-33.76
326.979	-3.63
327.193	42.76
327.406	29.47
327.619	22.17
327.833	45.78
328.046	16.87
328.26	-20.32
328.473	9.77
328.686	-6.2
328.9	-27.52
329.113	-17.76
329.326	-29.49
329.54	-38.19
329.753	-54.48
329.966	-57.66
330.179	-48.07
330.393	-28.82
330.606	-17.44
330.819	4.65
331.032	29.22
331.246	26.2
331.459	60.14
331.672	49.15
331.885	41.06
332.098	5.21
332.311	15.65
332.525	-49.18
332.738	-26.6
332.951	-3.65
333.164	13.21
333.377	22.43
333.59	34.13
333.803	38.77
334.016	17.18
334.229	27.64
334.442	28.03
334.655	44.74
334.868	31.08
335.081	48.94
335.294	36.18
335.507	32.88
335.72	10.78
335.933	2.09
336.146	-7.75
336.359	-6.35
336.572	-52.42
336.785	-61.71
336.997	-45.63
337.21	-8.68
337.423	-23.14
337.636	-6.64
337.849	13.57
338.062	-16.57
338.274	-16.43
338.487	-16.29
338.7	-17.87
338.913	-62.18
339.125	-62.92
339.338	-119.75
339.551	-73.73
339.763	-34.48
339.976	7.52
340.189	27.61
340.402	40.3
340.614	7.99
340.827	-1.88
341.039	-25.02
341.252	-40.99
341.465	-20.19
341.677	-22.73
341.89	-72.53
342.102	-34.87
342.315	-51.2
342.527	-95.54
342.74	-64.89
342.952	-13.43
343.165	-29.54
343.377	7.79
343.59	6.98
343.802	15.13
344.015	13.55
344.227	30.08
344.44	24.38
344.652	27.31
344.864	25.47
345.077	33.19
345.289	31.68
345.502	41.87
345.714	40.58
345.926	38.85
346.139	29.18
346.351	36.29
346.563	32.73
346.775	40.18
346.988	26.74
347.2	17.74
347.412	-33.93
347.624	-60.11
347.837	-91.68
348.049	-54.85
348.261	-0.97
348.473	22.78
348.685	23.18
348.897	8.08
349.11	-13.32
349.322	-39.37
349.534	-30.93
349.746	-20.75
349.958	1.83
350.17	-5.43
350.382	2.12
350.594	-6.03
350.806	-8.05
351.018	6.71
351.23	-4.99
351.442	-61.64
351.654	-59.13
351.866	-55.29
352.078	-58.56
352.29	-12.14
352.502	19.63
352.714	29.24
352.926	22.36
353.138	21.9
353.35	5.14
353.561	0.3
353.773	-24.75
353.985	-7.06
354.197	-17.66
354.409	-24.87
354.621	-30.53
354.832	-12.04
355.044	-30.89
355.256	-40.26
355.468	-21.7
355.679	-16.41
355.891	-23.27
356.103	-19.66
356.314	0.34
356.526	-0.86
356.738	-1.94
356.949	6.12
357.161	33.81
357.373	19.21
357.584	4.27
357.796	10.67
358.008	-5.41
358.219	0.98
358.431	2.73
358.642	18.78
358.854	12.29
359.065	14.29
359.277	-19.22
359.488	-28.62
359.7	-44.83
359.911	-62.7
360.123	-36.06
360.334	-49.17
360.546	-60.31
360.757	-60.33
360.969	-38.6
361.18	-36.28
361.391	-19.42
361.603	-36.6
361.814	-25.29
362.025	-31.02
362.237	-29.79
362.448	-30.74
362.659	1.33
362.871	-2.85
363.082	-2.24
363.293	-2.65
363.504	0.18
363.716	-18.95
363.927	-13.62
364.138	-25.92
364.349	-43.36
364.56	-42.36
364.772	-33.31
364.983	-17.67
365.194	-16.5
365.405	0.03
365.616	12.68
365.827	12.42
366.038	-25.17
366.25	-25.01
366.461	-51.82
366.672	-42.81
366.883	-18.24
367.094	-0.1
367.305	-16.54
367.516	-9.35
367.727	-34.04
367.938	-48.66
368.149	-49.62
368.36	-8.49
368.571	-7.63
368.781	-9.78
368.992	-18.66
369.203	-33.87
369.414	-58.48
369.625	-71.68
369.836	-56.73
370.047	-79.44
370.258	-61.09
370.468	-70.98
370.679	-73.08
370.89	-74.48
371.101	-52.79
371.312	-57.56
371.522	-48.35
371.733	-32.86
371.944	-26.35
372.155	-26.11
372.365	-26.76
372.576	-29.81
372.787	-38.99
372.997	-59.03
373.208	-49.12
373.419	-4.33
373.629	-22.25
373.84	-27.38
374.05	-36.25
374.261	-23.79
374.472	-58.92
374.682	-6.15
374.893	-1.99
375.103	36.9
375.314	25.55
375.524	21.8
375.735	15.26
375.945	17.47
376.156	-15.45
376.366	-9.37
376.577	-4.2
376.787	-21.58
376.997	-7.27
377.208	-7.94
377.418	-20.61
377.629	-1.39
377.839	8.76
378.049	4.24
378.26	33.21
378.47	40.97
378.68	17.28
378.89	7.42
379.101	-2.31
379.311	-39.82
379.521	-83.1
379.732	-64.19
379.942	-58.64
380.152	-75.41
380.362	-37.14
380.572	-21.42
380.783	-12.33
380.993	0.03
381.203	19.97
381.413	33.71
381.623	38.38
381.833	29.66
382.043	16.63
382.253	1.38
382.463	-13.74
382.674	-23.48
382.884	-39.06
383.094	-33.65
383.304	-26.95
383.514	-12.75
383.724	5.34
383.934	-0.47
384.144	-13.67
384.353	-16.54
384.563	-21.68
384.773	-20.67
384.983	-24.94
385.193	5.34
385.403	11.47
385.613	13
385.823	2.22
386.033	8.79
386.242	-4.07
386.452	-5.95
386.662	-14.6
386.872	-1.14
387.082	-5.06
387.291	-16.03
387.501	-25.03
387.711	-21.7
387.921	-29.38
388.13	-25.15
388.34	-6.11
388.55	-7.49
388.759	-5.37
388.969	-0.04
389.179	-0.88
389.388	-1.96
389.598	5.42
389.807	-1.48
390.017	-6.53
390.227	-4.24
390.436	-9.55
390.646	-7.38
390.855	-4.82
391.065	-4.83
391.274	-6.19
391.484	-8.83
391.693	-7.36
391.903	-4.97
392.112	1.25
392.322	2.73
392.531	6.27
392.74	4.97
392.95	0.56
393.159	-1.76
393.369	-2.25
393.578	-1.22
393.787	-2.75
393.997	-0.35
394.206	-2.73
394.415	-1.18
394.625	-2.95
394.834	-4.74
395.043	-3.76
395.252	0.14
395.462	0.47
395.671	2.19
395.88	5.06
396.089	6.19
396.298	2.94
396.508	3.81
396.717	3.1
396.926	2.35
397.135	0.67
397.344	1.08
397.553	0.91
397.762	2.4
397.971	2.21
398.181	3.47
398.39	3.26
398.599	2.56
398.808	2.49
399.017	3.17
399.226	3.95
399.435	5.17
399.644	5.28
399.853	4.29
400.062	3.78
400.27	3.11
400.479	2.47
400.688	1.98
400.897	2.3
401.106	2.35
401.315	1.85
401.524	1.74
401.733	2.65
401.941	3.06
402.15	3.31
402.359	3.2
402.568	3.84
402.777	3.72
402.985	3.17
403.194	2.99
403.403	3.17
403.612	2.53
403.82	2.17
404.029	2.59
404.238	2.42
404.446	2.67
404.655	2.72
404.864	2.65
405.072	2.31
405.281	2.71
405.489	2.42
405.698	2.46
405.906	2.58
406.115	2.64
406.324	2.36
406.532	2.76
406.741	2.96
406.949	2.93
407.158	2.93
407.366	3.06
407.574	2.73
407.783	2.69
407.991	2.65
408.2	2.86
408.408	2.81
408.617	2.77
408.825	2.53
409.033	2.54
409.242	2.5
409.45	2.62
409.658	2.54
409.867	2.68
410.075	2.5
410.283	2.29
410.491	2.13
410.7	2.14
410.908	2.2
411.116	2.62
411.324	2.67
411.533	2.6
411.741	2.81
411.949	2.69
412.157	2.35
412.365	2.4
412.573	2.47
412.781	2.45
412.99	2.44
413.198	2.55
413.406	2.51
413.614	2.48
413.822	2.35
414.03	2.34
414.238	2.16
414.446	2.2
414.654	2.01
414.862	2.14
415.07	2.09
415.278	2.38
415.486	2.15
415.694	2.32
415.902	2.17
416.109	2.21
416.317	2.12
416.525	2.13
416.733	2.13
416.941	2.25
417.149	2.2
417.357	2.23
417.564	2.38
417.772	2.57
417.98	2.61
418.188	2.59
418.395	2.6
418.603	2.82
418.811	2.45
419.019	2.26
419.226	2.54
419.434	2.59
419.642	2.18
419.849	2.38
420.057	2.45
420.265	2.21
420.472	1.86
420.68	2.04
420.887	1.88
421.095	2.03
421.302	2.15
421.51	2.44
421.717	2.48
421.925	2.64
422.132	2.42
422.34	2.16
422.547	2.28
422.755	2.21
422.962	2.06
423.17	1.98
423.377	2.12
423.585	2.13
423.792	1.98
423.999	2.05
424.207	2.03
424.414	2.19
424.621	2.03
424.829	2.16
425.036	2.24
425.243	2.37
425.451	2.15
425.658	1.9
425.865	2.09
426.072	2.09
426.28	2.37
426.487	2.34
426.694	2.59
426.901	2.31
427.108	2.29
427.315	2.08
427.523	2.38
427.73	2.32
427.937	2.31
428.144	2.12
428.351	2.06
428.558	2.16
428.765	2.01
428.972	1.96
429.179	2.21
429.386	2.48
429.593	2.1
429.8	2.14
430.007	2.35
430.214	2.36
430.421	2.07
430.628	1.95
430.835	1.9
431.042	2.12
431.249	2.16
431.456	2.15
431.662	2.43
431.869	2.69
432.076	2.55
432.283	2.62
432.49	2.74
432.697	2.73
432.903	2.43
433.11	2.32
433.317	2.34
433.524	2.46
433.73	2.33
433.937	2.71
434.144	2.61
434.35	2.58
434.557	2.44
434.764	2.5
434.97	2.27
435.177	2.48
435.384	2.32
435.59	2.37
435.797	2.57
436.003	2.65
436.21	2.64
436.416	2.81
436.623	2.79
436.829	2.77
437.036	2.86
437.242	2.87
437.449	2.67
437.655	2.73
437.862	2.68
438.068	2.61
438.275	2.7
438.481	3.03
438.687	2.96
438.894	2.98
439.1	3.01
439.307	3.16
439.513	3.03
439.719	3.1
439.926	3.24
440.132	3.19
440.338	2.99
440.544	3.09
440.751	3
440.957	2.94
441.163	2.89
441.369	2.97
441.575	2.62
441.782	2.55
441.988	2.38
442.194	2.44
442.4	2.34
442.606	2.76
442.812	2.92
443.018	3.09
443.224	3.16
443.431	3.2
443.637	2.98
443.843	2.92
444.049	2.94
444.255	2.89
444.461	3
444.667	2.95
444.873	3.04
445.079	2.96
445.284	3.02
445.49	2.79
445.696	2.74
445.902	2.64
446.108	2.56
446.314	2.44
446.52	2.51
446.726	2.74
446.931	2.81
447.137	2.9
447.343	3.03
447.549	2.98
447.755	2.86
447.96	2.9
448.166	2.88
448.372	2.77
448.578	2.91
448.783	2.93
448.989	2.98
449.195	3.19
449.4	3.25
449.606	3.18
449.812	3.1
450.017	3.07
450.223	2.9
450.428	2.78
450.634	2.95
450.84	3.08
451.045	3.06
451.251	3.08
451.456	3.3
451.662	3.26
451.867	3.34
452.073	3.32
452.278	3.4
452.483	3.53
452.689	3.47
452.894	3.5
453.1	3.46
453.305	3.36
453.51	3.21
453.716	3.11
453.921	3.05
454.127	3.06
454.332	3.01
454.537	3
454.742	3.04
454.948	2.98
455.153	3.09
455.358	3.12
455.563	3.26
455.769	3.43
455.974	3.48
456.179	3.31
456.384	3.37
456.589	3.31
456.795	3.03
457	3
457.205	3.33
457.41	3.34
457.615	3.27
457.82	3.44
458.025	3.44
458.23	3.22
458.435	3.21
458.64	3.12
458.845	3.23
459.05	3.26
459.255	3.29
459.46	3.25
459.665	3.33
459.87	3.28
460.075	3.23
460.28	3.2
460.485	3.42
460.69	3.4
460.895	3.22
461.099	3.23
461.304	3.46
461.509	3.36
461.714	3.26
