Data from Ofra_2a_PS_8HS21_Reflection_2.txt Node
Date: Tue Jul 20 09:56:02 EDT 2021
User: Adam
Spectrometer: FLMT01687
Trigger mode: 0
Integration Time (sec): 9.450000E-1
Scans to average: 3
Electric dark correction enabled: true
Nonlinearity correction enabled: false
Boxcar width: 3
XAxis mode: Wavelengths
Number of Pixels in Spectrum: 3648
>>>>>Begin Spectral Data<<<<<
179.494	1011.83
179.716	550.88
179.937	625.27
180.158	2552.34
180.38	-1351.74
180.601	-215.8
180.823	-40.68
181.044	63.94
181.265	-66.75
181.486	38.2
181.708	776.09
181.929	138.84
182.15	-17.05
182.372	31.95
182.593	-32.36
182.814	435.63
183.035	251.03
183.257	80.17
183.478	63.29
183.699	82.66
183.92	51.97
184.141	43.65
184.363	15.26
184.584	25.14
184.805	38.95
185.026	29.82
185.247	18.82
185.468	28.5
185.689	26.92
185.91	32.62
186.132	30.25
186.353	14.4
186.574	15.24
186.795	-9.35
187.016	1
187.237	-11.02
187.458	-24.16
187.679	-26.64
187.9	-17.17
188.121	-10.3
188.342	34.38
188.563	20.06
188.784	31.51
189.005	49.21
189.226	29.92
189.447	19.31
189.667	22.55
189.888	15.89
190.109	29.65
190.33	37.9
190.551	29.27
190.772	21.23
190.993	41.29
191.214	34.86
191.434	33.41
191.655	25.21
191.876	20.89
192.097	20.22
192.318	28.33
192.538	19.26
192.759	27.27
192.98	18.42
193.201	34.18
193.421	30.93
193.642	34.72
193.863	40.8
194.083	40.91
194.304	26.58
194.525	52.96
194.745	16.52
194.966	24.74
195.187	30.8
195.407	18.09
195.628	20.72
195.848	20.2
196.069	-1.29
196.29	7.49
196.51	1.64
196.731	9.56
196.951	22.74
197.172	13.25
197.392	13.64
197.613	12.57
197.833	15.8
198.054	5.4
198.274	-20.15
198.495	-29.74
198.715	-43.45
198.936	-51.48
199.156	-12.01
199.377	-6.81
199.597	14.45
199.817	17.73
200.038	22.59
200.258	34.28
200.479	45.71
200.699	41.99
200.919	18.44
201.14	16.05
201.36	32.33
201.58	32.61
201.801	25.87
202.021	24.52
202.241	20.2
202.461	37.93
202.682	49.12
202.902	31.5
203.122	29.18
203.342	30.83
203.563	26.7
203.783	32.48
204.003	21.1
204.223	15.31
204.443	22.51
204.663	30.13
204.884	25.1
205.104	21.17
205.324	25.46
205.544	33.8
205.764	23.97
205.984	26.76
206.204	24.65
206.424	33.48
206.644	40.4
206.864	13.56
207.084	32.91
207.304	32.95
207.525	22.78
207.745	30.01
207.964	31.94
208.184	17.97
208.404	37.15
208.624	15.25
208.844	4.35
209.064	16.47
209.284	11.77
209.504	-5.16
209.724	-22.82
209.944	-21.11
210.164	-9.76
210.384	-2.85
210.604	-18.4
210.823	-29.5
211.043	-20.3
211.263	0.43
211.483	-5.11
211.703	-6.97
211.922	4.36
212.142	14.79
212.362	26.31
212.582	35.69
212.801	38.66
213.021	46.97
213.241	51.69
213.461	43.44
213.68	37.5
213.9	34.54
214.12	30.34
214.339	34.43
214.559	37.08
214.779	38.82
214.998	38.55
215.218	32
215.438	40.94
215.657	35.25
215.877	33.15
216.096	35.1
216.316	34.49
216.535	38.73
216.755	29.56
216.974	19.1
217.194	25.46
217.413	29.24
217.633	14.66
217.852	12.25
218.072	11.13
218.291	46.36
218.511	34.57
218.73	24.78
218.95	11.93
219.169	13.27
219.389	8.41
219.608	19.98
219.827	-1.15
220.047	2.92
220.266	10
220.485	17.89
220.705	20.27
220.924	27.44
221.143	8.72
221.363	11.21
221.582	11.84
221.801	25.21
222.021	14.68
222.24	5
222.459	-8.64
222.678	-9.9
222.897	-14.61
223.117	-7.48
223.336	-15.36
223.555	-23.67
223.774	-0.45
223.993	14.35
224.213	11.05
224.432	19.32
224.651	10.1
224.87	17.99
225.089	17.04
225.308	8.69
225.527	3.49
225.746	22.84
225.965	5.55
226.184	15.68
226.404	-6.51
226.623	14.34
226.842	12.72
227.061	24.72
227.28	24.54
227.499	40.02
227.718	34.45
227.936	32.81
228.155	35.99
228.374	35.68
228.593	23.3
228.812	19.81
229.031	10.97
229.25	19.73
229.469	35.56
229.688	34.05
229.907	39.48
230.125	48.27
230.344	43.27
230.563	52.5
230.782	39.51
231.001	31.54
231.22	36.47
231.438	31.04
231.657	31.23
231.876	36.34
232.095	29.56
232.313	40.7
232.532	41.93
232.751	39.79
232.969	41.29
233.188	50.68
233.407	52.08
233.625	53.61
233.844	53.07
234.063	57.23
234.281	45.49
234.5	42.93
234.719	30.43
234.937	29.14
235.156	20.41
235.374	8.88
235.593	10.96
235.811	14.64
236.03	1.93
236.249	30.57
236.467	25.54
236.686	36.77
236.904	29.71
237.123	17.3
237.341	10.8
237.559	15.2
237.778	3.67
237.996	9
238.215	3.03
238.433	15.77
238.652	17.5
238.87	24.12
239.088	21.24
239.307	24.11
239.525	13.19
239.743	14.14
239.962	7.47
240.18	23.98
240.398	26.27
240.617	32.6
240.835	26.45
241.053	31.79
241.271	27.23
241.49	16.38
241.708	8.95
241.926	-2.07
242.144	-4.9
242.363	-15.61
242.581	-2.98
242.799	-5.18
243.017	9.02
243.235	-1.46
243.453	5.44
243.672	5.2
243.89	21.42
244.108	20.05
244.326	24.5
244.544	30.34
244.762	38.13
244.98	27.02
245.198	10.55
245.416	3.42
245.634	7.02
245.852	20.42
246.07	20.67
246.288	6.11
246.506	15.97
246.724	41.85
246.942	42.88
247.16	35.21
247.378	24.89
247.596	28.8
247.814	26.67
248.032	39.42
248.25	32.16
248.468	34.16
248.685	39.05
248.903	23.8
249.121	16.43
249.339	22.66
249.557	5.87
249.775	-5.47
249.992	-12.79
250.21	-19.96
250.428	-15.33
250.646	-11.38
250.863	-13.02
251.081	-11.37
251.299	10.87
251.517	32.54
251.734	36.38
251.952	48.84
252.17	32.89
252.387	28.93
252.605	27.89
252.823	7.55
253.04	-10.26
253.258	-16.19
253.475	-18.79
253.693	3.48
253.911	6.58
254.128	6.47
254.346	9.08
254.563	9.34
254.781	10.29
254.998	13.5
255.216	11.13
255.433	18.64
255.651	19.18
255.868	19.88
256.086	19.1
256.303	21.79
256.521	7.15
256.738	5.08
256.956	-17.46
257.173	-14.31
257.39	-0.79
257.608	9.91
257.825	4.77
258.043	25.39
258.26	24.28
258.477	29.53
258.695	40.68
258.912	49.04
259.129	39.1
259.346	49.35
259.564	36.47
259.781	41.26
259.998	55.1
260.216	47.08
260.433	33.15
260.65	42.27
260.867	16.85
261.084	26.86
261.302	18.93
261.519	-0.61
261.736	2.97
261.953	14.44
262.17	8.52
262.387	22.49
262.604	13.37
262.822	18.83
263.039	20.34
263.256	9.3
263.473	0.22
263.69	12.37
263.907	16.19
264.124	14.27
264.341	13.69
264.558	18.18
264.775	29.4
264.992	30.89
265.209	28.32
265.426	21.95
265.643	28.73
265.86	27.75
266.077	33.06
266.294	28.31
266.51	27.59
266.727	22.74
266.944	24.86
267.161	25.55
267.378	24.1
267.595	4.85
267.812	5.78
268.028	9.21
268.245	0.42
268.462	6.05
268.679	0.38
268.896	-5.55
269.112	10.21
269.329	17.14
269.546	11.75
269.763	19.7
269.979	19.17
270.196	26.74
270.413	41.69
270.629	35.65
270.846	37.09
271.063	39.84
271.279	35.22
271.496	23.68
271.712	17.61
271.929	13.4
272.146	6.62
272.362	-5.06
272.579	-1.72
272.795	5.34
273.012	18.55
273.228	14.51
273.445	8.14
273.661	14.77
273.878	20.31
274.094	24.08
274.311	20.85
274.527	12.46
274.744	17.88
274.96	23.77
275.177	37.16
275.393	37.13
275.609	39.25
275.826	42.29
276.042	62.72
276.259	54.98
276.475	46.96
276.691	35.15
276.908	31.99
277.124	29.05
277.34	22.29
277.557	20.29
277.773	17.45
277.989	24.47
278.205	12.59
278.422	21.09
278.638	21.14
278.854	26.18
279.07	10.28
279.286	12.75
279.503	14.83
279.719	36.58
279.935	19.69
280.151	22.86
280.367	19.05
280.583	29.26
280.799	34.45
281.016	28.62
281.232	15.65
281.448	10.74
281.664	3.64
281.88	17.09
282.096	21.58
282.312	11.74
282.528	-0.28
282.744	2.78
282.96	19.52
283.176	24.04
283.392	16.66
283.608	14.43
283.824	19.35
284.04	33.92
284.256	36.49
284.471	31.6
284.687	28.89
284.903	29.23
285.119	18.11
285.335	16.14
285.551	17.25
285.767	17.64
285.982	13.22
286.198	21.2
286.414	25.91
286.63	41.18
286.846	37.98
287.061	36.8
287.277	46.39
287.493	64.19
287.709	55.67
287.924	60.21
288.14	57.66
288.356	70.06
288.571	54.25
288.787	53.09
289.003	53.6
289.218	48.23
289.434	37.26
289.65	27.16
289.865	23.31
290.081	35.5
290.296	20.89
290.512	15.2
290.727	20.62
290.943	22.03
291.159	20.03
291.374	23.55
291.59	13.28
291.805	12.9
292.021	1.75
292.236	3.08
292.451	-2.51
292.667	4.94
292.882	-1.45
293.098	-1.81
293.313	-3.3
293.529	3.96
293.744	7.51
293.959	12.41
294.175	1.39
294.39	17.56
294.605	25.9
294.821	30.42
295.036	34.2
295.251	35.45
295.467	30.8
295.682	32.24
295.897	18.7
296.112	17.71
296.328	21.33
296.543	3.23
296.758	-5.59
296.973	7.41
297.188	5.67
297.404	5.8
297.619	2.09
297.834	10.13
298.049	22.23
298.264	24.5
298.479	8.04
298.694	12.34
298.909	7.71
299.125	12.89
299.34	7.75
299.555	12.45
299.77	13.37
299.985	10.76
300.2	12.52
300.415	21.11
300.63	10.88
300.845	10.91
301.06	12.63
301.275	21.25
301.49	31.67
301.704	26.74
301.919	21.7
302.134	24.35
302.349	20.85
302.564	9.84
302.779	-0.41
302.994	-2.89
303.209	8.65
303.423	17.49
303.638	26.13
303.853	31.74
304.068	35.53
304.283	36.9
304.497	29.46
304.712	21.55
304.927	7.61
305.142	9.21
305.356	12.34
305.571	13.34
305.786	17.86
306	29.21
306.215	37.83
306.43	51.33
306.644	53.44
306.859	46.62
307.074	39.62
307.288	35.13
307.503	30.68
307.717	23.13
307.932	23.35
308.147	18.19
308.361	20.54
308.576	30.07
308.79	31.74
309.005	34.02
309.219	48.31
309.434	40.24
309.648	38.83
309.863	42.05
310.077	40.12
310.292	43.27
310.506	49.89
310.72	43.62
310.935	53.67
311.149	51.63
311.364	50.39
311.578	48.63
311.792	40.68
312.007	29.86
312.221	30.54
312.435	29.89
312.649	30.03
312.864	20.04
313.078	34.7
313.292	35.38
313.507	42.11
313.721	41.89
313.935	54.66
314.149	45.28
314.363	49.79
314.578	63.52
314.792	68.95
315.006	63.7
315.22	69.14
315.434	47.89
315.648	51.17
315.862	55.89
316.077	36.14
316.291	34.78
316.505	40.37
316.719	18
316.933	32.38
317.147	27.13
317.361	17.52
317.575	24.57
317.789	23.05
318.003	21.36
318.217	32.04
318.431	27.23
318.645	30.6
318.859	19.55
319.073	15.53
319.287	15.27
319.5	15.38
319.714	11.71
319.928	13.03
320.142	9.64
320.356	31.43
320.57	30.88
320.784	31.32
320.997	28.36
321.211	27.84
321.425	18.03
321.639	16.99
321.853	0.81
322.066	-8.71
322.28	-14.44
322.494	-15.08
322.707	-17
322.921	0.78
323.135	7.37
323.349	12.05
323.562	18.4
323.776	30.31
323.989	30.62
324.203	42.42
324.417	25.39
324.63	11.42
324.844	5.03
325.057	11.58
325.271	-9.87
325.485	-9.9
325.698	-19.21
325.912	-9.28
326.125	5.53
326.339	20.8
326.552	23.39
326.766	39.72
326.979	38.65
327.193	36.93
327.406	39.07
327.619	20.92
327.833	12.93
328.046	-1.39
328.26	-18.97
328.473	-26.34
328.686	-22.92
328.9	-35.44
329.113	-18.49
329.326	-6.37
329.54	-7.82
329.753	-1.53
329.966	9.45
330.179	11.52
330.393	21.6
330.606	29.16
330.819	22.3
331.032	27.57
331.246	29.26
331.459	34.2
331.672	39.11
331.885	31.34
332.098	28.77
332.311	20.74
332.525	22.51
332.738	24.26
332.951	24.56
333.164	22.13
333.377	28.3
333.59	28.15
333.803	32.23
334.016	20.29
334.229	19.21
334.442	21.51
334.655	24.82
334.868	28.85
335.081	28.56
335.294	25.58
335.507	37.14
335.72	30.62
335.933	31.02
336.146	25.39
336.359	21.84
336.572	16.82
336.785	24.18
336.997	27.98
337.21	28.47
337.423	27.62
337.636	26.01
337.849	27.4
338.062	36.38
338.274	25.65
338.487	13.53
338.7	18.31
338.913	7.99
339.125	13.37
339.338	12.83
339.551	7.05
339.763	7.47
339.976	12.37
340.189	12.99
340.402	16.44
340.614	16.91
340.827	8.63
341.039	9.48
341.252	13.28
341.465	6.72
341.677	-10.06
341.89	-8.25
342.102	-8.77
342.315	7.21
342.527	-0.62
342.74	-1.86
342.952	2.83
343.165	21.79
343.377	20.54
343.59	22.15
343.802	24.49
344.015	32.79
344.227	28.44
344.44	25.36
344.652	21.14
344.864	24.26
345.077	22.2
345.289	15.87
345.502	7.63
345.714	9.6
345.926	14.55
346.139	12.32
346.351	-5.54
346.563	3.03
346.775	-4.51
346.988	5.3
347.2	4.66
347.412	9.24
347.624	8.68
347.837	14.37
348.049	11.57
348.261	11.64
348.473	3.3
348.685	11.75
348.897	6.26
349.11	10.3
349.322	12.35
349.534	14.02
349.746	25.87
349.958	37.21
350.17	43.55
350.382	40.65
350.594	39.57
350.806	44.06
351.018	37.89
351.23	32.97
351.442	24.77
351.654	22.89
351.866	29.73
352.078	25.89
352.29	21.82
352.502	21.9
352.714	17.42
352.926	20.97
353.138	16.1
353.35	10.01
353.561	10.4
353.773	11.27
353.985	15.06
354.197	14.43
354.409	20.47
354.621	24.6
354.832	20.95
355.044	24.92
355.256	24.47
355.468	21.86
355.679	29.15
355.891	20.17
356.103	13.78
356.314	11.89
356.526	9.18
356.738	3.22
356.949	4.03
357.161	-3.6
357.373	-0.9
357.584	10.94
357.796	9.92
358.008	14.45
358.219	27.95
358.431	32.03
358.642	34.24
358.854	30.8
359.065	23.82
359.277	30.23
359.488	28.31
359.7	21.14
359.911	9.62
360.123	12.87
360.334	13.32
360.546	6.92
360.757	11.55
360.969	13.85
361.18	9.65
361.391	12.89
361.603	15.07
361.814	17.62
362.025	22.48
362.237	20.43
362.448	19.18
362.659	11.48
362.871	13.62
363.082	14.64
363.293	19.11
363.504	23.96
363.716	19.11
363.927	19.62
364.138	26.78
364.349	34.5
364.56	32.24
364.772	19.99
364.983	15.63
365.194	17.14
365.405	12.03
365.616	4.18
365.827	-0.61
366.038	5.54
366.25	13.3
366.461	10.89
366.672	13.72
366.883	19.11
367.094	21.11
367.305	12.92
367.516	8.74
367.727	9.59
367.938	10.47
368.149	10.59
368.36	5.03
368.571	8.09
368.781	8.53
368.992	6.41
369.203	8.45
369.414	6.59
369.625	8.56
369.836	13.42
370.047	12
370.258	9.53
370.468	3.87
370.679	-3.69
370.89	11.32
371.101	8.77
371.312	3.36
371.522	11.44
371.733	12.39
371.944	17.96
372.155	9.52
372.365	-6.26
372.576	-8.73
372.787	-1.62
372.997	-5.85
373.208	-2.04
373.419	-9.63
373.629	9.67
373.84	4.42
374.05	9.14
374.261	2.49
374.472	3.85
374.682	0.61
374.893	3.22
375.103	0.66
375.314	4.49
375.524	5.3
375.735	11.06
375.945	5.93
376.156	10.28
376.366	9.56
376.577	9.88
376.787	15.24
376.997	13.48
377.208	6.51
377.418	12.08
377.629	11.7
377.839	19.47
378.049	22.38
378.26	22.56
378.47	26.42
378.68	29.17
378.89	23.57
379.101	19.4
379.311	17.86
379.521	12.13
379.732	6.3
379.942	2.53
380.152	8.35
380.362	12.1
380.572	17.62
380.783	15.44
380.993	17.47
381.203	22.74
381.413	30.69
381.623	29.05
381.833	23.92
382.043	20.69
382.253	26.38
382.463	28.35
382.674	28.5
382.884	21.27
383.094	21.05
383.304	22.02
383.514	23.85
383.724	17.42
383.934	15.39
384.144	13.2
384.353	12.46
384.563	7.69
384.773	9.16
384.983	6.45
385.193	7.36
385.403	6.35
385.613	1.56
385.823	-1.4
386.033	-1.26
386.242	-2.92
386.452	-4.92
386.662	-4.29
386.872	-2.81
387.082	-2.89
387.291	0.75
387.501	1.64
387.711	4.09
387.921	7.08
388.13	4.7
388.34	1.96
388.55	7.21
388.759	4.46
388.969	2.1
389.179	3.86
389.388	3.03
389.598	2.97
389.807	3.39
390.017	1.79
390.227	3.42
390.436	3.89
390.646	1.9
390.855	2.08
391.065	2.84
391.274	3.21
391.484	3.09
391.693	3.6
391.903	5.12
392.112	4.94
392.322	5.44
392.531	5.19
392.74	3.42
392.95	3.2
393.159	2.92
393.369	2.62
393.578	2.71
393.787	1.01
393.997	2.57
394.206	3.54
394.415	3.86
394.625	3.09
394.834	2.23
395.043	2.58
395.252	3.61
395.462	2.31
395.671	3.2
395.88	3.49
396.089	3.89
396.298	4.36
396.508	4.14
396.717	3.99
396.926	3.64
397.135	3.02
397.344	2.55
397.553	3.29
397.762	2.56
397.971	3.03
398.181	2.7
398.39	3.32
398.599	3.71
398.808	3.94
399.017	3.52
399.226	4.21
399.435	3.86
399.644	4.03
399.853	3.82
400.062	3.5
400.27	3.38
400.479	3.34
400.688	3.2
400.897	3.34
401.106	3.43
401.315	3.43
401.524	3.54
401.733	3.74
401.941	3.61
402.15	3.54
402.359	3.59
402.568	3.64
402.777	3.56
402.985	3.4
403.194	3.11
403.403	3.03
403.612	3.12
403.82	3.05
404.029	2.92
404.238	2.98
404.446	3.02
404.655	3.06
404.864	3.05
405.072	2.91
405.281	2.69
405.489	2.75
405.698	2.64
405.906	2.64
406.115	2.69
406.324	2.64
406.532	2.79
406.741	2.9
406.949	2.74
407.158	2.91
407.366	2.94
407.574	2.95
407.783	2.97
407.991	2.83
408.2	2.78
408.408	2.85
408.617	2.76
408.825	2.74
409.033	2.65
409.242	2.67
409.45	2.69
409.658	2.75
409.867	2.74
410.075	2.69
410.283	2.63
410.491	2.61
410.7	2.63
410.908	2.62
411.116	2.53
411.324	2.52
411.533	2.45
411.741	2.5
411.949	2.47
412.157	2.45
412.365	2.51
412.573	2.52
412.781	2.56
412.99	2.67
413.198	2.65
413.406	2.71
413.614	2.74
413.822	2.67
414.03	2.7
414.238	2.75
414.446	2.66
414.654	2.64
414.862	2.6
415.07	2.61
415.278	2.51
415.486	2.57
415.694	2.43
415.902	2.39
416.109	2.37
416.317	2.38
416.525	2.41
416.733	2.47
416.941	2.41
417.149	2.61
417.357	2.63
417.564	2.59
417.772	2.6
417.98	2.54
418.188	2.49
418.395	2.47
418.603	2.28
418.811	2.28
419.019	2.32
419.226	2.34
419.434	2.2
419.642	2.25
419.849	2.23
420.057	2.3
420.265	2.29
420.472	2.23
420.68	2.14
420.887	2.28
421.095	2.2
421.302	2.28
421.51	2.23
421.717	2.35
421.925	2.32
422.132	2.32
422.34	2.26
422.547	2.3
422.755	2.12
422.962	2.1
423.17	1.97
423.377	2.16
423.585	2.21
423.792	2.22
423.999	2.19
424.207	2.25
424.414	2.32
424.621	2.4
424.829	2.19
425.036	2.06
425.243	2.05
425.451	2.15
425.658	2.28
425.865	2.22
426.072	2.25
426.28	2.33
426.487	2.37
426.694	2.32
426.901	2.19
427.108	2.11
427.315	2.06
427.523	2.02
427.73	2
427.937	2.06
428.144	2.15
428.351	2.3
428.558	2.23
428.765	2.21
428.972	2.23
429.179	2.21
429.386	2.28
429.593	2.22
429.8	2.18
430.007	2.24
430.214	2.34
430.421	2.26
430.628	2.14
430.835	2.07
431.042	2.1
431.249	2.08
431.456	2.09
431.662	2.05
431.869	2.13
432.076	2.27
432.283	2.26
432.49	2.24
432.697	2.26
432.903	2.26
433.11	2.33
433.317	2.34
433.524	2.28
433.73	2.29
433.937	2.34
434.144	2.39
434.35	2.39
434.557	2.34
434.764	2.36
434.97	2.42
435.177	2.41
435.384	2.48
435.59	2.46
435.797	2.43
436.003	2.46
436.21	2.32
436.416	2.28
436.623	2.3
436.829	2.25
437.036	2.21
437.242	2.15
437.449	2.16
437.655	2.25
437.862	2.29
438.068	2.36
438.275	2.35
438.481	2.42
438.687	2.55
438.894	2.52
439.1	2.53
439.307	2.56
439.513	2.56
439.719	2.59
439.926	2.57
440.132	2.55
440.338	2.6
440.544	2.59
440.751	2.56
440.957	2.47
441.163	2.47
441.369	2.46
441.575	2.41
441.782	2.41
441.988	2.44
442.194	2.51
442.4	2.6
442.606	2.68
442.812	2.7
443.018	2.73
443.224	2.74
443.431	2.7
443.637	2.63
443.843	2.67
444.049	2.58
444.255	2.47
444.461	2.45
444.667	2.43
444.873	2.48
445.079	2.51
445.284	2.42
445.49	2.4
445.696	2.52
445.902	2.58
446.108	2.62
446.314	2.65
446.52	2.69
446.726	2.76
446.931	2.79
447.137	2.77
447.343	2.78
447.549	2.75
447.755	2.67
447.96	2.61
448.166	2.61
448.372	2.58
448.578	2.59
448.783	2.55
448.989	2.59
449.195	2.63
449.4	2.73
449.606	2.68
449.812	2.75
450.017	2.77
450.223	2.77
450.428	2.78
450.634	2.84
450.84	2.79
451.045	2.8
451.251	2.81
451.456	2.79
451.662	2.83
451.867	2.78
452.073	2.73
452.278	2.73
452.483	2.76
452.689	2.73
452.894	2.76
453.1	2.69
453.305	2.75
453.51	2.75
453.716	2.81
453.921	2.79
454.127	2.8
454.332	2.76
454.537	2.8
454.742	2.79
454.948	2.77
455.153	2.69
455.358	2.74
455.563	2.73
455.769	2.73
455.974	2.7
456.179	2.68
456.384	2.71
456.589	2.76
456.795	2.68
457	2.72
457.205	2.73
457.41	2.8
457.615	2.84
457.82	2.88
458.025	2.85
458.23	2.89
458.435	2.82
458.64	2.85
458.845	2.8
459.05	2.76
459.255	2.73
459.46	2.73
459.665	2.79
459.87	2.8
460.075	2.8
460.28	2.84
460.485	2.91
460.69	2.85
460.895	2.89
461.099	2.86
461.304	2.9
461.509	2.83
461.714	2.83
461.919	2.79
462.123	2.91
462.328	2.89
462.533	2.9
462.738	2.89
462.942	2.97
463.147	2.93
463.352	2.93
463.556	2.9
463.761	2.92
463.966	2.93
464.17	2.91
464.375	2.83
464.58	2.87
464.784	2.91
464.989	2.91
465.193	2.95
465.398	3
465.602	3.03
465.807	3.12
466.011	3.12
466.216	3.12
466.42	3.12
466.625	3.11
466.829	3.11
467.034	3.14
467.238	3.15
467.443	3.22
467.647	3.2
467.851	3.21
468.056	3.22
468.26	3.17
468.464	3.22
468.669	3.3
468.873	3.28
469.077	3.31
469.282	3.35
469.486	3.4
469.69	3.44
469.894	3.43
