Data from OFra_PS_T2_2A_0CX04_Reflection_1.txt Node
Date: Wed Jul 21 16:48:07 EDT 2021
User: Adam
Spectrometer: FLMT01687
Trigger mode: 0
Integration Time (sec): 1.100000E0
Scans to average: 2
Electric dark correction enabled: true
Nonlinearity correction enabled: false
Boxcar width: 2
XAxis mode: Wavelengths
Number of Pixels in Spectrum: 3648
>>>>>Begin Spectral Data<<<<<
179.494	282.2
179.716	288.94
179.937	286.04
180.158	265.44
180.38	539.84
180.601	284.94
180.823	136.51
181.044	143.48
181.265	368.2
181.486	50.6
181.708	53.29
181.929	550.51
182.15	127.11
182.372	194.68
182.593	118.21
182.814	59.42
183.035	103.35
183.257	67.96
183.478	-11.44
183.699	11.46
183.92	10.49
184.141	-2.3
184.363	-42.95
184.584	16.14
184.805	29.9
185.026	59.8
185.247	61.27
185.468	54.58
185.689	50.96
185.91	54.9
186.132	40.56
186.353	32
186.574	64.73
186.795	54.07
187.016	26.35
187.237	8.71
187.458	-9.33
187.679	-20.21
187.9	-31.32
188.121	-19.16
188.342	-1.99
188.563	52.15
188.784	61.42
189.005	87.87
189.226	91.69
189.447	80.55
189.667	-79.98
189.888	-129.93
190.109	-615.26
190.33	-414.03
190.551	-838.72
190.772	-170.64
190.993	-114.5
191.214	-123.74
191.434	-79.08
191.655	-36.04
191.876	-38.32
192.097	-130.55
192.318	-148.72
192.538	-137.17
192.759	-80.38
192.98	-32.86
193.201	18.74
193.421	38.91
193.642	31.26
193.863	29.78
194.083	5.09
194.304	-10.09
194.525	-6.29
194.745	-31.83
194.966	-23.42
195.187	-3.54
195.407	-21.74
195.628	-65.99
195.848	-50.03
196.069	-35.33
196.29	-31.33
196.51	-17.32
196.731	-33.34
196.951	-32.13
197.172	-43.25
197.392	-78.17
197.613	-74.02
197.833	-77.72
198.054	-48.09
198.274	-28.47
198.495	-27.07
198.715	-8.91
198.936	-11.56
199.156	-23.2
199.377	-53.82
199.597	-35.94
199.817	-43.47
200.038	-14.81
200.258	-21.42
200.479	-13.24
200.699	-28.05
200.919	-1.9
201.14	8
201.36	-7.57
201.58	27.92
201.801	39.02
202.021	17.86
202.241	9.04
202.461	1.94
202.682	-47.54
202.902	-66.99
203.122	-19.12
203.342	-21.32
203.563	20.65
203.783	22.41
204.003	16.36
204.223	1.63
204.443	31.06
204.663	11.44
204.884	3.9
205.104	6.79
205.324	37.61
205.544	83.34
205.764	62.81
205.984	53.22
206.204	54.35
206.424	42.85
206.644	8.85
206.864	23.26
207.084	45.88
207.304	92.2
207.525	71.33
207.745	97.42
207.964	99.78
208.184	53.98
208.404	21.91
208.624	31.51
208.844	-1.57
209.064	-145.1
209.284	-95.53
209.504	-77.06
209.724	-0.3
209.944	-0.94
210.164	0.9
210.384	-10.55
210.604	1.53
210.823	-40.48
211.043	-12.14
211.263	-3.45
211.483	9.67
211.703	-32.06
211.922	-20.33
212.142	-13.71
212.362	-19.27
212.582	-1.5
212.801	2.19
213.021	-5.76
213.241	-24
213.461	-51.51
213.68	-78.11
213.9	-87.76
214.12	-54.78
214.339	-61.89
214.559	-26.87
214.779	-7.77
214.998	28.52
215.218	10.72
215.438	20.34
215.657	10.84
215.877	18.2
216.096	27.57
216.316	42.81
216.535	22.75
216.755	41.87
216.974	34
217.194	-15.85
217.413	-17.75
217.633	-14.62
217.852	-85.75
218.072	-15.47
218.291	4.11
218.511	-3.09
218.73	-10.82
218.95	2.24
219.169	-3.5
219.389	-15.88
219.608	11
219.827	12.89
220.047	8.1
220.266	14.01
220.485	24.88
220.705	5.93
220.924	13.95
221.143	30.53
221.363	19.72
221.582	7.67
221.801	18.82
222.021	29.68
222.24	5.9
222.459	2.11
222.678	25.74
222.897	-22.75
223.117	-56.18
223.336	-63.57
223.555	-16.12
223.774	0.03
223.993	17.12
224.213	22.6
224.432	45.53
224.651	44.42
224.87	14.31
225.089	25.11
225.308	14.56
225.527	13.39
225.746	20.69
225.965	22.53
226.184	-5.62
226.404	17.79
226.623	-0.56
226.842	-13.51
227.061	5.53
227.28	7.22
227.499	0.71
227.718	10.93
227.936	0.01
228.155	9.28
228.374	27.33
228.593	16.61
228.812	31.2
229.031	25.5
229.25	-14.44
229.469	-40.98
229.688	-31.84
229.907	-27.4
230.125	-11.51
230.344	-5.93
230.563	-1.54
230.782	5.15
231.001	-49.89
231.22	-44.54
231.438	-3.54
231.657	14.12
231.876	14.19
232.095	50.21
232.313	60.55
232.532	61.99
232.751	52.09
232.969	59.01
233.188	76.67
233.407	73.28
233.625	54.13
233.844	53.63
234.063	34.81
234.281	28.95
234.5	28.26
234.719	9.85
234.937	5.54
235.156	6.34
235.374	6.36
235.593	-22.54
235.811	-26.02
236.03	-13.27
236.249	-38.08
236.467	-23.19
236.686	10.61
236.904	24.81
237.123	24.41
237.341	25.06
237.559	29.8
237.778	31.16
237.996	23.37
238.215	14.53
238.433	10.25
238.652	7.12
238.87	-3.49
239.088	4.73
239.307	2.81
239.525	20.82
239.743	7.62
239.962	5.97
240.18	0.99
240.398	11.63
240.617	-22.42
240.835	-22.45
241.053	-11.99
241.271	-20.48
241.49	-10.86
241.708	12.15
241.926	-31.16
242.144	0.03
242.363	-0.55
242.581	-5.15
242.799	-8.9
243.017	32.7
243.235	6.53
243.453	7.24
243.672	15.14
243.89	17.25
244.108	12.48
244.326	16.8
244.544	20.39
244.762	14.57
244.98	6.43
245.198	4.79
245.416	17.11
245.634	23.58
245.852	5.78
246.07	-4.44
246.288	-21.1
246.506	-20.93
246.724	-41.1
246.942	-5.93
247.16	5.98
247.378	16.92
247.596	6.06
247.814	11.26
248.032	2.26
248.25	21.88
248.468	17.38
248.685	6.28
248.903	22.01
249.121	18.44
249.339	-4.49
249.557	-4.97
249.775	11.02
249.992	-22.89
250.21	-26.62
250.428	-14.79
250.646	-35.53
250.863	-41.66
251.081	-25.05
251.299	-25.33
251.517	-5.6
251.734	-24.94
251.952	-15.77
252.17	-14.49
252.387	0.72
252.605	-9.57
252.823	9.62
253.04	19.78
253.258	25.52
253.475	9.36
253.693	32.43
253.911	33.6
254.128	25.4
254.346	29.07
254.563	33.43
254.781	14.19
254.998	8.1
255.216	20.2
255.433	24.45
255.651	50.63
255.868	50.22
256.086	57.67
256.303	55
256.521	49.68
256.738	24.78
256.956	11.91
257.173	-13.35
257.39	-40.1
257.608	-64.89
257.825	-30.23
258.043	-19.66
258.26	8.68
258.477	27.85
258.695	27.13
258.912	10.63
259.129	26.91
259.346	3.39
259.564	-19.51
259.781	-17
259.998	-0.64
260.216	-30.51
260.433	3.21
260.65	10.35
260.867	11.42
261.084	-8.48
261.302	8.53
261.519	-9.25
261.736	-15.48
261.953	-7.64
262.17	13.23
262.387	-5.32
262.604	-4.89
262.822	28.06
263.039	15.24
263.256	11.67
263.473	52.31
263.69	39.22
263.907	30.28
264.124	28.81
264.341	6.07
264.558	-0.14
264.775	-13.41
264.992	-25.41
265.209	-14.35
265.426	8.77
265.643	5.45
265.86	18.24
266.077	15.96
266.294	29.23
266.51	9.4
266.727	-6.02
266.944	-9.03
267.161	-12.8
267.378	-39.83
267.595	4.23
267.812	-4.83
268.028	-13.89
268.245	19.94
268.462	30.63
268.679	16.91
268.896	38.21
269.112	42.55
269.329	34.5
269.546	24.48
269.763	17.31
269.979	25.27
270.196	26.43
270.413	3.37
270.629	1.07
270.846	7.19
271.063	8.63
271.279	-5.39
271.496	20.33
271.712	53.11
271.929	60.85
272.146	28.5
272.362	29.2
272.579	19.74
272.795	18.99
273.012	29.91
273.228	48.02
273.445	41.23
273.661	49.49
273.878	33.48
274.094	13.61
274.311	11.37
274.527	44.94
274.744	37.49
274.96	17.72
275.177	21.81
275.393	24.37
275.609	11.2
275.826	27.49
276.042	27.26
276.259	25.13
276.475	31.34
276.691	41.12
276.908	25.96
277.124	33.06
277.34	36.29
277.557	25.37
277.773	6.81
277.989	7.94
278.205	12.03
278.422	12.26
278.638	12.95
278.854	35.82
279.07	34.93
279.286	37.18
279.503	32.36
279.719	42.32
279.935	25.09
280.151	18.62
280.367	21.16
280.583	7.88
280.799	-2.21
281.016	-24.84
281.232	6.82
281.448	-17.83
281.664	-10.3
281.88	-30.42
282.096	-10.83
282.312	-25.96
282.528	1.5
282.744	21.69
282.96	24.57
283.176	22.3
283.392	18.61
283.608	4.08
283.824	-6.49
284.04	2.52
284.256	10.42
284.471	7.81
284.687	25.3
284.903	48.34
285.119	43.53
285.335	24.99
285.551	38.58
285.767	32.41
285.982	15.41
286.198	-2.66
286.414	21.04
286.63	23.32
286.846	26.15
287.061	21.31
287.277	38.45
287.493	11.99
287.709	18.39
287.924	-1.82
288.14	13.11
288.356	6.01
288.571	34.23
288.787	16.59
289.003	18.23
289.218	9.48
289.434	-10.85
289.65	-33.46
289.865	-49.3
290.081	-32.73
290.296	-29.83
290.512	0.02
290.727	-8.96
290.943	7.79
291.159	9.73
291.374	6.26
291.59	-14.83
291.805	11.58
292.021	15.95
292.236	11.19
292.451	25.22
292.667	26.37
292.882	29.49
293.098	20.48
293.313	23.94
293.529	6.32
293.744	15.52
293.959	4.55
294.175	-2.07
294.39	5.51
294.605	9.27
294.821	11.76
295.036	20.96
295.251	28.18
295.467	27.98
295.682	20.06
295.897	14.64
296.112	-4.83
296.328	-16.21
296.543	-51.45
296.758	-38.18
296.973	-28.52
297.188	0.99
297.404	-6.16
297.619	-3.52
297.834	-6.31
298.049	-3.95
298.264	-16.06
298.479	10.09
298.694	10.39
298.909	30.23
299.125	36.06
299.34	35.6
299.555	24.2
299.77	31.56
299.985	-11.76
300.2	-44.28
300.415	-51
300.63	-34.98
300.845	-30
301.06	-23.73
301.275	-2.32
301.49	17.33
301.704	12.99
301.919	1.9
302.134	6.01
302.349	-13.11
302.564	-55.82
302.779	-43.98
302.994	-10.31
303.209	17.76
303.423	36.62
303.638	52.3
303.853	7.73
304.068	0.57
304.283	1.01
304.497	2.34
304.712	-3.72
304.927	15.16
305.142	11.43
305.356	12.87
305.571	6.65
305.786	8.32
306	-6.97
306.215	-8.41
306.43	-19.67
306.644	-12.41
306.859	-0.28
307.074	31.16
307.288	12.14
307.503	-22.45
307.717	-23.53
307.932	-36.89
308.147	-39.94
308.361	-21.66
308.576	2.33
308.79	-10.2
309.005	-4.08
309.219	-1.84
309.434	-11.39
309.648	-1.09
309.863	19.36
310.077	29.79
310.292	29.04
310.506	34.75
310.72	28.91
310.935	30.05
311.149	15.74
311.364	29.28
311.578	29.12
311.792	22.97
312.007	21.54
312.221	26.52
312.435	24.4
312.649	23.26
312.864	37.08
313.078	59.21
313.292	64.92
313.507	21.59
313.721	37.48
313.935	33.62
314.149	9.98
314.363	17.89
314.578	34.36
314.792	27.52
315.006	4.47
315.22	25.8
315.434	15.36
315.648	20.12
315.862	19.59
316.077	30.51
316.291	17.58
316.505	56.24
316.719	41.96
316.933	19.43
317.147	-4.87
317.361	-38.76
317.575	-75.35
317.789	-104.84
318.003	-144.04
318.217	-95.11
318.431	-8.55
318.645	37.25
318.859	50.89
319.073	59.12
319.287	54.6
319.5	25.83
319.714	-4.54
319.928	-34.4
320.142	-44.62
320.356	-24.27
320.57	-12.2
320.784	-10.85
320.997	-15.64
321.211	-17.32
321.425	-25.95
321.639	-33.08
321.853	-7.92
322.066	18.03
322.28	15.27
322.494	11.96
322.707	4.79
322.921	8.4
323.135	8.82
323.349	14.66
323.562	9.18
323.776	10.32
323.989	-16.66
324.203	-35.45
324.417	-39.97
324.63	-54.72
324.844	-31.6
325.057	-10.45
325.271	-4.64
325.485	14.49
325.698	42.12
325.912	49.61
326.125	39.05
326.339	46.33
326.552	35.16
326.766	23.27
326.979	15.69
327.193	30.42
327.406	13.86
327.619	16.76
327.833	17.15
328.046	5.57
328.26	-4.9
328.473	15.97
328.686	25.9
328.9	15.33
329.113	30.64
329.326	22.12
329.54	19.94
329.753	21.21
329.966	27.88
330.179	22.6
330.393	24.4
330.606	15.25
330.819	18.46
331.032	36.47
331.246	39.49
331.459	42.69
331.672	41.03
331.885	32.31
332.098	22.06
332.311	8.39
332.525	-6.39
332.738	-33.65
332.951	-10.66
333.164	2.47
333.377	-4.12
333.59	8.54
333.803	26.18
334.016	10.3
334.229	-8.62
334.442	17.11
334.655	12.21
334.868	11.52
335.081	23.99
335.294	27.25
335.507	13.89
335.72	30.09
335.933	26.48
336.146	23.22
336.359	17.23
336.572	3.27
336.785	-25.31
336.997	-19.56
337.21	-5.74
337.423	-0.16
337.636	2.65
337.849	25.74
338.062	18.9
338.274	27
338.487	28.74
338.7	23.57
338.913	1.59
339.125	-7.96
339.338	-50.46
339.551	-50.31
339.763	-32.63
339.976	-21.96
340.189	-10.97
340.402	-7.58
340.614	-3.61
340.827	13.28
341.039	22.25
341.252	46.3
341.465	56
341.677	50.91
341.89	27.08
342.102	26.42
342.315	5.63
342.527	-32.32
342.74	-28.37
342.952	-25
343.165	-37.68
343.377	-28.37
343.59	-15.43
343.802	-5.48
344.015	14.71
344.227	26.84
344.44	35.04
344.652	46.87
344.864	43.37
345.077	41.65
345.289	39.17
345.502	40.07
345.714	34.03
345.926	31.77
346.139	28.89
346.351	41.11
346.563	34.8
346.775	38.87
346.988	38.07
347.2	29.73
347.412	-10.63
347.624	-19.83
347.837	-52.72
348.049	-28.51
348.261	-20.08
348.473	-5.39
348.685	-7.7
348.897	-16.75
349.11	-38.54
349.322	-69.62
349.534	-52.31
349.746	-37.43
349.958	-9.99
350.17	-14.83
350.382	11.09
350.594	4.87
350.806	9.86
351.018	20.03
351.23	20.19
351.442	14.35
351.654	17.24
351.866	18.22
352.078	6.22
352.29	24.38
352.502	25.13
352.714	34.98
352.926	33.63
353.138	33.69
353.35	32.14
353.561	43.62
353.773	31.02
353.985	29.3
354.197	30.23
354.409	23.8
354.621	7.08
354.832	6.79
355.044	-1.44
355.256	1.81
355.468	4.55
355.679	3.93
355.891	20.57
356.103	19.08
356.314	24.99
356.526	38.08
356.738	41.01
356.949	15.09
357.161	11.39
357.373	1.79
357.584	-4.84
357.796	4.85
358.008	8.65
358.219	22.59
358.431	11.47
358.642	9.87
358.854	2.83
359.065	-9.17
359.277	-29.13
359.488	-23.62
359.7	-25.38
359.911	-29
360.123	-12.44
360.334	-15.35
360.546	-11.53
360.757	-14.66
360.969	2.76
361.18	-5.93
361.391	3.87
361.603	-4.48
361.814	-6.96
362.025	-0.67
362.237	18.93
362.448	25.16
362.659	38.25
362.871	43.93
363.082	35.07
363.293	21.07
363.504	12.34
363.716	-2.46
363.927	-25.35
364.138	-39.03
364.349	-37.32
364.56	-23.97
364.772	-19.03
364.983	12.01
365.194	17.4
365.405	16.4
365.616	22.95
365.827	23.54
366.038	0.95
366.25	-0.47
366.461	5.33
366.672	15.72
366.883	20.98
367.094	22.95
367.305	16.7
367.516	15.87
367.727	-3.96
367.938	-3.1
368.149	6.05
368.36	16.91
368.571	10.15
368.781	5.5
368.992	-7.62
369.203	-30.4
369.414	-48.35
369.625	-32.62
369.836	-22.42
370.047	-39.07
370.258	-13.07
370.468	-14.28
370.679	-26.63
370.89	-25.24
371.101	-8.86
371.312	-9.33
371.522	-5.74
371.733	-7.25
371.944	-9.36
372.155	-6.53
372.365	-13.97
372.576	-9.32
372.787	-0.53
372.997	-12.98
373.208	-6.22
373.419	-5.2
373.629	-22.57
373.84	-22.43
374.05	-9.82
374.261	-17.9
374.472	-16.29
374.682	16.01
374.893	14.66
375.103	36.37
375.314	36.38
375.524	37.6
375.735	28.07
375.945	39.13
376.156	20.26
376.366	12.39
376.577	8.69
376.787	6.05
376.997	-7.41
377.208	-9.58
377.418	-1.12
377.629	2.61
377.839	2.8
378.049	6.07
378.26	17.17
378.47	16.47
378.68	11.37
378.89	6.44
379.101	0.4
379.311	-23.61
379.521	-41.13
379.732	-23.97
379.942	-11.25
380.152	-19.34
380.362	8.37
380.572	14.13
380.783	25.59
380.993	22.47
381.203	38.05
381.413	35.07
381.623	39.13
381.833	19.87
382.043	17.86
382.253	18.26
382.463	18.02
382.674	14.07
382.884	6.58
383.094	11.56
383.304	2.83
383.514	1.56
383.724	-1.28
383.934	0.99
384.144	-9.64
384.353	-14.37
384.563	-19.17
384.773	-7.95
384.983	-12.65
385.193	-2.2
385.403	3.62
385.613	8.51
385.823	-0.7
386.033	1.6
386.242	-4.5
386.452	-13.29
386.662	-15.34
386.872	-5.73
387.082	-11
387.291	-10.17
387.501	-4.99
387.711	-1.6
387.921	-6.2
388.13	-0.69
388.34	10.51
388.55	13.58
388.759	13.33
388.969	16.35
389.179	14.6
389.388	9.82
389.598	12.11
389.807	7.71
390.017	6.86
390.227	7.35
390.436	5.96
390.646	2.81
390.855	3.57
391.065	3.28
391.274	3.4
391.484	3.29
391.693	2.47
391.903	5.99
392.112	7.52
392.322	8.88
392.531	9.71
392.74	12.2
392.95	9.67
393.159	9.93
393.369	8.19
393.578	8.14
393.787	6.86
393.997	6.77
394.206	5.66
394.415	7.15
394.625	7.53
394.834	7.62
395.043	9.02
395.252	10.06
395.462	11.12
395.671	11.35
395.88	11.01
396.089	10.81
396.298	9.61
396.508	8.09
396.717	7.83
396.926	8.15
397.135	7.81
397.344	8.56
397.553	9.74
397.762	10.39
397.971	10.43
398.181	10.42
398.39	10.19
398.599	9.92
398.808	9.6
399.017	9.74
399.226	10.47
399.435	10.69
399.644	10.74
399.853	10.08
400.062	10.28
400.27	9.7
400.479	9.33
400.688	8.88
400.897	9.26
401.106	8.9
401.315	9.16
401.524	9.44
401.733	9.42
401.941	9.52
402.15	9.6
402.359	9.32
402.568	9.45
402.777	9.92
402.985	9.75
403.194	9.69
403.403	9.71
403.612	9.57
403.82	9.36
404.029	9.64
404.238	9.68
404.446	9.87
404.655	9.45
404.864	9.33
405.072	8.78
405.281	8.82
405.489	8.76
405.698	9.04
405.906	8.95
406.115	9.01
406.324	8.93
406.532	8.89
406.741	8.94
406.949	9.22
407.158	9.26
407.366	9.25
407.574	9.25
407.783	9.2
407.991	8.79
408.2	8.96
408.408	8.93
408.617	8.84
408.825	8.69
409.033	8.89
409.242	8.77
409.45	8.9
409.658	8.96
409.867	8.99
410.075	8.92
410.283	8.85
410.491	8.72
410.7	8.59
410.908	8.58
411.116	8.71
411.324	8.67
411.533	8.49
411.741	8.5
411.949	8.39
412.157	8.18
412.365	8.19
412.573	8.18
412.781	8.22
412.99	8.21
413.198	8.35
413.406	8.34
413.614	8.4
413.822	8.37
414.03	8.42
414.238	8.31
414.446	8.33
414.654	8.22
414.862	8.19
415.07	8.28
415.278	8.23
415.486	8.05
415.694	8.14
415.902	8.03
416.109	7.84
416.317	7.86
416.525	7.93
416.733	7.91
416.941	8.09
417.149	8.22
417.357	8.23
417.564	8.21
417.772	8.29
417.98	7.91
418.188	7.84
418.395	7.81
418.603	7.96
418.811	7.65
419.019	7.86
419.226	7.9
419.434	7.95
419.642	7.82
419.849	8.12
420.057	7.99
420.265	7.89
420.472	7.9
420.68	7.89
420.887	7.8
421.095	7.83
421.302	7.89
421.51	7.63
421.717	7.68
421.925	7.64
422.132	7.75
422.34	7.5
422.547	7.6
422.755	7.55
422.962	7.53
423.17	7.45
423.377	7.61
423.585	7.68
423.792	7.54
423.999	7.45
424.207	7.36
424.414	7.38
424.621	7.17
424.829	7.18
425.036	7.47
425.243	7.61
425.451	7.41
425.658	7.46
425.865	7.59
426.072	7.51
426.28	7.7
426.487	7.87
426.694	8.01
426.901	7.89
427.108	7.76
427.315	7.44
427.523	7.52
427.73	7.49
427.937	7.57
428.144	7.52
428.351	7.54
428.558	7.52
428.765	7.52
428.972	7.41
429.179	7.47
429.386	7.6
429.593	7.53
429.8	7.49
430.007	7.57
430.214	7.65
430.421	7.7
430.628	7.66
430.835	7.7
431.042	7.78
431.249	8
431.456	8.03
431.662	8.25
431.869	8.41
432.076	8.53
432.283	8.36
432.49	8.36
432.697	8.33
432.903	8.17
433.11	8.16
433.317	8.2
433.524	8.29
433.73	8.26
433.937	8.42
434.144	8.33
434.35	8.32
434.557	8.19
434.764	8.24
434.97	8.25
435.177	8.46
435.384	8.6
435.59	8.73
435.797	8.89
436.003	8.86
436.21	8.81
436.416	8.8
436.623	8.87
436.829	8.92
437.036	9.12
437.242	9.21
437.449	9.19
437.655	9.24
437.862	9.18
438.068	9.05
438.275	9.2
438.481	9.35
438.687	9.3
438.894	9.35
439.1	9.39
439.307	9.3
439.513	9.27
439.719	9.23
439.926	9.4
440.132	9.5
440.338	9.53
440.544	9.67
440.751	9.78
440.957	9.69
441.163	9.67
441.369	9.75
441.575	9.66
441.782	9.66
441.988	9.75
442.194	9.76
442.4	9.73
442.606	9.88
442.812	9.98
443.018	10.02
443.224	10.1
443.431	10.24
443.637	10.13
443.843	10.13
444.049	10.11
444.255	10.06
444.461	10.06
444.667	10.07
444.873	10.12
445.079	10.15
445.284	10.26
445.49	10.15
445.696	10.23
445.902	10.19
446.108	10.06
446.314	10.01
446.52	10
446.726	10.06
446.931	10.1
447.137	10.21
447.343	10.18
447.549	10.19
447.755	10.17
447.96	10.25
448.166	10.26
448.372	10.33
448.578	10.48
448.783	10.53
448.989	10.59
449.195	10.75
449.4	10.76
449.606	10.73
449.812	10.6
450.017	10.58
450.223	10.5
450.428	10.46
450.634	10.49
450.84	10.56
451.045	10.5
451.251	10.51
451.456	10.77
451.662	10.74
451.867	10.93
452.073	10.97
452.278	11.05
452.483	11.04
452.689	11.07
452.894	11.01
453.1	11.06
453.305	11.08
453.51	11.04
453.716	11.09
453.921	11.15
454.127	11.06
454.332	10.91
454.537	10.89
454.742	10.94
454.948	10.89
455.153	10.91
455.358	11.06
455.563	11.04
455.769	10.97
455.974	10.93
456.179	10.95
456.384	10.78
456.589	10.8
456.795	10.68
457	10.66
457.205	10.75
457.41	10.9
457.615	10.96
457.82	11.04
458.025	11.03
458.23	11.07
458.435	10.98
458.64	10.95
458.845	11.13
459.05	11.18
459.255	11.15
459.46	11.26
459.665	11.27
459.87	11.17
460.075	11.21
460.28	11.2
460.485	11.24
460.69	11.2
460.895	11.17
461.099	11.25
461.304	11.28
461.509	11.19
461.714	11.17
461.919	11.25
462.123	11.09
462.328	11.11
462.533	11.21
462.738	11.39
462.942	11.49
463.147	11.6
463.352	11.69
463.556	11.68
463.761	11.64
463.966	11.59
464.17	11.55
464.375	11.48
464.58	11.55
464.784	11.57
