Data from Ofra_2a_PS_2GT7_Reflection_3.txt Node
Date: Tue Jul 20 09:44:56 EDT 2021
User: Adam
Spectrometer: FLMT01687
Trigger mode: 0
Integration Time (sec): 9.450000E-1
Scans to average: 3
Electric dark correction enabled: true
Nonlinearity correction enabled: false
Boxcar width: 3
XAxis mode: Wavelengths
Number of Pixels in Spectrum: 3648
>>>>>Begin Spectral Data<<<<<
179.494	752.07
179.716	501.85
179.937	493.96
180.158	2165.23
180.38	-446.22
180.601	-76.86
180.823	-27.88
181.044	95.72
181.265	47.49
181.486	11.97
181.708	-38.04
181.929	-230.12
182.15	-1042.61
182.372	158.03
182.593	223.89
182.814	-10.63
183.035	127.79
183.257	130.76
183.478	66.74
183.699	64.37
183.92	49.46
184.141	58.64
184.363	58.76
184.584	36.67
184.805	22.38
185.026	17.6
185.247	16.36
185.468	13.77
185.689	19.38
185.91	15.7
186.132	31.82
186.353	21.87
186.574	33.14
186.795	23.95
187.016	31.13
187.237	27.73
187.458	11.4
187.679	-18.86
187.9	-7.78
188.121	-34.43
188.342	-11.33
188.563	-12.61
188.784	-14.92
189.005	0.55
189.226	7.79
189.447	-0.24
189.667	3.08
189.888	17.56
190.109	26.69
190.33	26.84
190.551	16.91
190.772	15.48
190.993	37.59
191.214	41.3
191.434	38.42
191.655	37.25
191.876	42.44
192.097	37.56
192.318	45.69
192.538	43.45
192.759	51.07
192.98	36.55
193.201	38.45
193.421	36.14
193.642	50.94
193.863	49.43
194.083	37.73
194.304	30.45
194.525	48.05
194.745	30.21
194.966	35.66
195.187	37.02
195.407	32.71
195.628	31.5
195.848	23.88
196.069	20.12
196.29	17.44
196.51	13.84
196.731	21.16
196.951	11.34
197.172	8.45
197.392	27.28
197.613	20.8
197.833	28.61
198.054	18.52
198.274	-15.58
198.495	-4.79
198.715	-23.72
198.936	-41.66
199.156	-24.17
199.377	-30.09
199.597	-3.54
199.817	28.7
200.038	24.01
200.258	39.48
200.479	32.02
200.699	28.54
200.919	19.34
201.14	14.06
201.36	17.21
201.58	19.78
201.801	21.46
202.021	19.34
202.241	23.36
202.461	33.04
202.682	28.76
202.902	17.06
203.122	13.42
203.342	28.38
203.563	31.06
203.783	38.01
204.003	34.3
204.223	36.88
204.443	37.34
204.663	38.26
204.884	26.21
205.104	27.81
205.324	30.13
205.544	40.45
205.764	36.52
205.984	49.8
206.204	58.95
206.424	51.15
206.644	48.03
206.864	39.98
207.084	46.7
207.304	43.81
207.525	24.85
207.745	16.35
207.964	14.54
208.184	16.27
208.404	14.87
208.624	-15.16
208.844	-4.8
209.064	15.2
209.284	21.38
209.504	22.18
209.724	10.09
209.944	6.55
210.164	21.58
210.384	21.88
210.604	-8.28
210.823	-16.66
211.043	-15.95
211.263	4.41
211.483	10.74
211.703	14.66
211.922	13.3
212.142	27.07
212.362	33.69
212.582	27.68
212.801	19.03
213.021	14.81
213.241	12.17
213.461	8.91
213.68	9.86
213.9	9.2
214.12	13.81
214.339	22.46
214.559	34.3
214.779	37.33
214.998	31.94
215.218	41.49
215.438	54.27
215.657	50.12
215.877	42.19
216.096	39.89
216.316	27.22
216.535	34.33
216.755	7.69
216.974	-6.49
217.194	-9.14
217.413	14.71
217.633	6.63
217.852	10.91
218.072	-8.89
218.291	24.24
218.511	22.78
218.73	18.76
218.95	14.12
219.169	20.15
219.389	16
219.608	31.69
219.827	25.38
220.047	30.16
220.266	32.21
220.485	26.88
220.705	18.12
220.924	21.02
221.143	16.97
221.363	20.71
221.582	16.05
221.801	18.96
222.021	22.45
222.24	27.21
222.459	17.6
222.678	19.82
222.897	10.54
223.117	11.56
223.336	21.71
223.555	19.27
223.774	20.25
223.993	33.44
224.213	24.92
224.432	23.01
224.651	24.49
224.87	15.77
225.089	13.44
225.308	15.79
225.527	13.61
225.746	15.98
225.965	17.2
226.184	7.28
226.404	-7.4
226.623	0.14
226.842	1.24
227.061	9.66
227.28	21.12
227.499	35.88
227.718	34.66
227.936	36.36
228.155	32.08
228.374	31.08
228.593	22.62
228.812	15.91
229.031	-2.45
229.25	9.31
229.469	14.05
229.688	15.48
229.907	6.78
230.125	7.82
230.344	8.72
230.563	21.49
230.782	18.16
231.001	22.65
231.22	26.04
231.438	32.92
231.657	45.39
231.876	48.11
232.095	41
232.313	37.99
232.532	33.7
232.751	34.65
232.969	36.58
233.188	27.88
233.407	30.57
233.625	37.32
233.844	36.85
234.063	36.78
234.281	31.7
234.5	30.17
234.719	22.36
234.937	26.48
235.156	19.23
235.374	17.78
235.593	10.41
235.811	-3.49
236.03	-7.56
236.249	1.49
236.467	-2.45
236.686	7.26
236.904	8.7
237.123	25.4
237.341	36.36
237.559	38.64
237.778	46.66
237.996	44.43
238.215	37.34
238.433	41.39
238.652	31.04
238.87	27.92
239.088	16.53
239.307	15.95
239.525	7.77
239.743	-1.24
239.962	-7.17
240.18	4.56
240.398	3.16
240.617	20.01
240.835	23.57
241.053	29.7
241.271	44.48
241.49	27.23
241.708	16.41
241.926	11.16
242.144	5.25
242.363	-2.39
242.581	-10.98
242.799	-28.07
243.017	-8.35
243.235	-15.21
243.453	-2.6
243.672	-14.53
243.89	-10.73
244.108	11.68
244.326	17.59
244.544	26.31
244.762	26.85
244.98	23.85
245.198	21.64
245.416	20.98
245.634	22.13
245.852	23.15
246.07	16.07
246.288	9.76
246.506	7.68
246.724	23.13
246.942	22.74
247.16	9.52
247.378	2.14
247.596	8.03
247.814	2.04
248.032	-5.73
248.25	-9.15
248.468	-2.88
248.685	4.04
248.903	3.17
249.121	7.37
249.339	13.4
249.557	21.5
249.775	11.29
249.992	8.78
250.21	4.62
250.428	7.44
250.646	14.02
250.863	22.19
251.081	17.61
251.299	31.02
251.517	41.45
251.734	38.78
251.952	42.63
252.17	6.11
252.387	9.88
252.605	5.12
252.823	0.26
253.04	-14.77
253.258	-12.21
253.475	-12.26
253.693	10.49
253.911	5.53
254.128	13.91
254.346	6.1
254.563	0.22
254.781	2.95
254.998	1.39
255.216	2.98
255.433	0.16
255.651	-1.58
255.868	2.86
256.086	18.97
256.303	19.15
256.521	12.71
256.738	10.68
256.956	6.25
257.173	4.11
257.39	8.45
257.608	4.94
257.825	-3.12
258.043	10.5
258.26	3.09
258.477	19.4
258.695	18.16
258.912	25.95
259.129	20
259.346	20.7
259.564	21.62
259.781	29.42
259.998	17.6
260.216	30.03
260.433	17.36
260.65	28.16
260.867	15.56
261.084	5.04
261.302	-5.99
261.519	-22.64
261.736	-28.59
261.953	-24.19
262.17	-21.92
262.387	-8.55
262.604	-20.25
262.822	-11.41
263.039	-0.19
263.256	3.12
263.473	-2.1
263.69	-6.2
263.907	-7.08
264.124	-0.24
264.341	1.02
264.558	3.93
264.775	0.16
264.992	10.4
265.209	13.46
265.426	12.89
265.643	13.61
265.86	11.82
266.077	14.63
266.294	15.88
266.51	11.64
266.727	-0.92
266.944	-1.6
267.161	0.44
267.378	1.46
267.595	-11.17
267.812	-22.31
268.028	-9.98
268.245	6.24
268.462	9.75
268.679	2.05
268.896	-0.16
269.112	9.23
269.329	22.55
269.546	8.89
269.763	10.94
269.979	16.69
270.196	29.12
270.413	31
270.629	24.8
270.846	16.03
271.063	19.05
271.279	14.41
271.496	-0.31
271.712	-13.61
271.929	-5.61
272.146	10.7
272.362	-4.25
272.579	-8.17
272.795	-7.54
273.012	-3.09
273.228	-0.25
273.445	-3.67
273.661	-9.23
273.878	0.67
274.094	11.73
274.311	4.56
274.527	3.75
274.744	3.28
274.96	-0.61
275.177	-5.74
275.393	-2.1
275.609	-0.93
275.826	10.86
276.042	24.53
276.259	26.84
276.475	26.88
276.691	29.89
276.908	33.11
277.124	26.99
277.34	18.69
277.557	16.21
277.773	13.94
277.989	8.1
278.205	-7.1
278.422	-6.04
278.638	6.5
278.854	12.14
279.07	7.27
279.286	10.02
279.503	24.06
279.719	37.84
279.935	19.98
280.151	20.27
280.367	20.14
280.583	23.46
280.799	26.5
281.016	18.24
281.232	11.64
281.448	22.66
281.664	20.84
281.88	26.09
282.096	19.14
282.312	12
282.528	12.96
282.744	17.43
282.96	10.57
283.176	6.39
283.392	2.68
283.608	11.54
283.824	7.25
284.04	10.48
284.256	3.33
284.471	12.33
284.687	17.78
284.903	11.68
285.119	-6.89
285.335	-3.01
285.551	1.26
285.767	10.47
285.982	4.4
286.198	4.34
286.414	15.4
286.63	29.98
286.846	31.16
287.061	30.58
287.277	26.16
287.493	29.31
287.709	24.18
287.924	19.07
288.14	25.9
288.356	31.18
288.571	28.6
288.787	34
289.003	34.86
289.218	29.53
289.434	26.22
289.65	10.33
289.865	17.91
290.081	9.36
290.296	1.58
290.512	4.97
290.727	7.86
290.943	5.41
291.159	2.27
291.374	-0.08
291.59	-1.19
291.805	1.28
292.021	-20.89
292.236	-19.27
292.451	-13.57
292.667	-10.12
292.882	-23.34
293.098	-24.03
293.313	-29.53
293.529	-14.64
293.744	-16.04
293.959	-5.82
294.175	-6.37
294.39	1.05
294.605	6.59
294.821	13.94
295.036	15.92
295.251	21.88
295.467	7.5
295.682	20.11
295.897	15.99
296.112	23.24
296.328	23.08
296.543	9.16
296.758	6.88
296.973	5.57
297.188	-0.99
297.404	3.85
297.619	1.46
297.834	17.11
298.049	30.99
298.264	21.74
298.479	19.86
298.694	25.91
298.909	18.7
299.125	14.74
299.34	-4.1
299.555	-1.8
299.77	2.07
299.985	0.69
300.2	-2.32
300.415	4.62
300.63	6.34
300.845	13.23
301.06	8.41
301.275	12.71
301.49	21.71
301.704	15.58
301.919	3.08
302.134	-3.97
302.349	-12.47
302.564	-20.8
302.779	-23.89
302.994	-32.29
303.209	-33.02
303.423	-8.86
303.638	-4.15
303.853	9.43
304.068	19.77
304.283	20.45
304.497	23.82
304.712	27.66
304.927	22.07
305.142	29.48
305.356	25.17
305.571	28.48
305.786	22.77
306	27.26
306.215	21.62
306.43	28.02
306.644	17.71
306.859	22.74
307.074	17.86
307.288	23.78
307.503	17.59
307.717	16.28
307.932	15.97
308.147	16.66
308.361	7.32
308.576	7.77
308.79	-0.19
309.005	5.59
309.219	12.3
309.434	1.68
309.648	-15.97
309.863	-2.39
310.077	-3.61
310.292	2.95
310.506	0.9
310.72	-7.69
310.935	10.03
311.149	26.25
311.364	26.08
311.578	19.66
311.792	17.13
312.007	10.35
312.221	20.91
312.435	9.06
312.649	-6.83
312.864	-17.81
313.078	-6.52
313.292	3.63
313.507	14.17
313.721	-6.47
313.935	12.13
314.149	22.52
314.363	29.08
314.578	52.38
314.792	44.48
315.006	50.14
315.22	62.14
315.434	50.98
315.648	58.97
315.862	47.86
316.077	35.24
316.291	36.34
316.505	26.98
316.719	6.24
316.933	12.66
317.147	4.9
317.361	3.76
317.575	-6.08
317.789	-5.91
318.003	-5.09
318.217	4.99
318.431	4.24
318.645	14.25
318.859	4.58
319.073	4.78
319.287	13.18
319.5	17.57
319.714	19.03
319.928	23.92
320.142	20.69
320.356	37.95
320.57	34.86
320.784	29.12
320.997	32.4
321.211	25.41
321.425	16.79
321.639	17.08
321.853	7.46
322.066	8.41
322.28	15.1
322.494	1.94
322.707	9.26
322.921	10.48
323.135	5.28
323.349	13.71
323.562	13.53
323.776	9.06
323.989	12.82
324.203	12.23
324.417	13.23
324.63	8.48
324.844	-5.56
325.057	-5.52
325.271	-10.56
325.485	-1.82
325.698	-10.36
325.912	-3.75
326.125	3.95
326.339	13.9
326.552	27.51
326.766	30.27
326.979	24.48
327.193	32.5
327.406	30.01
327.619	25.85
327.833	19.86
328.046	7.5
328.26	5.88
328.473	12.03
328.686	11.49
328.9	7.47
329.113	7.13
329.326	15.6
329.54	11.68
329.753	15.83
329.966	13.18
330.179	18.16
330.393	22.35
330.606	28.23
330.819	25.22
331.032	26.63
331.246	25.47
331.459	17.39
331.672	11.35
331.885	2.53
332.098	-0.54
332.311	-11.76
332.525	-1.4
332.738	-6.45
332.951	5.31
333.164	5.44
333.377	5.68
333.59	21.83
333.803	25.52
334.016	16.87
334.229	20.08
334.442	29.25
334.655	27.08
334.868	29.12
335.081	25.3
335.294	27.84
335.507	40.48
335.72	34.44
335.933	26.06
336.146	30.64
336.359	30.96
336.572	22.43
336.785	27.64
336.997	14.64
337.21	23.26
337.423	18.17
337.636	10.99
337.849	10.62
338.062	14.56
338.274	2.92
338.487	12.09
338.7	13.94
338.913	14.66
339.125	13.99
339.338	19.52
339.551	18.66
339.763	17.39
339.976	15.96
340.189	4.47
340.402	7.83
340.614	11.26
340.827	1.29
341.039	0.68
341.252	1.32
341.465	-6.54
341.677	-5.01
341.89	-6.74
342.102	-1.32
342.315	12.23
342.527	7.36
342.74	6.14
342.952	15.21
343.165	24.45
343.377	27.3
343.59	21.28
343.802	17.65
344.015	17.63
344.227	13.1
344.44	7.62
344.652	7.33
344.864	4.52
345.077	-2.29
345.289	-6.16
345.502	4.09
345.714	-2.32
345.926	-2.61
346.139	-2.15
346.351	-16.1
346.563	-8.25
346.775	-15.48
346.988	-15.03
347.2	5.45
347.412	8.55
347.624	11.06
347.837	14.52
348.049	16.14
348.261	19.68
348.473	16.47
348.685	9.46
348.897	11.41
349.11	14.25
349.322	14.78
349.534	9.38
349.746	12.58
349.958	13.35
350.17	17.15
350.382	5.36
350.594	-0.92
350.806	10.11
351.018	18.83
351.23	19.39
351.442	13.53
351.654	13.79
351.866	27.43
352.078	23.43
352.29	22.83
352.502	21.94
352.714	23.83
352.926	30.35
353.138	31.21
353.35	19.18
353.561	21.86
353.773	19.56
353.985	20.42
354.197	11.56
354.409	14.76
354.621	16.42
354.832	14.55
355.044	18.07
355.256	12.01
355.468	5.2
355.679	13.04
355.891	8.98
356.103	9.15
356.314	9.82
356.526	-1.93
356.738	3.33
356.949	9.34
357.161	13.61
357.373	14.01
357.584	18.33
357.796	8.69
358.008	21.19
358.219	22
358.431	17
358.642	10.16
358.854	4.56
359.065	-2.27
359.277	2.62
359.488	-0.42
359.7	0.21
359.911	-4.27
360.123	-0.5
360.334	2.51
360.546	-10.65
360.757	0.06
360.969	7.69
361.18	4.53
361.391	8.03
361.603	5.22
361.814	14.94
362.025	29.17
362.237	25.09
362.448	13.96
362.659	8.03
362.871	10.79
363.082	15.43
363.293	14.38
363.504	14.78
363.716	11.88
363.927	13.98
364.138	18.51
364.349	19.81
364.56	18.57
364.772	13.41
364.983	6.76
365.194	7.9
365.405	6.11
365.616	-1.48
365.827	-2.67
366.038	4.99
366.25	8.75
366.461	14.53
366.672	24.87
366.883	33.15
367.094	34.18
367.305	39.25
367.516	35.86
367.727	30.14
367.938	33.09
368.149	29.05
368.36	27.46
368.571	32.67
368.781	23.34
368.992	19.65
369.203	19.02
369.414	11.77
369.625	13.5
369.836	12.53
370.047	11.97
370.258	11.58
370.468	10.27
370.679	6.33
370.89	12.96
371.101	7.56
371.312	7.61
371.522	5.53
371.733	0.68
371.944	0.76
372.155	-0.55
372.365	-6.8
372.576	-8.33
372.787	-11.43
372.997	-15.41
373.208	-6.19
373.419	-4.12
373.629	7.31
373.84	7.02
374.05	14.3
374.261	11.97
374.472	8.49
374.682	3.93
374.893	1.41
375.103	-0.69
375.314	-1.01
375.524	-0.62
375.735	0.74
375.945	7.12
376.156	10.93
376.366	15.27
376.577	15.99
376.787	17.89
376.997	14.72
377.208	15.13
377.418	18.38
377.629	18.61
377.839	20.29
378.049	18.63
378.26	18.99
378.47	19.42
378.68	19.6
378.89	9.49
379.101	-1.44
379.311	-9.38
379.521	-4.49
379.732	-15.28
379.942	-13.78
380.152	-7.2
380.362	8.11
380.572	18.45
380.783	23.82
380.993	23.54
381.203	29.7
381.413	30.22
381.623	26.41
381.833	15.34
382.043	5.51
382.253	2.52
382.463	1.9
382.674	-0.75
382.884	-7.53
383.094	-8.83
383.304	-0.34
383.514	10.74
383.724	10.62
383.934	7.1
384.144	11.9
384.353	17.57
384.563	13.6
384.773	7.96
384.983	4.97
385.193	7.31
385.403	13.45
385.613	10.91
385.823	11.29
386.033	12.82
386.242	11.35
386.452	9.44
386.662	7.69
386.872	1.38
387.082	1.13
387.291	-2.78
387.501	-1.51
387.711	1.03
387.921	-0.27
388.13	-0.47
388.34	1.13
388.55	2.71
388.759	3.21
388.969	1.92
389.179	3.78
389.388	6.44
389.598	4.02
389.807	2.45
390.017	1.96
390.227	2.28
390.436	3.08
390.646	3.01
390.855	2.24
391.065	3.1
391.274	3.81
391.484	4.31
391.693	4.59
391.903	4.41
392.112	2.29
392.322	4.93
392.531	6.58
392.74	5.25
392.95	5.51
393.159	5.91
393.369	5.72
393.578	5.79
393.787	4.72
393.997	4.47
394.206	5.91
394.415	5.58
394.625	4.83
394.834	4.02
395.043	4.76
395.252	5.07
395.462	4.25
395.671	4.34
395.88	4.14
396.089	4.27
396.298	4.73
396.508	4.15
396.717	3.44
396.926	3.42
397.135	2.78
397.344	3.01
397.553	3.09
397.762	3.01
397.971	3.48
398.181	2.85
398.39	3.22
398.599	3.48
398.808	3.57
399.017	3.65
399.226	3.75
399.435	3.76
399.644	4.14
399.853	3.96
400.062	4.18
400.27	4.12
400.479	3.98
400.688	4.06
400.897	3.98
401.106	4.12
401.315	4.02
401.524	3.92
401.733	4.11
401.941	4.09
402.15	3.91
402.359	3.88
402.568	3.69
402.777	3.58
402.985	3.6
403.194	3.41
403.403	3.27
403.612	3.39
403.82	3.45
404.029	3.52
404.238	3.72
404.446	3.62
404.655	3.58
404.864	3.69
405.072	3.53
405.281	3.37
405.489	3.46
405.698	3.33
405.906	3.3
406.115	3.3
406.324	3.24
406.532	3.4
406.741	3.53
406.949	3.48
407.158	3.6
407.366	3.65
407.574	3.72
407.783	3.64
407.991	3.54
408.2	3.46
408.408	3.39
408.617	3.35
408.825	3.39
409.033	3.31
409.242	3.44
409.45	3.41
409.658	3.44
409.867	3.51
410.075	3.47
410.283	3.39
410.491	3.37
410.7	3.34
410.908	3.37
411.116	3.32
411.324	3.32
411.533	3.2
411.741	3.17
411.949	3.23
412.157	3.22
412.365	3.23
412.573	3.24
412.781	3.2
412.99	3.35
413.198	3.39
413.406	3.33
413.614	3.31
413.822	3.29
414.03	3.22
414.238	3.29
414.446	3.14
414.654	3.14
414.862	3.17
415.07	3.24
415.278	3.13
415.486	3.23
415.694	3.1
415.902	3.15
416.109	3.13
416.317	3.02
416.525	2.96
416.733	3.15
416.941	3.03
417.149	3.11
417.357	3.14
417.564	3.13
417.772	3.16
417.98	3.16
418.188	3
418.395	3.05
418.603	2.92
418.811	2.82
419.019	2.85
419.226	2.93
419.434	2.8
419.642	2.79
419.849	2.83
420.057	2.86
420.265	2.94
420.472	2.88
420.68	2.82
420.887	2.94
421.095	3.01
421.302	2.92
421.51	3.03
421.717	3.02
421.925	2.93
422.132	2.94
422.34	2.92
422.547	2.83
422.755	2.84
422.962	2.75
423.17	2.74
423.377	2.92
423.585	2.88
423.792	2.81
423.999	2.8
424.207	2.67
424.414	2.71
424.621	2.82
424.829	2.66
425.036	2.65
425.243	2.69
425.451	2.73
425.658	2.89
425.865	2.79
426.072	2.73
426.28	2.78
426.487	2.74
426.694	2.72
426.901	2.67
427.108	2.68
427.315	2.69
427.523	2.62
427.73	2.66
427.937	2.72
428.144	2.77
428.351	2.91
428.558	2.87
428.765	2.89
428.972	2.94
429.179	2.86
429.386	2.83
429.593	2.83
429.8	2.79
430.007	2.91
430.214	2.97
430.421	2.92
430.628	2.84
430.835	2.84
431.042	2.92
431.249	2.91
431.456	2.85
431.662	2.85
431.869	2.95
432.076	3.03
432.283	2.98
432.49	2.91
432.697	2.88
432.903	2.9
433.11	2.94
433.317	2.96
433.524	2.97
433.73	3.04
433.937	3
434.144	3.14
434.35	3.07
434.557	2.98
434.764	2.9
434.97	2.93
435.177	3
435.384	3.09
435.59	2.99
435.797	3.01
436.003	3.04
436.21	3.07
436.416	3.04
436.623	3.01
436.829	2.98
437.036	3.05
437.242	3.06
437.449	3.1
437.655	3.1
437.862	3.1
438.068	3.15
438.275	3.15
438.481	3.17
438.687	3.25
438.894	3.22
439.1	3.24
439.307	3.3
439.513	3.29
439.719	3.35
439.926	3.37
440.132	3.32
440.338	3.4
440.544	3.4
440.751	3.39
440.957	3.35
441.163	3.33
441.369	3.3
441.575	3.29
441.782	3.26
441.988	3.26
442.194	3.31
442.4	3.32
442.606	3.34
442.812	3.38
443.018	3.43
443.224	3.43
443.431	3.49
443.637	3.4
443.843	3.48
444.049	3.45
444.255	3.39
444.461	3.41
444.667	3.44
444.873	3.47
445.079	3.53
445.284	3.49
445.49	3.46
445.696	3.52
445.902	3.56
446.108	3.53
446.314	3.52
446.52	3.56
446.726	3.58
446.931	3.66
447.137	3.68
447.343	3.65
447.549	3.63
447.755	3.56
447.96	3.56
448.166	3.61
448.372	3.57
448.578	3.54
448.783	3.57
448.989	3.62
449.195	3.69
449.4	3.68
449.606	3.62
449.812	3.65
450.017	3.67
450.223	3.63
450.428	3.62
450.634	3.63
450.84	3.63
451.045	3.66
451.251	3.68
451.456	3.71
451.662	3.72
451.867	3.73
452.073	3.72
452.278	3.72
452.483	3.71
452.689	3.72
452.894	3.69
453.1	3.64
453.305	3.7
453.51	3.77
453.716	3.8
453.921	3.81
454.127	3.79
454.332	3.84
454.537	3.91
454.742	3.83
454.948	3.77
455.153	3.78
455.358	3.84
455.563	3.86
455.769	3.84
455.974	3.81
456.179	3.77
456.384	3.78
456.589	3.82
456.795	3.76
457	3.77
457.205	3.77
457.41	3.8
457.615	3.88
457.82	3.96
458.025	3.88
458.23	3.91
458.435	3.87
458.64	3.89
458.845	3.9
459.05	3.91
459.255	3.86
459.46	3.93
459.665	3.97
459.87	4.01
460.075	4.01
460.28	4
460.485	4
460.69	3.96
460.895	3.94
461.099	3.91
461.304	3.98
461.509	3.91
461.714	3.94
461.919	3.94
462.123	4.03
462.328	4.04
462.533	4.09
462.738	4.04
462.942	4.18
463.147	4.18
463.352	4.19
463.556	4.2
463.761	4.25
463.966	4.29
464.17	4.31
464.375	4.26
464.58	4.31
464.784	4.31
464.989	4.29
465.193	4.26
465.398	4.23
465.602	4.22
465.807	4.3
466.011	4.31
466.216	4.35
466.42	4.4
466.625	4.47
466.829	4.51
467.034	4.57
467.238	4.53
467.443	4.53
467.647	4.57
467.851	4.58
468.056	4.49
468.26	4.47
468.464	4.48
468.669	4.54
468.873	4.5
469.077	4.5
469.282	4.49
469.486	4.56
469.69	4.57
469.894	4.61
470.099	4.6
