Data from Ofra_PS_T2_2A_6CX18_Reflection_3.txt Node
Date: Wed Jul 21 17:15:48 EDT 2021
User: Adam
Spectrometer: FLMT01687
Trigger mode: 0
Integration Time (sec): 1.100000E0
Scans to average: 2
Electric dark correction enabled: true
Nonlinearity correction enabled: false
Boxcar width: 2
XAxis mode: Wavelengths
Number of Pixels in Spectrum: 3648
>>>>>Begin Spectral Data<<<<<
179.494	661
179.716	677.41
179.937	637.55
180.158	612.06
180.38	883.28
180.601	213.95
180.823	95.2
181.044	-86.61
181.265	84.01
181.486	27.41
181.708	73.5
181.929	465.82
182.15	-439.79
182.372	152.96
182.593	2
182.814	37.13
183.035	70.39
183.257	55.7
183.478	-33.24
183.699	50.82
183.92	-17.02
184.141	-1.2
184.363	-50.8
184.584	35.26
184.805	51.41
185.026	87.45
185.247	95.24
185.468	78.35
185.689	53.2
185.91	48.16
186.132	58.71
186.353	33.9
186.574	94.98
186.795	89.98
187.016	44.83
187.237	-2.55
187.458	-20.39
187.679	-38.37
187.9	-32.01
188.121	-19.49
188.342	29.97
188.563	77.33
188.784	120.92
189.005	122.43
189.226	152.3
189.447	107.79
189.667	20.27
189.888	-204.06
190.109	-837.99
190.33	-408.55
190.551	-775.44
190.772	-160.59
190.993	-109.61
191.214	-83.24
191.434	-31.59
191.655	29.79
191.876	-22.42
192.097	-74.52
192.318	-125.46
192.538	-221.77
192.759	-182.54
192.98	-75.3
193.201	-26.68
193.421	-9.74
193.642	0.84
193.863	15.51
194.083	-0.02
194.304	-7.4
194.525	-5.92
194.745	-14.65
194.966	-22.87
195.187	-34.3
195.407	-31.23
195.628	-93.09
195.848	-86.71
196.069	-72.05
196.29	-16.12
196.51	-59.43
196.731	-51.43
196.951	-72.75
197.172	-90.62
197.392	-135.96
197.613	-121.32
197.833	-140.13
198.054	-120.02
198.274	-73.28
198.495	-74.96
198.715	-43.76
198.936	-56.55
199.156	-37.12
199.377	-128.22
199.597	-121.18
199.817	-120.17
200.038	-30.25
200.258	-70.36
200.479	11.23
200.699	38.65
200.919	28.19
201.14	2.74
201.36	-21.43
201.58	20.71
201.801	36.93
202.021	19.92
202.241	5.4
202.461	20.04
202.682	-60.03
202.902	-101.36
203.122	-49.92
203.342	-41.21
203.563	2.11
203.783	40.05
204.003	16.91
204.223	23.32
204.443	73.65
204.663	58.34
204.884	33.25
205.104	89.64
205.324	109.24
205.544	77.59
205.764	55.45
205.984	55.72
206.204	44.48
206.424	25.62
206.644	3.46
206.864	18.2
207.084	-21.85
207.304	-28.59
207.525	-105.08
207.745	-73.78
207.964	-34.52
208.184	-76.74
208.404	-87.86
208.624	-91.12
208.844	-41.15
209.064	-232.32
209.284	-213.8
209.504	-97.42
209.724	6.15
209.944	-24.98
210.164	16.07
210.384	30.91
210.604	27.59
210.823	-5.77
211.043	-22.83
211.263	-19.73
211.483	-25.37
211.703	-67.26
211.922	-42.92
212.142	15.81
212.362	20.18
212.582	17.72
212.801	20.67
213.021	-11.99
213.241	-26.18
213.461	-79.94
213.68	-113.81
213.9	-76.87
214.12	-29.61
214.339	-86.23
214.559	-51.87
214.779	12.21
214.998	6.71
215.218	-43.39
215.438	-7.55
215.657	-1.96
215.877	4.17
216.096	19.6
216.316	31.75
216.535	14.51
216.755	8.85
216.974	-91.91
217.194	-148.84
217.413	-134.57
217.633	-122.15
217.852	-195.25
218.072	-75.1
218.291	-28.9
218.511	15.52
218.73	-8.73
218.95	-13.69
219.169	-18.36
219.389	-55.45
219.608	-51.41
219.827	-50.05
220.047	-26.89
220.266	-16.92
220.485	-19.56
220.705	-20.38
220.924	-18.4
221.143	23.4
221.363	6.17
221.582	23.13
221.801	38.42
222.021	57.43
222.24	-28.11
222.459	4.6
222.678	-19.53
222.897	-84.53
223.117	-141.61
223.336	-100.67
223.555	-61.39
223.774	-26.04
223.993	-35
224.213	19.27
224.432	-2.45
224.651	32.88
224.87	12.14
225.089	29.04
225.308	16.63
225.527	48.15
225.746	47.98
225.965	46.71
226.184	42.17
226.404	51.96
226.623	24.47
226.842	25.34
227.061	29.96
227.28	34.17
227.499	22.01
227.718	19.61
227.936	2.06
228.155	7.23
228.374	-11.16
228.593	9.13
228.812	26.14
229.031	7.09
229.25	-27.8
229.469	1.87
229.688	5.99
229.907	11.63
230.125	41.95
230.344	46.53
230.563	45.56
230.782	43.23
231.001	-14.66
231.22	6.75
231.438	24.67
231.657	11.65
231.876	3.18
232.095	47.14
232.313	34.98
232.532	20.16
232.751	-4.05
232.969	-33.69
233.188	-116.24
233.407	-37.7
233.625	-14.96
233.844	-17.72
234.063	-0.26
234.281	24.07
234.5	2.4
234.719	13.23
234.937	32.65
235.156	45.99
235.374	34.16
235.593	27.05
235.811	17.1
236.03	-5.04
236.249	-30.06
236.467	-4.67
236.686	8.23
236.904	15.68
237.123	-4.76
237.341	-9.68
237.559	-6.42
237.778	-13.98
237.996	-45.72
238.215	2.08
238.433	18.67
238.652	24.01
238.87	-4.89
239.088	21.92
239.307	29.24
239.525	29.8
239.743	-18.25
239.962	9.03
240.18	-27.29
240.398	-78.07
240.617	-91.34
240.835	-61.31
241.053	-30.05
241.271	19.57
241.49	18.91
241.708	-8.42
241.926	-28.92
242.144	-17.81
242.363	-71.73
242.581	-99.11
242.799	-21.66
243.017	20.64
243.235	-14.03
243.453	9.69
243.672	15.46
243.89	7
244.108	-6.33
244.326	18.38
244.544	9.54
244.762	18.91
244.98	19.87
245.198	28.01
245.416	19.1
245.634	17.49
245.852	1.9
246.07	-8.07
246.288	-24.21
246.506	-61.34
246.724	-42.75
246.942	-22.67
247.16	15.67
247.378	35.56
247.596	61.07
247.814	81.76
248.032	53.26
248.25	41.68
248.468	24.91
248.685	25.68
248.903	27.53
249.121	33.93
249.339	13.68
249.557	4.77
249.775	8.41
249.992	-43.68
250.21	-39.77
250.428	-29.11
250.646	-46.66
250.863	-52.91
251.081	-16.25
251.299	3.64
251.517	3.63
251.734	6.62
251.952	-8.34
252.17	-14.69
252.387	0.69
252.605	1.36
252.823	14.26
253.04	31.14
253.258	50.01
253.475	34.45
253.693	55.08
253.911	50.64
254.128	59.21
254.346	69.39
254.563	47.9
254.781	9.78
254.998	-3.69
255.216	-4.21
255.433	-11.17
255.651	39.4
255.868	87.17
256.086	95.68
256.303	58.65
256.521	46.92
256.738	21.38
256.956	-8.13
257.173	-27.21
257.39	-32.15
257.608	-56.92
257.825	22.5
258.043	52.78
258.26	37.74
258.477	83.12
258.695	80.54
258.912	6.21
259.129	13.79
259.346	-6.77
259.564	-60.8
259.781	-76.18
259.998	-20.12
260.216	-11.5
260.433	23.15
260.65	35.19
260.867	58.97
261.084	28.03
261.302	-4.5
261.519	-5.32
261.736	-38.32
261.953	-54.35
262.17	-13.01
262.387	-22.71
262.604	-52.52
262.822	-52.45
263.039	-44.65
263.256	-85.34
263.473	-32.18
263.69	-14.46
263.907	28.24
264.124	30.38
264.341	30.96
264.558	13.24
264.775	23.4
264.992	-1.44
265.209	6.41
265.426	37.25
265.643	49.85
265.86	50.57
266.077	73.34
266.294	68.93
266.51	21.87
266.727	-5.34
266.944	-1.93
267.161	-37.44
267.378	-32.22
267.595	4.6
267.812	-14.76
268.028	-33.8
268.245	8.77
268.462	-10.91
268.679	-15.84
268.896	35.24
269.112	41.55
269.329	30.3
269.546	45.21
269.763	26.64
269.979	0.55
270.196	-4.11
270.413	-23.85
270.629	-59.98
270.846	-63.38
271.063	-44.31
271.279	-72.6
271.496	-58.18
271.712	-29.83
271.929	-15.96
272.146	-27.97
272.362	9.52
272.579	35.67
272.795	52.16
273.012	49.15
273.228	37.34
273.445	4.22
273.661	-46
273.878	-86.57
274.094	-74.08
274.311	-71.62
274.527	12.52
274.744	8.16
274.96	9.13
275.177	17.82
275.393	34.46
275.609	12.84
275.826	45.88
276.042	45.9
276.259	20.19
276.475	21.72
276.691	18.63
276.908	-10.49
277.124	2.27
277.34	13.98
277.557	0.75
277.773	4.41
277.989	8.76
278.205	2.45
278.422	13.28
278.638	12.78
278.854	25
279.07	38.22
279.286	32.5
279.503	13.66
279.719	1.35
279.935	-29.09
280.151	-57.77
280.367	-24.09
280.583	-46.96
280.799	-14.68
281.016	-33.45
281.232	-9.67
281.448	-22.27
281.664	8.93
281.88	-32.41
282.096	-10.04
282.312	28.22
282.528	50.51
282.744	51.57
282.96	47.21
283.176	28.31
283.392	14.48
283.608	12.35
283.824	1.79
284.04	7.38
284.256	21.66
284.471	5.3
284.687	-5.57
284.903	35.42
285.119	60.76
285.335	35.16
285.551	62.64
285.767	54.25
285.982	15.78
286.198	-28.27
286.414	30.31
286.63	25.96
286.846	43.84
287.061	26.58
287.277	59.47
287.493	34.78
287.709	40.13
287.924	19.36
288.14	53.7
288.356	41.99
288.571	50.74
288.787	31.09
289.003	27.31
289.218	6.35
289.434	-40.5
289.65	-30.78
289.865	-29.16
290.081	-0.25
290.296	9
290.512	44.64
290.727	15.59
290.943	5
291.159	-6.25
291.374	-5.63
291.59	-22.74
291.805	-6.04
292.021	18.92
292.236	17.69
292.451	26.59
292.667	30.03
292.882	30.42
293.098	10.87
293.313	-6.52
293.529	-25.21
293.744	-42.31
293.959	-34.57
294.175	-19.06
294.39	12.27
294.605	30.61
294.821	57.45
295.036	55.58
295.251	55
295.467	38.91
295.682	32.1
295.897	-25.43
296.112	-35.29
296.328	-28.1
296.543	-42.43
296.758	-32.83
296.973	20.5
297.188	45.63
297.404	21.66
297.619	5.09
297.834	-20.06
298.049	-44.72
298.264	-70.89
298.479	1.19
298.694	10.92
298.909	45.19
299.125	52.38
299.34	66.95
299.555	27.85
299.77	56.11
299.985	-11.96
300.2	-49.26
300.415	-70.85
300.63	-34.06
300.845	-46.1
301.06	-40.12
301.275	-21.03
301.49	-4.39
301.704	-13.96
301.919	-32.28
302.134	-32.84
302.349	-34.96
302.564	-96.79
302.779	-99.05
302.994	-79.51
303.209	-45.47
303.423	15.51
303.638	71.55
303.853	26.59
304.068	20
304.283	34.05
304.497	18.63
304.712	3.04
304.927	14.26
305.142	11.41
305.356	14.39
305.571	9.38
305.786	2.81
306	-12.23
306.215	-8.67
306.43	-45.02
306.644	-36.45
306.859	9.8
307.074	29.39
307.288	2.85
307.503	10.7
307.717	-9.13
307.932	-15.98
308.147	-38.74
308.361	-8.87
308.576	-5.46
308.79	-35.25
309.005	-37.21
309.219	-18.92
309.434	-46.05
309.648	-56.3
309.863	-29.12
310.077	-18.86
310.292	-7.95
310.506	14.5
310.72	34.9
310.935	49.61
311.149	46.15
311.364	47.08
311.578	51.87
311.792	33.29
312.007	39.58
312.221	15.66
312.435	30.89
312.649	8.28
312.864	22.44
313.078	22.8
313.292	89.89
313.507	38.6
313.721	51.66
313.935	49.46
314.149	30.08
314.363	15.04
314.578	24.61
314.792	38.76
315.006	14.67
315.22	39.93
315.434	48.45
315.648	51.69
315.862	42.18
316.077	61.28
316.291	30.21
316.505	41.18
316.719	38.98
316.933	11.9
317.147	-0.57
317.361	-27.01
317.575	-45.24
317.789	-74.04
318.003	-87.93
318.217	-71.96
318.431	2.5
318.645	22.48
318.859	27.98
319.073	47.86
319.287	27.35
319.5	-9.7
319.714	-56.15
319.928	-96.68
320.142	-125.61
320.356	-49.4
320.57	-10.94
320.784	-12.15
320.997	-16.03
321.211	-21.63
321.425	-97.41
321.639	-120.6
321.853	-45.98
322.066	-18.03
322.28	-16.09
322.494	18.8
322.707	45.42
322.921	30.72
323.135	24.84
323.349	37.51
323.562	7.32
323.776	-19.83
323.989	-25.77
324.203	-48.96
324.417	-55.84
324.63	-59.77
324.844	-42.44
325.057	-38.75
325.271	-12.82
325.485	12.74
325.698	35.3
325.912	45.17
326.125	25
326.339	21.78
326.552	-5.38
326.766	-11.55
326.979	-11.05
327.193	39.52
327.406	37.72
327.619	31.15
327.833	46.45
328.046	28.24
328.26	-17.92
328.473	1.42
328.686	-18.13
328.9	-30.85
329.113	-5.22
329.326	-13.93
329.54	-27.27
329.753	-37.52
329.966	-58.05
330.179	-60.13
330.393	-30.25
330.606	-10.57
330.819	14.98
331.032	30.75
331.246	32.87
331.459	53.22
331.672	44.87
331.885	36.38
332.098	12.91
332.311	10.07
332.525	-33
332.738	-18.02
332.951	3.03
333.164	41.59
333.377	44.3
333.59	51.55
333.803	42.61
334.016	43.23
334.229	16.88
334.442	27.19
334.655	54.29
334.868	71.08
335.081	54.96
335.294	48.11
335.507	39.27
335.72	27.37
335.933	5.28
336.146	-5.34
336.359	15.39
336.572	-11.61
336.785	-61.78
336.997	-37.59
337.21	-6.51
337.423	-19.89
337.636	-14.96
337.849	20.2
338.062	1.12
338.274	6.82
338.487	-10.15
338.7	-23.17
338.913	-64.27
339.125	-82.62
339.338	-145.67
339.551	-100.68
339.763	-43.32
339.976	-13.46
340.189	11.77
340.402	18.59
340.614	1.37
340.827	-11.36
341.039	-36.57
341.252	-27
341.465	-6.76
341.677	-3.98
341.89	-38.62
342.102	-2.62
342.315	-33.87
342.527	-67.53
342.74	-68.64
342.952	-9.46
343.165	-17.76
343.377	20.62
343.59	23.51
343.802	44.32
344.015	22.11
344.227	46.05
344.44	27.95
344.652	25.15
344.864	12.09
345.077	41.07
345.289	36.62
345.502	36.25
345.714	30.18
345.926	42.78
346.139	32.55
346.351	43.85
346.563	56.48
346.775	56.17
346.988	36.52
347.2	20.22
347.412	-18.5
347.624	-46.47
347.837	-42.17
348.049	4.5
348.261	41.4
348.473	42.84
348.685	49.34
348.897	36.83
349.11	3.58
349.322	-13.85
349.534	-12.87
349.746	-19.51
349.958	-7.58
350.17	-4.36
350.382	21.97
350.594	19.58
350.806	33.4
351.018	33.34
351.23	28.63
351.442	-40.34
351.654	-32.58
351.866	-30.86
352.078	-28.38
352.29	-5
352.502	31.04
352.714	35.6
352.926	22.99
353.138	29.19
353.35	14.23
353.561	8.05
353.773	-16.31
353.985	1.41
354.197	-11.85
354.409	-4.21
354.621	-12.99
354.832	4.3
355.044	-9
355.256	-3.46
355.468	14.6
355.679	10.87
355.891	14.32
356.103	-2.22
356.314	-5.46
356.526	-18.5
356.738	-1.64
356.949	-13.83
357.161	25.04
357.373	19.16
357.584	6.88
357.796	8.28
358.008	9.16
358.219	25.14
358.431	24.26
358.642	32.97
358.854	29.86
359.065	21.99
359.277	-9.22
359.488	-13.76
359.7	-31.72
359.911	-49.58
360.123	-20.86
360.334	-36.63
360.546	-47.42
360.757	-52.49
360.969	-27.88
361.18	-27
361.391	-11.78
361.603	-10.43
361.814	7.88
362.025	3.42
362.237	0.67
362.448	24.44
362.659	33.34
362.871	30.18
363.082	25.07
363.293	16.1
363.504	-9.87
363.716	-28.58
363.927	-51.29
364.138	-63.57
364.349	-60.53
364.56	-50.67
364.772	-38.64
364.983	-13.08
365.194	-15.18
365.405	-6.63
365.616	24.35
365.827	19.94
366.038	5.94
366.25	14.63
366.461	-12.68
366.672	-27.5
366.883	-6
367.094	5.43
367.305	-9.93
367.516	-3.02
367.727	-22.32
367.938	-35.53
368.149	-39.21
368.36	-8.12
368.571	-1.7
368.781	-8.38
368.992	-18.18
369.203	-26.77
369.414	-51.88
369.625	-55.42
369.836	-57.14
370.047	-78.38
370.258	-56
370.468	-41.1
370.679	-53.44
370.89	-37.13
371.101	-15.71
371.312	-29.02
371.522	-36.42
371.733	-21.67
371.944	-12.73
372.155	-9.35
372.365	-11.01
372.576	-10
372.787	-10.81
372.997	-38.05
373.208	-22.49
373.419	6.47
373.629	-25.93
373.84	-30
374.05	-31.9
374.261	-45.14
374.472	-57.24
374.682	12.76
374.893	7.67
375.103	42.7
375.314	38.62
375.524	33.38
375.735	22.77
375.945	42.17
376.156	8.33
376.366	15.92
376.577	10.27
376.787	-1.4
376.997	-10.2
377.208	0.57
377.418	-14.1
377.629	7.68
377.839	-3.39
378.049	4.72
378.26	17.91
378.47	23.77
378.68	9.15
378.89	10.94
379.101	6.51
379.311	-25.32
379.521	-48.46
379.732	-50.83
379.942	-41.24
380.152	-66.46
380.362	-29.82
380.572	-24.24
380.783	-0.88
380.993	4.2
381.203	19.01
381.413	25.03
381.623	35.13
381.833	27.13
382.043	20.67
382.253	16.89
382.463	16.43
382.674	15.06
382.884	-3.24
383.094	-2.67
383.304	-2.12
383.514	-3.55
383.724	9.85
383.934	6.96
384.144	-3.52
384.353	-9.2
384.563	-16.75
384.773	-21.57
384.983	-29.01
385.193	-3.69
385.403	2.07
385.613	8.72
385.823	-1.58
386.033	9.71
386.242	-1.84
386.452	-5.76
386.662	-9.46
386.872	2.45
387.082	-5.51
387.291	-9.96
387.501	-10.15
387.711	-4.17
387.921	-11.14
388.13	-5.86
388.34	7.73
388.55	2.29
388.759	-3.03
388.969	6.27
389.179	3.91
389.388	-1.17
389.598	8.61
389.807	3.8
390.017	-3.27
390.227	-2.98
390.436	-3.49
390.646	-5.34
390.855	-0.04
391.065	0.32
391.274	-0.91
391.484	-5.28
391.693	-2.83
391.903	-1.96
392.112	5.49
392.322	12.71
392.531	17.44
392.74	16.9
392.95	12.61
393.159	9.23
393.369	6.59
393.578	5.63
393.787	3.8
393.997	6.32
394.206	4.39
394.415	4.15
394.625	5.11
394.834	4.13
395.043	5.99
395.252	8.41
395.462	10.91
395.671	11.03
395.88	12.42
396.089	12.72
396.298	10.98
396.508	9.07
396.717	8.23
396.926	8.43
397.135	7.33
397.344	6.66
397.553	7.04
397.762	8.82
397.971	8.98
398.181	9.14
398.39	9.25
398.599	8.88
398.808	7.85
399.017	8.63
399.226	9.65
399.435	11.37
399.644	12.13
399.853	11.89
400.062	10.83
400.27	10.33
400.479	9.52
400.688	8.62
400.897	8.52
401.106	8.64
401.315	8.51
401.524	8.86
401.733	9.36
401.941	10.08
402.15	10.31
402.359	9.91
402.568	9.7
402.777	9.81
402.985	9.5
403.194	9.41
403.403	9.89
403.612	9.71
403.82	9.36
404.029	9.58
404.238	9.46
404.446	9.47
404.655	9.14
404.864	9.25
405.072	8.84
405.281	9.07
405.489	8.8
405.698	8.96
405.906	8.95
406.115	9.01
406.324	8.82
406.532	8.92
406.741	9.17
406.949	9.07
407.158	9.04
407.366	9.1
407.574	9.09
407.783	8.95
407.991	8.85
408.2	9.07
408.408	8.98
408.617	8.84
408.825	8.73
409.033	8.79
409.242	8.84
409.45	9.07
409.658	9
409.867	9.22
410.075	9.15
410.283	8.93
410.491	8.65
410.7	8.57
410.908	8.47
411.116	8.74
411.324	8.63
411.533	8.54
411.741	8.85
411.949	8.74
412.157	8.29
412.365	8.4
412.573	8.43
412.781	8.28
412.99	8.28
413.198	8.56
413.406	8.49
413.614	8.65
413.822	8.52
414.03	8.43
414.238	8.17
414.446	8.27
414.654	8
414.862	8.2
415.07	8.24
415.278	8.41
415.486	8.14
415.694	8.29
415.902	7.93
416.109	7.72
416.317	7.64
416.525	7.6
416.733	7.49
416.941	7.66
417.149	7.68
417.357	7.73
417.564	7.88
417.772	8.05
417.98	7.99
418.188	8.01
418.395	7.98
418.603	8
418.811	7.62
419.019	7.56
419.226	7.7
419.434	7.86
419.642	7.75
419.849	7.8
420.057	7.82
420.265	7.77
420.472	7.51
420.68	7.5
420.887	7.54
421.095	7.8
421.302	7.73
421.51	7.95
421.717	7.98
421.925	8.07
422.132	7.8
422.34	7.58
422.547	7.54
422.755	7.33
422.962	7.29
423.17	7.18
423.377	7.35
423.585	7.27
423.792	7.4
423.999	7.34
424.207	7.3
424.414	7.4
424.621	7.23
424.829	7.28
425.036	7.43
425.243	7.59
425.451	7.55
425.658	7.52
425.865	7.72
426.072	7.65
426.28	7.99
426.487	7.75
426.694	7.89
426.901	7.66
427.108	7.63
427.315	7.33
427.523	7.73
427.73	7.59
427.937	7.41
428.144	7.18
428.351	7.14
428.558	7.28
428.765	7.3
428.972	7.39
429.179	7.64
429.386	7.88
429.593	7.42
429.8	7.41
430.007	7.62
430.214	7.66
430.421	7.44
430.628	7.38
430.835	7.33
431.042	7.44
431.249	7.61
431.456	7.62
431.662	7.93
431.869	8.2
432.076	8.18
432.283	8.15
432.49	8.3
432.697	8.35
432.903	8.14
433.11	7.97
433.317	8.06
433.524	8.33
433.73	8.21
433.937	8.5
434.144	8.55
434.35	8.43
434.557	8.12
434.764	8.3
434.97	8.14
435.177	8.37
435.384	8.29
435.59	8.5
435.797	8.65
436.003	8.8
436.21	8.65
436.416	8.88
436.623	8.75
436.829	8.63
437.036	8.71
437.242	8.79
437.449	8.71
437.655	8.79
437.862	8.91
438.068	8.81
438.275	8.88
438.481	9.05
438.687	9.03
438.894	8.98
439.1	8.99
439.307	9.1
439.513	9.02
439.719	9.1
439.926	9.21
440.132	9.2
440.338	9.03
440.544	9.15
440.751	9.13
440.957	9.23
441.163	9.27
441.369	9.45
441.575	9.26
441.782	9.27
441.988	9.08
442.194	9.02
442.4	8.92
442.606	9.28
442.812	9.27
443.018	9.5
443.224	9.67
443.431	9.77
443.637	9.43
443.843	9.37
444.049	9.24
444.255	9.11
444.461	9.2
444.667	9.29
444.873	9.48
445.079	9.49
445.284	9.61
445.49	9.37
445.696	9.17
445.902	8.99
446.108	8.93
446.314	8.86
446.52	8.99
446.726	9.36
446.931	9.43
447.137	9.56
447.343	9.68
447.549	9.63
447.755	9.49
447.96	9.59
448.166	9.46
448.372	9.41
448.578	9.51
448.783	9.53
448.989	9.62
449.195	9.86
449.4	9.76
449.606	9.73
449.812	9.64
450.017	9.71
450.223	9.51
450.428	9.53
450.634	9.57
450.84	9.79
451.045	9.67
451.251	9.6
451.456	9.85
451.662	9.95
451.867	9.98
452.073	9.96
452.278	10.15
452.483	10.25
452.689	10.15
452.894	10.19
453.1	10.27
453.305	10.19
453.51	10.11
453.716	10.04
453.921	10.03
454.127	9.92
454.332	9.95
454.537	9.87
454.742	9.95
454.948	9.88
455.153	9.95
455.358	10.08
455.563	10.26
455.769	10.4
455.974	10.38
456.179	10.33
456.384	10.27
456.589	10.19
456.795	9.95
457	9.94
457.205	10.24
457.41	10.26
457.615	10.27
457.82	10.4
458.025	10.5
458.23	10.37
458.435	10.37
458.64	10.27
458.845	10.46
459.05	10.42
459.255	10.48
459.46	10.57
459.665	10.62
459.87	10.59
460.075	10.58
460.28	10.41
460.485	10.48
460.69	10.55
460.895	10.48
461.099	10.48
461.304	10.72
461.509	10.8
461.714	10.72
461.919	10.81
462.123	10.78
462.328	10.77
462.533	10.55
462.738	10.76
462.942	10.58
463.147	10.74
