Data from Ofra_2a_PS_9CX6_Reflection_3.txt Node
Date: Tue Jul 20 09:59:29 EDT 2021
User: Adam
Spectrometer: FLMT01687
Trigger mode: 0
Integration Time (sec): 9.450000E-1
Scans to average: 3
Electric dark correction enabled: true
Nonlinearity correction enabled: false
Boxcar width: 3
XAxis mode: Wavelengths
Number of Pixels in Spectrum: 3648
>>>>>Begin Spectral Data<<<<<
179.494	1115.38
179.716	679.93
179.937	803.3
180.158	3057.81
180.38	-1609.3
180.601	-380.67
180.823	-197.53
181.044	-190.44
181.265	-270.33
181.486	76.17
181.708	647.83
181.929	23.26
182.15	352.27
182.372	-58.12
182.593	-115.75
182.814	594.01
183.035	159.5
183.257	66.14
183.478	62.05
183.699	59.62
183.92	50.84
184.141	51.84
184.363	34.01
184.584	33.05
184.805	54.2
185.026	73.52
185.247	54.28
185.468	48.9
185.689	58.92
185.91	54.13
186.132	70.19
186.353	42.38
186.574	32.14
186.795	29.85
187.016	41.64
187.237	40.87
187.458	41.59
187.679	15.47
187.9	31.31
188.121	53.82
188.342	53.78
188.563	67.85
188.784	51.91
189.005	58.44
189.226	63.63
189.447	59.35
189.667	50.72
189.888	47.59
190.109	20.09
190.33	17.45
190.551	8.41
190.772	-4.81
190.993	7.37
191.214	3.62
191.434	-4.75
191.655	11.15
191.876	23.23
192.097	21.42
192.318	29.08
192.538	28.93
192.759	28.93
192.98	29.39
193.201	29.78
193.421	25.97
193.642	35.06
193.863	42.81
194.083	35.64
194.304	30.68
194.525	57.18
194.745	48.09
194.966	51.11
195.187	58.14
195.407	36.43
195.628	34.55
195.848	45.44
196.069	33.18
196.29	29.82
196.51	20.9
196.731	26.66
196.951	43.04
197.172	40.94
197.392	21.95
197.613	9.98
197.833	16.52
198.054	25.86
198.274	4.95
198.495	-5.28
198.715	-18.04
198.936	-16.57
199.156	8.39
199.377	12.39
199.597	-7.49
199.817	5.25
200.038	24.08
200.258	37.3
200.479	47.48
200.699	40.29
200.919	25.95
201.14	24.71
201.36	22.26
201.58	23.89
201.801	9.37
202.021	0.58
202.241	13.09
202.461	24.7
202.682	32.88
202.902	33.16
203.122	28.33
203.342	49.31
203.563	56.82
203.783	46.38
204.003	41.63
204.223	41.19
204.443	38.3
204.663	34.46
204.884	15.17
205.104	14.91
205.324	25.59
205.544	38.17
205.764	37.64
205.984	43.87
206.204	55.52
206.424	54.46
206.644	51.12
206.864	33.76
207.084	39.93
207.304	33.73
207.525	17.79
207.745	11.44
207.964	27.08
208.184	23.88
208.404	33.19
208.624	10.63
208.844	5.84
209.064	32.57
209.284	47.27
209.504	45.48
209.724	21.83
209.944	23.69
210.164	24.33
210.384	37.06
210.604	1.84
210.823	-12.94
211.043	-25.09
211.263	1.06
211.483	0.37
211.703	13.4
211.922	18.86
212.142	25.72
212.362	29.35
212.582	29.16
212.801	27.03
213.021	36.21
213.241	25.48
213.461	21.77
213.68	35.78
213.9	41.59
214.12	43.95
214.339	40.46
214.559	44.25
214.779	46.2
214.998	41.62
215.218	50.58
215.438	45.84
215.657	39.51
215.877	42.78
216.096	34.73
216.316	37.5
216.535	50.79
216.755	23.33
216.974	22.07
217.194	21.74
217.413	33.77
217.633	32.47
217.852	20.22
218.072	5.17
218.291	35.34
218.511	25.11
218.73	24
218.95	16.43
219.169	21.53
219.389	22.88
219.608	27.76
219.827	12.4
220.047	31.45
220.266	42.46
220.485	43.08
220.705	33.62
220.924	44.34
221.143	31.5
221.363	37.3
221.582	29.69
221.801	37.15
222.021	39.8
222.24	38.29
222.459	31.9
222.678	28.43
222.897	17.76
223.117	17.64
223.336	6.13
223.555	-5.88
223.774	10.2
223.993	14.02
224.213	13.17
224.432	20.74
224.651	21.55
224.87	24.51
225.089	26.61
225.308	28.65
225.527	25.34
225.746	34.26
225.965	26.58
226.184	26.85
226.404	23.32
226.623	50.76
226.842	40.39
227.061	46.03
227.28	56.04
227.499	53.04
227.718	55.05
227.936	43.12
228.155	23.63
228.374	23.28
228.593	22.35
228.812	22.96
229.031	18.63
229.25	18.04
229.469	38.18
229.688	44.86
229.907	35.23
230.125	32.98
230.344	34.58
230.563	35.93
230.782	23.28
231.001	18.02
231.22	15.61
231.438	27.38
231.657	31.32
231.876	27.08
232.095	28.87
232.313	41.43
232.532	42.19
232.751	39.81
232.969	44.64
233.188	45.67
233.407	46.73
233.625	40.21
233.844	37.5
234.063	30.31
234.281	29.99
234.5	28.92
234.719	25.54
234.937	30.85
235.156	33.67
235.374	29.52
235.593	26.78
235.811	23.95
236.03	15.53
236.249	14.66
236.467	3.87
236.686	2.46
236.904	7.13
237.123	15.28
237.341	24.61
237.559	25.2
237.778	26.17
237.996	35.7
238.215	36.31
238.433	40.7
238.652	37.02
238.87	34.69
239.088	29.51
239.307	29.84
239.525	15.23
239.743	6.73
239.962	1.81
240.18	10.25
240.398	15.74
240.617	20.92
240.835	17.41
241.053	33.69
241.271	47.28
241.49	35.66
241.708	33.37
241.926	14.07
242.144	15.11
242.363	17.72
242.581	18.91
242.799	-3.42
243.017	13.78
243.235	6.26
243.453	26.28
243.672	20.46
243.89	28.94
244.108	35.77
244.326	38.97
244.544	45.45
244.762	45.13
244.98	41.32
245.198	32.29
245.416	23.22
245.634	22.19
245.852	29.75
246.07	14.85
246.288	5.34
246.506	14.73
246.724	35.87
246.942	35.87
247.16	25.22
247.378	23.93
247.596	32.82
247.814	15.04
248.032	-1.3
248.25	-13.62
248.468	-9.28
248.685	-7.88
248.903	-4.78
249.121	-12.58
249.339	12.48
249.557	14.48
249.775	10.57
249.992	3.3
250.21	3.71
250.428	4.76
250.646	10.5
250.863	4.2
251.081	4.05
251.299	19.13
251.517	42.51
251.734	39.95
251.952	47.96
252.17	44.33
252.387	42.58
252.605	45.63
252.823	29.9
253.04	18.82
253.258	14.2
253.475	3.8
253.693	14.84
253.911	15.34
254.128	11.78
254.346	20.09
254.563	16.62
254.781	20.08
254.998	24.06
255.216	23.82
255.433	29.48
255.651	34.82
255.868	42.42
256.086	39.36
256.303	37.18
256.521	28.97
256.738	25.41
256.956	18.4
257.173	18.87
257.39	18.02
257.608	18.23
257.825	13.85
258.043	26.95
258.26	22.47
258.477	27.51
258.695	33.06
258.912	41.03
259.129	42.15
259.346	53.78
259.564	39.63
259.781	47.35
259.998	43.99
260.216	44.92
260.433	33.96
260.65	45.01
260.867	17.69
261.084	26.35
261.302	28.59
261.519	21.5
261.736	8.71
261.953	0.86
262.17	3.92
262.387	22.98
262.604	10.09
262.822	2.14
263.039	9.2
263.256	3.71
263.473	7.62
263.69	0.65
263.907	-7.96
264.124	-0.92
264.341	-4.18
264.558	4.86
264.775	24.46
264.992	23.19
265.209	28.33
265.426	30.73
265.643	36.68
265.86	31.96
266.077	25.96
266.294	19.94
266.51	17.06
266.727	0.06
266.944	-15.1
267.161	-25.21
267.378	-10.31
267.595	-15.21
267.812	-24.6
268.028	-2.85
268.245	10.58
268.462	25.09
268.679	21.87
268.896	14.93
269.112	29.77
269.329	39.46
269.546	25.57
269.763	35.12
269.979	29.87
270.196	35.98
270.413	39.93
270.629	32.58
270.846	34.2
271.063	38.68
271.279	28.93
271.496	20.76
271.712	15.02
271.929	16.9
272.146	23.99
272.362	-11.29
272.579	-5.89
272.795	2.71
273.012	17.96
273.228	21.42
273.445	15.84
273.661	11.28
273.878	31.7
274.094	31.28
274.311	28.09
274.527	21.22
274.744	22.96
274.96	26.96
275.177	34.05
275.393	39.86
275.609	46.84
275.826	50.32
276.042	61.24
276.259	54.32
276.475	49.22
276.691	47.22
276.908	46.65
277.124	46.83
277.34	37.19
277.557	33.75
277.773	35.56
277.989	40.11
278.205	32.92
278.422	29.03
278.638	34.06
278.854	39.11
279.07	33.23
279.286	41.95
279.503	44.06
279.719	52.86
279.935	46.2
280.151	38.57
280.367	40.32
280.583	43.13
280.799	37.83
281.016	34.04
281.232	29.46
281.448	32.81
281.664	23.02
281.88	21.66
282.096	25.45
282.312	21
282.528	19.34
282.744	14.66
282.96	15.26
283.176	18.87
283.392	18.58
283.608	27.79
283.824	18.16
284.04	22.3
284.256	23.46
284.471	27.77
284.687	33.56
284.903	31.29
285.119	5.94
285.335	16.31
285.551	15.3
285.767	12.57
285.982	10.28
286.198	1.93
286.414	22.94
286.63	38.25
286.846	36.11
287.061	42.4
287.277	45.87
287.493	44.88
287.709	44.61
287.924	44.97
288.14	44.77
288.356	57.87
288.571	58.99
288.787	57.91
289.003	63.61
289.218	63.67
289.434	57.89
289.65	58.81
289.865	51.88
290.081	48.81
290.296	45.19
290.512	43.03
290.727	44.28
290.943	34.18
291.159	28.61
291.374	23.23
291.59	14.41
291.805	10.85
292.021	-9.05
292.236	-4.31
292.451	3.61
292.667	3.59
292.882	1.46
293.098	-3.39
293.313	-10.75
293.529	6.78
293.744	13.98
293.959	11.37
294.175	9.32
294.39	19.45
294.605	33.63
294.821	39.35
295.036	33.19
295.251	33.31
295.467	27.07
295.682	28.25
295.897	20.44
296.112	12.64
296.328	14.61
296.543	14.08
296.758	9.16
296.973	17.87
297.188	16.76
297.404	21.09
297.619	26.94
297.834	35.37
298.049	32.77
298.264	29.2
298.479	21.9
298.694	31.49
298.909	22.5
299.125	26.08
299.34	18.95
299.555	20.96
299.77	14.14
299.985	14.87
300.2	7.15
300.415	10.76
300.63	1.35
300.845	1.31
301.06	4.92
301.275	18.82
301.49	15.38
301.704	16.79
301.919	14.06
302.134	8.95
302.349	2.71
302.564	-9.65
302.779	-15.69
302.994	-0.22
303.209	-0.99
303.423	16.51
303.638	35.68
303.853	53.09
304.068	56.42
304.283	53.32
304.497	47.59
304.712	49.28
304.927	38.82
305.142	35.75
305.356	32.62
305.571	34.1
305.786	32.91
306	33.44
306.215	28.33
306.43	41.88
306.644	37.13
306.859	36.14
307.074	32.24
307.288	34.01
307.503	18.84
307.717	18.55
307.932	9.47
308.147	9.16
308.361	7.29
308.576	11.34
308.79	8.87
309.005	20.39
309.219	19.47
309.434	21.13
309.648	15.34
309.863	20.16
310.077	22.2
310.292	25.99
310.506	37.46
310.72	47.73
310.935	47.93
311.149	53.42
311.364	54.32
311.578	48.29
311.792	44.8
312.007	32.02
312.221	21.56
312.435	20.35
312.649	23.53
312.864	11.72
313.078	20.08
313.292	24.02
313.507	30.26
313.721	41.11
313.935	60.79
314.149	37.62
314.363	44.45
314.578	57.98
314.792	62.76
315.006	65.43
315.22	63.85
315.434	47.16
315.648	61.08
315.862	60.51
316.077	50.13
316.291	49.34
316.505	48.82
316.719	34.6
316.933	44.61
317.147	34.36
317.361	35.28
317.575	33.53
317.789	25.9
318.003	35.66
318.217	44.76
318.431	48.69
318.645	51.37
318.859	39.69
319.073	35.32
319.287	32.81
319.5	28.92
319.714	29.99
319.928	24.52
320.142	25.39
320.356	35.16
320.57	36.67
320.784	40.01
320.997	41.45
321.211	41.86
321.425	30.64
321.639	30.49
321.853	23.2
322.066	19.62
322.28	17.83
322.494	7
322.707	-1.1
322.921	9.1
323.135	10.24
323.349	14.08
323.562	17.2
323.776	16.55
323.989	18.08
324.203	28.51
324.417	12.76
324.63	6
324.844	0.47
325.057	10.47
325.271	6.67
325.485	9.04
325.698	4.41
325.912	23.92
326.125	29.12
326.339	38.22
326.552	33.09
326.766	40.67
326.979	43.31
327.193	37.18
327.406	38.08
327.619	28.02
327.833	22.49
328.046	12.85
328.26	3.19
328.473	9.76
328.686	15.83
328.9	0.15
329.113	0.78
329.326	9.24
329.54	7.06
329.753	8.79
329.966	7.65
330.179	9.31
330.393	17.57
330.606	25.97
330.819	15.9
331.032	26.14
331.246	31.5
331.459	26.83
331.672	32.02
331.885	33.25
332.098	35.46
332.311	41.98
332.525	33.55
332.738	36.42
332.951	45.79
333.164	45.11
333.377	41.05
333.59	42.13
333.803	40.12
334.016	35.38
334.229	34.45
334.442	22.36
334.655	19.06
334.868	40.78
335.081	43.34
335.294	46.79
335.507	56.69
335.72	44.36
335.933	53.7
336.146	57
336.359	42.01
336.572	30.83
336.785	35.08
336.997	29.48
337.21	32.42
337.423	25.48
337.636	25.44
337.849	27.41
338.062	28.93
338.274	21.87
338.487	20.74
338.7	26.67
338.913	21.25
339.125	11.94
339.338	16.8
339.551	21.43
339.763	17.37
339.976	17.32
340.189	14.26
340.402	21.13
340.614	26.39
340.827	14.96
341.039	17.17
341.252	22.02
341.465	20.38
341.677	13.57
341.89	11.22
342.102	16.67
342.315	30.17
342.527	27.08
342.74	27.39
342.952	31.02
343.165	50.33
343.377	53.6
343.59	41.48
343.802	42.52
344.015	46.27
344.227	43.96
344.44	42.93
344.652	33.09
344.864	26.01
345.077	28.38
345.289	20.96
345.502	13.9
345.714	12.69
345.926	8.44
346.139	16.41
346.351	-1.31
346.563	8.49
346.775	6.36
346.988	6.04
347.2	4.74
347.412	7.92
347.624	6.61
347.837	19.16
348.049	18.29
348.261	16.91
348.473	9.33
348.685	19.28
348.897	20.93
349.11	16.21
349.322	15.94
349.534	8.41
349.746	12.02
349.958	25.58
350.17	24.76
350.382	24.54
350.594	27.92
350.806	37.65
351.018	41.31
351.23	44.78
351.442	35.94
351.654	30.59
351.866	33.26
352.078	31.25
352.29	29.91
352.502	25.56
352.714	21.17
352.926	29.96
353.138	28.06
353.35	26.08
353.561	16.71
353.773	8.9
353.985	13.3
354.197	10.11
354.409	11.49
354.621	16.59
354.832	11.86
355.044	26.38
355.256	28.09
355.468	24.13
355.679	30.18
355.891	26.77
356.103	25.02
356.314	25.75
356.526	16.34
356.738	11.98
356.949	18.01
357.161	14.63
357.373	11.81
357.584	22.46
357.796	17.49
358.008	20.83
358.219	35.23
358.431	34.71
358.642	36.23
358.854	39.39
359.065	33.92
359.277	30.11
359.488	25.75
359.7	18.73
359.911	16.25
360.123	20.48
360.334	19.09
360.546	5.41
360.757	20.82
360.969	27.1
361.18	25.97
361.391	28.61
361.603	27.49
361.814	28.18
362.025	36.66
362.237	28.64
362.448	29.41
362.659	22.17
362.871	20.49
363.082	22.64
363.293	22.66
363.504	20.84
363.716	20.74
363.927	16.59
364.138	20.09
364.349	21.9
364.56	20.29
364.772	22.55
364.983	25.95
365.194	32.75
365.405	36.53
365.616	30.32
365.827	26.05
366.038	23.2
366.25	21.04
366.461	17.59
366.672	16.01
366.883	23.08
367.094	30.42
367.305	34.4
367.516	36.52
367.727	29.45
367.938	26.96
368.149	27.61
368.36	19.72
368.571	18.72
368.781	9.09
368.992	10.08
369.203	8.75
369.414	8.34
369.625	3.91
369.836	6.37
370.047	3.65
370.258	3.82
370.468	0.76
370.679	-3.81
370.89	12.44
371.101	13.97
371.312	18.7
371.522	25.51
371.733	20.78
371.944	23.47
372.155	24.98
372.365	9.49
372.576	7.06
372.787	-1.92
372.997	-6.02
373.208	-3
373.419	-7.36
373.629	-0.44
373.84	4.18
374.05	7.1
374.261	4.64
374.472	9.31
374.682	15.23
374.893	8.64
375.103	16.44
375.314	12.17
375.524	13.71
375.735	17.78
375.945	14.16
376.156	14.27
376.366	20.21
376.577	15.53
376.787	17.75
376.997	16.51
377.208	9.49
377.418	7.72
377.629	9.86
377.839	10.57
378.049	16.69
378.26	8.79
378.47	13.55
378.68	15.37
378.89	22.7
379.101	15.84
379.311	7.77
379.521	9.98
379.732	6.81
379.942	1.61
380.152	12.24
380.362	9.61
380.572	14.86
380.783	17.91
380.993	15.36
381.203	25.7
381.413	30.25
381.623	24.73
381.833	20.89
382.043	15.58
382.253	17.98
382.463	18.06
382.674	16.47
382.884	12.97
383.094	13.63
383.304	11.08
383.514	16.98
383.724	16.31
383.934	12.88
384.144	15.08
384.353	12.66
384.563	9.68
384.773	15.25
384.983	14.24
385.193	16.97
385.403	18.18
385.613	14.29
385.823	15.98
386.033	17.7
386.242	15.13
386.452	11.86
386.662	13.52
386.872	10.96
387.082	8.75
387.291	6.38
387.501	7.06
387.711	7.7
387.921	6.79
388.13	3.22
388.34	4.14
388.55	8.76
388.759	9.85
388.969	8.34
389.179	11.31
389.388	11.93
389.598	9.85
389.807	9.03
390.017	6.85
390.227	5.81
390.436	6.27
390.646	3.69
390.855	3.71
391.065	4.67
391.274	4.14
391.484	4.23
391.693	4.48
391.903	5.18
392.112	4.33
392.322	6.8
392.531	7.88
392.74	7.38
392.95	6.94
393.159	7.83
393.369	6.71
393.578	6.54
393.787	4.89
393.997	5.02
394.206	5.27
394.415	5.31
394.625	3.39
394.834	2.5
395.043	3.3
395.252	4.59
395.462	3.75
395.671	4.26
395.88	4.61
396.089	6
396.298	6.53
396.508	5.85
396.717	4.6
396.926	4.08
397.135	3.29
397.344	3.1
397.553	3.14
397.762	3.29
397.971	3.27
398.181	3.2
398.39	4.15
398.599	4.98
398.808	4.97
399.017	4.86
399.226	4.88
399.435	5.1
399.644	5.19
399.853	4.91
400.062	4.23
400.27	4.19
400.479	4.1
400.688	4.21
400.897	4.23
401.106	4.19
401.315	4.04
401.524	4.25
401.733	4.53
401.941	4.41
402.15	4.05
402.359	3.99
402.568	4.12
402.777	3.98
402.985	3.95
403.194	3.68
403.403	3.48
403.612	3.58
403.82	3.6
404.029	3.48
404.238	3.66
404.446	3.61
404.655	3.6
404.864	3.67
405.072	3.72
405.281	3.53
405.489	3.62
405.698	3.49
405.906	3.49
406.115	3.5
406.324	3.46
406.532	3.44
406.741	3.59
406.949	3.41
407.158	3.52
407.366	3.5
407.574	3.44
407.783	3.38
407.991	3.25
408.2	3.16
408.408	3.23
408.617	3.12
408.825	3.12
409.033	3.08
409.242	3.16
409.45	3.25
409.658	3.27
409.867	3.2
410.075	3.17
410.283	3.08
410.491	3.04
410.7	3.02
410.908	2.98
411.116	2.92
411.324	2.99
411.533	2.96
411.741	2.92
411.949	2.97
412.157	3.01
412.365	2.93
412.573	2.97
412.781	2.87
412.99	2.93
413.198	3.02
413.406	2.98
413.614	2.91
413.822	2.92
414.03	2.88
414.238	3.02
414.446	2.97
414.654	3
414.862	2.98
415.07	3.1
415.278	3.02
415.486	3.08
415.694	3.02
415.902	2.98
416.109	2.98
416.317	2.94
416.525	2.9
416.733	2.95
416.941	2.84
417.149	2.86
417.357	2.87
417.564	2.78
417.772	2.89
417.98	2.81
418.188	2.71
418.395	2.76
418.603	2.54
418.811	2.53
419.019	2.57
419.226	2.57
419.434	2.44
419.642	2.48
419.849	2.52
420.057	2.64
420.265	2.62
420.472	2.53
420.68	2.46
420.887	2.63
421.095	2.65
421.302	2.59
421.51	2.65
421.717	2.69
421.925	2.67
422.132	2.59
422.34	2.53
422.547	2.52
422.755	2.48
422.962	2.33
423.17	2.27
423.377	2.37
423.585	2.36
423.792	2.28
423.999	2.26
424.207	2.21
424.414	2.28
424.621	2.34
424.829	2.27
425.036	2.28
425.243	2.35
425.451	2.37
425.658	2.45
425.865	2.5
426.072	2.46
426.28	2.49
426.487	2.53
426.694	2.49
426.901	2.48
427.108	2.49
427.315	2.42
427.523	2.47
427.73	2.43
427.937	2.45
428.144	2.49
428.351	2.58
428.558	2.54
428.765	2.47
428.972	2.46
429.179	2.45
429.386	2.5
429.593	2.38
429.8	2.34
430.007	2.4
430.214	2.51
430.421	2.51
430.628	2.41
430.835	2.35
431.042	2.47
431.249	2.47
431.456	2.45
431.662	2.47
431.869	2.52
432.076	2.63
432.283	2.62
432.49	2.53
432.697	2.55
432.903	2.58
433.11	2.57
433.317	2.51
433.524	2.43
433.73	2.48
433.937	2.53
434.144	2.56
434.35	2.46
434.557	2.42
434.764	2.45
434.97	2.61
435.177	2.53
435.384	2.55
435.59	2.49
435.797	2.6
436.003	2.64
436.21	2.62
436.416	2.51
436.623	2.62
436.829	2.66
437.036	2.67
437.242	2.66
437.449	2.65
437.655	2.69
437.862	2.73
438.068	2.75
438.275	2.74
438.481	2.79
438.687	2.8
438.894	2.79
439.1	2.83
439.307	2.84
439.513	2.83
439.719	2.84
439.926	2.82
440.132	2.75
440.338	2.78
440.544	2.75
440.751	2.78
440.957	2.71
441.163	2.72
441.369	2.72
441.575	2.73
441.782	2.74
441.988	2.74
442.194	2.77
442.4	2.78
442.606	2.8
442.812	2.79
443.018	2.83
443.224	2.85
443.431	2.86
443.637	2.78
443.843	2.88
444.049	2.81
444.255	2.77
444.461	2.75
444.667	2.74
444.873	2.72
445.079	2.79
445.284	2.69
445.49	2.72
445.696	2.81
445.902	2.87
446.108	2.87
446.314	2.94
446.52	2.93
446.726	3
446.931	3.05
447.137	3.04
447.343	3
447.549	2.99
447.755	2.95
447.96	2.94
448.166	2.95
448.372	2.91
448.578	2.92
448.783	2.9
448.989	2.96
449.195	2.97
449.4	2.99
449.606	2.94
449.812	3
450.017	2.98
450.223	2.99
450.428	2.96
450.634	2.99
450.84	2.99
451.045	3.01
451.251	3.05
451.456	3.07
451.662	3.04
451.867	3.03
452.073	3.03
452.278	3.09
452.483	3.05
452.689	2.95
452.894	2.96
453.1	2.96
453.305	2.96
453.51	2.96
453.716	2.89
453.921	2.98
454.127	3
454.332	3
454.537	3.07
454.742	3.11
454.948	3.09
455.153	3.1
455.358	3.15
455.563	3.23
455.769	3.22
455.974	3.19
456.179	3.07
456.384	3.09
456.589	3.1
456.795	2.99
457	2.92
457.205	2.87
457.41	2.89
457.615	3.03
457.82	3.04
458.025	3.03
458.23	3.09
458.435	3.09
458.64	3.19
458.845	3.17
459.05	3.1
459.255	3.06
459.46	3.09
459.665	3.1
459.87	3.08
460.075	3.06
460.28	3.13
460.485	3.18
460.69	3.15
460.895	3.18
461.099	3.18
461.304	3.23
461.509	3.14
461.714	3.08
461.919	3.01
462.123	3.09
462.328	3.02
462.533	3.03
462.738	3
462.942	3.12
463.147	3.14
463.352	3.2
463.556	3.15
463.761	3.16
463.966	3.21
464.17	3.21
464.375	3.12
464.58	3.13
464.784	3.12
464.989	3.14
465.193	3.21
465.398	3.15
465.602	3.2
465.807	3.25
466.011	3.29
466.216	3.31
466.42	3.39
466.625	3.42
466.829	3.5
467.034	3.54
467.238	3.55
467.443	3.54
467.647	3.55
467.851	3.52
468.056	3.48
468.26	3.41
468.464	3.37
468.669	3.4
468.873	3.41
469.077	3.42
469.282	3.42
