Data from Ofra_2a_PS_2GT38_Reflection_1.txt Node
Date: Tue Jul 20 09:42:37 EDT 2021
User: Adam
Spectrometer: FLMT01687
Trigger mode: 0
Integration Time (sec): 9.450000E-1
Scans to average: 3
Electric dark correction enabled: true
Nonlinearity correction enabled: false
Boxcar width: 3
XAxis mode: Wavelengths
Number of Pixels in Spectrum: 3648
>>>>>Begin Spectral Data<<<<<
179.494	1211.83
179.716	739.79
179.937	793.41
180.158	3035.94
180.38	-1711.63
180.601	-288.48
180.823	-98.36
181.044	-21.12
181.265	-181.82
181.486	-22.9
181.708	-1795.65
181.929	-37.21
182.15	-236.36
182.372	45.13
182.593	-83.56
182.814	482.04
183.035	441.74
183.257	195.3
183.478	108.06
183.699	100.15
183.92	77.03
184.141	71.43
184.363	81.5
184.584	51.72
184.805	55.92
185.026	71.43
185.247	48.53
185.468	38.65
185.689	26.31
185.91	10.46
186.132	22.62
186.353	8.56
186.574	8
186.795	-4.13
187.016	12.84
187.237	18.92
187.458	10.95
187.679	0.07
187.9	21.41
188.121	34.51
188.342	62.2
188.563	53.53
188.784	51.44
189.005	64.35
189.226	67.93
189.447	55.64
189.667	51.41
189.888	37.64
190.109	30.48
190.33	20.26
190.551	20.3
190.772	10.51
190.993	14.63
191.214	15.92
191.434	11.23
191.655	28.69
191.876	36.69
192.097	21.98
192.318	29.14
192.538	36.5
192.759	46.35
192.98	44.57
193.201	47.7
193.421	45.03
193.642	58.24
193.863	61.82
194.083	51.64
194.304	12.86
194.525	31.31
194.745	6.65
194.966	9.22
195.187	18.37
195.407	20.87
195.628	21.67
195.848	30.93
196.069	23.33
196.29	24.44
196.51	27.7
196.731	34.07
196.951	30.62
197.172	20.47
197.392	30.11
197.613	27.36
197.833	13.82
198.054	14.91
198.274	-3.95
198.495	8.48
198.715	3.07
198.936	-30.06
199.156	-24.63
199.377	-4.65
199.597	-32.56
199.817	-22.9
200.038	-17.59
200.258	-12.7
200.479	17.8
200.699	25.12
200.919	10.53
201.14	30.08
201.36	34.15
201.58	26.13
201.801	29.18
202.021	27.59
202.241	25.97
202.461	40.06
202.682	34.63
202.902	38.6
203.122	37.27
203.342	38.7
203.563	31.94
203.783	38.31
204.003	35.39
204.223	39.64
204.443	33.23
204.663	34.92
204.884	39.15
205.104	38.71
205.324	37.92
205.544	44.71
205.764	50.19
205.984	49.38
206.204	57.17
206.424	41.05
206.644	35.46
206.864	27.54
207.084	39.18
207.304	25.85
207.525	20.09
207.745	16.02
207.964	19.32
208.184	9.23
208.404	8.43
208.624	-22.72
208.844	-19.88
209.064	-9.28
209.284	-5.17
209.504	4.19
209.724	4.51
209.944	24.43
210.164	34.24
210.384	37.68
210.604	31.68
210.823	15.18
211.043	-8.62
211.263	9.69
211.483	-2.5
211.703	3.29
211.922	17.54
212.142	23.68
212.362	31.15
212.582	32.09
212.801	20
213.021	34.54
213.241	23.17
213.461	12.1
213.68	15.8
213.9	10.81
214.12	8.34
214.339	23.19
214.559	21.59
214.779	23.68
214.998	28.46
215.218	24.64
215.438	34.48
215.657	33.91
215.877	25.1
216.096	19.63
216.316	15.42
216.535	16.03
216.755	7.17
216.974	-11.9
217.194	1.46
217.413	8.84
217.633	18.4
217.852	17.23
218.072	9.1
218.291	33.14
218.511	38.66
218.73	31.75
218.95	19.64
219.169	4.75
219.389	6.86
219.608	16.57
219.827	2.22
220.047	-5.2
220.266	4.78
220.485	19.36
220.705	19.8
220.924	19.37
221.143	9.56
221.363	9.67
221.582	12.21
221.801	22.04
222.021	22.57
222.24	19.15
222.459	20.78
222.678	15.66
222.897	2.55
223.117	15.24
223.336	11.12
223.555	3.27
223.774	21.69
223.993	28.98
224.213	32.74
224.432	57.47
224.651	57.41
224.87	47.54
225.089	53.89
225.308	44.51
225.527	36.51
225.746	40.65
225.965	23.56
226.184	8.4
226.404	2.15
226.623	12.22
226.842	7.66
227.061	8.41
227.28	17.28
227.499	22.99
227.718	24.71
227.936	28.61
228.155	29.17
228.374	31.82
228.593	35.61
228.812	26.95
229.031	28.43
229.25	36
229.469	43.63
229.688	45.73
229.907	42.72
230.125	33.04
230.344	36.36
230.563	43.89
230.782	31.65
231.001	32.29
231.22	13
231.438	20.88
231.657	26.99
231.876	18.26
232.095	12.48
232.313	15.19
232.532	10.48
232.751	15.28
232.969	14.89
233.188	4.11
233.407	-1.41
233.625	-8.85
233.844	-2.04
234.063	-1.44
234.281	0.78
234.5	1.93
234.719	8.63
234.937	29.81
235.156	25.46
235.374	31.94
235.593	28.08
235.811	19.81
236.03	19.63
236.249	24.62
236.467	11.21
236.686	22.97
236.904	14.37
237.123	16.03
237.341	29.09
237.559	28.5
237.778	28.8
237.996	38.9
238.215	42.43
238.433	40.02
238.652	42.58
238.87	37.57
239.088	23.28
239.307	22.76
239.525	8.26
239.743	2.15
239.962	9.8
240.18	18.14
240.398	23.91
240.617	38.94
240.835	34.98
241.053	42.56
241.271	47.56
241.49	40.99
241.708	30.01
241.926	14.97
242.144	15.77
242.363	16.19
242.581	8.84
242.799	-16.98
243.017	-6.3
243.235	-11.71
243.453	-9.54
243.672	-12.38
243.89	-5.1
244.108	14.86
244.326	19.54
244.544	10.17
244.762	15.27
244.98	21.51
245.198	19.56
245.416	26.47
245.634	25.24
245.852	36.63
246.07	42.56
246.288	43.84
246.506	54.52
246.724	61.84
246.942	47.14
247.16	32.22
247.378	15.75
247.596	18.61
247.814	6.04
248.032	-2.59
248.25	-12.52
248.468	-6.14
248.685	0.46
248.903	6.47
249.121	-4.22
249.339	7.89
249.557	7.91
249.775	-0.14
249.992	-6.31
250.21	-20.24
250.428	-8.51
250.646	-1.13
250.863	2.52
251.081	1.82
251.299	18.99
251.517	19.08
251.734	27.07
251.952	26.5
252.17	7.44
252.387	4.97
252.605	12.76
252.823	-1.46
253.04	0.17
253.258	3.32
253.475	2.23
253.693	22.54
253.911	30.03
254.128	26.38
254.346	19.79
254.563	16.81
254.781	16.57
254.998	20.71
255.216	11.26
255.433	3.92
255.651	-3.57
255.868	6.08
256.086	17.98
256.303	26.9
256.521	7.55
256.738	12.04
256.956	2.39
257.173	14.83
257.39	25.86
257.608	25.16
257.825	13.82
258.043	20.31
258.26	14.32
258.477	31.99
258.695	35.07
258.912	27
259.129	19.74
259.346	30.48
259.564	31.38
259.781	39.33
259.998	31.98
260.216	34.49
260.433	35.62
260.65	38.32
260.867	27.71
261.084	31.87
261.302	25.61
261.519	16.91
261.736	11.36
261.953	-4.87
262.17	-6.74
262.387	-8.91
262.604	-30.58
262.822	-22.48
263.039	-25.13
263.256	-26.4
263.473	-22.32
263.69	-16.75
263.907	1.71
264.124	5.64
264.341	11.81
264.558	24.09
264.775	25.59
264.992	23.33
265.209	27.08
265.426	27.19
265.643	28.2
265.86	28.53
266.077	27.2
266.294	27.41
266.51	36.83
266.727	26
266.944	7.37
267.161	8.28
267.378	3.42
267.595	-11.6
267.812	-13.08
268.028	-8.19
268.245	0.59
268.462	8.22
268.679	6.33
268.896	-3.59
269.112	13.19
269.329	18.31
269.546	13.11
269.763	15.67
269.979	18.51
270.196	23.57
270.413	28.39
270.629	22.31
270.846	23.9
271.063	25.87
271.279	24.5
271.496	14.86
271.712	17.68
271.929	17.72
272.146	28.49
272.362	22.18
272.579	12.3
272.795	10.03
273.012	15.78
273.228	11.3
273.445	14.26
273.661	4.09
273.878	8.98
274.094	9.78
274.311	16.57
274.527	18.87
274.744	21.14
274.96	19.64
275.177	19.56
275.393	26.15
275.609	33.2
275.826	24.41
276.042	31.67
276.259	30.34
276.475	28.43
276.691	25.92
276.908	23.29
277.124	25.63
277.34	28.48
277.557	24.4
277.773	24.1
277.989	22.79
278.205	17.34
278.422	28.4
278.638	31.07
278.854	33.99
279.07	25.86
279.286	23.58
279.503	29.87
279.719	34.45
279.935	17.02
280.151	27.9
280.367	30.87
280.583	38.69
280.799	42.99
281.016	41.57
281.232	47.75
281.448	49.2
281.664	35.99
281.88	30.24
282.096	24.99
282.312	21.45
282.528	18.74
282.744	13.16
282.96	19.05
283.176	19.19
283.392	26.85
283.608	31.47
283.824	28.7
284.04	32.76
284.256	42.09
284.471	36.69
284.687	32.66
284.903	28.27
285.119	18.43
285.335	16.21
285.551	8.77
285.767	-4.69
285.982	-7.41
286.198	-16.49
286.414	-5.86
286.63	4.55
286.846	6.51
287.061	8.86
287.277	9.78
287.493	16.74
287.709	20.24
287.924	16.52
288.14	20.49
288.356	25.86
288.571	19.29
288.787	25.3
289.003	31.89
289.218	32.46
289.434	30.87
289.65	28.43
289.865	30
290.081	32.37
290.296	31.24
290.512	30.89
290.727	35.52
290.943	33.56
291.159	28.5
291.374	30.7
291.59	22.49
291.805	22.49
292.021	9.48
292.236	4.67
292.451	15.52
292.667	23
292.882	17.17
293.098	25.21
293.313	27.28
293.529	36.29
293.744	36.03
293.959	24.61
294.175	12.61
294.39	14.31
294.605	21.84
294.821	10.71
295.036	-1.18
295.251	7.78
295.467	2.72
295.682	11.96
295.897	10.44
296.112	13.82
296.328	21.94
296.543	18.59
296.758	9.96
296.973	21.61
297.188	14.55
297.404	14.87
297.619	5.08
297.834	11.83
298.049	20.16
298.264	15.77
298.479	7.72
298.694	19.24
298.909	19.76
299.125	26.51
299.34	22.34
299.555	25.9
299.77	35.98
299.985	34.46
300.2	28.71
300.415	26.19
300.63	16.22
300.845	17.86
301.06	9.97
301.275	12.04
301.49	11.9
301.704	10.41
301.919	7.6
302.134	4.06
302.349	0.98
302.564	4.8
302.779	-0.69
302.994	11.68
303.209	11.19
303.423	17.87
303.638	29.84
303.853	31.62
304.068	31.75
304.283	35.83
304.497	24.4
304.712	24.98
304.927	15.52
305.142	18.31
305.356	13.51
305.571	9.33
305.786	3.1
306	6.09
306.215	11
306.43	24.39
306.644	22.97
306.859	27.72
307.074	29.29
307.288	31.63
307.503	35.59
307.717	31.56
307.932	33.8
308.147	32.77
308.361	34.73
308.576	39.39
308.79	33.6
309.005	29.46
309.219	27.73
309.434	24.87
309.648	22.15
309.863	21.26
310.077	7.61
310.292	9.8
310.506	14
310.72	18.34
310.935	16.37
311.149	19.4
311.364	22.52
311.578	25.63
311.792	27.18
312.007	21.44
312.221	26.51
312.435	24.22
312.649	-4.59
312.864	-32.74
313.078	-28.61
313.292	-23.91
313.507	-18.91
313.721	-40.89
313.935	-22.52
314.149	11.5
314.363	17.87
314.578	39.87
314.792	40.65
315.006	42.57
315.22	49.09
315.434	32.13
315.648	28.97
315.862	36.78
316.077	28.34
316.291	29.89
316.505	33.09
316.719	21.28
316.933	39.38
317.147	35.13
317.361	29.11
317.575	19.11
317.789	13.61
318.003	8.06
318.217	15.89
318.431	12.8
318.645	27.43
318.859	21.65
319.073	21.29
319.287	25.08
319.5	29.9
319.714	29.33
319.928	31.35
320.142	27.27
320.356	40.47
320.57	38.28
320.784	33.82
320.997	37.61
321.211	39.58
321.425	34.67
321.639	32.21
321.853	28.37
322.066	25.58
322.28	28.56
322.494	25.39
322.707	16.51
322.921	21.66
323.135	25.88
323.349	18.45
323.562	23.03
323.776	15.93
323.989	12.03
324.203	21.07
324.417	13.83
324.63	-0.64
324.844	-0.06
325.057	5.8
325.271	3.34
325.485	2.56
325.698	-1.45
325.912	9.92
326.125	19.89
326.339	24.98
326.552	30.06
326.766	36.57
326.979	38.85
327.193	42.01
327.406	34.21
327.619	16.98
327.833	14.92
328.046	-1.15
328.26	-15.21
328.473	-5.84
328.686	-0.88
328.9	-0.94
329.113	10.14
329.326	9.98
329.54	12.13
329.753	23.48
329.966	23.62
330.179	20.55
330.393	22.16
330.606	29.08
330.819	35.46
331.032	40.34
331.246	41.94
331.459	37.25
331.672	39.02
331.885	34.06
332.098	33.34
332.311	17.36
332.525	16.39
332.738	12.66
332.951	13.73
333.164	10.89
333.377	-0.49
333.59	0.44
333.803	17.36
334.016	8.15
334.229	10.72
334.442	24.28
334.655	34.72
334.868	52.75
335.081	59.15
335.294	50.51
335.507	54.89
335.72	50.65
335.933	45.36
336.146	45.52
336.359	34.97
336.572	26.35
336.785	32.16
336.997	32.74
337.21	33.41
337.423	29.09
337.636	21.56
337.849	30.9
338.062	32.75
338.274	28.71
338.487	30.4
338.7	32.58
338.913	34.82
339.125	34.24
339.338	34.38
339.551	40.12
339.763	36.48
339.976	33.02
340.189	38.77
340.402	37.05
340.614	39.52
340.827	26.48
341.039	23.06
341.252	24.82
341.465	21.6
341.677	8.8
341.89	5.85
342.102	14.13
342.315	19.74
342.527	11.02
342.74	10.32
342.952	9.49
343.165	24.01
343.377	21.86
343.59	14.81
343.802	22.5
344.015	28.36
344.227	28.56
344.44	36.49
344.652	23.98
344.864	28.9
345.077	26.14
345.289	21.93
345.502	23.05
345.714	21.48
345.926	17.5
346.139	24.67
346.351	13.21
346.563	14.87
346.775	12.63
346.988	14.34
347.2	14.12
347.412	11.83
347.624	14.2
347.837	18
348.049	17.97
348.261	14.37
348.473	7.9
348.685	15.06
348.897	18.61
349.11	16.8
349.322	12.5
349.534	5.06
349.746	20.17
349.958	16.76
350.17	12.42
350.382	2.12
350.594	3.22
350.806	16.79
351.018	28.29
351.23	27.13
351.442	32.8
351.654	35.11
351.866	34.02
352.078	27.52
352.29	27.18
352.502	23.48
352.714	17.13
352.926	17.41
353.138	14.31
353.35	20.96
353.561	21.22
353.773	13.28
353.985	18.84
354.197	15.28
354.409	13.52
354.621	17.13
354.832	16.06
355.044	26.03
355.256	30.01
355.468	24.56
355.679	29.07
355.891	29.58
356.103	26.68
356.314	28.36
356.526	20.45
356.738	14.2
356.949	12.91
357.161	10.39
357.373	6.37
357.584	12.42
357.796	12.23
358.008	17.72
358.219	29.6
358.431	32.56
358.642	32.39
358.854	38.25
359.065	32.9
359.277	26.03
359.488	20.66
359.7	18.71
359.911	13.26
360.123	17.48
360.334	10.42
360.546	2.14
360.757	12.68
360.969	18.45
361.18	12.76
361.391	15.67
361.603	14.14
361.814	18.04
362.025	24.75
362.237	22.02
362.448	22.03
362.659	24.49
362.871	26.94
363.082	28.93
363.293	26.17
363.504	28.88
363.716	26.47
363.927	25
364.138	24.17
364.349	23.04
364.56	16.78
364.772	21.25
364.983	13.16
365.194	16.67
365.405	10.08
365.616	1.67
365.827	-0.7
366.038	15.21
366.25	8.7
366.461	13.76
366.672	11.35
366.883	25.86
367.094	29.87
367.305	29.23
367.516	27.92
367.727	29.49
367.938	30.82
368.149	34.83
368.36	30.63
368.571	30.94
368.781	29.02
368.992	24.95
369.203	25.64
369.414	19.46
369.625	10.25
369.836	9.29
370.047	11.75
370.258	10.82
370.468	10.1
370.679	6.47
370.89	15.24
371.101	16.97
371.312	10.37
371.522	13.4
371.733	9.69
371.944	11.53
372.155	7.1
372.365	4.39
372.576	9.8
372.787	17.64
372.997	11.04
373.208	18.86
373.419	16.9
373.629	27.33
373.84	23.44
374.05	22.14
374.261	18.6
374.472	18.29
374.682	13.6
374.893	10.84
375.103	9.07
375.314	11.38
375.524	8.76
375.735	12.59
375.945	15.07
376.156	18.62
376.366	22.64
376.577	21.09
376.787	25.88
376.997	31.69
377.208	29.84
377.418	28.61
377.629	31.05
377.839	32.74
378.049	36.33
378.26	36.77
378.47	36.73
378.68	31.59
378.89	26.48
379.101	19.67
379.311	15.9
379.521	11.24
379.732	-1.89
379.942	-6.55
380.152	1.65
380.362	7.71
380.572	14.29
380.783	12.92
380.993	15.91
381.203	19.06
381.413	25.62
381.623	25.69
381.833	21.97
382.043	16.2
382.253	20.88
382.463	20.33
382.674	21.05
382.884	12.26
383.094	11.38
383.304	11.7
383.514	18.47
383.724	14.82
383.934	12.63
384.144	15.8
384.353	17.89
384.563	14.21
384.773	14.2
384.983	11.3
385.193	14.48
385.403	17.15
385.613	14.27
385.823	11.13
386.033	12.03
386.242	12
386.452	9.48
386.662	6.4
386.872	3.24
387.082	4.41
387.291	6.62
387.501	7.4
387.711	6.64
387.921	5.07
388.13	6.99
388.34	5.9
388.55	7.49
388.759	8.58
388.969	5.98
389.179	10.53
389.388	12.93
389.598	10.77
389.807	11.71
390.017	10.52
390.227	10.32
390.436	12.24
390.646	12.39
390.855	10.91
391.065	9.88
391.274	8.85
391.484	9.32
391.693	8.48
391.903	7.35
392.112	5.48
392.322	7.07
392.531	8.65
392.74	7.43
392.95	7.34
393.159	6.95
393.369	7.07
393.578	6.76
393.787	5.98
393.997	6.37
394.206	7.04
394.415	6.49
394.625	5.84
394.834	4.97
395.043	5.5
395.252	5.98
395.462	5.45
395.671	6.48
395.88	6.64
396.089	7.05
396.298	7.32
396.508	6.7
396.717	6.56
396.926	6.14
397.135	5.26
397.344	4.93
397.553	5.2
397.762	5.05
397.971	4.84
398.181	4.4
398.39	4.36
398.599	4.62
398.808	4.79
399.017	4.75
399.226	5.03
399.435	4.95
399.644	4.74
399.853	4.75
400.062	4.72
400.27	4.52
400.479	4.3
400.688	4.26
400.897	4.52
401.106	4.83
401.315	4.84
401.524	4.89
401.733	5.22
401.941	5.3
402.15	5.02
402.359	5.08
402.568	4.94
402.777	4.79
402.985	4.64
403.194	4.49
403.403	4.35
403.612	4.48
403.82	4.37
404.029	4.31
404.238	4.36
404.446	4.39
404.655	4.15
404.864	4.15
405.072	4.18
405.281	4.02
405.489	4.16
405.698	4.18
405.906	4.1
406.115	4.15
406.324	4.06
406.532	4.07
406.741	4.17
406.949	4.04
407.158	4.01
407.366	4.03
407.574	4.06
407.783	4.08
407.991	3.97
408.2	3.92
408.408	3.95
408.617	3.94
408.825	3.93
409.033	3.9
409.242	3.88
409.45	3.91
409.658	3.93
409.867	3.88
410.075	3.86
410.283	3.84
410.491	3.79
410.7	3.86
410.908	3.88
411.116	3.76
411.324	3.78
411.533	3.74
411.741	3.71
411.949	3.8
412.157	3.79
412.365	3.72
412.573	3.76
412.781	3.75
412.99	3.8
413.198	3.85
413.406	3.85
413.614	3.84
413.822	3.85
414.03	3.82
414.238	3.87
414.446	3.81
414.654	3.77
414.862	3.61
415.07	3.69
415.278	3.69
415.486	3.84
415.694	3.72
415.902	3.65
416.109	3.67
416.317	3.71
416.525	3.64
416.733	3.7
416.941	3.53
417.149	3.64
417.357	3.73
417.564	3.67
417.772	3.7
417.98	3.61
418.188	3.43
418.395	3.46
418.603	3.32
418.811	3.25
419.019	3.32
419.226	3.3
419.434	3.29
419.642	3.4
419.849	3.42
420.057	3.48
420.265	3.54
420.472	3.43
420.68	3.38
420.887	3.4
421.095	3.34
421.302	3.43
421.51	3.43
421.717	3.44
421.925	3.44
422.132	3.43
422.34	3.39
422.547	3.31
422.755	3.11
422.962	2.98
423.17	2.91
423.377	3.02
423.585	3.06
423.792	3.05
423.999	3.07
424.207	3.12
424.414	3.28
424.621	3.3
424.829	3.19
425.036	3.15
425.243	3.21
425.451	3.23
425.658	3.32
425.865	3.19
426.072	3.29
426.28	3.3
426.487	3.32
426.694	3.21
426.901	3.18
427.108	3.11
427.315	3.07
427.523	2.97
427.73	3
427.937	3
428.144	3.17
428.351	3.35
428.558	3.42
428.765	3.42
428.972	3.45
429.179	3.37
429.386	3.42
429.593	3.31
429.8	3.22
430.007	3.23
430.214	3.3
430.421	3.27
430.628	3.22
430.835	3.15
431.042	3.17
431.249	3.14
431.456	3.15
431.662	3.15
431.869	3.22
432.076	3.28
432.283	3.3
432.49	3.32
432.697	3.31
432.903	3.34
433.11	3.37
433.317	3.35
433.524	3.31
433.73	3.34
433.937	3.33
434.144	3.51
434.35	3.45
434.557	3.37
434.764	3.4
434.97	3.51
435.177	3.45
435.384	3.49
435.59	3.35
435.797	3.35
436.003	3.44
436.21	3.37
436.416	3.33
436.623	3.38
436.829	3.38
437.036	3.41
437.242	3.48
437.449	3.46
437.655	3.52
437.862	3.49
438.068	3.53
438.275	3.48
438.481	3.54
438.687	3.53
438.894	3.53
439.1	3.62
439.307	3.65
439.513	3.62
439.719	3.65
439.926	3.66
440.132	3.62
440.338	3.68
440.544	3.58
440.751	3.62
440.957	3.63
441.163	3.66
441.369	3.59
441.575	3.6
441.782	3.54
441.988	3.57
442.194	3.59
442.4	3.67
442.606	3.67
442.812	3.73
443.018	3.82
443.224	3.88
443.431	3.91
443.637	3.85
443.843	3.82
444.049	3.77
444.255	3.78
444.461	3.74
444.667	3.67
444.873	3.65
445.079	3.7
445.284	3.7
445.49	3.77
445.696	3.76
445.902	3.81
446.108	3.84
446.314	3.89
446.52	3.95
446.726	3.99
446.931	3.96
447.137	3.97
447.343	3.93
447.549	3.98
447.755	3.95
447.96	3.88
448.166	3.9
448.372	3.93
448.578	3.92
448.783	3.89
448.989	3.87
449.195	3.89
449.4	3.91
449.606	3.87
449.812	3.92
450.017	3.94
450.223	3.96
450.428	3.98
450.634	4
450.84	3.99
451.045	3.99
451.251	3.98
451.456	3.95
451.662	3.97
451.867	3.98
452.073	3.96
452.278	3.97
452.483	3.99
452.689	3.96
452.894	3.99
453.1	3.95
453.305	3.9
453.51	3.92
453.716	3.9
453.921	3.86
454.127	3.85
454.332	3.82
454.537	3.89
454.742	3.89
454.948	3.83
455.153	3.86
455.358	3.91
455.563	3.91
455.769	3.9
455.974	3.82
456.179	3.78
456.384	3.86
456.589	3.92
456.795	3.89
457	3.89
457.205	3.88
457.41	3.93
457.615	4
457.82	4.06
458.025	4
458.23	3.98
458.435	3.96
458.64	4.09
458.845	4.06
459.05	4.06
459.255	3.99
459.46	4
459.665	4.06
459.87	4.12
460.075	4.04
460.28	4.08
460.485	4.13
460.69	4.09
460.895	4.11
461.099	4.12
461.304	4.11
461.509	4.07
461.714	4.08
461.919	4.03
462.123	4.11
462.328	4.11
462.533	4.15
462.738	4.12
462.942	4.19
463.147	4.2
463.352	4.27
463.556	4.27
463.761	4.31
463.966	4.27
464.17	4.33
464.375	4.27
464.58	4.25
464.784	4.22
464.989	4.18
465.193	4.2
465.398	4.23
465.602	4.22
465.807	4.31
466.011	4.36
466.216	4.34
466.42	4.36
466.625	4.35
466.829	4.37
467.034	4.44
467.238	4.44
467.443	4.46
467.647	4.53
467.851	4.57
468.056	4.59
468.26	4.57
468.464	4.53
468.669	4.53
468.873	4.51
469.077	4.55
469.282	4.57
469.486	4.55
469.69	4.57
