Data from Ofra_PS_T2_1A_0CX05_Reflection_2.txt Node
Date: Wed Jul 21 17:43:46 EDT 2021
User: Adam
Spectrometer: FLMT01687
Trigger mode: 0
Integration Time (sec): 1.100000E0
Scans to average: 2
Electric dark correction enabled: true
Nonlinearity correction enabled: false
Boxcar width: 2
XAxis mode: Wavelengths
Number of Pixels in Spectrum: 3648
>>>>>Begin Spectral Data<<<<<
179.494	607
179.716	709.88
179.937	681.4
180.158	630.44
180.38	962.97
180.601	446.82
180.823	121.68
181.044	-66
181.265	307.9
181.486	135.59
181.708	110.57
181.929	762.76
182.15	-467.25
182.372	165.63
182.593	64.2
182.814	23.97
183.035	76.91
183.257	47.64
183.478	-84.63
183.699	-9.65
183.92	-59.91
184.141	-53.01
184.363	-126.94
184.584	-29
184.805	-19.28
185.026	28.91
185.247	35.07
185.468	27.48
185.689	-3.97
185.91	9.54
186.132	7.84
186.353	-2.66
186.574	58.71
186.795	74.85
187.016	24.84
187.237	7.13
187.458	-33.21
187.679	-58.43
187.9	-54.24
188.121	-58.27
188.342	-48.07
188.563	18.97
188.784	60.44
189.005	38.86
189.226	89.71
189.447	65.38
189.667	-244.05
189.888	-559.48
190.109	-1817.86
190.33	-1073.39
190.551	-1705.97
190.772	-334.56
190.993	-276.07
191.214	-196.23
191.434	-123.29
191.655	-50.28
191.876	-73.31
192.097	-124.08
192.318	-190.93
192.538	-297.87
192.759	-243.94
192.98	-181.09
193.201	-86.65
193.421	-60.61
193.642	-8.3
193.863	7.93
194.083	0.28
194.304	-28.48
194.525	-17.41
194.745	-38.22
194.966	-74.12
195.187	-59.94
195.407	-81.11
195.628	-164.66
195.848	-166.1
196.069	-141.73
196.29	-114.44
196.51	-100.97
196.731	-70.82
196.951	-90.83
197.172	-89.33
197.392	-101.8
197.613	-103.37
197.833	-156.45
198.054	-122.55
198.274	-62.87
198.495	-77.77
198.715	-45.02
198.936	-47.04
199.156	-49
199.377	-187.58
199.597	-178.03
199.817	-185.59
200.038	-112.52
200.258	-169.9
200.479	-56.53
200.699	-41.12
200.919	4.41
201.14	-18.91
201.36	-57.16
201.58	-7.69
201.801	22.26
202.021	-10.74
202.241	-4.13
202.461	-7.05
202.682	-126.6
202.902	-216.06
203.122	-141.4
203.342	-119.51
203.563	-52.08
203.783	-5.67
204.003	-46.14
204.223	-56.16
204.443	2.88
204.663	-47.47
204.884	-40.92
205.104	14.5
205.324	61.71
205.544	28.96
205.764	74.43
205.984	89.6
206.204	83.07
206.424	49.68
206.644	33.56
206.864	19.92
207.084	-47
207.304	-76.42
207.525	-200.23
207.745	-87.01
207.964	-47.31
208.184	-81.89
208.404	-129.45
208.624	-130.62
208.844	-127.71
209.064	-442.11
209.284	-462.89
209.504	-172.56
209.724	-7.67
209.944	-9.74
210.164	32.05
210.384	50.59
210.604	43.22
210.823	-11.13
211.043	-51.33
211.263	-62.94
211.483	-71.93
211.703	-141.3
211.922	-121.43
212.142	-28.76
212.362	-8.62
212.582	-27.01
212.801	-15.54
213.021	-28.35
213.241	-69.55
213.461	-121.64
213.68	-155.58
213.9	-127.87
214.12	-111.81
214.339	-162.46
214.559	-126.87
214.779	-33.04
214.998	-17.41
215.218	-55.42
215.438	-20.71
215.657	-11.53
215.877	-32.32
216.096	-17.32
216.316	-4.66
216.535	-21.46
216.755	-31.52
216.974	-121.3
217.194	-184.71
217.413	-164.92
217.633	-177.71
217.852	-326.82
218.072	-152.41
218.291	-94.07
218.511	-55.23
218.73	-66.41
218.95	-33.97
219.169	-38.87
219.389	-72.06
219.608	-60.06
219.827	-49.95
220.047	-32.47
220.266	-20.51
220.485	-18.47
220.705	-10.64
220.924	-22.37
221.143	14.55
221.363	-15.63
221.582	-6.74
221.801	2.39
222.021	8.44
222.24	-84.46
222.459	-16.31
222.678	-33.49
222.897	-117.05
223.117	-148.51
223.336	-93.31
223.555	-51.17
223.774	25.8
223.993	64.14
224.213	94.68
224.432	34.71
224.651	33.22
224.87	-10.37
225.089	13.14
225.308	9.19
225.527	37.82
225.746	32.94
225.965	17.86
226.184	-18.79
226.404	5.83
226.623	-18.86
226.842	-14.8
227.061	10.2
227.28	10.86
227.499	-19
227.718	-12.48
227.936	-17.35
228.155	-14.61
228.374	-27
228.593	-0.78
228.812	3.58
229.031	-30.83
229.25	-89.36
229.469	-83.79
229.688	-94.26
229.907	-62.51
230.125	-25.73
230.344	2.75
230.563	12.1
230.782	30.5
231.001	-37.26
231.22	-22.76
231.438	-1.02
231.657	7.41
231.876	-18.18
232.095	46.38
232.313	42.07
232.532	25.63
232.751	-25.28
232.969	-20.43
233.188	-117.49
233.407	-23.58
233.625	-16.89
233.844	-36.86
234.063	-43.51
234.281	-3.47
234.5	-18.48
234.719	-5.22
234.937	25.13
235.156	39.58
235.374	19.45
235.593	0.09
235.811	5.89
236.03	-11.43
236.249	-52.5
236.467	-19.61
236.686	-3.63
236.904	2.44
237.123	-17.78
237.341	-2.43
237.559	-3.15
237.778	-19.44
237.996	-54.04
238.215	-4.12
238.433	-0.91
238.652	-2.21
238.87	-18.84
239.088	7.33
239.307	-2.53
239.525	-24.63
239.743	-67.2
239.962	-56.53
240.18	-94.38
240.398	-140.59
240.617	-133.25
240.835	-103.77
241.053	-49.93
241.271	29.67
241.49	57.96
241.708	54.22
241.926	46.76
242.144	11.28
242.363	-74.74
242.581	-146.92
242.799	-92.13
243.017	-37.22
243.235	-60.51
243.453	-33.97
243.672	-14.17
243.89	-14.88
244.108	-29.02
244.326	-1.55
244.544	-8.22
244.762	-16.48
244.98	-0.98
245.198	6.52
245.416	-25.99
245.634	-24.93
245.852	-30.62
246.07	-27.58
246.288	-37.83
246.506	-67.75
246.724	-28.88
246.942	-17.45
247.16	6.94
247.378	16.77
247.596	47.2
247.814	24.56
248.032	-3.26
248.25	-20.19
248.468	-14.89
248.685	-14.33
248.903	30.05
249.121	32.88
249.339	12.9
249.557	2.08
249.775	-2.85
249.992	-89.18
250.21	-74.14
250.428	-56.59
250.646	-88.48
250.863	-91.52
251.081	-61.15
251.299	-59.21
251.517	-70.17
251.734	-41.81
251.952	-39.6
252.17	-28.95
252.387	-26.65
252.605	-30.6
252.823	-18.29
253.04	-4.43
253.258	21.27
253.475	12.99
253.693	41
253.911	32.06
254.128	33
254.346	26.38
254.563	29.09
254.781	3.63
254.998	-12.87
255.216	-18.23
255.433	-39.27
255.651	-6.03
255.868	26.22
256.086	33.76
256.303	5.85
256.521	14.08
256.738	-3.8
256.956	-37.68
257.173	-36.91
257.39	-35.28
257.608	-54.2
257.825	-3.77
258.043	38.5
258.26	27.32
258.477	85.09
258.695	79.28
258.912	28
259.129	28.77
259.346	-7.86
259.564	-66.78
259.781	-86.71
259.998	-14.93
260.216	-14.36
260.433	27.05
260.65	23.61
260.867	40.1
261.084	-14.57
261.302	-33.49
261.519	-30.87
261.736	-75.82
261.953	-74.9
262.17	-26.99
262.387	-35.65
262.604	-103.08
262.822	-82.31
263.039	-70.06
263.256	-102.18
263.473	-70.9
263.69	-13.33
263.907	16.74
264.124	30.64
264.341	34.08
264.558	14.84
264.775	11.2
264.992	8.02
265.209	-10.75
265.426	10.3
265.643	14.29
265.86	27.23
266.077	32.97
266.294	31.94
266.51	-15.53
266.727	-26.73
266.944	-16.58
267.161	-31.13
267.378	-19.36
267.595	20.74
267.812	9.36
268.028	-13.8
268.245	-8.69
268.462	-40.39
268.679	-68.12
268.896	-8.22
269.112	-6.06
269.329	-9.99
269.546	3.78
269.763	-6.17
269.979	-39.68
270.196	-32.49
270.413	-62.56
270.629	-82.67
270.846	-75.79
271.063	-45.44
271.279	-64.37
271.496	-54.22
271.712	-12.37
271.929	6.23
272.146	-21.98
272.362	-0.16
272.579	55.26
272.795	54.76
273.012	61.39
273.228	72.32
273.445	28.12
273.661	-14.43
273.878	-66.52
274.094	-57.56
274.311	-107.29
274.527	-17.27
274.744	-16.66
274.96	-20.01
275.177	-13.47
275.393	4.2
275.609	-4.58
275.826	20.71
276.042	18.58
276.259	-2.67
276.475	23.56
276.691	23.81
276.908	-14.16
277.124	4.63
277.34	6.58
277.557	-11.17
277.773	-30.28
277.989	-23.89
278.205	-46.83
278.422	-23.98
278.638	-11.28
278.854	4.01
279.07	1.64
279.286	11.89
279.503	-38.98
279.719	-63.36
279.935	-73.13
280.151	-90.68
280.367	-63.97
280.583	-67.1
280.799	-64.71
281.016	-88.41
281.232	-35.24
281.448	-27.33
281.664	-0.79
281.88	-29.36
282.096	-17.72
282.312	-5.78
282.528	3.55
282.744	21.78
282.96	45.86
283.176	41.47
283.392	22.12
283.608	11.11
283.824	-1.74
284.04	-2.45
284.256	-1.14
284.471	-9.72
284.687	-24.49
284.903	1.03
285.119	38.65
285.335	0.78
285.551	18
285.767	12.26
285.982	-15.92
286.198	-74.41
286.414	-2.34
286.63	5.06
286.846	36.07
287.061	4.32
287.277	32.85
287.493	-2.97
287.709	5.31
287.924	-19.81
288.14	24.96
288.356	22.31
288.571	54.29
288.787	36.88
289.003	30.37
289.218	12.2
289.434	-26.93
289.65	-31.77
289.865	-41.9
290.081	-14.33
290.296	-2.7
290.512	1.3
290.727	-35.61
290.943	-37.95
291.159	-48.8
291.374	-43.48
291.59	-61.5
291.805	-47.03
292.021	-25.34
292.236	-26.23
292.451	-21.56
292.667	-12.41
292.882	-1.37
293.098	-21.32
293.313	-44.25
293.529	-79.45
293.744	-82.36
293.959	-81.48
294.175	-64.13
294.39	-24.89
294.605	-0.43
294.821	30.41
295.036	38.06
295.251	50.82
295.467	11.31
295.682	-12.73
295.897	-92.34
296.112	-111
296.328	-120.16
296.543	-117.14
296.758	-97.87
296.973	-27.08
297.188	8.13
297.404	-15.77
297.619	-30.92
297.834	-39.12
298.049	-63.63
298.264	-78.19
298.479	-15.13
298.694	-6.17
298.909	14.64
299.125	22.26
299.34	28.79
299.555	-3.78
299.77	19.44
299.985	-33.46
300.2	-84.76
300.415	-123.53
300.63	-83.72
300.845	-90.14
301.06	-82.27
301.275	-45.73
301.49	-17.08
301.704	-29.61
301.919	-57.59
302.134	-61.16
302.349	-76.39
302.564	-146.83
302.779	-186.16
302.994	-152.16
303.209	-109.94
303.423	-79.26
303.638	14.23
303.853	-16.31
304.068	-23.83
304.283	-27.05
304.497	-27.61
304.712	-39.61
304.927	-29.5
305.142	-34.9
305.356	-25.49
305.571	-24.7
305.786	-30.35
306	-51.12
306.215	-30.09
306.43	-61.78
306.644	-48.15
306.859	-25.97
307.074	7.52
307.288	-35.84
307.503	-7.3
307.717	-22.9
307.932	-20.68
308.147	-41.98
308.361	-9.32
308.576	-32.13
308.79	-71
309.005	-66.51
309.219	-37.54
309.434	-27.74
309.648	-29.9
309.863	2.58
310.077	2.36
310.292	-7.14
310.506	-14.62
310.72	7.54
310.935	11.79
311.149	7.78
311.364	36.91
311.578	43.3
311.792	39.45
312.007	30.82
312.221	10.5
312.435	14.61
312.649	-7.01
312.864	13.83
313.078	27.43
313.292	110.11
313.507	66.12
313.721	94.61
313.935	46
314.149	36.5
314.363	22.49
314.578	18.1
314.792	20.35
315.006	-0.37
315.22	16.96
315.434	0.34
315.648	12.3
315.862	3.25
316.077	5.77
316.291	-24.83
316.505	-4.02
316.719	-32.04
316.933	-41.2
317.147	-48.03
317.361	-82.16
317.575	-108.38
317.789	-151.29
318.003	-226.08
318.217	-194.78
318.431	-71.24
318.645	-25.13
318.859	-10.3
319.073	20.84
319.287	12.27
319.5	-28.01
319.714	-69.91
319.928	-93.37
320.142	-117.64
320.356	-48.47
320.57	-17.83
320.784	-32.82
320.997	-21.99
321.211	-16.61
321.425	-88.35
321.639	-111.54
321.853	-36.26
322.066	-28.79
322.28	-16.01
322.494	15.46
322.707	47.1
322.921	18.41
323.135	17.84
323.349	28.7
323.562	-8.34
323.776	-39.89
323.989	-25.19
324.203	-48.46
324.417	-68.72
324.63	-72.82
324.844	-74.37
325.057	-77.37
325.271	-44.72
325.485	-14.85
325.698	10.17
325.912	41.67
326.125	23.81
326.339	28.22
326.552	15.77
326.766	3.6
326.979	6.47
327.193	33.36
327.406	11.67
327.619	-6.78
327.833	17.78
328.046	-20.01
328.26	-57.5
328.473	-35.2
328.686	-40.67
328.9	-33
329.113	-18.13
329.326	-31.19
329.54	-33.11
329.753	-67.35
329.966	-113.61
330.179	-69.51
330.393	-31.71
330.606	-16.72
330.819	20.39
331.032	39.41
331.246	30.04
331.459	58.44
331.672	50.85
331.885	24.59
332.098	-11.64
332.311	-21.99
332.525	-94.48
332.738	-79.64
332.951	-15.39
333.164	19.91
333.377	39.29
333.59	55.95
333.803	58.09
334.016	35.4
334.229	32.18
334.442	30.78
334.655	45.85
334.868	47.55
335.081	43.83
335.294	29.68
335.507	10.44
335.72	0.07
335.933	-21.44
336.146	-38.73
336.359	-33.14
336.572	-55.03
336.785	-91.19
336.997	-72.5
337.21	-34.27
337.423	-48.39
337.636	-34.57
337.849	-14.96
338.062	-21.82
338.274	-24.99
338.487	-35.4
338.7	-31.33
338.913	-63.71
339.125	-76.26
339.338	-124.93
339.551	-70
339.763	-45.33
339.976	-10.37
340.189	14.06
340.402	28.56
340.614	3.36
340.827	-16.08
341.039	-43.64
341.252	-59.7
341.465	-37.26
341.677	-42.19
341.89	-72.5
342.102	-32.59
342.315	-46.31
342.527	-88.89
342.74	-74.66
342.952	-33.51
343.165	-30.52
343.377	0.69
343.59	3.46
343.802	22.98
344.015	16.84
344.227	29.94
344.44	18.91
344.652	22.36
344.864	-4.84
345.077	16.57
345.289	8.77
345.502	14.91
345.714	0.72
345.926	11.96
346.139	0.45
346.351	12.93
346.563	15.88
346.775	23.4
346.988	14.86
347.2	11.92
347.412	-42.49
347.624	-74.81
347.837	-90.51
348.049	-63.13
348.261	-12.63
348.473	2.31
348.685	10.3
348.897	9.33
349.11	-7.64
349.322	-47.64
349.534	-34.56
349.746	-28.38
349.958	-23.04
350.17	-45.37
350.382	-27.97
350.594	-31.49
350.806	-42.48
351.018	-38.41
351.23	-33.61
351.442	-79.82
351.654	-81.68
351.866	-62.57
352.078	-45.17
352.29	-25.95
352.502	-8.64
352.714	1.08
352.926	-13.28
353.138	-12.13
353.35	-21.73
353.561	-16.2
353.773	-41.42
353.985	-25.7
354.197	-34.79
354.409	-33.94
354.621	-42.47
354.832	-25.33
355.044	-30.61
355.256	-38.03
355.468	-23.15
355.679	-30.43
355.891	-22.09
356.103	-34.44
356.314	-22.79
356.526	-26.57
356.738	0.26
356.949	-13.52
357.161	2.74
357.373	5.55
357.584	-6.67
357.796	-5.06
358.008	-9.64
358.219	6.68
358.431	1.81
358.642	16.34
358.854	9.22
359.065	-0.25
359.277	-38.28
359.488	-53.9
359.7	-87.19
359.911	-100.74
360.123	-64.82
360.334	-77.26
360.546	-100.59
360.757	-101.49
360.969	-83.11
361.18	-85.75
361.391	-41.18
361.603	-38.73
361.814	-27.83
362.025	-43.69
362.237	-40.84
362.448	-47.48
362.659	-7.85
362.871	-7.9
363.082	8.33
363.293	8.25
363.504	2.67
363.716	-39.72
363.927	-44.63
364.138	-88.36
364.349	-104.95
364.56	-82.52
364.772	-59.83
364.983	-30.13
365.194	-20.18
365.405	-2.09
365.616	9.15
365.827	11.48
366.038	-16.84
366.25	-15.23
366.461	-70.98
366.672	-55.76
366.883	-31.99
367.094	-16.79
367.305	-26.08
367.516	-10.37
367.727	-43.74
367.938	-62.84
368.149	-66.83
368.36	-39.93
368.571	-22.55
368.781	-21.26
368.992	-34.7
369.203	-44.94
369.414	-71.07
369.625	-84.38
369.836	-70.02
370.047	-87.08
370.258	-59.4
370.468	-56.96
370.679	-71.13
370.89	-69.57
371.101	-43.48
371.312	-64.61
371.522	-60.31
371.733	-35.3
371.944	-23.92
372.155	-13.82
372.365	-15.99
372.576	-16.38
372.787	-35.59
372.997	-52.98
373.208	-56.92
373.419	-20.09
373.629	-40.72
373.84	-26.87
374.05	-46.23
374.261	-32.21
374.472	-68.95
374.682	-13.66
374.893	-13.28
375.103	20.01
375.314	7.08
375.524	10.44
375.735	0.05
375.945	9.48
376.156	-14.12
376.366	-3.73
376.577	0.5
376.787	-20.17
376.997	-24.11
377.208	-31.14
377.418	-54.31
377.629	-36.49
377.839	-27.67
378.049	-26.38
378.26	-2.43
378.47	11.22
378.68	-5.77
378.89	-6.49
379.101	-7.35
379.311	-25.75
379.521	-51.68
379.732	-45.54
379.942	-37.51
380.152	-63.24
380.362	-36
380.572	-29.85
380.783	-9.68
380.993	-2.72
381.203	7.84
381.413	9.19
381.623	13.01
381.833	3.58
382.043	-12.7
382.253	-22.38
382.463	-20.1
382.674	-34.01
382.884	-53.69
383.094	-37.19
383.304	-22.97
383.514	-18.95
383.724	4.06
383.934	5.04
384.144	-9.18
384.353	-13.89
384.563	-18.51
384.773	-24.24
384.983	-32.47
385.193	-15.67
385.403	-7.27
385.613	-7.86
385.823	-22.05
386.033	-8.52
386.242	-17.16
386.452	-25.56
386.662	-34.23
386.872	-19.23
387.082	-25.57
387.291	-34.82
387.501	-37.17
387.711	-23.73
387.921	-30.42
388.13	-27.97
388.34	-9.22
388.55	-11.62
388.759	-14.59
388.969	-4.23
389.179	-6.07
389.388	-13.54
389.598	-7.49
389.807	-14.14
390.017	-23.95
390.227	-22.42
390.436	-21.03
390.646	-20.74
390.855	-13.42
391.065	-8.61
391.274	-10.18
391.484	-10.13
391.693	-9.53
391.903	-8.12
392.112	-5.13
392.322	-0.02
392.531	3.57
392.74	4.74
392.95	0.59
393.159	-0.81
393.369	-0.98
393.578	-2.43
393.787	-3.21
393.997	-1.96
394.206	-3.1
394.415	-3.52
394.625	-3.18
394.834	-5.75
395.043	-3.92
395.252	-0.74
395.462	1.81
395.671	2.56
395.88	4.09
396.089	4.71
396.298	1.62
396.508	-0.34
396.717	-1.53
396.926	-0.36
397.135	-1.27
397.344	-1.05
397.553	0.35
397.762	2.43
397.971	1.87
398.181	2.07
398.39	2.13
398.599	0.99
398.808	0.38
399.017	1.28
399.226	2.4
399.435	3.59
399.644	3.84
399.853	2.89
400.062	2.45
400.27	2
400.479	1.34
400.688	0.7
400.897	1.18
401.106	1.28
401.315	1.02
401.524	1.05
401.733	1.96
401.941	2.57
402.15	2.54
402.359	2.21
402.568	2.52
402.777	2.57
402.985	2.04
403.194	2.05
403.403	2.17
403.612	1.89
403.82	1.52
404.029	1.79
404.238	1.6
404.446	2
404.655	1.78
404.864	1.76
405.072	1.56
405.281	1.94
405.489	1.54
405.698	1.71
405.906	1.69
406.115	1.8
406.324	1.68
406.532	1.79
406.741	2.14
406.949	2.12
407.158	1.95
407.366	1.88
407.574	1.86
407.783	1.75
407.991	1.62
408.2	1.94
408.408	1.88
408.617	1.77
408.825	1.51
409.033	1.77
409.242	1.73
409.45	1.89
409.658	1.93
409.867	2.19
410.075	1.98
410.283	1.79
410.491	1.6
410.7	1.62
410.908	1.58
411.116	2.01
411.324	1.94
411.533	1.98
411.741	2.13
411.949	2.08
412.157	1.62
412.365	1.73
412.573	1.84
412.781	1.83
412.99	1.71
413.198	2
413.406	2.02
413.614	1.92
413.822	1.78
414.03	1.66
414.238	1.35
414.446	1.37
414.654	1.2
414.862	1.31
415.07	1.52
415.278	2
415.486	1.82
415.694	1.97
415.902	1.86
416.109	1.74
416.317	1.48
416.525	1.38
416.733	1.46
416.941	1.62
417.149	1.6
417.357	1.54
417.564	1.77
417.772	1.89
417.98	1.75
418.188	1.77
418.395	1.86
418.603	1.97
418.811	1.49
419.019	1.37
419.226	1.56
419.434	1.63
419.642	1.31
419.849	1.5
420.057	1.62
420.265	1.55
420.472	1.35
420.68	1.48
420.887	1.31
421.095	1.3
421.302	1.28
421.51	1.55
421.717	1.59
421.925	1.82
422.132	1.75
422.34	1.48
422.547	1.46
422.755	1.38
422.962	1.31
423.17	1.22
423.377	1.39
423.585	1.25
423.792	1.29
423.999	1.32
424.207	1.37
424.414	1.54
424.621	1.55
424.829	1.49
425.036	1.47
425.243	1.54
425.451	1.38
425.658	1.16
425.865	1.36
426.072	1.45
426.28	1.75
426.487	1.8
426.694	2
426.901	1.75
427.108	1.71
427.315	1.45
427.523	1.61
427.73	1.5
427.937	1.42
428.144	1.23
428.351	1.16
428.558	1.2
428.765	1.13
428.972	1.15
429.179	1.36
429.386	1.77
429.593	1.51
429.8	1.44
430.007	1.64
430.214	1.68
430.421	1.28
430.628	1.12
430.835	1.11
431.042	1.28
431.249	1.31
431.456	1.44
431.662	1.6
431.869	1.82
432.076	1.77
432.283	1.82
432.49	1.76
432.697	1.84
432.903	1.61
433.11	1.52
433.317	1.54
433.524	1.75
433.73	1.67
433.937	2.07
434.144	1.95
434.35	1.87
434.557	1.7
434.764	1.67
434.97	1.45
435.177	1.54
435.384	1.52
435.59	1.66
435.797	1.9
436.003	1.98
436.21	2
436.416	1.99
436.623	1.86
436.829	1.89
437.036	1.96
437.242	1.94
437.449	1.84
437.655	1.88
437.862	1.77
438.068	1.6
438.275	1.75
438.481	1.99
438.687	1.95
438.894	1.92
439.1	1.97
439.307	2.09
439.513	2
439.719	2.07
439.926	2.13
440.132	2.11
440.338	1.91
440.544	2.05
440.751	1.98
440.957	2.07
441.163	1.98
441.369	2.04
441.575	1.8
441.782	1.75
441.988	1.52
442.194	1.62
442.4	1.65
442.606	1.96
442.812	2.06
443.018	2.33
443.224	2.41
443.431	2.5
443.637	2.22
443.843	2.16
444.049	2.07
444.255	1.99
444.461	1.92
444.667	1.93
444.873	2.11
445.079	2.1
445.284	2.18
445.49	2
445.696	1.96
445.902	1.78
446.108	1.73
446.314	1.69
446.52	1.76
446.726	2.01
446.931	1.97
447.137	2
447.343	1.95
447.549	1.91
447.755	1.73
447.96	1.86
448.166	1.82
448.372	1.8
448.578	1.87
448.783	1.92
448.989	1.9
449.195	2.15
449.4	2.26
449.606	2.19
449.812	2.05
450.017	2.07
450.223	1.87
450.428	1.75
450.634	1.93
450.84	2.2
451.045	2.16
451.251	2.11
451.456	2.41
451.662	2.48
451.867	2.5
452.073	2.46
452.278	2.63
452.483	2.56
452.689	2.36
452.894	2.33
453.1	2.41
453.305	2.31
453.51	2.23
453.716	2.17
453.921	2.11
454.127	2
454.332	1.96
454.537	1.87
454.742	1.97
454.948	1.98
455.153	2.08
455.358	2.2
455.563	2.4
455.769	2.46
455.974	2.45
456.179	2.35
456.384	2.28
456.589	2.16
456.795	1.98
457	1.95
457.205	2.27
457.41	2.26
457.615	2.23
457.82	2.4
458.025	2.41
458.23	2.13
458.435	2.16
458.64	2.14
458.845	2.16
459.05	2.13
