Data from Ofra_PS_T2_2A_4HS15_Reflection_3.txt Node
Date: Wed Jul 21 17:14:09 EDT 2021
User: Adam
Spectrometer: FLMT01687
Trigger mode: 0
Integration Time (sec): 1.100000E0
Scans to average: 2
Electric dark correction enabled: true
Nonlinearity correction enabled: false
Boxcar width: 2
XAxis mode: Wavelengths
Number of Pixels in Spectrum: 3648
>>>>>Begin Spectral Data<<<<<
179.494	413.6
179.716	496.47
179.937	487.9
180.158	479
180.38	678.12
180.601	238.12
180.823	106.39
181.044	-45.97
181.265	162.5
181.486	81.77
181.708	103
181.929	377.55
182.15	-197.18
182.372	181.76
182.593	1.39
182.814	22.38
183.035	74.26
183.257	83.74
183.478	12.98
183.699	84.26
183.92	33.24
184.141	30.01
184.363	-47.87
184.584	-20.59
184.805	-28.23
185.026	-11.7
185.247	-4.26
185.468	-3.72
185.689	0.08
185.91	9.52
186.132	22.15
186.353	13.16
186.574	62.43
186.795	44.57
187.016	0.43
187.237	-13.93
187.458	-62.96
187.679	-74.44
187.9	-55.86
188.121	-22.43
188.342	-23.78
188.563	54.44
188.784	79.78
189.005	83.87
189.226	107.5
189.447	51.92
189.667	-222.33
189.888	-398.52
190.109	-1697.4
190.33	-912.9
190.551	-1307.96
190.772	-281.6
190.993	-342
191.214	-204.8
191.434	-161.28
191.655	-46.26
191.876	-93.61
192.097	-63.29
192.318	-151.64
192.538	-232.84
192.759	-214.13
192.98	-135.81
193.201	-62
193.421	-35.26
193.642	3.98
193.863	18.32
194.083	-0.13
194.304	-27.91
194.525	-20.27
194.745	-39.87
194.966	-48.6
195.187	-43.51
195.407	-55.38
195.628	-154.06
195.848	-151.56
196.069	-144.74
196.29	-77.48
196.51	-77.98
196.731	-46.49
196.951	-37.15
197.172	-73.59
197.392	-123.75
197.613	-123.05
197.833	-150.61
198.054	-153.76
198.274	-100.96
198.495	-106.59
198.715	-71.15
198.936	-99.72
199.156	-86.65
199.377	-177.37
199.597	-164.14
199.817	-175.95
200.038	-91.44
200.258	-181.85
200.479	-112.47
200.699	-134.98
200.919	-77.58
201.14	-102.08
201.36	-83.43
201.58	-15.68
201.801	22.09
202.021	1.01
202.241	15.31
202.461	11.25
202.682	-85.09
202.902	-159.84
203.122	-94.04
203.342	-84.67
203.563	-24.35
203.783	18.56
204.003	-27.72
204.223	-75.69
204.443	-4.56
204.663	-77.83
204.884	-62.85
205.104	-15.13
205.324	34.84
205.544	22.28
205.764	37.57
205.984	30.68
206.204	36.46
206.424	29.16
206.644	-32.02
206.864	2.46
207.084	-47.48
207.304	-44.41
207.525	-246.25
207.745	-109.57
207.964	-85.17
208.184	-92.83
208.404	-127.14
208.624	-89.32
208.844	-97.45
209.064	-371.66
209.284	-442.75
209.504	-239.02
209.724	-88.3
209.944	-60.4
210.164	-17.34
210.384	8.32
210.604	-3.16
210.823	-70.21
211.043	-75.17
211.263	-66.43
211.483	-80.03
211.703	-131.31
211.922	-92.03
212.142	-35.07
212.362	-24.02
212.582	-27.28
212.801	-2.09
213.021	-40.77
213.241	-48.22
213.461	-81.58
213.68	-103.71
213.9	-92.34
214.12	-45.71
214.339	-104.34
214.559	-84.75
214.779	-17.27
214.998	-14.29
215.218	-71.49
215.438	-54.85
215.657	-54.81
215.877	-75.4
216.096	-35.19
216.316	-17.22
216.535	-21.72
216.755	-16.76
216.974	-106.97
217.194	-197.27
217.413	-189.69
217.633	-219.67
217.852	-395.39
218.072	-183.71
218.291	-117.06
218.511	-56.49
218.73	-60.48
218.95	-37.8
219.169	-36.49
219.389	-64.33
219.608	-60.08
219.827	-46.89
220.047	-42.1
220.266	-30.05
220.485	-36.25
220.705	-26.86
220.924	-59.74
221.143	-16.95
221.363	-40.2
221.582	-23.77
221.801	-47.56
222.021	-11
222.24	-90.78
222.459	-13.25
222.678	-11.82
222.897	4.91
223.117	-14.65
223.336	-21.68
223.555	-44.38
223.774	-20.9
223.993	-27.68
224.213	9.6
224.432	-9
224.651	24
224.87	8.82
225.089	17.42
225.308	6.89
225.527	39.89
225.746	26.28
225.965	3.09
226.184	-22.98
226.404	-4.18
226.623	-43.94
226.842	-28.68
227.061	1.39
227.28	10.48
227.499	-16.59
227.718	14.07
227.936	-5.64
228.155	3.09
228.374	-15.22
228.593	5.81
228.812	-31.32
229.031	-25.63
229.25	-87.35
229.469	-90.56
229.688	-84.67
229.907	-20.26
230.125	-6.15
230.344	9.71
230.563	23.53
230.782	36.16
231.001	-36.5
231.22	-51.01
231.438	-15.05
231.657	-13.48
231.876	-27.8
232.095	9.52
232.313	32.22
232.532	6.26
232.751	-31.2
232.969	-40.71
233.188	-96.49
233.407	-42.09
233.625	-26.87
233.844	-21.83
234.063	-27.32
234.281	-0.31
234.5	-19.91
234.719	-19.99
234.937	-10.83
235.156	7.41
235.374	13.09
235.593	4.99
235.811	13.83
236.03	1.59
236.249	-51.24
236.467	-51.55
236.686	-15.58
236.904	0.89
237.123	-21.23
237.341	-5.52
237.559	-11.04
237.778	-24.46
237.996	-61.75
238.215	0.06
238.433	9.47
238.652	21.38
238.87	-2.28
239.088	11.12
239.307	-13.35
239.525	-29.28
239.743	-59.62
239.962	-39.74
240.18	-74.43
240.398	-96.52
240.617	-80.4
240.835	-64.69
241.053	-45.38
241.271	4.62
241.49	19
241.708	-26.94
241.926	-37.61
242.144	-31.56
242.363	-57.55
242.581	-82.39
242.799	-41.84
243.017	-22.59
243.235	-49.47
243.453	-35.51
243.672	-24.91
243.89	-27.86
244.108	-33.19
244.326	-7.21
244.544	-23.02
244.762	-26.86
244.98	-4.85
245.198	0.48
245.416	-29.61
245.634	-23.7
245.852	-40.72
246.07	-72.29
246.288	-88.98
246.506	-120.02
246.724	-92.03
246.942	-88.08
247.16	-43.67
247.378	-25.06
247.596	-5.77
247.814	-17.12
248.032	-41.57
248.25	-52.67
248.468	-32.78
248.685	-27.09
248.903	0.22
249.121	-0.11
249.339	-25.09
249.557	-42.99
249.775	-26.42
249.992	-98.49
250.21	-72.78
250.428	-50.82
250.646	-73.9
250.863	-108.46
251.081	-55.21
251.299	-42.25
251.517	-47.7
251.734	-41.37
251.952	-20.41
252.17	-24.96
252.387	-16.34
252.605	-20.21
252.823	-11.75
253.04	4.84
253.258	18.11
253.475	17.42
253.693	33.9
253.911	23.52
254.128	19.37
254.346	26.59
254.563	5.02
254.781	-22.65
254.998	-33.69
255.216	-26.9
255.433	-15.57
255.651	19.94
255.868	61.47
256.086	72.94
256.303	32.06
256.521	12.8
256.738	-2.64
256.956	-33.17
257.173	-52.75
257.39	-57.73
257.608	-90.17
257.825	-27.22
258.043	11.84
258.26	22.56
258.477	64.95
258.695	68.53
258.912	4
259.129	1.14
259.346	-35.87
259.564	-75.1
259.781	-111.54
259.998	-31.3
260.216	-12.09
260.433	45.01
260.65	32.78
260.867	57.28
261.084	23.44
261.302	12.61
261.519	-23.21
261.736	-49.39
261.953	-59.6
262.17	-24.19
262.387	-74.91
262.604	-107.24
262.822	-102.8
263.039	-101.03
263.256	-168.94
263.473	-95.53
263.69	-56.88
263.907	-1.96
264.124	2.55
264.341	7.36
264.558	-2.23
264.775	11.68
264.992	-13.56
265.209	12.56
265.426	38.5
265.643	40.17
265.86	40.42
266.077	34.55
266.294	2.95
266.51	-67.94
266.727	-79.45
266.944	-67.59
267.161	-74.36
267.378	-78.22
267.595	-23.8
267.812	-42.28
268.028	-70.94
268.245	-16.21
268.462	-41.03
268.679	-62.79
268.896	2.48
269.112	6.02
269.329	-14.79
269.546	-5.99
269.763	-8.99
269.979	-47.24
270.196	-45.97
270.413	-86.21
270.629	-116.26
270.846	-126.25
271.063	-123.99
271.279	-150.04
271.496	-130.36
271.712	-71.41
271.929	-53.64
272.146	-56.61
272.362	-24.18
272.579	27.79
272.795	32.15
273.012	24.33
273.228	26.11
273.445	-11.7
273.661	-60.14
273.878	-101.94
274.094	-70.7
274.311	-98.49
274.527	-5.14
274.744	6.34
274.96	3.05
275.177	-1.6
275.393	18.44
275.609	-9.63
275.826	18.95
276.042	8.11
276.259	-11.71
276.475	4.69
276.691	13.6
276.908	-25.12
277.124	4.16
277.34	19.58
277.557	6.73
277.773	-14.01
277.989	0.06
278.205	-13.11
278.422	-1.29
278.638	3.25
278.854	35.69
279.07	21.91
279.286	14.39
279.503	-7.53
279.719	-21.76
279.935	-68.93
280.151	-72.1
280.367	-52.06
280.583	-90.23
280.799	-65.47
281.016	-88.64
281.232	-35.73
281.448	-37.09
281.664	-1.83
281.88	-39.37
282.096	-8.73
282.312	12.27
282.528	22.27
282.744	5.76
282.96	27.74
283.176	16.48
283.392	-12.87
283.608	-17.98
283.824	-8.39
284.04	2.41
284.256	15.84
284.471	12.67
284.687	11
284.903	31.52
285.119	49.21
285.335	12.72
285.551	11.09
285.767	-7.57
285.982	-19.18
286.198	-74.19
286.414	7.95
286.63	19.7
286.846	46.95
287.061	16.94
287.277	42.83
287.493	0.19
287.709	3.6
287.924	-16.98
288.14	10.86
288.356	9.76
288.571	43.98
288.787	29.68
289.003	25.52
289.218	10.26
289.434	-38.88
289.65	-50.78
289.865	-58.83
290.081	-17.56
290.296	3.94
290.512	13.87
290.727	-8.32
290.943	-10.14
291.159	-30.11
291.374	-45.37
291.59	-68.48
291.805	-58.94
292.021	-46.98
292.236	-60.8
292.451	-36.67
292.667	-14.41
292.882	-0.42
293.098	-7.07
293.313	-15.94
293.529	-50.78
293.744	-65.23
293.959	-75.83
294.175	-58.7
294.39	-16.08
294.605	8.11
294.821	42.85
295.036	47.72
295.251	39.8
295.467	11.89
295.682	-6.06
295.897	-79.54
296.112	-80.6
296.328	-64.22
296.543	-81.89
296.758	-74.69
296.973	-17.92
297.188	17.86
297.404	-0.94
297.619	-9.94
297.834	-18.72
298.049	-41.09
298.264	-72.07
298.479	-17.1
298.694	-10.89
298.909	14.5
299.125	16.51
299.34	32.52
299.555	-3.97
299.77	24.65
299.985	-39.71
300.2	-88.93
300.415	-114.52
300.63	-73.14
300.845	-86.22
301.06	-69.24
301.275	-27.25
301.49	-3.81
301.704	-16
301.919	-43.19
302.134	-47.41
302.349	-51.92
302.564	-132.41
302.779	-185.82
302.994	-128.68
303.209	-92.24
303.423	-59.95
303.638	9.93
303.853	-11.12
304.068	-26.81
304.283	-19.13
304.497	-30.97
304.712	-47.6
304.927	-17.86
305.142	-22.94
305.356	-24.11
305.571	-21.32
305.786	-22.88
306	-58.69
306.215	-43.2
306.43	-61.09
306.644	-56.17
306.859	-22.62
307.074	-0.41
307.288	-39.6
307.503	-41.28
307.717	-37.34
307.932	-34.36
308.147	-38.32
308.361	-2.47
308.576	-15.8
308.79	-57.26
309.005	-66.89
309.219	-70.17
309.434	-98.8
309.648	-87.68
309.863	-57.21
310.077	-50.5
310.292	-41.59
310.506	-23.62
310.72	-3.62
310.935	17.24
311.149	3.4
311.364	22.26
311.578	35.38
311.792	26.55
312.007	20.91
312.221	15.45
312.435	15.15
312.649	-8.93
312.864	32.12
313.078	41.87
313.292	108.43
313.507	87.02
313.721	140.16
313.935	47.29
314.149	9.84
314.363	-11.71
314.578	-12.34
314.792	-15.1
315.006	-34.79
315.22	-4.09
315.434	6.3
315.648	13.71
315.862	12.81
316.077	15.07
316.291	-12.19
316.505	-23.18
316.719	-35.97
316.933	-36.23
317.147	-36.36
317.361	-76.94
317.575	-91.1
317.789	-135.61
318.003	-236.82
318.217	-170.61
318.431	-65.71
318.645	-4.4
318.859	-1.34
319.073	41.15
319.287	25.06
319.5	-2.53
319.714	-56.62
319.928	-82.45
320.142	-137.53
320.356	-84.79
320.57	-36.57
320.784	-50.26
320.997	-46.88
321.211	-33.37
321.425	-91.61
321.639	-124.69
321.853	-39.62
322.066	-9.56
322.28	-15.36
322.494	-3.92
322.707	16.68
322.921	-12.51
323.135	-21.5
323.349	3.51
323.562	-14
323.776	-18.96
323.989	-18.93
324.203	-39.37
324.417	-67.32
324.63	-82.66
324.844	-101
325.057	-92.67
325.271	-53.26
325.485	-16.72
325.698	7.9
325.912	30.4
326.125	3.4
326.339	-3.13
326.552	-25.74
326.766	-27.69
326.979	-16.77
327.193	33.81
327.406	27.24
327.619	18.4
327.833	32.14
328.046	7.31
328.26	-42.77
328.473	-22.13
328.686	-60.75
328.9	-56.91
329.113	-50.77
329.326	-69.21
329.54	-48.47
329.753	-53.25
329.966	-117.99
330.179	-96.19
330.393	-40.31
330.606	-31.79
330.819	0.62
331.032	34.8
331.246	33.73
331.459	48.11
331.672	33.48
331.885	28.12
332.098	-9.22
332.311	-16.49
332.525	-78.93
332.738	-84.57
332.951	-48.76
333.164	3.92
333.377	12.92
333.59	36.24
333.803	43.57
334.016	19.58
334.229	-8.01
334.442	4.15
334.655	15.47
334.868	27.6
335.081	34.69
335.294	29.66
335.507	-5.02
335.72	-18.56
335.933	-36.31
336.146	-45.78
336.359	-47.36
336.572	-66.85
336.785	-92.88
336.997	-76.47
337.21	-49.5
337.423	-48.93
337.636	-40.56
337.849	-18.15
338.062	-25.42
338.274	-41.47
338.487	-59.82
338.7	-36.58
338.913	-81.42
339.125	-110.35
339.338	-167.31
339.551	-116.68
339.763	-82.97
339.976	-45.8
340.189	-4.73
340.402	30.44
340.614	19.41
340.827	6.93
341.039	-11.06
341.252	-23.92
341.465	-11.4
341.677	-14.09
341.89	-68.74
342.102	-24.09
342.315	-46.32
342.527	-69.79
342.74	-64.06
342.952	-18.48
343.165	-24.96
343.377	5.17
343.59	-14.27
343.802	5.67
344.015	9.1
344.227	-4.84
344.44	3.04
344.652	14.52
344.864	-4.7
345.077	13.28
345.289	25.5
345.502	24.17
345.714	11.87
345.926	20.99
346.139	8.71
346.351	14.85
346.563	12.34
346.775	26.46
346.988	8.07
347.2	-2.16
347.412	-53.14
347.624	-70.74
347.837	-98.65
348.049	-73.85
348.261	-34.59
348.473	-15.03
348.685	-18.44
348.897	-11.47
349.11	-24.61
349.322	-36.13
349.534	-16.91
349.746	-19.64
349.958	-10.38
350.17	-5.41
350.382	-2.71
350.594	-17.46
350.806	-3.99
351.018	5.87
351.23	-17.69
351.442	-65.02
351.654	-53.99
351.866	-60.07
352.078	-63.54
352.29	-25.78
352.502	3.36
352.714	4.65
352.926	-2.27
353.138	-2.32
353.35	-9.82
353.561	-12.51
353.773	-34.54
353.985	-23.23
354.197	-32.89
354.409	-42.49
354.621	-44.35
354.832	-24.11
355.044	-30.35
355.256	-23.97
355.468	-10.39
355.679	-23.74
355.891	-8.49
356.103	-20.59
356.314	-25.83
356.526	-38.73
356.738	-32.99
356.949	-57.5
357.161	-33
357.373	-31.36
357.584	-31.73
357.796	-16.67
358.008	-21.88
358.219	0.32
358.431	7.06
358.642	12.64
358.854	20.2
359.065	11.61
359.277	-21.93
359.488	-44.19
359.7	-61.81
359.911	-92.27
360.123	-52.39
360.334	-66.32
360.546	-78.73
360.757	-52.6
360.969	-15.83
361.18	-21.81
361.391	-2.63
361.603	3.65
361.814	16.95
362.025	-12.64
362.237	-23.47
362.448	-0.11
362.659	20.17
362.871	6.22
363.082	10.17
363.293	12.34
363.504	-10.83
363.716	-44.36
363.927	-55.47
364.138	-69.49
364.349	-80.69
364.56	-68.4
364.772	-52.62
364.983	-26.57
365.194	-27.96
365.405	-7.49
365.616	11.27
365.827	6.1
366.038	-17.17
366.25	-19.31
366.461	-55.68
366.672	-40.24
366.883	-10.43
367.094	4.32
367.305	2.7
367.516	11.5
367.727	-21.3
367.938	-42.72
368.149	-47.4
368.36	-22.77
368.571	-16.59
368.781	-26.37
368.992	-40.24
369.203	-65.64
369.414	-100.88
369.625	-114.88
369.836	-101.58
370.047	-121.13
370.258	-95.53
370.468	-92.11
370.679	-105.48
370.89	-93.72
371.101	-64.51
371.312	-69.86
371.522	-55.81
371.733	-38.33
371.944	-25.94
372.155	-15.03
372.365	-23.64
372.576	-27.43
372.787	-33.3
372.997	-61.19
373.208	-58.97
373.419	-19.4
373.629	-60.59
373.84	-53.82
374.05	-67.44
374.261	-68.39
374.472	-101.91
374.682	-33.3
374.893	-39.97
375.103	6.78
375.314	-2.94
375.524	0.16
375.735	7.09
375.945	9.35
376.156	-21.52
376.366	-17.49
376.577	-11.61
376.787	-28.31
376.997	-13.42
377.208	-1
377.418	-6.25
377.629	-0.32
377.839	5.86
378.049	-3.56
378.26	2.69
378.47	10.86
378.68	-1.03
378.89	-11.78
379.101	-12.02
379.311	-45.98
379.521	-71.48
379.732	-77.75
379.942	-68.76
380.152	-93.7
380.362	-54.97
380.572	-46.65
380.783	-21.61
380.993	-9.59
381.203	1.07
381.413	16.19
381.623	16.97
381.833	11.16
382.043	-7.69
382.253	-11.02
382.463	-15.39
382.674	-19.35
382.884	-40.56
383.094	-33.44
383.304	-25.79
383.514	-24.22
383.724	-13.94
383.934	-16.04
384.144	-30.51
384.353	-41.93
384.563	-37.88
384.773	-35.94
384.983	-36.25
385.193	-6.43
385.403	3.33
385.613	-3.16
385.823	-11.52
386.033	-8.02
386.242	-19.49
386.452	-20.31
386.662	-26.67
386.872	-16.64
387.082	-19.42
387.291	-25.32
387.501	-29.69
387.711	-23.23
387.921	-26.2
388.13	-24.89
388.34	-8.87
388.55	-12.19
388.759	-6.8
388.969	-4.13
389.179	-6.07
389.388	-12.12
389.598	-6.35
389.807	-15.88
390.017	-17.19
390.227	-10.95
390.436	-9.78
390.646	-9.63
390.855	-6.04
391.065	-4.03
391.274	-7.27
391.484	-10.16
391.693	-7.03
391.903	-5.54
392.112	-1.93
392.322	1.21
392.531	5.81
392.74	5.5
392.95	1.17
393.159	-1.95
393.369	-1.68
393.578	-3.92
393.787	-5.34
393.997	-3.08
394.206	-3.55
394.415	-4.99
394.625	-5.57
394.834	-5.79
395.043	-3.11
395.252	-0.71
395.462	1.56
395.671	4.31
395.88	4.87
396.089	4.95
396.298	3.09
396.508	2.48
396.717	1.92
396.926	2.05
397.135	1.18
397.344	1.6
397.553	2.86
397.762	3.88
397.971	3.12
398.181	3.48
398.39	2.71
398.599	2.22
398.808	2
399.017	3.95
399.226	4.82
399.435	5.93
399.644	5.63
399.853	4.45
400.062	3.83
400.27	3.01
400.479	2.39
400.688	2.38
400.897	2.92
401.106	2.59
401.315	2.84
401.524	3.29
401.733	3.5
401.941	3.61
402.15	3.81
402.359	3.68
402.568	3.88
402.777	4.14
402.985	4.11
403.194	3.98
403.403	4.2
403.612	3.8
403.82	3.54
404.029	3.68
404.238	3.8
404.446	3.81
404.655	3.79
404.864	3.67
405.072	3.47
405.281	3.57
405.489	3.25
405.698	3.31
405.906	3.39
406.115	3.33
406.324	3.21
406.532	3.48
406.741	3.75
406.949	3.79
407.158	3.82
407.366	3.83
407.574	3.67
407.783	3.65
407.991	3.41
408.2	3.53
408.408	3.42
408.617	3.43
408.825	3.19
409.033	3.31
409.242	3.39
409.45	3.68
409.658	3.59
409.867	3.78
410.075	3.66
410.283	3.47
410.491	3.16
410.7	3.05
410.908	3.02
411.116	3.31
411.324	3.29
411.533	3.28
411.741	3.68
411.949	3.64
412.157	3.36
412.365	3.4
412.573	3.52
412.781	3.44
412.99	3.28
413.198	3.49
413.406	3.56
413.614	3.59
413.822	3.37
414.03	3.35
414.238	3.08
414.446	3.15
414.654	2.83
414.862	3.01
415.07	3.15
415.278	3.34
415.486	3.05
415.694	3.32
415.902	3.21
416.109	3.07
416.317	3.05
416.525	2.94
416.733	2.84
416.941	2.98
417.149	3.06
417.357	3.07
417.564	3.39
417.772	3.49
417.98	3.26
418.188	3.18
418.395	3.2
418.603	3.19
418.811	2.95
419.019	2.99
419.226	3.25
419.434	3.23
419.642	3.07
419.849	3.16
420.057	3.23
420.265	2.98
420.472	2.88
420.68	2.8
420.887	2.75
421.095	2.79
421.302	2.86
421.51	3.01
421.717	3.22
421.925	3.19
422.132	3.01
422.34	2.79
422.547	2.73
422.755	2.52
422.962	2.56
423.17	2.53
423.377	2.59
423.585	2.62
423.792	2.59
423.999	2.63
424.207	2.68
424.414	2.85
424.621	2.76
424.829	2.75
425.036	2.73
425.243	2.8
425.451	2.58
425.658	2.41
425.865	2.65
426.072	2.79
426.28	3.06
426.487	3.01
426.694	3.14
426.901	2.94
427.108	2.72
427.315	2.46
427.523	2.76
427.73	2.74
427.937	2.69
428.144	2.66
428.351	2.65
428.558	2.66
428.765	2.6
428.972	2.56
429.179	2.75
429.386	3.05
429.593	2.86
429.8	2.82
430.007	3.09
430.214	3.01
430.421	2.69
430.628	2.67
430.835	2.53
431.042	2.63
431.249	2.79
431.456	2.82
431.662	2.95
431.869	3.33
432.076	3.35
432.283	3.31
432.49	3.3
432.697	3.29
432.903	3.01
433.11	2.87
433.317	2.98
433.524	3.29
433.73	3.21
433.937	3.52
434.144	3.51
434.35	3.43
434.557	3.15
434.764	3.23
434.97	3.03
435.177	3.13
435.384	3.02
435.59	3.14
435.797	3.37
436.003	3.51
436.21	3.4
436.416	3.54
436.623	3.46
436.829	3.4
437.036	3.44
437.242	3.47
437.449	3.32
437.655	3.45
437.862	3.4
438.068	3.39
438.275	3.54
438.481	3.74
438.687	3.62
438.894	3.62
439.1	3.65
439.307	3.75
439.513	3.7
439.719	3.69
439.926	3.75
440.132	3.68
440.338	3.42
440.544	3.61
440.751	3.67
440.957	3.78
441.163	3.71
441.369	3.92
441.575	3.63
441.782	3.57
441.988	3.4
442.194	3.46
442.4	3.44
442.606	3.77
442.812	3.95
443.018	3.94
443.224	3.94
443.431	3.91
443.637	3.65
443.843	3.54
444.049	3.65
444.255	3.57
444.461	3.66
444.667	3.76
444.873	3.91
445.079	3.86
445.284	3.99
445.49	3.72
445.696	3.55
445.902	3.4
446.108	3.34
446.314	3.31
446.52	3.49
446.726	3.73
446.931	3.82
447.137	3.87
447.343	3.91
447.549	3.82
447.755	3.7
447.96	3.7
448.166	3.69
448.372	3.61
448.578	3.68
448.783	3.61
448.989	3.71
449.195	3.86
449.4	3.85
449.606	3.82
449.812	3.8
450.017	3.75
450.223	3.62
450.428	3.59
450.634	3.74
450.84	3.87
451.045	3.77
451.251	3.72
451.456	3.94
451.662	3.94
451.867	3.96
452.073	4.03
452.278	4.21
452.483	4.31
452.689	4.22
452.894	4.26
453.1	4.24
453.305	4.12
453.51	4.03
453.716	3.95
453.921	3.95
454.127	3.93
454.332	3.93
454.537	3.81
454.742	3.84
454.948	3.86
455.153	3.95
455.358	4.09
455.563	4.32
455.769	4.4
455.974	4.32
456.179	4.14
456.384	4.05
456.589	3.95
456.795	3.81
457	3.82
457.205	4.07
457.41	4.11
457.615	4.08
457.82	4.21
458.025	4.22
458.23	4.1
458.435	4.13
458.64	4.13
