Data from Ofra_1a_PS_1GT42_Reflection_1.txt Node
Date: Tue Jul 20 10:45:13 EDT 2021
User: Adam
Spectrometer: FLMT01687
Trigger mode: 0
Integration Time (sec): 1.004000E0
Scans to average: 2
Electric dark correction enabled: true
Nonlinearity correction enabled: false
Boxcar width: 2
XAxis mode: Wavelengths
Number of Pixels in Spectrum: 3648
>>>>>Begin Spectral Data<<<<<
179.494	-5.58
179.716	-127.48
179.937	423.75
180.158	-967.52
180.38	173.14
180.601	137.46
180.823	50.13
181.044	76.15
181.265	242.24
181.486	41.21
181.708	5.47
181.929	9990.91
182.15	-67
182.372	-599.51
182.593	-171.87
182.814	233.11
183.035	26.48
183.257	55.67
183.478	7.61
183.699	-16.34
183.92	-74.15
184.141	-40.12
184.363	-48.82
184.584	-70.72
184.805	-34.11
185.026	14.84
185.247	19.74
185.468	2.81
185.689	13.37
185.91	-19.56
186.132	-17.91
186.353	-18.97
186.574	-13.46
186.795	-10.7
187.016	35.83
187.237	42.48
187.458	20.56
187.679	-6.2
187.9	7.56
188.121	-19.58
188.342	-11.56
188.563	17.34
188.784	59.48
189.005	51.06
189.226	31.86
189.447	16.07
189.667	9.77
189.888	-9.91
190.109	-33.39
190.33	-9.55
190.551	-5.2
190.772	-52.47
190.993	-59.92
191.214	-61.76
191.434	-89.55
191.655	-107.32
191.876	17.69
192.097	28.51
192.318	40.77
192.538	-12.74
192.759	3.35
192.98	3.92
193.201	-5.63
193.421	-15.96
193.642	9.85
193.863	2.68
194.083	-27.54
194.304	-30.96
194.525	-35.33
194.745	-34.47
194.966	-19.16
195.187	-3.9
195.407	-17.06
195.628	0.43
195.848	-10.91
196.069	-37.3
196.29	-19.35
196.51	-37.03
196.731	-42.66
196.951	-48.36
197.172	-24.77
197.392	-53.49
197.613	-1.38
197.833	-0.12
198.054	16.4
198.274	3.79
198.495	16.43
198.715	8.92
198.936	15.57
199.156	4.78
199.377	4.67
199.597	0.08
199.817	-1.49
200.038	-25.59
200.258	6.44
200.479	15.3
200.699	26.36
200.919	13.96
201.14	29.55
201.36	33.74
201.58	2.17
201.801	-24
202.021	-44.73
202.241	-67.26
202.461	-73.85
202.682	-26.31
202.902	2.6
203.122	21.24
203.342	19.79
203.563	20.12
203.783	-13.58
204.003	-21.81
204.223	-5.21
204.443	-18.08
204.663	-45.95
204.884	3.46
205.104	-17.83
205.324	-25.12
205.544	-27.03
205.764	5.99
205.984	-1.18
206.204	11.76
206.424	-29.29
206.644	-30.21
206.864	-80.11
207.084	-55.6
207.304	-84.86
207.525	-57.45
207.745	-11.14
207.964	-6.24
208.184	9.18
208.404	15.65
208.624	17.23
208.844	-21.07
209.064	-6.24
209.284	-11.47
209.504	-10.23
209.724	1.99
209.944	1.2
210.164	-14.46
210.384	-23.02
210.604	-72.08
210.823	-88.18
211.043	-54.45
211.263	-133.91
211.483	-84.77
211.703	-40.55
211.922	-81.84
212.142	-65.98
212.362	-0.88
212.582	-17.98
212.801	-34.49
213.021	-40.31
213.241	-51.58
213.461	-49.66
213.68	-19.73
213.9	-19.72
214.12	-9.63
214.339	-14.65
214.559	-10.84
214.779	-19.2
214.998	-17.14
215.218	-1.19
215.438	19.33
215.657	-0.56
215.877	-13.29
216.096	15.19
216.316	4.99
216.535	6.17
216.755	-3.69
216.974	-9
217.194	-27.69
217.413	-12.49
217.633	-33.16
217.852	2.68
218.072	8.04
218.291	-11.59
218.511	-16.46
218.73	-25.76
218.95	-43.3
219.169	-43.45
219.389	-19.89
219.608	-29.99
219.827	-11
220.047	-4.64
220.266	-24.35
220.485	-25.63
220.705	5.23
220.924	-11.07
221.143	12.65
221.363	21.09
221.582	23.15
221.801	12.72
222.021	7.25
222.24	-26.79
222.459	-9.7
222.678	1.23
222.897	-6.16
223.117	12.6
223.336	27.18
223.555	22.86
223.774	30.39
223.993	44.55
224.213	64.59
224.432	46.08
224.651	22.56
224.87	8.38
225.089	5.75
225.308	-6.24
225.527	-20.17
225.746	-1.63
225.965	-13.82
226.184	-31.34
226.404	-40.19
226.623	-10.29
226.842	-13.43
227.061	-2.39
227.28	13.67
227.499	19.75
227.718	9.32
227.936	7.51
228.155	9.9
228.374	-3.57
228.593	5.79
228.812	18.64
229.031	27.88
229.25	12.38
229.469	21.21
229.688	17.49
229.907	8.51
230.125	0.07
230.344	0.76
230.563	5.89
230.782	-0.38
231.001	5.38
231.22	2.09
231.438	28.97
231.657	27.19
231.876	30.08
232.095	31.12
232.313	22.36
232.532	11.41
232.751	-0.5
232.969	5.15
233.188	-10
233.407	-0.27
233.625	-1.15
233.844	-4.47
234.063	-11.86
234.281	-6.51
234.5	-4.55
234.719	-8.93
234.937	-15.44
235.156	-29.19
235.374	-13.78
235.593	-2.25
235.811	12.99
236.03	23.82
236.249	31.15
236.467	20.78
236.686	8.99
236.904	1.54
237.123	-11.79
237.341	-7.43
237.559	-19.01
237.778	14.05
237.996	-15.91
238.215	-61.17
238.433	-131.36
238.652	-34.12
238.87	-56.15
239.088	-47.91
239.307	5.94
239.525	11.39
239.743	-4.5
239.962	-20.49
240.18	6.21
240.398	-5.01
240.617	-25.42
240.835	-26.02
241.053	-26.04
241.271	-32.01
241.49	-18.33
241.708	-16.04
241.926	-16.71
242.144	-9.54
242.363	-22.35
242.581	-72.21
242.799	-62.89
243.017	-45.1
243.235	-25.64
243.453	-33.72
243.672	-26.63
243.89	-13.53
244.108	-5.46
244.326	17.26
244.544	28.2
244.762	25.37
244.98	29.92
245.198	23.05
245.416	-2.13
245.634	-12.83
245.852	-32.79
246.07	-30.11
246.288	-18.51
246.506	-4.09
246.724	-0.29
246.942	16.94
247.16	22.29
247.378	19.95
247.596	24.83
247.814	39.64
248.032	38.98
248.25	48.43
248.468	36.44
248.685	24.6
248.903	19.73
249.121	21.99
249.339	6.32
249.557	4.07
249.775	4.6
249.992	1.26
250.21	7.32
250.428	23.87
250.646	20.06
250.863	12.77
251.081	18.77
251.299	5.76
251.517	-10.43
251.734	-8.13
251.952	3.03
252.17	-0.45
252.387	-11.64
252.605	-18.43
252.823	-42.07
253.04	-48.32
253.258	-32.21
253.475	-16.81
253.693	-18.93
253.911	-10.74
254.128	-0.64
254.346	12.88
254.563	17.95
254.781	39.81
254.998	33.95
255.216	-4.58
255.433	-57.06
255.651	-47.76
255.868	-62.45
256.086	-41.98
256.303	-28.17
256.521	-13.71
256.738	-33.56
256.956	-34.15
257.173	-48.2
257.39	-27.36
257.608	-36.02
257.825	-28.44
258.043	-9.5
258.26	-3.51
258.477	-3.7
258.695	-2.36
258.912	-18.02
259.129	-56.9
259.346	-60.49
259.564	-74.79
259.781	-70.55
259.998	-12.21
260.216	12.84
260.433	1.99
260.65	-1.65
260.867	8.04
261.084	-0.83
261.302	0.79
261.519	37.75
261.736	59.21
261.953	45.88
262.17	61
262.387	44.84
262.604	33.54
262.822	34.4
263.039	32.19
263.256	7.76
263.473	-1.41
263.69	-10.09
263.907	-22.91
264.124	-34.28
264.341	-4.62
264.558	15.44
264.775	14.59
264.992	14.66
265.209	-2.79
265.426	-12.83
265.643	-23.71
265.86	-47.73
266.077	-54.03
266.294	-5.69
266.51	12.21
266.727	-1.28
266.944	22.17
267.161	27.9
267.378	25.96
267.595	1.66
267.812	3.58
268.028	-19.28
268.245	-32.77
268.462	-24.08
268.679	-10.61
268.896	6.42
269.112	8.17
269.329	-7.81
269.546	-4.24
269.763	2.63
269.979	-3.92
270.196	4.88
270.413	5.52
270.629	-14.45
270.846	-31.95
271.063	-30.89
271.279	-25.48
271.496	-27.52
271.712	-14.44
271.929	-3.51
272.146	-14.63
272.362	-18.19
272.579	-17.89
272.795	-26.22
273.012	-46.27
273.228	-32.57
273.445	-25.41
273.661	-20.51
273.878	-34.19
274.094	-25.88
274.311	-19.01
274.527	-60.48
274.744	-31
274.96	-0.43
275.177	10.55
275.393	3.56
275.609	17.7
275.826	7.52
276.042	-9.52
276.259	-18.72
276.475	-14.14
276.691	-20.64
276.908	-18.74
277.124	1.19
277.34	9.12
277.557	-6.42
277.773	7.94
277.989	1.41
278.205	-1.63
278.422	-19.56
278.638	-17.46
278.854	-33.79
279.07	-26.15
279.286	-32.37
279.503	-3.99
279.719	4.77
279.935	15.98
280.151	15.92
280.367	14.48
280.583	2.28
280.799	-1
281.016	-29.83
281.232	-30.65
281.448	-41.42
281.664	-20.66
281.88	-15.84
282.096	0.57
282.312	1.66
282.528	14.62
282.744	5.7
282.96	-12.08
283.176	-14.8
283.392	-35.68
283.608	-39.92
283.824	-65.83
284.04	-102.86
284.256	-50.47
284.471	-25.26
284.687	-20.55
284.903	-6.16
285.119	11.97
285.335	14.02
285.551	9.69
285.767	-1.97
285.982	-5.03
286.198	-21.29
286.414	-61.49
286.63	-56.24
286.846	-43.58
287.061	-35.03
287.277	-30.79
287.493	-16.93
287.709	-39.08
287.924	-29.78
288.14	-24.3
288.356	-14.49
288.571	-23.01
288.787	-34.14
289.003	-26
289.218	-34.8
289.434	-29.95
289.65	-9.85
289.865	3.54
290.081	13.64
290.296	15.35
290.512	10.46
290.727	3.51
290.943	3.97
291.159	-3.35
291.374	-19.28
291.59	-14.8
291.805	-22.63
292.021	-20.17
292.236	-29.18
292.451	-17.57
292.667	0.95
292.882	18.17
293.098	8.76
293.313	2.29
293.529	8.39
293.744	-1.46
293.959	5.16
294.175	19.07
294.39	2.59
294.605	4.69
294.821	-0.23
295.036	-9.3
295.251	-4.08
295.467	-4.12
295.682	-5.73
295.897	-11.62
296.112	-9.8
296.328	-6.96
296.543	6.46
296.758	15.73
296.973	10.2
297.188	1.29
297.404	-35.49
297.619	-63.84
297.834	-91.59
298.049	-93.07
298.264	-71.3
298.479	-48.31
298.694	-1.73
298.909	12.26
299.125	14.11
299.34	21.88
299.555	19.19
299.77	24.62
299.985	16.2
300.2	23.93
300.415	23.31
300.63	28.9
300.845	14.2
301.06	19.09
301.275	11.23
301.49	3.26
301.704	1.97
301.919	-5.48
302.134	-16.83
302.349	-6.39
302.564	2.96
302.779	-10.32
302.994	6.02
303.209	11.93
303.423	1.6
303.638	-3.93
303.853	-18
304.068	-26.26
304.283	-28.33
304.497	-37.79
304.712	-37.14
304.927	-13.97
305.142	-7.55
305.356	-10.5
305.571	-5.82
305.786	-4.94
306	-2.1
306.215	-21.01
306.43	-21.96
306.644	-36.01
306.859	-56.21
307.074	-48.32
307.288	-17.35
307.503	7.82
307.717	12.41
307.932	23.66
308.147	21.69
308.361	2.02
308.576	-38.38
308.79	-25.05
309.005	-58.94
309.219	-50.74
309.434	-40.03
309.648	-29.02
309.863	-31.14
310.077	-17.99
310.292	2.11
310.506	-19.79
310.72	-0.71
310.935	14.4
311.149	9.67
311.364	0.08
311.578	18.53
311.792	13.68
312.007	-5.45
312.221	0.62
312.435	-13.79
312.649	2.81
312.864	-39.17
313.078	-49.57
313.292	-54.54
313.507	-57.25
313.721	-80.86
313.935	-49.45
314.149	-20.78
314.363	-18.34
314.578	-20.17
314.792	-36.01
315.006	-51.43
315.22	-67.29
315.434	-62.22
315.648	-51.9
315.862	-25.69
316.077	-16.02
316.291	-9.96
316.505	-19.6
316.719	-17.84
316.933	-21.52
317.147	-19.55
317.361	-33.37
317.575	-13.76
317.789	-26.76
318.003	-18.5
318.217	-14.62
318.431	-20.72
318.645	-8.83
318.859	4.88
319.073	8.38
319.287	8.26
319.5	24.09
319.714	12.3
319.928	11.88
320.142	6.54
320.356	-3.28
320.57	-24.3
320.784	-17.76
320.997	-34.51
321.211	-17.73
321.425	-17.13
321.639	-7.99
321.853	6.37
322.066	15.75
322.28	3.22
322.494	15.5
322.707	19.17
322.921	-6.1
323.135	-12.63
323.349	-13.72
323.562	-11.29
323.776	-17.1
323.989	2.34
324.203	-8.54
324.417	3.39
324.63	-19.21
324.844	-19.9
325.057	-48.46
325.271	-33.18
325.485	-43.66
325.698	-19.18
325.912	-5.4
326.125	8.86
326.339	10.62
326.552	2.96
326.766	-2.51
326.979	-8.76
327.193	-5.93
327.406	-28.65
327.619	-16.9
327.833	-30.84
328.046	-25.95
328.26	-36.36
328.473	-16.95
328.686	-19.85
328.9	-5.44
329.113	-10.95
329.326	-4.64
329.54	4.13
329.753	13.57
329.966	9.22
330.179	20.5
330.393	15.47
330.606	7.49
330.819	-13.07
331.032	-18.89
331.246	-18.81
331.459	-20.4
331.672	-23.66
331.885	-22.09
332.098	-10.95
332.311	-22.24
332.525	-2.32
332.738	-11.3
332.951	-11.14
333.164	-13.7
333.377	-17.68
333.59	-35.32
333.803	-28.74
334.016	-19.96
334.229	-17.07
334.442	-6.76
334.655	-0.99
334.868	-2.65
335.081	-9.93
335.294	-22.97
335.507	-16.06
335.72	-13.59
335.933	-12.51
336.146	-5.45
336.359	12.11
336.572	11.06
336.785	1.91
336.997	-7.81
337.21	-11.04
337.423	-31.49
337.636	-27.68
337.849	-16.01
338.062	0.06
338.274	14.12
338.487	-5.37
338.7	-24.24
338.913	-26.34
339.125	-53.45
339.338	-67.24
339.551	-42.55
339.763	-34.47
339.976	-25.6
340.189	-25.48
340.402	-13.72
340.614	-11.64
340.827	-5.01
341.039	-3.72
341.252	-1.22
341.465	-8.44
341.677	-8.35
341.89	-15.86
342.102	-14.93
342.315	-3.63
342.527	6.24
342.74	-7.5
342.952	1.82
343.165	-11.6
343.377	-4.11
343.59	1.35
343.802	9.8
344.015	8.6
344.227	15.7
344.44	-2.21
344.652	7.77
344.864	13.81
345.077	20.49
345.289	20.43
345.502	34.6
345.714	5.78
345.926	4.19
346.139	-0.87
346.351	5.35
346.563	8.1
346.775	27.28
346.988	30.18
347.2	19.59
347.412	18.01
347.624	12.69
347.837	1.01
348.049	-9.56
348.261	-9.05
348.473	-20.92
348.685	-22.88
348.897	-21.66
349.11	-16.01
349.322	-0.53
349.534	-0.09
349.746	-2.57
349.958	-4.37
350.17	-10.11
350.382	-29.97
350.594	-29.81
350.806	-6.54
351.018	0.87
351.23	17.14
351.442	26.94
351.654	30.27
351.866	13.39
352.078	19.7
352.29	8.34
352.502	3.95
352.714	-10.17
352.926	-7.59
353.138	-12.15
353.35	-28.95
353.561	-23.59
353.773	-15.34
353.985	-9.72
354.197	-5.69
354.409	2.01
354.621	-18.61
354.832	-18.6
355.044	-41.92
355.256	-56.61
355.468	-66.98
355.679	-21.55
355.891	-18.63
356.103	-11.56
356.314	-14.25
356.526	-23.41
356.738	-37.72
356.949	-41.74
357.161	-28.73
357.373	-21.62
357.584	-4
357.796	6.65
358.008	15.01
358.219	9.47
358.431	6.53
358.642	10
358.854	6.1
359.065	-9.29
359.277	-1.4
359.488	-4.32
359.7	-2.81
359.911	-18.88
360.123	-2.38
360.334	-0.38
360.546	-2.72
360.757	-14.63
360.969	-11.63
361.18	-11.9
361.391	-10.63
361.603	-6.34
361.814	9.85
362.025	14.35
362.237	7.15
362.448	7.36
362.659	1.08
362.871	-30.17
363.082	-23.32
363.293	-15.08
363.504	-31.25
363.716	-27.31
363.927	9.11
364.138	-25.06
364.349	-32.98
364.56	-37.7
364.772	-9.73
364.983	-15.24
365.194	6.63
365.405	11.91
365.616	19.14
365.827	4.01
366.038	11.11
366.25	13.23
366.461	13.9
366.672	9.3
366.883	2.45
367.094	-14.03
367.305	-20.93
367.516	-25.65
367.727	-28.5
367.938	-22.5
368.149	-17.28
368.36	-26.71
368.571	-48.62
368.781	-49.92
368.992	-37.36
369.203	-39.14
369.414	-37.08
369.625	-35.62
369.836	-5.82
370.047	-12.9
370.258	-0.97
370.468	-6.16
370.679	9.81
370.89	-2.08
371.101	-4.42
371.312	-14.58
371.522	1.43
371.733	-11.78
371.944	-26.28
372.155	-21.29
372.365	-8.03
372.576	-24.44
372.787	-8.06
372.997	-5.99
373.208	-9.68
373.419	-21.21
373.629	-12.6
373.84	-17.05
374.05	-13.65
374.261	-19.12
374.472	-13.02
374.682	-8.57
374.893	-16.81
375.103	-10.1
375.314	0.59
375.524	-1.77
375.735	2.41
375.945	8.2
376.156	0.28
376.366	-3.72
376.577	8.45
376.787	9.37
376.997	4.54
377.208	8.97
377.418	7.6
377.629	8.07
377.839	9.3
378.049	17.76
378.26	8.21
378.47	9.31
378.68	0.05
378.89	-2.5
379.101	2.74
379.311	8.79
379.521	0.45
379.732	4.17
379.942	4.27
380.152	-19.93
380.362	-11.68
380.572	7.77
380.783	7.24
380.993	9.95
381.203	22.41
381.413	19.95
381.623	15.3
381.833	10.89
382.043	-1.8
382.253	-2.8
382.463	7.75
382.674	5.65
382.884	12.63
383.094	16.04
383.304	17.04
383.514	6.73
383.724	1.46
383.934	-3.92
384.144	2.04
384.353	3.67
384.563	8.72
384.773	12.9
384.983	10.02
385.193	0.75
385.403	1.58
385.613	-0.82
385.823	0.47
386.033	0.88
386.242	2.61
386.452	-2.29
386.662	0.88
386.872	-0.45
387.082	-2.62
387.291	-6.62
387.501	-3.97
387.711	-4.83
387.921	-1.89
388.13	2.89
388.34	6.15
388.55	-0.59
388.759	-7.69
388.969	-13.25
389.179	-11.13
389.388	-8.89
389.598	-8.7
389.807	-9.8
390.017	-7.63
390.227	-14.05
390.436	-10.61
390.646	-5.22
390.855	-0.45
391.065	2.05
391.274	5.05
391.484	2.69
391.693	0.57
391.903	0.65
392.112	-0.71
392.322	-2.75
392.531	-2.14
392.74	-4.06
392.95	-3.2
393.159	-2.77
393.369	-1
393.578	-2.25
393.787	-0.74
393.997	-0.62
394.206	-1.38
394.415	-0.87
394.625	0.17
394.834	0.71
395.043	0.81
395.252	3.62
395.462	3.46
395.671	3.92
395.88	4.54
396.089	4.49
396.298	3.39
396.508	3.16
396.717	2.5
396.926	1.89
397.135	1.89
397.344	1.67
397.553	1.26
397.762	2.33
397.971	2.17
398.181	1.57
398.39	0.67
398.599	1.87
398.808	1.56
399.017	2.02
399.226	1.9
399.435	2.4
399.644	2.3
399.853	2.72
400.062	2.7
400.27	2.89
400.479	3.25
400.688	3.09
400.897	2.5
401.106	2.41
401.315	2.55
401.524	2.36
401.733	2.02
401.941	2.37
402.15	2.42
402.359	2.49
402.568	2.46
402.777	2.71
402.985	2.24
403.194	2.29
403.403	2.31
403.612	2.25
403.82	2.12
404.029	2.29
404.238	2.39
404.446	2.48
404.655	2.62
404.864	2.61
405.072	2.63
405.281	2.52
405.489	2.44
405.698	2.63
405.906	2.78
406.115	2.65
406.324	2.62
406.532	2.81
406.741	2.67
406.949	2.6
407.158	2.85
407.366	2.71
407.574	2.63
407.783	2.69
407.991	2.63
408.2	2.61
408.408	2.66
408.617	2.46
408.825	2.28
409.033	2.36
409.242	2.32
409.45	2.32
409.658	2.41
409.867	2.45
410.075	2.51
410.283	2.46
410.491	2.39
410.7	2.27
410.908	2.42
411.116	2.45
411.324	2.43
411.533	2.44
411.741	2.55
411.949	2.4
412.157	2.26
412.365	2.28
412.573	2.45
412.781	2.34
412.99	2.27
413.198	2.38
413.406	2.45
413.614	2.44
413.822	2.58
414.03	2.64
414.238	2.62
414.446	2.55
414.654	2.43
414.862	2.28
415.07	2.19
415.278	2.13
415.486	2.04
415.694	2.06
415.902	2.16
416.109	2.16
416.317	2.19
416.525	2.17
416.733	2.12
416.941	2.02
417.149	2
417.357	1.99
417.564	2.02
417.772	2.14
417.98	2.34
418.188	2.35
418.395	2.18
418.603	2.14
418.811	2.04
419.019	1.84
419.226	1.89
419.434	1.88
419.642	1.77
419.849	1.78
420.057	1.91
420.265	1.87
420.472	1.96
420.68	2.05
420.887	1.98
421.095	1.94
421.302	2.05
421.51	2
421.717	2.07
421.925	2.08
422.132	2.13
422.34	1.94
422.547	1.77
422.755	1.83
422.962	1.89
423.17	1.53
423.377	1.61
423.585	1.83
423.792	1.84
423.999	1.88
424.207	2.01
424.414	2.09
424.621	2.21
424.829	2.24
425.036	2.21
425.243	2.37
425.451	2.34
425.658	2.14
425.865	2.08
426.072	2.01
426.28	2.09
426.487	1.97
426.694	1.9
426.901	1.9
427.108	1.92
427.315	1.79
427.523	1.87
427.73	2.1
427.937	1.96
428.144	1.92
428.351	1.9
428.558	2.04
428.765	1.91
428.972	1.97
429.179	1.83
429.386	1.89
429.593	1.74
429.8	1.75
430.007	1.8
430.214	2.09
430.421	2.19
430.628	2.25
430.835	2.22
431.042	2.19
431.249	2.08
431.456	1.98
431.662	2.08
431.869	2.26
432.076	2.34
432.283	2.52
432.49	2.48
432.697	2.39
432.903	2.37
433.11	2.41
433.317	2.37
433.524	2.41
433.73	2.38
433.937	2.44
434.144	2.26
434.35	2.25
434.557	2.34
434.764	2.35
434.97	2.17
435.177	2.41
435.384	2.36
435.59	2.32
435.797	2.45
436.003	2.5
436.21	2.43
436.416	2.58
436.623	2.55
436.829	2.52
437.036	2.57
437.242	2.58
437.449	2.65
437.655	2.68
437.862	2.67
438.068	2.57
438.275	2.68
438.481	2.53
438.687	2.52
438.894	2.6
439.1	2.7
439.307	2.75
439.513	2.78
439.719	2.93
439.926	3.02
440.132	3.08
440.338	3.02
440.544	3.09
440.751	2.94
440.957	2.85
441.163	2.78
441.369	2.74
441.575	2.63
441.782	2.74
441.988	2.76
442.194	2.69
442.4	2.72
442.606	2.82
442.812	2.83
443.018	2.82
443.224	3.02
443.431	2.97
443.637	2.93
443.843	2.93
444.049	2.99
444.255	2.98
444.461	2.95
444.667	2.96
444.873	2.92
445.079	2.84
445.284	2.77
445.49	2.74
445.696	2.73
445.902	2.74
446.108	2.84
446.314	2.84
446.52	3
446.726	3.09
446.931	3.04
447.137	3.01
447.343	3.15
447.549	3.15
447.755	3.08
447.96	3.2
448.166	3.21
448.372	3.06
448.578	2.98
448.783	3.03
448.989	3.03
449.195	3.05
449.4	3.25
449.606	3.26
449.812	3.2
450.017	3.17
450.223	3.11
450.428	3.02
450.634	3.05
450.84	3.06
451.045	3.12
451.251	3.19
451.456	3.18
451.662	3.24
451.867	3.31
452.073	3.27
452.278	3.23
452.483	3.19
452.689	3.16
452.894	3.28
453.1	3.28
453.305	3.39
453.51	3.5
453.716	3.44
453.921	3.31
454.127	3.32
454.332	3.23
454.537	3.2
454.742	3.22
454.948	3.17
455.153	3.19
455.358	3.21
455.563	3.3
455.769	3.29
455.974	3.29
456.179	3.23
456.384	3.25
456.589	3.05
456.795	3.11
457	3.18
457.205	3.19
457.41	3.2
457.615	3.26
457.82	3.25
458.025	3.33
458.23	3.36
458.435	3.4
458.64	3.51
458.845	3.6
459.05	3.48
459.255	3.44
459.46	3.43
459.665	3.36
459.87	3.26
460.075	3.39
460.28	3.5
460.485	3.48
460.69	3.47
460.895	3.55
461.099	3.42
461.304	3.25
461.509	3.22
461.714	3.34
461.919	3.34
462.123	3.39
462.328	3.43
462.533	3.43
462.738	3.33
462.942	3.27
463.147	3.33
463.352	3.49
463.556	3.58
463.761	3.53
463.966	3.52
464.17	3.59
