Data from Ofra_1a_PS_OGT14_Reflection_1.txt Node
Date: Tue Jul 20 10:41:20 EDT 2021
User: Adam
Spectrometer: FLMT01687
Trigger mode: 0
Integration Time (sec): 1.004000E0
Scans to average: 2
Electric dark correction enabled: true
Nonlinearity correction enabled: false
Boxcar width: 2
XAxis mode: Wavelengths
Number of Pixels in Spectrum: 3648
>>>>>Begin Spectral Data<<<<<
179.494	-285.28
179.716	-332.82
179.937	723.08
180.158	-765.61
180.38	177.35
180.601	131.75
180.823	121.79
181.044	-85.54
181.265	-300.24
181.486	256.32
181.708	169.39
181.929	-13618.18
182.15	-178
182.372	828.57
182.593	338.16
182.814	-63.5
183.035	-10.7
183.257	21.53
183.478	-5.14
183.699	-22.98
183.92	-64.76
184.141	-59.76
184.363	-14.08
184.584	-5.66
184.805	-3.55
185.026	34.89
185.247	24.15
185.468	4.01
185.689	1.68
185.91	-19.43
186.132	-16.94
186.353	9.49
186.574	30.46
186.795	21.06
187.016	51.93
187.237	52.48
187.458	15.64
187.679	-0.05
187.9	48.46
188.121	52.31
188.342	70.02
188.563	105.97
188.784	102.51
189.005	72.84
189.226	67.48
189.447	52.9
189.667	44.07
189.888	14.45
190.109	2.81
190.33	0.43
190.551	2.5
190.772	-2.37
190.993	12.02
191.214	5.63
191.434	20.82
191.655	17.72
191.876	48.63
192.097	63.19
192.318	58.06
192.538	27.09
192.759	20.19
192.98	5.22
193.201	-11.43
193.421	-14.44
193.642	-6.14
193.863	-3
194.083	4.29
194.304	22.11
194.525	28.31
194.745	38.47
194.966	34.99
195.187	36.33
195.407	15.44
195.628	20.72
195.848	5.77
196.069	-11.04
196.29	-26.64
196.51	-18.24
196.731	-19.99
196.951	4.64
197.172	16.7
197.392	13.1
197.613	26.64
197.833	19.63
198.054	1.64
198.274	19.79
198.495	41.35
198.715	62.41
198.936	61.89
199.156	59.55
199.377	24.67
199.597	11.89
199.817	-3.89
200.038	-28.61
200.258	-9.23
200.479	-3.23
200.699	-9.86
200.919	-22.96
201.14	-8.64
201.36	11.64
201.58	10.52
201.801	-14.78
202.021	-4.22
202.241	-0.37
202.461	-6.41
202.682	10.32
202.902	25.54
203.122	27.74
203.342	33.79
203.563	8.67
203.783	6.02
204.003	14.41
204.223	32.51
204.443	32.01
204.663	63.99
204.884	33.82
205.104	33.27
205.324	16.54
205.544	-28.02
205.764	-1.38
205.984	24.89
206.204	21.36
206.424	-2.29
206.644	10.91
206.864	-10.97
207.084	9.85
207.304	17.38
207.525	28.98
207.745	46.28
207.964	64.85
208.184	61.28
208.404	42.18
208.624	53.79
208.844	50.16
209.064	41.94
209.284	28.56
209.504	17.56
209.724	-8.49
209.944	-20.39
210.164	-26.05
210.384	-27.43
210.604	-26.23
210.823	-29.12
211.043	7.84
211.263	-35.75
211.483	9.97
211.703	18.88
211.922	29.94
212.142	37
212.362	67.1
212.582	35.35
212.801	33.08
213.021	12.62
213.241	-16.23
213.461	-26.44
213.68	4.16
213.9	-5.78
214.12	4
214.339	9.46
214.559	3.06
214.779	-4.74
214.998	4.46
215.218	3.16
215.438	14.23
215.657	23.67
215.877	14.57
216.096	30.22
216.316	45.64
216.535	34.15
216.755	33.18
216.974	33.29
217.194	-3.36
217.413	-17.17
217.633	-15.47
217.852	-22.93
218.072	-6.62
218.291	-6.85
218.511	-4.45
218.73	-8.15
218.95	-20.33
219.169	-34.37
219.389	-10.79
219.608	-8.68
219.827	2.68
220.047	11.29
220.266	-8.55
220.485	-22.13
220.705	-23.47
220.924	-14.12
221.143	-3.18
221.363	21.19
221.582	28.5
221.801	27.15
222.021	21.85
222.24	14.18
222.459	19.75
222.678	16.42
222.897	3.87
223.117	16.99
223.336	38.24
223.555	56.52
223.774	76.69
223.993	105.91
224.213	97.94
224.432	77.3
224.651	56.45
224.87	47.75
225.089	41.9
225.308	43.47
225.527	24.56
225.746	30.28
225.965	34.52
226.184	17.05
226.404	-6.99
226.623	13.06
226.842	7.62
227.061	-0.56
227.28	11.04
227.499	26.56
227.718	19.62
227.936	15.45
228.155	19.8
228.374	26.04
228.593	29.38
228.812	32.47
229.031	39.37
229.25	28.98
229.469	28.27
229.688	8.33
229.907	18.78
230.125	6.82
230.344	14.46
230.563	21.68
230.782	22.95
231.001	19.89
231.22	30.92
231.438	31.27
231.657	27.92
231.876	28.74
232.095	24.36
232.313	1.81
232.532	3.52
232.751	-16.57
232.969	-8.22
233.188	-18.83
233.407	-2.71
233.625	-15.26
233.844	-19.02
234.063	-21.03
234.281	-20.21
234.5	-21.56
234.719	-18.01
234.937	-35.43
235.156	-57.08
235.374	-60.97
235.593	-36.41
235.811	-21.4
236.03	3.51
236.249	20.48
236.467	35.97
236.686	25.09
236.904	35.52
237.123	30.1
237.341	26.84
237.559	13.48
237.778	18.59
237.996	-19.29
238.215	-51.56
238.433	-87.31
238.652	-13.19
238.87	0.24
239.088	18.26
239.307	9.46
239.525	15.68
239.743	1.55
239.962	-10.64
240.18	4.12
240.398	12.49
240.617	-4.49
240.835	6.27
241.053	-11.55
241.271	-24.1
241.49	-8.19
241.708	1.99
241.926	-0.96
242.144	21.16
242.363	13.92
242.581	-1.01
242.799	-16.37
243.017	-15.77
243.235	3.91
243.453	-12.48
243.672	10.87
243.89	20.48
244.108	28.93
244.326	16.85
244.544	39.12
244.762	31.62
244.98	33.31
245.198	30.58
245.416	38.21
245.634	27.8
245.852	15.08
246.07	20.54
246.288	14.28
246.506	8.66
246.724	7.38
246.942	24.24
247.16	22.7
247.378	18.25
247.596	37.44
247.814	28.76
248.032	27.3
248.25	31.15
248.468	32.39
248.685	19.47
248.903	16.82
249.121	20.53
249.339	23.9
249.557	30.47
249.775	39.77
249.992	43.83
250.21	33.41
250.428	37.02
250.646	29.9
250.863	12.84
251.081	26.07
251.299	31.23
251.517	26.73
251.734	38.01
251.952	42.56
252.17	31.72
252.387	18.06
252.605	11.42
252.823	-10.98
253.04	12.34
253.258	16.12
253.475	40.6
253.693	36.16
253.911	23.02
254.128	19.07
254.346	30.57
254.563	29.72
254.781	19.74
254.998	19.52
255.216	-6.03
255.433	-30.32
255.651	-47.65
255.868	-21.46
256.086	7.49
256.303	8.94
256.521	7.7
256.738	15.06
256.956	11.32
257.173	4.63
257.39	14.17
257.608	10.13
257.825	8.02
258.043	7.73
258.26	4.64
258.477	1.79
258.695	7.93
258.912	0.47
259.129	-3.17
259.346	1.75
259.564	3.37
259.781	-7.23
259.998	-0.48
260.216	3.69
260.433	-15.62
260.65	-6.9
260.867	-5.4
261.084	0.33
261.302	2.98
261.519	46.14
261.736	23.17
261.953	21.38
262.17	19
262.387	14.95
262.604	6.41
262.822	18.86
263.039	30.12
263.256	28.89
263.473	32.66
263.69	30.53
263.907	35.32
264.124	26.55
264.341	37.99
264.558	29.06
264.775	35.63
264.992	37.4
265.209	19.85
265.426	-3.9
265.643	4.92
265.86	-0.41
266.077	-19.78
266.294	4.44
266.51	12.83
266.727	6.19
266.944	2.9
267.161	9.69
267.378	17.83
267.595	10
267.812	12.43
268.028	5.38
268.245	2.03
268.462	-10.25
268.679	-2.41
268.896	0.15
269.112	0.32
269.329	-9.34
269.546	6.97
269.763	30.2
269.979	26.21
270.196	47.32
270.413	51.21
270.629	44.18
270.846	20.89
271.063	23.66
271.279	10.04
271.496	9.58
271.712	-0.21
271.929	12.67
272.146	8.91
272.362	11.26
272.579	7.42
272.795	17.57
273.012	17.98
273.228	15.58
273.445	14.58
273.661	15.16
273.878	9.19
274.094	-7.8
274.311	-0.62
274.527	-17
274.744	-1.42
274.96	3.79
275.177	17.11
275.393	13.58
275.609	24.71
275.826	14.66
276.042	6.22
276.259	11.35
276.475	6.33
276.691	-1.74
276.908	7.09
277.124	16.23
277.34	-2.98
277.557	-6.94
277.773	-23.81
277.989	-26.19
278.205	-16.13
278.422	-10.68
278.638	-1.24
278.854	7.88
279.07	17.81
279.286	19.59
279.503	36.44
279.719	29.61
279.935	31.4
280.151	18.92
280.367	18.5
280.583	5.52
280.799	5.13
281.016	-26.94
281.232	-10.28
281.448	-12.92
281.664	-3.34
281.88	13.04
282.096	38.63
282.312	33.47
282.528	39.9
282.744	48.11
282.96	40.31
283.176	25.4
283.392	-14.39
283.608	-28.93
283.824	-91.28
284.04	-133.99
284.256	-72.88
284.471	-37.69
284.687	-32.33
284.903	-17.11
285.119	13.29
285.335	17.89
285.551	14.64
285.767	15.8
285.982	32.82
286.198	-2.02
286.414	-17.1
286.63	9.27
286.846	-8.53
287.061	3.41
287.277	4.73
287.493	12.06
287.709	29.85
287.924	35.23
288.14	21.35
288.356	30.67
288.571	9.91
288.787	-9.78
289.003	6.71
289.218	-10.99
289.434	-17.86
289.65	12.29
289.865	10.71
290.081	-1.81
290.296	1.45
290.512	-9.27
290.727	-17.97
290.943	-7.86
291.159	-8.46
291.374	-12.25
291.59	8.38
291.805	-6.93
292.021	-11.18
292.236	-15.21
292.451	8.12
292.667	-9.01
292.882	-0.03
293.098	0.91
293.313	12.99
293.529	10.84
293.744	15.76
293.959	34.81
294.175	33.99
294.39	12.32
294.605	20.34
294.821	24.42
295.036	14.08
295.251	23.21
295.467	14.24
295.682	6.6
295.897	8.58
296.112	6.12
296.328	-2.83
296.543	8.33
296.758	1.44
296.973	0.64
297.188	4.59
297.404	-2.9
297.619	-4.55
297.834	-33.71
298.049	-52.62
298.264	-38.66
298.479	-54.04
298.694	-13.18
298.909	-1.38
299.125	-5.15
299.34	-5.7
299.555	13.39
299.77	24.11
299.985	18.25
300.2	38.21
300.415	45.89
300.63	36.14
300.845	30.35
301.06	28.67
301.275	14.3
301.49	8.27
301.704	4.68
301.919	-10.17
302.134	18.63
302.349	19.02
302.564	9.78
302.779	7.1
302.994	25.73
303.209	-8.62
303.423	-4.61
303.638	-1.75
303.853	-4.71
304.068	-38.67
304.283	-18.5
304.497	-37.94
304.712	-11.51
304.927	9
305.142	23.21
305.356	25.67
305.571	32.83
305.786	26.49
306	38.62
306.215	21.45
306.43	18.55
306.644	2.55
306.859	-24.38
307.074	-33.43
307.288	-6.08
307.503	20.28
307.717	21.62
307.932	35.69
308.147	34.65
308.361	34.33
308.576	23.62
308.79	30.93
309.005	8.4
309.219	14.72
309.434	23.16
309.648	7.33
309.863	-0.03
310.077	28.25
310.292	33.58
310.506	-5.4
310.72	-1.22
310.935	-2.5
311.149	-11.39
311.364	-31.59
311.578	-2.76
311.792	-3.34
312.007	-2.21
312.221	-11.58
312.435	9.6
312.649	17.06
312.864	13.24
313.078	23.43
313.292	23.72
313.507	18.92
313.721	7.98
313.935	17.04
314.149	17.23
314.363	25.9
314.578	18.59
314.792	16.97
315.006	-1.46
315.22	8.32
315.434	8.17
315.648	0.51
315.862	10.48
316.077	11.63
316.291	-2.32
316.505	-30.45
316.719	-3.41
316.933	-15.86
317.147	-4.43
317.361	4.8
317.575	23.5
317.789	25.53
318.003	32.73
318.217	22.27
318.431	5.69
318.645	-11.23
318.859	-11.47
319.073	0.38
319.287	17
319.5	21.84
319.714	25.66
319.928	21.68
320.142	14.55
320.356	8.54
320.57	-11.62
320.784	-0.36
320.997	-26.19
321.211	-12.77
321.425	-23.52
321.639	8.89
321.853	13.34
322.066	12.67
322.28	1.13
322.494	11.09
322.707	-4.32
322.921	-3.42
323.135	25.87
323.349	27.81
323.562	35.37
323.776	48.63
323.989	51.38
324.203	38.91
324.417	42.61
324.63	33.46
324.844	16.27
325.057	-14.29
325.271	-25.48
325.485	-19.29
325.698	1.16
325.912	25.28
326.125	31.08
326.339	45.7
326.552	26.97
326.766	21.35
326.979	6.05
327.193	5.07
327.406	-15.91
327.619	-6.78
327.833	-24.16
328.046	-17.9
328.26	-30.12
328.473	-15.53
328.686	-8.79
328.9	4.32
329.113	5.71
329.326	14.24
329.54	14
329.753	17.71
329.966	20.73
330.179	15.1
330.393	26.52
330.606	14.97
330.819	2.51
331.032	-1.1
331.246	6.14
331.459	-3.07
331.672	18.99
331.885	20.24
332.098	37.35
332.311	43.93
332.525	41.66
332.738	23.72
332.951	20.11
333.164	16.23
333.377	22.05
333.59	16.9
333.803	39.63
334.016	37.7
334.229	24.27
334.442	9.08
334.655	10.52
334.868	-8.96
335.081	-9.36
335.294	-17.11
335.507	-14.8
335.72	-9.89
335.933	-10.51
336.146	6.74
336.359	17.32
336.572	14.64
336.785	10.45
336.997	17.4
337.21	4.77
337.423	-3.41
337.636	9.96
337.849	19.12
338.062	29.58
338.274	49.15
338.487	36.53
338.7	24.77
338.913	21.93
339.125	-1.94
339.338	-19.6
339.551	-12.16
339.763	-13.9
339.976	-28.91
340.189	-23.54
340.402	-12.04
340.614	-0.38
340.827	6.92
341.039	17.15
341.252	30.08
341.465	31.65
341.677	36.11
341.89	38.39
342.102	54.97
342.315	46.91
342.527	45.54
342.74	30.89
342.952	37.95
343.165	9.09
343.377	10.57
343.59	10.74
343.802	11.24
344.015	21.71
344.227	35.52
344.44	30.02
344.652	20.26
344.864	27.61
345.077	30
345.289	28.44
345.502	43.41
345.714	35.16
345.926	19.82
346.139	-6.13
346.351	-1.54
346.563	-3.58
346.775	14.89
346.988	31.38
347.2	37.49
347.412	31.7
347.624	30.19
347.837	28.31
348.049	26.68
348.261	7.72
348.473	-0.02
348.685	-8.55
348.897	0.15
349.11	-9.26
349.322	7.04
349.534	12.45
349.746	16.25
349.958	-2.32
350.17	-10.03
350.382	-1.44
350.594	-14.29
350.806	2.08
351.018	14.92
351.23	25.73
351.442	29.15
351.654	33.18
351.866	20.43
352.078	20.38
352.29	19.73
352.502	8.06
352.714	5.66
352.926	13.16
353.138	11.74
353.35	3.88
353.561	0.5
353.773	-6.6
353.985	-11.22
354.197	-12.39
354.409	-7.98
354.621	-13.19
354.832	-6.4
355.044	-17.67
355.256	-32.14
355.468	-43.03
355.679	-5.95
355.891	1.49
356.103	7.68
356.314	10.25
356.526	13.53
356.738	9.38
356.949	7.46
357.161	26.71
357.373	32.55
357.584	38.17
357.796	31.58
358.008	29.23
358.219	19.66
358.431	12.15
358.642	8.58
358.854	16.53
359.065	5.8
359.277	1.87
359.488	-2.45
359.7	-4.38
359.911	-27.88
360.123	0.62
360.334	-0.47
360.546	2.75
360.757	4.28
360.969	20.08
361.18	4.4
361.391	7.73
361.603	16.59
361.814	26.78
362.025	29.92
362.237	36.51
362.448	45.25
362.659	32.2
362.871	11.58
363.082	15.05
363.293	8.99
363.504	-11.78
363.716	8.12
363.927	21.19
364.138	-5.66
364.349	-18.87
364.56	-7.2
364.772	0.86
364.983	16.58
365.194	31.36
365.405	38.36
365.616	30.53
365.827	13.63
366.038	7.59
366.25	6.83
366.461	12.7
366.672	10.8
366.883	15.53
367.094	11.1
367.305	2.15
367.516	-1.39
367.727	-7.17
367.938	-3.71
368.149	-9.07
368.36	-11.88
368.571	-17.25
368.781	-10.43
368.992	-8.4
369.203	-13.7
369.414	-10.84
369.625	-0.92
369.836	14.28
370.047	23.92
370.258	46.79
370.468	44.03
370.679	34.51
370.89	29.06
371.101	33.96
371.312	25.01
371.522	30.93
371.733	15.57
371.944	1.71
372.155	-8.57
372.365	-4.79
372.576	-7.53
372.787	12.08
372.997	17.38
373.208	7.43
373.419	2.73
373.629	-2.77
373.84	-12.67
374.05	-1.68
374.261	-5.03
374.472	-11.9
374.682	10.73
374.893	15.27
375.103	7.41
375.314	18.21
375.524	29.27
375.735	24.32
375.945	27.5
376.156	29.86
376.366	24.7
376.577	23.32
376.787	21.29
376.997	23.96
377.208	19.11
377.418	21.61
377.629	17.25
377.839	24.42
378.049	19.78
378.26	14.67
378.47	11.71
378.68	21
378.89	16.44
379.101	22.26
379.311	31.43
379.521	13.69
379.732	15.46
379.942	8.33
380.152	2.17
380.362	-2.9
380.572	24.62
380.783	21.67
380.993	27.41
381.203	23.42
381.413	28.84
381.623	22.49
381.833	18.43
382.043	11.14
382.253	12.56
382.463	13.66
382.674	11.48
382.884	15.62
383.094	14.45
383.304	17.38
383.514	16.42
383.724	8.56
383.934	-1.5
384.144	2.75
384.353	1.81
384.563	1.4
384.773	15.61
384.983	20.84
385.193	17.04
385.403	15.55
385.613	14.17
385.823	1.09
386.033	-4.06
386.242	-5.45
386.452	-5.51
386.662	-7.49
386.872	-3.95
387.082	-4.11
387.291	-3.4
387.501	-0.97
387.711	3.7
387.921	-0.57
388.13	1.13
388.34	3.8
388.55	-0.26
388.759	-5.57
388.969	-2.75
389.179	0.81
389.388	0.55
389.598	-2.67
389.807	-3.93
390.017	0.12
390.227	-2.56
390.436	-0.99
390.646	1.52
390.855	2.59
391.065	0.66
391.274	-0.4
391.484	-2.14
391.693	0.12
391.903	1.07
392.112	0.41
392.322	1.75
392.531	-0.32
392.74	-1.3
392.95	0.13
393.159	1.28
393.369	3.68
393.578	4.28
393.787	4.19
393.997	4.41
394.206	3.57
394.415	2.84
394.625	3.52
394.834	2.95
395.043	1.04
395.252	3.75
395.462	2.56
395.671	2.2
395.88	4.32
396.089	5.02
396.298	3.1
396.508	2.94
396.717	2.61
396.926	1.06
397.135	1.84
397.344	2.18
397.553	2.54
397.762	3.46
397.971	3.71
398.181	2.88
398.39	2.16
398.599	2.38
398.808	2.28
399.017	2.75
399.226	3.21
399.435	3.81
399.644	3.82
399.853	3.84
400.062	3.51
400.27	2.78
400.479	2.78
400.688	2.83
400.897	2.54
401.106	2.43
401.315	2.88
401.524	2.83
401.733	2.32
401.941	2.44
402.15	2.4
402.359	2.32
402.568	2.23
402.777	2.75
402.985	2.48
403.194	2.4
403.403	2.43
403.612	2.19
403.82	1.53
404.029	1.73
404.238	1.71
404.446	1.7
404.655	1.99
404.864	2.36
405.072	2.5
405.281	2.65
405.489	2.67
405.698	2.56
405.906	2.59
406.115	2.45
406.324	2.42
406.532	2.47
406.741	2.44
406.949	2.37
407.158	2.52
407.366	2.41
407.574	2.29
407.783	2.3
407.991	2.28
408.2	2.29
408.408	2.34
408.617	2.3
408.825	2.21
409.033	2.22
409.242	2.12
409.45	2.04
409.658	2.1
409.867	2.17
410.075	2.21
410.283	2.12
410.491	2.04
410.7	1.9
410.908	1.96
411.116	2.03
411.324	2.01
411.533	2.08
411.741	2.14
411.949	2.14
412.157	2.08
412.365	2.2
412.573	2.17
412.781	2.18
412.99	2.15
413.198	2.16
413.406	2.16
413.614	2.2
413.822	2.33
414.03	2.29
414.238	2.34
414.446	2.37
414.654	2.4
414.862	2.27
415.07	2.23
415.278	2.2
415.486	2
415.694	2
415.902	1.93
416.109	1.92
416.317	1.82
416.525	1.89
416.733	1.87
416.941	1.96
417.149	1.83
417.357	1.84
417.564	1.8
417.772	1.89
417.98	1.93
418.188	2.05
418.395	1.94
418.603	1.89
418.811	1.75
419.019	1.6
419.226	1.69
419.434	1.75
419.642	1.79
419.849	1.92
420.057	1.96
420.265	1.85
420.472	1.83
420.68	1.79
420.887	1.61
421.095	1.68
421.302	1.82
421.51	1.79
421.717	1.77
421.925	1.86
422.132	1.87
422.34	1.72
422.547	1.63
422.755	1.75
422.962	1.77
423.17	1.58
423.377	1.58
423.585	1.84
423.792	1.75
423.999	1.64
424.207	1.64
424.414	1.67
424.621	1.54
424.829	1.61
425.036	1.7
425.243	1.81
425.451	1.77
425.658	1.75
425.865	1.74
426.072	1.72
426.28	1.69
426.487	1.84
426.694	1.78
426.901	1.92
427.108	1.91
427.315	1.76
427.523	1.59
427.73	1.47
427.937	1.18
428.144	1.19
428.351	1.29
428.558	1.45
428.765	1.62
428.972	1.77
429.179	1.65
429.386	1.75
429.593	1.58
429.8	1.68
430.007	1.65
430.214	1.74
430.421	1.85
430.628	1.93
430.835	1.84
431.042	1.74
431.249	1.68
431.456	1.47
431.662	1.6
431.869	1.74
432.076	1.92
432.283	2.04
432.49	2.13
432.697	2.01
432.903	1.92
433.11	1.92
433.317	1.9
433.524	1.88
433.73	1.87
433.937	2.05
434.144	1.94
434.35	1.79
434.557	1.81
434.764	1.87
434.97	1.64
435.177	1.7
435.384	1.89
435.59	1.87
435.797	1.8
436.003	1.91
436.21	1.96
436.416	1.98
436.623	2.06
436.829	2.09
437.036	2.05
437.242	2.07
437.449	2.12
437.655	2.15
437.862	2.23
438.068	2.22
438.275	2.34
438.481	2.29
438.687	2.26
438.894	2.35
439.1	2.43
439.307	2.38
439.513	2.38
439.719	2.42
439.926	2.32
440.132	2.37
440.338	2.25
440.544	2.19
440.751	2.16
440.957	2.24
441.163	2.09
441.369	2.17
441.575	2.17
441.782	2.25
441.988	2.21
442.194	2.26
442.4	2.17
442.606	2.29
442.812	2.21
443.018	2.26
443.224	2.46
443.431	2.55
443.637	2.47
443.843	2.51
444.049	2.56
444.255	2.49
444.461	2.49
444.667	2.53
444.873	2.6
445.079	2.53
445.284	2.55
445.49	2.55
445.696	2.56
445.902	2.52
446.108	2.55
446.314	2.52
446.52	2.57
446.726	2.66
446.931	2.63
447.137	2.6
447.343	2.61
447.549	2.59
447.755	2.53
447.96	2.62
448.166	2.61
448.372	2.6
448.578	2.56
448.783	2.58
448.989	2.6
449.195	2.66
449.4	2.71
449.606	2.71
449.812	2.63
450.017	2.62
450.223	2.58
450.428	2.58
450.634	2.59
450.84	2.63
451.045	2.68
451.251	2.72
451.456	2.72
451.662	2.68
451.867	2.71
452.073	2.63
452.278	2.6
452.483	2.53
452.689	2.61
452.894	2.68
453.1	2.72
453.305	2.79
453.51	2.94
453.716	2.93
453.921	2.9
454.127	2.79
454.332	2.73
454.537	2.62
454.742	2.6
454.948	2.58
455.153	2.73
455.358	2.79
455.563	2.91
455.769	2.9
455.974	2.89
456.179	2.75
456.384	2.65
456.589	2.49
456.795	2.48
457	2.48
457.205	2.4
457.41	2.48
457.615	2.51
457.82	2.64
458.025	2.69
458.23	2.81
458.435	2.83
458.64	2.87
458.845	2.83
459.05	2.88
459.255	2.91
459.46	2.89
459.665	2.89
459.87	2.89
460.075	2.87
460.28	2.91
460.485	2.98
460.69	2.98
460.895	3
461.099	2.92
461.304	2.86
461.509	2.79
461.714	2.84
461.919	2.84
462.123	2.98
462.328	2.91
462.533	2.88
462.738	2.82
462.942	2.75
463.147	2.68
463.352	2.79
463.556	2.87
463.761	2.85
463.966	2.86
464.17	2.93
464.375	3.07
464.58	3.05
464.784	3.09
464.989	3.15
465.193	3.15
465.398	3.07
465.602	3.25
465.807	3.36
466.011	3.33
466.216	3.29
466.42	3.32
466.625	3.21
466.829	3.19
467.034	3.38
467.238	3.45
467.443	3.51
467.647	3.53
467.851	3.51
468.056	3.38
