Data from Ofra_1a_PS_2GT10_Reflection_3.txt Node
Date: Tue Jul 20 10:48:36 EDT 2021
User: Adam
Spectrometer: FLMT01687
Trigger mode: 0
Integration Time (sec): 1.004000E0
Scans to average: 2
Electric dark correction enabled: true
Nonlinearity correction enabled: false
Boxcar width: 2
XAxis mode: Wavelengths
Number of Pixels in Spectrum: 3648
>>>>>Begin Spectral Data<<<<<
179.494	-69.04
179.716	-131.3
179.937	391.97
180.158	-272.61
180.38	147.51
180.601	129.83
180.823	112.65
181.044	135.32
181.265	168.02
181.486	112.64
181.708	146.68
181.929	-8000
182.15	80.11
182.372	151.72
182.593	18.94
182.814	-188.79
183.035	-27.18
183.257	-22.31
183.478	-11.57
183.699	-42.24
183.92	-57.06
184.141	-86.08
184.363	-52.13
184.584	-87.53
184.805	-53.27
185.026	-15.73
185.247	-15.48
185.468	-28.01
185.689	-12.2
185.91	-46.04
186.132	-23.84
186.353	-4.81
186.574	-6.7
186.795	-3.18
187.016	23.53
187.237	2.92
187.458	8.49
187.679	3.59
187.9	36.89
188.121	62
188.342	59.06
188.563	62.92
188.784	63.09
189.005	20.89
189.226	8.6
189.447	-0.86
189.667	-11.91
189.888	-27.68
190.109	-32.11
190.33	-23.68
190.551	-8.45
190.772	7.6
190.993	3.2
191.214	14.35
191.434	-7.48
191.655	-52.63
191.876	-35.32
192.097	-8.24
192.318	-9.12
192.538	-40.18
192.759	-25.27
192.98	-19.93
193.201	-3.22
193.421	5.28
193.642	30.32
193.863	46.89
194.083	51.27
194.304	29.54
194.525	20.84
194.745	18.87
194.966	0.79
195.187	-9.37
195.407	-19.59
195.628	-6.38
195.848	-8.33
196.069	-24.36
196.29	7.22
196.51	2.51
196.731	0.61
196.951	-37.09
197.172	-14.2
197.392	-55.83
197.613	-20.08
197.833	-35.49
198.054	-19.82
198.274	-12.34
198.495	14.01
198.715	-5.46
198.936	9.32
199.156	4.56
199.377	-7.93
199.597	5.04
199.817	6.42
200.038	-12.47
200.258	4.89
200.479	21.89
200.699	18.65
200.919	2.35
201.14	5.23
201.36	3.58
201.58	-17.18
201.801	-57.87
202.021	-42.51
202.241	-52.28
202.461	-35.44
202.682	-18.3
202.902	2.38
203.122	5.84
203.342	4.14
203.563	-10.86
203.783	-54.85
204.003	-71.47
204.223	-50.91
204.443	-55.17
204.663	-67.33
204.884	-5.87
205.104	-25.37
205.324	-5.91
205.544	-32.43
205.764	6.5
205.984	-11.74
206.204	23.93
206.424	-24.27
206.644	-11.7
206.864	-78.38
207.084	-21.43
207.304	-40.92
207.525	-3.09
207.745	6.19
207.964	19.45
208.184	18.48
208.404	16.57
208.624	21.77
208.844	11.48
209.064	15.89
209.284	-9.97
209.504	-26.91
209.724	-34.81
209.944	-25.14
210.164	-17.96
210.384	-14.8
210.604	-33.84
210.823	-45.21
211.043	-38.7
211.263	-127.42
211.483	-79.07
211.703	-38.78
211.922	-54.54
212.142	-24.17
212.362	-10.95
212.582	-3.27
212.801	-13.93
213.021	-9.34
213.241	-40.9
213.461	0.78
213.68	13.2
213.9	6.49
214.12	-1.59
214.339	4.91
214.559	-17.04
214.779	-41
214.998	-37.41
215.218	-24.66
215.438	-24.75
215.657	-32.25
215.877	-40.05
216.096	-10.36
216.316	-1.13
216.535	-3.67
216.755	2.03
216.974	7.43
217.194	-12.74
217.413	-11.64
217.633	-13.4
217.852	-5.71
218.072	0.82
218.291	-5.15
218.511	-13.97
218.73	-12.75
218.95	-46.47
219.169	-59.29
219.389	-23.91
219.608	-29.23
219.827	-4.53
220.047	3.84
220.266	4.61
220.485	-10.02
220.705	-4.1
220.924	-19.54
221.143	24.02
221.363	32.23
221.582	35.23
221.801	50.6
222.021	47.6
222.24	23.63
222.459	23.19
222.678	19.65
222.897	3.18
223.117	1.63
223.336	17.06
223.555	24.96
223.774	21.81
223.993	43.1
224.213	52.07
224.432	46.77
224.651	23.98
224.87	12.79
225.089	8.85
225.308	6.56
225.527	-13.5
225.746	-7.02
225.965	0.48
226.184	-30.3
226.404	-60.86
226.623	-46.66
226.842	-51.52
227.061	-56.1
227.28	-23.5
227.499	-2.3
227.718	10.97
227.936	17.2
228.155	20.59
228.374	18.85
228.593	17.7
228.812	6.31
229.031	15.95
229.25	2.32
229.469	-12.07
229.688	-17.88
229.907	-9.72
230.125	-7.46
230.344	0.19
230.563	9.54
230.782	18.16
231.001	20.17
231.22	-1.4
231.438	6.13
231.657	8.21
231.876	7.52
232.095	15.99
232.313	18.47
232.532	2.59
232.751	1.79
232.969	-4.22
233.188	-26.09
233.407	-6.81
233.625	7.76
233.844	0.06
234.063	5.94
234.281	15.95
234.5	12.97
234.719	-2.74
234.937	5.45
235.156	-6.65
235.374	-3.69
235.593	2.84
235.811	23.85
236.03	19.99
236.249	25.78
236.467	16.57
236.686	0.22
236.904	10.52
237.123	-4.11
237.341	-0.72
237.559	-15.77
237.778	22.13
237.996	-21.76
238.215	-56.92
238.433	-107.82
238.652	-10.32
238.87	-60.18
239.088	-27.82
239.307	6.33
239.525	11.54
239.743	-6.09
239.962	-4.5
240.18	-3.76
240.398	-1.5
240.617	-3.67
240.835	12.16
241.053	14.47
241.271	21.26
241.49	32.17
241.708	18.51
241.926	-4.23
242.144	-7.63
242.363	-33.33
242.581	-83.92
242.799	-119.13
243.017	-45.96
243.235	-36.23
243.453	-32.25
243.672	-41.12
243.89	-4.47
244.108	-6.21
244.326	18.2
244.544	19.21
244.762	16.5
244.98	21.38
245.198	29.96
245.416	14.31
245.634	1.31
245.852	-7.5
246.07	-1.97
246.288	-20.67
246.506	-24.75
246.724	-19.75
246.942	-17.84
247.16	-30.2
247.378	-28.77
247.596	-8.14
247.814	-3.79
248.032	2.81
248.25	9.55
248.468	18.62
248.685	14.49
248.903	6.11
249.121	18.2
249.339	18.82
249.557	18.89
249.775	26.43
249.992	47.05
250.21	38.22
250.428	38.29
250.646	26.14
250.863	-1.48
251.081	-11.11
251.299	5.56
251.517	13.45
251.734	14.89
251.952	22.98
252.17	17.25
252.387	-5.9
252.605	-10.05
252.823	-33.5
253.04	-5.82
253.258	-4.46
253.475	-5.97
253.693	-8.72
253.911	0.24
254.128	-12.26
254.346	-5.81
254.563	6.88
254.781	9.67
254.998	7.73
255.216	-7.98
255.433	-29.41
255.651	-23.72
255.868	-44.29
256.086	-26.76
256.303	-10.41
256.521	4.26
256.738	6.42
256.956	13.21
257.173	-4.08
257.39	3.72
257.608	-1.51
257.825	-9.6
258.043	8.91
258.26	8.28
258.477	1.3
258.695	-1.94
258.912	-11.67
259.129	-28.53
259.346	-32.64
259.564	-45.48
259.781	-31.51
259.998	-5.2
260.216	-0.65
260.433	-7.38
260.65	-2.92
260.867	-14.15
261.084	-4.13
261.302	-11.75
261.519	12.18
261.736	8.49
261.953	6.76
262.17	7.23
262.387	2.69
262.604	8.97
262.822	18.8
263.039	36.85
263.256	20.04
263.473	17.97
263.69	10.06
263.907	14.04
264.124	0.6
264.341	24.16
264.558	27.16
264.775	36.79
264.992	44.16
265.209	24.73
265.426	3.95
265.643	1.82
265.86	-21.71
266.077	-61.74
266.294	-35.52
266.51	8.57
266.727	7.85
266.944	19.08
267.161	27.24
267.378	31.72
267.595	19.16
267.812	2.51
268.028	-7.85
268.245	-0.38
268.462	3.01
268.679	9.17
268.896	51.73
269.112	40.91
269.329	13.02
269.546	18.83
269.763	18.82
269.979	-12.57
270.196	-7.65
270.413	4.57
270.629	-4.19
270.846	-25.49
271.063	-8.71
271.279	7.15
271.496	-3.2
271.712	1.9
271.929	6.89
272.146	-23.19
272.362	-45.71
272.579	-33.44
272.795	-51.18
273.012	-50.25
273.228	-17.37
273.445	-4.04
273.661	2.47
273.878	8.64
274.094	-1.36
274.311	-4.07
274.527	0.83
274.744	11.36
274.96	0.72
275.177	15.86
275.393	18.98
275.609	18.41
275.826	2.45
276.042	1.35
276.259	-3.79
276.475	-27.37
276.691	-28.53
276.908	-28.75
277.124	-26.18
277.34	-31.86
277.557	-15.58
277.773	-28.1
277.989	-18.38
278.205	-6.94
278.422	-6.27
278.638	2.49
278.854	3.69
279.07	16.51
279.286	16.98
279.503	23.63
279.719	18.6
279.935	24.49
280.151	15.47
280.367	15.6
280.583	-1.69
280.799	-4.95
281.016	-39.89
281.232	-20.83
281.448	-34.08
281.664	-13.54
281.88	0.56
282.096	9.06
282.312	7.48
282.528	10.71
282.744	17.28
282.96	8.36
283.176	-5.57
283.392	-27.52
283.608	-17.59
283.824	-53.41
284.04	-81.53
284.256	-25.67
284.471	-3.15
284.687	-7.25
284.903	7.53
285.119	27.29
285.335	32.32
285.551	25.38
285.767	31.71
285.982	25.25
286.198	-4.69
286.414	-3.17
286.63	-11.54
286.846	-27.68
287.061	-19.78
287.277	-5.44
287.493	-5.35
287.709	-11.47
287.924	4.84
288.14	4.48
288.356	10.65
288.571	7.74
288.787	8.32
289.003	24.41
289.218	13.66
289.434	-2.65
289.65	6.61
289.865	1.93
290.081	-4.75
290.296	9.22
290.512	8.27
290.727	-5.81
290.943	3.72
291.159	1.93
291.374	-19.91
291.59	-7.76
291.805	-19.02
292.021	-18.29
292.236	-24.93
292.451	-14.25
292.667	-25.64
292.882	-4.36
293.098	-3.33
293.313	3.54
293.529	7.53
293.744	5.32
293.959	3.69
294.175	13.01
294.39	-10.17
294.605	7.3
294.821	8.54
295.036	5.49
295.251	-5.03
295.467	0.58
295.682	-5.61
295.897	-12.93
296.112	-13.86
296.328	-12.31
296.543	-29.78
296.758	-43.21
296.973	-38.48
297.188	-33.53
297.404	-72.25
297.619	-60.33
297.834	-77.43
298.049	-55.68
298.264	-59.42
298.479	-36.41
298.694	6.18
298.909	23.84
299.125	17.18
299.34	19.48
299.555	21.19
299.77	27.93
299.985	16.81
300.2	22.04
300.415	13.8
300.63	14.76
300.845	-7.92
301.06	-8.15
301.275	-14.78
301.49	-2.5
301.704	-2.16
301.919	-18.65
302.134	-23.53
302.349	-18.84
302.564	-23.26
302.779	-21.51
302.994	2.95
303.209	15.86
303.423	15.84
303.638	16.85
303.853	-14.16
304.068	-20.83
304.283	-11.34
304.497	-31.58
304.712	-19.38
304.927	5.6
305.142	11.66
305.356	5.05
305.571	13.68
305.786	6.72
306	8.95
306.215	6.7
306.43	4.07
306.644	-13.56
306.859	-22.11
307.074	-24.66
307.288	-16.82
307.503	0.52
307.717	11.33
307.932	26.43
308.147	26.92
308.361	20.1
308.576	6.41
308.79	0.7
309.005	-31.65
309.219	-23.25
309.434	-8.68
309.648	-0.95
309.863	11.36
310.077	13.2
310.292	24.5
310.506	2.05
310.72	3.22
310.935	2.36
311.149	11.41
311.364	-0.3
311.578	16.12
311.792	3.74
312.007	7.57
312.221	-2.73
312.435	8.54
312.649	8.77
312.864	2.62
313.078	-19.81
313.292	-12.24
313.507	-16.43
313.721	-15.96
313.935	-14.04
314.149	13.22
314.363	13.41
314.578	4.4
314.792	-45.19
315.006	-32.78
315.22	-14.3
315.434	-12.68
315.648	-11.99
315.862	12.94
316.077	5.8
316.291	3.05
316.505	-13.05
316.719	-2.46
316.933	-1.06
317.147	14.1
317.361	8.82
317.575	21.99
317.789	20.84
318.003	17.83
318.217	12.55
318.431	1.4
318.645	-4.39
318.859	6.22
319.073	14.54
319.287	12.06
319.5	18.72
319.714	15
319.928	11.38
320.142	2.03
320.356	9.77
320.57	-5.15
320.784	4.55
320.997	-15.33
321.211	10.35
321.425	-4.4
321.639	16.18
321.853	30.98
322.066	25.44
322.28	19.49
322.494	14.98
322.707	6.69
322.921	-20.44
323.135	-18.35
323.349	-26.65
323.562	-29.74
323.776	-21.99
323.989	11.45
324.203	6.24
324.417	13.1
324.63	8.71
324.844	-8.73
325.057	-52.61
325.271	-30.19
325.485	-23.34
325.698	10.11
325.912	18.33
326.125	20.38
326.339	33.04
326.552	18.62
326.766	-1.49
326.979	3.74
327.193	19.37
327.406	-6.17
327.619	8.79
327.833	11.79
328.046	14.44
328.26	8.77
328.473	10.93
328.686	12.83
328.9	22.26
329.113	13.47
329.326	2.02
329.54	4.67
329.753	15.04
329.966	13.43
330.179	15.28
330.393	16.1
330.606	11.65
330.819	-11.59
331.032	-18.91
331.246	-8.17
331.459	5.85
331.672	3.93
331.885	6.76
332.098	9.97
332.311	2.07
332.525	-8.93
332.738	-1.48
332.951	-1.02
333.164	0.04
333.377	1.09
333.59	-4.1
333.803	-0.62
334.016	-9.57
334.229	-11.47
334.442	0.05
334.655	10.44
334.868	4.52
335.081	-2.55
335.294	-10.45
335.507	-29.82
335.72	-30.9
335.933	-41.88
336.146	-34.34
336.359	-20.28
336.572	-20.83
336.785	-28.98
336.997	-32.47
337.21	-34.86
337.423	-56.12
337.636	-24.14
337.849	-31.54
338.062	-13.83
338.274	-4.85
338.487	0.5
338.7	-31.22
338.913	-11.52
339.125	-29.95
339.338	-41.36
339.551	-41.25
339.763	-25.65
339.976	-31.19
340.189	-30.73
340.402	-9.8
340.614	-6.93
340.827	-12.48
341.039	-18.56
341.252	-14.6
341.465	-26.84
341.677	-36.74
341.89	-28.35
342.102	-15.26
342.315	-10.56
342.527	-7.86
342.74	-4.88
342.952	0.84
343.165	-14.35
343.377	-9.58
343.59	5.68
343.802	8.73
344.015	5.17
344.227	-8.58
344.44	-20.43
344.652	-22.24
344.864	-7.83
345.077	-2.54
345.289	22.3
345.502	31.27
345.714	23.96
345.926	14.01
346.139	0.25
346.351	1
346.563	0.99
346.775	6.41
346.988	24.97
347.2	27.08
347.412	28.42
347.624	15.84
347.837	16.66
348.049	-5.96
348.261	-12.45
348.473	-27.98
348.685	-12.24
348.897	-7.37
349.11	1.49
349.322	12.86
349.534	15.12
349.746	-2.58
349.958	-9.58
350.17	-24.05
350.382	-22.98
350.594	-1.81
350.806	19.42
351.018	18.66
351.23	26.03
351.442	25.74
351.654	14.33
351.866	-1.23
352.078	-2.84
352.29	-2.16
352.502	7.36
352.714	10.88
352.926	14.71
353.138	9.4
353.35	-1.49
353.561	-12.88
353.773	-15.35
353.985	-14.14
354.197	-6.6
354.409	-9.23
354.621	-26.72
354.832	-19.83
355.044	-36.38
355.256	-77.17
355.468	-72.55
355.679	-24.33
355.891	-20.41
356.103	-11.45
356.314	7.06
356.526	-2.43
356.738	-24.07
356.949	-26.93
357.161	-9.12
357.373	-4.61
357.584	4.55
357.796	10.42
358.008	19.88
358.219	5.47
358.431	-3.32
358.642	7.17
358.854	11.61
359.065	-1.17
359.277	1.26
359.488	8.17
359.7	-0.83
359.911	-21.82
360.123	-13.14
360.334	-13.06
360.546	-22.15
360.757	-27.93
360.969	-14.63
361.18	-16.01
361.391	-10.64
361.603	7.37
361.814	17.22
362.025	18.58
362.237	13
362.448	15.63
362.659	-3.52
362.871	-20.72
363.082	-25.64
363.293	-48.13
363.504	-73.32
363.716	-72.3
363.927	-28.29
364.138	-47.21
364.349	-32.17
364.56	-42.76
364.772	-10.1
364.983	-6.95
365.194	9.97
365.405	2.74
365.616	12.96
365.827	-3.74
366.038	-10.37
366.25	-11.38
366.461	3.69
366.672	16.5
366.883	18.5
367.094	10.14
367.305	-1.97
367.516	-15.53
367.727	-35.66
367.938	-42.28
368.149	-42.78
368.36	-47.02
368.571	-53.82
368.781	-45.74
368.992	-39.6
369.203	-35.36
369.414	-35.68
369.625	-24.68
369.836	-7.11
370.047	-0.66
370.258	6.84
370.468	5.57
370.679	-5.38
370.89	-30.68
371.101	-15.76
371.312	-29.38
371.522	-23.01
371.733	-19.73
371.944	-24.7
372.155	-22.41
372.365	-6.61
372.576	-6.84
372.787	2.04
372.997	11.55
373.208	0.76
373.419	2.36
373.629	-2.29
373.84	-10.81
374.05	-18.51
374.261	-32.52
374.472	-42.26
374.682	-29.34
374.893	-38.74
375.103	-28.32
375.314	-11.35
375.524	-13.63
375.735	-10.89
375.945	4.68
376.156	3.37
376.366	8.32
376.577	13.42
376.787	9.91
376.997	8.06
377.208	11.39
377.418	-0.71
377.629	5.07
377.839	3.94
378.049	3.52
378.26	-13.41
378.47	-9.46
378.68	-7.86
378.89	1.36
379.101	6.49
379.311	17.62
379.521	12.03
379.732	17.63
379.942	6.01
380.152	-0.84
380.362	4.51
380.572	19.06
380.783	16.28
380.993	23.61
381.203	19.85
381.413	12.36
381.623	8.68
381.833	7.71
382.043	1.77
382.253	5.81
382.463	17.82
382.674	18.58
382.884	16.98
383.094	22.2
383.304	24.91
383.514	20.66
383.724	18.13
383.934	9.51
384.144	9.27
384.353	10.87
384.563	4.72
384.773	5.68
384.983	10.45
385.193	0.19
385.403	2.24
385.613	4.99
385.823	3.79
386.033	2.51
386.242	1.97
386.452	-8.74
386.662	-5.32
386.872	-2.46
387.082	-4.54
387.291	-6.57
387.501	0.38
387.711	2.24
387.921	-4.99
388.13	-2.25
388.34	3.42
388.55	-0.14
388.759	-9.75
388.969	-5.04
389.179	-5.69
389.388	-5.81
389.598	-4.07
389.807	-5.27
390.017	-5.04
390.227	-8.49
390.436	-8.44
390.646	-12.44
390.855	-7.08
391.065	-8.25
391.274	-4.47
391.484	-5.95
391.693	-5.86
391.903	-6.61
392.112	-6.32
392.322	-5.38
392.531	-5.11
392.74	-3.01
392.95	-2.84
393.159	-1.95
393.369	-1.7
393.578	-1.3
393.787	-1.09
393.997	0.69
394.206	-1.08
394.415	-0.16
394.625	-0.39
394.834	-1.21
395.043	-1.78
395.252	0.77
395.462	-0.57
395.671	-0.87
395.88	0.79
396.089	-0.07
396.298	-0.76
396.508	-0.42
396.717	-0.42
396.926	-0.63
397.135	0.3
397.344	0.01
397.553	0.22
397.762	2.01
397.971	1.35
398.181	1.69
398.39	1.93
398.599	2.19
398.808	1.87
399.017	2.68
399.226	2.81
399.435	2.73
399.644	2.47
399.853	2.13
400.062	2.08
400.27	1.3
400.479	1.57
400.688	1.65
400.897	1.37
401.106	1.12
401.315	1.53
401.524	1.51
401.733	1.37
401.941	1.57
402.15	1.66
402.359	1.56
402.568	1.54
402.777	1.96
402.985	1.83
403.194	1.55
403.403	1.72
403.612	1.72
403.82	1.25
404.029	1.29
404.238	1.51
404.446	1.54
404.655	1.63
404.864	1.78
405.072	1.82
405.281	1.85
405.489	1.67
405.698	1.67
405.906	1.69
406.115	1.65
406.324	1.6
406.532	1.85
406.741	1.84
406.949	1.97
407.158	2.15
407.366	2.07
407.574	1.92
407.783	1.92
407.991	1.74
408.2	1.79
408.408	1.9
408.617	1.88
408.825	1.71
409.033	1.74
409.242	1.63
409.45	1.67
409.658	1.61
409.867	1.76
410.075	1.85
410.283	1.69
410.491	1.49
410.7	1.51
410.908	1.42
411.116	1.5
411.324	1.65
411.533	1.66
411.741	1.73
411.949	1.79
412.157	1.54
412.365	1.58
412.573	1.74
412.781	1.56
412.99	1.54
413.198	1.67
413.406	1.73
413.614	1.73
413.822	1.93
414.03	1.86
414.238	1.84
414.446	1.82
414.654	1.65
414.862	1.52
415.07	1.54
415.278	1.61
415.486	1.41
415.694	1.54
415.902	1.56
416.109	1.51
416.317	1.49
416.525	1.55
416.733	1.49
416.941	1.55
417.149	1.58
417.357	1.57
417.564	1.55
417.772	1.62
417.98	1.49
418.188	1.36
418.395	1.15
418.603	1.08
418.811	1.01
419.019	1.16
419.226	1.31
419.434	1.39
419.642	1.26
419.849	1.17
420.057	1.19
420.265	1.15
420.472	1.26
420.68	1.55
420.887	1.71
421.095	1.64
421.302	1.78
421.51	1.7
421.717	1.69
421.925	1.74
422.132	1.72
422.34	1.49
422.547	1.46
422.755	1.53
422.962	1.47
423.17	1.39
423.377	1.62
423.585	1.65
423.792	1.5
423.999	1.48
424.207	1.39
424.414	1.27
424.621	1.37
424.829	1.47
425.036	1.53
425.243	1.76
425.451	1.7
425.658	1.62
425.865	1.58
426.072	1.54
426.28	1.62
426.487	1.6
426.694	1.53
426.901	1.53
427.108	1.42
427.315	1.28
427.523	1.33
427.73	1.3
427.937	1.21
428.144	1.28
428.351	1.22
428.558	1.31
428.765	1.31
428.972	1.34
429.179	1.22
429.386	1.45
429.593	1.29
429.8	1.36
430.007	1.42
430.214	1.53
430.421	1.51
430.628	1.57
430.835	1.53
431.042	1.4
431.249	1.33
431.456	1.16
431.662	1.27
431.869	1.46
432.076	1.52
432.283	1.62
432.49	1.59
432.697	1.55
432.903	1.35
433.11	1.45
433.317	1.48
433.524	1.62
433.73	1.51
433.937	1.68
434.144	1.46
434.35	1.47
434.557	1.45
434.764	1.56
434.97	1.28
435.177	1.57
435.384	1.63
435.59	1.59
435.797	1.64
436.003	1.78
436.21	1.59
436.416	1.5
436.623	1.57
436.829	1.52
437.036	1.54
437.242	1.62
437.449	1.58
437.655	1.49
437.862	1.49
438.068	1.48
438.275	1.53
438.481	1.61
438.687	1.65
438.894	1.73
439.1	1.68
439.307	1.71
439.513	1.78
439.719	1.82
439.926	1.89
440.132	2.01
440.338	2
440.544	1.88
440.751	1.81
440.957	1.68
441.163	1.58
441.369	1.59
441.575	1.57
441.782	1.71
441.988	1.89
442.194	1.91
442.4	1.89
442.606	2.08
442.812	2.03
443.018	1.92
443.224	2.14
443.431	2.11
443.637	1.97
443.843	2
444.049	1.99
444.255	1.87
444.461	1.85
444.667	1.85
444.873	1.81
445.079	1.77
445.284	1.86
445.49	1.81
445.696	1.75
445.902	1.76
446.108	1.76
446.314	1.68
446.52	1.87
446.726	1.99
446.931	1.98
447.137	2.05
447.343	2.14
447.549	2.2
447.755	2.14
447.96	2.17
448.166	2.22
448.372	2.1
448.578	1.98
448.783	2.04
448.989	2.04
449.195	1.92
449.4	1.96
449.606	1.95
449.812	1.89
450.017	1.94
450.223	1.97
450.428	2
450.634	2.03
450.84	2.01
451.045	1.97
451.251	2.07
451.456	2.14
451.662	2.18
451.867	2.33
452.073	2.32
452.278	2.3
452.483	2.22
452.689	2.18
452.894	2.12
453.1	2.09
453.305	2.09
453.51	2.12
453.716	2.06
453.921	2.08
454.127	2.13
454.332	2.07
454.537	2.07
454.742	2.05
454.948	2.08
455.153	2.07
455.358	2.17
455.563	2.21
455.769	2.24
455.974	2.22
456.179	2.24
456.384	2.12
456.589	2.11
456.795	2.16
457	2.12
457.205	2.07
457.41	2.1
457.615	2.07
457.82	2.12
458.025	2.19
458.23	2.17
458.435	2.2
458.64	2.2
458.845	2.16
459.05	2.09
459.255	2.13
459.46	2.15
459.665	2.15
459.87	2.12
460.075	2.21
460.28	2.24
460.485	2.27
460.69	2.23
460.895	2.29
461.099	2.14
461.304	2.03
461.509	2.08
461.714	2.17
461.919	2.15
462.123	2.22
462.328	2.23
462.533	2.08
462.738	2.07
462.942	2.04
463.147	2.08
463.352	2.16
463.556	2.34
463.761	2.32
463.966	2.35
464.17	2.34
464.375	2.4
464.58	2.18
464.784	2.17
464.989	2.2
465.193	2.21
465.398	2.22
