Data from Ofra_1a_PS_4HS13_Reflection_3.txt Node
Date: Tue Jul 20 10:56:42 EDT 2021
User: Adam
Spectrometer: FLMT01687
Trigger mode: 0
Integration Time (sec): 1.004000E0
Scans to average: 2
Electric dark correction enabled: true
Nonlinearity correction enabled: false
Boxcar width: 2
XAxis mode: Wavelengths
Number of Pixels in Spectrum: 3648
>>>>>Begin Spectral Data<<<<<
179.494	-481.22
179.716	-641.22
179.937	1356.52
180.158	-1964.33
180.38	190.05
180.601	-13.09
180.823	6.46
181.044	-62.59
181.265	-186.16
181.486	188.69
181.708	-42.39
181.929	4254.55
182.15	-76.16
182.372	41.38
182.593	421.17
182.814	-417.66
183.035	-64.77
183.257	-26.26
183.478	-75.73
183.699	-95.56
183.92	-111.27
184.141	-111.27
184.363	-69.83
184.584	-64.91
184.805	-6.2
185.026	38.45
185.247	22.24
185.468	-17.29
185.689	-2.21
185.91	-55.37
186.132	-40.55
186.353	-38.36
186.574	-32.68
186.795	-21.6
187.016	7.45
187.237	-20.62
187.458	-5.32
187.679	-14.55
187.9	-14.18
188.121	-23.12
188.342	-5.7
188.563	-5.13
188.784	19.87
189.005	6.51
189.226	0.17
189.447	-19.3
189.667	-34.6
189.888	-52.44
190.109	-79.72
190.33	-36.93
190.551	-28.11
190.772	-22.53
190.993	-30.95
191.214	-33.44
191.434	-126.99
191.655	-133.69
191.876	-61.94
192.097	-29.08
192.318	9.44
192.538	-10.85
192.759	-17.67
192.98	11.11
193.201	8.98
193.421	-3.24
193.642	20.33
193.863	20.07
194.083	-12.02
194.304	-18.91
194.525	-1.52
194.745	-18.09
194.966	-1.45
195.187	0.17
195.407	-4.81
195.628	-8.94
195.848	6.6
196.069	-12.22
196.29	-15.76
196.51	-52.9
196.731	-80.03
196.951	-112.65
197.172	-105.64
197.392	-118.27
197.613	-50.08
197.833	-53.55
198.054	-52.75
198.274	-39.64
198.495	-23.09
198.715	-25.18
198.936	8.6
199.156	18.16
199.377	25.62
199.597	22.26
199.817	12.7
200.038	-8.28
200.258	-9.41
200.479	-13.23
200.699	-25.99
200.919	-38.53
201.14	-39.13
201.36	-31.54
201.58	-48.7
201.801	-61.11
202.021	-55.43
202.241	-42.16
202.461	-47.68
202.682	-35.48
202.902	-17.82
203.122	8.55
203.342	-6.42
203.563	-16.6
203.783	-27.35
204.003	-26.8
204.223	-26.66
204.443	-5.26
204.663	11.18
204.884	29.56
205.104	-0.33
205.324	-6.04
205.544	-37.15
205.764	-37.42
205.984	-34.44
206.204	-11.65
206.424	-49.85
206.644	-57.57
206.864	-73.92
207.084	-30.32
207.304	-46.64
207.525	-20.48
207.745	-0.2
207.964	6.73
208.184	-10.4
208.404	-8.07
208.624	-2.19
208.844	-23.85
209.064	-23.2
209.284	-14.01
209.504	-23.47
209.724	-12.47
209.944	-16.15
210.164	-25.2
210.384	-36.16
210.604	-56.62
210.823	-131.74
211.043	-102.6
211.263	-175.81
211.483	-117.89
211.703	-91.28
211.922	-78.31
212.142	-23.96
212.362	7.84
212.582	13.95
212.801	16.41
213.021	13.2
213.241	-30.8
213.461	-42.75
213.68	-26.66
213.9	-7.27
214.12	-15.75
214.339	-4.07
214.559	4.74
214.779	-16.58
214.998	-25.24
215.218	-10.45
215.438	-17.78
215.657	-31.24
215.877	-41.15
216.096	-20.67
216.316	-5.26
216.535	-4.13
216.755	3.77
216.974	12.12
217.194	3.56
217.413	-8.46
217.633	-13.48
217.852	-12.85
218.072	-15.34
218.291	-37.7
218.511	-46.34
218.73	-43.37
218.95	-79.7
219.169	-59.99
219.389	-30.49
219.608	-34.29
219.827	-37.65
220.047	-10.19
220.266	-41.75
220.485	-60.11
220.705	-66.35
220.924	-55
221.143	-21.08
221.363	10.28
221.582	14.61
221.801	32.76
222.021	26.79
222.24	11.11
222.459	29.99
222.678	23.92
222.897	17.35
223.117	21.52
223.336	21.5
223.555	1.17
223.774	3.36
223.993	9.68
224.213	-1.42
224.432	-11.32
224.651	-8.45
224.87	6.64
225.089	12.82
225.308	26.71
225.527	21.88
225.746	26.66
225.965	4.5
226.184	-20.25
226.404	-31.69
226.623	-2.36
226.842	-16.64
227.061	-5.99
227.28	11.2
227.499	2.75
227.718	-4.56
227.936	-0.28
228.155	-1.43
228.374	-14.53
228.593	9.97
228.812	5.71
229.031	11.92
229.25	-3.08
229.469	-1.29
229.688	-27.7
229.907	-2.62
230.125	-9.85
230.344	0.42
230.563	1.36
230.782	13.25
231.001	-4.2
231.22	14.83
231.438	17.17
231.657	36.1
231.876	22.24
232.095	30.89
232.313	8.65
232.532	6.6
232.751	-23.27
232.969	3.51
233.188	-16.08
233.407	-10.55
233.625	-29.07
233.844	-21.51
234.063	-40.67
234.281	-46.94
234.5	-45.99
234.719	-32.09
234.937	-48.44
235.156	-31.66
235.374	-2.35
235.593	10.42
235.811	16.53
236.03	18.81
236.249	15.41
236.467	9.24
236.686	0.99
236.904	-1.03
237.123	1.92
237.341	-5.53
237.559	-15.61
237.778	1.01
237.996	-32.06
238.215	-99.54
238.433	-158.43
238.652	-53.96
238.87	-81.41
239.088	-79.56
239.307	-29.69
239.525	-18.75
239.743	-43.05
239.962	-60.07
240.18	-21.76
240.398	-30.33
240.617	-40.74
240.835	-32.46
241.053	-10.29
241.271	-17.69
241.49	0.52
241.708	-2.01
241.926	-2.98
242.144	8.67
242.363	-12.6
242.581	-74.27
242.799	-51.48
243.017	-43.53
243.235	-52.9
243.453	-64.91
243.672	-36.74
243.89	-22.68
244.108	-6.27
244.326	14.97
244.544	25.2
244.762	11.9
244.98	9.07
245.198	3.32
245.416	-8.62
245.634	-16.04
245.852	-19.51
246.07	-9.78
246.288	-7.24
246.506	-15.58
246.724	-10.74
246.942	-8.43
247.16	2.39
247.378	-21.39
247.596	1.7
247.814	-14.59
248.032	-21.62
248.25	-19.69
248.468	11.87
248.685	17.39
248.903	16.57
249.121	18.79
249.339	7.65
249.557	2.67
249.775	-11
249.992	-10.48
250.21	-15.93
250.428	-5.65
250.646	-7.8
250.863	-15.77
251.081	-13.21
251.299	-7.64
251.517	-13.38
251.734	-20.07
251.952	-15.6
252.17	-20.52
252.387	-47.9
252.605	-44.84
252.823	-72.12
253.04	-62.8
253.258	-38.12
253.475	-9.25
253.693	-12.27
253.911	2.3
254.128	3.75
254.346	-10.14
254.563	0.81
254.781	-6.84
254.998	-18.75
255.216	-52.59
255.433	-66.04
255.651	-57.63
255.868	-32.89
256.086	-20.32
256.303	-1.16
256.521	19.33
256.738	10.36
256.956	-0.54
257.173	-10.69
257.39	-3.35
257.608	-10.62
257.825	-16.66
258.043	-8.31
258.26	-2.61
258.477	-7.66
258.695	-5.97
258.912	-21.61
259.129	-35.28
259.346	-49.09
259.564	-62.66
259.781	-77.57
259.998	-24.83
260.216	-17.37
260.433	-7.87
260.65	3.44
260.867	14.38
261.084	15.48
261.302	12.76
261.519	21.3
261.736	8.21
261.953	10.99
262.17	20.03
262.387	24.23
262.604	7.02
262.822	8.49
263.039	7.01
263.256	-6.14
263.473	-2.19
263.69	12.08
263.907	16.79
264.124	32.91
264.341	38.99
264.558	28.59
264.775	10.93
264.992	0.35
265.209	-35.75
265.426	-80.15
265.643	-69.71
265.86	-80.96
266.077	-89.94
266.294	-48.01
266.51	-11.77
266.727	-11.28
266.944	-2.2
267.161	5.83
267.378	17.85
267.595	9.39
267.812	-7.72
268.028	-23.54
268.245	-16.32
268.462	-37.91
268.679	-31.08
268.896	8.11
269.112	7.76
269.329	-10.73
269.546	1.03
269.763	-8.92
269.979	-21.26
270.196	-10.91
270.413	-1.09
270.629	-5.06
270.846	-2.59
271.063	-8.02
271.279	-2.8
271.496	-12.88
271.712	-15.26
271.929	-17.91
272.146	-24.05
272.362	-32.03
272.579	-34.14
272.795	-33.26
273.012	-19.78
273.228	-3.45
273.445	1.43
273.661	-5.8
273.878	-25.93
274.094	-38.44
274.311	-59.24
274.527	-81.78
274.744	-33.86
274.96	-6.15
275.177	8.98
275.393	17.81
275.609	19.93
275.826	19.49
276.042	2.32
276.259	2.13
276.475	-4.68
276.691	-17.29
276.908	-26.1
277.124	-10.9
277.34	-30.46
277.557	-27.43
277.773	-21.07
277.989	-15.38
278.205	-26.89
278.422	-8.48
278.638	-11.63
278.854	-15.82
279.07	0.3
279.286	-0.63
279.503	0.43
279.719	9.14
279.935	10.89
280.151	-14.39
280.367	0.14
280.583	-9.19
280.799	-20.45
281.016	-54.81
281.232	-28.68
281.448	-31.69
281.664	-16.75
281.88	-3.85
282.096	27.06
282.312	17
282.528	12.09
282.744	5.31
282.96	-13.32
283.176	-57.83
283.392	-65.17
283.608	-54.02
283.824	-87.18
284.04	-127.06
284.256	-61.94
284.471	-42.56
284.687	-40.9
284.903	-22.17
285.119	7.22
285.335	6.06
285.551	-0.74
285.767	0.74
285.982	-4.66
286.198	-43.93
286.414	-47.86
286.63	-32.29
286.846	-5.76
287.061	-12.1
287.277	-7.03
287.493	-10.12
287.709	-36.68
287.924	-46.88
288.14	-14.49
288.356	-2.06
288.571	-5.13
288.787	-0
289.003	8.46
289.218	-19.67
289.434	-14.53
289.65	8.96
289.865	5.95
290.081	1.65
290.296	8.57
290.512	-1.67
290.727	-11.17
290.943	1.07
291.159	6.55
291.374	-5.73
291.59	2.55
291.805	-15.46
292.021	-9.09
292.236	-17.03
292.451	1.33
292.667	6.69
292.882	29.13
293.098	18.3
293.313	17.46
293.529	21.05
293.744	5.43
293.959	-13.61
294.175	-12.61
294.39	-47.68
294.605	-34.87
294.821	-26.5
295.036	-15.08
295.251	-13.88
295.467	-11.57
295.682	-15.58
295.897	-27.43
296.112	-33.49
296.328	-19.1
296.543	-20
296.758	-29.09
296.973	-21.09
297.188	-25.35
297.404	-69.78
297.619	-81.33
297.834	-96.67
298.049	-85.78
298.264	-89.66
298.479	-73.71
298.694	-26.75
298.909	-19.12
299.125	-24.74
299.34	-10.91
299.555	-12.41
299.77	5.35
299.985	12.26
300.2	15.88
300.415	14.74
300.63	10.48
300.845	3.46
301.06	-3.95
301.275	-5.5
301.49	-5.26
301.704	-10.44
301.919	-32.96
302.134	-37.49
302.349	-34.1
302.564	-37.45
302.779	-46.81
302.994	-11.59
303.209	-15.81
303.423	-13.75
303.638	-15.26
303.853	-15.44
304.068	-36.36
304.283	-29.66
304.497	-52.36
304.712	-33.14
304.927	-20.97
305.142	-9.88
305.356	5.97
305.571	20.66
305.786	9.7
306	25.4
306.215	9.37
306.43	-19.3
306.644	-27.8
306.859	-23.38
307.074	-34.03
307.288	-26.6
307.503	-10.54
307.717	-17.68
307.932	0.36
308.147	-4.03
308.361	-9.26
308.576	-26.53
308.79	-10.86
309.005	-40.76
309.219	-10.56
309.434	27.18
309.648	26.08
309.863	25.28
310.077	28.46
310.292	33.1
310.506	-5.96
310.72	-12.42
310.935	-0.66
311.149	-0.96
311.364	-17.7
311.578	-6.15
311.792	3.86
312.007	4.35
312.221	-14.36
312.435	-2.89
312.649	11.62
312.864	-19.11
313.078	-30.21
313.292	-23.32
313.507	-30.35
313.721	-36.53
313.935	-5.57
314.149	13.67
314.363	11.09
314.578	11.57
314.792	-14.92
315.006	-39.47
315.22	-34.17
315.434	-11.69
315.648	-32.91
315.862	-23.05
316.077	-19.7
316.291	-35.91
316.505	-79.42
316.719	-47.46
316.933	-35.38
317.147	-28.08
317.361	-33.27
317.575	-13.99
317.789	-22.38
318.003	-20.43
318.217	-24.49
318.431	-25.76
318.645	-28.17
318.859	-10.09
319.073	-2.68
319.287	2.62
319.5	4.7
319.714	-9.42
319.928	-5.12
320.142	-12.71
320.356	-9.58
320.57	-25.54
320.784	0.5
320.997	-36.49
321.211	-16.93
321.425	-44.51
321.639	-11.66
321.853	-1.05
322.066	4.14
322.28	-4.32
322.494	8.3
322.707	4.85
322.921	-9.4
323.135	-10.42
323.349	-9.66
323.562	-24.78
323.776	-21.26
323.989	0.13
324.203	0.25
324.417	5
324.63	10.46
324.844	-14.22
325.057	-57.43
325.271	-59.31
325.485	-78.1
325.698	-60.13
325.912	-19.53
326.125	-7.59
326.339	12.3
326.552	4.93
326.766	10.69
326.979	1.84
327.193	-2.55
327.406	-34.78
327.619	-4.78
327.833	-19.01
328.046	-26.3
328.26	-20.39
328.473	-12.38
328.686	-18.57
328.9	8.68
329.113	2.26
329.326	-4.1
329.54	11.08
329.753	9.77
329.966	6.27
330.179	7.19
330.393	13.27
330.606	4.3
330.819	6.42
331.032	-2.14
331.246	5.52
331.459	7.26
331.672	-2.86
331.885	-20.62
332.098	-18.31
332.311	-17.61
332.525	-15.43
332.738	-10.64
332.951	-9.07
333.164	-5.25
333.377	-9.2
333.59	-24.46
333.803	-19.32
334.016	-22.05
334.229	-26.32
334.442	-12.52
334.655	-4.37
334.868	-19.65
335.081	-15.17
335.294	-20.22
335.507	-40.91
335.72	-19.27
335.933	1.61
336.146	-1.6
336.359	7.99
336.572	14.53
336.785	-5.51
336.997	-21.39
337.21	-17.25
337.423	-47.4
337.636	-35.33
337.849	-20.11
338.062	-4.11
338.274	2.12
338.487	-2.72
338.7	-26.9
338.913	-24.33
339.125	-39.96
339.338	-30.58
339.551	-12.46
339.763	11.04
339.976	4.05
340.189	-10.49
340.402	-12.9
340.614	-15.91
340.827	-23.73
341.039	-30.01
341.252	-24.63
341.465	-32.92
341.677	-42.4
341.89	-52.21
342.102	-30.46
342.315	-29.42
342.527	-19.3
342.74	-38.48
342.952	-32.17
343.165	-39.59
343.377	-13.96
343.59	-18.81
343.802	5.63
344.015	16.73
344.227	13
344.44	-13.5
344.652	1.57
344.864	-3.47
345.077	-6.1
345.289	10.26
345.502	28.96
345.714	13.23
345.926	13.24
346.139	-8.19
346.351	-21.65
346.563	-32.64
346.775	-33.94
346.988	-24.16
347.2	-13.88
347.412	0.48
347.624	-0.41
347.837	-3.95
348.049	-5.47
348.261	-12.91
348.473	-24.28
348.685	-20.33
348.897	-31.34
349.11	-24.84
349.322	-11.49
349.534	-25.6
349.746	-29.3
349.958	-31.19
350.17	-58.03
350.382	-76.54
350.594	-48.04
350.806	-19.67
351.018	-6.66
351.23	6.62
351.442	16.81
351.654	16.65
351.866	-9.27
352.078	6.38
352.29	0.97
352.502	-6.06
352.714	-11.38
352.926	-8.47
353.138	-12.52
353.35	-21.34
353.561	-6.72
353.773	-12.45
353.985	5.96
354.197	0.79
354.409	2.07
354.621	-15.92
354.832	-20.63
355.044	-40.68
355.256	-58.16
355.468	-62.33
355.679	-29.9
355.891	-3.28
356.103	-10.43
356.314	-19.76
356.526	-23.32
356.738	-36.11
356.949	-49.6
357.161	-27.53
357.373	-3.86
357.584	6.37
357.796	8.73
358.008	8.05
358.219	5.31
358.431	-1.42
358.642	-7.12
358.854	-11.69
359.065	-29.13
359.277	-26.28
359.488	-33.13
359.7	-33.87
359.911	-40.52
360.123	-23.94
360.334	-38.88
360.546	-29.72
360.757	-20.63
360.969	-11.55
361.18	-4.26
361.391	20.5
361.603	23.17
361.814	15.66
362.025	20.73
362.237	11.84
362.448	9.46
362.659	1.61
362.871	-11.6
363.082	-20.15
363.293	-23.82
363.504	-47.21
363.716	-44.34
363.927	-9.94
364.138	-36.77
364.349	-45.78
364.56	-54.84
364.772	-32.44
364.983	-27.68
365.194	-13.72
365.405	-5.37
365.616	3.59
365.827	-18.66
366.038	-27.83
366.25	-14.38
366.461	-10.58
366.672	-13.82
366.883	-17.82
367.094	-23.14
367.305	-33.74
367.516	-23.6
367.727	-29.04
367.938	-19.76
368.149	-21.72
368.36	-26.46
368.571	-46.84
368.781	-41.78
368.992	-40.85
369.203	-47.41
369.414	-57.67
369.625	-41.82
369.836	-11.11
370.047	-15.49
370.258	1.62
370.468	8.15
370.679	-14.34
370.89	-48.59
371.101	-16.36
371.312	-33.96
371.522	-24.88
371.733	-13.09
371.944	-7.52
372.155	-13.45
372.365	-1.43
372.576	-0.77
372.787	15.1
372.997	12.39
373.208	8.45
373.419	6.8
373.629	1.93
373.84	-20.38
374.05	-18.97
374.261	-30.32
374.472	-22.98
374.682	-4.24
374.893	2.52
375.103	8.19
375.314	19.43
375.524	18.62
375.735	17.14
375.945	15.51
376.156	14.25
376.366	4.26
376.577	8.41
376.787	4.11
376.997	11.67
377.208	9.22
377.418	5.02
377.629	-1.79
377.839	-2.72
378.049	-11.97
378.26	-15.72
378.47	-7.41
378.68	1.78
378.89	1.99
379.101	6.67
379.311	6.08
379.521	-4.84
379.732	-10.13
379.942	-21.34
380.152	-23.69
380.362	-18.12
380.572	0.58
380.783	6.13
380.993	17.34
381.203	15.77
381.413	13.97
381.623	15
381.833	11.3
382.043	6.96
382.253	6.49
382.463	17.61
382.674	10.86
382.884	17.53
383.094	16.9
383.304	19.42
383.514	12.77
383.724	3.34
383.934	-10.14
384.144	-5.97
384.353	-0.99
384.563	-9.39
384.773	-3.5
384.983	-2.59
385.193	-8.05
385.403	-13.13
385.613	-5.6
385.823	-2.73
386.033	-0.71
386.242	-5.23
386.452	-9.85
386.662	-11.47
386.872	-10.63
387.082	-9.13
387.291	-9.79
387.501	-4.36
387.711	-1.5
387.921	-2.64
388.13	-2.11
388.34	3.91
388.55	-0.82
388.759	-5.67
388.969	-3.11
389.179	-4.84
389.388	-7.24
389.598	-6.31
389.807	-9.21
390.017	-11.99
390.227	-10.29
390.436	-9.32
390.646	-9.09
390.855	-5.62
391.065	-5.52
391.274	-4.94
391.484	-4.56
391.693	-1.48
391.903	-0.67
392.112	-0.53
392.322	-2.32
392.531	-2.76
392.74	-2.75
392.95	-2.52
393.159	-1.2
393.369	-1.07
393.578	-0.13
393.787	-1.48
393.997	-0.59
394.206	-2.19
394.415	-0.53
394.625	0.13
394.834	-1.13
395.043	-0.69
395.252	1.76
395.462	2.23
395.671	1.82
395.88	4.52
396.089	3.61
396.298	3.42
396.508	3.53
396.717	3.45
396.926	2.68
397.135	3
397.344	1.93
397.553	1.53
397.762	2.33
397.971	1.84
398.181	1.68
398.39	2.04
398.599	2.63
398.808	2.57
399.017	3.82
399.226	4.21
399.435	4.41
399.644	4.49
399.853	4.28
400.062	4.05
400.27	3.77
400.479	3.81
400.688	3.67
400.897	3.34
401.106	3.35
401.315	3.39
401.524	3.38
401.733	3.42
401.941	4.21
402.15	3.84
402.359	3.95
402.568	4.13
402.777	4.22
402.985	3.62
403.194	3.57
403.403	3.75
403.612	3.48
403.82	3.23
404.029	3.43
404.238	3.59
404.446	3.74
404.655	4.04
404.864	4.05
405.072	3.95
405.281	3.98
405.489	3.67
405.698	3.54
405.906	3.58
406.115	3.52
406.324	3.51
406.532	3.61
406.741	3.57
406.949	3.6
407.158	3.72
407.366	3.6
407.574	3.67
407.783	3.73
407.991	3.66
408.2	3.81
408.408	3.81
408.617	3.73
408.825	3.52
409.033	3.72
409.242	3.7
409.45	3.77
409.658	3.8
409.867	4.06
410.075	4.01
410.283	3.79
410.491	3.73
410.7	3.58
410.908	3.54
411.116	3.59
411.324	3.68
411.533	3.6
411.741	3.67
411.949	3.63
412.157	3.46
412.365	3.52
412.573	3.73
412.781	3.66
412.99	3.65
413.198	3.67
413.406	3.66
413.614	3.66
413.822	3.77
414.03	3.71
414.238	3.8
414.446	3.78
414.654	3.62
414.862	3.53
415.07	3.48
415.278	3.49
415.486	3.34
415.694	3.48
415.902	3.48
416.109	3.5
416.317	3.38
416.525	3.41
416.733	3.18
416.941	3.2
417.149	3.12
417.357	3.12
417.564	3.12
417.772	3.22
417.98	3.17
418.188	3.17
418.395	2.86
418.603	2.76
418.811	2.72
419.019	2.73
419.226	2.84
419.434	2.95
419.642	3.04
419.849	3
420.057	2.96
420.265	2.86
420.472	2.99
420.68	2.96
420.887	3.05
421.095	3.08
421.302	2.96
421.51	2.96
421.717	2.96
421.925	2.96
422.132	3.03
422.34	3.08
422.547	2.98
422.755	3
422.962	2.99
423.17	2.78
423.377	2.81
423.585	2.89
423.792	2.78
423.999	2.78
424.207	2.77
424.414	2.78
424.621	2.88
424.829	2.91
425.036	2.8
425.243	2.94
425.451	2.86
425.658	2.67
425.865	2.86
426.072	2.92
426.28	2.89
426.487	2.95
426.694	2.96
426.901	2.86
427.108	2.81
427.315	2.88
427.523	2.82
427.73	2.88
427.937	2.62
428.144	2.62
428.351	2.53
428.558	2.52
428.765	2.46
428.972	2.64
429.179	2.51
429.386	2.49
429.593	2.41
429.8	2.49
430.007	2.47
430.214	2.51
430.421	2.63
430.628	2.84
430.835	2.89
431.042	2.85
431.249	2.94
431.456	2.83
431.662	2.87
431.869	2.91
432.076	2.99
432.283	3.13
432.49	3.18
432.697	3.1
432.903	3.03
433.11	3.04
433.317	2.91
433.524	2.89
433.73	2.77
433.937	2.84
434.144	2.65
434.35	2.65
434.557	2.72
434.764	2.88
434.97	2.67
435.177	2.91
435.384	3.04
435.59	3.04
435.797	3.03
436.003	3.16
436.21	3.11
436.416	3.02
436.623	3.04
436.829	3.03
437.036	3.03
437.242	3.11
437.449	3.07
437.655	3.09
437.862	3.08
438.068	3.04
438.275	3.08
438.481	3.1
438.687	3
438.894	3.2
439.1	3.18
439.307	3.22
439.513	3.22
439.719	3.35
439.926	3.17
440.132	3.34
440.338	3.22
440.544	3.12
440.751	3.01
440.957	3.12
441.163	3.04
441.369	3.04
441.575	3.09
441.782	3.18
441.988	3.1
442.194	3.06
442.4	3.05
442.606	3.24
442.812	3.25
443.018	3.21
443.224	3.36
443.431	3.41
443.637	3.26
443.843	3.24
444.049	3.31
444.255	3.21
444.461	3.12
444.667	3.06
444.873	3.06
445.079	3.09
445.284	3.19
445.49	3.17
445.696	3.17
445.902	3.17
446.108	3.2
446.314	3.14
446.52	3.21
446.726	3.35
446.931	3.28
447.137	3.22
447.343	3.3
447.549	3.37
447.755	3.3
447.96	3.34
448.166	3.41
448.372	3.4
448.578	3.26
448.783	3.34
448.989	3.41
449.195	3.31
449.4	3.33
449.606	3.41
449.812	3.32
450.017	3.23
450.223	3.21
450.428	3.09
450.634	3.06
450.84	3.03
451.045	3.13
451.251	3.2
451.456	3.25
451.662	3.28
451.867	3.37
452.073	3.28
452.278	3.22
452.483	3.25
452.689	3.21
452.894	3.25
453.1	3.31
453.305	3.4
453.51	3.4
453.716	3.46
453.921	3.5
454.127	3.38
454.332	3.26
454.537	3.15
454.742	3.02
454.948	2.95
455.153	3.08
455.358	3.18
455.563	3.3
455.769	3.35
455.974	3.29
456.179	3.18
456.384	3.14
456.589	3.04
456.795	3
457	3.05
457.205	3.01
457.41	2.9
457.615	2.96
457.82	3.08
458.025	3.09
458.23	3.21
458.435	3.29
458.64	3.28
458.845	3.3
459.05	3.28
459.255	3.26
459.46	3.27
459.665	3.29
459.87	3.19
460.075	3.15
460.28	3.19
460.485	3.29
460.69	3.33
460.895	3.41
461.099	3.42
461.304	3.36
461.509	3.27
461.714	3.32
461.919	3.31
