Data from Ofra_2a_PS_6CX18_Reflection_1.txt Node
Date: Tue Jul 20 09:51:56 EDT 2021
User: Adam
Spectrometer: FLMT01687
Trigger mode: 0
Integration Time (sec): 9.450000E-1
Scans to average: 3
Electric dark correction enabled: true
Nonlinearity correction enabled: false
Boxcar width: 3
XAxis mode: Wavelengths
Number of Pixels in Spectrum: 3648
>>>>>Begin Spectral Data<<<<<
179.494	1429.59
179.716	901.5
179.937	985.16
180.158	3640.23
180.38	-1714.83
180.601	-332.99
180.823	-140.21
181.044	-19.82
181.265	-53.95
181.486	60.57
181.708	-425
181.929	-154.3
182.15	-494.89
182.372	34.21
182.593	56.08
182.814	309.73
183.035	171.59
183.257	90.48
183.478	85.93
183.699	87.74
183.92	74.88
184.141	78.89
184.363	61.08
184.584	51.22
184.805	55.81
185.026	57.9
185.247	20.82
185.468	4.18
185.689	-2.43
185.91	-5.48
186.132	11.4
186.353	-8.03
186.574	-2.72
186.795	-2.21
187.016	-1.24
187.237	1.24
187.458	-0.58
187.679	-11.52
187.9	16.79
188.121	23.36
188.342	49.01
188.563	60.3
188.784	57.05
189.005	69.51
189.226	54.54
189.447	40.7
189.667	40.36
189.888	31.27
190.109	27.82
190.33	32.32
190.551	18.57
190.772	9.47
190.993	13.26
191.214	18.23
191.434	12.77
191.655	24.8
191.876	22.19
192.097	20.97
192.318	35.74
192.538	27.75
192.759	22.05
192.98	8.04
193.201	14.16
193.421	20.2
193.642	16.52
193.863	-2.99
194.083	8.17
194.304	4.14
194.525	29.84
194.745	-2.51
194.966	-4.96
195.187	-11.18
195.407	-10.86
195.628	-7
195.848	-2.95
196.069	-33.42
196.29	-28.19
196.51	-46.4
196.731	-14.58
196.951	-11.42
197.172	-16.63
197.392	-11.17
197.613	-3.22
197.833	-0.41
198.054	7.75
198.274	-9.43
198.495	-7.06
198.715	-31.68
198.936	-31.07
199.156	-3.58
199.377	-3.8
199.597	-5.17
199.817	16.25
200.038	13.03
200.258	24.78
200.479	26.56
200.699	23.41
200.919	10.95
201.14	11.79
201.36	5.32
201.58	22.78
201.801	17.72
202.021	15.98
202.241	22.36
202.461	31.11
202.682	36.43
202.902	33.59
203.122	25.31
203.342	37.07
203.563	35.77
203.783	22.05
204.003	26.78
204.223	26.14
204.443	26.3
204.663	21.8
204.884	25.57
205.104	15.2
205.324	41.41
205.544	43.78
205.764	49.17
205.984	45.65
206.204	46.21
206.424	38.08
206.644	34.61
206.864	16.79
207.084	20.78
207.304	13.14
207.525	3.83
207.745	6.68
207.964	-9.87
208.184	9.24
208.404	2.77
208.624	-20.04
208.844	-32.04
209.064	-16.26
209.284	-10.7
209.504	-8.84
209.724	-25.56
209.944	-18.26
210.164	-15
210.384	-0.08
210.604	-17.04
210.823	-26.14
211.043	-25.95
211.263	-3.25
211.483	-0.97
211.703	12.76
211.922	17.28
212.142	19.59
212.362	28.78
212.582	26.81
212.801	21.81
213.021	24.65
213.241	13.4
213.461	10.53
213.68	9.79
213.9	8.1
214.12	13.41
214.339	7.76
214.559	15.23
214.779	21.17
214.998	15.06
215.218	18.6
215.438	26.39
215.657	23.73
215.877	17.79
216.096	20.32
216.316	14.96
216.535	16.44
216.755	6.08
216.974	6.67
217.194	0.44
217.413	17.53
217.633	9.17
217.852	11.85
218.072	4.51
218.291	18.19
218.511	14.61
218.73	16.1
218.95	19.76
219.169	23.99
219.389	17.68
219.608	29.73
219.827	24.94
220.047	16.56
220.266	12.84
220.485	9.81
220.705	4.18
220.924	15.55
221.143	10.14
221.363	12.22
221.582	17.5
221.801	23.37
222.021	17.14
222.24	18.03
222.459	2.87
222.678	-2.11
222.897	-5.46
223.117	-10.08
223.336	-18
223.555	-23.81
223.774	-13.01
223.993	10.56
224.213	4.34
224.432	22.46
224.651	33.82
224.87	40.25
225.089	46.46
225.308	42.28
225.527	37.43
225.746	46.11
225.965	20.82
226.184	8.17
226.404	1.6
226.623	6.73
226.842	12.46
227.061	14.82
227.28	26.65
227.499	44.2
227.718	43.45
227.936	39.29
228.155	37.16
228.374	38.31
228.593	32.13
228.812	20.97
229.031	6.5
229.25	12.21
229.469	29.42
229.688	33.23
229.907	20.82
230.125	31.71
230.344	40.06
230.563	44.35
230.782	35.22
231.001	36.13
231.22	25.69
231.438	32.23
231.657	28.91
231.876	29.99
232.095	28.49
232.313	39.53
232.532	35.17
232.751	40.52
232.969	39.03
233.188	31.52
233.407	21.5
233.625	23.47
233.844	20.27
234.063	11.62
234.281	6.32
234.5	14.2
234.719	6.79
234.937	15.9
235.156	4.61
235.374	2.79
235.593	-3.12
235.811	-8.75
236.03	-30.1
236.249	-0.81
236.467	0.72
236.686	17.75
236.904	10.58
237.123	18.17
237.341	26.5
237.559	26.93
237.778	25.35
237.996	22.16
238.215	21.24
238.433	37.4
238.652	31.34
238.87	27.37
239.088	22.92
239.307	17.45
239.525	5.56
239.743	-6.14
239.962	-29.19
240.18	-27.63
240.398	-27.9
240.617	-6.64
240.835	1.5
241.053	13.73
241.271	23.37
241.49	17.29
241.708	16.36
241.926	14.14
242.144	8.15
242.363	5.83
242.581	10.93
242.799	6.6
243.017	22.38
243.235	22.49
243.453	35.37
243.672	24.57
243.89	12.58
244.108	21.27
244.326	16.01
244.544	8.56
244.762	15.73
244.98	12.21
245.198	6.87
245.416	16
245.634	12.5
245.852	26.96
246.07	30.34
246.288	27.72
246.506	32.1
246.724	56.73
246.942	54.51
247.16	46.79
247.378	29.54
247.596	33.29
247.814	18.53
248.032	6.85
248.25	-1.6
248.468	-1.21
248.685	1.42
248.903	-2.28
249.121	2.01
249.339	15.47
249.557	20.01
249.775	4.52
249.992	2.23
250.21	-9.53
250.428	-3.47
250.646	-7.82
250.863	-5.02
251.081	-2.47
251.299	23.94
251.517	36.88
251.734	45.18
251.952	55.9
252.17	47.03
252.387	38.69
252.605	38.32
252.823	17.52
253.04	7.19
253.258	-6.12
253.475	-14.53
253.693	4.68
253.911	11.63
254.128	9.19
254.346	14.12
254.563	14.51
254.781	17.12
254.998	20.23
255.216	26.05
255.433	12.41
255.651	6.3
255.868	-2.07
256.086	-0.88
256.303	12.71
256.521	4.6
256.738	-13.3
256.956	-8.76
257.173	11.18
257.39	30.18
257.608	28.31
257.825	22.33
258.043	27.29
258.26	30.27
258.477	40.42
258.695	38.98
258.912	46.98
259.129	37.17
259.346	35.99
259.564	34.94
259.781	48.69
259.998	37.12
260.216	43
260.433	34.74
260.65	44.89
260.867	33.94
261.084	36.91
261.302	26.01
261.519	26.03
261.736	4.64
261.953	-0.62
262.17	2.3
262.387	8.03
262.604	-15.77
262.822	-4.21
263.039	-3.91
263.256	10.36
263.473	2.85
263.69	-0.35
263.907	7.6
264.124	17.92
264.341	7.58
264.558	11.21
264.775	14.83
264.992	18.95
265.209	19.03
265.426	16.1
265.643	22.41
265.86	18.42
266.077	16.11
266.294	7.18
266.51	9.76
266.727	-2.82
266.944	-13.22
267.161	-26.32
267.378	-19.89
267.595	-19.69
267.812	-12.63
268.028	-5.27
268.245	2.55
268.462	8.32
268.679	9.66
268.896	5.46
269.112	13.51
269.329	18.79
269.546	11.42
269.763	20.32
269.979	19.17
270.196	25.57
270.413	22.14
270.629	21.67
270.846	20.86
271.063	25.26
271.279	19.96
271.496	9.39
271.712	5.5
271.929	22.66
272.146	25.12
272.362	6.95
272.579	5.43
272.795	6.51
273.012	20.7
273.228	15.18
273.445	-0.62
273.661	0.59
273.878	9.87
274.094	14.47
274.311	18.89
274.527	14.36
274.744	16.63
274.96	21.74
275.177	23.12
275.393	26.42
275.609	28.02
275.826	22.24
276.042	30.54
276.259	30.77
276.475	28.04
276.691	22.54
276.908	27.82
277.124	17.29
277.34	10.73
277.557	7.29
277.773	-3.53
277.989	-0.76
278.205	-5.82
278.422	-6.01
278.638	9.82
278.854	18.58
279.07	16.05
279.286	20.98
279.503	21.95
279.719	37.33
279.935	18.88
280.151	18.77
280.367	12.74
280.583	9.25
280.799	22.18
281.016	26.14
281.232	21.34
281.448	25.13
281.664	19.31
281.88	18.63
282.096	22.08
282.312	2.01
282.528	-13.58
282.744	-22.21
282.96	-5.15
283.176	-1.86
283.392	10.73
283.608	19.76
283.824	30.57
284.04	35.13
284.256	31.74
284.471	21.15
284.687	17.15
284.903	5.4
285.119	-5.42
285.335	0.11
285.551	6.28
285.767	12.08
285.982	19.13
286.198	16.76
286.414	23.41
286.63	26.91
286.846	18.66
287.061	11.13
287.277	13.07
287.493	9.62
287.709	14.18
287.924	21.66
288.14	29.95
288.356	37.98
288.571	43.46
288.787	38.57
289.003	52.48
289.218	50.13
289.434	42.14
289.65	44.29
289.865	47.6
290.081	42.84
290.296	45.58
290.512	37.78
290.727	41.49
290.943	42.68
291.159	18.68
291.374	16.8
291.59	6.95
291.805	4.65
292.021	-7.49
292.236	-14.06
292.451	-10.35
292.667	6.14
292.882	-6.34
293.098	1.01
293.313	-6.12
293.529	1.31
293.744	5.3
293.959	3.19
294.175	6.96
294.39	10.15
294.605	11.23
294.821	11.56
295.036	10.55
295.251	12.1
295.467	15.8
295.682	12.05
295.897	14.06
296.112	20.6
296.328	20.55
296.543	21.96
296.758	21.07
296.973	18.11
297.188	18.28
297.404	25.96
297.619	18.38
297.834	30.04
298.049	25.51
298.264	21.38
298.479	12.11
298.694	17.27
298.909	6.42
299.125	14.18
299.34	6.15
299.555	16.83
299.77	12.13
299.985	10.82
300.2	1.62
300.415	14.22
300.63	3.62
300.845	9.71
301.06	5.52
301.275	17.99
301.49	27.73
301.704	31.68
301.919	23.34
302.134	17.22
302.349	11.25
302.564	4.02
302.779	1.94
302.994	-9.53
303.209	-14.82
303.423	-0.06
303.638	16.48
303.853	21.17
304.068	42.05
304.283	33.64
304.497	37.98
304.712	39.01
304.927	30.96
305.142	21.94
305.356	24.56
305.571	13.2
305.786	10.2
306	12.01
306.215	8.16
306.43	17.65
306.644	22.98
306.859	25.49
307.074	24.62
307.288	28.08
307.503	24.55
307.717	23.6
307.932	17.09
308.147	19.39
308.361	21.04
308.576	26.27
308.79	23.87
309.005	23.49
309.219	23.86
309.434	24.53
309.648	20.47
309.863	15.28
310.077	9.72
310.292	9.72
310.506	21.93
310.72	26.55
310.935	28.04
311.149	27.3
311.364	30.92
311.578	27.72
311.792	30.96
312.007	18.93
312.221	19.37
312.435	17.78
312.649	23.19
312.864	6.21
313.078	14.36
313.292	13.45
313.507	21.07
313.721	32.56
313.935	41.05
314.149	33.08
314.363	41.9
314.578	61.94
314.792	60.38
315.006	57.91
315.22	59.19
315.434	56.06
315.648	59.82
315.862	50.47
316.077	27.4
316.291	31.65
316.505	29.43
316.719	4.07
316.933	1.6
317.147	4.68
317.361	4.21
317.575	9.63
317.789	12.29
318.003	23.2
318.217	32.18
318.431	36.38
318.645	38.25
318.859	26.57
319.073	17.33
319.287	22.62
319.5	15.25
319.714	7.02
319.928	6.12
320.142	-2.79
320.356	21.02
320.57	26.19
320.784	14.28
320.997	19.87
321.211	29.06
321.425	17.96
321.639	28.87
321.853	14.17
322.066	13.01
322.28	20.3
322.494	18.59
322.707	17.53
322.921	18.67
323.135	13.64
323.349	20.61
323.562	26.73
323.776	20.99
323.989	19.76
324.203	13.87
324.417	13.62
324.63	-2.65
324.844	-14.02
325.057	-23.05
325.271	-31.47
325.485	-24.56
325.698	-17.83
325.912	-2.83
326.125	12.55
326.339	25.35
326.552	38.6
326.766	43.26
326.979	43.85
327.193	41.63
327.406	39.31
327.619	27.23
327.833	19.51
328.046	5.59
328.26	3.73
328.473	-1.08
328.686	2.51
328.9	-4.62
329.113	-0.53
329.326	4.12
329.54	9.11
329.753	5.7
329.966	8.64
330.179	15.66
330.393	22.8
330.606	27.83
330.819	31.99
331.032	34.09
331.246	37.9
331.459	36.65
331.672	30.32
331.885	24.19
332.098	32.73
332.311	13.21
332.525	12.88
332.738	14.47
332.951	20.35
333.164	6.93
333.377	3.87
333.59	3.18
333.803	14.36
334.016	2.05
334.229	-2.98
334.442	3.83
334.655	28.85
334.868	35.18
335.081	32.86
335.294	32.3
335.507	42.22
335.72	25.96
335.933	18.36
336.146	20.8
336.359	17.23
336.572	11.45
336.785	19.22
336.997	17.17
337.21	34.44
337.423	27.84
337.636	22.73
337.849	14.3
338.062	20.72
338.274	13.2
338.487	9.57
338.7	14.17
338.913	16.51
339.125	10.76
339.338	26.68
339.551	30.18
339.763	29.29
339.976	27.66
340.189	13.93
340.402	16.73
340.614	21.73
340.827	4.69
341.039	0.57
341.252	5.61
341.465	0.51
341.677	3.13
341.89	1.15
342.102	0.38
342.315	14.19
342.527	4.18
342.74	-5.5
342.952	1.39
343.165	6.36
343.377	19.43
343.59	21.58
343.802	16.8
344.015	22.4
344.227	19.61
344.44	13.15
344.652	14.14
344.864	8.15
345.077	-4.08
345.289	-1.21
345.502	7.13
345.714	-0.21
345.926	11.83
346.139	10.96
346.351	4.98
346.563	16.28
346.775	11.41
346.988	9.58
347.2	16.98
347.412	12.99
347.624	14.07
347.837	12.63
348.049	10.74
348.261	11.92
348.473	4.06
348.685	9.41
348.897	10.03
349.11	13.59
349.322	12.74
349.534	7.79
349.746	13.98
349.958	15.69
350.17	15.16
350.382	8.98
350.594	10.94
350.806	15.07
351.018	25.66
351.23	28.14
351.442	25.14
351.654	26.52
351.866	32.77
352.078	21.44
352.29	19.16
352.502	14.78
352.714	11.53
352.926	21.18
353.138	12.68
353.35	8.73
353.561	15.06
353.773	17.38
353.985	18.43
354.197	16.46
354.409	16.23
354.621	24.28
354.832	18.8
355.044	22.16
355.256	18.01
355.468	12.37
355.679	10.89
355.891	6.18
356.103	3.98
356.314	5.86
356.526	-0.51
356.738	-1.4
356.949	0.28
357.161	-4.59
357.373	-4.73
357.584	3.74
357.796	4.07
358.008	10.28
358.219	20.36
358.431	25.24
358.642	33.96
358.854	32.71
359.065	20.01
359.277	18.74
359.488	16.38
359.7	13.79
359.911	8.71
360.123	6.04
360.334	6.48
360.546	-3.22
360.757	3.55
360.969	8.71
361.18	-1.25
361.391	-0.2
361.603	3.03
361.814	7.06
362.025	17.93
362.237	16.66
362.448	16.26
362.659	8.06
362.871	14.47
363.082	12.39
363.293	9.27
363.504	11.85
363.716	14.06
363.927	11.71
364.138	26.83
364.349	26.11
364.56	24.35
364.772	25.78
364.983	21.95
365.194	21.28
365.405	26.39
365.616	17.86
365.827	16.8
366.038	16.48
366.25	20.88
366.461	25.05
366.672	27.76
366.883	26.87
367.094	28.44
367.305	27.59
367.516	28.54
367.727	22.45
367.938	25.6
368.149	16.66
368.36	13.17
368.571	18.65
368.781	18.14
368.992	17.7
369.203	17.9
369.414	9.81
369.625	14.79
369.836	19
370.047	14.25
370.258	12.32
370.468	11.08
370.679	11.63
370.89	16.07
371.101	13.9
371.312	7.51
371.522	10.76
371.733	6.75
371.944	9.45
372.155	-5.15
372.365	-5.5
372.576	-6.21
372.787	-4.5
372.997	-5.11
373.208	-1.37
373.419	-11.63
373.629	6.91
373.84	4.1
374.05	5.67
374.261	4.31
374.472	-0.17
374.682	-5.77
374.893	-4.11
375.103	-2.7
375.314	1.39
375.524	5.53
375.735	6.56
375.945	7.72
376.156	16.67
376.366	26.94
376.577	24.82
376.787	22.86
376.997	24.52
377.208	19.47
377.418	18.69
377.629	14.87
377.839	11.4
378.049	11.91
378.26	16.99
378.47	13.78
378.68	14.92
378.89	9.51
379.101	4.7
379.311	-0.33
379.521	-0.14
379.732	-13.87
379.942	-19.22
380.152	-9.43
380.362	1.24
380.572	5.35
380.783	6.4
380.993	1.78
381.203	12.03
381.413	18.88
381.623	15.14
381.833	8.98
382.043	6.07
382.253	4.79
382.463	9.48
382.674	6.61
382.884	3.48
383.094	-0.13
383.304	3.85
383.514	10.71
383.724	11.43
383.934	11.72
384.144	12.65
384.353	12.18
384.563	10.41
384.773	8.22
384.983	6.52
385.193	9.21
385.403	7.55
385.613	5.05
385.823	6.98
386.033	10.63
386.242	11.73
386.452	10.23
386.662	10.37
386.872	9.3
387.082	11.72
387.291	11.88
387.501	12.39
387.711	9.36
387.921	9.56
388.13	10.27
388.34	10.83
388.55	10.49
388.759	8.98
388.969	5.89
389.179	10.9
389.388	11.33
389.598	8.09
389.807	8.92
390.017	8.09
390.227	6.94
390.436	7.79
390.646	6.54
390.855	5.56
391.065	5.43
391.274	3.62
391.484	3.29
391.693	4.69
391.903	4.12
392.112	2.15
392.322	2.58
392.531	3.45
392.74	2.7
392.95	3.22
393.159	3.92
393.369	4.18
393.578	5.18
393.787	5.56
393.997	6.07
394.206	6.6
394.415	6.35
394.625	4.71
394.834	4.36
395.043	4.26
395.252	4.86
395.462	4.05
395.671	4.36
395.88	5
396.089	5.26
396.298	5.69
396.508	5.3
396.717	4.03
396.926	3.99
397.135	3.5
397.344	2.74
397.553	3.08
397.762	2.57
397.971	2.56
398.181	2.76
398.39	2.95
398.599	3.52
398.808	3.8
399.017	3.86
399.226	4.25
399.435	4.23
399.644	4.34
399.853	4.34
400.062	4.02
400.27	3.78
400.479	3.67
400.688	3.64
400.897	4.01
401.106	4.14
401.315	4.07
401.524	4.3
401.733	4.55
401.941	4.49
402.15	4.4
402.359	4.1
402.568	3.91
402.777	3.89
402.985	3.81
403.194	3.69
403.403	3.42
403.612	3.49
403.82	3.54
404.029	3.54
404.238	3.71
404.446	3.53
404.655	3.47
404.864	3.63
405.072	3.55
405.281	3.43
405.489	3.48
405.698	3.33
405.906	3.41
406.115	3.46
406.324	3.41
406.532	3.44
406.741	3.49
406.949	3.46
407.158	3.46
407.366	3.49
407.574	3.41
407.783	3.35
407.991	3.27
408.2	3.27
408.408	3.28
408.617	3.2
408.825	3.19
409.033	3.18
409.242	3.21
409.45	3.2
409.658	3.2
409.867	3.14
410.075	3.11
410.283	3.04
410.491	3.07
410.7	3.06
410.908	3.08
411.116	3.05
411.324	3.11
411.533	3.07
411.741	3.1
411.949	3.14
412.157	3.17
412.365	3.2
412.573	3.26
412.781	3.2
412.99	3.37
413.198	3.38
413.406	3.32
413.614	3.38
413.822	3.32
414.03	3.2
414.238	3.26
414.446	3.16
414.654	3.08
414.862	3.05
415.07	3.08
415.278	2.99
415.486	3.18
415.694	3.05
415.902	2.98
416.109	3.03
416.317	2.95
416.525	2.96
416.733	3.04
416.941	2.9
417.149	3.04
417.357	3.03
417.564	3.03
417.772	3.13
417.98	2.99
418.188	2.87
418.395	2.84
418.603	2.73
418.811	2.75
419.019	2.73
419.226	2.78
419.434	2.79
419.642	2.82
419.849	2.86
420.057	2.92
420.265	2.95
420.472	2.93
420.68	2.81
420.887	2.89
421.095	2.96
421.302	2.95
421.51	2.97
421.717	3.03
421.925	2.98
422.132	2.95
422.34	2.92
422.547	2.87
422.755	2.91
422.962	2.76
423.17	2.65
423.377	2.79
423.585	2.9
423.792	2.89
423.999	2.91
424.207	2.8
424.414	2.89
424.621	2.93
424.829	2.8
425.036	2.68
425.243	2.71
425.451	2.73
425.658	2.86
425.865	2.8
426.072	2.86
426.28	2.88
426.487	2.96
426.694	2.9
426.901	2.81
427.108	2.82
427.315	2.82
427.523	2.84
427.73	2.84
427.937	2.81
428.144	2.81
428.351	2.9
428.558	2.75
428.765	2.72
428.972	2.69
429.179	2.57
429.386	2.63
429.593	2.6
429.8	2.57
430.007	2.66
430.214	2.64
430.421	2.6
430.628	2.63
430.835	2.63
431.042	2.73
431.249	2.75
431.456	2.8
431.662	2.9
431.869	2.97
432.076	3.07
432.283	2.98
432.49	2.97
432.697	2.96
432.903	2.98
433.11	3.02
433.317	3.03
433.524	2.93
433.73	3
433.937	2.96
434.144	3.07
434.35	2.99
434.557	2.94
434.764	2.92
434.97	3.13
435.177	3.08
435.384	3.13
435.59	3.04
435.797	3.07
436.003	3.05
436.21	2.95
436.416	2.82
436.623	2.88
436.829	2.88
437.036	2.91
437.242	2.92
437.449	3.02
437.655	3.13
437.862	3.15
438.068	3.17
438.275	3.11
438.481	3.17
438.687	3.21
438.894	3.15
439.1	3.12
439.307	3.19
439.513	3.13
439.719	3.17
439.926	3.13
440.132	3.13
440.338	3.18
440.544	3.15
440.751	3.12
440.957	3.14
441.163	3.16
441.369	3.16
441.575	3.15
441.782	3.11
441.988	3.16
442.194	3.22
442.4	3.28
442.606	3.31
442.812	3.31
443.018	3.27
443.224	3.3
443.431	3.31
443.637	3.24
443.843	3.23
444.049	3.16
444.255	3.11
444.461	3.13
444.667	3.18
444.873	3.13
445.079	3.17
445.284	3.16
445.49	3.19
445.696	3.27
445.902	3.34
446.108	3.28
446.314	3.33
446.52	3.36
446.726	3.36
446.931	3.38
447.137	3.4
447.343	3.38
447.549	3.36
447.755	3.36
447.96	3.32
448.166	3.36
448.372	3.33
448.578	3.35
448.783	3.3
448.989	3.35
449.195	3.35
449.4	3.36
449.606	3.31
449.812	3.38
450.017	3.4
450.223	3.44
450.428	3.46
450.634	3.48
450.84	3.45
451.045	3.48
451.251	3.44
451.456	3.38
451.662	3.37
451.867	3.35
452.073	3.34
452.278	3.36
452.483	3.35
452.689	3.37
452.894	3.36
453.1	3.34
453.305	3.39
453.51	3.41
453.716	3.41
453.921	3.41
454.127	3.36
454.332	3.41
454.537	3.46
454.742	3.43
454.948	3.41
455.153	3.42
455.358	3.49
455.563	3.54
455.769	3.56
455.974	3.51
456.179	3.49
456.384	3.52
456.589	3.53
456.795	3.45
457	3.49
457.205	3.43
457.41	3.48
457.615	3.57
457.82	3.6
458.025	3.58
458.23	3.63
458.435	3.57
458.64	3.64
458.845	3.62
459.05	3.54
459.255	3.48
459.46	3.48
459.665	3.54
459.87	3.58
460.075	3.57
460.28	3.61
460.485	3.64
460.69	3.61
460.895	3.68
461.099	3.63
461.304	3.63
461.509	3.56
461.714	3.63
461.919	3.61
462.123	3.68
462.328	3.67
462.533	3.69
462.738	3.69
462.942	3.8
463.147	3.71
463.352	3.75
463.556	3.77
463.761	3.73
463.966	3.72
464.17	3.75
464.375	3.69
464.58	3.66
464.784	3.67
464.989	3.7
465.193	3.78
465.398	3.82
465.602	3.81
465.807	3.88
466.011	3.96
466.216	3.96
466.42	3.97
466.625	3.95
466.829	3.94
467.034	3.99
467.238	3.99
467.443	4.01
467.647	4.05
467.851	4.04
468.056	4.03
468.26	4.01
468.464	4.04
468.669	4.08
468.873	4.03
469.077	4.03
469.282	4.03
469.486	4.05
469.69	4.1
469.894	4.12
