Data from Ofra_1a_PS_4HS15_Reflection_2.txt Node
Date: Tue Jul 20 10:57:22 EDT 2021
User: Adam
Spectrometer: FLMT01687
Trigger mode: 0
Integration Time (sec): 1.004000E0
Scans to average: 2
Electric dark correction enabled: true
Nonlinearity correction enabled: false
Boxcar width: 2
XAxis mode: Wavelengths
Number of Pixels in Spectrum: 3648
>>>>>Begin Spectral Data<<<<<
179.494	-208.63
179.716	-373.28
179.937	803.68
180.158	-1293.63
180.38	211.4
180.601	154.91
180.823	142.33
181.044	93.44
181.265	109.55
181.486	110.69
181.708	122.88
181.929	-8590.91
182.15	-85.05
182.372	-223.15
182.593	-29.25
182.814	-128.86
183.035	26.11
183.257	95.2
183.478	40.03
183.699	10.22
183.92	6.42
184.141	-28.35
184.363	-45.73
184.584	-78.43
184.805	-32.14
185.026	-2.34
185.247	3.62
185.468	-21.68
185.689	6.08
185.91	-46.53
186.132	-7.96
186.353	-0.76
186.574	6.96
186.795	7.47
187.016	55.86
187.237	32.97
187.458	20.93
187.679	36.62
187.9	56.15
188.121	65.54
188.342	75.69
188.563	90.23
188.784	86.04
189.005	53.08
189.226	35.68
189.447	26.42
189.667	12.88
189.888	-22.7
190.109	-21.36
190.33	-5.23
190.551	-15.03
190.772	-15.86
190.993	11.37
191.214	-6.85
191.434	-10.84
191.655	45.04
191.876	81.49
192.097	91.15
192.318	65.3
192.538	51.34
192.759	37.61
192.98	38.12
193.201	18.43
193.421	20.85
193.642	32.53
193.863	28.95
194.083	23.73
194.304	56.68
194.525	42.46
194.745	26.16
194.966	21.55
195.187	17.97
195.407	-5.7
195.628	12.12
195.848	25.95
196.069	27.56
196.29	17.92
196.51	18.14
196.731	-6.63
196.951	-49.92
197.172	-48.33
197.392	-63.97
197.613	-25.45
197.833	-20.55
198.054	-8.69
198.274	-3.32
198.495	4.52
198.715	-1.57
198.936	6.4
199.156	19.95
199.377	6.58
199.597	19.23
199.817	5.38
200.038	-2.93
200.258	12.42
200.479	39.64
200.699	26.98
200.919	16.31
201.14	21.45
201.36	17.23
201.58	-10.63
201.801	2.74
202.021	9.53
202.241	-9.66
202.461	-27.81
202.682	-1.88
202.902	2.25
203.122	35.84
203.342	51.33
203.563	45.49
203.783	44.33
204.003	41.43
204.223	19.56
204.443	8.55
204.663	1.61
204.884	-42.6
205.104	-45.49
205.324	-42.72
205.544	-91.64
205.764	-24.93
205.984	14.07
206.204	24.59
206.424	5.81
206.644	39.25
206.864	5.19
207.084	19.73
207.304	-0.6
207.525	-0.55
207.745	19.95
207.964	23.01
208.184	20.2
208.404	27.15
208.624	44.66
208.844	31.27
209.064	29.48
209.284	27.41
209.504	31.86
209.724	-0.69
209.944	-18.19
210.164	-4.76
210.384	-33.57
210.604	-81.71
210.823	-80.3
211.043	-26.06
211.263	-105.11
211.483	-61
211.703	-33.56
211.922	-30.07
212.142	-32.98
212.362	1.9
212.582	-2.39
212.801	1.72
213.021	-6.8
213.241	-19.38
213.461	-19.45
213.68	13.66
213.9	4.36
214.12	4.9
214.339	14.29
214.559	18.91
214.779	4.89
214.998	9.94
215.218	34.48
215.438	31.06
215.657	30.76
215.877	16.41
216.096	39.78
216.316	20.33
216.535	8.4
216.755	11.8
216.974	14.23
217.194	-8.13
217.413	5.58
217.633	4.73
217.852	-4.89
218.072	-4.95
218.291	-8.66
218.511	-17.35
218.73	-22.06
218.95	-38.06
219.169	-28.43
219.389	-8.31
219.608	-8.96
219.827	7.27
220.047	22.4
220.266	5.52
220.485	-11.12
220.705	2.63
220.924	-0.1
221.143	8.47
221.363	25.76
221.582	25.05
221.801	24.14
222.021	34.66
222.24	34.38
222.459	48.9
222.678	49.95
222.897	42.24
223.117	54.93
223.336	63.81
223.555	62.84
223.774	84.92
223.993	101.9
224.213	68.38
224.432	50.4
224.651	38.09
224.87	28.55
225.089	27.42
225.308	41.83
225.527	27.62
225.746	19.3
225.965	0.97
226.184	-3.85
226.404	-20.7
226.623	-2.95
226.842	-3.79
227.061	-0.04
227.28	9.47
227.499	21.18
227.718	17.53
227.936	33.01
228.155	31.2
228.374	19.86
228.593	19.56
228.812	27.45
229.031	19.49
229.25	11.14
229.469	26.42
229.688	8.14
229.907	15.85
230.125	21.32
230.344	35.83
230.563	25.34
230.782	32.65
231.001	33.95
231.22	36.94
231.438	38.33
231.657	43.55
231.876	34.17
232.095	26.95
232.313	9.9
232.532	1.31
232.751	-15.62
232.969	-2
233.188	-4.31
233.407	13.36
233.625	15.72
233.844	15.92
234.063	8.02
234.281	17.54
234.5	3.96
234.719	-3.91
234.937	-18.48
235.156	-25.86
235.374	-36.99
235.593	-30.05
235.811	5.19
236.03	20.33
236.249	27.98
236.467	32.03
236.686	29.21
236.904	15.45
237.123	9.41
237.341	8.84
237.559	1.34
237.778	12.7
237.996	-33.01
238.215	-60.17
238.433	-137.33
238.652	-72.38
238.87	-83.77
239.088	-81.74
239.307	-40.45
239.525	-12.2
239.743	-21.66
239.962	-32.06
240.18	0.46
240.398	0.54
240.617	-21.6
240.835	16.02
241.053	30.6
241.271	25.46
241.49	17.66
241.708	16.23
241.926	-5.83
242.144	-11.87
242.363	-5
242.581	-12.73
242.799	-29.71
243.017	-18.32
243.235	-11.88
243.453	-29.41
243.672	-0.06
243.89	20.85
244.108	26.7
244.326	33.71
244.544	31.87
244.762	20.35
244.98	23.43
245.198	20.6
245.416	14.54
245.634	16.94
245.852	-10.76
246.07	0.46
246.288	5.39
246.506	-1.31
246.724	-4.12
246.942	14.76
247.16	4.06
247.378	-4.44
247.596	12.14
247.814	-4.36
248.032	9.71
248.25	36.25
248.468	25.53
248.685	20.16
248.903	30.96
249.121	31.11
249.339	16.79
249.557	22.79
249.775	32.16
249.992	28.7
250.21	19.04
250.428	31.06
250.646	34.14
250.863	15.73
251.081	22.6
251.299	36.72
251.517	32.07
251.734	10.08
251.952	12.44
252.17	4.17
252.387	-10.39
252.605	-11.31
252.823	-3.97
253.04	41.61
253.258	30.49
253.475	43.81
253.693	44.73
253.911	10.59
254.128	3.17
254.346	19.88
254.563	18.01
254.781	21.02
254.998	42.48
255.216	9.05
255.433	-11.03
255.651	-20.36
255.868	-30.35
256.086	-17.32
256.303	-7.02
256.521	-1.22
256.738	-11.32
256.956	5.9
257.173	3.92
257.39	21.01
257.608	16.83
257.825	36.95
258.043	37.77
258.26	45.5
258.477	27.54
258.695	25.53
258.912	-1.21
259.129	-19.26
259.346	-54.78
259.564	-35.68
259.781	-33.97
259.998	5
260.216	10.06
260.433	23.88
260.65	23.08
260.867	17.29
261.084	18.17
261.302	19.89
261.519	7.12
261.736	-4.16
261.953	-1.35
262.17	4.8
262.387	-6.79
262.604	-8.66
262.822	-0.54
263.039	5.42
263.256	-4.37
263.473	9.24
263.69	13.5
263.907	22.79
264.124	29.06
264.341	29.57
264.558	19.96
264.775	31.85
264.992	17
265.209	5.69
265.426	-4.48
265.643	-2.54
265.86	-25.43
266.077	-13.79
266.294	-0.86
266.51	18.25
266.727	12.01
266.944	18.99
267.161	27.56
267.378	32.58
267.595	19.07
267.812	23.11
268.028	-2.14
268.245	-7.18
268.462	-21.66
268.679	5.1
268.896	32.05
269.112	45.12
269.329	24.44
269.546	45.3
269.763	8.15
269.979	-13
270.196	-9.19
270.413	2.45
270.629	-17.49
270.846	5.51
271.063	6.3
271.279	10.77
271.496	12.63
271.712	29.36
271.929	22.27
272.146	26.59
272.362	27.25
272.579	11.93
272.795	-2.76
273.012	10.49
273.228	11.51
273.445	12.25
273.661	27.55
273.878	28.29
274.094	7.31
274.311	-11.66
274.527	-31.98
274.744	-21.25
274.96	-1.7
275.177	8.61
275.393	20.16
275.609	36.46
275.826	29.71
276.042	25.21
276.259	18.31
276.475	33.23
276.691	9.89
276.908	11.99
277.124	13.63
277.34	8.35
277.557	-14.07
277.773	-15.25
277.989	-15
278.205	-6.11
278.422	-11.19
278.638	-2.3
278.854	-6.37
279.07	2.1
279.286	-0.36
279.503	19.79
279.719	15.2
279.935	29.15
280.151	22.43
280.367	22.73
280.583	5.03
280.799	6.78
281.016	-25.75
281.232	-13.37
281.448	-22.75
281.664	2.45
281.88	13.02
282.096	22.52
282.312	20.69
282.528	34.68
282.744	38.12
282.96	27.36
283.176	29.24
283.392	-5.54
283.608	-33.92
283.824	-79.52
284.04	-126.01
284.256	-72.9
284.471	-24.87
284.687	-14.65
284.903	0.95
285.119	36.72
285.335	41.6
285.551	31.81
285.767	27.51
285.982	26.04
286.198	-31.33
286.414	-50.56
286.63	-84.12
286.846	-69.56
287.061	-48.19
287.277	-23.68
287.493	-29.44
287.709	24.05
287.924	43.92
288.14	49.07
288.356	47.42
288.571	67.1
288.787	32.52
289.003	34.84
289.218	5.22
289.434	-8.77
289.65	-11.24
289.865	-4.68
290.081	-6.48
290.296	12.33
290.512	11.92
290.727	3.56
290.943	12.44
291.159	5.89
291.374	-14.74
291.59	-5.89
291.805	-5.96
292.021	-6.73
292.236	-9.86
292.451	-8.36
292.667	3.3
292.882	2.48
293.098	-4.39
293.313	-5.44
293.529	1.32
293.744	-22.62
293.959	-20.37
294.175	-7.47
294.39	-18.77
294.605	5.98
294.821	11.53
295.036	16.72
295.251	14.12
295.467	14.63
295.682	-2.93
295.897	-10.92
296.112	-27.06
296.328	-24.33
296.543	-41.67
296.758	-27.48
296.973	-10.84
297.188	1.76
297.404	-17.45
297.619	6.99
297.834	-32.42
298.049	-16.21
298.264	-20.96
298.479	-3.22
298.694	30.6
298.909	44.54
299.125	31.73
299.34	31.35
299.555	29.65
299.77	21.35
299.985	9.48
300.2	17.97
300.415	23.6
300.63	28
300.845	20.26
301.06	26.17
301.275	16.29
301.49	18.3
301.704	23.34
301.919	14.54
302.134	13.51
302.349	12.56
302.564	2.53
302.779	-10.45
302.994	12.52
303.209	15.76
303.423	24.74
303.638	26.28
303.853	2.18
304.068	-18.69
304.283	-7.93
304.497	-20.51
304.712	-0.6
304.927	26.77
305.142	30.27
305.356	24.27
305.571	23.92
305.786	17.54
306	0.86
306.215	-7.66
306.43	-8.97
306.644	-4.65
306.859	-22.73
307.074	5.02
307.288	17.02
307.503	29.72
307.717	12.31
307.932	21.4
308.147	7.36
308.361	6.28
308.576	-8.12
308.79	2.07
309.005	6.98
309.219	21.08
309.434	9.84
309.648	18.35
309.863	20.26
310.077	11.45
310.292	13.03
310.506	5.12
310.72	-13.26
310.935	1.44
311.149	-1
311.364	-7.16
311.578	15.51
311.792	10.61
312.007	11.29
312.221	8.14
312.435	-0.43
312.649	-3.63
312.864	-23.71
313.078	-27.8
313.292	-37.18
313.507	-34.39
313.721	-29.58
313.935	3.48
314.149	3.72
314.363	30.4
314.578	22.19
314.792	3.08
315.006	-3.37
315.22	-5.68
315.434	-7.2
315.648	-10.65
315.862	3.86
316.077	7.35
316.291	24.42
316.505	3.23
316.719	20.41
316.933	8.89
317.147	4.19
317.361	-8.09
317.575	4.57
317.789	2.18
318.003	2.77
318.217	7.39
318.431	-4.44
318.645	-6.3
318.859	2.07
319.073	6.41
319.287	3.18
319.5	9.04
319.714	6.21
319.928	-1.86
320.142	-12.75
320.356	-16.87
320.57	-24.07
320.784	-12.21
320.997	-26.84
321.211	8.86
321.425	4.64
321.639	28.08
321.853	40.35
322.066	44.89
322.28	29.19
322.494	34.7
322.707	20.46
322.921	5.51
323.135	12.66
323.349	22.26
323.562	17.22
323.776	18.54
323.989	21.71
324.203	0.73
324.417	2.74
324.63	-6.41
324.844	-20.8
325.057	-31.04
325.271	-5.86
325.485	-21.06
325.698	10.86
325.912	27.61
326.125	10.13
326.339	3.73
326.552	-2.79
326.766	-37.8
326.979	-29.69
327.193	-20.08
327.406	-18.57
327.619	-11.41
327.833	-1.53
328.046	-4.69
328.26	-4.82
328.473	-0.71
328.686	7.69
328.9	16.31
329.113	16.1
329.326	16.96
329.54	15.53
329.753	18.72
329.966	23.49
330.179	18.93
330.393	25.63
330.606	26.17
330.819	14.29
331.032	7.45
331.246	7.8
331.459	12.88
331.672	12.75
331.885	10.95
332.098	10.05
332.311	6.84
332.525	12.37
332.738	16.69
332.951	15.96
333.164	19.59
333.377	24.8
333.59	4.42
333.803	-0.55
334.016	0.43
334.229	-0.66
334.442	-10.93
334.655	-1.24
334.868	4.44
335.081	6.32
335.294	-10.54
335.507	1.66
335.72	6.49
335.933	-5.68
336.146	-5.03
336.359	25.71
336.572	23.38
336.785	16.5
336.997	15.29
337.21	29.42
337.423	-24.93
337.636	-21.38
337.849	-14.22
338.062	3.51
338.274	13.36
338.487	17.63
338.7	16
338.913	23.4
339.125	-5.21
339.338	-6.84
339.551	16.02
339.763	11.16
339.976	5.02
340.189	19.58
340.402	32.03
340.614	14.12
340.827	26.9
341.039	40.09
341.252	39.89
341.465	20.52
341.677	29.49
341.89	24.26
342.102	26.36
342.315	27.45
342.527	33.5
342.74	22
342.952	14.48
343.165	-0.78
343.377	5.9
343.59	-9.2
343.802	1.33
344.015	18.77
344.227	19.73
344.44	11.34
344.652	21.25
344.864	17.19
345.077	11.39
345.289	14.41
345.502	23.49
345.714	21.31
345.926	17.13
346.139	5.86
346.351	1.84
346.563	-0.23
346.775	15.69
346.988	22.44
347.2	27.9
347.412	39.7
347.624	35.54
347.837	28.71
348.049	26.13
348.261	17.22
348.473	-3.64
348.685	-12.5
348.897	-17.62
349.11	2.35
349.322	15.87
349.534	21.84
349.746	30.81
349.958	18.92
350.17	-7.11
350.382	-17.68
350.594	0.47
350.806	7.47
351.018	16.68
351.23	17.06
351.442	27.19
351.654	22.65
351.866	8.48
352.078	5.73
352.29	6.18
352.502	0.43
352.714	-0.62
352.926	21.62
353.138	26.2
353.35	23.53
353.561	25.42
353.773	21.59
353.985	27.02
354.197	18.76
354.409	17.75
354.621	-3.36
354.832	-8.84
355.044	-42.85
355.256	-53.25
355.468	-53.33
355.679	-2.67
355.891	6.53
356.103	15.85
356.314	24.67
356.526	20.95
356.738	8.16
356.949	0.27
357.161	21.32
357.373	19.38
357.584	21.38
357.796	22.61
358.008	30.01
358.219	14.58
358.431	6.31
358.642	3.86
358.854	13.24
359.065	-1.12
359.277	1.64
359.488	6.28
359.7	7.44
359.911	-17.58
360.123	0.74
360.334	-4.9
360.546	-10.2
360.757	-5.09
360.969	14.77
361.18	12.58
361.391	27.34
361.603	28.46
361.814	37.01
362.025	39.6
362.237	31.76
362.448	31.8
362.659	34.6
362.871	29.62
363.082	5.81
363.293	6.27
363.504	-20.87
363.716	-24.73
363.927	-12.05
364.138	-37.19
364.349	-41.85
364.56	-46.55
364.772	-25.17
364.983	-7.21
365.194	16.02
365.405	21.28
365.616	39.13
365.827	30.16
366.038	35.73
366.25	40.42
366.461	39.01
366.672	26.05
366.883	18.93
367.094	0.7
367.305	-24.92
367.516	-28.78
367.727	-29.4
367.938	-26.88
368.149	-30.05
368.36	-25.2
368.571	-27.63
368.781	-31.06
368.992	-29.44
369.203	-26.17
369.414	-10.07
369.625	-3.64
369.836	17.97
370.047	27.99
370.258	43.98
370.468	20.68
370.679	15.84
370.89	-1.2
371.101	16.47
371.312	-9.11
371.522	-9.75
371.733	-13.68
371.944	-32.16
372.155	-45.44
372.365	-32.58
372.576	-9.99
372.787	11.36
372.997	20.17
373.208	9.99
373.419	12.41
373.629	-7.74
373.84	-20.87
374.05	-18.45
374.261	-24.71
374.472	-28.65
374.682	-17.31
374.893	-26.06
375.103	-9.75
375.314	-2.98
375.524	1.79
375.735	9.04
375.945	23.19
376.156	12.38
376.366	15.44
376.577	14.02
376.787	12.85
376.997	12.18
377.208	16.67
377.418	11.99
377.629	12.71
377.839	11.97
378.049	7.04
378.26	-3.13
378.47	-4.6
378.68	0.19
378.89	-0.69
379.101	5.89
379.311	12.98
379.521	8.74
379.732	10.77
379.942	3.79
380.152	-5.49
380.362	-6.21
380.572	7.13
380.783	8.05
380.993	20.25
381.203	18.21
381.413	20.34
381.623	20.81
381.833	25.65
382.043	19.73
382.253	24.92
382.463	25.83
382.674	23.69
382.884	17.76
383.094	18.99
383.304	16.05
383.514	12.99
383.724	7.21
383.934	-0.76
384.144	-3.6
384.353	-0.55
384.563	3.58
384.773	3.55
384.983	12.11
385.193	10.82
385.403	7.06
385.613	3.95
385.823	4.26
386.033	-1.23
386.242	-0.85
386.452	2.73
386.662	2.9
386.872	10.13
387.082	7.26
387.291	7.14
387.501	4.7
387.711	6.93
387.921	2.07
388.13	6.58
388.34	9.05
388.55	4.27
388.759	-1.8
388.969	-3.86
389.179	-7.04
389.388	-11.71
389.598	-5.83
389.807	-7.54
390.017	-4.71
390.227	-4.98
390.436	0.27
390.646	-2.68
390.855	0.82
391.065	1.22
391.274	2.18
391.484	0.5
391.693	2.73
391.903	2.97
392.112	3.82
392.322	2.48
392.531	1.94
392.74	2.05
392.95	1.62
393.159	-0.89
393.369	1.02
393.578	1.82
393.787	0.6
393.997	1.8
394.206	2.38
394.415	3.1
394.625	2.8
394.834	3.35
395.043	3.56
395.252	5.48
395.462	6.09
395.671	6.54
395.88	7.89
396.089	6.86
396.298	4.97
396.508	3.81
396.717	3.39
396.926	2.75
397.135	3.42
397.344	3.39
397.553	2.89
397.762	3.65
397.971	3.46
398.181	3.3
398.39	3.68
398.599	4.34
398.808	4.31
399.017	4.74
399.226	4.94
399.435	4.83
399.644	5.39
399.853	5.27
400.062	4.73
400.27	4.4
400.479	4.5
400.688	4.28
400.897	4.09
401.106	4.33
401.315	4.35
401.524	4.52
401.733	4.22
401.941	4.09
402.15	3.98
402.359	3.93
402.568	4.04
402.777	4.41
402.985	4.42
403.194	4.6
403.403	4.83
403.612	4.49
403.82	3.9
404.029	4.06
404.238	3.97
404.446	4.18
404.655	4.29
404.864	4.43
405.072	4.32
405.281	4.15
405.489	3.71
405.698	3.84
405.906	3.87
406.115	3.85
406.324	3.91
406.532	4.2
406.741	4.12
406.949	4.22
407.158	4.35
407.366	4.34
407.574	4.34
407.783	4.31
407.991	4.16
408.2	4.18
408.408	4.2
408.617	3.97
408.825	3.87
409.033	3.97
409.242	3.91
409.45	3.9
409.658	3.88
409.867	4.02
410.075	4
410.283	3.75
410.491	3.55
410.7	3.53
410.908	3.5
411.116	3.55
411.324	3.68
411.533	3.85
411.741	3.9
411.949	3.82
412.157	3.64
412.365	3.69
412.573	3.55
412.781	3.52
412.99	3.62
413.198	3.7
413.406	3.76
413.614	3.84
413.822	3.9
414.03	3.83
414.238	3.92
414.446	3.8
414.654	3.76
414.862	3.82
415.07	3.74
415.278	3.57
415.486	3.45
415.694	3.47
415.902	3.36
416.109	3.34
416.317	3.41
416.525	3.4
416.733	3.39
416.941	3.46
417.149	3.41
417.357	3.37
417.564	3.49
417.772	3.41
417.98	3.29
418.188	3.2
418.395	3.09
418.603	2.91
418.811	2.89
419.019	2.84
419.226	3.03
419.434	3.13
419.642	3.19
419.849	3.15
420.057	3.27
420.265	3.2
420.472	3.18
420.68	3.25
420.887	3.41
421.095	3.43
421.302	3.39
421.51	3.48
421.717	3.44
421.925	3.38
422.132	3.22
422.34	3.07
422.547	2.85
422.755	2.88
422.962	2.92
423.17	2.78
423.377	2.95
423.585	3.09
423.792	3.04
423.999	2.98
424.207	3.01
424.414	2.94
424.621	2.92
424.829	2.96
425.036	3.03
425.243	3.2
425.451	3.29
425.658	3.24
425.865	3.36
426.072	3.32
426.28	3.33
426.487	3.35
426.694	3.32
426.901	3.29
427.108	3.21
427.315	3.1
427.523	2.99
427.73	3.14
427.937	2.95
428.144	2.99
428.351	2.86
428.558	3.06
428.765	2.98
428.972	3.1
429.179	2.96
429.386	3.18
429.593	2.98
429.8	2.89
430.007	2.95
430.214	3.05
430.421	3.19
430.628	3.2
430.835	3.24
431.042	3.07
431.249	3.18
431.456	3.06
431.662	3.22
431.869	3.37
432.076	3.51
432.283	3.61
432.49	3.65
432.697	3.58
432.903	3.45
433.11	3.5
433.317	3.39
433.524	3.41
433.73	3.33
433.937	3.5
434.144	3.46
434.35	3.41
434.557	3.43
434.764	3.5
434.97	3.32
435.177	3.34
435.384	3.37
435.59	3.36
435.797	3.35
436.003	3.47
436.21	3.37
436.416	3.5
436.623	3.58
436.829	3.5
437.036	3.54
437.242	3.71
437.449	3.65
437.655	3.71
437.862	3.82
438.068	3.73
438.275	3.72
438.481	3.77
438.687	3.62
438.894	3.78
439.1	3.82
439.307	3.91
439.513	3.92
439.719	4.02
439.926	3.99
440.132	4.08
440.338	4.04
440.544	4.06
440.751	3.97
440.957	3.91
441.163	3.8
441.369	3.71
441.575	3.61
441.782	3.79
441.988	3.81
442.194	3.89
442.4	3.91
442.606	4.04
442.812	3.9
443.018	3.92
443.224	4.02
443.431	4.1
443.637	4.1
443.843	4.13
444.049	4.19
444.255	4.22
444.461	4.14
444.667	4.16
444.873	4.26
445.079	4.22
445.284	4.08
445.49	4.15
445.696	4.07
445.902	4
446.108	4.02
446.314	4.14
446.52	4.23
446.726	4.28
446.931	4.27
447.137	4.27
447.343	4.29
447.549	4.24
447.755	4.26
447.96	4.31
448.166	4.29
448.372	4.27
448.578	4.25
448.783	4.24
448.989	4.24
449.195	4.31
449.4	4.36
449.606	4.38
449.812	4.42
450.017	4.48
450.223	4.37
450.428	4.36
450.634	4.37
450.84	4.36
451.045	4.35
451.251	4.48
451.456	4.42
451.662	4.45
451.867	4.51
452.073	4.55
452.278	4.56
452.483	4.61
452.689	4.69
452.894	4.69
453.1	4.61
453.305	4.6
453.51	4.68
453.716	4.63
453.921	4.71
454.127	4.74
454.332	4.72
454.537	4.65
454.742	4.69
454.948	4.57
455.153	4.62
455.358	4.59
455.563	4.72
455.769	4.61
455.974	4.7
456.179	4.59
456.384	4.61
456.589	4.47
456.795	4.42
457	4.36
457.205	4.45
457.41	4.43
457.615	4.46
457.82	4.65
458.025	4.66
458.23	4.64
458.435	4.73
458.64	4.74
458.845	4.71
459.05	4.8
459.255	4.84
459.46	4.78
459.665	4.82
459.87	4.77
460.075	4.83
460.28	4.89
460.485	4.98
460.69	4.9
460.895	4.93
461.099	4.79
461.304	4.75
461.509	4.77
461.714	4.95
461.919	4.9
462.123	5.01
462.328	4.96
462.533	4.91
462.738	4.77
462.942	4.83
463.147	4.78
463.352	4.94
463.556	5.06
463.761	5.1
463.966	5.13
464.17	5.21
464.375	5.28
464.58	5.16
464.784	5.24
464.989	5.29
465.193	5.29
465.398	5.22
465.602	5.34
465.807	5.29
466.011	5.25
466.216	5.18
466.42	5.23
466.625	5.33
466.829	5.42
467.034	5.52
467.238	5.62
467.443	5.59
467.647	5.47
467.851	5.48
