Data from Ofra_PS_T2_1A_8HS24_Reflection_2.txt Node
Date: Wed Jul 21 18:17:00 EDT 2021
User: Adam
Spectrometer: FLMT01687
Trigger mode: 0
Integration Time (sec): 1.100000E0
Scans to average: 2
Electric dark correction enabled: true
Nonlinearity correction enabled: false
Boxcar width: 2
XAxis mode: Wavelengths
Number of Pixels in Spectrum: 3648
>>>>>Begin Spectral Data<<<<<
179.494	481.2
179.716	559.76
179.937	544.05
180.158	558.37
180.38	981.56
180.601	203.04
180.823	44.12
181.044	-124.41
181.265	-122.43
181.486	-43.03
181.708	131.29
181.929	958.16
182.15	-471.13
182.372	9.63
182.593	-29.79
182.814	1.81
183.035	35.22
183.257	17.63
183.478	-39.26
183.699	22.58
183.92	21.55
184.141	13
184.363	-0.69
184.584	56.59
184.805	50.36
185.026	64.58
185.247	82.36
185.468	64.36
185.689	65.32
185.91	66.43
186.132	92.23
186.353	83.27
186.574	106.07
186.795	74.09
187.016	20.64
187.237	-13.6
187.458	-59.23
187.679	-64.08
187.9	-53.57
188.121	-49.07
188.342	-61.01
188.563	16.77
188.784	49.51
189.005	32.57
189.226	66.83
189.447	44.33
189.667	-287.62
189.888	-512.07
190.109	-1330.52
190.33	-742.26
190.551	-1318.14
190.772	-307.63
190.993	-256.68
191.214	-254.48
191.434	-160.75
191.655	-40.31
191.876	-45.56
192.097	-70.02
192.318	-90.68
192.538	-91.06
192.759	-107.14
192.98	-6.76
193.201	25.66
193.421	48.02
193.642	50.28
193.863	52.68
194.083	22.14
194.304	18.17
194.525	1.12
194.745	-33.64
194.966	-68.99
195.187	-59.64
195.407	-110.1
195.628	-161.96
195.848	-130.95
196.069	-114.84
196.29	-93.1
196.51	-57.56
196.731	-70.49
196.951	-91.17
197.172	-90.77
197.392	-148.17
197.613	-170.97
197.833	-134.41
198.054	-93.71
198.274	-64.29
198.495	-64.08
198.715	-38.36
198.936	-66.87
199.156	-62.06
199.377	-116.25
199.597	-87.73
199.817	-63
200.038	-13.26
200.258	-53.84
200.479	2.61
200.699	26.24
200.919	24.94
201.14	9.18
201.36	-15.02
201.58	15.85
201.801	38.13
202.021	9.4
202.241	2.71
202.461	8
202.682	-85.38
202.902	-162.57
203.122	-101.52
203.342	-95.44
203.563	-56.8
203.783	-6.47
204.003	-35.53
204.223	-32.78
204.443	38.11
204.663	21.03
204.884	19.55
205.104	53.99
205.324	63
205.544	35.01
205.764	65.35
205.984	63.02
206.204	59.35
206.424	60.45
206.644	43.49
206.864	35.78
207.084	3.78
207.304	26.79
207.525	-76.41
207.745	-10.41
207.964	28
208.184	-39.45
208.404	-69.89
208.624	-64.53
208.844	-55.31
209.064	-312.79
209.284	-231.22
209.504	-140.43
209.724	-56.07
209.944	-28.92
210.164	5.62
210.384	11.24
210.604	2.48
210.823	-24.7
211.043	-55.36
211.263	-46.9
211.483	-53.74
211.703	-91.23
211.922	-78.23
212.142	-5.24
212.362	17.94
212.582	20.14
212.801	39.57
213.021	26.41
213.241	2
213.461	-59.88
213.68	-87.4
213.9	-69.6
214.12	-47.21
214.339	-99.95
214.559	-55.87
214.779	1.67
214.998	-9.54
215.218	-22.13
215.438	6.15
215.657	-9.29
215.877	-35.37
216.096	-15.32
216.316	-13.08
216.535	-30.59
216.755	-25.36
216.974	-86.43
217.194	-138.92
217.413	-146.71
217.633	-137.79
217.852	-233.49
218.072	-104.12
218.291	-39.23
218.511	3
218.73	-9.24
218.95	-5.49
219.169	-11.89
219.389	-40.05
219.608	-29.82
219.827	-14.23
220.047	5.57
220.266	17.39
220.485	23.98
220.705	37.34
220.924	4.35
221.143	28.08
221.363	5.76
221.582	15.4
221.801	-1.15
222.021	21.41
222.24	-45.88
222.459	36.4
222.678	2.44
222.897	-17.8
223.117	-66.18
223.336	-47.23
223.555	-28.53
223.774	17.28
223.993	-35.96
224.213	15.54
224.432	7.43
224.651	11.16
224.87	-19.1
225.089	18.65
225.308	7.8
225.527	20.14
225.746	6.18
225.965	6.53
226.184	-21.95
226.404	10.24
226.623	-7.75
226.842	14.96
227.061	44.21
227.28	41.82
227.499	26.62
227.718	35.78
227.936	16.3
228.155	18.83
228.374	20.65
228.593	20.4
228.812	19.95
229.031	18.28
229.25	-45.07
229.469	-47.62
229.688	-15.18
229.907	17.94
230.125	36.09
230.344	49.93
230.563	63.51
230.782	51.04
231.001	-17.9
231.22	-35.11
231.438	-20.57
231.657	-19.84
231.876	-19.99
232.095	32.03
232.313	33.2
232.532	17.52
232.751	-3.56
232.969	-35
233.188	-138.98
233.407	-50.06
233.625	-20.26
233.844	-54.01
234.063	-57.07
234.281	-17.83
234.5	-29.76
234.719	-28.28
234.937	-1.12
235.156	27.11
235.374	6.61
235.593	9.54
235.811	9.28
236.03	25.71
236.249	-26
236.467	-11.17
236.686	2.94
236.904	7.92
237.123	-25.3
237.341	-12.52
237.559	-12.36
237.778	-43.41
237.996	-76.37
238.215	-29.31
238.433	-12.91
238.652	-10.97
238.87	-19.02
239.088	2.63
239.307	2.89
239.525	2.89
239.743	-30.5
239.962	-9.7
240.18	-42.49
240.398	-82.54
240.617	-98.41
240.835	-62.01
241.053	-49.9
241.271	-14.02
241.49	7.72
241.708	-14.46
241.926	-32.16
242.144	-35.13
242.363	-82.17
242.581	-114.44
242.799	-49.1
243.017	-17.35
243.235	-41.15
243.453	-13.79
243.672	-4.84
243.89	-13.96
244.108	-22.85
244.326	5.24
244.544	15.78
244.762	14.46
244.98	31.97
245.198	36.64
245.416	20.35
245.634	4.69
245.852	-8.04
246.07	-24.58
246.288	-29.85
246.506	-52.4
246.724	-54.99
246.942	-32.62
247.16	1.88
247.378	21.91
247.596	43.68
247.814	53.45
248.032	32.13
248.25	27.84
248.468	11.6
248.685	22.88
248.903	39.68
249.121	37.9
249.339	13.44
249.557	4.29
249.775	-2.49
249.992	-55.01
250.21	-52.19
250.428	-39.9
250.646	-65.65
250.863	-70.35
251.081	-51.68
251.299	-40.11
251.517	-21.79
251.734	-0.8
251.952	-8
252.17	-7.09
252.387	-1.2
252.605	-15.26
252.823	-7.65
253.04	4.87
253.258	23.77
253.475	15.23
253.693	32.92
253.911	31.55
254.128	34.67
254.346	30.09
254.563	24.14
254.781	4.27
254.998	-7.71
255.216	-7.73
255.433	-6.76
255.651	15.8
255.868	61.23
256.086	66.53
256.303	50.96
256.521	39.02
256.738	19.62
256.956	-12.18
257.173	-54.49
257.39	-55.54
257.608	-89.35
257.825	-2.39
258.043	19.08
258.26	46.94
258.477	73.07
258.695	85.14
258.912	22.25
259.129	23.76
259.346	-0.69
259.564	-34.05
259.781	-55.82
259.998	-4.09
260.216	18.25
260.433	60.82
260.65	54.24
260.867	64.86
261.084	44.94
261.302	29.89
261.519	7.55
261.736	-30.43
261.953	-39.13
262.17	-10.72
262.387	-57.25
262.604	-85.73
262.822	-75.84
263.039	-61.01
263.256	-114.11
263.473	-51.03
263.69	-26.1
263.907	17.99
264.124	23.19
264.341	25.37
264.558	17.74
264.775	27.43
264.992	15.76
265.209	25.44
265.426	46.68
265.643	49.63
265.86	45.66
266.077	55.91
266.294	18.08
266.51	-23.07
266.727	-23.09
266.944	-28.95
267.161	-37.32
267.378	-15.41
267.595	5.51
267.812	-20.12
268.028	-21.98
268.245	-14.35
268.462	-20.03
268.679	-10.37
268.896	22.38
269.112	26.02
269.329	15.54
269.546	18.2
269.763	3.35
269.979	-16.49
270.196	-16.45
270.413	-51.31
270.629	-72.73
270.846	-77
271.063	-55.47
271.279	-61.65
271.496	-40.95
271.712	-15.21
271.929	0.12
272.146	-21.96
272.362	-27.41
272.579	4.37
272.795	15.02
273.012	9.42
273.228	13.25
273.445	2
273.661	-28.66
273.878	-53.78
274.094	-49.8
274.311	-71.97
274.527	-8.39
274.744	-5.61
274.96	-17.81
275.177	-11.14
275.393	7.89
275.609	-4.19
275.826	18.5
276.042	22.53
276.259	20.9
276.475	27.25
276.691	36.72
276.908	23.68
277.124	35.71
277.34	44.17
277.557	30.78
277.773	7.67
277.989	-3.8
278.205	-10.45
278.422	-2.91
278.638	13.31
278.854	35.89
279.07	59.98
279.286	45.97
279.503	24.2
279.719	-5.8
279.935	-49.15
280.151	-61.3
280.367	-31.93
280.583	-54.69
280.799	-37.78
281.016	-54.11
281.232	-34.12
281.448	-49.39
281.664	-15.56
281.88	-52.48
282.096	-28.75
282.312	-15.7
282.528	14.42
282.744	21.8
282.96	41.5
283.176	40.98
283.392	23.4
283.608	9.23
283.824	-3.67
284.04	-6.43
284.256	-3.38
284.471	3.9
284.687	6.72
284.903	30.8
285.119	43.95
285.335	30.33
285.551	37.53
285.767	18.67
285.982	9.01
286.198	-13.76
286.414	12.23
286.63	14.4
286.846	43.64
287.061	15.21
287.277	38.85
287.493	19.56
287.709	33.27
287.924	10.44
288.14	58.38
288.356	45.26
288.571	57.93
288.787	36.45
289.003	27.25
289.218	-7.33
289.434	-27.38
289.65	-27.41
289.865	-36.58
290.081	-24.85
290.296	-4.83
290.512	-0.51
290.727	-45.16
290.943	-31.37
291.159	-32.7
291.374	-38.63
291.59	-58.74
291.805	-21.27
292.021	-16.02
292.236	-11.43
292.451	0.39
292.667	17.08
292.882	23.5
293.098	19.43
293.313	18.92
293.529	16.91
293.744	-2.47
293.959	-25.39
294.175	-12.89
294.39	9.4
294.605	12.88
294.821	34.02
295.036	46.67
295.251	42.18
295.467	8.81
295.682	10.3
295.897	-28.9
296.112	-39.57
296.328	-69.17
296.543	-76.37
296.758	-79.57
296.973	-33.52
297.188	5.5
297.404	5.09
297.619	9.12
297.834	-14.18
298.049	-43.56
298.264	-91.93
298.479	-39.64
298.694	-33.42
298.909	-3.71
299.125	2.31
299.34	22.71
299.555	2.72
299.77	24.1
299.985	-9.36
300.2	-50.73
300.415	-78.78
300.63	-41.52
300.845	-53.55
301.06	-56.75
301.275	-15.72
301.49	16.23
301.704	-5.92
301.919	-20.17
302.134	-25.68
302.349	-25.1
302.564	-86.47
302.779	-75
302.994	-34.09
303.209	-21.61
303.423	-9.15
303.638	36.11
303.853	3.57
304.068	-6.02
304.283	5.37
304.497	5.9
304.712	-12.13
304.927	4.44
305.142	5.57
305.356	2.4
305.571	-5.42
305.786	-13.88
306	-43.73
306.215	-33.84
306.43	-52.15
306.644	-39.54
306.859	-3.53
307.074	8.77
307.288	-28.1
307.503	-34.34
307.717	-51.36
307.932	-49.76
308.147	-41.62
308.361	-25.74
308.576	-27.82
308.79	-53.68
309.005	-44.54
309.219	-44.75
309.434	-49.73
309.648	-42.21
309.863	-20.06
310.077	-13.12
310.292	-2.43
310.506	4.93
310.72	19
310.935	24.97
311.149	8.67
311.364	19.22
311.578	32.05
311.792	21.04
312.007	24.41
312.221	15.08
312.435	26.4
312.649	7.27
312.864	43.06
313.078	59.3
313.292	137.08
313.507	87.71
313.721	126.8
313.935	55.91
314.149	42.46
314.363	16.39
314.578	20.15
314.792	10.35
315.006	2.38
315.22	15.84
315.434	15.7
315.648	27.78
315.862	30.09
316.077	15.25
316.291	9.5
316.505	12.48
316.719	-12.84
316.933	-8.18
317.147	5.03
317.361	-63.01
317.575	-87.36
317.789	-101.36
318.003	-179.81
318.217	-144.03
318.431	-36.93
318.645	11.15
318.859	3.32
319.073	32.56
319.287	27.29
319.5	0.24
319.714	-26.88
319.928	-29.07
320.142	-50.9
320.356	20.15
320.57	43.02
320.784	39.64
320.997	36.61
321.211	20.84
321.425	-56.4
321.639	-81.3
321.853	-27.26
322.066	-16.53
322.28	-11.07
322.494	0.09
322.707	17.77
322.921	-2.88
323.135	-2.6
323.349	0.41
323.562	-11.84
323.776	-21.19
323.989	-13.79
324.203	-22.49
324.417	-29.33
324.63	-44.39
324.844	-63.34
325.057	-68.77
325.271	-41.21
325.485	-6.67
325.698	13.05
325.912	39.26
326.125	30.03
326.339	27.17
326.552	-8.44
326.766	-18.66
326.979	-18.87
327.193	14.83
327.406	-16.36
327.619	2.26
327.833	23.74
328.046	10.27
328.26	-25.37
328.473	6.94
328.686	-11.97
328.9	-26.86
329.113	-8.91
329.326	-17.51
329.54	-3.32
329.753	-0.85
329.966	-8.56
330.179	-19.45
330.393	1.85
330.606	-5.45
330.819	14.06
331.032	29.98
331.246	36.65
331.459	54.89
331.672	54.2
331.885	46.96
332.098	26.38
332.311	17.79
332.525	-35.15
332.738	-48.29
332.951	-31.72
333.164	-3.77
333.377	5.48
333.59	32.07
333.803	43.74
334.016	28.85
334.229	20.93
334.442	36.04
334.655	49.5
334.868	45.51
335.081	53.93
335.294	57.11
335.507	46.42
335.72	27.3
335.933	21.6
336.146	27.68
336.359	6.9
336.572	-21.05
336.785	-50.35
336.997	-46.57
337.21	-29.61
337.423	-12.46
337.636	-16.62
337.849	11.11
338.062	4.06
338.274	1.31
338.487	-15.68
338.7	-8.56
338.913	-51.83
339.125	-51.44
339.338	-121.13
339.551	-101.65
339.763	-66.13
339.976	-38.94
340.189	-13.88
340.402	18.89
340.614	15.64
340.827	17.02
341.039	12.53
341.252	0.84
341.465	14.82
341.677	14.23
341.89	-20.03
342.102	5.12
342.315	-9.82
342.527	-56.53
342.74	-34.82
342.952	-11.46
343.165	-5.32
343.377	22.72
343.59	24.3
343.802	25.46
344.015	29.61
344.227	14.93
344.44	-1.65
344.652	5.95
344.864	-15.25
345.077	17.6
345.289	26.94
345.502	26.41
345.714	20.45
345.926	33.58
346.139	17.13
346.351	23.87
346.563	31.19
346.775	23.02
346.988	9.62
347.2	-1.5
347.412	-61.14
347.624	-74.59
347.837	-74.72
348.049	-27.22
348.261	-3.79
348.473	15.93
348.685	-7.04
348.897	-3.58
349.11	-44.46
349.322	-86.59
349.534	-64.61
349.746	-40.62
349.958	-50.59
350.17	-30.5
350.382	-8.57
350.594	-11.88
350.806	-17.5
351.018	0.6
351.23	-30.56
351.442	-55.02
351.654	-62.56
351.866	-48.9
352.078	-62.07
352.29	-20.58
352.502	-1.59
352.714	11.21
352.926	-0.48
353.138	-5.53
353.35	-13.57
353.561	-17.64
353.773	-28.16
353.985	-14
354.197	4.02
354.409	0.91
354.621	-14.06
354.832	-15.22
355.044	-19.76
355.256	-41.74
355.468	-17.12
355.679	-6.64
355.891	2.53
356.103	-4.81
356.314	25.2
356.526	16.04
356.738	13.09
356.949	-4.71
357.161	15.02
357.373	-7.01
357.584	-19.34
357.796	-6.43
358.008	-5.12
358.219	0.07
358.431	-9.1
358.642	1.85
358.854	0.21
359.065	-14.01
359.277	-32.13
359.488	-39.97
359.7	-57.57
359.911	-84.14
360.123	-45.98
360.334	-56.32
360.546	-48.51
360.757	-40.72
360.969	-15.4
361.18	-25.6
361.391	-3.18
361.603	-20.57
361.814	-5.42
362.025	-12.96
362.237	-8.61
362.448	-3.85
362.659	14.3
362.871	2.54
363.082	11.05
363.293	7.7
363.504	-6.45
363.716	-21.55
363.927	-31.49
364.138	-45.31
364.349	-51.96
364.56	-49.79
364.772	-36.75
364.983	-13.13
365.194	-9.44
365.405	1.74
365.616	21.58
365.827	23.33
366.038	3.84
366.25	-0.24
366.461	-20.52
366.672	-0.43
366.883	18.05
367.094	28.44
367.305	18.57
367.516	23.56
367.727	-16.63
367.938	-25.23
368.149	-23.94
368.36	-15.32
368.571	-15.01
368.781	-11.84
368.992	-32.05
369.203	-57.4
369.414	-70.88
369.625	-70.2
369.836	-63.17
370.047	-86.32
370.258	-69.99
370.468	-66.03
370.679	-78.52
370.89	-67.74
371.101	-32.96
371.312	-25.83
371.522	-27.62
371.733	-21.59
371.944	-10.65
372.155	-7.8
372.365	-22.84
372.576	-16.76
372.787	-18.29
372.997	-45.08
373.208	-47.34
373.419	-13.74
373.629	-38.43
373.84	-38.08
374.05	-54.18
374.261	-47.58
374.472	-73.61
374.682	-26.15
374.893	-27.62
375.103	8.07
375.314	-0.78
375.524	5.63
375.735	8.62
375.945	17.97
376.156	1.25
376.366	2.58
376.577	-2.57
376.787	-18.42
376.997	-13.91
377.208	-9.41
377.418	-13.91
377.629	2.54
377.839	11.12
378.049	9.3
378.26	20.53
378.47	23.2
378.68	10.43
378.89	7.34
379.101	-8.41
379.311	-38.57
379.521	-64.29
379.732	-64.31
379.942	-49.74
380.152	-41.93
380.362	-7.55
380.572	5.06
380.783	15.91
380.993	20.42
381.203	32.72
381.413	29.74
381.623	33.54
381.833	29.69
382.043	14.67
382.253	7.77
382.463	10.11
382.674	-13.91
382.884	-30.85
383.094	-27.6
383.304	-20.4
383.514	-20.33
383.724	-2.36
383.934	-2.01
384.144	-10.05
384.353	-20.43
384.563	-20.93
384.773	-12.29
384.983	-18.72
385.193	-5.44
385.403	-1.73
385.613	3.6
385.823	0.51
386.033	7.86
386.242	-0.04
386.452	-4.94
386.662	-19.53
386.872	-9.46
387.082	-14.69
387.291	-15.49
387.501	-11.64
387.711	-1.06
387.921	-17.23
388.13	-14.25
388.34	-5.51
388.55	-9.32
388.759	-9.97
388.969	0.58
389.179	-1.46
389.388	-3.41
389.598	-0.26
389.807	-5.66
390.017	-12.05
390.227	-7.63
390.436	-4.96
390.646	-4.37
390.855	-1.17
391.065	0.31
391.274	-2.89
391.484	-8
391.693	-6.89
391.903	-4.9
392.112	0.88
392.322	1.88
392.531	5.63
392.74	5.64
392.95	-0.82
393.159	-5.03
393.369	-3.64
393.578	-4.2
393.787	-3.94
393.997	-0.2
394.206	-0.49
394.415	-1.07
394.625	-1.8
394.834	-2.67
395.043	-1.87
395.252	0.27
395.462	1.73
395.671	2.6
395.88	3.04
396.089	3.91
396.298	2.17
396.508	2.61
396.717	1.92
396.926	2.24
397.135	1.1
397.344	1.1
397.553	1.16
397.762	2.6
397.971	3.23
398.181	4.15
398.39	4.04
398.599	3.55
398.808	3.72
399.017	3.57
399.226	4.36
399.435	5.12
399.644	5.3
399.853	4.18
400.062	4.03
400.27	3.19
400.479	2.72
400.688	2.19
400.897	2.48
401.106	2.48
401.315	2.43
401.524	2.52
401.733	2.8
401.941	3.25
402.15	3.35
402.359	3.46
402.568	3.74
402.777	4.11
402.985	3.77
403.194	3.5
403.403	3.36
403.612	2.82
403.82	2.49
404.029	2.72
404.238	2.82
404.446	3.13
404.655	3.12
404.864	3.19
405.072	2.94
405.281	3.06
405.489	2.85
405.698	2.92
405.906	2.97
406.115	2.98
406.324	2.76
406.532	2.82
406.741	2.94
406.949	2.89
407.158	2.92
407.366	2.98
407.574	2.87
407.783	2.92
407.991	2.83
408.2	2.93
408.408	2.96
408.617	2.85
408.825	2.72
409.033	2.72
409.242	2.73
409.45	2.78
409.658	2.84
409.867	2.85
410.075	2.72
410.283	2.54
410.491	2.46
410.7	2.4
410.908	2.5
411.116	2.9
411.324	2.83
411.533	2.85
411.741	3.09
411.949	2.98
412.157	2.7
412.365	2.83
412.573	2.79
412.781	2.69
412.99	2.78
413.198	2.91
413.406	2.85
413.614	2.85
413.822	2.65
414.03	2.56
414.238	2.32
414.446	2.4
414.654	2.29
414.862	2.47
415.07	2.52
415.278	2.74
415.486	2.58
415.694	2.76
415.902	2.63
416.109	2.54
416.317	2.33
416.525	2.29
416.733	2.18
416.941	2.32
417.149	2.28
417.357	2.41
417.564	2.62
417.772	2.77
417.98	2.64
418.188	2.63
418.395	2.67
418.603	2.75
418.811	2.43
419.019	2.46
419.226	2.61
419.434	2.65
419.642	2.35
419.849	2.57
420.057	2.49
420.265	2.45
420.472	2.35
420.68	2.41
420.887	2.34
421.095	2.39
421.302	2.34
421.51	2.42
421.717	2.51
421.925	2.57
422.132	2.53
422.34	2.38
422.547	2.25
422.755	2.21
422.962	2.01
423.17	1.93
423.377	2
423.585	2.12
423.792	2.03
423.999	2.17
424.207	2.14
424.414	2.2
424.621	2.11
424.829	2.24
425.036	2.24
425.243	2.39
425.451	2.28
425.658	2.22
425.865	2.34
426.072	2.33
426.28	2.54
426.487	2.61
426.694	2.72
426.901	2.46
427.108	2.34
427.315	2.06
427.523	2.3
427.73	2.18
427.937	2.13
428.144	2.13
428.351	2.2
428.558	2.16
428.765	2.1
428.972	2.16
429.179	2.46
429.386	2.7
429.593	2.5
429.8	2.44
430.007	2.49
430.214	2.37
430.421	2.13
430.628	2.01
430.835	2.03
431.042	2.18
431.249	2.15
431.456	2.15
431.662	2.29
431.869	2.57
432.076	2.58
432.283	2.67
432.49	2.64
432.697	2.7
432.903	2.41
433.11	2.38
433.317	2.42
433.524	2.7
433.73	2.63
433.937	2.92
434.144	2.81
434.35	2.7
434.557	2.42
434.764	2.51
434.97	2.28
435.177	2.39
435.384	2.34
435.59	2.45
435.797	2.55
436.003	2.59
436.21	2.56
436.416	2.66
436.623	2.62
436.829	2.64
437.036	2.83
437.242	2.87
437.449	2.71
437.655	2.76
437.862	2.69
438.068	2.5
438.275	2.56
438.481	2.93
438.687	2.93
438.894	2.91
439.1	3.08
439.307	3.19
439.513	2.92
439.719	2.89
439.926	2.94
440.132	2.8
440.338	2.66
440.544	2.82
440.751	2.83
440.957	2.93
441.163	2.95
441.369	3.02
441.575	2.84
441.782	2.78
441.988	2.65
442.194	2.69
442.4	2.66
442.606	2.92
442.812	2.98
443.018	3.08
443.224	3.2
443.431	3.28
443.637	3.09
443.843	3.04
444.049	3.05
444.255	2.86
444.461	2.86
444.667	2.87
444.873	3.07
445.079	3.04
445.284	3.21
445.49	3.01
445.696	2.97
445.902	2.79
446.108	2.72
446.314	2.63
446.52	2.71
446.726	2.86
446.931	2.91
447.137	2.97
447.343	3.01
447.549	2.97
447.755	2.86
447.96	2.88
448.166	2.81
448.372	2.78
448.578	2.89
448.783	2.89
448.989	2.91
449.195	3.16
449.4	3.12
449.606	3.04
449.812	3.03
450.017	3.03
450.223	2.9
450.428	2.87
450.634	3.02
450.84	3.14
451.045	3.11
451.251	2.99
451.456	3.26
451.662	3.18
451.867	3.23
452.073	3.23
452.278	3.37
452.483	3.37
452.689	3.35
452.894	3.27
453.1	3.33
453.305	3.28
453.51	3.21
453.716	3.18
453.921	3.16
454.127	3.15
454.332	3.15
454.537	3.1
454.742	3.18
454.948	3.24
455.153	3.2
455.358	3.22
455.563	3.28
455.769	3.28
455.974	3.18
456.179	3.08
456.384	3.09
456.589	3.09
456.795	2.93
457	2.9
457.205	3.09
457.41	3.09
457.615	3.06
457.82	3.2
458.025	3.28
458.23	3.13
458.435	3.13
458.64	3.03
458.845	3.1
459.05	3.08
459.255	3.16
459.46	3.1
459.665	3.12
459.87	3.08
460.075	3.03
460.28	3.09
460.485	3.18
460.69	3.24
460.895	3.13
461.099	3.16
461.304	3.18
461.509	3.19
461.714	3.15
461.919	3.27
462.123	3.24
462.328	3.17
462.533	3.12
