Data from Ofra_PS_T2_2A_0GT05_Reflection_2.txt Node
Date: Wed Jul 21 16:52:33 EDT 2021
User: Adam
Spectrometer: FLMT01687
Trigger mode: 0
Integration Time (sec): 1.100000E0
Scans to average: 2
Electric dark correction enabled: true
Nonlinearity correction enabled: false
Boxcar width: 2
XAxis mode: Wavelengths
Number of Pixels in Spectrum: 3648
>>>>>Begin Spectral Data<<<<<
179.494	406
179.716	476.94
179.937	434.78
180.158	397.37
180.38	749.69
180.601	334.53
180.823	56.65
181.044	-55.69
181.265	94.49
181.486	11.13
181.708	35.22
181.929	360.2
182.15	-197.89
182.372	58.95
182.593	34.67
182.814	17.64
183.035	7.91
183.257	-23
183.478	-47.77
183.699	17.73
183.92	14.44
184.141	25.68
184.363	1.45
184.584	-22.19
184.805	-26.44
185.026	-8.73
185.247	8.72
185.468	9.3
185.689	23.22
185.91	1.28
186.132	-0.23
186.353	-2.73
186.574	40.92
186.795	25.91
187.016	-2.87
187.237	-3.6
187.458	-58.55
187.679	-75.56
187.9	-57.84
188.121	-26.09
188.342	-28.72
188.563	9.2
188.784	21.25
189.005	-40.51
189.226	-24.96
189.447	-50.24
189.667	-232.77
189.888	-391.38
190.109	-755.19
190.33	-506.77
190.551	-1080.09
190.772	-243.22
190.993	-203.94
191.214	-105.35
191.434	-34.22
191.655	35.77
191.876	13.41
192.097	-16.17
192.318	-71.21
192.538	-151.17
192.759	-97.19
192.98	-27.71
193.201	-9.59
193.421	3.36
193.642	14.71
193.863	10.62
194.083	0.42
194.304	-5.99
194.525	1.46
194.745	-3.85
194.966	-6.26
195.187	-15.86
195.407	-36.94
195.628	-71.27
195.848	-113.89
196.069	-124.36
196.29	-98.06
196.51	-72.02
196.731	-80.51
196.951	-61.33
197.172	-68.52
197.392	-90.93
197.613	-108.38
197.833	-126.1
198.054	-87.28
198.274	-57.9
198.495	-68.31
198.715	-34.31
198.936	-56.2
199.156	-50.93
199.377	-125.47
199.597	-95.64
199.817	-125.6
200.038	-66.4
200.258	-128.68
200.479	-63.47
200.699	-81.01
200.919	24.03
201.14	26.04
201.36	35.62
201.58	27.54
201.801	42.52
202.021	6.68
202.241	9.46
202.461	6.01
202.682	-30.12
202.902	-85.7
203.122	-37.29
203.342	-29.41
203.563	-4.7
203.783	22.64
204.003	-2.67
204.223	18.28
204.443	33.86
204.663	10.16
204.884	-0.51
205.104	24.86
205.324	-1.84
205.544	13.99
205.764	44.86
205.984	36.98
206.204	39.42
206.424	27.81
206.644	0.31
206.864	-3.12
207.084	-49.33
207.304	-0.42
207.525	33.91
207.745	40.62
207.964	49.75
208.184	25.31
208.404	-16.59
208.624	-37.91
208.844	-62.75
209.064	-283.99
209.284	-233.03
209.504	-149.62
209.724	-65.93
209.944	-38.84
210.164	-20.46
210.384	-20.33
210.604	-26.71
210.823	-41.51
211.043	-46.58
211.263	-46.75
211.483	-43.49
211.703	-67.19
211.922	-49.73
212.142	-3.69
212.362	12.71
212.582	-2.24
212.801	26.26
213.021	20.78
213.241	-1.82
213.461	-13.65
213.68	-1.09
213.9	-9.8
214.12	-5.36
214.339	-36.69
214.559	-29.34
214.779	-7.97
214.998	-11.85
215.218	-38.27
215.438	5.06
215.657	1.16
215.877	3.4
216.096	24.28
216.316	29.65
216.535	9.88
216.755	9.36
216.974	-35.63
217.194	-110.67
217.413	-117.46
217.633	-131.41
217.852	-195.11
218.072	-89.32
218.291	-55.91
218.511	-19.65
218.73	-17.6
218.95	-14.61
219.169	-21.52
219.389	-35.02
219.608	-22.76
219.827	-26.07
220.047	-9.36
220.266	3.92
220.485	4.18
220.705	-1.5
220.924	-4.23
221.143	12.42
221.363	-13.34
221.582	2.24
221.801	-7.28
222.021	0.87
222.24	-59.85
222.459	-39.67
222.678	-56.2
222.897	-53.09
223.117	-85.26
223.336	-68.28
223.555	13.34
223.774	54.93
223.993	42.98
224.213	85.44
224.432	80.43
224.651	59.16
224.87	41.22
225.089	58.31
225.308	41.56
225.527	33.62
225.746	39.54
225.965	24.24
226.184	-12.96
226.404	20.85
226.623	19.16
226.842	15.92
227.061	34.92
227.28	43.02
227.499	30.03
227.718	28.8
227.936	9.34
228.155	-0.17
228.374	-5.43
228.593	4.26
228.812	-6.94
229.031	-7.49
229.25	-36.33
229.469	-44.47
229.688	-48.65
229.907	4.15
230.125	7.88
230.344	13.36
230.563	20.78
230.782	28.07
231.001	-36.8
231.22	-29.59
231.438	-15.09
231.657	-31
231.876	-51.37
232.095	0.03
232.313	-2.05
232.532	-10.89
232.751	-2.43
232.969	3.62
233.188	-30.97
233.407	28.31
233.625	26.08
233.844	30.41
234.063	21.96
234.281	23.37
234.5	-3.6
234.719	2.11
234.937	4.69
235.156	-0.48
235.374	-0.5
235.593	-4.68
235.811	-16.84
236.03	-5.48
236.249	-28.69
236.467	-32.45
236.686	5.07
236.904	6.47
237.123	-18.97
237.341	-9.94
237.559	2.69
237.778	-11.96
237.996	-35.97
238.215	1.37
238.433	15.78
238.652	-0.17
238.87	-7.96
239.088	8.73
239.307	3.94
239.525	-12.67
239.743	-2.57
239.962	-4.35
240.18	-1.91
240.398	-45.79
240.617	-20.85
240.835	-27.68
241.053	-20.54
241.271	-18.04
241.49	17.44
241.708	-24.51
241.926	-57.7
242.144	-2.36
242.363	-27.49
242.581	-32.05
242.799	13.84
243.017	15.47
243.235	-25.62
243.453	-17.85
243.672	-10.17
243.89	-21.17
244.108	-16.93
244.326	1.64
244.544	6.52
244.762	7.31
244.98	1.53
245.198	8.34
245.416	13.98
245.634	7.33
245.852	-21.08
246.07	-30.64
246.288	-46.17
246.506	-90.35
246.724	-72
246.942	-24.98
247.16	-2.39
247.378	10.04
247.596	30.68
247.814	11.72
248.032	-7.35
248.25	24.15
248.468	28.4
248.685	44.12
248.903	55.76
249.121	49.49
249.339	21.01
249.557	1.23
249.775	-3.24
249.992	-42.33
250.21	-32.08
250.428	-18.69
250.646	-38.6
250.863	-46.3
251.081	-30.38
251.299	-45.17
251.517	-40.72
251.734	-24.01
251.952	-19.59
252.17	-18.15
252.387	-2.38
252.605	-8.46
252.823	0.61
253.04	9.91
253.258	30.18
253.475	33.84
253.693	46.42
253.911	55.66
254.128	52.27
254.346	51.23
254.563	22.61
254.781	5.25
254.998	-18.56
255.216	-20.66
255.433	-31.74
255.651	7.04
255.868	10.95
256.086	26.56
256.303	20.28
256.521	33.32
256.738	10.3
256.956	-15.83
257.173	-39.19
257.39	-44.39
257.608	-49.87
257.825	-1.55
258.043	43.72
258.26	45.84
258.477	53.26
258.695	29.88
258.912	-26.71
259.129	-27.41
259.346	-50
259.564	-72.95
259.781	-95.72
259.998	-26.03
260.216	5.78
260.433	36.19
260.65	29.3
260.867	39.53
261.084	27.02
261.302	-1.53
261.519	-29.08
261.736	-22.3
261.953	-27.59
262.17	-14.04
262.387	-33.85
262.604	-21.94
262.822	-22.38
263.039	-12.6
263.256	-22.61
263.473	18.78
263.69	4.57
263.907	26.89
264.124	32.55
264.341	19.79
264.558	8.71
264.775	26.56
264.992	15.08
265.209	17.77
265.426	29.27
265.643	28.48
265.86	23.09
266.077	23.95
266.294	18
266.51	-11.16
266.727	-35.74
266.944	-44.04
267.161	-58.48
267.378	-57.41
267.595	-17.81
267.812	-28.2
268.028	-44.91
268.245	-9.01
268.462	-19.49
268.679	-24.34
268.896	20.42
269.112	25.64
269.329	19.36
269.546	17.22
269.763	12.03
269.979	-2.98
270.196	2.93
270.413	-25.18
270.629	-34.8
270.846	-42
271.063	-23.96
271.279	-41.21
271.496	-26.91
271.712	9.84
271.929	30.95
272.146	18.15
272.362	26.77
272.579	40.72
272.795	30.99
273.012	30.36
273.228	31.06
273.445	27.12
273.661	3.83
273.878	-23.73
274.094	-33.01
274.311	-64.75
274.527	-16.16
274.744	-7.77
274.96	-9.91
275.177	4.16
275.393	32.05
275.609	32.45
275.826	51.01
276.042	65.48
276.259	64.19
276.475	57.41
276.691	56.27
276.908	33.48
277.124	43.27
277.34	46.07
277.557	35.29
277.773	24.37
277.989	21.63
278.205	3.65
278.422	8.54
278.638	24.6
278.854	33.27
279.07	36.7
279.286	26.74
279.503	-5.61
279.719	-32.03
279.935	-62.76
280.151	-74.35
280.367	-54.4
280.583	-46.66
280.799	-37.28
281.016	-54.61
281.232	-16.44
281.448	-0.15
281.664	5.7
281.88	-4.1
282.096	16.81
282.312	11.11
282.528	10.89
282.744	26.1
282.96	10.23
283.176	3.21
283.392	-0.76
283.608	-4.34
283.824	-5.93
284.04	1.35
284.256	14.94
284.471	38.69
284.687	29.26
284.903	33.01
285.119	44.95
285.335	26.23
285.551	0.73
285.767	2.72
285.982	-11.31
286.198	-45.74
286.414	16.21
286.63	18.17
286.846	30.66
287.061	22.94
287.277	50.22
287.493	19.51
287.709	24.42
287.924	7.88
288.14	27.21
288.356	17.15
288.571	31.05
288.787	27.31
289.003	26.49
289.218	10.98
289.434	-3.39
289.65	-5.04
289.865	-25.65
290.081	-18.74
290.296	-11.78
290.512	-20.67
290.727	-45.42
290.943	-16.39
291.159	-23.9
291.374	-23.86
291.59	-32.77
291.805	-14.31
292.021	-20.49
292.236	-7.88
292.451	14.03
292.667	19.3
292.882	19.94
293.098	9.98
293.313	-13.2
293.529	-41.95
293.744	-36.37
293.959	-24.89
294.175	-20.78
294.39	17.68
294.605	27.79
294.821	35.61
295.036	28.36
295.251	41.39
295.467	35.99
295.682	32.7
295.897	12.41
296.112	32.22
296.328	22.09
296.543	-19.26
296.758	-8.16
296.973	3.75
297.188	15.05
297.404	-1.64
297.619	-8.4
297.834	-30.85
298.049	-42.79
298.264	-61.95
298.479	-15.02
298.694	-2.61
298.909	17.74
299.125	28.34
299.34	41.86
299.555	17.55
299.77	21.52
299.985	-13.88
300.2	-55.54
300.415	-71.98
300.63	-50.85
300.845	-56.56
301.06	-40.85
301.275	-3.92
301.49	3.22
301.704	12.51
301.919	8.78
302.134	0.91
302.349	-7.78
302.564	-35.21
302.779	-101.53
302.994	-107.13
303.209	-78.63
303.423	-58.63
303.638	2.39
303.853	13.72
304.068	18.38
304.283	24.5
304.497	15.75
304.712	3.76
304.927	-0.12
305.142	-4.38
305.356	2.04
305.571	-0.94
305.786	-4.13
306	-16.06
306.215	-7.51
306.43	-49.88
306.644	-58.88
306.859	-42.32
307.074	-19.48
307.288	-59.04
307.503	-52.55
307.717	-31.87
307.932	-45.39
308.147	-44.3
308.361	-26.16
308.576	-23.75
308.79	-63.55
309.005	-43.3
309.219	-36.47
309.434	-34.99
309.648	-40.99
309.863	-11.93
310.077	-13.18
310.292	-18.54
310.506	-16.39
310.72	3.25
310.935	-0.62
311.149	1.48
311.364	9.33
311.578	17.51
311.792	12.78
312.007	19.15
312.221	16.74
312.435	23.16
312.649	15.79
312.864	33.39
313.078	36.41
313.292	55.59
313.507	25.16
313.721	31
313.935	14.78
314.149	12.68
314.363	18.53
314.578	21.2
314.792	27.81
315.006	12.98
315.22	20.93
315.434	23.19
315.648	31.61
315.862	25.11
316.077	39.68
316.291	23.32
316.505	-6.26
316.719	-16.52
316.933	-21.03
317.147	-60.61
317.361	-77.77
317.575	-74.34
317.789	-105.93
318.003	-153.57
318.217	-110.33
318.431	-36.01
318.645	0.23
318.859	0.03
319.073	11.11
319.287	15.91
319.5	-10.62
319.714	-40.8
319.928	-63.34
320.142	-73.3
320.356	-41.33
320.57	-9.32
320.784	-23.26
320.997	-13.22
321.211	-12.42
321.425	-50
321.639	-76.66
321.853	-37.36
322.066	-13.27
322.28	-23.43
322.494	-20.78
322.707	-15.7
322.921	-19.18
323.135	-10.2
323.349	2.17
323.562	-8.38
323.776	-1.42
323.989	-5.75
324.203	-21.76
324.417	-34.07
324.63	-44.25
324.844	-42.6
325.057	-24.46
325.271	-25.18
325.485	7.48
325.698	28.09
325.912	33.23
326.125	23.29
326.339	28.03
326.552	8.37
326.766	6.48
326.979	1.77
327.193	24.05
327.406	9.9
327.619	16.19
327.833	20.93
328.046	5.58
328.26	-36.31
328.473	-23.27
328.686	-64.23
328.9	-63.89
329.113	-38.19
329.326	-40.94
329.54	-37.29
329.753	-20.66
329.966	-47.53
330.179	-51.9
330.393	-16.55
330.606	11.28
330.819	17.04
331.032	35.75
331.246	36.95
331.459	46.48
331.672	33.2
331.885	21.29
332.098	1.85
332.311	-20.51
332.525	-70.95
332.738	-63.33
332.951	-28.74
333.164	2.49
333.377	19.08
333.59	42.22
333.803	39.66
334.016	35.66
334.229	27.82
334.442	33.84
334.655	36.6
334.868	38.25
335.081	36.18
335.294	21.64
335.507	22.51
335.72	20.79
335.933	10.96
336.146	-1.3
336.359	2.64
336.572	-22.14
336.785	-39.11
336.997	-37.94
337.21	-0.34
337.423	-6.77
337.636	9.17
337.849	7.04
338.062	-0.53
338.274	-17.49
338.487	-16.3
338.7	-43.66
338.913	-65.78
339.125	-65.74
339.338	-106.72
339.551	-106.83
339.763	-56.27
339.976	-23.86
340.189	-4.56
340.402	-0.73
340.614	4.69
340.827	-1.57
341.039	-10.71
341.252	-2.78
341.465	3.79
341.677	-0.49
341.89	-31.64
342.102	-12.83
342.315	-22.79
342.527	-34.42
342.74	-11.81
342.952	4.58
343.165	-6.56
343.377	6.85
343.59	7.68
343.802	9.63
344.015	13.83
344.227	24.66
344.44	20.29
344.652	18.71
344.864	5.08
345.077	27.18
345.289	22.03
345.502	18.68
345.714	9.14
345.926	4.43
346.139	-13.63
346.351	-19.07
346.563	-14.36
346.775	-2.8
346.988	6.8
347.2	0.82
347.412	-24.61
347.624	-34.75
347.837	-66.9
348.049	-53.21
348.261	-36.06
348.473	-4.63
348.685	-4.79
348.897	13.65
349.11	-8.02
349.322	-25.1
349.534	-20.39
349.746	-18.58
349.958	-31.76
350.17	-28.29
350.382	2.97
350.594	0.9
350.806	-1.2
351.018	4.65
351.23	-7.23
351.442	-50.97
351.654	-59.42
351.866	-57.33
352.078	-44.76
352.29	-21.94
352.502	4.16
352.714	13.09
352.926	18.81
353.138	21.4
353.35	9.15
353.561	4.78
353.773	-11.9
353.985	-7.3
354.197	-11.27
354.409	-1.94
354.621	-3.15
354.832	3.59
355.044	-4.47
355.256	-11.02
355.468	-0.84
355.679	-9.59
355.891	-6.78
356.103	-18.09
356.314	-4.21
356.526	4.56
356.738	21.7
356.949	17.2
357.161	17.27
357.373	10.98
357.584	-6.08
357.796	0.85
358.008	-8.61
358.219	11.38
358.431	0.02
358.642	7
358.854	-0.4
359.065	-2.82
359.277	-36.11
359.488	-31.15
359.7	-48.09
359.911	-36.9
360.123	-25.8
360.334	-14.03
360.546	-26.5
360.757	-21.41
360.969	-24.69
361.18	-0.39
361.391	-0.16
361.603	-3.2
361.814	-10.62
362.025	-13.7
362.237	-25.37
362.448	-15.19
362.659	10.52
362.871	21.29
363.082	10.86
363.293	8.78
363.504	2.78
363.716	-19.12
363.927	-36.34
364.138	-39.74
364.349	-46.32
364.56	-40.63
364.772	-31.94
364.983	-10.67
365.194	-6.76
365.405	7.2
365.616	12.55
365.827	15.3
366.038	-8.27
366.25	-17.87
366.461	-44.89
366.672	-18.24
366.883	-10.01
367.094	9.22
367.305	7.64
367.516	13.22
367.727	-10.24
367.938	-15.52
368.149	-18.84
368.36	-13.72
368.571	-13.36
368.781	-13.32
368.992	-21.04
369.203	-39.05
369.414	-40.8
369.625	-39.42
369.836	-40.1
370.047	-56.08
370.258	-35.09
370.468	-38.39
370.679	-50.74
370.89	-40.16
371.101	-20.59
371.312	-17.81
371.522	-9.15
371.733	2.63
371.944	-2.66
372.155	3.62
372.365	-3.08
372.576	1.07
372.787	-3.76
372.997	-9.1
373.208	-24.63
373.419	-9.28
373.629	-33.93
373.84	-40.06
374.05	-44.57
374.261	-37.83
374.472	-51.65
374.682	-10.6
374.893	2.63
375.103	28.11
375.314	23.75
375.524	22.03
375.735	15.25
375.945	12.39
376.156	-9.15
376.366	-0.44
376.577	1.62
376.787	3.74
376.997	-6.15
377.208	0.71
377.418	-5.39
377.629	-3.65
377.839	-1.15
378.049	7.83
378.26	9.02
378.47	17.27
378.68	16.83
378.89	11.73
379.101	9.54
379.311	-10.15
379.521	-25.2
379.732	-28.54
379.942	-37.41
380.152	-49.47
380.362	-5.47
380.572	-6.21
380.783	1.88
380.993	14.29
381.203	29.24
381.413	25.19
381.623	25.8
381.833	22.89
382.043	14.11
382.253	0.43
382.463	1.68
382.674	-6.11
382.884	-21.73
383.094	-12.23
383.304	-7.65
383.514	-13.88
383.724	-6.33
383.934	-5.64
384.144	-21.4
384.353	-23.19
384.563	-22.85
384.773	-20.04
384.983	-30.6
385.193	-7.84
385.403	-6.21
385.613	1
385.823	-2.58
386.033	11.46
386.242	-5.76
386.452	-4.18
386.662	-10.32
386.872	-0.88
387.082	-5.85
387.291	-3.11
387.501	-5.79
387.711	-2.62
387.921	-6.19
388.13	-3.45
388.34	4.4
388.55	0.11
388.759	1.39
388.969	0.87
389.179	-3.11
389.388	-5.56
389.598	1.92
389.807	-3.75
390.017	-6.58
390.227	-5.26
390.436	-7.01
390.646	-7.31
390.855	-4.63
391.065	-4.36
391.274	-3.85
391.484	-4.62
391.693	-2.07
391.903	-1.38
392.112	3.5
392.322	3.5
392.531	5.84
392.74	3.35
392.95	-1.71
393.159	-3.44
393.369	-2.52
393.578	-2.9
393.787	-3.86
393.997	-0.95
394.206	-1.88
394.415	-0.91
394.625	-1.02
394.834	-1.29
395.043	-0.2
395.252	2.59
395.462	3.6
395.671	3.49
395.88	3.25
396.089	3.19
396.298	0.39
396.508	-0.51
396.717	-0.66
396.926	0.8
397.135	-0.02
397.344	1.06
397.553	1.6
397.762	2.83
397.971	2.25
398.181	2.66
398.39	1.86
398.599	1.39
398.808	1.18
399.017	1.93
399.226	2.63
399.435	3.49
399.644	3.66
399.853	2.87
400.062	2.55
400.27	2.01
400.479	1.59
400.688	1.17
400.897	1.5
401.106	1.41
401.315	1.62
401.524	1.45
401.733	1.66
401.941	1.83
402.15	1.99
402.359	1.64
402.568	2
402.777	2.01
402.985	1.78
403.194	1.72
403.403	1.7
403.612	1.26
403.82	1.36
404.029	1.65
404.238	1.57
404.446	1.93
404.655	2.15
404.864	2.16
405.072	2
405.281	1.93
405.489	1.72
405.698	1.71
405.906	1.68
406.115	1.82
406.324	1.85
406.532	2.06
406.741	2.25
406.949	2.2
407.158	2.07
407.366	2.16
407.574	2.05
407.783	1.95
407.991	1.78
408.2	1.94
408.408	1.95
408.617	1.86
408.825	1.82
409.033	2.03
409.242	1.83
409.45	1.96
409.658	1.86
409.867	2.01
410.075	1.9
410.283	1.98
410.491	1.86
410.7	1.91
410.908	1.73
411.116	1.91
411.324	1.82
411.533	1.63
411.741	1.84
411.949	1.78
412.157	1.53
412.365	1.58
412.573	1.72
412.781	1.63
412.99	1.63
413.198	1.95
413.406	1.9
413.614	1.83
413.822	1.71
414.03	1.71
414.238	1.48
414.446	1.61
414.654	1.51
414.862	1.69
415.07	1.83
415.278	1.98
415.486	1.88
415.694	2.06
415.902	1.92
416.109	1.89
416.317	1.85
416.525	1.64
416.733	1.5
416.941	1.65
417.149	1.54
417.357	1.44
417.564	1.65
417.772	1.9
417.98	1.71
418.188	1.79
418.395	1.84
418.603	1.95
418.811	1.53
419.019	1.47
419.226	1.48
419.434	1.56
419.642	1.5
419.849	1.75
420.057	1.75
420.265	1.84
420.472	1.72
420.68	1.73
420.887	1.68
421.095	1.91
421.302	1.81
421.51	2.01
421.717	2.08
421.925	2
422.132	1.78
422.34	1.62
422.547	1.41
422.755	1.16
422.962	1.19
423.17	1.2
423.377	1.43
423.585	1.49
423.792	1.51
423.999	1.58
424.207	1.56
424.414	1.49
424.621	1.51
424.829	1.59
425.036	1.65
425.243	1.78
425.451	1.63
425.658	1.59
425.865	1.74
426.072	1.62
426.28	1.79
426.487	1.87
426.694	2
426.901	1.83
427.108	1.8
427.315	1.6
427.523	1.68
427.73	1.44
427.937	1.45
428.144	1.48
428.351	1.48
428.558	1.54
428.765	1.57
428.972	1.47
429.179	1.48
429.386	1.56
429.593	1.35
429.8	1.33
430.007	1.42
430.214	1.49
430.421	1.45
430.628	1.39
430.835	1.33
431.042	1.48
431.249	1.52
431.456	1.48
431.662	1.67
431.869	1.86
432.076	1.72
432.283	1.79
432.49	1.74
432.697	1.8
432.903	1.62
433.11	1.7
433.317	1.7
433.524	1.89
433.73	1.75
433.937	2
434.144	1.89
434.35	1.76
434.557	1.52
434.764	1.58
434.97	1.37
435.177	1.48
435.384	1.52
435.59	1.6
435.797	1.74
436.003	1.75
436.21	1.71
436.416	1.8
436.623	1.88
436.829	1.78
437.036	1.9
437.242	1.9
437.449	1.81
437.655	1.87
437.862	1.89
438.068	1.82
438.275	1.88
438.481	2.03
438.687	1.95
438.894	1.87
439.1	1.96
439.307	2.14
439.513	2.01
439.719	1.98
439.926	2.14
440.132	2.14
440.338	2.01
440.544	2.09
440.751	2.17
440.957	2.11
441.163	2.05
441.369	2.12
441.575	2.01
441.782	2
441.988	1.95
442.194	1.96
442.4	1.92
442.606	2.24
442.812	2.24
443.018	2.27
443.224	2.34
443.431	2.41
443.637	2.12
443.843	2.1
444.049	2.11
444.255	2.01
444.461	1.95
444.667	1.99
444.873	2.13
445.079	2.18
445.284	2.33
445.49	2.21
445.696	2.16
445.902	2.03
446.108	1.96
446.314	1.89
446.52	1.89
446.726	2.02
446.931	2.07
447.137	2.12
447.343	2.16
447.549	2.22
447.755	2.07
447.96	2.1
448.166	2.04
448.372	1.95
448.578	1.99
448.783	2.09
448.989	2.1
449.195	2.23
449.4	2.32
449.606	2.22
449.812	2.19
450.017	2.19
450.223	2.06
450.428	1.96
450.634	2.08
450.84	2.2
451.045	2.2
451.251	2.18
451.456	2.4
451.662	2.47
451.867	2.5
452.073	2.45
452.278	2.57
452.483	2.61
452.689	2.5
452.894	2.39
453.1	2.36
453.305	2.29
453.51	2.2
453.716	2.2
453.921	2.24
454.127	2.26
454.332	2.22
454.537	2.09
454.742	2.09
454.948	2.01
455.153	2.08
455.358	2.22
455.563	2.33
455.769	2.33
455.974	2.37
456.179	2.26
456.384	2.2
456.589	2.16
456.795	2.02
457	2.02
457.205	2.2
457.41	2.18
457.615	2.21
457.82	2.35
458.025	2.39
458.23	2.27
458.435	2.24
458.64	2.2
458.845	2.33
459.05	2.33
459.255	2.31
459.46	2.29
459.665	2.36
459.87	2.31
460.075	2.32
460.28	2.47
460.485	2.58
460.69	2.57
460.895	2.44
461.099	2.38
461.304	2.35
461.509	2.32
461.714	2.3
461.919	2.45
462.123	2.34
462.328	2.31
462.533	2.27
462.738	2.3
462.942	2.29
463.147	2.38
463.352	2.45
463.556	2.49
