Data from Ofra_1a_PS_OGT5_Reflection_2.txt Node
Date: Tue Jul 20 10:44:01 EDT 2021
User: Adam
Spectrometer: FLMT01687
Trigger mode: 0
Integration Time (sec): 1.004000E0
Scans to average: 2
Electric dark correction enabled: true
Nonlinearity correction enabled: false
Boxcar width: 2
XAxis mode: Wavelengths
Number of Pixels in Spectrum: 3648
>>>>>Begin Spectral Data<<<<<
179.494	-395.94
179.716	-609.16
179.937	1328.43
180.158	-1383.44
180.38	107.42
180.601	70.04
180.823	-39.82
181.044	-125.19
181.265	-111.69
181.486	44.4
181.708	46.43
181.929	3709.09
182.15	-99.86
182.372	478.82
182.593	401.11
182.814	-213.92
183.035	-74.83
183.257	-6.35
183.478	-35.02
183.699	-54.4
183.92	-88.33
184.141	-66.41
184.363	-62.37
184.584	-91.76
184.805	-38
185.026	1.87
185.247	-8.21
185.468	-38.91
185.689	-7.37
185.91	-34.45
186.132	-13.8
186.353	-2.33
186.574	-6.54
186.795	-0.5
187.016	18.42
187.237	10.73
187.458	16.52
187.679	18.03
187.9	20.39
188.121	17
188.342	-5.98
188.563	1.81
188.784	29.05
189.005	-0.87
189.226	-1.54
189.447	-4.59
189.667	-29.65
189.888	-47.95
190.109	-46.48
190.33	-20.7
190.551	-18.43
190.772	6.99
190.993	-1.24
191.214	-20.28
191.434	-71.4
191.655	-98.04
191.876	-96.12
192.097	-54.53
192.318	-7.75
192.538	-27.42
192.759	-16.51
192.98	7.68
193.201	3.97
193.421	-13.15
193.642	9.63
193.863	18.58
194.083	-7.21
194.304	3.78
194.525	-10.38
194.745	-24.82
194.966	-23.05
195.187	-18.68
195.407	-39.74
195.628	-9.12
195.848	-11
196.069	-23.96
196.29	-10.84
196.51	-15.77
196.731	-26.5
196.951	-44.89
197.172	-42.6
197.392	-40.71
197.613	-0.36
197.833	2.72
198.054	0.48
198.274	-4.57
198.495	-11.76
198.715	-23.17
198.936	0.86
199.156	2.86
199.377	14.64
199.597	10.34
199.817	-12.24
200.038	-70.55
200.258	-19.25
200.479	3.19
200.699	5.57
200.919	10.33
201.14	29.24
201.36	12.38
201.58	-23.19
201.801	-45.13
202.021	-52.23
202.241	-51.74
202.461	-32.94
202.682	-13.73
202.902	16.56
203.122	17.95
203.342	7.28
203.563	1.42
203.783	-17.93
204.003	-36.12
204.223	-13.92
204.443	-3.11
204.663	-9.83
204.884	38.53
205.104	49.99
205.324	57.34
205.544	53.24
205.764	48.12
205.984	16.96
206.204	-2.44
206.424	-20.16
206.644	-31.17
206.864	-75.68
207.084	-34.62
207.304	-40.47
207.525	-37.8
207.745	-17.96
207.964	-3.06
208.184	-10.66
208.404	-6.57
208.624	6.39
208.844	-4.56
209.064	-14.13
209.284	-28.78
209.504	-20.42
209.724	-21.56
209.944	-25.44
210.164	-20.08
210.384	8.51
210.604	-21.09
210.823	-54.63
211.043	-21.38
211.263	-71.83
211.483	-50.16
211.703	-26.85
211.922	-24.66
212.142	-13.1
212.362	19.85
212.582	8.78
212.801	-13.43
213.021	-25.87
213.241	-56.38
213.461	-52.56
213.68	-32.57
213.9	-23.52
214.12	-12.45
214.339	-6.59
214.559	-7.01
214.779	-34.15
214.998	-29.99
215.218	-18.97
215.438	-15.18
215.657	-34.05
215.877	-28.39
216.096	-7.39
216.316	-3.4
216.535	-9.23
216.755	0.36
216.974	-1.73
217.194	4.04
217.413	-1.08
217.633	5.87
217.852	-0.37
218.072	4.14
218.291	-20.28
218.511	-34.23
218.73	-41.87
218.95	-67.41
219.169	-81.77
219.389	-35.99
219.608	-34.81
219.827	-22.38
220.047	-5.66
220.266	-17.28
220.485	-56.12
220.705	-45.63
220.924	-76.68
221.143	-46.43
221.363	-17.06
221.582	-2.05
221.801	8.78
222.021	16.79
222.24	26.66
222.459	27.91
222.678	8.97
222.897	-7.99
223.117	1.76
223.336	-9.25
223.555	3.76
223.774	49.53
223.993	90.29
224.213	119.57
224.432	91.49
224.651	58.96
224.87	34.87
225.089	15.93
225.308	-9.2
225.527	-2.71
225.746	-13.12
225.965	-4.29
226.184	-9.49
226.404	-24.74
226.623	-12.54
226.842	4.5
227.061	0.7
227.28	13.62
227.499	25.89
227.718	19.64
227.936	20.81
228.155	31.95
228.374	19.9
228.593	14.38
228.812	2.68
229.031	11.26
229.25	0.81
229.469	3.31
229.688	6.45
229.907	9.91
230.125	-1.34
230.344	4.08
230.563	7.19
230.782	3.09
231.001	11.52
231.22	10.44
231.438	8.28
231.657	15.64
231.876	15.55
232.095	20.49
232.313	5.34
232.532	4.57
232.751	-11.73
232.969	-2.92
233.188	-21.51
233.407	6.53
233.625	5.95
233.844	4.54
234.063	-5.71
234.281	0.31
234.5	-11.08
234.719	-16.74
234.937	-38.3
235.156	-34.05
235.374	-40.46
235.593	-26.38
235.811	-8.26
236.03	10.04
236.249	5.76
236.467	11.76
236.686	-9.59
236.904	-16.22
237.123	-15.06
237.341	-5.93
237.559	-3.73
237.778	14.37
237.996	-4.96
238.215	-30.46
238.433	-97.13
238.652	-42.46
238.87	-50.27
239.088	-29.72
239.307	-10.1
239.525	14.02
239.743	8.08
239.962	7.07
240.18	22.75
240.398	25.04
240.617	10.54
240.835	-2.87
241.053	-6.17
241.271	-16.05
241.49	-10.76
241.708	-11.41
241.926	-12.12
242.144	8.43
242.363	-14.52
242.581	-51.38
242.799	-46.34
243.017	-11.23
243.235	-12.86
243.453	-15.67
243.672	-4.9
243.89	4.73
244.108	12.91
244.326	28.98
244.544	41.55
244.762	36.58
244.98	39.06
245.198	33.1
245.416	31.03
245.634	16.66
245.852	13.53
246.07	39.79
246.288	46.87
246.506	30.97
246.724	28.88
246.942	25.13
247.16	-11.28
247.378	-41.74
247.596	-41.47
247.814	-46.25
248.032	-32.09
248.25	7.16
248.468	13.24
248.685	16.97
248.903	11.86
249.121	14.5
249.339	7.93
249.557	10
249.775	17.47
249.992	33.53
250.21	30.91
250.428	34.22
250.646	23.69
250.863	8.12
251.081	0.94
251.299	4.44
251.517	5.93
251.734	9.77
251.952	11.54
252.17	5.44
252.387	-25.64
252.605	-39.88
252.823	-72.9
253.04	-73.5
253.258	-56.55
253.475	-21.53
253.693	-23.92
253.911	-18.97
254.128	-17.68
254.346	-15.48
254.563	-2.93
254.781	-5.54
254.998	3.43
255.216	-20.57
255.433	-26.1
255.651	-29.07
255.868	-11.9
256.086	-9.14
256.303	17.77
256.521	12.27
256.738	4.73
256.956	-0.18
257.173	-4.14
257.39	-9.25
257.608	-9.37
257.825	1.32
258.043	9.42
258.26	10.42
258.477	15.74
258.695	10.23
258.912	-6.2
259.129	-23.59
259.346	-34.26
259.564	-43.29
259.781	-29.59
259.998	-12.74
260.216	4.79
260.433	-2.08
260.65	-12.65
260.867	-30.15
261.084	-22.58
261.302	-48.02
261.519	-22.42
261.736	-14.58
261.953	6.7
262.17	13.85
262.387	19.97
262.604	19.59
262.822	25.47
263.039	21.02
263.256	15.3
263.473	17.19
263.69	17.63
263.907	22.24
264.124	28.02
264.341	30.09
264.558	18.68
264.775	14.87
264.992	12.65
265.209	-7.26
265.426	-45.72
265.643	-20.84
265.86	-38.37
266.077	-58.51
266.294	-5.01
266.51	25
266.727	11.67
266.944	19.03
267.161	18.39
267.378	10.87
267.595	-1.75
267.812	-15.09
268.028	-31.24
268.245	-23.21
268.462	-21.21
268.679	-19.6
268.896	-2.65
269.112	-8.1
269.329	-27.32
269.546	-12.99
269.763	-3.1
269.979	-2.99
270.196	3.85
270.413	18.84
270.629	-3.59
270.846	2.22
271.063	1.12
271.279	0.37
271.496	-22.08
271.712	2.21
271.929	-8.96
272.146	-16.3
272.362	-6.57
272.579	-9.22
272.795	-13.54
273.012	-5.93
273.228	14.4
273.445	11.76
273.661	26.2
273.878	16.26
274.094	11.65
274.311	-3.74
274.527	-21.69
274.744	-6.45
274.96	-6.64
275.177	-10.15
275.393	9.68
275.609	12.84
275.826	10.38
276.042	-5.08
276.259	-12.37
276.475	-29.59
276.691	-40.41
276.908	-56.09
277.124	-32.34
277.34	-31.72
277.557	-57.1
277.773	-50.97
277.989	-23.95
278.205	-24.05
278.422	-35.77
278.638	-24.65
278.854	-20.57
279.07	-17.53
279.286	-11.07
279.503	21.42
279.719	30.19
279.935	13.55
280.151	-8.81
280.367	-4.81
280.583	-27.25
280.799	-37.72
281.016	-60.03
281.232	-28.27
281.448	-43.35
281.664	-19.73
281.88	-4.86
282.096	13.4
282.312	7.57
282.528	2.34
282.744	-16.58
282.96	-26.44
283.176	-32.38
283.392	-96.9
283.608	-73.89
283.824	-86.51
284.04	-131.64
284.256	-66.58
284.471	-9.12
284.687	-1.3
284.903	4.38
285.119	22.18
285.335	14.75
285.551	-2.37
285.767	-21.97
285.982	-10.95
286.198	-38.86
286.414	-40.32
286.63	-40.45
286.846	-24.06
287.061	-5.47
287.277	-5.02
287.493	-26.66
287.709	-17.33
287.924	8.92
288.14	-4.24
288.356	6.96
288.571	20.51
288.787	10.58
289.003	-7.6
289.218	-26.77
289.434	-27.9
289.65	-13.28
289.865	-14.8
290.081	-7
290.296	10.28
290.512	-2.31
290.727	-14.09
290.943	10.57
291.159	10.07
291.374	-15.79
291.59	-2.1
291.805	-9.04
292.021	-25.21
292.236	-30.37
292.451	-7.82
292.667	-4.93
292.882	4.25
293.098	-2.64
293.313	7.62
293.529	12.73
293.744	0.51
293.959	9.62
294.175	31.6
294.39	3.86
294.605	14.97
294.821	22.25
295.036	17.88
295.251	0.4
295.467	2.96
295.682	-12.96
295.897	-21.26
296.112	-36.4
296.328	-32.3
296.543	-29.5
296.758	-22.83
296.973	-24.42
297.188	-11.06
297.404	-15.38
297.619	-39.22
297.834	-58.07
298.049	-31.93
298.264	-34.12
298.479	-55.46
298.694	-0.9
298.909	-1.66
299.125	-2.05
299.34	6.13
299.555	33.55
299.77	30.49
299.985	33.16
300.2	29.76
300.415	17.9
300.63	5.54
300.845	-8.12
301.06	-15.08
301.275	-39.33
301.49	-28.7
301.704	-27.94
301.919	-38.66
302.134	-46.65
302.349	-16.28
302.564	-16.08
302.779	-15.03
302.994	-4.83
303.209	20.1
303.423	4.75
303.638	-8.2
303.853	-32.31
304.068	-35.9
304.283	-54.76
304.497	-55.35
304.712	-15
304.927	6.94
305.142	17.22
305.356	15.97
305.571	28.12
305.786	19.85
306	33.39
306.215	5.27
306.43	2.19
306.644	-25.23
306.859	-35.32
307.074	-21.77
307.288	-5.32
307.503	4.96
307.717	20.27
307.932	21.31
308.147	6.32
308.361	7.85
308.576	-9.04
308.79	-16.69
309.005	-46.18
309.219	-18.21
309.434	-16.73
309.648	4.18
309.863	1.15
310.077	8.58
310.292	1.87
310.506	-13.72
310.72	-14.2
310.935	7.58
311.149	16
311.364	12.77
311.578	9.57
311.792	0
312.007	-27.29
312.221	-57.17
312.435	-37.57
312.649	-20.85
312.864	-51.06
313.078	-56.4
313.292	-63.12
313.507	-66.4
313.721	-62.73
313.935	-34.5
314.149	-11.96
314.363	25.94
314.578	8.5
314.792	-26.17
315.006	-13.95
315.22	-3.49
315.434	-12.91
315.648	-17.62
315.862	-11.86
316.077	-32.67
316.291	-54.75
316.505	-82.92
316.719	-66.65
316.933	-40.59
317.147	-20.98
317.361	-18.96
317.575	-17.49
317.789	-18.41
318.003	-12.63
318.217	2.03
318.431	0
318.645	6.09
318.859	17.47
319.073	10.74
319.287	-0.71
319.5	3.39
319.714	8.72
319.928	-1.71
320.142	-0.66
320.356	6.39
320.57	-27.73
320.784	-32
320.997	-42.19
321.211	-25.48
321.425	-65.76
321.639	-16.12
321.853	-12.91
322.066	-13.27
322.28	-34.05
322.494	-15.96
322.707	-21.88
322.921	-27.89
323.135	-14.49
323.349	-1.56
323.562	6.05
323.776	2.36
323.989	13.96
324.203	-6.07
324.417	-2.92
324.63	-20.1
324.844	-19.33
325.057	-57.22
325.271	-37.27
325.485	-35.44
325.698	-18.57
325.912	-10
326.125	-15.63
326.339	-15.77
326.552	-27.43
326.766	-37.58
326.979	-47.14
327.193	-15.66
327.406	-17.39
327.619	-10.05
327.833	-11.4
328.046	2.62
328.26	-5.77
328.473	-3.4
328.686	-3.86
328.9	-0.26
329.113	-12.22
329.326	-9.41
329.54	-2.24
329.753	8.52
329.966	18.09
330.179	24.28
330.393	19.09
330.606	7.95
330.819	-1.79
331.032	-15.75
331.246	-13.35
331.459	-2.03
331.672	-2.36
331.885	-8.93
332.098	-4.67
332.311	0.34
332.525	0
332.738	3.16
332.951	-2
333.164	13.87
333.377	13.01
333.59	5.85
333.803	16.44
334.016	23.75
334.229	2.65
334.442	-6.67
334.655	-10.09
334.868	-23.44
335.081	-34.11
335.294	-47.02
335.507	-41.93
335.72	-31.71
335.933	-29.03
336.146	-19.78
336.359	-9.75
336.572	-6.35
336.785	-10.29
336.997	-14.65
337.21	-8.51
337.423	-11.66
337.636	-7.11
337.849	-6.13
338.062	12.32
338.274	26.14
338.487	3.47
338.7	-16.04
338.913	-5.04
339.125	-37.66
339.338	-60.02
339.551	-37.86
339.763	-16.24
339.976	-23.65
340.189	-12.35
340.402	22.76
340.614	37.23
340.827	26.61
341.039	17
341.252	5.47
341.465	-7.73
341.677	-21.45
341.89	-25.45
342.102	-10.94
342.315	5.79
342.527	0
342.74	-7.73
342.952	-2.91
343.165	-4.38
343.377	-0.48
343.59	11.09
343.802	15.68
344.015	19.9
344.227	25.99
344.44	20.18
344.652	13.71
344.864	21.76
345.077	29.11
345.289	18.21
345.502	17.95
345.714	28.87
345.926	22.54
346.139	-9.14
346.351	-2.82
346.563	-3.73
346.775	-21.06
346.988	-9.48
347.2	-1.13
347.412	-1.6
347.624	-2.47
347.837	-3.13
348.049	-3.6
348.261	-3.4
348.473	-8.39
348.685	-4.1
348.897	-17.39
349.11	-23.4
349.322	-12.37
349.534	-10.05
349.746	-4.19
349.958	-8.41
350.17	-11.57
350.382	-21.24
350.594	-16.81
350.806	-0.3
351.018	13.59
351.23	24.67
351.442	25.38
351.654	27.88
351.866	11.05
352.078	24.28
352.29	6.63
352.502	3.73
352.714	1.52
352.926	7.49
353.138	-0.3
353.35	2.93
353.561	-1.55
353.773	-7.28
353.985	-1.91
354.197	-11.14
354.409	-7.31
354.621	-23.44
354.832	-20.94
355.044	-32.68
355.256	-31.74
355.468	-46.91
355.679	5.14
355.891	11.99
356.103	12.44
356.314	16.38
356.526	19.09
356.738	7.13
356.949	-6.24
357.161	3.8
357.373	4.92
357.584	13.77
357.796	7.43
358.008	19.5
358.219	17.51
358.431	3.5
358.642	5.64
358.854	4.2
359.065	-16.26
359.277	-16.59
359.488	-16.02
359.7	-23.66
359.911	-38.16
360.123	-21.64
360.334	-31.51
360.546	-29.98
360.757	-31.9
360.969	-27.99
361.18	-34.26
361.391	-15.37
361.603	-2.29
361.814	3.92
362.025	17.09
362.237	15.56
362.448	10.32
362.659	3.67
362.871	-8.17
363.082	-17.69
363.293	-31.22
363.504	-51.13
363.716	-58.15
363.927	-22.25
364.138	-47.83
364.349	-51.07
364.56	-56.19
364.772	-33.86
364.983	-35.01
365.194	-7.59
365.405	1.9
365.616	20.23
365.827	15.63
366.038	18.66
366.25	12.1
366.461	17.13
366.672	10.94
366.883	5.56
367.094	-2.23
367.305	-10.57
367.516	-8.77
367.727	-26.03
367.938	-24.78
368.149	-23.83
368.36	-12.99
368.571	-39.99
368.781	-21.89
368.992	-18.46
369.203	-16.56
369.414	-44.51
369.625	-21.14
369.836	0.38
370.047	6.06
370.258	13.44
370.468	29.83
370.679	26.32
370.89	4.3
371.101	21.82
371.312	10.25
371.522	13.2
371.733	5.01
371.944	-4.34
372.155	-46.67
372.365	-39.68
372.576	-37.51
372.787	-23.22
372.997	-23.74
373.208	0.43
373.419	-7.09
373.629	-16.37
373.84	-31.54
374.05	-23.96
374.261	-57.41
374.472	-49.77
374.682	-38.48
374.893	-33.28
375.103	-28.22
375.314	-8.98
375.524	-5.73
375.735	-3.85
375.945	-3.85
376.156	-5.52
376.366	3.04
376.577	9.62
376.787	9.66
376.997	17.02
377.208	18.45
377.418	6.17
377.629	4.79
377.839	0.82
378.049	-4.05
378.26	-9.62
378.47	-9.88
378.68	-14.35
378.89	-12.15
379.101	-14.85
379.311	-14.28
379.521	-11.49
379.732	-6.24
379.942	-4.54
380.152	-9.39
380.362	-1.71
380.572	12.75
380.783	6.91
380.993	6.51
381.203	13.21
381.413	10.96
381.623	2.91
381.833	8.14
382.043	3.17
382.253	-3.45
382.463	0.7
382.674	-1.36
382.884	6.09
383.094	10.56
383.304	12.87
383.514	10.9
383.724	3.1
383.934	-10.06
384.144	-2.01
384.353	0.83
384.563	4.93
384.773	16.29
384.983	13.09
385.193	7.25
385.403	3.98
385.613	-1.7
385.823	-5.09
386.033	-2.13
386.242	-7.73
386.452	-6.88
386.662	-4.84
386.872	0.69
387.082	-0.33
387.291	-0.19
387.501	2.81
387.711	2.34
387.921	-3.21
388.13	1.35
388.34	3.81
388.55	-1.53
388.759	-5.67
388.969	-4.16
389.179	-6.42
389.388	-8.76
389.598	-9.61
389.807	-11.64
390.017	-16.08
390.227	-17.43
390.436	-17.58
390.646	-15.7
390.855	-11.52
391.065	-6.23
391.274	-3.76
391.484	-3.38
391.693	-2.49
391.903	-3.15
392.112	-4.85
392.322	-4.73
392.531	-3.6
392.74	-3.66
392.95	-2.76
393.159	-3.4
393.369	-2.66
393.578	-1.86
393.787	-2.14
393.997	-2.02
394.206	-0.89
394.415	-1.29
394.625	-0.51
394.834	-0.58
395.043	-0.28
395.252	0.9
395.462	1.14
395.671	-0.01
395.88	1.13
396.089	0.59
396.298	0.31
396.508	0.59
396.717	1.26
396.926	1.03
397.135	2.26
397.344	1.7
397.553	0.87
397.762	2.13
397.971	1.5
398.181	0.37
398.39	0.48
398.599	1.24
398.808	0.18
399.017	1.43
399.226	2.07
399.435	1.75
399.644	1.78
399.853	2.13
400.062	1.6
400.27	1.03
400.479	1.54
400.688	1.55
400.897	1.34
401.106	1.37
401.315	1.49
401.524	1.38
401.733	1.06
401.941	1.12
402.15	1.27
402.359	1.56
402.568	1.88
402.777	2.11
402.985	2.02
403.194	1.77
403.403	1.97
403.612	1.61
403.82	1.35
404.029	1.67
404.238	1.85
404.446	1.89
404.655	2.08
404.864	2.21
405.072	2.05
405.281	1.94
405.489	1.7
405.698	1.66
405.906	1.96
406.115	1.91
406.324	1.97
406.532	2.28
406.741	2.31
406.949	2.16
407.158	2.2
407.366	2.08
407.574	1.9
407.783	1.98
407.991	2.02
408.2	2.16
408.408	2.23
408.617	2.27
408.825	2.03
409.033	1.96
409.242	1.85
409.45	1.77
409.658	1.66
409.867	1.87
410.075	2.01
410.283	1.98
410.491	1.93
410.7	1.94
410.908	1.91
411.116	1.82
411.324	1.83
411.533	1.85
411.741	1.93
411.949	1.87
412.157	1.79
412.365	1.91
412.573	1.97
412.781	1.88
412.99	1.93
413.198	1.94
413.406	1.84
413.614	2.01
413.822	2.07
414.03	2.06
414.238	2.16
414.446	2.22
414.654	2.01
414.862	1.95
415.07	1.9
415.278	1.98
415.486	1.7
415.694	1.8
415.902	1.81
416.109	1.68
416.317	1.54
416.525	1.72
416.733	1.68
416.941	1.74
417.149	1.82
417.357	1.84
417.564	1.87
417.772	1.94
417.98	1.88
418.188	1.88
418.395	1.66
418.603	1.43
418.811	1.29
419.019	1.26
419.226	1.3
419.434	1.44
419.642	1.51
419.849	1.51
420.057	1.6
420.265	1.51
420.472	1.47
420.68	1.6
420.887	1.68
421.095	1.66
421.302	1.71
421.51	1.62
421.717	1.58
421.925	1.62
422.132	1.65
422.34	1.47
422.547	1.59
422.755	1.52
422.962	1.52
423.17	1.34
423.377	1.53
423.585	1.71
423.792	1.78
423.999	1.78
424.207	1.74
424.414	1.68
424.621	1.49
424.829	1.58
425.036	1.52
425.243	1.73
425.451	1.84
425.658	1.74
425.865	1.57
426.072	1.51
426.28	1.25
426.487	1.26
426.694	1.29
426.901	1.38
427.108	1.49
427.315	1.68
427.523	1.54
427.73	1.6
427.937	1.38
428.144	1.37
428.351	1.38
428.558	1.54
428.765	1.39
428.972	1.56
429.179	1.51
429.386	1.5
429.593	1.31
429.8	1.39
430.007	1.43
430.214	1.36
430.421	1.45
430.628	1.54
430.835	1.51
431.042	1.48
431.249	1.54
431.456	1.42
431.662	1.54
431.869	1.7
432.076	1.7
432.283	1.84
432.49	1.84
432.697	1.75
432.903	1.65
433.11	1.79
433.317	1.74
433.524	1.85
433.73	1.85
433.937	1.99
434.144	1.77
434.35	1.6
434.557	1.53
434.764	1.57
434.97	1.29
435.177	1.51
435.384	1.65
435.59	1.61
435.797	1.62
436.003	1.85
436.21	1.78
436.416	1.88
436.623	1.91
436.829	1.84
437.036	1.79
437.242	1.83
437.449	1.76
437.655	1.84
437.862	1.9
438.068	1.89
438.275	1.89
438.481	1.91
438.687	1.85
438.894	1.96
439.1	1.93
439.307	2
439.513	2
439.719	2.03
439.926	1.95
440.132	2.01
440.338	1.92
440.544	1.92
440.751	1.85
440.957	1.9
441.163	1.84
441.369	1.89
441.575	1.82
441.782	1.93
441.988	1.87
442.194	1.85
442.4	1.82
442.606	2.05
442.812	1.97
443.018	1.95
443.224	2.07
443.431	2.13
443.637	1.99
443.843	2.09
444.049	2.21
444.255	2.17
444.461	2.07
444.667	1.98
444.873	1.89
445.079	1.81
445.284	1.8
445.49	1.83
445.696	1.85
445.902	1.91
446.108	1.93
446.314	1.98
446.52	2.02
446.726	2.08
446.931	2.09
447.137	2.08
447.343	2.15
447.549	2.17
447.755	2.14
447.96	2.12
448.166	2.16
448.372	2.1
448.578	2.02
448.783	2.08
448.989	2.17
449.195	2.18
449.4	2.22
449.606	2.28
449.812	2.22
450.017	2.2
450.223	2.13
450.428	2.14
450.634	2.22
450.84	2.25
451.045	2.25
451.251	2.29
451.456	2.33
451.662	2.28
451.867	2.34
452.073	2.33
452.278	2.3
452.483	2.2
452.689	2.18
452.894	2.26
453.1	2.24
453.305	2.32
453.51	2.4
453.716	2.34
453.921	2.33
454.127	2.35
454.332	2.27
454.537	2.25
454.742	2.25
454.948	2.14
455.153	2.15
455.358	2.18
455.563	2.24
455.769	2.24
455.974	2.21
456.179	2.22
456.384	2.26
456.589	2.08
456.795	2.17
457	2.2
457.205	2.18
457.41	2.11
457.615	2.25
457.82	2.28
458.025	2.31
458.23	2.32
458.435	2.39
458.64	2.35
458.845	2.33
459.05	2.29
459.255	2.34
459.46	2.28
459.665	2.27
459.87	2.24
460.075	2.33
460.28	2.33
460.485	2.35
460.69	2.34
460.895	2.38
461.099	2.22
461.304	2.02
461.509	2.13
461.714	2.16
461.919	2.11
462.123	2.28
462.328	2.32
462.533	2.21
462.738	2.15
462.942	2.15
463.147	2.07
463.352	2.15
463.556	2.21
463.761	2.29
463.966	2.31
464.17	2.37
