Data from Ofra_PS_T2_2A_4HS15_Reflection_2.txt Node
Date: Wed Jul 21 17:13:49 EDT 2021
User: Adam
Spectrometer: FLMT01687
Trigger mode: 0
Integration Time (sec): 1.100000E0
Scans to average: 2
Electric dark correction enabled: true
Nonlinearity correction enabled: false
Boxcar width: 2
XAxis mode: Wavelengths
Number of Pixels in Spectrum: 3648
>>>>>Begin Spectral Data<<<<<
179.494	426.4
179.716	564.47
179.937	557.86
180.158	585.25
180.38	966.25
180.601	419.89
180.823	66.24
181.044	-120.38
181.265	-8.09
181.486	48.53
181.708	149.19
181.929	1134.69
182.15	-685.92
182.372	55.41
182.593	9.06
182.814	48.36
183.035	95.3
183.257	69.96
183.478	-60.21
183.699	14.88
183.92	14.22
184.141	3.36
184.363	-23.02
184.584	41.69
184.805	28.85
185.026	32.54
185.247	29.1
185.468	8.57
185.689	17.74
185.91	25
186.132	29.14
186.353	21.87
186.574	101.02
186.795	76.98
187.016	12.57
187.237	8.6
187.458	25.51
187.679	0.24
187.9	-2.99
188.121	16.87
188.342	19.73
188.563	31.24
188.784	45.55
189.005	39.33
189.226	55.87
189.447	45.37
189.667	-47.09
189.888	-408.37
190.109	-1493.51
190.33	-678.06
190.551	-1195.58
190.772	-308.96
190.993	-235.08
191.214	-171.83
191.434	-125.91
191.655	-38.77
191.876	-115.81
192.097	-149.65
192.318	-185.86
192.538	-254.55
192.759	-224.08
192.98	-73.57
193.201	-10.02
193.421	11.07
193.642	11.72
193.863	23.31
194.083	-2.02
194.304	-25.52
194.525	-45.02
194.745	-64.79
194.966	-94.79
195.187	-100.73
195.407	-128.9
195.628	-172.53
195.848	-165.63
196.069	-137.78
196.29	-101.88
196.51	-96.89
196.731	-82.46
196.951	-133.5
197.172	-127.02
197.392	-138.61
197.613	-141.06
197.833	-159.29
198.054	-126.34
198.274	-79.33
198.495	-102.36
198.715	-62.82
198.936	-88.33
199.156	-48.93
199.377	-179.14
199.597	-161.65
199.817	-193.79
200.038	-117.87
200.258	-206.36
200.479	-98.66
200.699	-61.13
200.919	-4.38
201.14	-17.78
201.36	-18.07
201.58	4.32
201.801	19.13
202.021	-16.58
202.241	-21.72
202.461	-17.22
202.682	-116.92
202.902	-221.54
203.122	-148.54
203.342	-117.33
203.563	-69.33
203.783	-28.42
204.003	-54.84
204.223	-29.85
204.443	20.54
204.663	-25.87
204.884	-10.63
205.104	33.74
205.324	43.79
205.544	19.85
205.764	48.96
205.984	46.59
206.204	45.31
206.424	34.67
206.644	-4.1
206.864	6.25
207.084	-61.13
207.304	-39.73
207.525	-192.5
207.745	-71.11
207.964	-14.59
208.184	-12.58
208.404	-46.79
208.624	-43.39
208.844	-47.93
209.064	-352.76
209.284	-365.54
209.504	-197.75
209.724	-41.71
209.944	-18.32
210.164	23.07
210.384	21.06
210.604	8.55
210.823	-44.77
211.043	-83.7
211.263	-62.02
211.483	-70.31
211.703	-132.76
211.922	-99.08
212.142	-3.1
212.362	10.15
212.582	3.46
212.801	19.41
213.021	-9.05
213.241	-40.39
213.461	-80.25
213.68	-84.22
213.9	-52.87
214.12	-46.14
214.339	-119.29
214.559	-109.61
214.779	-63.45
214.998	-71.65
215.218	-125.15
215.438	-77.09
215.657	-83.55
215.877	-83.69
216.096	-50.99
216.316	-35.3
216.535	-44.14
216.755	-46.25
216.974	-153.85
217.194	-199.52
217.413	-174.48
217.633	-163.36
217.852	-262.19
218.072	-113.31
218.291	-58.3
218.511	-15.81
218.73	-29.6
218.95	-23.91
219.169	-27.82
219.389	-79.76
219.608	-70.37
219.827	-70.03
220.047	-53.17
220.266	-35.23
220.485	-25.13
220.705	-14.31
220.924	-37.42
221.143	5.95
221.363	-27.45
221.582	-6.69
221.801	3.9
222.021	31.48
222.24	-79.33
222.459	8.61
222.678	-18.76
222.897	-75.16
223.117	-125.89
223.336	-56.17
223.555	-61.12
223.774	15.2
223.993	26.49
224.213	90.51
224.432	50.25
224.651	69.17
224.87	12.09
225.089	21.09
225.308	8.35
225.527	27.75
225.746	7.88
225.965	2.02
226.184	-26.08
226.404	-0.56
226.623	-28.19
226.842	-3.77
227.061	13.82
227.28	17.23
227.499	-16.36
227.718	7.92
227.936	-8.34
228.155	-6.31
228.374	-17.77
228.593	-3.78
228.812	-8.79
229.031	-20.54
229.25	-61.07
229.469	-78.6
229.688	-49.1
229.907	-27.04
230.125	-4.23
230.344	7.11
230.563	23.79
230.782	24.5
231.001	-49.74
231.22	-58.63
231.438	-33.21
231.657	-16.43
231.876	-37.78
232.095	12.96
232.313	22.82
232.532	11.12
232.751	-23.04
232.969	-35.85
233.188	-86.31
233.407	-24.88
233.625	-14.57
233.844	-40.76
234.063	-27.01
234.281	4.79
234.5	-6.12
234.719	-15.76
234.937	16.53
235.156	31.58
235.374	26.72
235.593	7.52
235.811	13.42
236.03	-4.85
236.249	-58.88
236.467	-56.38
236.686	-23.09
236.904	-13.92
237.123	-42.47
237.341	-34.91
237.559	-27.29
237.778	-46.24
237.996	-76.32
238.215	-31.38
238.433	-3.14
238.652	-11.98
238.87	-20.16
239.088	8.82
239.307	19.88
239.525	15.41
239.743	-21.13
239.962	3.53
240.18	-38.07
240.398	-72.63
240.617	-95.01
240.835	-66.63
241.053	-45.85
241.271	11.66
241.49	8.85
241.708	0.52
241.926	-0.13
242.144	-13.37
242.363	-77.53
242.581	-85.73
242.799	-25.52
243.017	-12.3
243.235	-35.99
243.453	-17.76
243.672	-27.14
243.89	-31.62
244.108	-39.45
244.326	-12.48
244.544	4.81
244.762	20.32
244.98	22.59
245.198	24.43
245.416	-13.79
245.634	-40.72
245.852	-60.8
246.07	-82.32
246.288	-90.1
246.506	-95.52
246.724	-75.35
246.942	-68.62
247.16	-21.94
247.378	-28.76
247.596	-0.69
247.814	-5.8
248.032	-18.21
248.25	-15.4
248.468	9.57
248.685	14.97
248.903	40.52
249.121	39.06
249.339	7.75
249.557	-16.01
249.775	-11.06
249.992	-78.75
250.21	-73.3
250.428	-55.19
250.646	-78.15
250.863	-102.47
251.081	-65.82
251.299	-52.61
251.517	-34.11
251.734	-32.82
251.952	-29.73
252.17	-25.74
252.387	-16.44
252.605	-36.18
252.823	-26.99
253.04	-6.94
253.258	11.37
253.475	14.16
253.693	42.88
253.911	54.15
254.128	52.91
254.346	50.19
254.563	16.28
254.781	-16.33
254.998	-54.16
255.216	-69.52
255.433	-72.89
255.651	-24.42
255.868	-2.68
256.086	34.51
256.303	35.81
256.521	39.6
256.738	8.53
256.956	-22.34
257.173	-26.82
257.39	-59.6
257.608	-98.88
257.825	-8.95
258.043	56.56
258.26	52.75
258.477	87.77
258.695	91.42
258.912	1.54
259.129	-16.38
259.346	-63
259.564	-103.82
259.781	-116.06
259.998	-36.52
260.216	-4.67
260.433	43.68
260.65	29.97
260.867	46.64
261.084	22.03
261.302	0.37
261.519	-17.03
261.736	-23.56
261.953	-61.61
262.17	-24.33
262.387	-55.87
262.604	-75.09
262.822	-74.95
263.039	-51.93
263.256	-99.27
263.473	-61.04
263.69	-47.94
263.907	-6.07
264.124	11.14
264.341	17.21
264.558	5.43
264.775	25.66
264.992	27.19
265.209	18.87
265.426	36.62
265.643	49.01
265.86	57.97
266.077	47.77
266.294	42.78
266.51	0.43
266.727	-19.42
266.944	-25.58
267.161	-39.15
267.378	-40.39
267.595	-6.08
267.812	-33.99
268.028	-77.57
268.245	-38.88
268.462	-56.37
268.679	-63.58
268.896	-2.13
269.112	18.96
269.329	10.46
269.546	25.5
269.763	22.08
269.979	7.29
270.196	6.59
270.413	-12.67
270.629	-35.75
270.846	-57.07
271.063	-62.2
271.279	-94.97
271.496	-93.51
271.712	-67.67
271.929	-41.29
272.146	-38.15
272.362	-11
272.579	17.64
272.795	44.43
273.012	48.23
273.228	50.64
273.445	14.52
273.661	2.52
273.878	-60.09
274.094	-76.02
274.311	-102.94
274.527	-16.45
274.744	-23.27
274.96	-11.8
275.177	9.69
275.393	30.13
275.609	24.16
275.826	45.69
276.042	40.55
276.259	4.64
276.475	19.93
276.691	16.83
276.908	-11.78
277.124	9.7
277.34	23.7
277.557	2.03
277.773	-12.7
277.989	-15.24
278.205	-31.32
278.422	-6.77
278.638	-12.55
278.854	1.14
279.07	-2.41
279.286	0.13
279.503	-55.43
279.719	-45.56
279.935	-81.07
280.151	-86.22
280.367	-67.9
280.583	-87.77
280.799	-64.85
281.016	-86.86
281.232	-35.83
281.448	-42.37
281.664	-5.21
281.88	-48.78
282.096	-1.91
282.312	11.9
282.528	26.29
282.744	19.78
282.96	22.82
283.176	1.96
283.392	-17.54
283.608	-24.77
283.824	-33.26
284.04	-20.15
284.256	-5.43
284.471	1.11
284.687	13.75
284.903	55.65
285.119	72.7
285.335	40.39
285.551	49.5
285.767	16.85
285.982	-12.02
286.198	-57.06
286.414	-3.71
286.63	-4.22
286.846	28.41
287.061	3.18
287.277	35.7
287.493	5.58
287.709	17.86
287.924	-5.73
288.14	30.9
288.356	11.76
288.571	41.86
288.787	21.08
289.003	15.61
289.218	1.73
289.434	-33.56
289.65	-34.8
289.865	-34.92
290.081	-0.53
290.296	-1.15
290.512	3.99
290.727	-23.08
290.943	-19.93
291.159	-39.92
291.374	-42.66
291.59	-53.76
291.805	-36.72
292.021	-27.51
292.236	-25.16
292.451	-9.85
292.667	13.7
292.882	25.6
293.098	19.84
293.313	14.78
293.529	11.59
293.744	-22.63
293.959	-37.07
294.175	-42.16
294.39	-0.43
294.605	13.96
294.821	43.35
295.036	45.08
295.251	63.03
295.467	42.13
295.682	35.02
295.897	-5.47
296.112	-19.03
296.328	-28.16
296.543	-68.47
296.758	-65.23
296.973	-15.31
297.188	6.22
297.404	-17.4
297.619	-26.36
297.834	-30.76
298.049	-64.83
298.264	-70.31
298.479	-26.08
298.694	-4.06
298.909	9.86
299.125	12.43
299.34	14.78
299.555	5.02
299.77	-10.13
299.985	-53.39
300.2	-101.52
300.415	-109.55
300.63	-80.08
300.845	-63.7
301.06	-55.16
301.275	-21.98
301.49	-2.24
301.704	-7.51
301.919	-30.09
302.134	-45.06
302.349	-36.78
302.564	-117.43
302.779	-169.19
302.994	-150.16
303.209	-84.36
303.423	-52.59
303.638	36.57
303.853	16.52
304.068	14.58
304.283	12.18
304.497	-1.07
304.712	-18.88
304.927	-6.02
305.142	-8.99
305.356	3.51
305.571	-2.97
305.786	-13.35
306	-41.56
306.215	-36.02
306.43	-68.52
306.644	-49.26
306.859	-7.16
307.074	7.33
307.288	-48.57
307.503	-37.62
307.717	-51.52
307.932	-64.81
308.147	-62.79
308.361	-17.94
308.576	-46.45
308.79	-87.21
309.005	-67.02
309.219	-56.02
309.434	-66.31
309.648	-41.26
309.863	-16.26
310.077	-22.78
310.292	-20.25
310.506	-21.83
310.72	-15.31
310.935	-7.6
311.149	-13.59
311.364	12.06
311.578	22.96
311.792	21.92
312.007	24.43
312.221	20.2
312.435	21.29
312.649	8.93
312.864	34.81
313.078	46.23
313.292	96.98
313.507	42.7
313.721	47.9
313.935	13.01
314.149	6.84
314.363	-2.72
314.578	2.46
314.792	4.26
315.006	-4.8
315.22	3.46
315.434	0.24
315.648	6.66
315.862	1.11
316.077	10.77
316.291	-12.32
316.505	-0.32
316.719	-14.08
316.933	-24.49
317.147	-49.05
317.361	-98.6
317.575	-111.29
317.789	-142.52
318.003	-192.74
318.217	-130.72
318.431	-28.32
318.645	14.29
318.859	11.08
319.073	34.43
319.287	9.22
319.5	-18.77
319.714	-61.85
319.928	-88.75
320.142	-133.03
320.356	-58.81
320.57	-19.06
320.784	-26.53
320.997	-17.48
321.211	10.85
321.425	-50.41
321.639	-92.82
321.853	-38.51
322.066	-19.65
322.28	-31.38
322.494	-24.85
322.707	-1.65
322.921	-18.74
323.135	-28.21
323.349	-21.28
323.562	-39
323.776	-48.87
323.989	-41.99
324.203	-45.44
324.417	-41.47
324.63	-42.9
324.844	-52.3
325.057	-63.71
325.271	-45.64
325.485	-18.11
325.698	0.55
325.912	14.77
326.125	-9.93
326.339	-18.97
326.552	-50.69
326.766	-56.94
326.979	-26.58
327.193	34.01
327.406	25.22
327.619	16.7
327.833	34.66
328.046	-3.6
328.26	-63.08
328.473	-26.7
328.686	-47.95
328.9	-50.92
329.113	-15.28
329.326	-28.89
329.54	-33.28
329.753	-30.03
329.966	-52.03
330.179	-68.09
330.393	-21.72
330.606	-8.02
330.819	2.4
331.032	27.82
331.246	30.07
331.459	47.46
331.672	37.89
331.885	35.12
332.098	-5.22
332.311	-10.53
332.525	-61.45
332.738	-40.76
332.951	-14.24
333.164	29.96
333.377	30.76
333.59	54.03
333.803	40.63
334.016	29.92
334.229	9.51
334.442	12.76
334.655	11.9
334.868	21.3
335.081	17.63
335.294	6.84
335.507	-4.76
335.72	-17.24
335.933	-37.45
336.146	-51.43
336.359	-46.9
336.572	-62.51
336.785	-87.79
336.997	-59.59
337.21	-23.27
337.423	-26.73
337.636	-24.15
337.849	-3.73
338.062	-3.65
338.274	-7.24
338.487	-18.84
338.7	-18.59
338.913	-53.13
339.125	-90.87
339.338	-152.71
339.551	-126.2
339.763	-76.74
339.976	-35.7
340.189	-10.65
340.402	-2.72
340.614	-8.01
340.827	-19.07
341.039	-40.58
341.252	-40.35
341.465	-21.38
341.677	-16.62
341.89	-56.92
342.102	-27.68
342.315	-38.4
342.527	-83.63
342.74	-75.83
342.952	-19.83
343.165	-16.79
343.377	4.91
343.59	11.15
343.802	23.01
344.015	24.44
344.227	35.04
344.44	17.85
344.652	21.04
344.864	5.16
345.077	18.41
345.289	15.59
345.502	20.31
345.714	17.09
345.926	20.92
346.139	2.58
346.351	13.51
346.563	23.63
346.775	26.64
346.988	9.36
347.2	-5.74
347.412	-73.8
347.624	-101.36
347.837	-118.63
348.049	-69.97
348.261	-28.98
348.473	-6.4
348.685	0.32
348.897	13.56
349.11	-22.16
349.322	-60.95
349.534	-33.82
349.746	-31.61
349.958	-44.77
350.17	-44.86
350.382	-7.67
350.594	-32.14
350.806	-36.64
351.018	-37.86
351.23	-43.64
351.442	-98.46
351.654	-90.76
351.866	-73.38
352.078	-65.37
352.29	-31.08
352.502	-10.67
352.714	-1.84
352.926	-11.34
353.138	-8.62
353.35	-25.23
353.561	-25.68
353.773	-40.06
353.985	-21.89
354.197	-25.91
354.409	-14.32
354.621	-11.29
354.832	-5.46
355.044	-11.54
355.256	-13.43
355.468	-4.09
355.679	-8.39
355.891	-6.13
356.103	-36.61
356.314	-35.92
356.526	-40.48
356.738	-39.8
356.949	-54.08
357.161	-11.79
357.373	-10.85
357.584	-26.67
357.796	-2.95
358.008	-7.22
358.219	6.44
358.431	5.35
358.642	13.5
358.854	2.35
359.065	3.91
359.277	-49.83
359.488	-61.23
359.7	-97.07
359.911	-113.88
360.123	-71.63
360.334	-65.45
360.546	-70.97
360.757	-46.71
360.969	-25.18
361.18	-23.44
361.391	-1.41
361.603	-11.92
361.814	1.77
362.025	-13.1
362.237	-28.18
362.448	-24
362.659	5.13
362.871	-8.14
363.082	-13.44
363.293	-9.66
363.504	-22.67
363.716	-46.29
363.927	-49.02
364.138	-54.36
364.349	-67.01
364.56	-67.23
364.772	-57.02
364.983	-26.77
365.194	-18.91
365.405	-4.87
365.616	25.15
365.827	21.56
366.038	-6.94
366.25	-15.51
366.461	-54.59
366.672	-50.26
366.883	-34.5
367.094	-20.39
367.305	-33.31
367.516	-11.27
367.727	-31.11
367.938	-33.35
368.149	-34.53
368.36	-12.83
368.571	-13.95
368.781	-26.98
368.992	-42.3
369.203	-56.01
369.414	-74.36
369.625	-90.79
369.836	-82.59
370.047	-104.8
370.258	-89.34
370.468	-69.88
370.679	-78.49
370.89	-70.79
371.101	-47.13
371.312	-50.85
371.522	-44.87
371.733	-36.09
371.944	-16.38
372.155	-1.65
372.365	-17.77
372.576	-25.68
372.787	-20.03
372.997	-57.73
373.208	-58.48
373.419	-10.9
373.629	-41.44
373.84	-47.51
374.05	-53.48
374.261	-36.9
374.472	-70.12
374.682	-14.97
374.893	-4.4
375.103	38.22
375.314	22.5
375.524	21.1
375.735	13.42
375.945	9.39
376.156	-27.19
376.366	-23.3
376.577	-16.71
376.787	-21.07
376.997	-14.01
377.208	-1.19
377.418	-6.71
377.629	6.94
377.839	6.13
378.049	4.28
378.26	16.37
378.47	22.34
378.68	5.34
378.89	2.27
379.101	2.01
379.311	-29.96
379.521	-59.25
379.732	-57.5
379.942	-68.86
380.152	-91.25
380.362	-51.31
380.572	-43.83
380.783	-25.62
380.993	-4.13
381.203	0.53
381.413	12.98
381.623	18.55
381.833	12.76
382.043	0.9
382.253	-10.99
382.463	-9.82
382.674	-21.12
382.884	-45.37
383.094	-44.47
383.304	-21
383.514	-27.65
383.724	-14.94
383.934	-12.57
384.144	-18.81
384.353	-33.71
384.563	-33.43
384.773	-28.83
384.983	-37.02
385.193	-20.47
385.403	-16.08
385.613	-16.95
385.823	-24.7
386.033	-15.46
386.242	-21.93
386.452	-24.83
386.662	-29.7
386.872	-13.61
387.082	-12.61
387.291	-17.41
387.501	-19.28
387.711	-10.04
387.921	-23.78
388.13	-22.04
388.34	-8.74
388.55	-11.15
388.759	-14.83
388.969	-6.85
389.179	-8.08
389.388	-10.79
389.598	-3.79
389.807	-7.82
390.017	-13.73
390.227	-10.3
390.436	-12.98
390.646	-12.15
390.855	-5.99
391.065	-5.98
391.274	-8.63
391.484	-10.05
391.693	-8.5
391.903	-9.06
392.112	-2.35
392.322	-1.27
392.531	1.92
392.74	2.34
392.95	-1.44
393.159	-3.5
393.369	-1.81
393.578	-1.64
393.787	-3.89
393.997	-2.34
394.206	-3.63
394.415	-3.98
394.625	-4.4
394.834	-5.39
395.043	-4.1
395.252	-1.35
395.462	-0.72
395.671	0.02
395.88	1.15
396.089	1.74
396.298	-0.67
396.508	-0.29
396.717	-0.6
396.926	-0.09
397.135	-0.95
397.344	-0.43
397.553	0.62
397.762	1.46
397.971	1.64
398.181	1.96
398.39	1.95
398.599	1.4
398.808	1.83
399.017	2.88
399.226	3.76
399.435	4.68
399.644	4.63
399.853	3.12
400.062	2.48
400.27	2.27
400.479	1.25
400.688	0.46
400.897	1.32
401.106	1.11
401.315	0.68
401.524	1
401.733	1.64
401.941	1.67
402.15	2.02
402.359	2.18
402.568	2.55
402.777	2.66
402.985	2.45
403.194	2.23
403.403	2.32
403.612	1.93
403.82	1.76
404.029	2.11
404.238	2.1
404.446	2.29
404.655	2.19
404.864	2.19
405.072	1.96
405.281	2.2
405.489	1.92
405.698	2
405.906	1.86
406.115	1.71
406.324	1.57
406.532	1.69
406.741	1.93
406.949	2.06
407.158	2.23
407.366	2.22
407.574	2.12
407.783	2.13
407.991	1.83
408.2	1.96
408.408	2.03
408.617	1.93
408.825	1.78
409.033	2.09
409.242	2.07
409.45	2.15
409.658	2.17
409.867	2.15
410.075	2.06
410.283	1.88
410.491	1.66
410.7	1.59
410.908	1.66
411.116	1.94
411.324	2
411.533	2.05
411.741	2.33
411.949	2.3
412.157	1.94
412.365	1.99
412.573	2.06
412.781	2.04
412.99	2
413.198	2.3
413.406	2.28
413.614	2.29
413.822	2.09
414.03	2.07
414.238	1.84
414.446	1.88
414.654	1.54
414.862	1.66
415.07	1.8
415.278	1.93
415.486	1.76
415.694	2.04
415.902	1.88
416.109	1.62
416.317	1.59
416.525	1.51
416.733	1.47
416.941	1.63
417.149	1.8
417.357	1.85
417.564	2.18
417.772	2.34
417.98	2.31
418.188	2.22
418.395	2.3
418.603	2.31
418.811	1.91
419.019	1.82
419.226	1.98
419.434	1.95
419.642	1.72
419.849	1.95
420.057	2.04
420.265	2.04
420.472	1.71
420.68	1.8
420.887	1.64
421.095	1.72
421.302	1.59
421.51	1.92
421.717	2.02
421.925	2.1
422.132	1.78
422.34	1.56
422.547	1.53
422.755	1.37
422.962	1.36
423.17	1.42
423.377	1.67
423.585	1.72
423.792	1.68
423.999	1.71
424.207	1.78
424.414	1.93
424.621	1.76
424.829	1.77
425.036	1.73
425.243	1.75
425.451	1.46
425.658	1.33
425.865	1.54
426.072	1.59
426.28	1.89
426.487	1.84
426.694	2.04
426.901	1.81
427.108	1.87
427.315	1.59
427.523	1.97
427.73	1.82
427.937	1.76
428.144	1.59
428.351	1.69
428.558	1.76
428.765	1.78
428.972	1.71
429.179	1.84
429.386	1.91
429.593	1.47
429.8	1.36
430.007	1.6
430.214	1.77
430.421	1.61
430.628	1.62
430.835	1.54
431.042	1.86
431.249	1.76
431.456	1.84
431.662	2.02
431.869	2.26
432.076	2.1
432.283	2.21
432.49	2.21
432.697	2.24
432.903	2.01
433.11	1.87
433.317	1.89
433.524	2.07
433.73	1.95
433.937	2.27
434.144	2.18
434.35	2.13
434.557	1.92
434.764	1.97
434.97	1.82
435.177	2.11
435.384	2.03
435.59	2.16
435.797	2.35
436.003	2.38
436.21	2.26
436.416	2.42
436.623	2.3
436.829	2.24
437.036	2.38
437.242	2.38
437.449	2.21
437.655	2.29
437.862	2.25
438.068	2.14
438.275	2.22
438.481	2.41
438.687	2.42
438.894	2.41
439.1	2.48
439.307	2.64
439.513	2.6
439.719	2.52
439.926	2.68
440.132	2.56
440.338	2.25
440.544	2.23
440.751	2.26
440.957	2.27
441.163	2.2
441.369	2.39
441.575	2.32
441.782	2.22
441.988	2.03
442.194	2.15
442.4	2.06
442.606	2.34
442.812	2.4
443.018	2.54
443.224	2.53
443.431	2.68
443.637	2.45
443.843	2.44
444.049	2.39
444.255	2.32
444.461	2.31
444.667	2.29
444.873	2.38
445.079	2.41
445.284	2.59
445.49	2.28
445.696	2.09
445.902	2.05
446.108	2
446.314	1.9
446.52	2.06
446.726	2.39
446.931	2.4
447.137	2.54
447.343	2.6
447.549	2.52
447.755	2.43
447.96	2.49
448.166	2.35
448.372	2.23
448.578	2.32
448.783	2.27
448.989	2.32
449.195	2.54
449.4	2.6
449.606	2.6
449.812	2.49
450.017	2.45
450.223	2.23
450.428	2.18
450.634	2.3
450.84	2.53
451.045	2.54
451.251	2.55
451.456	2.83
451.662	2.92
451.867	2.94
452.073	2.92
452.278	3.04
452.483	3.04
452.689	2.84
452.894	2.88
453.1	2.89
453.305	2.76
453.51	2.68
453.716	2.65
453.921	2.6
454.127	2.56
454.332	2.61
454.537	2.48
454.742	2.48
454.948	2.45
455.153	2.52
455.358	2.65
455.563	2.83
455.769	3.01
455.974	3
456.179	2.89
456.384	2.84
456.589	2.77
456.795	2.55
457	2.52
457.205	2.78
457.41	2.77
457.615	2.68
457.82	2.81
458.025	2.82
458.23	2.64
458.435	2.63
458.64	2.64
458.845	2.74
459.05	2.73
