Data from Ofra_1a_PS_2CX12_Reflection_2.txt Node
Date: Tue Jul 20 10:47:12 EDT 2021
User: Adam
Spectrometer: FLMT01687
Trigger mode: 0
Integration Time (sec): 1.004000E0
Scans to average: 2
Electric dark correction enabled: true
Nonlinearity correction enabled: false
Boxcar width: 2
XAxis mode: Wavelengths
Number of Pixels in Spectrum: 3648
>>>>>Begin Spectral Data<<<<<
179.494	-361.42
179.716	-477.1
179.937	865.55
180.158	-1243.31
180.38	152.1
180.601	-50.29
180.823	-148.88
181.044	-231.3
181.265	-490.69
181.486	327.24
181.708	18.5
181.929	3454.55
182.15	-124.68
182.372	512.32
182.593	657.38
182.814	-276.4
183.035	-37.79
183.257	44.62
183.478	6.09
183.699	-6.08
183.92	-45.76
184.141	-70.18
184.363	-87.34
184.584	-88.65
184.805	-37.91
185.026	1.32
185.247	8.49
185.468	-5.85
185.689	11.63
185.91	-10.97
186.132	8.82
186.353	9.84
186.574	2.02
186.795	15.66
187.016	28.14
187.237	17.04
187.458	-7.19
187.679	-7.8
187.9	-27.77
188.121	-27.43
188.342	-20.7
188.563	-13.19
188.784	20.58
189.005	19.59
189.226	12.53
189.447	7.6
189.667	5.2
189.888	-13.81
190.109	-34.71
190.33	-3.22
190.551	1.92
190.772	12
190.993	24.25
191.214	17.2
191.434	10.88
191.655	15.49
191.876	16.8
192.097	31.02
192.318	61.81
192.538	21.8
192.759	11.01
192.98	3.3
193.201	-6.68
193.421	-22.82
193.642	-8.51
193.863	6.75
194.083	9.69
194.304	35.76
194.525	42.1
194.745	40.9
194.966	20.02
195.187	21.21
195.407	-0.14
195.628	5.25
195.848	7.47
196.069	-2.61
196.29	-11.25
196.51	-10.35
196.731	-10.41
196.951	-20.01
197.172	-12.72
197.392	-26.71
197.613	-1.21
197.833	-25.87
198.054	-27.73
198.274	-30.21
198.495	-14.09
198.715	-23.08
198.936	3.08
199.156	2.31
199.377	-1.53
199.597	-1.72
199.817	-21.46
200.038	-59.03
200.258	-17.43
200.479	-3.35
200.699	8.04
200.919	14.94
201.14	28.02
201.36	19.93
201.58	6.79
201.801	8.88
202.021	18.69
202.241	6.18
202.461	-3.08
202.682	3.45
202.902	6.99
203.122	17.8
203.342	6.49
203.563	1.89
203.783	4.56
204.003	-14.6
204.223	-12.48
204.443	4.86
204.663	-0.23
204.884	28.34
205.104	29.51
205.324	26.53
205.544	-4.47
205.764	18.8
205.984	-31.53
206.204	-21.04
206.424	-45.83
206.644	-40.07
206.864	-94.93
207.084	-28.74
207.304	-51.37
207.525	-47.23
207.745	-30.74
207.964	-10.34
208.184	-8.44
208.404	6.63
208.624	27.43
208.844	23.72
209.064	23.27
209.284	-5.81
209.504	-27.38
209.724	-26.14
209.944	-32.88
210.164	-40.09
210.384	-24.91
210.604	-20.57
210.823	-66.52
211.043	-0.88
211.263	-47.55
211.483	-19.59
211.703	-16.02
211.922	-4.89
212.142	-33.75
212.362	12.58
212.582	15.07
212.801	9.65
213.021	10.6
213.241	-12.7
213.461	-34.03
213.68	-28.31
213.9	-18.55
214.12	-30.34
214.339	-19.7
214.559	-3.85
214.779	-25.9
214.998	-32.91
215.218	-3.55
215.438	1.73
215.657	-5.75
215.877	-15.57
216.096	-10.87
216.316	-8.09
216.535	-18.99
216.755	-7.66
216.974	1.37
217.194	-16.31
217.413	-34.19
217.633	-34.05
217.852	-23.21
218.072	-7.62
218.291	-6.58
218.511	-10.51
218.73	-14.46
218.95	-61.32
219.169	-89.43
219.389	-47.91
219.608	-48.07
219.827	-32.35
220.047	-4.65
220.266	-4.96
220.485	-31.18
220.705	-6.5
220.924	-17.93
221.143	6.93
221.363	9.7
221.582	18.11
221.801	32.83
222.021	36.85
222.24	16.07
222.459	15.9
222.678	27.79
222.897	1.04
223.117	-2.09
223.336	-0.14
223.555	18.15
223.774	2.24
223.993	24.59
224.213	46.96
224.432	41.58
224.651	22.33
224.87	17.03
225.089	11.05
225.308	6.56
225.527	-12.6
225.746	-16.91
225.965	-3.82
226.184	-2.67
226.404	-11.18
226.623	16.06
226.842	16.24
227.061	8.86
227.28	11.68
227.499	19.47
227.718	8.62
227.936	13.55
228.155	17.31
228.374	12.22
228.593	14.27
228.812	30.41
229.031	34.32
229.25	23.07
229.469	25.61
229.688	15.39
229.907	16.23
230.125	9.57
230.344	19.59
230.563	22.57
230.782	30.68
231.001	13.22
231.22	11.96
231.438	12.99
231.657	16.36
231.876	10.63
232.095	29.16
232.313	13.69
232.532	-0.11
232.751	2.56
232.969	-8.71
233.188	-46.44
233.407	-25.4
233.625	-27.96
233.844	-32.04
234.063	-21.79
234.281	-6.06
234.5	-11.95
234.719	0.36
234.937	-26.22
235.156	-12.07
235.374	2.9
235.593	14.54
235.811	15.39
236.03	31.44
236.249	16.53
236.467	13.91
236.686	12.95
236.904	20.11
237.123	12.71
237.341	19.43
237.559	19.42
237.778	25.57
237.996	-14.48
238.215	-45.33
238.433	-95.09
238.652	-24.01
238.87	-27.04
239.088	-9.21
239.307	-5.99
239.525	2.93
239.743	-20.33
239.962	-51.69
240.18	-32.33
240.398	-35.94
240.617	-38.09
240.835	-55.35
241.053	-32.44
241.271	-20.5
241.49	9.95
241.708	-8.33
241.926	-12.81
242.144	-2.57
242.363	-28.94
242.581	-97.94
242.799	-72.36
243.017	-24.62
243.235	-18.81
243.453	-38.96
243.672	-26.2
243.89	-7.03
244.108	11.31
244.326	21.87
244.544	28.46
244.762	10.93
244.98	9.51
245.198	6
245.416	-10.76
245.634	-7.97
245.852	3.05
246.07	11.86
246.288	1.86
246.506	4.59
246.724	5.99
246.942	1.95
247.16	-6.95
247.378	-32.9
247.596	-30.3
247.814	-59.29
248.032	-62.03
248.25	-30.85
248.468	8.73
248.685	15.19
248.903	24.44
249.121	37.11
249.339	32.17
249.557	33.05
249.775	26.1
249.992	23.1
250.21	5.1
250.428	15.38
250.646	2.17
250.863	-8.22
251.081	-3.25
251.299	0.59
251.517	5.61
251.734	9.66
251.952	17.99
252.17	-3.63
252.387	-25.18
252.605	-28.75
252.823	-59.54
253.04	-63.83
253.258	-19.86
253.475	7.91
253.693	-13.63
253.911	7.86
254.128	19.34
254.346	26.03
254.563	42.32
254.781	61.05
254.998	45.83
255.216	26.38
255.433	-2
255.651	-3.68
255.868	-13.13
256.086	23.44
256.303	34.6
256.521	29.46
256.738	16.24
256.956	6.01
257.173	-7.36
257.39	-13.82
257.608	-21.98
257.825	-18.22
258.043	7.11
258.26	-7.77
258.477	-4.27
258.695	9.14
258.912	-2.62
259.129	-25.4
259.346	-17.56
259.564	-8.73
259.781	-15.42
259.998	4.03
260.216	26.47
260.433	20.7
260.65	22.08
260.867	20.16
261.084	24.1
261.302	9.59
261.519	18.68
261.736	3.76
261.953	10.67
262.17	21.25
262.387	19.58
262.604	27.09
262.822	24.5
263.039	26.4
263.256	9.8
263.473	-0.93
263.69	-10.83
263.907	-12.91
264.124	-21.27
264.341	-9.65
264.558	-11.35
264.775	-17.5
264.992	-10.31
265.209	-25.17
265.426	-51.69
265.643	-30.68
265.86	-37.9
266.077	-72.44
266.294	-48.45
266.51	-5.92
266.727	-19.19
266.944	-1.27
267.161	14.29
267.378	18.7
267.595	-9.02
267.812	-5.73
268.028	-26.38
268.245	-21.99
268.462	-10.15
268.679	15.51
268.896	33.74
269.112	24.02
269.329	4.52
269.546	9.35
269.763	-3.95
269.979	-27.85
270.196	-11.34
270.413	-11.47
270.629	-29.79
270.846	-31.41
271.063	-14.3
271.279	-13
271.496	-3.82
271.712	1.16
271.929	4.94
272.146	-12.06
272.362	-15.33
272.579	-21.63
272.795	-13.28
273.012	-0.81
273.228	5.75
273.445	10.75
273.661	18.86
273.878	-22.34
274.094	-39.8
274.311	-38.71
274.527	-84.69
274.744	-59.13
274.96	-21.7
275.177	-17.08
275.393	0.33
275.609	25.49
275.826	19.53
276.042	21.82
276.259	26.22
276.475	15.1
276.691	9.13
276.908	4.97
277.124	21.13
277.34	7.42
277.557	2.3
277.773	-0.41
277.989	-4.54
278.205	-18.12
278.422	-21.74
278.638	-14.7
278.854	-8.17
279.07	14.99
279.286	4.32
279.503	24.79
279.719	26.77
279.935	20.71
280.151	-1.71
280.367	4.86
280.583	-0.58
280.799	-9.49
281.016	-34.26
281.232	-8.74
281.448	-21.2
281.664	-16.86
281.88	-9.16
282.096	-1.63
282.312	-8.02
282.528	0.69
282.744	2.15
282.96	-8.81
283.176	-24.59
283.392	-45.27
283.608	-34.98
283.824	-61.82
284.04	-67.41
284.256	-33.79
284.471	-18.86
284.687	-18.77
284.903	-16.62
285.119	7.14
285.335	9.92
285.551	0.64
285.767	-10.36
285.982	-3.19
286.198	-45.53
286.414	-45.12
286.63	-35.27
286.846	-12.09
287.061	-8.55
287.277	0.33
287.493	10.2
287.709	22.19
287.924	28.28
288.14	47.93
288.356	60.8
288.571	57.9
288.787	50.46
289.003	42.54
289.218	-2.16
289.434	-35.2
289.65	-10.67
289.865	-11.71
290.081	-5.44
290.296	10.2
290.512	6.85
290.727	-8.73
290.943	-4.83
291.159	-5.37
291.374	-25.33
291.59	-11.21
291.805	-21.16
292.021	-11.78
292.236	-18.08
292.451	11.2
292.667	11.68
292.882	32.33
293.098	26.29
293.313	24.49
293.529	20.94
293.744	7.7
293.959	2.42
294.175	-8.58
294.39	-32.75
294.605	-20.16
294.821	-5.37
295.036	-9.87
295.251	1.78
295.467	14.18
295.682	8.73
295.897	-1.73
296.112	-2.05
296.328	11.42
296.543	5.46
296.758	6.69
296.973	10.69
297.188	11.13
297.404	-6.74
297.619	-35.25
297.834	-54.99
298.049	-66.65
298.264	-74.23
298.479	-56.11
298.694	-4.73
298.909	2.46
299.125	8.83
299.34	21.42
299.555	12.13
299.77	18.25
299.985	15.93
300.2	22.27
300.415	21.84
300.63	24.65
300.845	11.63
301.06	16.01
301.275	11.89
301.49	12.17
301.704	8.28
301.919	11.94
302.134	11.5
302.349	9.42
302.564	6.32
302.779	-23.05
302.994	-11.22
303.209	-11.45
303.423	-14.54
303.638	-12.15
303.853	-3.59
304.068	-18.56
304.283	-14.24
304.497	-29.09
304.712	-26.79
304.927	-11.9
305.142	-6.36
305.356	-5.93
305.571	0.77
305.786	-5.55
306	5.32
306.215	-7.36
306.43	-11.23
306.644	-1.23
306.859	7.72
307.074	-0.35
307.288	18.22
307.503	23.92
307.717	11.33
307.932	9.12
308.147	5.29
308.361	8.88
308.576	-19.16
308.79	-12.75
309.005	-17.6
309.219	-16.69
309.434	-23.51
309.648	-7.64
309.863	-4.53
310.077	-8.51
310.292	7.19
310.506	-13.85
310.72	-15.51
310.935	-6.86
311.149	6.77
311.364	0.61
311.578	15.61
311.792	23.77
312.007	12.88
312.221	-13.5
312.435	-6.29
312.649	9.12
312.864	5.18
313.078	-3.12
313.292	15.13
313.507	10.68
313.721	-4.9
313.935	2.47
314.149	6.89
314.363	-14.78
314.578	-9.16
314.792	-27.66
315.006	-51.68
315.22	-16.44
315.434	-7.1
315.648	-3
315.862	3.95
316.077	9.41
316.291	-12.26
316.505	-30.99
316.719	-40.22
316.933	-29.54
317.147	-31.92
317.361	-26.59
317.575	-7.26
317.789	-1.53
318.003	-11.49
318.217	-8.05
318.431	-12.34
318.645	-22.02
318.859	-10.49
319.073	-4.79
319.287	8.25
319.5	11.73
319.714	13.11
319.928	4.06
320.142	6.14
320.356	3.1
320.57	-15.91
320.784	-5.78
320.997	-4.15
321.211	21
321.425	5.67
321.639	30.93
321.853	28.58
322.066	19.3
322.28	9.69
322.494	20.73
322.707	26.36
322.921	27.01
323.135	53.79
323.349	36.55
323.562	33.82
323.776	17.37
323.989	25.81
324.203	-7.54
324.417	-4.4
324.63	-7.62
324.844	-10.81
325.057	-57.57
325.271	-16.56
325.485	4.45
325.698	0.06
325.912	4.11
326.125	14.46
326.339	6.56
326.552	-12.58
326.766	-22.18
326.979	-10.43
327.193	-9.96
327.406	-28.29
327.619	-18.72
327.833	-7.38
328.046	-2.57
328.26	5.53
328.473	28.21
328.686	41.95
328.9	41.93
329.113	42.13
329.326	31.61
329.54	22.62
329.753	18.67
329.966	13.67
330.179	5.62
330.393	9.65
330.606	1.09
330.819	-16.96
331.032	-16.77
331.246	-3.81
331.459	6.58
331.672	17.06
331.885	28.75
332.098	26.6
332.311	12.81
332.525	12.58
332.738	18.4
332.951	7.51
333.164	12.42
333.377	28.56
333.59	24.66
333.803	20.56
334.016	41.2
334.229	33.38
334.442	22.49
334.655	25.35
334.868	19.69
335.081	3.54
335.294	1.62
335.507	21.45
335.72	19.32
335.933	13.44
336.146	14.67
336.359	26.06
336.572	11.05
336.785	0.43
336.997	-7.83
337.21	2.04
337.423	-40.84
337.636	-25.92
337.849	-20.81
338.062	-15.67
338.274	-4.36
338.487	-0.7
338.7	-21.82
338.913	-11.67
339.125	-4.52
339.338	-18.71
339.551	-12.07
339.763	13.3
339.976	9.35
340.189	-8.4
340.402	11.71
340.614	22.78
340.827	13.11
341.039	6.21
341.252	27.75
341.465	3.92
341.677	-3.08
341.89	-12.75
342.102	-13.23
342.315	-10.23
342.527	-2.32
342.74	-11.13
342.952	-5.94
343.165	9.73
343.377	0.53
343.59	6.32
343.802	19.23
344.015	29.34
344.227	14.63
344.44	21.14
344.652	5.48
344.864	13.26
345.077	12.55
345.289	29.81
345.502	26.89
345.714	41.25
345.926	33.51
346.139	6.73
346.351	-2.95
346.563	-4.97
346.775	-14.45
346.988	-17.78
347.2	-7.82
347.412	10.63
347.624	10.48
347.837	19.8
348.049	27.81
348.261	11.32
348.473	-6.25
348.685	-12.73
348.897	-22.76
349.11	-32.75
349.322	-16
349.534	-10.32
349.746	-9.56
349.958	-20.28
350.17	-21.89
350.382	-23.38
350.594	-17.26
350.806	-2.35
351.018	11.05
351.23	17.97
351.442	27.04
351.654	27.3
351.866	17.83
352.078	25.07
352.29	10.4
352.502	2.23
352.714	-18.34
352.926	-15.25
353.138	-30.72
353.35	-21.29
353.561	-17.78
353.773	-7.13
353.985	11.72
354.197	19.72
354.409	19.55
354.621	3.96
354.832	3.24
355.044	-10.4
355.256	-17.55
355.468	-34.29
355.679	-0.09
355.891	7.11
356.103	-4.94
356.314	-17.77
356.526	-18.32
356.738	-22.1
356.949	-33.48
357.161	-20.36
357.373	-2.61
357.584	5.83
357.796	-1.26
358.008	-2.8
358.219	2.58
358.431	10.15
358.642	28.27
358.854	34.73
359.065	36.49
359.277	24.76
359.488	8.9
359.7	-3.45
359.911	-14.72
360.123	1.19
360.334	-11.73
360.546	-13.82
360.757	-9.58
360.969	-3.62
361.18	-16.17
361.391	6.93
361.603	27.03
361.814	15.41
362.025	20.04
362.237	23.26
362.448	15.84
362.659	-3.63
362.871	-22.59
363.082	-39.02
363.293	-48.31
363.504	-70.43
363.716	-55.99
363.927	-14.34
364.138	-32.95
364.349	-37.3
364.56	-34.23
364.772	-20.79
364.983	-20.95
365.194	9.39
365.405	16.16
365.616	19.56
365.827	16.59
366.038	29.91
366.25	21.68
366.461	28.25
366.672	33.09
366.883	25.07
367.094	5.09
367.305	-10.52
367.516	-19.16
367.727	-31.69
367.938	-23.69
368.149	-26.04
368.36	-21.86
368.571	-47.34
368.781	-49.75
368.992	-53.44
369.203	-37.79
369.414	-26.9
369.625	-13.44
369.836	4.64
370.047	0.05
370.258	4.18
370.468	1.7
370.679	-7.06
370.89	-24.4
371.101	-6.95
371.312	-21.03
371.522	-23.92
371.733	-14.3
371.944	-13.84
372.155	-9.76
372.365	4.02
372.576	0.05
372.787	13.29
372.997	19.22
373.208	8.36
373.419	-3.86
373.629	-8.34
373.84	-32.09
374.05	-28.76
374.261	-29.3
374.472	-25.82
374.682	-24.64
374.893	-26.6
375.103	-22.86
375.314	-22.47
375.524	-11.8
375.735	0.17
375.945	13.63
376.156	1.3
376.366	4.91
376.577	5.24
376.787	6.58
376.997	12.56
377.208	17.99
377.418	19.27
377.629	21.57
377.839	24.28
378.049	24.06
378.26	19.47
378.47	15.97
378.68	3.37
378.89	0.04
379.101	-6.31
379.311	-6.36
379.521	-14.08
379.732	-7.53
379.942	-12.54
380.152	-17.32
380.362	-12.86
380.572	6.7
380.783	11.22
380.993	18.74
381.203	18.35
381.413	21.67
381.623	15.21
381.833	11.69
382.043	-0.17
382.253	0.03
382.463	13.61
382.674	13.42
382.884	15.42
383.094	16.35
383.304	19.53
383.514	10.85
383.724	3.6
383.934	-2.69
384.144	4.72
384.353	5.79
384.563	6.68
384.773	14.01
384.983	7.86
385.193	6.4
385.403	2.9
385.613	2.29
385.823	1.5
386.033	9.19
386.242	6.09
386.452	7.55
386.662	5.01
386.872	5.06
387.082	1.28
387.291	-1.17
387.501	-0.34
387.711	-3.15
387.921	-2.51
388.13	-0.04
388.34	3.16
388.55	0.63
388.759	-0.98
388.969	-3.25
389.179	-2.48
389.388	-6.36
389.598	-9.59
389.807	-11.11
390.017	-9.48
390.227	-13.38
390.436	-8.8
390.646	-5.53
390.855	-1.86
391.065	-1.57
391.274	0.8
391.484	-2.57
391.693	-2.94
391.903	-2.03
392.112	-1.89
392.322	-1.77
392.531	-0.23
392.74	-0.53
392.95	-0.46
393.159	-0.83
393.369	-1.26
393.578	-1.47
393.787	-0.84
393.997	-0.86
394.206	-0.73
394.415	0.37
394.625	0.27
394.834	-0.5
395.043	0.97
395.252	3.66
395.462	4.33
395.671	5.47
395.88	6.55
396.089	4.9
396.298	3.11
396.508	2.49
396.717	2.13
396.926	1.12
397.135	2.19
397.344	2.29
397.553	2.19
397.762	2.97
397.971	3.19
398.181	3.04
398.39	2.81
398.599	3.53
398.808	3.27
399.017	4.24
399.226	4.33
399.435	4.43
399.644	4.48
399.853	4.76
400.062	4.33
400.27	3.91
400.479	3.98
400.688	3.71
400.897	3.22
401.106	3.33
401.315	3.5
401.524	3.58
401.733	3.33
401.941	3.61
402.15	3.46
402.359	3.38
402.568	3.48
402.777	3.74
402.985	3.38
403.194	3.32
403.403	3.56
403.612	3.29
403.82	3.18
404.029	3.45
404.238	3.66
404.446	3.59
404.655	3.87
404.864	3.83
405.072	3.72
405.281	3.65
405.489	3.72
405.698	3.67
405.906	3.77
406.115	3.65
406.324	3.59
406.532	3.63
406.741	3.6
406.949	3.61
407.158	3.82
407.366	3.67
407.574	3.54
407.783	3.61
407.991	3.6
408.2	3.59
408.408	3.71
408.617	3.61
408.825	3.45
409.033	3.36
409.242	3.35
409.45	3.3
409.658	3.32
409.867	3.39
410.075	3.54
410.283	3.45
410.491	3.43
410.7	3.34
410.908	3.31
411.116	3.22
411.324	3.21
411.533	3.21
411.741	3.31
411.949	3.35
412.157	3.29
412.365	3.34
412.573	3.39
412.781	3.45
412.99	3.43
413.198	3.5
413.406	3.59
413.614	3.67
413.822	3.6
414.03	3.59
414.238	3.59
414.446	3.59
414.654	3.34
414.862	3.32
415.07	3.23
415.278	3.32
415.486	3.09
415.694	3.26
415.902	3.27
416.109	3.29
416.317	3.4
416.525	3.42
416.733	3.35
416.941	3.3
417.149	3.23
417.357	3.08
417.564	3.25
417.772	3.33
417.98	3.37
418.188	3.29
418.395	3.03
418.603	2.94
418.811	2.68
419.019	2.64
419.226	2.8
419.434	2.99
419.642	2.79
419.849	3.01
420.057	3.02
420.265	2.97
420.472	2.87
420.68	3.04
420.887	3
421.095	2.99
421.302	3.06
421.51	3.04
421.717	2.97
421.925	3.01
422.132	3.03
422.34	2.8
422.547	2.92
422.755	2.99
422.962	3.04
423.17	2.79
423.377	2.89
423.585	2.98
423.792	2.91
423.999	2.84
424.207	3.04
424.414	3.16
424.621	2.93
424.829	3.1
425.036	3.09
425.243	3.17
425.451	3.08
425.658	3.12
425.865	2.94
426.072	2.76
426.28	2.64
426.487	2.69
426.694	2.59
426.901	2.59
427.108	2.6
427.315	2.55
427.523	2.32
427.73	2.46
427.937	2.37
428.144	2.55
428.351	2.63
428.558	2.91
428.765	2.85
428.972	2.98
429.179	2.81
429.386	2.85
429.593	2.57
429.8	2.48
430.007	2.49
430.214	2.71
430.421	2.76
430.628	2.79
430.835	2.87
431.042	2.73
431.249	2.71
431.456	2.65
431.662	2.87
431.869	3.06
432.076	3.14
432.283	3.11
432.49	2.97
432.697	2.88
432.903	2.68
433.11	2.81
433.317	2.86
433.524	2.97
433.73	2.96
433.937	3.02
434.144	2.8
434.35	2.67
434.557	2.7
434.764	2.75
434.97	2.56
435.177	2.71
435.384	2.84
435.59	2.84
435.797	2.87
436.003	2.97
436.21	2.97
436.416	2.95
436.623	2.9
436.829	2.79
437.036	2.81
437.242	2.85
437.449	2.75
437.655	2.87
437.862	2.96
438.068	2.96
438.275	3.01
438.481	3.16
438.687	3.12
438.894	3.27
439.1	3.3
439.307	3.33
439.513	3.25
439.719	3.25
439.926	3.05
440.132	3.09
440.338	3
440.544	3.03
440.751	2.92
440.957	3.06
441.163	2.96
441.369	2.95
441.575	2.87
441.782	3.09
441.988	3.01
442.194	3.04
442.4	2.97
442.606	3.1
442.812	3.06
443.018	3.08
443.224	3.18
443.431	3.25
443.637	3.18
443.843	3.16
444.049	3.17
444.255	3.18
444.461	3.16
444.667	3.11
444.873	3.11
445.079	3.08
445.284	3.04
445.49	3.02
445.696	3.04
445.902	2.95
446.108	3
446.314	3.04
446.52	3.11
446.726	3.2
446.931	3.18
447.137	3.2
447.343	3.25
447.549	3.27
447.755	3.15
447.96	3.28
448.166	3.24
448.372	3.15
448.578	3.03
448.783	3.14
448.989	3.12
449.195	3.05
449.4	3.09
449.606	3.16
449.812	3.09
450.017	3.05
450.223	3.12
450.428	3.14
450.634	3.17
450.84	3.18
451.045	3.13
451.251	3.16
451.456	3.12
451.662	3.21
451.867	3.15
452.073	3.21
452.278	3.2
452.483	3.19
452.689	3.08
452.894	3.2
453.1	3.18
453.305	3.24
453.51	3.32
453.716	3.29
453.921	3.29
454.127	3.28
454.332	3.17
454.537	3.07
454.742	3.11
454.948	3.08
455.153	3.05
455.358	3.13
455.563	3.22
455.769	3.14
455.974	3.12
456.179	3.1
456.384	2.96
456.589	2.81
456.795	2.9
457	2.83
457.205	2.82
457.41	2.92
457.615	3.03
457.82	3.04
458.025	3.08
458.23	3.16
458.435	3.12
458.64	3.13
458.845	3.08
459.05	3.11
459.255	3.1
459.46	3.06
459.665	3.05
459.87	3.04
460.075	3.11
460.28	3.12
460.485	3.19
460.69	3.14
460.895	3.18
461.099	3.04
461.304	2.94
461.509	2.91
461.714	3
461.919	3
462.123	3.11
462.328	3.1
462.533	2.97
462.738	2.93
462.942	2.92
463.147	2.87
463.352	3.02
463.556	3.23
463.761	3.24
463.966	3.17
464.17	3.31
464.375	3.4
464.58	3.27
464.784	3.23
464.989	3.29
465.193	3.2
465.398	3.09
465.602	3.31
