Data from Ofra_PS_T2_2A_1GT43_Reflection_2.txt Node
Date: Wed Jul 21 16:56:04 EDT 2021
User: Adam
Spectrometer: FLMT01687
Trigger mode: 0
Integration Time (sec): 1.100000E0
Scans to average: 2
Electric dark correction enabled: true
Nonlinearity correction enabled: false
Boxcar width: 2
XAxis mode: Wavelengths
Number of Pixels in Spectrum: 3648
>>>>>Begin Spectral Data<<<<<
179.494	286
179.716	376.71
179.937	376.11
180.158	365.12
180.38	631.56
180.601	329.56
180.823	115.73
181.044	-13.03
181.265	120.96
181.486	83.51
181.708	74.71
181.929	-13.27
182.15	-45.77
182.372	91.39
182.593	59.76
182.814	6.8
183.035	11.57
183.257	28.81
183.478	-19.68
183.699	37.98
183.92	53.63
184.141	45.47
184.363	26.14
184.584	63.36
184.805	47.79
185.026	59.55
185.247	72.63
185.468	52.49
185.689	26.78
185.91	35.06
186.132	46.65
186.353	27.29
186.574	59.31
186.795	66.77
187.016	39.71
187.237	14.91
187.458	27.75
187.679	13.91
187.9	22.76
188.121	22.29
188.342	18.31
188.563	39.42
188.784	70.22
189.005	67.43
189.226	100.64
189.447	115.58
189.667	30.83
189.888	-222.91
190.109	-751.3
190.33	-435.16
190.551	-793.36
190.772	-124.09
190.993	-95.11
191.214	-83.73
191.434	-50.23
191.655	-20.55
191.876	-59.06
192.097	-82.78
192.318	-165.27
192.538	-230.35
192.759	-141.01
192.98	-38.31
193.201	5.43
193.421	50.32
193.642	44.25
193.863	54.99
194.083	23.83
194.304	7.03
194.525	-7.9
194.745	-30.82
194.966	-41.73
195.187	-50.14
195.407	-64.87
195.628	-108.49
195.848	-96.7
196.069	-92.83
196.29	-52.21
196.51	-62.68
196.731	-44.44
196.951	-52.19
197.172	-53.48
197.392	-68.64
197.613	-69.46
197.833	-80.99
198.054	-45.69
198.274	-30.61
198.495	-37.79
198.715	11.72
198.936	4.73
199.156	-9.56
199.377	-67.07
199.597	-61.71
199.817	-90.39
200.038	-40.16
200.258	-84.57
200.479	-21.25
200.699	-17.4
200.919	11.66
201.14	-25.58
201.36	-9.61
201.58	10.6
201.801	31.42
202.021	2.88
202.241	4.24
202.461	-13.08
202.682	-75.92
202.902	-131.18
203.122	-53.61
203.342	-25.5
203.563	5.26
203.783	25.1
204.003	7.31
204.223	-0.27
204.443	28.3
204.663	24.51
204.884	47.46
205.104	75.05
205.324	106.16
205.544	122.02
205.764	101.22
205.984	71.39
206.204	57.71
206.424	36.08
206.644	2.45
206.864	-8.93
207.084	-24.41
207.304	32.64
207.525	-18.59
207.745	-29.74
207.964	41.59
208.184	-10.55
208.404	-48.98
208.624	-36.5
208.844	-19.08
209.064	-212.79
209.284	-165.41
209.504	-66.32
209.724	-4.17
209.944	-13.64
210.164	17.23
210.384	14.44
210.604	7.15
210.823	-26.35
211.043	-32.9
211.263	-21.41
211.483	-16.57
211.703	-40.25
211.922	7.2
212.142	58.92
212.362	86.58
212.582	71.24
212.801	61.15
213.021	38.74
213.241	18.73
213.461	-28.59
213.68	-39.59
213.9	-42.89
214.12	-39.58
214.339	-63.89
214.559	-45.43
214.779	-9.08
214.998	1.61
215.218	-24.01
215.438	-3.22
215.657	2.26
215.877	-20.08
216.096	15.69
216.316	21.65
216.535	-8.87
216.755	-13.15
216.974	-68.72
217.194	-114.04
217.413	-129.83
217.633	-91.93
217.852	-162.86
218.072	-51.19
218.291	-23.62
218.511	15.57
218.73	3.43
218.95	-1.56
219.169	-10.03
219.389	-41.13
219.608	-32.95
219.827	-36.77
220.047	-37.55
220.266	-20.76
220.485	-18.91
220.705	-7.85
220.924	-19.13
221.143	27.47
221.363	12.22
221.582	26.57
221.801	31.16
222.021	56.44
222.24	28.14
222.459	97.68
222.678	77.62
222.897	-18.43
223.117	-52.56
223.336	-38.37
223.555	-15.37
223.774	35.33
223.993	101.39
224.213	131.9
224.432	120.48
224.651	100.58
224.87	46.76
225.089	42.32
225.308	17.55
225.527	33.47
225.746	28.65
225.965	37.48
226.184	21.63
226.404	38.63
226.623	8.64
226.842	1.38
227.061	21.79
227.28	27.98
227.499	18.06
227.718	30.87
227.936	36.77
228.155	40.5
228.374	34.78
228.593	42.52
228.812	44.3
229.031	14.03
229.25	-21.88
229.469	-29.9
229.688	-41.73
229.907	-12.76
230.125	-5.96
230.344	10.49
230.563	38.82
230.782	48.23
231.001	2.13
231.22	35.96
231.438	38.29
231.657	17.9
231.876	12.15
232.095	43.13
232.313	31.62
232.532	26.96
232.751	-2.74
232.969	-30.34
233.188	-124.62
233.407	-44.24
233.625	-29.17
233.844	-32.97
234.063	-5.92
234.281	26.35
234.5	20.01
234.719	27.65
234.937	28.02
235.156	30.64
235.374	28.74
235.593	13.57
235.811	14.51
236.03	27.88
236.249	7.8
236.467	-0.53
236.686	25.59
236.904	26.65
237.123	24.43
237.341	17.6
237.559	26.07
237.778	7.55
237.996	11.96
238.215	27.72
238.433	44.53
238.652	32
238.87	25.98
239.088	25.59
239.307	11.02
239.525	-8.74
239.743	-18.2
239.962	-10.04
240.18	-45.25
240.398	-55.95
240.617	-49.48
240.835	-24.76
241.053	-11.11
241.271	43.17
241.49	40.07
241.708	25.85
241.926	12.39
242.144	7.59
242.363	-34.94
242.581	-59.32
242.799	-45.13
243.017	-14.61
243.235	-23.06
243.453	-14.43
243.672	-20.55
243.89	2.16
244.108	-0.8
244.326	18.42
244.544	33.56
244.762	54.06
244.98	50.29
245.198	45.29
245.416	22.53
245.634	3.37
245.852	-22.76
246.07	-22.59
246.288	-18.32
246.506	-38.43
246.724	-12.7
246.942	15.54
247.16	27.87
247.378	37.18
247.596	64.04
247.814	71.01
248.032	34.51
248.25	31.14
248.468	1.92
248.685	-9.99
248.903	6.22
249.121	22.01
249.339	-2.23
249.557	4.22
249.775	2.09
249.992	-36.92
250.21	-31.69
250.428	-23.45
250.646	-54.21
250.863	-58.57
251.081	-55.24
251.299	-85.93
251.517	-75.59
251.734	-42.33
251.952	-38.37
252.17	-19.98
252.387	4.55
252.605	2.35
252.823	7.31
253.04	19.2
253.258	15.93
253.475	-8.19
253.693	11.17
253.911	22.42
254.128	12.17
254.346	28.17
254.563	25.18
254.781	-0.59
254.998	-11.7
255.216	0.31
255.433	6.21
255.651	61.56
255.868	74.04
256.086	64.14
256.303	58.24
256.521	31.5
256.738	-3.34
256.956	-21.11
257.173	-40.53
257.39	-62.94
257.608	-64.87
257.825	-31.58
258.043	-9.56
258.26	4.99
258.477	25.99
258.695	13.49
258.912	-32.71
259.129	-13.96
259.346	-53.97
259.564	-79.05
259.781	-100.05
259.998	-24.04
260.216	-5.01
260.433	35.79
260.65	48.25
260.867	64.1
261.084	37.85
261.302	26.01
261.519	18.31
261.736	-11.36
261.953	-24.11
262.17	10.22
262.387	-23.44
262.604	-38.75
262.822	-32.76
263.039	-26.27
263.256	-46.54
263.473	10.11
263.69	13.03
263.907	28.59
264.124	32.02
264.341	23
264.558	7.34
264.775	24.26
264.992	12.85
265.209	25.55
265.426	45.45
265.643	42.22
265.86	37.6
266.077	40.5
266.294	24.7
266.51	-17.94
266.727	-7.94
266.944	-4.49
267.161	-1.83
267.378	4.44
267.595	31.12
267.812	-6.5
268.028	-2.69
268.245	5.73
268.462	-17.23
268.679	-22.2
268.896	31.31
269.112	28.54
269.329	22.6
269.546	26.82
269.763	22.94
269.979	13.6
270.196	6.68
270.413	-11
270.629	-25.3
270.846	-38.52
271.063	-41.8
271.279	-45.94
271.496	-32.25
271.712	3.1
271.929	21.38
272.146	15.75
272.362	20.5
272.579	40.22
272.795	41.38
273.012	32.96
273.228	43.51
273.445	1.92
273.661	-19.16
273.878	-55.81
274.094	-40.04
274.311	-65.25
274.527	-0.93
274.744	0.22
274.96	5.4
275.177	8.61
275.393	19.18
275.609	31.71
275.826	43.07
276.042	54.34
276.259	62.43
276.475	61.4
276.691	55.15
276.908	30.2
277.124	30.03
277.34	14.83
277.557	10.9
277.773	-5.35
277.989	-3.01
278.205	-1.95
278.422	20.48
278.638	15.58
278.854	33.95
279.07	39.82
279.286	56.94
279.503	33.68
279.719	40.3
279.935	18.68
280.151	23.29
280.367	4.22
280.583	-15.21
280.799	-15.01
281.016	-34.46
281.232	-9.79
281.448	-20.94
281.664	10
281.88	-21.88
282.096	9.04
282.312	14.27
282.528	32.09
282.744	46.99
282.96	54.96
283.176	41.26
283.392	37.84
283.608	33.03
283.824	11.65
284.04	17.17
284.256	21.18
284.471	15.96
284.687	9.18
284.903	35.85
285.119	35.26
285.335	12.87
285.551	13.58
285.767	14.89
285.982	-0.17
286.198	0.04
286.414	39.25
286.63	30.16
286.846	47.51
287.061	19.71
287.277	34.23
287.493	12.87
287.709	14.54
287.924	-11.83
288.14	20.17
288.356	20.85
288.571	34.68
288.787	23.06
289.003	24.5
289.218	18.23
289.434	-12.69
289.65	-7.57
289.865	-2.62
290.081	13.09
290.296	23.87
290.512	34.74
290.727	-3.28
290.943	-1.35
291.159	-5.92
291.374	-8.25
291.59	-20.86
291.805	4.1
292.021	13.12
292.236	11.89
292.451	23.52
292.667	35.59
292.882	32.69
293.098	28.38
293.313	16.52
293.529	-5.79
293.744	-29.8
293.959	-20.17
294.175	-10.22
294.39	13.2
294.605	19.84
294.821	26.31
295.036	29.57
295.251	18.07
295.467	12.01
295.682	6.71
295.897	-20.43
296.112	-32.81
296.328	-18.9
296.543	-54.05
296.758	-62.07
296.973	-7
297.188	19.36
297.404	-8.14
297.619	1.8
297.834	4.55
298.049	-16.47
298.264	-49.68
298.479	-4.34
298.694	-13.4
298.909	8.62
299.125	16.61
299.34	30.46
299.555	8.97
299.77	28.68
299.985	-16.56
300.2	-55.74
300.415	-59.03
300.63	-30.42
300.845	-43.77
301.06	-38.12
301.275	-19.91
301.49	-11.24
301.704	-9.05
301.919	-11.13
302.134	-10.74
302.349	-12.74
302.564	-56.03
302.779	-61.92
302.994	-45.53
303.209	-46.12
303.423	-6.5
303.638	25.32
303.853	5.24
304.068	13.56
304.283	14.58
304.497	8.18
304.712	0.2
304.927	2.94
305.142	-3.28
305.356	9.78
305.571	-0.94
305.786	-8.28
306	-23.82
306.215	-28.59
306.43	-60.66
306.644	-44.08
306.859	-11.92
307.074	3.25
307.288	-16.94
307.503	-7.36
307.717	-12.5
307.932	-27.11
308.147	-23.28
308.361	2.2
308.576	-1.79
308.79	-20.19
309.005	6.91
309.219	26.71
309.434	17.85
309.648	22.29
309.863	32.28
310.077	30.86
310.292	0.93
310.506	-0.84
310.72	10.44
310.935	15.44
311.149	5.85
311.364	32.62
311.578	44.71
311.792	31.62
312.007	26.64
312.221	17.39
312.435	9.45
312.649	-4.73
312.864	24.24
313.078	49.51
313.292	94.91
313.507	67.97
313.721	118.11
313.935	42.22
314.149	16.71
314.363	16.81
314.578	18.22
314.792	13.5
315.006	12.55
315.22	32.45
315.434	28.3
315.648	33.8
315.862	28.73
316.077	21.81
316.291	-6.09
316.505	15.06
316.719	6.23
316.933	11.97
317.147	14.73
317.361	-25.9
317.575	-63.47
317.789	-77.9
318.003	-147.07
318.217	-114.97
318.431	-25.67
318.645	28.73
318.859	22.76
319.073	38.2
319.287	21.06
319.5	-4.98
319.714	-52.28
319.928	-57.41
320.142	-82.62
320.356	-39.46
320.57	-19.19
320.784	-35.7
320.997	-58.85
321.211	-31.9
321.425	-64.61
321.639	-97.68
321.853	-48.22
322.066	-28.83
322.28	-31.3
322.494	-10.28
322.707	12.58
322.921	5.79
323.135	13.08
323.349	24.05
323.562	-7.46
323.776	-2.39
323.989	-2.94
324.203	-22.36
324.417	-41.78
324.63	-52.19
324.844	-71.41
325.057	-62.35
325.271	-46.32
325.485	3.32
325.698	35.64
325.912	52.19
326.125	40.65
326.339	40.59
326.552	18.5
326.766	5.31
326.979	21.71
327.193	55.52
327.406	56.64
327.619	41.82
327.833	53.03
328.046	21.64
328.26	-19.46
328.473	-4.92
328.686	-17.43
328.9	-21
329.113	3.64
329.326	-2.19
329.54	-0.19
329.753	-11.89
329.966	-36.51
330.179	-41.57
330.393	-16.16
330.606	-15.9
330.819	6.8
331.032	22.18
331.246	30.12
331.459	41.89
331.672	42.58
331.885	36.69
332.098	24.2
332.311	16.01
332.525	-19.89
332.738	-56.55
332.951	-21.11
333.164	1.26
333.377	20.04
333.59	38.45
333.803	63.14
334.016	54.15
334.229	57.29
334.442	43.56
334.655	61.19
334.868	51.2
335.081	35.23
335.294	22.37
335.507	17.43
335.72	-1.58
335.933	-4.58
336.146	-3.96
336.359	-8.57
336.572	-39.83
336.785	-51.26
336.997	-27.26
337.21	2.44
337.423	16.41
337.636	39.07
337.849	45.3
338.062	19.1
338.274	8.97
338.487	-1.85
338.7	-7.21
338.913	-43.17
339.125	-61
339.338	-107.3
339.551	-92.98
339.763	-58.64
339.976	-21.73
340.189	18.61
340.402	25.66
340.614	22.67
340.827	17.77
341.039	19.82
341.252	31.14
341.465	34.68
341.677	23.84
341.89	3.39
342.102	9.41
342.315	-23.35
342.527	-58.26
342.74	-26.92
342.952	10.52
343.165	20.31
343.377	39.43
343.59	40.98
343.802	39.55
344.015	21.25
344.227	14.37
344.44	19.82
344.652	32.42
344.864	34.5
345.077	47.32
345.289	48.31
345.502	40.81
345.714	30.32
345.926	33.33
346.139	16.96
346.351	13.31
346.563	13.49
346.775	13.62
346.988	-5.24
347.2	-13.88
347.412	-47.2
347.624	-44.58
347.837	-52.25
348.049	-24.92
348.261	22.18
348.473	28.17
348.685	37.82
348.897	35.83
349.11	16.99
349.322	-9.88
349.534	-2.03
349.746	-2.81
349.958	6.71
350.17	14.43
350.382	26
350.594	29.34
350.806	37.13
351.018	32.18
351.23	26.66
351.442	7.33
351.654	0.31
351.866	-21.19
352.078	-33.32
352.29	-8.28
352.502	1.54
352.714	10.91
352.926	-10.73
353.138	-3.96
353.35	-11.91
353.561	-15.84
353.773	-39.07
353.985	-16.28
354.197	-10.73
354.409	-14.11
354.621	-17.56
354.832	4.58
355.044	9.8
355.256	4.71
355.468	23.47
355.679	28.23
355.891	37.96
356.103	35.01
356.314	41.8
356.526	37.55
356.738	39.22
356.949	20.76
357.161	14.6
357.373	-5.77
357.584	-22.99
357.796	0.3
358.008	0.55
358.219	11.65
358.431	18.63
358.642	33.01
358.854	9.32
359.065	12.85
359.277	-9.01
359.488	-9.86
359.7	-27.47
359.911	-32.19
360.123	-19.74
360.334	-31.04
360.546	-34.2
360.757	-34.2
360.969	-25.08
361.18	-40.33
361.391	-15.78
361.603	-26.2
361.814	-16.86
362.025	-16.1
362.237	-9.69
362.448	3.28
362.659	27.19
362.871	28.29
363.082	32.38
363.293	24.33
363.504	4.81
363.716	-26.72
363.927	-44.5
364.138	-52.27
364.349	-56.62
364.56	-39.2
364.772	-29.3
364.983	-4.38
365.194	-4.54
365.405	15.51
365.616	21.9
365.827	18.19
366.038	-11.09
366.25	-20.96
366.461	-51.63
366.672	-23.36
366.883	-2.07
367.094	14.79
367.305	11.63
367.516	18.08
367.727	-0.11
367.938	-9.45
368.149	-8.23
368.36	13.77
368.571	17.43
368.781	8.13
368.992	-9.85
369.203	-25.37
369.414	-51.84
369.625	-58.79
369.836	-56.22
370.047	-52.71
370.258	-33.27
370.468	-33.33
370.679	-41.12
370.89	-28.58
371.101	-10.08
371.312	-5.78
371.522	14.34
371.733	16.74
371.944	11.81
372.155	16.16
372.365	10.89
372.576	7.25
372.787	5.83
372.997	6.21
373.208	-0.41
373.419	20.17
373.629	2.75
373.84	-6.07
374.05	-22.87
374.261	-18.9
374.472	-37.95
374.682	-8.99
374.893	-3.17
375.103	33.33
375.314	32.33
375.524	27.6
375.735	29.59
375.945	40.55
376.156	17.88
376.366	12.28
376.577	15.78
376.787	9.55
376.997	4.93
377.208	4.64
377.418	7.95
377.629	16.93
377.839	16.21
378.049	18.21
378.26	32.92
378.47	35.76
378.68	13.49
378.89	9.52
379.101	0.02
379.311	-31.35
379.521	-58.89
379.732	-36.27
379.942	-23.19
380.152	-20.38
380.362	10.75
380.572	10.02
380.783	12.48
380.993	16.06
381.203	14.57
381.413	4.9
381.623	7.85
381.833	8.44
382.043	-3.53
382.253	-1.34
382.463	-2.76
382.674	-8.32
382.884	-22.49
383.094	-15.78
383.304	-10.83
383.514	-4.04
383.724	7.81
383.934	9.44
384.144	-7.27
384.353	-17.92
384.563	-20.78
384.773	-21.15
384.983	-25.76
385.193	-2.28
385.403	5.77
385.613	10.03
385.823	5.83
386.033	13.93
386.242	3.32
386.452	-2.9
386.662	-14.25
386.872	-3.88
387.082	-11.71
387.291	-15.74
387.501	-16.34
387.711	-4.59
387.921	-14.3
388.13	-11.25
388.34	-0.68
388.55	-4.74
388.759	-8.35
388.969	-1.26
389.179	-3.51
389.388	-8.29
389.598	-0.14
389.807	-3.94
390.017	-10.16
390.227	-2.88
390.436	-0.89
390.646	-1.1
390.855	1.79
391.065	3.57
391.274	0.25
391.484	0.11
391.693	-1.38
391.903	0.48
392.112	4.71
392.322	7.91
392.531	8.56
392.74	9.64
392.95	5.85
393.159	3.23
393.369	1.56
393.578	1.75
393.787	1.56
393.997	3.03
394.206	2.74
394.415	2.01
394.625	2.7
394.834	1.2
395.043	2.85
395.252	4.37
395.462	6.53
395.671	6.8
395.88	7.32
396.089	7.46
396.298	7.05
396.508	5.99
396.717	4.94
396.926	6.2
397.135	5.41
397.344	5.15
397.553	6.04
397.762	7.72
397.971	7.58
398.181	7.61
398.39	7.18
398.599	6.47
398.808	5.93
399.017	5.71
399.226	6.77
399.435	7.13
399.644	7.51
399.853	6.67
400.062	6.79
400.27	6.09
400.479	5.65
400.688	5.03
400.897	5.41
401.106	4.91
401.315	4.98
401.524	5.24
401.733	5.23
401.941	5.7
402.15	6.04
402.359	5.71
402.568	6.01
402.777	6.22
402.985	5.89
403.194	5.71
403.403	5.96
403.612	5.7
403.82	5.59
404.029	5.61
404.238	5.61
404.446	5.9
404.655	5.81
404.864	5.75
405.072	5.47
405.281	5.59
405.489	5.31
405.698	5.27
405.906	5.36
406.115	5.47
406.324	5.39
406.532	5.44
406.741	5.73
406.949	5.73
407.158	5.68
407.366	5.81
407.574	5.83
407.783	5.68
407.991	5.51
408.2	5.58
408.408	5.55
408.617	5.45
408.825	5.27
409.033	5.37
409.242	5.49
409.45	5.4
409.658	5.24
409.867	5.36
410.075	5.27
410.283	5.17
410.491	5.06
410.7	5.01
410.908	5.12
411.116	5.33
411.324	5.23
411.533	5.21
411.741	5.46
411.949	5.29
412.157	5.02
412.365	4.99
412.573	5.01
412.781	4.97
412.99	4.87
413.198	4.98
413.406	5.11
413.614	5.19
413.822	5.03
414.03	5.03
414.238	4.93
414.446	4.85
414.654	4.69
414.862	4.73
415.07	4.85
415.278	5.06
415.486	4.9
415.694	5.03
415.902	4.91
416.109	4.9
416.317	4.73
416.525	4.51
416.733	4.41
416.941	4.58
417.149	4.42
417.357	4.41
417.564	4.59
417.772	4.74
417.98	4.6
418.188	4.62
418.395	4.62
418.603	4.85
418.811	4.45
419.019	4.32
419.226	4.54
419.434	4.6
419.642	4.32
419.849	4.58
420.057	4.68
420.265	4.62
420.472	4.52
420.68	4.63
420.887	4.57
421.095	4.68
421.302	4.58
421.51	4.73
421.717	4.88
421.925	4.9
422.132	4.69
422.34	4.38
422.547	4.29
422.755	4.17
422.962	4.05
423.17	4.19
423.377	4.4
423.585	4.39
423.792	4.27
423.999	4.39
424.207	4.31
424.414	4.37
424.621	4.26
424.829	4.33
425.036	4.27
425.243	4.24
425.451	4.14
425.658	4.09
425.865	4.15
426.072	4.16
426.28	4.38
426.487	4.34
426.694	4.3
426.901	4.12
427.108	4.15
427.315	4.13
427.523	4.44
427.73	4.64
427.937	4.69
428.144	4.63
428.351	4.49
428.558	4.35
428.765	4.28
428.972	4.15
429.179	4.28
429.386	4.45
429.593	4.36
429.8	4.19
430.007	4.46
430.214	4.35
430.421	4.14
430.628	4.04
430.835	4.09
431.042	4.08
431.249	4.24
431.456	4.28
431.662	4.49
431.869	4.72
432.076	4.73
432.283	4.79
432.49	4.76
432.697	4.66
432.903	4.4
433.11	4.35
433.317	4.32
433.524	4.52
433.73	4.59
433.937	4.86
434.144	4.82
434.35	4.79
434.557	4.63
434.764	4.67
434.97	4.52
435.177	4.66
435.384	4.61
435.59	4.79
435.797	4.92
436.003	5.06
436.21	5.08
436.416	5.23
436.623	5.16
436.829	5.18
437.036	5.26
437.242	5.29
437.449	5.27
437.655	5.32
437.862	5.26
438.068	5.21
438.275	5.28
438.481	5.37
438.687	5.36
438.894	5.34
439.1	5.4
439.307	5.46
439.513	5.4
439.719	5.42
439.926	5.55
440.132	5.54
440.338	5.46
440.544	5.5
440.751	5.49
440.957	5.56
441.163	5.49
441.369	5.52
441.575	5.48
441.782	5.52
441.988	5.31
442.194	5.4
442.4	5.39
442.606	5.65
442.812	5.69
443.018	5.74
443.224	5.73
443.431	5.85
443.637	5.57
443.843	5.52
444.049	5.61
444.255	5.59
444.461	5.67
444.667	5.7
444.873	5.94
445.079	6.03
445.284	6.09
445.49	5.89
445.696	5.85
445.902	5.71
446.108	5.56
446.314	5.5
446.52	5.54
446.726	5.78
446.931	5.72
447.137	5.84
447.343	5.92
447.549	5.89
447.755	5.74
447.96	5.8
448.166	5.77
448.372	5.73
448.578	5.85
448.783	5.89
448.989	5.94
449.195	6.06
449.4	6.07
449.606	6.05
449.812	5.98
450.017	5.9
450.223	5.79
450.428	5.74
450.634	5.76
450.84	5.79
451.045	5.89
451.251	5.83
451.456	6.05
451.662	6.09
451.867	6.24
452.073	6.27
452.278	6.42
452.483	6.48
452.689	6.44
452.894	6.4
453.1	6.35
453.305	6.28
453.51	6.2
453.716	6.22
453.921	6.26
454.127	6.27
454.332	6.22
454.537	6.19
454.742	6.17
454.948	6.15
455.153	6.17
455.358	6.3
455.563	6.38
455.769	6.48
455.974	6.44
456.179	6.36
456.384	6.29
456.589	6.23
456.795	6.01
457	5.97
457.205	6.12
457.41	6.18
457.615	6.15
457.82	6.25
458.025	6.36
458.23	6.26
458.435	6.21
458.64	6.19
458.845	6.32
459.05	6.26
459.255	6.29
459.46	6.32
459.665	6.38
459.87	6.39
460.075	6.47
460.28	6.44
460.485	6.53
460.69	6.51
460.895	6.35
461.099	6.3
461.304	6.49
461.509	6.45
461.714	6.43
461.919	6.64
462.123	6.55
462.328	6.6
462.533	6.58
462.738	6.75
462.942	6.68
463.147	6.82
463.352	6.72
463.556	6.67
463.761	6.62
463.966	6.62
464.17	6.58
