Data from Ofra_PS_T2_2A_9GT47_Reflection_3.txt Node
Date: Wed Jul 21 17:27:23 EDT 2021
User: Adam
Spectrometer: FLMT01687
Trigger mode: 0
Integration Time (sec): 1.100000E0
Scans to average: 2
Electric dark correction enabled: true
Nonlinearity correction enabled: false
Boxcar width: 2
XAxis mode: Wavelengths
Number of Pixels in Spectrum: 3648
>>>>>Begin Spectral Data<<<<<
179.494	553.6
179.716	661.18
179.937	615.93
180.158	614.5
180.38	1129.37
180.601	408.29
180.823	34.78
181.044	-137.44
181.265	80.15
181.486	-4.56
181.708	97.23
181.929	1226.53
182.15	-808.45
182.372	150.68
182.593	41.46
182.814	28.23
183.035	83.3
183.257	74.75
183.478	-50
183.699	34.08
183.92	7.69
184.141	-29.24
184.363	-114.94
184.584	-50
184.805	-43.84
185.026	-11.33
185.247	40.92
185.468	30.69
185.689	43.72
185.91	56.79
186.132	52.85
186.353	6.86
186.574	78.55
186.795	55.78
187.016	1.52
187.237	-4.86
187.458	-25.37
187.679	-37.04
187.9	-34.33
188.121	-13.99
188.342	-14.32
188.563	33.73
188.784	59.07
189.005	70.97
189.226	101.27
189.447	117.73
189.667	134.95
189.888	-142.36
190.109	-897.4
190.33	-604.52
190.551	-1325.66
190.772	-298.79
190.993	-273.75
191.214	-255.02
191.434	-176.68
191.655	-54.6
191.876	-125.93
192.097	-143.88
192.318	-190.78
192.538	-222.87
192.759	-187
192.98	-84.17
193.201	-42.34
193.421	-8.38
193.642	6.09
193.863	6.51
194.083	-32.25
194.304	-44.75
194.525	-50.51
194.745	-98.59
194.966	-107.72
195.187	-74.41
195.407	-81.74
195.628	-196.45
195.848	-197.38
196.069	-210.65
196.29	-143.7
196.51	-148.94
196.731	-91.78
196.951	-109.01
197.172	-104.28
197.392	-142.27
197.613	-162.59
197.833	-187.9
198.054	-165.25
198.274	-91.3
198.495	-130.43
198.715	-85.04
198.936	-98.81
199.156	-75.36
199.377	-180.66
199.597	-139.93
199.817	-120.94
200.038	-72.81
200.258	-107.42
200.479	-43.97
200.699	-36.75
200.919	2.58
201.14	-31.29
201.36	-47.76
201.58	-5.85
201.801	23.26
202.021	-20.95
202.241	-25.74
202.461	-31.3
202.682	-145.68
202.902	-223.14
203.122	-121.55
203.342	-87.27
203.563	-36.84
203.783	-11.37
204.003	-56.96
204.223	-78.46
204.443	3.17
204.663	-29.46
204.884	-5.91
205.104	33.18
205.324	54.53
205.544	15.73
205.764	42.75
205.984	40.25
206.204	41.62
206.424	29.71
206.644	3.93
206.864	8.89
207.084	-22.85
207.304	0.33
207.525	-127.81
207.745	-57.04
207.964	2.47
208.184	-58.73
208.404	-103.4
208.624	-97.38
208.844	-98.94
209.064	-448.16
209.284	-475.13
209.504	-313.13
209.724	-109.97
209.944	-81.68
210.164	-40.41
210.384	-10.24
210.604	-1.58
210.823	-51.83
211.043	-55.57
211.263	-38.41
211.483	-50.34
211.703	-114.29
211.922	-92.76
212.142	-38.71
212.362	-54.97
212.582	-52.28
212.801	-22.69
213.021	-37.7
213.241	-71.89
213.461	-109.38
213.68	-105.04
213.9	-69.55
214.12	-56.95
214.339	-102.51
214.559	-66.64
214.779	-28.32
214.998	-27.23
215.218	-55.64
215.438	-24.92
215.657	-35.86
215.877	-32.53
216.096	-18.59
216.316	-6.56
216.535	-10.86
216.755	-9.63
216.974	-132.51
217.194	-194.22
217.413	-190.72
217.633	-193.08
217.852	-330.71
218.072	-121.95
218.291	-57.16
218.511	-0.07
218.73	-22.8
218.95	-17.55
219.169	-35.16
219.389	-88.11
219.608	-86.69
219.827	-81.09
220.047	-73.27
220.266	-48.64
220.485	-37.17
220.705	-28.76
220.924	-44.39
221.143	16.54
221.363	-12.08
221.582	-12.31
221.801	8.7
222.021	41.09
222.24	-68.44
222.459	34.94
222.678	21.57
222.897	-80.85
223.117	-160.14
223.336	-123.58
223.555	-125.72
223.774	-70.31
223.993	-52.58
224.213	26.39
224.432	-0.71
224.651	39.72
224.87	-2.42
225.089	17.13
225.308	-4.44
225.527	22.25
225.746	6.03
225.965	10.34
226.184	-9.65
226.404	11.96
226.623	-24.36
226.842	-19.15
227.061	9.94
227.28	11.64
227.499	-5.95
227.718	22.23
227.936	7.71
228.155	-1.88
228.374	-20.61
228.593	-12.25
228.812	-30.16
229.031	-31.62
229.25	-91.11
229.469	-83.99
229.688	-80.06
229.907	-23.38
230.125	-11.61
230.344	18.18
230.563	28.05
230.782	40.62
231.001	-39.02
231.22	-15.47
231.438	-0.52
231.657	-2.7
231.876	1.29
232.095	42.7
232.313	44.77
232.532	47.01
232.751	5.17
232.969	-31.98
233.188	-110.85
233.407	-20
233.625	-23.4
233.844	-25.7
234.063	-8.42
234.281	13.57
234.5	-18.02
234.719	-5.17
234.937	12.9
235.156	6.61
235.374	-0.59
235.593	-7.86
235.811	-14.07
236.03	-23.91
236.249	-73.74
236.467	-65.38
236.686	-31.67
236.904	-19.8
237.123	-50
237.341	-37.84
237.559	-31.3
237.778	-56.26
237.996	-101.66
238.215	-31.38
238.433	-11.75
238.652	-34.33
238.87	-50
239.088	-29.06
239.307	-47.02
239.525	-71.26
239.743	-69.97
239.962	-53.36
240.18	-71.67
240.398	-129.79
240.617	-111.26
240.835	-89.98
241.053	-41.85
241.271	11.06
241.49	42.78
241.708	21.97
241.926	-15.53
242.144	-50.15
242.363	-116.25
242.581	-162.03
242.799	-103.7
243.017	-46.19
243.235	-63.62
243.453	-34.88
243.672	-28.9
243.89	-37.87
244.108	-66.87
244.326	-42.98
244.544	-48.02
244.762	-43.36
244.98	-30.86
245.198	-4.84
245.416	-33.13
245.634	-42.18
245.852	-61.76
246.07	-70.41
246.288	-70.2
246.506	-89.26
246.724	-73.11
246.942	-63.56
247.16	-20.84
247.378	-6.97
247.596	23.07
247.814	24.83
248.032	3.28
248.25	6.69
248.468	2.01
248.685	9.12
248.903	40.85
249.121	45.2
249.339	-4.22
249.557	-28.77
249.775	-27.22
249.992	-110.09
250.21	-95.43
250.428	-56.89
250.646	-69.93
250.863	-90.83
251.081	-51.64
251.299	-35.63
251.517	-31.3
251.734	-36.72
251.952	-45.52
252.17	-38.08
252.387	-35.66
252.605	-42.06
252.823	-32.96
253.04	0.1
253.258	16.01
253.475	-0.3
253.693	35.79
253.911	50.41
254.128	39.67
254.346	32.9
254.563	30.05
254.781	0.97
254.998	-30.67
255.216	-35.2
255.433	-23.08
255.651	2.7
255.868	24.28
256.086	57.11
256.303	41.33
256.521	29.96
256.738	14.26
256.956	-27.82
257.173	-59.36
257.39	-73.83
257.608	-120.09
257.825	-45.79
258.043	-8.72
258.26	22.42
258.477	60.13
258.695	71.91
258.912	2.92
259.129	6.04
259.346	-37.79
259.564	-90.15
259.781	-121.25
259.998	-45.14
260.216	-14.77
260.433	12.12
260.65	16.2
260.867	38.74
261.084	-0.92
261.302	-26.94
261.519	-37.95
261.736	-56.38
261.953	-70.43
262.17	-19.35
262.387	-59.61
262.604	-80
262.822	-84.77
263.039	-73.6
263.256	-121.3
263.473	-63.56
263.69	-51.24
263.907	-1.29
264.124	8.29
264.341	11.34
264.558	1.17
264.775	20.58
264.992	0.95
265.209	14.65
265.426	36.32
265.643	49.33
265.86	56.29
266.077	57.94
266.294	17.16
266.51	-40.49
266.727	-52.54
266.944	-52.98
267.161	-51.76
267.378	-30.66
267.595	1.74
267.812	-23.24
268.028	-44.78
268.245	2.76
268.462	-32.33
268.679	-48.18
268.896	-4.21
269.112	-0.05
269.329	-22.01
269.546	-2.37
269.763	-15.79
269.979	-46.61
270.196	-43.18
270.413	-80.43
270.629	-111.12
270.846	-101.78
271.063	-72.45
271.279	-84.37
271.496	-51.39
271.712	-12.32
271.929	11.94
272.146	4.97
272.362	0.73
272.579	26.87
272.795	27.48
273.012	26.35
273.228	17.81
273.445	-0.31
273.661	-34.14
273.878	-93.27
274.094	-85.16
274.311	-120.84
274.527	-44.6
274.744	-53.52
274.96	-36.67
275.177	-27.63
275.393	-17.36
275.609	-53.91
275.826	-11.65
276.042	-21.3
276.259	-34.6
276.475	2.34
276.691	23.37
276.908	-12.09
277.124	1.62
277.34	2.06
277.557	-16.26
277.773	-22.34
277.989	-14.4
278.205	-14.04
278.422	6.67
278.638	15.37
278.854	37.64
279.07	42.85
279.286	41.35
279.503	-4.41
279.719	-38.51
279.935	-71.52
280.151	-104.32
280.367	-93.23
280.583	-110.17
280.799	-68.19
281.016	-91.14
281.232	-36.46
281.448	-21.95
281.664	15.59
281.88	-16.64
282.096	14.67
282.312	28.39
282.528	38.87
282.744	37.06
282.96	38.63
283.176	17.37
283.392	7.35
283.608	-19.97
283.824	-27.31
284.04	-17.49
284.256	-22.6
284.471	-28.1
284.687	-22.65
284.903	-7.64
285.119	11.92
285.335	-1.11
285.551	0.15
285.767	-23.18
285.982	-32.07
286.198	-64.37
286.414	-13.01
286.63	-0.06
286.846	43.66
287.061	14.79
287.277	34.29
287.493	3.99
287.709	13.23
287.924	-16.09
288.14	25.33
288.356	24.12
288.571	48.24
288.787	23.28
289.003	19.73
289.218	-13.07
289.434	-44.11
289.65	-42.4
289.865	-50.41
290.081	-20.69
290.296	18.18
290.512	8.86
290.727	-28.15
290.943	-33.06
291.159	-46.74
291.374	-55.31
291.59	-75.75
291.805	-52.36
292.021	-31.61
292.236	-36.68
292.451	-27.59
292.667	-1.18
292.882	9.98
293.098	2
293.313	-17.03
293.529	-40.2
293.744	-66.33
293.959	-75.39
294.175	-65.53
294.39	-24.22
294.605	2.69
294.821	26.48
295.036	31.78
295.251	32.08
295.467	19.19
295.682	-10.09
295.897	-66.19
296.112	-80.31
296.328	-67.89
296.543	-108.5
296.758	-75.08
296.973	-16.48
297.188	18.6
297.404	-11.06
297.619	-7.13
297.834	-21.01
298.049	-46.66
298.264	-80.68
298.479	-22.77
298.694	-18.87
298.909	-6.43
299.125	11.31
299.34	17.12
299.555	-10.75
299.77	6.13
299.985	-37.16
300.2	-103.3
300.415	-110.14
300.63	-63.81
300.845	-70.59
301.06	-65.09
301.275	-26.47
301.49	-14.18
301.704	-15.62
301.919	-30.43
302.134	-46.29
302.349	-60.38
302.564	-111.28
302.779	-195.6
302.994	-213.17
303.209	-123.15
303.423	-81.93
303.638	-16.79
303.853	-24.36
304.068	-9.7
304.283	-14.28
304.497	-12.72
304.712	-26.51
304.927	-16.5
305.142	-31.56
305.356	-20.96
305.571	-24.66
305.786	-27.81
306	-46.22
306.215	-41.35
306.43	-70.39
306.644	-58.14
306.859	-31.42
307.074	-5.02
307.288	-32.48
307.503	-35.06
307.717	-52.66
307.932	-45.65
308.147	-59.64
308.361	-24.44
308.576	-46.45
308.79	-81.17
309.005	-86.73
309.219	-59.91
309.434	-79.72
309.648	-48.44
309.863	-34.03
310.077	-25.6
310.292	-38.46
310.506	-40.5
310.72	-33.94
310.935	-10.01
311.149	-20.29
311.364	3.41
311.578	24.16
311.792	17.24
312.007	20.95
312.221	10.01
312.435	10.35
312.649	-5.48
312.864	37.65
313.078	8.96
313.292	90.1
313.507	67.17
313.721	81.68
313.935	18.61
314.149	23.9
314.363	0.1
314.578	-6.17
314.792	1.48
315.006	-14.16
315.22	0.71
315.434	1.94
315.648	11.69
315.862	2.13
316.077	7.61
316.291	-8.24
316.505	-17.29
316.719	-46.59
316.933	-51.94
317.147	-54.22
317.361	-121.92
317.575	-130.07
317.789	-179.81
318.003	-256.94
318.217	-171.82
318.431	-61.85
318.645	-16.35
318.859	6.75
319.073	34.43
319.287	12.46
319.5	-19.1
319.714	-58.2
319.928	-82.37
320.142	-110.22
320.356	-62.28
320.57	-8.67
320.784	-15.34
320.997	-5.9
321.211	-10.45
321.425	-73.13
321.639	-103.33
321.853	-43.52
322.066	-38.89
322.28	-41.55
322.494	-31.18
322.707	-22.51
322.921	-41.62
323.135	-29.63
323.349	-21.45
323.562	-34.27
323.776	-42.11
323.989	-34.56
324.203	-71
324.417	-79.03
324.63	-96.17
324.844	-101.13
325.057	-102.23
325.271	-62.9
325.485	-16.39
325.698	17.15
325.912	42.85
326.125	9.03
326.339	8.73
326.552	-27.86
326.766	-27.82
326.979	-29.87
327.193	19.41
327.406	0.81
327.619	3.3
327.833	10.99
328.046	-15.65
328.26	-43.59
328.473	-12.02
328.686	-39.11
328.9	-39.69
329.113	-17.28
329.326	-36.09
329.54	-41.98
329.753	-45.13
329.966	-81.33
330.179	-70.53
330.393	-40.25
330.606	-27.58
330.819	-1.35
331.032	8.44
331.246	10.03
331.459	31.74
331.672	25.68
331.885	15.49
332.098	-0.81
332.311	-8.62
332.525	-66.95
332.738	-29.54
332.951	7.56
333.164	33.47
333.377	39.33
333.59	61.16
333.803	45.26
334.016	27.39
334.229	23.78
334.442	33.16
334.655	41.63
334.868	42.67
335.081	30.56
335.294	12.83
335.507	-10.23
335.72	-17.96
335.933	-41.38
336.146	-30.5
336.359	-35.69
336.572	-65.76
336.785	-91.35
336.997	-78.58
337.21	-66.15
337.423	-69.61
337.636	-54.92
337.849	-37.97
338.062	-46.51
338.274	-40.54
338.487	-43.62
338.7	-35.1
338.913	-68.81
339.125	-95.83
339.338	-157.06
339.551	-127.62
339.763	-94.72
339.976	-63.66
340.189	-15.65
340.402	-3.29
340.614	-9.22
340.827	-21.47
341.039	-27.58
341.252	-10.74
341.465	-5.07
341.677	-10.93
341.89	-39.72
342.102	-25.59
342.315	-68.33
342.527	-104.64
342.74	-79.1
342.952	-24.02
343.165	-21.52
343.377	8.63
343.59	5.9
343.802	14.5
344.015	-2.28
344.227	7.03
344.44	-3.51
344.652	-7.13
344.864	-14.3
345.077	17.05
345.289	17.11
345.502	21.26
345.714	23.28
345.926	19.6
346.139	-0.31
346.351	13.65
346.563	15.91
346.775	15.22
346.988	16.84
347.2	4.69
347.412	-56.07
347.624	-86.02
347.837	-95.64
348.049	-79.24
348.261	-40.46
348.473	-20
348.685	-13.37
348.897	-4.95
349.11	-10.34
349.322	-31.9
349.534	-30.15
349.746	-32.26
349.958	-28.54
350.17	-51.49
350.382	-20.48
350.594	-21.04
350.806	-11.31
351.018	-16.82
351.23	-30.33
351.442	-85.34
351.654	-93.99
351.866	-89.05
352.078	-71.33
352.29	-41.42
352.502	-9.71
352.714	-0.94
352.926	-12.43
353.138	-6.13
353.35	-7.1
353.561	-9.43
353.773	-29.59
353.985	-8.9
354.197	-34.21
354.409	-36.29
354.621	-40.12
354.832	-26.65
355.044	-37.71
355.256	-31.65
355.468	-27.91
355.679	-30.4
355.891	-23.36
356.103	-44.64
356.314	-31.38
356.526	-29.79
356.738	-19.93
356.949	-30.43
357.161	-13.92
357.373	-12.62
357.584	-21.5
357.796	-15.11
358.008	-24.89
358.219	-8.16
358.431	-11.91
358.642	-6.75
358.854	-1.74
359.065	-1.95
359.277	-23.75
359.488	-37.43
359.7	-58.5
359.911	-77.89
360.123	-54.05
360.334	-74.77
360.546	-89.2
360.757	-68.9
360.969	-65.4
361.18	-44.05
361.391	-9.9
361.603	-31.68
361.814	-22.46
362.025	-24.08
362.237	-38.58
362.448	-36.49
362.659	1.53
362.871	-12.53
363.082	6.65
363.293	7.3
363.504	-8.75
363.716	-38.69
363.927	-33.41
364.138	-76.15
364.349	-101.59
364.56	-75.01
364.772	-55.63
364.983	-26.06
365.194	-21.38
365.405	-1.27
365.616	14.62
365.827	3.12
366.038	-34.66
366.25	-36.66
366.461	-66.44
366.672	-49.74
366.883	-9.64
367.094	1.12
367.305	-11.77
367.516	-7.1
367.727	-30.43
367.938	-47.56
368.149	-49.71
368.36	-26.29
368.571	-18.23
368.781	-33.91
368.992	-42.96
369.203	-61.78
369.414	-75.93
369.625	-83.44
369.836	-60.51
370.047	-88.53
370.258	-66.48
370.468	-72.41
370.679	-82.93
370.89	-98.98
371.101	-65.29
371.312	-77.88
371.522	-66.18
371.733	-56.78
371.944	-38.88
372.155	-35.66
372.365	-29.68
372.576	-41.32
372.787	-34.61
372.997	-50.93
373.208	-59.93
373.419	-25.13
373.629	-50.53
373.84	-57.78
374.05	-71.62
374.261	-52.62
374.472	-79.31
374.682	-12.95
374.893	-20.06
375.103	25.25
375.314	16.77
375.524	12.32
375.735	-2.31
375.945	17.87
376.156	-14.57
376.366	-2.1
376.577	-3.01
376.787	-8.87
376.997	-14.01
377.208	-17.6
377.418	-36.16
377.629	-15.41
377.839	-15.06
378.049	-18.95
378.26	5.09
378.47	9.92
378.68	-6.72
378.89	-7.9
379.101	-1.1
379.311	-37.34
379.521	-54.66
379.732	-42.03
379.942	-41.56
380.152	-67.85
380.362	-24.62
380.572	-24.38
380.783	-16.44
380.993	-4.91
381.203	9.59
381.413	7.22
381.623	14.45
381.833	9.95
382.043	-2.85
382.253	-18.08
382.463	-14.35
382.674	-24.84
382.884	-42.25
383.094	-37.76
383.304	-26.29
383.514	-19.53
383.724	-5.51
383.934	-1.67
384.144	-11.52
384.353	-15.78
384.563	-22.27
384.773	-24.93
384.983	-27.78
385.193	-10.33
385.403	-4.17
385.613	-2.68
385.823	-14.25
386.033	-8.72
386.242	-15.31
386.452	-21.07
386.662	-34.29
386.872	-14.36
387.082	-16.4
387.291	-26.78
387.501	-30.23
387.711	-15.45
387.921	-20.54
388.13	-20.15
388.34	-2.21
388.55	-2.47
388.759	-5.6
388.969	-2.9
389.179	-5.41
389.388	-13.07
389.598	-7.96
389.807	-15.48
390.017	-18.49
390.227	-15.82
390.436	-15.34
390.646	-15.75
390.855	-10.41
391.065	-11.91
391.274	-12.66
391.484	-12.45
391.693	-9.91
391.903	-7.17
392.112	-0.73
392.322	1.59
392.531	6.92
392.74	7.07
392.95	1.88
393.159	0.26
393.369	0.24
393.578	-3.26
393.787	-5.25
393.997	-1.82
394.206	-4.49
394.415	-4.48
394.625	-3.54
394.834	-4.65
395.043	-3.61
395.252	0.29
395.462	2.68
395.671	3.55
395.88	5.88
396.089	6.06
396.298	3.19
396.508	2.05
396.717	1.12
396.926	1.25
397.135	1.15
397.344	1.54
397.553	2.81
397.762	4.8
397.971	4.27
398.181	4.06
398.39	3.87
398.599	2.36
398.808	2.38
399.017	3.78
399.226	5.56
399.435	6.93
399.644	7.66
399.853	6.63
400.062	5.85
400.27	4.8
400.479	3.99
400.688	3.34
400.897	3.33
401.106	3.36
401.315	3.04
401.524	3.17
401.733	4.04
401.941	4.87
402.15	5.21
402.359	5.09
402.568	5.58
402.777	5.42
402.985	4.97
403.194	4.67
403.403	4.96
403.612	4.43
403.82	4.24
404.029	4.45
404.238	4.35
404.446	4.63
404.655	4.54
404.864	4.47
405.072	4.05
405.281	4.32
405.489	3.94
405.698	3.97
405.906	3.95
406.115	4.17
406.324	4
406.532	4.24
406.741	4.63
406.949	4.61
407.158	4.59
407.366	4.74
407.574	4.74
407.783	4.61
407.991	4.55
408.2	4.8
408.408	4.63
408.617	4.55
408.825	4.36
409.033	4.41
409.242	4.31
409.45	4.4
409.658	4.25
409.867	4.35
410.075	4.38
410.283	4.2
410.491	4.05
410.7	4.08
410.908	4.19
411.116	4.37
411.324	4.34
411.533	4.37
411.741	4.54
411.949	4.36
412.157	4.04
412.365	4.08
412.573	4.05
412.781	4.01
412.99	3.98
413.198	4.17
413.406	4.22
413.614	4.27
413.822	4.15
414.03	4.14
414.238	3.96
414.446	3.89
414.654	3.59
414.862	3.59
415.07	3.63
415.278	3.75
415.486	3.49
415.694	3.82
415.902	3.64
416.109	3.61
416.317	3.58
416.525	3.61
416.733	3.53
416.941	3.79
417.149	3.77
417.357	3.73
417.564	3.98
417.772	4.07
417.98	3.88
418.188	3.81
418.395	3.87
418.603	4.01
418.811	3.71
419.019	3.6
419.226	3.75
419.434	3.86
419.642	3.53
419.849	3.74
420.057	3.96
420.265	3.88
420.472	3.46
420.68	3.55
420.887	3.4
421.095	3.41
421.302	3.36
421.51	3.59
421.717	3.73
421.925	3.83
422.132	3.57
422.34	3.38
422.547	3.53
422.755	3.31
422.962	3.09
423.17	3.02
423.377	3.14
423.585	3.05
423.792	3.06
423.999	3.38
424.207	3.45
424.414	3.62
424.621	3.51
424.829	3.49
425.036	3.32
425.243	3.49
425.451	3.33
425.658	3.19
425.865	3.4
426.072	3.34
426.28	3.47
426.487	3.41
426.694	3.6
426.901	3.34
427.108	3.44
427.315	3.26
427.523	3.61
427.73	3.53
427.937	3.44
428.144	3.34
428.351	3.23
428.558	3.35
428.765	3.36
428.972	3.56
429.179	3.75
429.386	4.26
429.593	3.82
429.8	3.72
430.007	3.74
430.214	3.75
430.421	3.36
430.628	3.29
430.835	3.17
431.042	3.32
431.249	3.38
431.456	3.43
431.662	3.61
431.869	3.94
432.076	3.89
432.283	3.99
432.49	3.99
432.697	4.06
432.903	3.75
433.11	3.65
433.317	3.55
433.524	3.72
433.73	3.68
433.937	4.01
434.144	4
434.35	4
434.557	3.76
434.764	3.73
434.97	3.55
435.177	3.8
435.384	3.77
435.59	3.94
435.797	4.22
436.003	4.32
436.21	4.21
436.416	4.35
436.623	4.3
436.829	4.17
437.036	4.24
437.242	4.28
437.449	4.08
437.655	4.06
437.862	4.05
438.068	3.93
438.275	4
438.481	4.29
438.687	4.32
438.894	4.35
439.1	4.45
439.307	4.57
439.513	4.5
439.719	4.61
439.926	4.7
440.132	4.73
440.338	4.5
440.544	4.55
440.751	4.46
440.957	4.52
441.163	4.34
441.369	4.53
441.575	4.44
441.782	4.38
441.988	4.25
442.194	4.29
442.4	4.24
442.606	4.52
442.812	4.62
443.018	4.75
443.224	4.8
443.431	4.89
443.637	4.59
443.843	4.55
444.049	4.52
444.255	4.57
444.461	4.55
444.667	4.63
444.873	4.73
445.079	4.7
445.284	4.77
445.49	4.6
445.696	4.43
445.902	4.35
446.108	4.31
446.314	4.25
446.52	4.36
446.726	4.56
446.931	4.55
447.137	4.62
447.343	4.67
447.549	4.62
447.755	4.55
447.96	4.63
448.166	4.58
448.372	4.51
448.578	4.5
448.783	4.54
448.989	4.61
449.195	4.84
449.4	4.81
449.606	4.83
449.812	4.78
450.017	4.77
450.223	4.55
450.428	4.61
450.634	4.72
450.84	4.85
451.045	4.74
451.251	4.75
451.456	4.97
451.662	4.95
451.867	4.97
452.073	4.98
452.278	5.01
452.483	4.95
452.689	4.92
452.894	4.91
453.1	4.93
453.305	4.89
453.51	4.85
453.716	4.83
453.921	4.79
454.127	4.79
454.332	4.78
454.537	4.66
454.742	4.66
454.948	4.66
455.153	4.68
455.358	4.81
455.563	5
455.769	5.14
455.974	5.08
456.179	4.97
456.384	4.95
456.589	4.89
456.795	4.67
457	4.72
457.205	5
457.41	4.96
457.615	4.93
457.82	5.02
