Data from Ofra_1a_PS_2GT3_Reflection_2.txt Node
Date: Tue Jul 20 10:49:00 EDT 2021
User: Adam
Spectrometer: FLMT01687
Trigger mode: 0
Integration Time (sec): 1.004000E0
Scans to average: 2
Electric dark correction enabled: true
Nonlinearity correction enabled: false
Boxcar width: 2
XAxis mode: Wavelengths
Number of Pixels in Spectrum: 3648
>>>>>Begin Spectral Data<<<<<
179.494	59.9
179.716	167.94
179.937	-261.54
180.158	765.61
180.38	6.27
180.601	57.6
180.823	103.14
181.044	55.14
181.265	-37.71
181.486	160.53
181.708	173.76
181.929	-12454.55
182.15	105.22
182.372	211.82
182.593	260.17
182.814	-50.59
183.035	-0.47
183.257	0.92
183.478	-1.45
183.699	-39.06
183.92	-70.81
184.141	-56.11
184.363	-59.64
184.584	-80.14
184.805	3.55
185.026	24.77
185.247	11.91
185.468	22.2
185.689	60.72
185.91	34.81
186.132	32.43
186.353	42.59
186.574	30.54
186.795	19.64
187.016	38.41
187.237	22.36
187.458	7.61
187.679	24.73
187.9	27.9
188.121	32.36
188.342	68.69
188.563	65.59
188.784	47.89
189.005	32.79
189.226	40.02
189.447	29.99
189.667	29.49
189.888	35.95
190.109	37.7
190.33	32.03
190.551	29.76
190.772	45.37
190.993	42.15
191.214	1.84
191.434	-34.59
191.655	-45.73
191.876	-25.13
192.097	0.06
192.318	45.07
192.538	42.32
192.759	27.48
192.98	47.5
193.201	31.46
193.421	16.96
193.642	21.12
193.863	24.38
194.083	13.98
194.304	41.66
194.525	54.46
194.745	42.03
194.966	37.59
195.187	22.83
195.407	0.03
195.628	2.71
195.848	2.63
196.069	-6.07
196.29	-1.93
196.51	11.45
196.731	5.03
196.951	-15.1
197.172	3.24
197.392	-6.14
197.613	10.74
197.833	8.4
198.054	22.34
198.274	18.55
198.495	25.74
198.715	15.15
198.936	22.61
199.156	24.32
199.377	8.96
199.597	22.69
199.817	20.9
200.038	-13.09
200.258	14.48
200.479	18.42
200.699	10.12
200.919	10.62
201.14	25.84
201.36	3.54
201.58	-18.25
201.801	-51.97
202.021	-59.23
202.241	-39.55
202.461	-38.38
202.682	-2.03
202.902	29.38
203.122	37.85
203.342	32.36
203.563	24.73
203.783	20.44
204.003	0.04
204.223	3.17
204.443	20.13
204.663	42.76
204.884	50.54
205.104	46.77
205.324	47.6
205.544	-3.38
205.764	17.42
205.984	-5.1
206.204	-4.83
206.424	-44.76
206.644	-74.37
206.864	-136.87
207.084	-60.6
207.304	-80.37
207.525	-39.46
207.745	-0.58
207.964	5.95
208.184	-3.69
208.404	1.34
208.624	1.67
208.844	-5.36
209.064	2.36
209.284	-11.33
209.504	-4.42
209.724	17.16
209.944	18.18
210.164	8.02
210.384	21.32
210.604	-8.14
210.823	-50.69
211.043	-33.49
211.263	-99.37
211.483	-59.42
211.703	-28.08
211.922	-37.6
212.142	-8.25
212.362	32.39
212.582	25.36
212.801	22.13
213.021	6.24
213.241	-28.41
213.461	-37.1
213.68	-3.21
213.9	-11.65
214.12	-20.48
214.339	-16.63
214.559	1.48
214.779	-32.87
214.998	-24.2
215.218	-8.92
215.438	-3.3
215.657	-38.1
215.877	-36.38
216.096	6.08
216.316	25.83
216.535	4.16
216.755	15.11
216.974	13.24
217.194	-30.12
217.413	-29.46
217.633	-17.57
217.852	-5.93
218.072	8.92
218.291	13.31
218.511	2.53
218.73	3.24
218.95	-9.66
219.169	-35.17
219.389	-1.71
219.608	15.75
219.827	21.79
220.047	29.84
220.266	52.16
220.485	14.46
220.705	2.45
220.924	13.32
221.143	27.39
221.363	18.63
221.582	38.62
221.801	39.86
222.021	35.69
222.24	20.26
222.459	47.73
222.678	46.2
222.897	62.21
223.117	72.82
223.336	95.07
223.555	80.31
223.774	98.8
223.993	80.37
224.213	81.56
224.432	62.53
224.651	42.71
224.87	31.76
225.089	50.39
225.308	46.23
225.527	33.84
225.746	45.62
225.965	27.02
226.184	-10.09
226.404	-12.85
226.623	-0.15
226.842	8.27
227.061	15.7
227.28	22.15
227.499	22.06
227.718	25.33
227.936	16.62
228.155	17
228.374	16.77
228.593	21.59
228.812	0.92
229.031	15.92
229.25	7.32
229.469	-2.91
229.688	6.3
229.907	21.45
230.125	21.06
230.344	28.15
230.563	27.7
230.782	19.9
231.001	21.23
231.22	20.91
231.438	22.66
231.657	34.3
231.876	32.53
232.095	31.24
232.313	16.6
232.532	18.81
232.751	8.68
232.969	8.61
233.188	1.58
233.407	4.55
233.625	7.91
233.844	12.3
234.063	4.4
234.281	8.59
234.5	18.02
234.719	11.96
234.937	-3.9
235.156	4.59
235.374	-7.02
235.593	-0.82
235.811	-5.41
236.03	1.86
236.249	-3.46
236.467	4.08
236.686	-0.96
236.904	12.56
237.123	18.13
237.341	30.66
237.559	17.28
237.778	37.07
237.996	25.12
238.215	19.38
238.433	-27.27
238.652	24.15
238.87	-13.09
239.088	-16.16
239.307	-2.19
239.525	11.51
239.743	1.08
239.962	-4.75
240.18	8.66
240.398	20.38
240.617	-3.47
240.835	-2.25
241.053	9.29
241.271	20.81
241.49	18.43
241.708	19.15
241.926	11.78
242.144	15.94
242.363	-7.08
242.581	-33.09
242.799	-14.52
243.017	11.28
243.235	5.84
243.453	-2.2
243.672	4.94
243.89	-6.87
244.108	-4.03
244.326	18.65
244.544	29.64
244.762	24.7
244.98	39.08
245.198	33.12
245.416	20.24
245.634	11.82
245.852	11.28
246.07	26.84
246.288	22.56
246.506	21.77
246.724	27.25
246.942	29.8
247.16	33.36
247.378	50.81
247.596	74.75
247.814	84.38
248.032	60.85
248.25	40.95
248.468	31.53
248.685	22.18
248.903	10.8
249.121	22.21
249.339	20.47
249.557	18.69
249.775	31.25
249.992	41.49
250.21	36.46
250.428	40.35
250.646	47.39
250.863	31.11
251.081	33.83
251.299	33.59
251.517	27.75
251.734	13.81
251.952	24.98
252.17	29.67
252.387	18.12
252.605	22.74
252.823	50.03
253.04	63.13
253.258	62.91
253.475	63
253.693	52.58
253.911	36.55
254.128	10.74
254.346	7.68
254.563	9.78
254.781	3.54
254.998	-9.24
255.216	-30.94
255.433	-73.57
255.651	-80.89
255.868	-73.76
256.086	-55.24
256.303	-29.04
256.521	-12.91
256.738	-10.15
256.956	-6.64
257.173	-15.31
257.39	-1.25
257.608	-3.41
257.825	7.04
258.043	15.12
258.26	18.95
258.477	21.47
258.695	33.83
258.912	25.15
259.129	22.37
259.346	18.71
259.564	0.05
259.781	0.05
259.998	14.98
260.216	21.3
260.433	17.85
260.65	22.05
260.867	10.6
261.084	13.69
261.302	5.84
261.519	23.58
261.736	15.84
261.953	19.58
262.17	18.89
262.387	29.68
262.604	5.29
262.822	15.99
263.039	16.37
263.256	13.63
263.473	0.26
263.69	13.42
263.907	10.04
264.124	4.37
264.341	10.54
264.558	5.65
264.775	5.05
264.992	-2.26
265.209	-22.34
265.426	-46.22
265.643	-20.3
265.86	-30.21
266.077	-15.66
266.294	30.91
266.51	32.45
266.727	28.24
266.944	40.87
267.161	32.14
267.378	34.92
267.595	24.23
267.812	18.27
268.028	8.78
268.245	26.01
268.462	-7.24
268.679	5.97
268.896	20.31
269.112	-6.35
269.329	-21.22
269.546	21.68
269.763	10.41
269.979	-0.64
270.196	22.34
270.413	16.22
270.629	-4.21
270.846	-6.26
271.063	-1.09
271.279	-1.09
271.496	-3.44
271.712	7.2
271.929	18.92
272.146	17.53
272.362	16.05
272.579	16.37
272.795	2.16
273.012	-7
273.228	8.55
273.445	10.9
273.661	12.23
273.878	-0.18
274.094	4.94
274.311	1.8
274.527	-32.62
274.744	-10.1
274.96	8.83
275.177	2.36
275.393	-2.36
275.609	31.23
275.826	25.97
276.042	25.71
276.259	34.44
276.475	41.16
276.691	3.97
276.908	0.71
277.124	0.4
277.34	-21.81
277.557	-37.76
277.773	-22.26
277.989	-6.56
278.205	10.83
278.422	20.66
278.638	30.93
278.854	25.97
279.07	18.47
279.286	0.18
279.503	12.03
279.719	20.66
279.935	10.36
280.151	12.06
280.367	14.73
280.583	-1.56
280.799	-18.31
281.016	-29.88
281.232	-18.82
281.448	-4.67
281.664	-6.44
281.88	5.89
282.096	9.3
282.312	-2.09
282.528	-7
282.744	-4.64
282.96	-5.76
283.176	-4.58
283.392	-28.95
283.608	-10.5
283.824	-16.1
284.04	-57.93
284.256	-31.97
284.471	-3.86
284.687	-6.47
284.903	-3.37
285.119	14.21
285.335	21.5
285.551	21.95
285.767	5.24
285.982	17.05
286.198	3.14
286.414	7.59
286.63	25.74
286.846	44.11
287.061	11.86
287.277	11.6
287.493	-13.29
287.709	-20.05
287.924	-1.83
288.14	23.52
288.356	29.93
288.571	23.26
288.787	23.83
289.003	30.25
289.218	6.52
289.434	1.78
289.65	23.22
289.865	7.57
290.081	4.69
290.296	14.83
290.512	16.09
290.727	13.72
290.943	19.26
291.159	26.47
291.374	2.81
291.59	5.73
291.805	-6.72
292.021	8.09
292.236	-20.15
292.451	7.68
292.667	11.65
292.882	27.42
293.098	17.76
293.313	14.47
293.529	22.44
293.744	4.27
293.959	-8.32
294.175	3.48
294.39	-14.44
294.605	-5.37
294.821	5.29
295.036	4.35
295.251	3.76
295.467	5.67
295.682	9.95
295.897	3.27
296.112	4.56
296.328	5.5
296.543	8.55
296.758	-8.07
296.973	-10.93
297.188	-19.28
297.404	-64.32
297.619	-59.74
297.834	-100.58
298.049	-56.06
298.264	-16.09
298.479	-10.18
298.694	6.9
298.909	20.96
299.125	12.47
299.34	-1.47
299.555	1.54
299.77	32.82
299.985	34.06
300.2	36.84
300.415	38.75
300.63	42.77
300.845	25.44
301.06	31.35
301.275	29.86
301.49	39.73
301.704	28.84
301.919	19.2
302.134	1.61
302.349	-6.58
302.564	-17.01
302.779	-34.07
302.994	-11.57
303.209	-14.06
303.423	-7.95
303.638	-6.65
303.853	-6.06
304.068	-14.28
304.283	2.32
304.497	-19.66
304.712	-6.45
304.927	13.22
305.142	16.04
305.356	18.63
305.571	27.71
305.786	21.69
306	11.83
306.215	-2.51
306.43	-1.97
306.644	3.9
306.859	-5.45
307.074	25.82
307.288	41.13
307.503	49.79
307.717	47.58
307.932	46.38
308.147	24.35
308.361	18.53
308.576	-17.08
308.79	-8.89
309.005	-14.22
309.219	-6.16
309.434	10.87
309.648	18.92
309.863	6.54
310.077	2.58
310.292	21.25
310.506	-5.53
310.72	7.92
310.935	39.73
311.149	48.18
311.364	46.92
311.578	53.18
311.792	50.02
312.007	17.43
312.221	-13.54
312.435	-18.65
312.649	-13.64
312.864	-3.54
313.078	-0.41
313.292	12.17
313.507	31.61
313.721	31.75
313.935	25.63
314.149	33.36
314.363	35.18
314.578	15.4
314.792	-12
315.006	-8.23
315.22	-25.79
315.434	-12.01
315.648	-9.86
315.862	-3.7
316.077	-13.11
316.291	-7.89
316.505	-37.16
316.719	-12.62
316.933	-5
317.147	5.1
317.361	4.5
317.575	8.45
317.789	-0.77
318.003	8.45
318.217	15.4
318.431	28.27
318.645	20.78
318.859	24.87
319.073	23.64
319.287	16.92
319.5	11.82
319.714	12.15
319.928	-0.83
320.142	-5.54
320.356	-2.15
320.57	-3
320.784	8.69
320.997	22.18
321.211	40.34
321.425	49.02
321.639	49.25
321.853	45.21
322.066	41.1
322.28	16.8
322.494	27.09
322.707	22.46
322.921	19.9
323.135	28.36
323.349	34.82
323.562	27.31
323.776	21.6
323.989	27.54
324.203	12.16
324.417	13.63
324.63	2.31
324.844	-0.45
325.057	-27.03
325.271	-12.79
325.485	-19.87
325.698	-8.32
325.912	5.65
326.125	8.83
326.339	10.3
326.552	8.88
326.766	5.55
326.979	2.79
327.193	14.6
327.406	-0.16
327.619	16.66
327.833	9.45
328.046	2.35
328.26	-12.21
328.473	10.36
328.686	-1.02
328.9	5.38
329.113	5.45
329.326	8.22
329.54	2.27
329.753	13.2
329.966	11.96
330.179	11.3
330.393	15.82
330.606	9.8
330.819	-5.05
331.032	4.46
331.246	10.55
331.459	21.65
331.672	21.74
331.885	43.66
332.098	38.9
332.311	21
332.525	12.42
332.738	12.65
332.951	-3.84
333.164	2.02
333.377	18.94
333.59	14.49
333.803	19.18
334.016	24.25
334.229	25.41
334.442	13.2
334.655	21.71
334.868	3
335.081	5.21
335.294	-10.47
335.507	4.78
335.72	-4.37
335.933	5.51
336.146	-8.17
336.359	3.68
336.572	-1.25
336.785	-3.28
336.997	-14.14
337.21	-7.17
337.423	-16.79
337.636	-18.85
337.849	-17.4
338.062	-1.25
338.274	8.52
338.487	-3.6
338.7	-15.37
338.913	-0.87
339.125	-7.81
339.338	-11.78
339.551	1.34
339.763	16.43
339.976	18.61
340.189	18.13
340.402	19.74
340.614	18.91
340.827	20.87
341.039	8.17
341.252	4.54
341.465	5.43
341.677	12.73
341.89	3.8
342.102	22.84
342.315	26.55
342.527	22.33
342.74	7.1
342.952	0.03
343.165	-12.01
343.377	2.43
343.59	-7.85
343.802	1.85
344.015	16.01
344.227	10.76
344.44	-16.36
344.652	-1.98
344.864	-1.31
345.077	-8.05
345.289	3.35
345.502	28.23
345.714	16.56
345.926	16.31
346.139	8.6
346.351	6.25
346.563	8.61
346.775	12.3
346.988	29.95
347.2	30.61
347.412	32.07
347.624	29.14
347.837	41.16
348.049	28.46
348.261	21.76
348.473	1.97
348.685	-6.69
348.897	-14.64
349.11	-0.13
349.322	21.52
349.534	34.06
349.746	47.46
349.958	35.49
350.17	16.89
350.382	-13.59
350.594	-9.65
350.806	-2.53
351.018	11.71
351.23	23.36
351.442	34.51
351.654	27.49
351.866	13.74
352.078	8.16
352.29	2.23
352.502	-1.22
352.714	19.76
352.926	17.78
353.138	28.68
353.35	26.94
353.561	23.79
353.773	15.41
353.985	18.13
354.197	16.22
354.409	14.19
354.621	6.83
354.832	-1.64
355.044	-20.72
355.256	-29.69
355.468	-23.42
355.679	1.21
355.891	19.46
356.103	27.51
356.314	24.47
356.526	26.41
356.738	17.63
356.949	8.76
357.161	35.31
357.373	32.73
357.584	30.34
357.796	39.28
358.008	37.66
358.219	24.41
358.431	23.34
358.642	28.25
358.854	28.01
359.065	28.2
359.277	26.52
359.488	26.72
359.7	18.7
359.911	-0.53
360.123	3.86
360.334	-22.51
360.546	-15.17
360.757	-11.75
360.969	-5.41
361.18	1.99
361.391	20.08
361.603	23.35
361.814	22.16
362.025	32.87
362.237	20.87
362.448	21.84
362.659	18.25
362.871	5.9
363.082	-1.82
363.293	-9.9
363.504	-27.18
363.716	-34.48
363.927	4.62
364.138	-14.6
364.349	-8.07
364.56	-8.3
364.772	12.33
364.983	6.54
365.194	18.42
365.405	19.3
365.616	36.46
365.827	20.05
366.038	24.75
366.25	19.64
366.461	15.13
366.672	5.43
366.883	5.2
367.094	-0.12
367.305	-6.35
367.516	3.5
367.727	3.84
367.938	0.76
368.149	-23.2
368.36	-18.15
368.571	-36.44
368.781	-38.47
368.992	-31.25
369.203	-19.58
369.414	-22.23
369.625	-10.17
369.836	12.28
370.047	18.33
370.258	36.8
370.468	37.17
370.679	28.15
370.89	13.41
371.101	15.27
371.312	9.25
371.522	12.16
371.733	13.95
371.944	1.62
372.155	-1.71
372.365	5.11
372.576	-1.05
372.787	7.43
372.997	17.28
373.208	16.21
373.419	5.23
373.629	9.93
373.84	8.21
374.05	10.55
374.261	8.74
374.472	11.59
374.682	15.63
374.893	16.11
375.103	23.09
375.314	15.97
375.524	19.16
375.735	24.24
375.945	13.38
376.156	4.85
376.366	19.51
376.577	12.74
376.787	12.23
376.997	24.75
377.208	21.08
377.418	8.4
377.629	8.73
377.839	0.83
378.049	-2.15
378.26	-1.43
378.47	6.07
378.68	12.14
378.89	14.05
379.101	9.7
379.311	10.04
379.521	-1.9
379.732	4.14
379.942	0.33
380.152	-2.6
380.362	-0.62
380.572	22.24
380.783	15.58
380.993	17.63
381.203	16.4
381.413	16.91
381.623	10.43
381.833	12.4
382.043	7.9
382.253	14.82
382.463	19.03
382.674	15.22
382.884	17.05
383.094	26.74
383.304	26.14
383.514	24
383.724	24.48
383.934	16.01
384.144	8.89
384.353	13.96
384.563	14.72
384.773	16.53
384.983	14.36
385.193	12.12
385.403	5.1
385.613	7.88
385.823	9.67
386.033	11.81
386.242	12.9
386.452	7.98
386.662	4.78
386.872	0.49
387.082	1.67
387.291	-4.76
387.501	-0.83
387.711	2.11
387.921	3.72
388.13	4.76
388.34	8.45
388.55	6.33
388.759	-4.51
388.969	-5.73
389.179	-3.91
389.388	-1.41
389.598	-5.36
389.807	-3.78
390.017	-4.56
390.227	-6.71
390.436	-4.02
390.646	0.46
390.855	6.24
391.065	8.31
391.274	8.71
391.484	6.54
391.693	4.25
391.903	0.82
392.112	0.73
392.322	-0.57
392.531	-1.76
392.74	0.03
392.95	1.74
393.159	1.5
393.369	2.56
393.578	4.02
393.787	4.94
393.997	5.21
394.206	4.93
394.415	6.1
394.625	5.38
394.834	3.14
395.043	2.05
395.252	3.18
395.462	2.44
395.671	2.49
395.88	4.17
396.089	4.24
396.298	3.31
396.508	3.93
396.717	4.09
396.926	3.18
397.135	3.41
397.344	3.03
397.553	2.22
397.762	3.18
397.971	3.72
398.181	4.05
398.39	4.55
398.599	4.49
398.808	3.73
399.017	4.56
399.226	4.7
399.435	4.43
399.644	4.97
399.853	4.8
400.062	3.81
400.27	3.32
400.479	3.4
400.688	3.19
400.897	3.73
401.106	3.72
401.315	3.92
401.524	4.08
401.733	3.98
401.941	3.4
402.15	3.48
402.359	3.48
402.568	3.72
402.777	4.14
402.985	4.19
403.194	4.26
403.403	4.47
403.612	3.97
403.82	3.42
404.029	3.69
404.238	3.62
404.446	3.5
404.655	3.84
404.864	3.87
405.072	3.78
405.281	3.87
405.489	3.7
405.698	3.72
405.906	4.01
406.115	3.83
406.324	3.89
406.532	4.12
406.741	3.95
406.949	3.9
407.158	4.08
407.366	3.99
407.574	4
407.783	4.08
407.991	3.98
408.2	4.07
408.408	4.01
408.617	3.83
408.825	3.59
409.033	3.54
409.242	3.46
409.45	3.54
409.658	3.47
409.867	3.5
410.075	3.6
410.283	3.44
410.491	3.42
410.7	3.44
410.908	3.44
411.116	3.43
411.324	3.5
411.533	3.47
411.741	3.52
411.949	3.68
412.157	3.58
412.365	3.65
412.573	3.67
412.781	3.59
412.99	3.5
413.198	3.54
413.406	3.54
413.614	3.61
413.822	3.83
414.03	3.85
414.238	3.93
414.446	3.83
414.654	3.6
414.862	3.41
415.07	3.28
415.278	3.27
415.486	3.14
415.694	3.17
415.902	3.07
416.109	3.08
416.317	2.9
416.525	2.94
416.733	3.05
416.941	3.14
417.149	3.11
417.357	3.15
417.564	3.23
417.772	3.28
417.98	3.2
418.188	3.27
418.395	3.07
418.603	2.94
418.811	2.76
419.019	2.9
419.226	3.03
419.434	3.15
419.642	3.09
419.849	3.12
420.057	3.08
420.265	2.87
420.472	2.86
420.68	3.03
420.887	2.96
421.095	3.03
421.302	3.16
421.51	3.08
421.717	3.1
421.925	3.2
422.132	3.07
422.34	2.84
422.547	2.9
422.755	2.9
422.962	2.8
423.17	2.72
423.377	2.9
423.585	3.03
423.792	2.82
423.999	2.87
424.207	2.84
424.414	2.86
424.621	2.85
424.829	2.94
425.036	2.95
425.243	3.09
425.451	3.06
425.658	2.99
425.865	3.04
426.072	3.04
426.28	2.99
426.487	3.05
426.694	2.91
426.901	2.94
427.108	2.98
427.315	2.91
427.523	2.61
427.73	2.64
427.937	2.57
428.144	2.52
428.351	2.54
428.558	2.83
428.765	3
428.972	3.09
429.179	3.07
429.386	3.14
429.593	3.08
429.8	3.04
430.007	3
430.214	3.06
430.421	3.12
430.628	3.14
430.835	3.15
431.042	3.03
431.249	2.92
431.456	2.83
431.662	2.85
431.869	3.02
432.076	3.09
432.283	3.27
432.49	3.27
432.697	3.24
432.903	3.01
433.11	3.18
433.317	3.19
433.524	3.3
433.73	3.3
433.937	3.53
434.144	3.32
434.35	3.15
434.557	3.06
434.764	2.97
434.97	2.8
435.177	2.91
435.384	3.13
435.59	3.14
435.797	3.26
436.003	3.34
436.21	3.33
436.416	3.23
436.623	3.26
436.829	3.23
437.036	3.2
437.242	3.22
437.449	3.28
437.655	3.33
437.862	3.39
438.068	3.39
438.275	3.48
438.481	3.51
438.687	3.46
438.894	3.45
439.1	3.42
439.307	3.46
439.513	3.52
439.719	3.61
439.926	3.69
440.132	3.81
440.338	3.84
440.544	3.72
440.751	3.67
440.957	3.72
441.163	3.53
441.369	3.4
441.575	3.41
441.782	3.49
441.988	3.42
442.194	3.58
442.4	3.65
442.606	3.9
442.812	3.8
443.018	3.82
443.224	3.94
443.431	3.89
443.637	3.7
443.843	3.81
444.049	3.86
444.255	3.81
444.461	3.88
444.667	3.85
444.873	3.87
445.079	3.82
445.284	3.83
445.49	3.8
445.696	3.8
445.902	3.83
446.108	3.94
446.314	3.98
446.52	4.07
446.726	4.1
446.931	4.02
447.137	3.95
447.343	3.92
447.549	3.9
447.755	3.86
447.96	3.95
448.166	3.9
448.372	3.84
448.578	3.75
448.783	3.89
448.989	3.83
449.195	3.9
449.4	3.93
449.606	4
449.812	3.85
450.017	3.91
450.223	3.92
450.428	3.93
450.634	3.89
450.84	3.97
451.045	3.97
451.251	3.97
451.456	4.05
451.662	4.12
451.867	4.16
452.073	4.16
452.278	4.21
452.483	4.2
452.689	4.22
452.894	4.25
453.1	4.23
453.305	4.27
453.51	4.25
453.716	4.22
453.921	4.28
454.127	4.28
454.332	4.13
454.537	4.12
454.742	4.12
454.948	4.06
455.153	4.06
455.358	4.17
455.563	4.32
455.769	4.34
455.974	4.3
456.179	4.28
456.384	4.19
456.589	3.97
456.795	3.99
457	4.11
457.205	4.11
457.41	4.13
457.615	4.19
457.82	4.22
458.025	4.17
458.23	4.21
458.435	4.29
458.64	4.37
458.845	4.43
459.05	4.42
459.255	4.45
459.46	4.41
459.665	4.37
459.87	4.32
460.075	4.39
460.28	4.46
460.485	4.51
460.69	4.53
460.895	4.65
461.099	4.54
461.304	4.45
461.509	4.47
461.714	4.56
461.919	4.42
462.123	4.47
462.328	4.41
462.533	4.33
462.738	4.22
462.942	4.18
463.147	4.27
463.352	4.36
463.556	4.56
463.761	4.57
463.966	4.64
464.17	4.63
464.375	4.7
464.58	4.51
464.784	4.61
464.989	4.68
465.193	4.65
465.398	4.64
465.602	4.87
465.807	4.85
466.011	4.85
466.216	4.81
466.42	4.87
466.625	4.83
466.829	4.82
467.034	4.99
467.238	5.11
467.443	5.04
467.647	5.02
467.851	5.11
468.056	4.95
468.26	4.92
468.464	4.96
468.669	5.01
468.873	4.92
469.077	4.91
