Data from Ofra_PS_T2_1A_9GT30_Reflection_1.txt Node
Date: Wed Jul 21 18:19:23 EDT 2021
User: Adam
Spectrometer: FLMT01687
Trigger mode: 0
Integration Time (sec): 1.100000E0
Scans to average: 2
Electric dark correction enabled: true
Nonlinearity correction enabled: false
Boxcar width: 2
XAxis mode: Wavelengths
Number of Pixels in Spectrum: 3648
>>>>>Begin Spectral Data<<<<<
179.494	493.6
179.716	535.53
179.937	547.58
180.158	502
180.38	810.62
180.601	285.64
180.823	81.59
181.044	-184.36
181.265	49.26
181.486	1.88
181.708	59.82
181.929	871.43
182.15	-981.69
182.372	-12.5
182.593	-62.02
182.814	3.96
183.035	62.96
183.257	63.43
183.478	-38.51
183.699	31.49
183.92	-7.98
184.141	-16.82
184.363	-35.82
184.584	49.36
184.805	12.83
185.026	21.85
185.247	59
185.468	34.69
185.689	7.05
185.91	6.87
186.132	13.69
186.353	-12.88
186.574	27.81
186.795	27.84
187.016	-11.81
187.237	-9.63
187.458	-51.83
187.679	-51.95
187.9	-15.14
188.121	6.86
188.342	7.97
188.563	73.66
188.784	100.73
189.005	99.26
189.226	127.58
189.447	115.34
189.667	-77.67
189.888	-287.19
190.109	-1154.55
190.33	-633.55
190.551	-1073.45
190.772	-297.34
190.993	-211.46
191.214	-183.62
191.434	-165.7
191.655	-55.34
191.876	-61.99
192.097	-151.22
192.318	-225.82
192.538	-246.63
192.759	-194.22
192.98	-106.82
193.201	-10.3
193.421	14.86
193.642	24.02
193.863	25.68
194.083	9.49
194.304	-26.68
194.525	-24.47
194.745	-64.79
194.966	-84.57
195.187	-80.71
195.407	-85.73
195.628	-145.05
195.848	-101.74
196.069	-85.37
196.29	-14.21
196.51	-49.17
196.731	-42.79
196.951	-92.94
197.172	-109.05
197.392	-170.4
197.613	-162.22
197.833	-181.66
198.054	-139.11
198.274	-86.75
198.495	-86.25
198.715	-38.78
198.936	-48.07
199.156	-23.58
199.377	-81.67
199.597	-74.77
199.817	-84.35
200.038	-47.43
200.258	-114.97
200.479	-63.67
200.699	-90.28
200.919	-38.79
201.14	-52.08
201.36	-70.2
201.58	-34.75
201.801	4.23
202.021	-35
202.241	-38.17
202.461	-14.52
202.682	-64.02
202.902	-114.23
203.122	-53.77
203.342	-41.58
203.563	-12.65
203.783	10.62
204.003	-5.24
204.223	6.93
204.443	52.28
204.663	20.76
204.884	43.99
205.104	59.4
205.324	76.95
205.544	67.69
205.764	77.81
205.984	57.35
206.204	56.39
206.424	32.03
206.644	7.14
206.864	1.23
207.084	-19.73
207.304	-13.19
207.525	-116.56
207.745	-71.11
207.964	-23.11
208.184	-50.62
208.404	-95.53
208.624	-86.97
208.844	-95.43
209.064	-343.78
209.284	-326.68
209.504	-123.45
209.724	-23.84
209.944	-10.4
210.164	10.07
210.384	6.27
210.604	-6.97
210.823	-47.65
211.043	-47.97
211.263	-28.45
211.483	-21.39
211.703	-73.99
211.922	-48.49
212.142	-5.9
212.362	8.04
212.582	-14.78
212.801	6.66
213.021	-6.91
213.241	-32.38
213.461	-76.02
213.68	-96.2
213.9	-96.35
214.12	-76.5
214.339	-126.23
214.559	-92.7
214.779	-26.98
214.998	-22.74
215.218	-71.39
215.438	-48.49
215.657	-63.86
215.877	-84.53
216.096	-36
216.316	-2.02
216.535	13.28
216.755	1.52
216.974	-49.78
217.194	-91.17
217.413	-109.15
217.633	-141.38
217.852	-219.58
218.072	-96.92
218.291	-49.89
218.511	-13.95
218.73	-19.83
218.95	-10.55
219.169	-15.21
219.389	-53.46
219.608	-47.58
219.827	-42.66
220.047	-34.16
220.266	-18.72
220.485	-6.58
220.705	6.5
220.924	-19.03
221.143	16.26
221.363	-5.9
221.582	-1.08
221.801	-12.4
222.021	3.27
222.24	-75.14
222.459	-12.05
222.678	-26.74
222.897	-56.65
223.117	-58.43
223.336	-59.02
223.555	-47.49
223.774	-9.03
223.993	-26.36
224.213	22.46
224.432	7.79
224.651	23.39
224.87	-3.06
225.089	8.54
225.308	-11.27
225.527	6.19
225.746	-15.2
225.965	-15.2
226.184	-29.76
226.404	6.72
226.623	-9.25
226.842	7.55
227.061	17.99
227.28	31.52
227.499	30.12
227.718	47.76
227.936	25.65
228.155	37.79
228.374	12.82
228.593	19.75
228.812	1.24
229.031	16.43
229.25	-32.83
229.469	-42.72
229.688	-68.34
229.907	-32.06
230.125	-17.14
230.344	9.77
230.563	33.29
230.782	35.86
231.001	-35.89
231.22	-38.34
231.438	-19.2
231.657	-29.4
231.876	-45.54
232.095	9.75
232.313	4.29
232.532	-22.8
232.751	-16.53
232.969	-20.95
233.188	-52.75
233.407	2.67
233.625	-0.08
233.844	-37.06
234.063	-12.47
234.281	-3.42
234.5	-17.42
234.719	-10.84
234.937	9.27
235.156	3.53
235.374	-2.17
235.593	-12.37
235.811	-24.44
236.03	-31.19
236.249	-66.63
236.467	-43.33
236.686	-26.79
236.904	-14.34
237.123	-21.51
237.341	-6.79
237.559	-5.52
237.778	-12.05
237.996	-29.39
238.215	-9.04
238.433	-26.69
238.652	-62.12
238.87	-64.43
239.088	-49.37
239.307	-57.45
239.525	-54.39
239.743	-60.85
239.962	-48.97
240.18	-62.18
240.398	-101.64
240.617	-107.91
240.835	-82.98
241.053	-84.18
241.271	-23.62
241.49	14.94
241.708	8.6
241.926	-11.68
242.144	14.67
242.363	-57.17
242.581	-81.59
242.799	-10.91
243.017	4.34
243.235	-17.63
243.453	-0.25
243.672	-10.43
243.89	-29.03
244.108	-28.14
244.326	-17.97
244.544	-30.71
244.762	-22.8
244.98	-12.9
245.198	-15.85
245.416	-32.23
245.634	-13.2
245.852	-21.2
246.07	-41.81
246.288	-65.92
246.506	-71.43
246.724	-79.81
246.942	-59.09
247.16	-16.64
247.378	4.37
247.596	22.24
247.814	13.37
248.032	-5.22
248.25	-4.81
248.468	12.84
248.685	15.18
248.903	48.83
249.121	50.7
249.339	28.03
249.557	-6.45
249.775	-3.32
249.992	-65.78
250.21	-67.82
250.428	-56.38
250.646	-74.86
250.863	-93.37
251.081	-60.48
251.299	-62.28
251.517	-56.33
251.734	-41.53
251.952	-39.54
252.17	-32.41
252.387	-16.86
252.605	-26.6
252.823	-12.14
253.04	8.64
253.258	17.84
253.475	4.82
253.693	13.1
253.911	7.58
254.128	7.85
254.346	-7.92
254.563	-25.95
254.781	-37.6
254.998	-44.62
255.216	-60.87
255.433	-51.3
255.651	21.99
255.868	48.95
256.086	73.25
256.303	48.93
256.521	44.51
256.738	9.88
256.956	-27.63
257.173	-63.82
257.39	-71.03
257.608	-109.48
257.825	-24.41
258.043	0.88
258.26	5.09
258.477	43.76
258.695	52.41
258.912	-28.9
259.129	-1.32
259.346	-27.86
259.564	-76.48
259.781	-111.44
259.998	-48.01
260.216	-41.39
260.433	8.12
260.65	23.85
260.867	52.25
261.084	33.5
261.302	17.84
261.519	12.36
261.736	-18.54
261.953	-56.97
262.17	-22.17
262.387	-43.59
262.604	-81.03
262.822	-88.41
263.039	-57.87
263.256	-95.8
263.473	-45.67
263.69	-24.42
263.907	19.09
264.124	29.62
264.341	23.8
264.558	4.97
264.775	10.92
264.992	1.76
265.209	-6.31
265.426	20.44
265.643	35.11
265.86	50.71
266.077	41.59
266.294	32.72
266.51	-9.73
266.727	-46.25
266.944	-55.12
267.161	-39.35
267.378	-45.48
267.595	-19.92
267.812	-26.83
268.028	-50.5
268.245	-60.09
268.462	-45.27
268.679	-57.8
268.896	-12.5
269.112	-5.85
269.329	-0.52
269.546	5.21
269.763	-8
269.979	-10.24
270.196	-9.77
270.413	-38.08
270.629	-45.25
270.846	-33.49
271.063	-34.31
271.279	-39.29
271.496	-30.86
271.712	-25.8
271.929	2.62
272.146	-36.56
272.362	-30.64
272.579	-17.3
272.795	9.64
273.012	-2.45
273.228	19.62
273.445	-3.61
273.661	-25.12
273.878	-58.71
274.094	-42.03
274.311	-60.08
274.527	-0.64
274.744	6.98
274.96	-5.44
275.177	-0.06
275.393	13.43
275.609	-7.52
275.826	23.13
276.042	24.61
276.259	4.05
276.475	7.14
276.691	20.82
276.908	-10.84
277.124	0.86
277.34	6.45
277.557	-3.49
277.773	-17.28
277.989	-12.88
278.205	-11.57
278.422	-3.78
278.638	-4.27
278.854	15.02
279.07	0.72
279.286	-2.58
279.503	-33.5
279.719	-34.42
279.935	-68.64
280.151	-63.95
280.367	-51.36
280.583	-57.27
280.799	-38.3
281.016	-33.29
281.232	6.12
281.448	7.11
281.664	36.73
281.88	-2.76
282.096	12.01
282.312	17.77
282.528	14.95
282.744	-2.67
282.96	18.65
283.176	-1.4
283.392	-9.66
283.608	-1.5
283.824	1.2
284.04	15.02
284.256	17.98
284.471	-0.88
284.687	1.02
284.903	11.88
285.119	36.93
285.335	22.27
285.551	28.62
285.767	7.77
285.982	0.95
286.198	-45.62
286.414	6.2
286.63	18.92
286.846	38
287.061	18.02
287.277	34.52
287.493	3.85
287.709	20.48
287.924	5.12
288.14	28.93
288.356	47.94
288.571	64.77
288.787	36.77
289.003	39.23
289.218	21.26
289.434	-21.46
289.65	-17.61
289.865	-15.35
290.081	-2.14
290.296	11.52
290.512	17.79
290.727	-19.57
290.943	-23.21
291.159	-31.8
291.374	-30.18
291.59	-51.19
291.805	-28.73
292.021	-19.94
292.236	-24.3
292.451	-19.97
292.667	-3.59
292.882	6.32
293.098	5.76
293.313	-2.4
293.529	-13.14
293.744	-32.03
293.959	-33.1
294.175	-30.95
294.39	4.18
294.605	15.51
294.821	40.56
295.036	37.69
295.251	48.51
295.467	3.06
295.682	-24.57
295.897	-94.75
296.112	-96.84
296.328	-95.98
296.543	-95.63
296.758	-79.53
296.973	-14.14
297.188	19.99
297.404	-16.23
297.619	-10.07
297.834	-10.36
298.049	-34.54
298.264	-72.43
298.479	-12.54
298.694	-7.38
298.909	9.47
299.125	15.55
299.34	17.74
299.555	-4.96
299.77	3.03
299.985	-38.23
300.2	-92.62
300.415	-105.43
300.63	-82.16
300.845	-70.59
301.06	-64.89
301.275	-29.88
301.49	-11.83
301.704	-12.54
301.919	-50
302.134	-49.47
302.349	-44.23
302.564	-88.33
302.779	-144.62
302.994	-106.9
303.209	-78.45
303.423	-47.07
303.638	6.14
303.853	-7.39
304.068	1.24
304.283	4.74
304.497	-4.85
304.712	-21.76
304.927	0.24
305.142	-2.94
305.356	-11.51
305.571	-9.12
305.786	-15.35
306	-33.42
306.215	-34.69
306.43	-48.36
306.644	-50.74
306.859	2.35
307.074	11.29
307.288	-7.57
307.503	19.83
307.717	4.11
307.932	-14.07
308.147	-21.09
308.361	-9.81
308.576	-34.07
308.79	-72.41
309.005	-59.21
309.219	-43.61
309.434	-50.7
309.648	-37.03
309.863	-5.4
310.077	-4.99
310.292	-4.03
310.506	3.92
310.72	18.73
310.935	34.31
311.149	32.57
311.364	40.53
311.578	47.4
311.792	33.68
312.007	18.81
312.221	9.1
312.435	16.3
312.649	-8.61
312.864	-31.47
313.078	6.25
313.292	44.73
313.507	2.15
313.721	16.96
313.935	54.64
314.149	14.12
314.363	0.73
314.578	13.9
314.792	18.99
315.006	8.16
315.22	13.86
315.434	5.35
315.648	1.76
315.862	-0.48
316.077	-16.73
316.291	-27.03
316.505	-8.8
316.719	-41.06
316.933	-64.97
317.147	-50.14
317.361	-82.36
317.575	-113.26
317.789	-139.72
318.003	-188.92
318.217	-130.39
318.431	-56.55
318.645	-10.92
318.859	5.36
319.073	25.35
319.287	9.66
319.5	-13.45
319.714	-38.7
319.928	-60.26
320.142	-86.18
320.356	-40.93
320.57	-9.97
320.784	-6.63
320.997	-16.46
321.211	2.03
321.425	-49.59
321.639	-68.39
321.853	-18.87
322.066	6.59
322.28	-5.96
322.494	12.24
322.707	27.17
322.921	0.12
323.135	-10.44
323.349	8.17
323.562	-16.85
323.776	-21.48
323.989	-19.87
324.203	-30.18
324.417	-33.15
324.63	-48.12
324.844	-71.31
325.057	-66.43
325.271	-50.48
325.485	-36.45
325.698	-10.16
325.912	21.47
326.125	-0.05
326.339	6
326.552	-8.6
326.766	-1.43
326.979	-5.48
327.193	40.09
327.406	25.22
327.619	23.4
327.833	25.8
328.046	8.59
328.26	-31.13
328.473	-7.55
328.686	-24.66
328.9	-22.12
329.113	-9.27
329.326	-46.27
329.54	-53.21
329.753	-57.06
329.966	-86.56
330.179	-56.12
330.393	-15.67
330.606	14.31
330.819	23.59
331.032	38.84
331.246	27.75
331.459	42.98
331.672	15.65
331.885	5
332.098	-26.36
332.311	-52
332.525	-101.76
332.738	-82.39
332.951	-51.53
333.164	-29.02
333.377	-0.05
333.59	27.48
333.803	39.28
334.016	30.96
334.229	35.61
334.442	33.74
334.655	40.13
334.868	19.25
335.081	26.95
335.294	29.54
335.507	19.09
335.72	6.56
335.933	-5.01
336.146	-8.24
336.359	-20.28
336.572	-47.46
336.785	-71.67
336.997	-48.91
337.21	-26.24
337.423	-18.36
337.636	-8.68
337.849	15.48
338.062	-6.86
338.274	-8.64
338.487	-21.09
338.7	-32.68
338.913	-83.13
339.125	-83.11
339.338	-142.26
339.551	-121.11
339.763	-71.06
339.976	-19.49
340.189	-3.66
340.402	-0.63
340.614	-5.24
340.827	-2.77
341.039	-39.64
341.252	-44.66
341.465	-13.7
341.677	-16.27
341.89	-64.27
342.102	-29.42
342.315	-40.84
342.527	-88.83
342.74	-76.65
342.952	-33.64
343.165	-27.94
343.377	0.57
343.59	12.99
343.802	28.36
344.015	34.98
344.227	44.99
344.44	27.75
344.652	18.78
344.864	13.43
345.077	22.48
345.289	20.16
345.502	19.89
345.714	10.66
345.926	6.14
346.139	-0.04
346.351	9.92
346.563	19.31
346.775	25.35
346.988	21.82
347.2	-0.37
347.412	-51.96
347.624	-71.69
347.837	-74.23
348.049	-50.24
348.261	-3.35
348.473	18.57
348.685	23.84
348.897	20.02
349.11	-6.91
349.322	-42.28
349.534	-23.26
349.746	0.8
349.958	-6.75
350.17	-3.5
350.382	12.06
350.594	-1.62
350.806	-11.49
351.018	-9.81
351.23	-23.87
351.442	-61.3
351.654	-69.51
351.866	-62.76
352.078	-41.06
352.29	-4.49
352.502	16.1
352.714	23.65
352.926	25
353.138	11.27
353.35	-4.06
353.561	-13.66
353.773	-28.67
353.985	-28.03
354.197	-38.16
354.409	-34.47
354.621	-46.9
354.832	-25.91
355.044	-33.61
355.256	-18.12
355.468	-7.9
355.679	4.38
355.891	0.1
356.103	0.11
356.314	-5.65
356.526	-1.51
356.738	0.3
356.949	-8.44
357.161	4.03
357.373	3.97
357.584	-8.82
357.796	-2.26
358.008	5.27
358.219	5.23
358.431	0.09
358.642	14.19
358.854	11.09
359.065	-13.03
359.277	-45.06
359.488	-46.65
359.7	-64.23
359.911	-70.16
360.123	-34.91
360.334	-21.8
360.546	-38.15
360.757	-46.9
360.969	-32.24
361.18	-51.27
361.391	-32.26
361.603	-16.05
361.814	-16.77
362.025	-27.35
362.237	-27.67
362.448	-25.88
362.659	-13.13
362.871	-10.89
363.082	-14.73
363.293	-7.68
363.504	-12.52
363.716	-27.63
363.927	-39.09
364.138	-43.83
364.349	-56.71
364.56	-53.41
364.772	-42.84
364.983	-14.42
365.194	-10.4
365.405	7.04
365.616	25.86
365.827	16.88
366.038	-10.07
366.25	-20.72
366.461	-55.62
366.672	-41.38
366.883	-16.38
367.094	-5.23
367.305	-6.57
367.516	0.31
367.727	-24.68
367.938	-28.02
368.149	-21.71
368.36	-4.99
368.571	3.85
368.781	-5.67
368.992	-21.24
369.203	-48.1
369.414	-83.64
369.625	-93.84
369.836	-89.08
370.047	-115.84
370.258	-71.62
370.468	-48.44
370.679	-57.62
370.89	-50.56
371.101	-27.48
371.312	-38.25
371.522	-39.26
371.733	-29.37
371.944	-19.6
372.155	-9.12
372.365	-23.08
372.576	-26.99
372.787	-28.67
372.997	-58.81
373.208	-59.64
373.419	-26.54
373.629	-59.02
373.84	-69.32
374.05	-73.32
374.261	-75.1
374.472	-84.34
374.682	-23.71
374.893	-17.59
375.103	18.9
375.314	20.47
375.524	13.81
375.735	14.05
375.945	25.29
376.156	3.29
376.366	2.83
376.577	3.39
376.787	-8.17
376.997	-9.86
377.208	-11.94
377.418	-27.47
377.629	-24.87
377.839	-18.44
378.049	-16.28
378.26	2.34
378.47	16.08
378.68	15.29
378.89	6.21
379.101	3.08
379.311	-25.96
379.521	-43.76
379.732	-42.82
379.942	-34.1
380.152	-51.2
380.362	-15.63
380.572	-18.6
380.783	-7.91
380.993	-0.59
381.203	17.49
381.413	6.47
381.623	14.71
381.833	5.89
382.043	-0.87
382.253	-15.47
382.463	-1.42
382.674	-10.08
382.884	-26.2
383.094	-25.41
383.304	-15.72
383.514	-19.36
383.724	-7.49
383.934	-2
384.144	-13.72
384.353	-23.24
384.563	-23.98
384.773	-19.44
384.983	-25.89
385.193	-7.47
385.403	-0.72
385.613	1.19
385.823	-11.03
386.033	-3.21
386.242	-6.5
386.452	-9.69
386.662	-20.25
386.872	-7.06
387.082	-11.75
387.291	-18.6
387.501	-18.95
387.711	-8.8
387.921	-18.35
388.13	-12.16
388.34	-1.52
388.55	-1.96
388.759	0.7
388.969	6.77
389.179	3.55
389.388	1.7
389.598	4.15
389.807	-2.95
390.017	-8.96
390.227	-10.04
390.436	-13.22
390.646	-13.65
390.855	-9.96
391.065	-5.47
391.274	-6.04
391.484	-3.68
391.693	-3.3
391.903	-2.09
392.112	2.19
392.322	4.92
392.531	5.88
392.74	6.95
392.95	2.66
393.159	-0.25
393.369	0.69
393.578	0.69
393.787	-0.98
393.997	2.13
394.206	0.76
394.415	0.76
394.625	0.15
394.834	-1.02
395.043	-0.95
395.252	1.29
395.462	2.71
395.671	2.98
395.88	5.22
396.089	5.75
396.298	4.17
396.508	4.36
396.717	5.08
396.926	5.51
397.135	4.24
397.344	4.53
397.553	5.22
397.762	6.22
397.971	5.61
398.181	6.31
398.39	6.26
398.599	5.08
398.808	4.27
399.017	4.68
399.226	5.42
399.435	6.03
399.644	6.47
399.853	5.87
400.062	6.14
400.27	5.52
400.479	5.11
400.688	4.33
400.897	4.35
401.106	3.91
401.315	3.98
401.524	3.92
401.733	4.18
401.941	4.76
402.15	5.19
402.359	5.02
402.568	5.48
402.777	5.64
402.985	5.29
403.194	5.05
403.403	5.14
403.612	4.52
403.82	4.41
404.029	4.55
404.238	4.33
404.446	4.59
404.655	4.63
404.864	4.47
405.072	4.36
405.281	4.49
405.489	4.1
405.698	4.34
405.906	4.5
406.115	4.49
406.324	4.47
406.532	4.68
406.741	4.83
406.949	4.71
407.158	4.72
407.366	4.65
407.574	4.64
407.783	4.53
407.991	4.57
408.2	4.7
408.408	4.8
408.617	4.67
408.825	4.45
409.033	4.53
409.242	4.54
409.45	4.44
409.658	4.39
409.867	4.59
410.075	4.53
410.283	4.3
410.491	4.34
410.7	4.36
410.908	4.43
411.116	4.6
411.324	4.63
411.533	4.59
411.741	4.75
411.949	4.59
412.157	4.27
412.365	4.29
412.573	4.33
412.781	4.28
412.99	4.25
413.198	4.54
413.406	4.62
413.614	4.56
413.822	4.48
414.03	4.43
414.238	4.1
414.446	4
414.654	3.79
414.862	3.77
415.07	3.83
415.278	4.08
415.486	3.94
415.694	4.01
415.902	3.91
416.109	3.8
416.317	3.74
416.525	3.68
416.733	3.81
416.941	4.04
417.149	4.11
417.357	4.08
417.564	4.31
417.772	4.49
417.98	4.32
418.188	4.26
418.395	4.38
418.603	4.43
418.811	3.94
419.019	3.94
419.226	4.1
419.434	3.95
419.642	3.65
419.849	3.86
420.057	3.84
420.265	3.79
420.472	3.76
420.68	3.95
420.887	3.92
421.095	4.03
421.302	3.96
421.51	4.04
421.717	4.05
421.925	4.13
422.132	3.93
422.34	3.65
422.547	3.61
422.755	3.49
422.962	3.25
423.17	3.14
423.377	3.36
423.585	3.32
423.792	3.36
423.999	3.52
424.207	3.67
424.414	3.69
424.621	3.68
424.829	3.75
425.036	3.71
425.243	3.86
425.451	3.77
425.658	3.6
425.865	3.7
426.072	3.65
426.28	3.87
426.487	3.83
426.694	3.91
426.901	3.7
427.108	3.64
427.315	3.4
427.523	3.69
427.73	3.71
427.937	3.7
428.144	3.72
428.351	3.62
428.558	3.69
428.765	3.61
428.972	3.56
429.179	3.71
429.386	3.96
429.593	3.66
429.8	3.68
430.007	3.86
430.214	3.89
430.421	3.63
430.628	3.62
430.835	3.66
431.042	3.63
431.249	3.69
431.456	3.72
431.662	3.78
431.869	3.93
432.076	4
432.283	4.07
432.49	4.17
432.697	4.19
432.903	4.04
433.11	4
433.317	4.05
433.524	4.17
433.73	4.14
433.937	4.29
434.144	4.24
434.35	4.13
434.557	4.02
434.764	4.04
434.97	3.96
435.177	4.15
435.384	4.04
435.59	4.04
435.797	4.32
436.003	4.48
436.21	4.35
436.416	4.58
436.623	4.61
436.829	4.5
437.036	4.54
437.242	4.65
437.449	4.52
437.655	4.59
437.862	4.57
438.068	4.47
438.275	4.54
438.481	4.8
438.687	4.81
438.894	4.78
439.1	4.72
439.307	4.74
439.513	4.61
439.719	4.52
439.926	4.55
440.132	4.6
440.338	4.57
440.544	4.69
440.751	4.75
440.957	4.82
441.163	4.79
441.369	4.83
441.575	4.55
441.782	4.52
441.988	4.46
442.194	4.49
442.4	4.44
442.606	4.78
442.812	4.9
443.018	4.96
443.224	5
443.431	5.12
443.637	4.94
443.843	4.77
444.049	4.76
444.255	4.82
444.461	4.85
444.667	4.8
444.873	5
445.079	5.07
445.284	5.11
445.49	4.84
445.696	4.78
445.902	4.7
446.108	4.67
446.314	4.6
446.52	4.78
446.726	5.04
446.931	5.07
447.137	4.97
447.343	4.97
447.549	4.9
447.755	4.73
447.96	4.75
448.166	4.83
448.372	4.82
448.578	4.86
448.783	4.9
448.989	5.01
449.195	5.17
449.4	5.21
449.606	5.23
449.812	5.14
450.017	5.13
450.223	5.07
450.428	5.03
450.634	5.09
450.84	5.28
451.045	5.21
451.251	5.06
451.456	5.29
451.662	5.31
451.867	5.33
452.073	5.29
452.278	5.43
452.483	5.48
452.689	5.33
452.894	5.28
453.1	5.33
453.305	5.32
453.51	5.17
453.716	5.23
453.921	5.28
454.127	5.31
454.332	5.21
454.537	5.17
454.742	5.18
454.948	5.16
455.153	5.1
455.358	5.17
455.563	5.37
455.769	5.49
455.974	5.44
456.179	5.29
456.384	5.28
456.589	5.11
456.795	4.89
457	4.8
457.205	5.12
457.41	5.16
457.615	5.14
457.82	5.3
458.025	5.39
458.23	5.24
458.435	5.19
458.64	5.14
458.845	5.22
459.05	5.18
459.255	5.2
459.46	5.27
459.665	5.3
459.87	5.15
460.075	5.15
460.28	5.23
460.485	5.34
460.69	5.36
460.895	5.36
461.099	5.39
461.304	5.45
