Data from Ofra_PS_T2_2A_9GT47_Reflection_2.txt Node
Date: Wed Jul 21 17:27:12 EDT 2021
User: Adam
Spectrometer: FLMT01687
Trigger mode: 0
Integration Time (sec): 1.100000E0
Scans to average: 2
Electric dark correction enabled: true
Nonlinearity correction enabled: false
Boxcar width: 2
XAxis mode: Wavelengths
Number of Pixels in Spectrum: 3648
>>>>>Begin Spectral Data<<<<<
179.494	728.6
179.716	766.82
179.937	702.77
180.158	668.19
180.38	997.34
180.601	104.28
180.823	-0.06
181.044	-223.34
181.265	-205.33
181.486	-50.74
181.708	94.17
181.929	1138.27
182.15	-886.97
182.372	16.3
182.593	-89.81
182.814	-31.97
183.035	11.52
183.257	18.32
183.478	-92.5
183.699	18.21
183.92	-30.88
184.141	5.08
184.363	-66.73
184.584	-17.62
184.805	-35.7
185.026	28.27
185.247	36.43
185.468	40.89
185.689	29.05
185.91	30.57
186.132	14.36
186.353	-5.26
186.574	17.4
186.795	34.94
187.016	-15.9
187.237	-20.72
187.458	-54.51
187.679	-41.15
187.9	-40.27
188.121	-21.66
188.342	-1.18
188.563	56.31
188.784	86.63
189.005	109.46
189.226	175.28
189.447	122.24
189.667	1.58
189.888	-223.03
190.109	-1172.4
190.33	-793.39
190.551	-1128.1
190.772	-217.86
190.993	-158.89
191.214	-119.81
191.434	-53.93
191.655	-6.23
191.876	-54.31
192.097	-125.31
192.318	-208.35
192.538	-410.78
192.759	-230.14
192.98	-89.86
193.201	-43.36
193.421	-22.04
193.642	18.28
193.863	16.63
194.083	-17.15
194.304	-20.58
194.525	-17.68
194.745	-27.28
194.966	-57.69
195.187	-61.68
195.407	-102.99
195.628	-148.41
195.848	-156.13
196.069	-138.88
196.29	-69.14
196.51	-46.36
196.731	-41.76
196.951	-69.76
197.172	-106.33
197.392	-143.57
197.613	-176.42
197.833	-196.91
198.054	-137.8
198.274	-69.65
198.495	-94.45
198.715	-40.29
198.936	-63.67
199.156	-69.64
199.377	-187.33
199.597	-177.8
199.817	-213.32
200.038	-126.59
200.258	-212.15
200.479	-110.56
200.699	-114.97
200.919	-16.98
201.14	-39.81
201.36	-38.29
201.58	5.4
201.801	42.67
202.021	13.88
202.241	8.84
202.461	6.96
202.682	-83.4
202.902	-171.91
203.122	-123.61
203.342	-90.16
203.563	-36.5
203.783	-6.97
204.003	-42.92
204.223	-40.91
204.443	17.86
204.663	-14.65
204.884	-8.29
205.104	59.23
205.324	71.08
205.544	80.81
205.764	91.88
205.984	112.76
206.204	80.2
206.424	69.97
206.644	36.42
206.864	20.62
207.084	-45.81
207.304	-35.52
207.525	-104.92
207.745	-61.3
207.964	-11.84
208.184	-57.04
208.404	-69.72
208.624	-89.95
208.844	-73.94
209.064	-335.89
209.284	-319.37
209.504	-197.51
209.724	-56.53
209.944	-27.1
210.164	22.5
210.384	25.18
210.604	27.19
210.823	-3.38
211.043	-14.42
211.263	-19.26
211.483	-8.06
211.703	-67.73
211.922	-31.32
212.142	24.46
212.362	38.02
212.582	15.73
212.801	40.2
213.021	-4.9
213.241	-36.81
213.461	-64.71
213.68	-81.82
213.9	-56.04
214.12	-19.79
214.339	-95.15
214.559	-87.59
214.779	-36.9
214.998	-44.63
215.218	-89.98
215.438	-43.88
215.657	-38.52
215.877	-51.98
216.096	-4.61
216.316	8.45
216.535	1.19
216.755	7.98
216.974	-41.33
217.194	-138.64
217.413	-133.73
217.633	-117.2
217.852	-210.12
218.072	-80.41
218.291	-21.13
218.511	24.46
218.73	13.83
218.95	4.94
219.169	9.27
219.389	-44.21
219.608	-40.23
219.827	-33.7
220.047	-28.61
220.266	-26.6
220.485	-13.01
220.705	-13.78
220.924	-37.53
221.143	3.63
221.363	-27.88
221.582	-4.07
221.801	10.46
222.021	21.12
222.24	-28.04
222.459	58.39
222.678	4.91
222.897	-101.54
223.117	-128.24
223.336	-120.06
223.555	-82.86
223.774	-29.9
223.993	0.83
224.213	85.74
224.432	72.83
224.651	80.54
224.87	40.13
225.089	45.06
225.308	22.09
225.527	41.34
225.746	14.97
225.965	14.77
226.184	-6.36
226.404	2.72
226.623	-45.14
226.842	-19.93
227.061	16.56
227.28	18.78
227.499	10.07
227.718	36.46
227.936	19.68
228.155	13.71
228.374	10.29
228.593	12.37
228.812	16.81
229.031	15.27
229.25	-38.38
229.469	-38.83
229.688	-25.23
229.907	3.22
230.125	20.77
230.344	36.11
230.563	42.1
230.782	41.43
231.001	-46.49
231.22	-48.74
231.438	-32.89
231.657	-22.93
231.876	-25.34
232.095	30.61
232.313	42.76
232.532	46
232.751	44.34
232.969	30.41
233.188	18.07
233.407	60.38
233.625	49.15
233.844	17.98
234.063	27.9
234.281	19.62
234.5	-5.83
234.719	-10.96
234.937	20.41
235.156	17.12
235.374	14.28
235.593	6.17
235.811	-12.04
236.03	-22.55
236.249	-56.16
236.467	-22.03
236.686	2.7
236.904	22.29
237.123	-8.83
237.341	-5.41
237.559	-3.46
237.778	-26.48
237.996	-56.6
238.215	0.78
238.433	-1.12
238.652	-7.5
238.87	-11.69
239.088	-1.07
239.307	-4.27
239.525	-0.67
239.743	-17.13
239.962	-8
240.18	-36.26
240.398	-94.56
240.617	-96.45
240.835	-94.24
241.053	-56.6
241.271	23.54
241.49	59.19
241.708	52.56
241.926	87.84
242.144	34.1
242.363	-57.05
242.581	-118.04
242.799	-59.22
243.017	-48.11
243.235	-53.47
243.453	-33.08
243.672	-10.54
243.89	-5.33
244.108	-19.43
244.326	9.53
244.544	16.78
244.762	3.29
244.98	3.87
245.198	13.1
245.416	-36.19
245.634	-25.83
245.852	-32.62
246.07	-55.98
246.288	-57.22
246.506	-69.11
246.724	-55.45
246.942	-32.45
247.16	12.39
247.378	26.26
247.596	60.06
247.814	34.63
248.032	4.72
248.25	-19.14
248.468	-14.08
248.685	-22.96
248.903	18.43
249.121	14.08
249.339	-10.04
249.557	-16.93
249.775	1.56
249.992	-76.06
250.21	-64.41
250.428	-31.98
250.646	-60.19
250.863	-87.36
251.081	-42.52
251.299	-36.82
251.517	-42.15
251.734	-13.26
251.952	-24.52
252.17	-21.66
252.387	2.7
252.605	-8.88
252.823	2.2
253.04	23.53
253.258	46.56
253.475	29.6
253.693	64.03
253.911	46.76
254.128	39.38
254.346	31.84
254.563	20.95
254.781	-12.91
254.998	-28.36
255.216	-40.07
255.433	-28.68
255.651	17.36
255.868	55.38
256.086	94.1
256.303	96.88
256.521	70.42
256.738	29.32
256.956	-23.77
257.173	-74.65
257.39	-87.11
257.608	-128.51
257.825	-67.3
258.043	-10.54
258.26	-0.4
258.477	38.95
258.695	40.98
258.912	9.01
259.129	18.31
259.346	-22.42
259.564	-62.96
259.781	-73.82
259.998	-31.57
260.216	-28.67
260.433	16.79
260.65	17.62
260.867	33.54
261.084	8.3
261.302	-9.83
261.519	-11.63
261.736	-35.77
261.953	-55.24
262.17	-14.28
262.387	-40.28
262.604	-77.31
262.822	-77.36
263.039	-76.59
263.256	-143.84
263.473	-95.04
263.69	-63.33
263.907	-10.02
264.124	-0.87
264.341	21.2
264.558	12.2
264.775	40.63
264.992	17.31
265.209	33.14
265.426	52.12
265.643	56.91
265.86	66.04
266.077	83.34
266.294	71.13
266.51	16.7
266.727	-7.72
266.944	-3.79
267.161	-23.55
267.378	-18.28
267.595	13.25
267.812	-12.2
268.028	-47.66
268.245	-20.15
268.462	-36.56
268.679	-53.87
268.896	11.59
269.112	28.05
269.329	18.72
269.546	30.52
269.763	27.13
269.979	8.68
270.196	-3.91
270.413	-19.88
270.629	-33.97
270.846	-39.56
271.063	-33.41
271.279	-54.75
271.496	-45.31
271.712	-7.95
271.929	9.34
272.146	2.42
272.362	19.66
272.579	44.95
272.795	35.49
273.012	39.01
273.228	50.74
273.445	11.79
273.661	-20.64
273.878	-64.68
274.094	-62.56
274.311	-88.72
274.527	-6.92
274.744	-8.93
274.96	-1.18
275.177	3.81
275.393	20.08
275.609	14.92
275.826	40.67
276.042	25.37
276.259	15.52
276.475	11.52
276.691	23.75
276.908	-7.33
277.124	11.13
277.34	11.73
277.557	12.6
277.773	-14.53
277.989	-15.51
278.205	-17.59
278.422	7.93
278.638	12.52
278.854	26.57
279.07	41.56
279.286	22.85
279.503	-24.29
279.719	-30.46
279.935	-47.24
280.151	-75.84
280.367	-35.57
280.583	-49.78
280.799	-55.49
281.016	-87.2
281.232	-43.68
281.448	-55.72
281.664	-21.65
281.88	-64.02
282.096	-25.97
282.312	-2.92
282.528	19.99
282.744	6.73
282.96	38.09
283.176	20.63
283.392	5.69
283.608	-4.06
283.824	-8.29
284.04	-16.83
284.256	0.53
284.471	-1.81
284.687	-5.19
284.903	29.2
285.119	68.72
285.335	28.15
285.551	31.01
285.767	20.44
285.982	12.78
286.198	-20.43
286.414	49.14
286.63	54.79
286.846	73.49
287.061	39.53
287.277	64.66
287.493	30.76
287.709	51.58
287.924	22.73
288.14	60.93
288.356	34.78
288.571	57.58
288.787	21.72
289.003	25.2
289.218	-2.5
289.434	-38.61
289.65	-35.63
289.865	-31.98
290.081	-3.87
290.296	27.72
290.512	48.93
290.727	16.21
290.943	14.7
291.159	-13.33
291.374	-24.34
291.59	-46.53
291.805	-43.98
292.021	-35.81
292.236	-33.17
292.451	-17.57
292.667	-7.36
292.882	15.15
293.098	4.33
293.313	-10.43
293.529	-47.57
293.744	-67.17
293.959	-79.66
294.175	-69.3
294.39	-19.18
294.605	7.13
294.821	30.72
295.036	40.83
295.251	49.3
295.467	15.7
295.682	-4.81
295.897	-50.58
296.112	-66.77
296.328	-60.52
296.543	-67.18
296.758	-41.46
296.973	15.46
297.188	53.3
297.404	19.52
297.619	9.83
297.834	-19.49
298.049	-34.87
298.264	-80.17
298.479	-10.37
298.694	-0.96
298.909	21.77
299.125	18.47
299.34	30.29
299.555	-2.96
299.77	5.82
299.985	-31.73
300.2	-88.97
300.415	-117.71
300.63	-68.65
300.845	-78.23
301.06	-75.71
301.275	-35.01
301.49	-8.06
301.704	-23.99
301.919	-32.77
302.134	-39.87
302.349	-46.64
302.564	-119.46
302.779	-186.28
302.994	-163.13
303.209	-123
303.423	-78.68
303.638	8.59
303.853	-3.65
304.068	-21.66
304.283	-14.87
304.497	-11.35
304.712	-32.21
304.927	-10.33
305.142	-9.9
305.356	6.67
305.571	-8.57
305.786	-17.44
306	-43.81
306.215	-31.27
306.43	-64.9
306.644	-39.07
306.859	14.76
307.074	30.91
307.288	0.02
307.503	3.6
307.717	-31.5
307.932	-42.92
308.147	-52.56
308.361	-20.39
308.576	-31.69
308.79	-71.49
309.005	-55.78
309.219	-33.15
309.434	-46.61
309.648	-47.62
309.863	-12.57
310.077	-18.83
310.292	-17.29
310.506	-23.66
310.72	-2.19
310.935	28.6
311.149	28.26
311.364	41.25
311.578	57.64
311.792	54.71
312.007	39.87
312.221	15.16
312.435	15.12
312.649	-5.43
312.864	3.51
313.078	-5.63
313.292	83.07
313.507	32.54
313.721	15.09
313.935	23.72
314.149	13.82
314.363	-9.87
314.578	5.82
314.792	20.58
315.006	-2.72
315.22	17.92
315.434	16.21
315.648	9.29
315.862	-2.74
316.077	10.98
316.291	-7.13
316.505	0.02
316.719	11.08
316.933	-15.23
317.147	-25.27
317.361	-68.62
317.575	-73.13
317.789	-99.23
318.003	-101.62
318.217	-60.64
318.431	6.07
318.645	29.69
318.859	24.91
319.073	41.88
319.287	16.79
319.5	-10.96
319.714	-59.77
319.928	-92.08
320.142	-124.59
320.356	-43.48
320.57	-8.82
320.784	-10.85
320.997	-8.48
321.211	2.76
321.425	-82.48
321.639	-113.99
321.853	-40.72
322.066	-22.73
322.28	-35.25
322.494	-21.52
322.707	8.15
322.921	-22.86
323.135	-21.07
323.349	15.32
323.562	-8.85
323.776	-36.08
323.989	-17.98
324.203	-39.81
324.417	-61.69
324.63	-66
324.844	-48.02
325.057	-57.55
325.271	-23.64
325.485	5.6
325.698	32.91
325.912	42.34
326.125	19.45
326.339	14.09
326.552	-12.29
326.766	-12.3
326.979	-6.76
327.193	34.68
327.406	22.17
327.619	6.42
327.833	10.03
328.046	-18.05
328.26	-58.09
328.473	-26.48
328.686	-53.9
328.9	-36.13
329.113	-11.99
329.326	-23.08
329.54	-24.03
329.753	-12.89
329.966	-44.66
330.179	-29.08
330.393	-2.91
330.606	4.34
330.819	21.49
331.032	30.41
331.246	34.86
331.459	51.98
331.672	37.04
331.885	18
332.098	-15.65
332.311	-30.23
332.525	-86.77
332.738	-77.38
332.951	-35.96
333.164	7.21
333.377	15.1
333.59	35.5
333.803	36.8
334.016	30.28
334.229	19.92
334.442	16.92
334.655	25.04
334.868	37
335.081	30.07
335.294	17.99
335.507	10.96
335.72	4.31
335.933	-24.57
336.146	-28.14
336.359	3.02
336.572	-33.54
336.785	-66.14
336.997	-46.06
337.21	-31.73
337.423	-49.49
337.636	-46.06
337.849	-13.35
338.062	-10.56
338.274	-6.47
338.487	-18.19
338.7	-10.45
338.913	-42.52
339.125	-69.21
339.338	-134.02
339.551	-97.81
339.763	-32.87
339.976	-10.65
340.189	11.6
340.402	41.41
340.614	30.6
340.827	0.65
341.039	-12.61
341.252	-11.04
341.465	4.4
341.677	-4.13
341.89	-25.16
342.102	8.35
342.315	2.45
342.527	-37.98
342.74	-16.73
342.952	30.28
343.165	19.79
343.377	31.66
343.59	27.65
343.802	37.61
344.015	15.75
344.227	19.25
344.44	13.84
344.652	22.01
344.864	1.85
345.077	27.96
345.289	26.29
345.502	30.58
345.714	22.2
345.926	33.98
346.139	20.75
346.351	29.21
346.563	37.28
346.775	35.67
346.988	8.18
347.2	-8.36
347.412	-66.44
347.624	-94.12
347.837	-105.02
348.049	-80.8
348.261	-46.74
348.473	-26.63
348.685	-35.07
348.897	-24.26
349.11	-27.06
349.322	-40.1
349.534	-6.41
349.746	-1.95
349.958	-8.21
350.17	-12.32
350.382	-4.14
350.594	-12.3
350.806	2.48
351.018	23.96
351.23	14.74
351.442	-11.15
351.654	-27.42
351.866	-34.35
352.078	-39.06
352.29	-2.38
352.502	20.57
352.714	32.55
352.926	9.54
353.138	1.13
353.35	-15.81
353.561	-22.32
353.773	-41.99
353.985	-11.8
354.197	-17.82
354.409	-7.68
354.621	-20.6
354.832	-12.8
355.044	-28.4
355.256	-28.69
355.468	-22.08
355.679	-13.14
355.891	-12.44
356.103	-27.72
356.314	-15.43
356.526	-23.01
356.738	-17.69
356.949	-32.43
357.161	-3.72
357.373	-9.98
357.584	-26.76
357.796	-18.51
358.008	-15.67
358.219	0.69
358.431	-3.22
358.642	15.61
358.854	14.38
359.065	10.15
359.277	-30.84
359.488	-30.32
359.7	-44.67
359.911	-75.93
360.123	-52.58
360.334	-55.74
360.546	-74.53
360.757	-68.07
360.969	-36.87
361.18	-24.42
361.391	4.64
361.603	0.55
361.814	11.03
362.025	0.7
362.237	1.38
362.448	11.47
362.659	33.36
362.871	18.4
363.082	16.54
363.293	12.73
363.504	-5.64
363.716	-34.99
363.927	-45.93
364.138	-58.64
364.349	-77.97
364.56	-74.31
364.772	-62.93
364.983	-31
365.194	-21.08
365.405	-3.58
365.616	15.97
365.827	20.79
366.038	0.01
366.25	-6.01
366.461	-37.76
366.672	-10.23
366.883	7.95
367.094	16.73
367.305	-0.72
367.516	11.13
367.727	-25.86
367.938	-39.36
368.149	-44.34
368.36	-12.36
368.571	-1.94
368.781	-13.33
368.992	-32.9
369.203	-50.32
369.414	-78.49
369.625	-97.71
369.836	-90.23
370.047	-107.9
370.258	-79.83
370.468	-83.36
370.679	-92.34
370.89	-67.8
371.101	-28.65
371.312	-37.63
371.522	-22.39
371.733	-15.06
371.944	-12.58
372.155	-11.06
372.365	-10.08
372.576	-0.25
372.787	-1.47
372.997	-27.36
373.208	-34.35
373.419	-9.43
373.629	-47.28
373.84	-41.03
374.05	-40.69
374.261	-31.59
374.472	-56.86
374.682	-9.81
374.893	-7.38
375.103	29.12
375.314	25.88
375.524	22.02
375.735	23.42
375.945	21.69
376.156	-4.99
376.366	-6.87
376.577	1.84
376.787	-8.47
376.997	-19.37
377.208	-19.86
377.418	-32.2
377.629	-15.72
377.839	-19.21
378.049	-7.19
378.26	7.5
378.47	14.18
378.68	2.38
378.89	4.14
379.101	-1.55
379.311	-25.3
379.521	-47.29
379.732	-47.17
379.942	-51.77
380.152	-64.04
380.362	-26.56
380.572	-19.22
380.783	-11.58
380.993	4.88
381.203	16.97
381.413	27.18
381.623	23.61
381.833	25.8
382.043	4.08
382.253	-2.39
382.463	-11.91
382.674	-21.08
382.884	-46.08
383.094	-43.24
383.304	-34.28
383.514	-23.81
383.724	-7.79
383.934	-9.34
384.144	-13.42
384.353	-16.65
384.563	-23.49
384.773	-22.99
384.983	-21.36
385.193	1.23
385.403	-2.38
385.613	-3.26
385.823	-9.97
386.033	-2.24
386.242	-16.9
386.452	-16.06
386.662	-21.24
386.872	-4.02
387.082	-8.65
387.291	-13.89
387.501	-12.48
387.711	-8.84
387.921	-26.99
388.13	-25.28
388.34	-8.14
388.55	-14.04
388.759	-13.79
388.969	-1.21
389.179	-2.12
389.388	-8.8
389.598	2.63
389.807	-6.07
390.017	-15.89
390.227	-12.28
390.436	-7.52
390.646	-10.99
390.855	-3.52
391.065	0.4
391.274	-0.45
391.484	-5.38
391.693	-1.74
391.903	-3.81
392.112	0.41
392.322	1.2
392.531	4.76
392.74	5.04
392.95	3.78
393.159	0.97
393.369	0.84
393.578	-0.46
393.787	-2.79
393.997	-2.86
394.206	-4.63
394.415	-4.06
394.625	-3.65
394.834	-4.68
395.043	-1.89
395.252	1.85
395.462	2.58
395.671	3.41
395.88	4.23
396.089	4.29
396.298	0.93
396.508	1.28
396.717	1.07
396.926	1.88
397.135	1.14
397.344	2.04
397.553	2.41
397.762	3.61
397.971	4.35
398.181	5.12
398.39	4.54
398.599	4.17
398.808	3.38
399.017	3.24
399.226	4.4
399.435	6.28
399.644	6.39
399.853	6.05
400.062	5.92
400.27	5
400.479	4.15
400.688	3.58
400.897	3.91
401.106	3.82
401.315	3.54
401.524	3.61
401.733	4.4
401.941	4.82
402.15	5.17
402.359	4.97
402.568	5.28
402.777	5.11
402.985	4.84
403.194	4.56
403.403	4.98
403.612	4.52
403.82	4.4
404.029	4.47
404.238	4.2
404.446	4.26
404.655	4.08
404.864	4.09
405.072	3.69
405.281	3.81
405.489	3.53
405.698	3.57
405.906	3.39
406.115	3.69
406.324	3.7
406.532	3.88
406.741	4.26
406.949	4.48
407.158	4.33
407.366	4.29
407.574	4.22
407.783	3.97
407.991	3.71
408.2	3.86
408.408	3.9
408.617	3.79
408.825	3.7
409.033	3.85
409.242	3.89
409.45	3.99
409.658	3.86
409.867	4
410.075	3.83
410.283	3.61
410.491	3.48
410.7	3.54
410.908	3.58
411.116	3.88
411.324	3.84
411.533	3.83
411.741	4.06
411.949	3.92
412.157	3.5
412.365	3.68
412.573	3.55
412.781	3.5
412.99	3.43
413.198	3.62
413.406	3.5
413.614	3.64
413.822	3.39
414.03	3.37
414.238	3.15
414.446	3.25
414.654	3.07
414.862	3.23
415.07	3.31
415.278	3.65
415.486	3.51
415.694	3.62
415.902	3.41
416.109	3.31
416.317	3.14
416.525	2.84
416.733	2.85
416.941	3.05
417.149	2.96
417.357	3.03
417.564	3.41
417.772	3.62
417.98	3.53
418.188	3.6
418.395	3.63
418.603	3.69
418.811	3.34
419.019	3.29
419.226	3.54
419.434	3.57
419.642	3.22
419.849	3.35
420.057	3.37
420.265	3.23
420.472	2.88
420.68	3.08
420.887	2.96
421.095	3.07
421.302	3.03
421.51	3.43
421.717	3.49
421.925	3.52
422.132	3.4
422.34	3.2
422.547	3.1
422.755	2.96
422.962	2.9
423.17	2.79
423.377	2.86
423.585	2.9
423.792	2.9
423.999	2.96
424.207	2.93
424.414	3.13
424.621	2.96
424.829	2.93
425.036	2.93
425.243	3.08
425.451	2.77
425.658	2.6
425.865	2.79
426.072	2.72
426.28	3.04
426.487	3.09
426.694	3.28
426.901	2.98
427.108	2.96
427.315	2.63
427.523	3.04
427.73	3.11
427.937	3.26
428.144	3.25
428.351	3.25
428.558	3.1
428.765	2.93
428.972	2.84
429.179	3.06
429.386	3.3
429.593	3.17
429.8	3.09
430.007	3.25
430.214	3.17
430.421	2.9
430.628	2.79
430.835	2.83
431.042	3.01
431.249	3.09
431.456	3.29
431.662	3.43
431.869	3.67
432.076	3.64
432.283	3.72
432.49	3.62
432.697	3.6
432.903	3.22
433.11	3.05
433.317	3.07
433.524	3.2
433.73	3.19
433.937	3.51
434.144	3.43
434.35	3.31
434.557	3.06
434.764	3.02
434.97	3.01
435.177	3.18
435.384	3.06
435.59	3.33
435.797	3.58
436.003	3.62
436.21	3.63
436.416	3.77
436.623	3.65
436.829	3.61
437.036	3.72
437.242	3.71
437.449	3.58
437.655	3.66
437.862	3.57
438.068	3.42
438.275	3.5
438.481	3.77
438.687	3.66
438.894	3.73
439.1	3.77
439.307	3.98
439.513	3.81
439.719	3.91
439.926	4.03
440.132	4.02
440.338	3.73
440.544	3.91
440.751	3.78
440.957	3.72
441.163	3.64
441.369	3.68
441.575	3.36
441.782	3.37
441.988	3.24
442.194	3.29
442.4	3.23
442.606	3.54
442.812	3.73
443.018	3.84
443.224	3.91
443.431	4
443.637	3.88
443.843	3.74
444.049	3.72
444.255	3.54
444.461	3.6
444.667	3.55
444.873	3.75
445.079	3.72
445.284	3.84
445.49	3.62
445.696	3.5
445.902	3.27
446.108	3.32
446.314	3.33
446.52	3.43
446.726	3.75
446.931	3.78
447.137	3.78
447.343	3.81
447.549	3.74
447.755	3.58
447.96	3.62
448.166	3.55
448.372	3.51
448.578	3.64
448.783	3.63
448.989	3.74
449.195	3.91
449.4	3.9
449.606	3.81
449.812	3.77
450.017	3.75
450.223	3.55
450.428	3.48
450.634	3.56
450.84	3.73
451.045	3.63
451.251	3.61
451.456	3.93
451.662	4.11
451.867	4.16
452.073	4.15
452.278	4.34
452.483	4.39
452.689	4.19
452.894	4.18
453.1	4.28
453.305	4.15
453.51	3.94
453.716	3.91
453.921	3.87
454.127	3.76
454.332	3.7
454.537	3.64
454.742	3.67
454.948	3.66
455.153	3.74
455.358	3.89
455.563	4.06
455.769	4.25
455.974	4.34
456.179	4.27
456.384	4.18
456.589	4.22
456.795	3.83
457	3.69
457.205	3.93
457.41	3.94
457.615	3.77
457.82	4
458.025	3.99
458.23	3.77
458.435	3.78
458.64	3.74
458.845	3.86
459.05	3.87
459.255	3.93
459.46	3.96
459.665	4.03
459.87	3.98
460.075	3.95
460.28	3.94
460.485	4.04
460.69	4.01
