Data from Ofra_1a_PS_2CX8_Reflection_1.txt Node
Date: Tue Jul 20 10:47:40 EDT 2021
User: Adam
Spectrometer: FLMT01687
Trigger mode: 0
Integration Time (sec): 1.004000E0
Scans to average: 2
Electric dark correction enabled: true
Nonlinearity correction enabled: false
Boxcar width: 2
XAxis mode: Wavelengths
Number of Pixels in Spectrum: 3648
>>>>>Begin Spectral Data<<<<<
179.494	-449.24
179.716	-682.44
179.937	1074.58
180.158	-1022.29
180.38	78.73
180.601	3.66
180.823	-177.85
181.044	-229.36
181.265	-301.43
181.486	161.87
181.708	112.28
181.929	2154.55
182.15	-160.37
182.372	435.96
182.593	554.04
182.814	-317.32
183.035	-60.17
183.257	-23.19
183.478	-36.74
183.699	-22.27
183.92	-48.19
184.141	-35.59
184.363	6.34
184.584	-25.65
184.805	-5.32
185.026	13.56
185.247	12.36
185.468	-24.25
185.689	4.97
185.91	-16.53
186.132	9.65
186.353	3.78
186.574	23.54
186.795	24.43
187.016	35.14
187.237	22.38
187.458	-10.01
187.679	-33.14
187.9	-11.88
188.121	-15.22
188.342	-1.92
188.563	18.2
188.784	44.06
189.005	41.26
189.226	30.64
189.447	23.94
189.667	10.88
189.888	-14.64
190.109	-65.38
190.33	-58.28
190.551	-70.67
190.772	-64.43
190.993	-76.68
191.214	-88.14
191.434	-134
191.655	-158.36
191.876	-85.33
192.097	-34.81
192.318	14.83
192.538	2.07
192.759	9.13
192.98	5.91
193.201	-6.52
193.421	-25.54
193.642	-9.59
193.863	-4.6
194.083	5.11
194.304	10.88
194.525	42.33
194.745	24.42
194.966	7.3
195.187	-10.7
195.407	-15.64
195.628	-16.59
195.848	-11.95
196.069	-30.5
196.29	-20.62
196.51	-42.41
196.731	-63.96
196.951	-63
197.172	-28.01
197.392	-38.33
197.613	-13.2
197.833	-12.08
198.054	-11.21
198.274	-19.33
198.495	-13.89
198.715	-39.48
198.936	-8.33
199.156	-11.99
199.377	-20.08
199.597	-8.3
199.817	-4.93
200.038	-73.63
200.258	-57.7
200.479	-30.57
200.699	-32.02
200.919	-24.11
201.14	14.46
201.36	28.79
201.58	-28.02
201.801	-38.47
202.021	-60.48
202.241	-78.81
202.461	-63.5
202.682	-26.35
202.902	-10.43
203.122	14.58
203.342	15.9
203.563	-9.66
203.783	-25.95
204.003	-50.51
204.223	-30.34
204.443	-29.36
204.663	-55.83
204.884	-18.52
205.104	5.31
205.324	20.09
205.544	-14.84
205.764	27.87
205.984	19.08
206.204	13.07
206.424	-35.5
206.644	-32.51
206.864	-68.91
207.084	-44.24
207.304	-36.65
207.525	-24.57
207.745	-0.56
207.964	-3.21
208.184	-8.46
208.404	-26.22
208.624	-17.11
208.844	-21.73
209.064	-23.36
209.284	-25.9
209.504	-48.29
209.724	-52.16
209.944	-77.59
210.164	-50.76
210.384	-61.36
210.604	-54.57
210.823	-50.66
211.043	-17.35
211.263	-73.71
211.483	-41.48
211.703	-24.99
211.922	-43.57
212.142	-14.29
212.362	7.66
212.582	-1.23
212.801	-31.86
213.021	-30.92
213.241	-58.67
213.461	-63.01
213.68	-29.47
213.9	-21.11
214.12	-37.49
214.339	-36.96
214.559	-46.95
214.779	-76.65
214.998	-67.42
215.218	-17
215.438	-7.17
215.657	-23.43
215.877	-34.51
216.096	-13.23
216.316	-26.27
216.535	-39.43
216.755	-21.14
216.974	-12.71
217.194	-41.03
217.413	-31.61
217.633	-35.59
217.852	-22.3
218.072	-17.14
218.291	-6.24
218.511	-11.49
218.73	-12.76
218.95	-31.06
219.169	-27.98
219.389	-38.18
219.608	-45.74
219.827	-41.57
220.047	-32.4
220.266	-67.74
220.485	-67.08
220.705	-34.75
220.924	-47.27
221.143	-8.47
221.363	9.9
221.582	7.59
221.801	3.05
222.021	16.27
222.24	4.5
222.459	13.17
222.678	6.19
222.897	-3.46
223.117	1.03
223.336	15.53
223.555	21.18
223.774	24.54
223.993	29.69
224.213	25.35
224.432	8.55
224.651	-2.63
224.87	10.93
225.089	11.4
225.308	18.09
225.527	0.41
225.746	-2.74
225.965	-8.33
226.184	-24.63
226.404	-42.68
226.623	-27.95
226.842	-32.19
227.061	-30.06
227.28	-8.62
227.499	4.58
227.718	10.82
227.936	19.44
228.155	8.17
228.374	6.67
228.593	7.39
228.812	-6.03
229.031	8.15
229.25	1.99
229.469	2.44
229.688	-1.35
229.907	9.66
230.125	2.55
230.344	20.43
230.563	15.36
230.782	11.08
231.001	17.04
231.22	13.6
231.438	12.37
231.657	18.01
231.876	17.45
232.095	25.57
232.313	5.57
232.532	-19.08
232.751	-33.98
232.969	-19.05
233.188	-56.14
233.407	-35.63
233.625	-18.69
233.844	-14.58
234.063	-35.42
234.281	-23.66
234.5	-19.19
234.719	-30.03
234.937	-54.18
235.156	-38.33
235.374	-25.58
235.593	-3.35
235.811	21.01
236.03	30.72
236.249	29.25
236.467	37.71
236.686	17.56
236.904	14.78
237.123	2.6
237.341	-4.89
237.559	-26.51
237.778	0.86
237.996	-24.7
238.215	-62.53
238.433	-101.26
238.652	-15.54
238.87	-39.35
239.088	-19.74
239.307	2.88
239.525	10.68
239.743	-13.14
239.962	-11.59
240.18	-9.76
240.398	-14.43
240.617	-15.16
240.835	-6.25
241.053	-20.93
241.271	-2.21
241.49	9.94
241.708	10.11
241.926	-8.72
242.144	14.27
242.363	-22.39
242.581	-64.34
242.799	-106.29
243.017	-34.19
243.235	-24.22
243.453	-20.33
243.672	-18.65
243.89	3.4
244.108	-3.83
244.326	13.57
244.544	24.29
244.762	27.62
244.98	29.36
245.198	30.64
245.416	16.49
245.634	7.11
245.852	-8.39
246.07	3.75
246.288	0.21
246.506	-2.85
246.724	-7.36
246.942	4.17
247.16	4.14
247.378	-1.22
247.596	23.64
247.814	1.51
248.032	-15.11
248.25	-15.28
248.468	4.3
248.685	10.13
248.903	7.18
249.121	26.89
249.339	20.06
249.557	17.21
249.775	13.15
249.992	26.68
250.21	-0.12
250.428	20.72
250.646	11.24
250.863	-12.98
251.081	-7.82
251.299	6.44
251.517	0.05
251.734	6.5
251.952	12.52
252.17	-9.95
252.387	-17.64
252.605	-26.67
252.823	-52.53
253.04	-33.44
253.258	13.19
253.475	6.29
253.693	17.02
253.911	27.88
254.128	21.11
254.346	15.34
254.563	31.58
254.781	18.16
254.998	21.82
255.216	0.59
255.433	-35.18
255.651	-41.03
255.868	-23.53
256.086	-12.35
256.303	-2.45
256.521	21.72
256.738	14.95
256.956	7.79
257.173	2.46
257.39	5.14
257.608	-1.99
257.825	-3.18
258.043	7.24
258.26	-5.31
258.477	-3.86
258.695	-3.8
258.912	-4.15
259.129	-18.94
259.346	-21.16
259.564	-22.15
259.781	-28.08
259.998	-7.86
260.216	-2.97
260.433	-5.61
260.65	7.69
260.867	1.78
261.084	-3.05
261.302	-13.4
261.519	18.66
261.736	11.14
261.953	7.31
262.17	14.73
262.387	6.79
262.604	-7.27
262.822	-7.57
263.039	2.03
263.256	-7.2
263.473	-1.8
263.69	-1.18
263.907	1.07
264.124	5.47
264.341	13.15
264.558	14.09
264.775	15.28
264.992	11.47
265.209	-1.1
265.426	-7.37
265.643	22.64
265.86	51.13
266.077	25.16
266.294	16.16
266.51	34.28
266.727	16.97
266.944	19.51
267.161	14.54
267.378	24.86
267.595	0.04
267.812	-18.55
268.028	-52.02
268.245	-21.32
268.462	-20.38
268.679	-21.53
268.896	4.1
269.112	22.28
269.329	-9.26
269.546	6.03
269.763	20.08
269.979	16.15
270.196	21.23
270.413	35.86
270.629	10.97
270.846	8.19
271.063	-13.01
271.279	-14.13
271.496	-32.25
271.712	-3.26
271.929	-2.73
272.146	5.22
272.362	4.36
272.579	5.54
272.795	-25.29
273.012	-17.3
273.228	-11.31
273.445	-14.04
273.661	-26.35
273.878	-18.18
274.094	-41.86
274.311	-34.59
274.527	-71
274.744	-25.97
274.96	-9.09
275.177	-0.96
275.393	4.8
275.609	22.84
275.826	13.19
276.042	9.47
276.259	13.97
276.475	6.4
276.691	8.43
276.908	1.4
277.124	7.99
277.34	8.24
277.557	-1.78
277.773	-17.58
277.989	-13.13
278.205	-6.39
278.422	-4.78
278.638	1.61
278.854	-8.82
279.07	10.1
279.286	-8.19
279.503	0.61
279.719	13.19
279.935	22.52
280.151	4.59
280.367	14.32
280.583	-0.28
280.799	-16.78
281.016	-44.92
281.232	-20.85
281.448	-6.49
281.664	4.35
281.88	15.95
282.096	21.16
282.312	15.04
282.528	8.48
282.744	-0.44
282.96	-28.71
283.176	-44.91
283.392	-94.43
283.608	-76.3
283.824	-109.31
284.04	-123.15
284.256	-52.37
284.471	-27.49
284.687	-32.58
284.903	-8.58
285.119	9.66
285.335	7.28
285.551	11.59
285.767	9.17
285.982	-0.41
286.198	-10.91
286.414	-34.66
286.63	-67.97
286.846	-64.3
287.061	-58.42
287.277	-41.13
287.493	-31.29
287.709	-13
287.924	3.79
288.14	18.42
288.356	19.5
288.571	18.63
288.787	3.02
289.003	-8.25
289.218	-29.56
289.434	-25.92
289.65	-1.4
289.865	8.31
290.081	22.53
290.296	28.06
290.512	23.81
290.727	7.35
290.943	9.41
291.159	1.16
291.374	-17.45
291.59	1.39
291.805	-4.07
292.021	-7.33
292.236	-5.32
292.451	15.18
292.667	0.04
292.882	10.27
293.098	12.69
293.313	-8.85
293.529	-9.12
293.744	-16.08
293.959	-15.92
294.175	-3.76
294.39	3.72
294.605	6.06
294.821	6.48
295.036	5.9
295.251	9.91
295.467	17.66
295.682	11.34
295.897	3.94
296.112	1.98
296.328	-4.74
296.543	-18.32
296.758	-5.48
296.973	-3.28
297.188	-3.57
297.404	-32.68
297.619	-27.56
297.834	-73.82
298.049	-63.13
298.264	-80.07
298.479	-57.35
298.694	-17
298.909	-12.31
299.125	-7.28
299.34	10.65
299.555	14.47
299.77	24.46
299.985	34.95
300.2	42.5
300.415	40.71
300.63	43.84
300.845	35.07
301.06	24.05
301.275	17.71
301.49	14.39
301.704	-1.14
301.919	-7.88
302.134	-2.95
302.349	-1.5
302.564	-8.32
302.779	-22.49
302.994	-3.98
303.209	-9.92
303.423	-19.31
303.638	-22.28
303.853	-10.52
304.068	-47.43
304.283	-31.89
304.497	-46.56
304.712	-12.91
304.927	-10.38
305.142	3.37
305.356	-7.33
305.571	4.91
305.786	-6.93
306	-4.67
306.215	-22.41
306.43	-6.15
306.644	-25
306.859	-43.61
307.074	-23.2
307.288	5.92
307.503	6.86
307.717	10.86
307.932	12.86
308.147	9.58
308.361	4.52
308.576	-14.95
308.79	1.5
309.005	10.29
309.219	4.23
309.434	6.7
309.648	7.57
309.863	-3.4
310.077	2.05
310.292	8.7
310.506	-2.53
310.72	-6.46
310.935	14.37
311.149	13.48
311.364	7.71
311.578	21.24
311.792	29.09
312.007	15.52
312.221	-11.98
312.435	2.55
312.649	6.54
312.864	6.45
313.078	8.24
313.292	15.68
313.507	8.36
313.721	-0.4
313.935	-4.59
314.149	-3.72
314.363	1.55
314.578	4.93
314.792	-29.77
315.006	-31.61
315.22	-25.38
315.434	-23.34
315.648	-26.93
315.862	-5.55
316.077	8.74
316.291	14.65
316.505	2.68
316.719	6.38
316.933	0.98
317.147	-13.66
317.361	-20.7
317.575	-17.13
317.789	-20.91
318.003	-25.23
318.217	-3.17
318.431	-13.31
318.645	-17.58
318.859	-1.77
319.073	16.27
319.287	-0.45
319.5	6.58
319.714	4.74
319.928	-3.63
320.142	-8.71
320.356	-0.83
320.57	-25.16
320.784	-7.12
320.997	-5.22
321.211	0.92
321.425	-8.22
321.639	10.33
321.853	6.79
322.066	2.03
322.28	-10.09
322.494	-3.16
322.707	0.87
322.921	4.81
323.135	5.58
323.349	4.15
323.562	5.79
323.776	-1.69
323.989	14.13
324.203	8.37
324.417	10.17
324.63	-5.84
324.844	-5.07
325.057	-44.98
325.271	-40.02
325.485	-38.23
325.698	-21.93
325.912	-3.87
326.125	-8.16
326.339	-0.11
326.552	-11.86
326.766	-19.44
326.979	-34.02
327.193	-18.17
327.406	-29.06
327.619	-7.87
327.833	3.84
328.046	10.35
328.26	12.41
328.473	9.42
328.686	9.25
328.9	10.63
329.113	-6.3
329.326	-21.05
329.54	-16.23
329.753	-10.77
329.966	-7.69
330.179	1.39
330.393	-0.35
330.606	6.68
330.819	5.26
331.032	-3.33
331.246	2.21
331.459	17.02
331.672	11.15
331.885	6.57
332.098	1.35
332.311	-23.61
332.525	-15.66
332.738	-10.15
332.951	-11.43
333.164	0.28
333.377	10.15
333.59	-9.96
333.803	-14.7
334.016	-7.26
334.229	-7.9
334.442	-13.13
334.655	11.33
334.868	4.23
335.081	-10.6
335.294	-24.57
335.507	-8.11
335.72	-21.05
335.933	-12.22
336.146	-8.51
336.359	5.72
336.572	1.59
336.785	4.09
336.997	-0.17
337.21	8.13
337.423	-13.4
337.636	-9.94
337.849	0.62
338.062	-2.8
338.274	4.13
338.487	0.19
338.7	-16.81
338.913	-21.33
339.125	-23.66
339.338	-19.7
339.551	-22.91
339.763	-16.2
339.976	-15.83
340.189	-16.03
340.402	-19.49
340.614	-2.23
340.827	7.84
341.039	3.84
341.252	-2.05
341.465	-13.87
341.677	-16.29
341.89	-22.29
342.102	-9.02
342.315	-2.21
342.527	2.57
342.74	-4.23
342.952	-5.38
343.165	-4.7
343.377	1.97
343.59	7.92
343.802	11.76
344.015	16.63
344.227	7.19
344.44	-14.98
344.652	-27.39
344.864	-27.6
345.077	-26.18
345.289	-13.4
345.502	14.97
345.714	16.88
345.926	14.71
346.139	-1.1
346.351	-5.98
346.563	-13.2
346.775	11.09
346.988	18.07
347.2	22.18
347.412	32.73
347.624	21.74
347.837	17.74
348.049	3.77
348.261	-0.37
348.473	-17.8
348.685	-15.37
348.897	-27.67
349.11	-13.02
349.322	1.21
349.534	10.57
349.746	3.91
349.958	0.5
350.17	-14.46
350.382	-38.02
350.594	-37.13
350.806	-10.32
351.018	-7.85
351.23	3.04
351.442	18.46
351.654	19.13
351.866	7.78
352.078	11.04
352.29	21.72
352.502	5.64
352.714	4.6
352.926	-1.75
353.138	17.08
353.35	0.31
353.561	8.04
353.773	6.02
353.985	5.51
354.197	1.83
354.409	1.66
354.621	-18.92
354.832	-14.38
355.044	-17.11
355.256	-27.47
355.468	-14.56
355.679	15.31
355.891	12.66
356.103	13.42
356.314	6.92
356.526	-18.91
356.738	-32.43
356.949	-27.73
357.161	-12.78
357.373	-7.41
357.584	5.58
357.796	7.46
358.008	7.74
358.219	-13.86
358.431	-13.44
358.642	-2.92
358.854	-4.96
359.065	-17.04
359.277	-1.2
359.488	-14.17
359.7	-11.92
359.911	-16.54
360.123	-6.37
360.334	-18.96
360.546	-17.4
360.757	-21.74
360.969	-26.46
361.18	-37.33
361.391	-18.85
361.603	-9.26
361.814	-9.45
362.025	8.76
362.237	18.52
362.448	17.66
362.659	7.14
362.871	-7.56
363.082	-9.34
363.293	-37.13
363.504	-59.11
363.716	-49.31
363.927	-13.46
364.138	-53.79
364.349	-48.88
364.56	-61.18
364.772	-40.77
364.983	-31.06
365.194	-5.66
365.405	3.2
365.616	17.25
365.827	4.89
366.038	-4.47
366.25	-5.88
366.461	1.67
366.672	2.79
366.883	9.26
367.094	10.27
367.305	-8.98
367.516	-6.77
367.727	-9.01
367.938	-14.71
368.149	-28.01
368.36	-11.81
368.571	-29.76
368.781	-40.82
368.992	-42.34
369.203	-35.06
369.414	-33.5
369.625	-28.89
369.836	-1.12
370.047	8.34
370.258	13.77
370.468	11.77
370.679	16.05
370.89	7.31
371.101	12.2
371.312	9.7
371.522	8.99
371.733	8.95
371.944	-11.97
372.155	-12.62
372.365	0.04
372.576	-4.56
372.787	-0.39
372.997	5.94
373.208	-0.68
373.419	-4.02
373.629	0.17
373.84	-7.7
374.05	-5.78
374.261	-18.83
374.472	-19.14
374.682	-8.6
374.893	-24.25
375.103	-16.35
375.314	-3.99
375.524	-8.69
375.735	-10.65
375.945	2.86
376.156	1.29
376.366	-3.26
376.577	2.57
376.787	-8.52
376.997	-0.83
377.208	4.98
377.418	4.54
377.629	6.69
377.839	13.37
378.049	15.39
378.26	9.64
378.47	6.57
378.68	-2.86
378.89	-3.51
379.101	-11.17
379.311	-16.28
379.521	-12.57
379.732	-3.09
379.942	5.49
380.152	-4.01
380.362	5.78
380.572	24.85
380.783	30.37
380.993	23.78
381.203	30.86
381.413	27.24
381.623	11.41
381.833	10.69
382.043	2.28
382.253	4.69
382.463	11.06
382.674	20.65
382.884	13.44
383.094	20.98
383.304	14.29
383.514	13.65
383.724	7.25
383.934	-2.37
384.144	-0.21
384.353	1.38
384.563	-3.27
384.773	1.8
384.983	1.5
385.193	-0.14
385.403	0.98
385.613	-0.2
385.823	-0.79
386.033	7.55
386.242	3.08
386.452	0.89
386.662	3.01
386.872	5.19
387.082	2.8
387.291	6.16
387.501	12.25
387.711	10.31
387.921	4.8
388.13	6.06
388.34	6.04
388.55	-0.5
388.759	-2.72
388.969	-3.94
389.179	-5.54
389.388	-7.94
389.598	-6.39
389.807	-10.93
390.017	-8.12
390.227	-10.66
390.436	-8.8
390.646	-11.49
390.855	-4.2
391.065	-4.88
391.274	-2.48
391.484	-3.02
391.693	-0.05
391.903	-1.33
392.112	-2.11
392.322	-1.58
392.531	-2.59
392.74	-3.31
392.95	-0.91
393.159	-0.27
393.369	1.13
393.578	1.64
393.787	3.02
393.997	2.94
394.206	2.12
394.415	1.97
394.625	1.72
394.834	-0.62
395.043	-0.74
395.252	2.57
395.462	2.49
395.671	3.48
395.88	5.8
396.089	5.46
396.298	4.18
396.508	4.51
396.717	4.1
396.926	3.39
397.135	3.76
397.344	3.19
397.553	2.01
397.762	3.55
397.971	3.02
398.181	2.8
398.39	2.75
398.599	3.49
398.808	2.24
399.017	3.45
399.226	3.17
399.435	3.33
399.644	3.72
399.853	4.13
400.062	4.09
400.27	4.28
400.479	4.14
400.688	4.05
400.897	3.75
401.106	3.65
401.315	3.61
401.524	3.82
401.733	3.2
401.941	3.56
402.15	3.21
402.359	3.24
402.568	3.47
402.777	3.91
402.985	3.5
403.194	3.46
403.403	3.69
403.612	3.21
403.82	2.68
404.029	2.83
404.238	3.03
404.446	2.96
404.655	3.25
404.864	3.53
405.072	3.62
405.281	3.48
405.489	3.33
405.698	3.41
405.906	3.5
406.115	3.39
406.324	3.37
406.532	3.52
406.741	3.48
406.949	3.49
407.158	3.6
407.366	3.71
407.574	3.66
407.783	3.72
407.991	3.79
408.2	3.8
408.408	3.69
408.617	3.64
408.825	3.34
409.033	3.23
409.242	3.28
409.45	3.28
409.658	3.23
409.867	3.29
410.075	3.38
410.283	3.19
410.491	3.12
410.7	3.06
410.908	3.05
411.116	3.03
411.324	3.1
411.533	3.11
411.741	3.14
411.949	3.3
412.157	3.13
412.365	3.05
412.573	3.03
412.781	3
412.99	2.89
413.198	3
413.406	3.18
413.614	3.39
413.822	3.5
414.03	3.61
414.238	3.6
414.446	3.47
414.654	3.19
414.862	3.13
415.07	2.99
415.278	3.01
415.486	2.87
415.694	3.04
415.902	2.99
416.109	2.97
416.317	3.02
416.525	3.09
416.733	3.09
416.941	3.22
417.149	3.1
417.357	3.09
417.564	3.08
417.772	3.14
417.98	3.03
418.188	3.06
418.395	2.75
418.603	2.76
418.811	2.66
419.019	2.69
419.226	2.77
419.434	2.87
419.642	2.7
419.849	2.52
420.057	2.46
420.265	2.54
420.472	2.64
420.68	2.69
420.887	2.85
421.095	3.07
421.302	3.06
421.51	2.98
421.717	3.2
421.925	3.24
422.132	3.03
422.34	2.93
422.547	2.76
422.755	2.75
422.962	2.79
423.17	2.58
423.377	2.5
423.585	2.83
423.792	2.67
423.999	2.55
424.207	2.72
424.414	2.79
424.621	2.73
424.829	2.89
425.036	2.85
425.243	2.89
425.451	2.83
425.658	2.74
425.865	2.48
426.072	2.43
426.28	2.47
426.487	2.54
426.694	2.54
426.901	2.7
427.108	2.84
427.315	2.78
427.523	2.64
427.73	2.62
427.937	2.45
428.144	2.36
428.351	2.34
428.558	2.52
428.765	2.52
428.972	2.66
429.179	2.6
429.386	2.53
429.593	2.39
429.8	2.33
430.007	2.29
430.214	2.4
430.421	2.6
430.628	2.64
430.835	2.66
431.042	2.65
431.249	2.6
431.456	2.48
431.662	2.48
431.869	2.66
432.076	2.7
432.283	2.82
432.49	2.86
432.697	2.91
432.903	2.74
433.11	2.87
433.317	2.84
433.524	2.85
433.73	2.79
433.937	2.99
434.144	2.74
434.35	2.69
434.557	2.7
434.764	2.78
434.97	2.61
435.177	2.84
435.384	2.9
435.59	2.92
435.797	2.99
436.003	3.07
436.21	2.91
436.416	2.88
436.623	2.95
436.829	2.82
437.036	2.78
437.242	2.93
437.449	2.98
437.655	2.96
437.862	3.02
438.068	3.04
438.275	3.06
438.481	3.06
438.687	3.03
438.894	3.12
439.1	3.11
439.307	3.2
439.513	3.21
439.719	3.27
439.926	3.24
440.132	3.31
440.338	3.16
440.544	3.1
440.751	2.93
440.957	2.93
441.163	2.82
441.369	2.87
441.575	2.86
441.782	3.12
441.988	3.12
442.194	3.18
442.4	3.18
442.606	3.32
442.812	3.14
443.018	3.19
443.224	3.32
443.431	3.22
443.637	3.15
443.843	3.26
444.049	3.24
444.255	3.16
444.461	3.26
444.667	3.34
444.873	3.27
445.079	3.26
445.284	3.3
445.49	3.41
445.696	3.33
445.902	3.33
446.108	3.36
446.314	3.29
446.52	3.25
446.726	3.28
446.931	3.29
447.137	3.3
447.343	3.39
447.549	3.29
447.755	3.24
447.96	3.29
448.166	3.24
448.372	3.25
448.578	3.29
448.783	3.38
448.989	3.45
449.195	3.47
449.4	3.53
449.606	3.53
449.812	3.45
450.017	3.39
450.223	3.34
450.428	3.33
450.634	3.31
450.84	3.32
451.045	3.31
451.251	3.42
451.456	3.39
451.662	3.43
451.867	3.46
452.073	3.49
452.278	3.45
452.483	3.47
452.689	3.42
452.894	3.54
453.1	3.56
453.305	3.64
453.51	3.67
453.716	3.75
453.921	3.71
454.127	3.64
454.332	3.58
454.537	3.52
454.742	3.53
454.948	3.48
455.153	3.57
455.358	3.62
455.563	3.71
455.769	3.66
455.974	3.67
456.179	3.66
456.384	3.63
456.589	3.54
456.795	3.55
457	3.58
457.205	3.52
457.41	3.57
457.615	3.62
457.82	3.71
458.025	3.68
458.23	3.75
458.435	3.72
458.64	3.7
458.845	3.75
459.05	3.85
459.255	3.83
459.46	3.98
459.665	4.08
459.87	4.09
460.075	4.16
460.28	4.27
460.485	4.22
460.69	4.23
460.895	4.25
461.099	4.09
461.304	4.09
461.509	4.13
461.714	4.17
461.919	4.1
462.123	4.16
462.328	4.16
462.533	4.1
462.738	4.05
462.942	4.03
463.147	4.07
463.352	4.15
463.556	4.27
463.761	4.33
463.966	4.47
464.17	4.56
464.375	4.54
464.58	4.49
464.784	4.51
464.989	4.51
465.193	4.46
