Data from Ofra_PS_T2_1A_2GT07_Reflection_1.txt Node
Date: Wed Jul 21 17:58:46 EDT 2021
User: Adam
Spectrometer: FLMT01687
Trigger mode: 0
Integration Time (sec): 1.100000E0
Scans to average: 2
Electric dark correction enabled: true
Nonlinearity correction enabled: false
Boxcar width: 2
XAxis mode: Wavelengths
Number of Pixels in Spectrum: 3648
>>>>>Begin Spectral Data<<<<<
179.494	535.6
179.716	593.41
179.937	532.76
180.158	485.12
180.38	811.56
180.601	178.73
180.823	52.81
181.044	-98.34
181.265	41.54
181.486	-48.39
181.708	53.23
181.929	-25.51
182.15	-235.92
182.372	86.32
182.593	-64.63
182.814	-16.95
183.035	10
183.257	17.49
183.478	-38.19
183.699	77.94
183.92	64.08
184.141	59.44
184.363	55.87
184.584	76.79
184.805	55.8
185.026	82.86
185.247	79.86
185.468	55.44
185.689	62.18
185.91	64.36
186.132	48.02
186.353	52.87
186.574	109.36
186.795	76.59
187.016	28.98
187.237	17.15
187.458	-12.55
187.679	-23.37
187.9	-1.55
188.121	10.89
188.342	26.82
188.563	59.38
188.784	110.41
189.005	106.51
189.226	193.14
189.447	193.69
189.667	281.31
189.888	7.64
190.109	-435.71
190.33	-531.94
190.551	-936.73
190.772	-235.96
190.993	-229
191.214	-191.81
191.434	-157.7
191.655	-62.88
191.876	-65.99
192.097	-107.43
192.318	-105.64
192.538	-159.97
192.759	-140.05
192.98	-73.39
193.201	-38.23
193.421	-26.52
193.642	-9.53
193.863	-9.65
194.083	-28.06
194.304	-26.2
194.525	-29.66
194.745	-14.57
194.966	-39.33
195.187	-44.1
195.407	-73.58
195.628	-143.5
195.848	-171.05
196.069	-144.39
196.29	-95.24
196.51	-100.72
196.731	-69.09
196.951	-74.12
197.172	-118.77
197.392	-136.97
197.613	-118.95
197.833	-139.3
198.054	-100.35
198.274	-23.9
198.495	-47.8
198.715	-18.97
198.936	-24.49
199.156	-23.44
199.377	-145.58
199.597	-103.11
199.817	-128.02
200.038	-80.94
200.258	-137.02
200.479	-34.52
200.699	-59.28
200.919	39.11
201.14	17.38
201.36	9.38
201.58	41.89
201.801	68.37
202.021	20.73
202.241	24.5
202.461	31.07
202.682	-57.81
202.902	-149.14
203.122	-57.06
203.342	-47.14
203.563	-2.81
203.783	16.88
204.003	-8.72
204.223	12.21
204.443	68.61
204.663	32.66
204.884	50.23
205.104	86.33
205.324	82.79
205.544	71.96
205.764	84.58
205.984	83
206.204	77.05
206.424	54.93
206.644	11.82
206.864	20.38
207.084	-3.04
207.304	37.65
207.525	-34.53
207.745	38.93
207.964	28.99
208.184	-35.19
208.404	-86.62
208.624	-39.03
208.844	-34.06
209.064	-257.72
209.284	-257.12
209.504	-95.59
209.724	-20.1
209.944	-24.68
210.164	13.48
210.384	31.34
210.604	22.47
210.823	-25.04
211.043	-47.59
211.263	-37.65
211.483	-40.35
211.703	-81.05
211.922	-50
212.142	27.5
212.362	32.91
212.582	18.54
212.801	2.45
213.021	-31.4
213.241	-56.81
213.461	-89.09
213.68	-102.33
213.9	-50
214.12	-13.59
214.339	-77.48
214.559	-36.55
214.779	5.15
214.998	9.46
215.218	-40.35
215.438	1.05
215.657	-2.73
215.877	-3.31
216.096	19.65
216.316	41.32
216.535	25.12
216.755	15.28
216.974	-60.45
217.194	-132.83
217.413	-119.01
217.633	-110.24
217.852	-198.56
218.072	-56.85
218.291	-5.19
218.511	28.42
218.73	1.52
218.95	-4.75
219.169	-10.82
219.389	-61.92
219.608	-56.38
219.827	-41.48
220.047	-10.67
220.266	-1.91
220.485	12.86
220.705	20.4
220.924	-1.52
221.143	19.81
221.363	-6.65
221.582	4.96
221.801	19.05
222.021	30.54
222.24	-14.18
222.459	33.65
222.678	-1.7
222.897	-62.58
223.117	-74.02
223.336	-65.9
223.555	-57.72
223.774	4.33
223.993	28.68
224.213	80.53
224.432	79.52
224.651	103.11
224.87	69.17
225.089	64.67
225.308	41.91
225.527	44.77
225.746	30.49
225.965	11
226.184	-18.6
226.404	2.06
226.623	-24.84
226.842	-19.41
227.061	8.37
227.28	12.57
227.499	7.14
227.718	24.67
227.936	15.04
228.155	21.38
228.374	15.33
228.593	17.64
228.812	12.68
229.031	10.06
229.25	-40.85
229.469	-26.12
229.688	-20.69
229.907	20.37
230.125	35.09
230.344	43.51
230.563	49.29
230.782	55.74
231.001	-16.68
231.22	-8.83
231.438	26.5
231.657	8.31
231.876	1.64
232.095	44.31
232.313	60.37
232.532	46.03
232.751	61.73
232.969	19.12
233.188	-14.94
233.407	18.9
233.625	12.04
233.844	-9.2
234.063	27.68
234.281	38.11
234.5	5.28
234.719	4
234.937	20.77
235.156	13.03
235.374	15.53
235.593	31.41
235.811	33.56
236.03	37.42
236.249	13.62
236.467	-6.04
236.686	5.75
236.904	15.16
237.123	-18.31
237.341	0.02
237.559	7.77
237.778	-16.44
237.996	-22.56
238.215	14.93
238.433	11.4
238.652	16.33
238.87	-0.16
239.088	10.18
239.307	5.25
239.525	-2.73
239.743	-42.73
239.962	-22.46
240.18	-60.35
240.398	-98.02
240.617	-103.14
240.835	-74.66
241.053	-64.01
241.271	-8.69
241.49	12.65
241.708	17.77
241.926	13.16
242.144	19.05
242.363	-35.23
242.581	-54.14
242.799	-8.61
243.017	10.26
243.235	-11.61
243.453	-5.68
243.672	13.39
243.89	-3.48
244.108	-11.11
244.326	21.65
244.544	44.02
244.762	25.86
244.98	39.59
245.198	36.57
245.416	-10.31
245.634	-16.44
245.852	-20.36
246.07	-48.81
246.288	-60.26
246.506	-53.13
246.724	-38.2
246.942	-19.02
247.16	23.23
247.378	38.29
247.596	55.07
247.814	58.89
248.032	27.13
248.25	18.75
248.468	20.66
248.685	21.14
248.903	38.81
249.121	48.03
249.339	10.78
249.557	-11.53
249.775	4.84
249.992	-55.08
250.21	-62.83
250.428	-28.73
250.646	-50.51
250.863	-85.65
251.081	-55.65
251.299	-19.29
251.517	-1.92
251.734	23.4
251.952	33.75
252.17	24.87
252.387	18.54
252.605	-1.76
252.823	1.77
253.04	13.5
253.258	18.91
253.475	19.38
253.693	48.24
253.911	51.21
254.128	54.11
254.346	61.15
254.563	16.92
254.781	-12.06
254.998	-43.03
255.216	-52.36
255.433	-40.28
255.651	31.08
255.868	61.14
256.086	83.28
256.303	78.49
256.521	70.98
256.738	46.69
256.956	21.74
257.173	7.62
257.39	-25.84
257.608	-60.99
257.825	-29.08
258.043	25.48
258.26	25.62
258.477	75.83
258.695	79.42
258.912	30.02
259.129	16.17
259.346	-12.08
259.564	-46.09
259.781	-72.64
259.998	9.54
260.216	19.09
260.433	62.35
260.65	50.16
260.867	64.63
261.084	35.94
261.302	20.63
261.519	-5.52
261.736	-39.86
261.953	-72.64
262.17	-41.12
262.387	-72.55
262.604	-103.15
262.822	-90.51
263.039	-55.42
263.256	-98.16
263.473	-31.27
263.69	-4.71
263.907	32.76
264.124	39.31
264.341	44.18
264.558	15.1
264.775	30.65
264.992	11.63
265.209	20.82
265.426	41.29
265.643	50.85
265.86	59.18
266.077	56.05
266.294	44.57
266.51	-11.69
266.727	-28.49
266.944	-32.37
267.161	-21.88
267.378	-15.48
267.595	24.5
267.812	-9.23
268.028	-28.27
268.245	-11.85
268.462	-36.34
268.679	-36.53
268.896	38.05
269.112	48.04
269.329	38.69
269.546	59.96
269.763	35.87
269.979	14.16
270.196	0.37
270.413	-36.21
270.629	-56.97
270.846	-59.84
271.063	-45.69
271.279	-57.21
271.496	-34.18
271.712	-4.25
271.929	5.44
272.146	-16.99
272.362	-4.05
272.579	31.74
272.795	37.99
273.012	55.27
273.228	68.87
273.445	47.61
273.661	28.27
273.878	-28.71
274.094	-28.55
274.311	-65
274.527	6.78
274.744	8.02
274.96	21.12
275.177	25.95
275.393	45.68
275.609	33.76
275.826	42.59
276.042	24.53
276.259	9.25
276.475	16.49
276.691	23.77
276.908	-1.07
277.124	23.02
277.34	21.18
277.557	14.71
277.773	4.29
277.989	21.63
278.205	4.14
278.422	15.41
278.638	16.46
278.854	32.75
279.07	33.19
279.286	43.77
279.503	31.08
279.719	14.37
279.935	-29.92
280.151	-52.57
280.367	-19.64
280.583	-39.52
280.799	-15.19
281.016	-31.04
281.232	-0.29
281.448	-7.88
281.664	24.96
281.88	-4.59
282.096	28.27
282.312	71.65
282.528	83.61
282.744	76.66
282.96	83.88
283.176	65.56
283.392	30.28
283.608	9.77
283.824	8.33
284.04	10.96
284.256	11.65
284.471	10.32
284.687	20.83
284.903	29.41
285.119	40.9
285.335	30.28
285.551	45.49
285.767	30.16
285.982	22.11
286.198	-6.29
286.414	30.15
286.63	24.33
286.846	45.33
287.061	16.04
287.277	40.11
287.493	6.95
287.709	15.31
287.924	-1.14
288.14	46.53
288.356	37.62
288.571	58.89
288.787	50.93
289.003	49.12
289.218	28.29
289.434	1.11
289.65	0.93
289.865	-11.58
290.081	8.97
290.296	18.93
290.512	34.34
290.727	-4.65
290.943	0.55
291.159	-16.51
291.374	-20.89
291.59	-49.27
291.805	-26.86
292.021	-25.85
292.236	-32.12
292.451	-15.69
292.667	0.45
292.882	22.81
293.098	26.5
293.313	28.83
293.529	7.5
293.744	-0.2
293.959	-27.91
294.175	-20.62
294.39	0.66
294.605	12.24
294.821	34.34
295.036	45.14
295.251	39.19
295.467	21.04
295.682	17.48
295.897	-27.4
296.112	-40.74
296.328	-21.39
296.543	-30.94
296.758	-4.41
296.973	31.89
297.188	54.99
297.404	21.71
297.619	15.53
297.834	-26.52
298.049	-45.93
298.264	-84.17
298.479	-23.29
298.694	-3.99
298.909	16.7
299.125	20.1
299.34	30.31
299.555	6.86
299.77	24.42
299.985	-9.42
300.2	-49.01
300.415	-75.11
300.63	-28.34
300.845	-57.71
301.06	-52.53
301.275	-18.47
301.49	5.91
301.704	-16.68
301.919	-22.28
302.134	-25.38
302.349	-26.4
302.564	-64.08
302.779	-43.58
302.994	1.96
303.209	10.04
303.423	25.6
303.638	46.96
303.853	4.08
304.068	3.37
304.283	-1.3
304.497	0.61
304.712	-5.74
304.927	15.75
305.142	3.33
305.356	22.64
305.571	13.46
305.786	-4.29
306	-26.34
306.215	-7.51
306.43	-41.68
306.644	-27.79
306.859	12.95
307.074	48.72
307.288	1.8
307.503	14.34
307.717	-7.56
307.932	-4.41
308.147	-37.47
308.361	-2.14
308.576	-16.65
308.79	-65.64
309.005	-63.58
309.219	-39.99
309.434	-62.61
309.648	-51.66
309.863	-10.83
310.077	3.73
310.292	4.72
310.506	15.75
310.72	28.92
310.935	31.5
311.149	14.73
311.364	18.25
311.578	31.53
311.792	17.31
312.007	35.73
312.221	27.58
312.435	35.77
312.649	23.95
312.864	90.08
313.078	91.53
313.292	157.06
313.507	133.32
313.721	149.46
313.935	61.26
314.149	52.75
314.363	27.94
314.578	37.04
314.792	40.18
315.006	7.8
315.22	9.16
315.434	28.87
315.648	32.64
315.862	26.27
316.077	32.02
316.291	33.93
316.505	16.03
316.719	4.93
316.933	-9.1
317.147	-0.23
317.361	-47.12
317.575	-55.56
317.789	-73.97
318.003	-121.46
318.217	-90.11
318.431	-11.81
318.645	9.73
318.859	7.45
319.073	36.35
319.287	24.3
319.5	-5.3
319.714	-33.32
319.928	-48.29
320.142	-67.91
320.356	-5.29
320.57	33.58
320.784	36.42
320.997	55.9
321.211	39.6
321.425	-34.31
321.639	-75.61
321.853	-29.21
322.066	-20.26
322.28	-14.57
322.494	9.8
322.707	27.08
322.921	13.65
323.135	-3.43
323.349	7.76
323.562	-20.9
323.776	-34.13
323.989	-29.69
324.203	-37.62
324.417	-52.33
324.63	-56.79
324.844	-51
325.057	-50.21
325.271	-24.4
325.485	10.77
325.698	27.04
325.912	39.36
326.125	10.7
326.339	9.26
326.552	-12.08
326.766	-7
326.979	8.94
327.193	56.74
327.406	53
327.619	31.77
327.833	52.44
328.046	24.88
328.26	-11.56
328.473	13.59
328.686	2.62
328.9	-4.05
329.113	13.44
329.326	-0.7
329.54	0.95
329.753	-8
329.966	-36.22
330.179	-42.11
330.393	-20.25
330.606	-6.72
330.819	17.76
331.032	27.51
331.246	31.98
331.459	60.59
331.672	42.2
331.885	24.97
332.098	12.04
332.311	-2.06
332.525	-66.15
332.738	-43.45
332.951	-9.77
333.164	6.52
333.377	27.66
333.59	54.66
333.803	46.83
334.016	43.27
334.229	49.41
334.442	54.63
334.655	56.27
334.868	70.72
335.081	65.85
335.294	48.15
335.507	36.19
335.72	12.92
335.933	-3.39
336.146	-6.06
336.359	-14.38
336.572	-42.68
336.785	-73.66
336.997	-52.97
337.21	-33.57
337.423	-21.59
337.636	-7.18
337.849	20.24
338.062	-0.53
338.274	7.56
338.487	-7.29
338.7	-5.81
338.913	-41.38
339.125	-61.86
339.338	-119.49
339.551	-89.3
339.763	-55.8
339.976	-17.25
340.189	8.82
340.402	19.97
340.614	5.56
340.827	-13.4
341.039	-29.18
341.252	-20.77
341.465	-17.38
341.677	-20.16
341.89	-30.17
342.102	-2.23
342.315	-19.79
342.527	-29.94
342.74	-25.29
342.952	5.8
343.165	2.23
343.377	24.69
343.59	14.05
343.802	31.45
344.015	27.93
344.227	30.4
344.44	24.21
344.652	40.41
344.864	28.06
345.077	42.12
345.289	43.64
345.502	44.4
345.714	30.55
345.926	36.64
346.139	20.77
346.351	30.33
346.563	33.5
346.775	48.12
346.988	29.91
347.2	20.57
347.412	-41.41
347.624	-60.13
347.837	-76.37
348.049	-38.95
348.261	-5.5
348.473	13.63
348.685	22.78
348.897	-3.11
349.11	-20.53
349.322	-52.77
349.534	-24.29
349.746	-31.28
349.958	-9.97
350.17	-4.3
350.382	23.57
350.594	21.01
350.806	19.37
351.018	20.72
351.23	17.99
351.442	-37.37
351.654	-62.38
351.866	-30.54
352.078	-4.73
352.29	12.77
352.502	38.39
352.714	51.9
352.926	30.24
353.138	11.83
353.35	-4.73
353.561	-13.72
353.773	-37.88
353.985	-19.35
354.197	-21.08
354.409	-16.21
354.621	-23.47
354.832	-12.55
355.044	-20.07
355.256	-22.47
355.468	-1.21
355.679	2.8
355.891	21.6
356.103	13.73
356.314	19.1
356.526	10.73
356.738	15.02
356.949	-3.73
357.161	4.65
357.373	2.28
357.584	-10.62
357.796	-9.1
358.008	-7.55
358.219	3.94
358.431	-1.87
358.642	7.96
358.854	15.81
359.065	2.08
359.277	-14.63
359.488	-14.39
359.7	-35.68
359.911	-52.54
360.123	-25.65
360.334	-39.37
360.546	-52.03
360.757	-41.72
360.969	-37.44
361.18	-40.97
361.391	-13.27
361.603	-14.88
361.814	-16.13
362.025	-12.67
362.237	-5.94
362.448	2.25
362.659	26.47
362.871	26.37
363.082	18.98
363.293	6.24
363.504	-6.94
363.716	-32.99
363.927	-37.4
364.138	-55.36
364.349	-59.75
364.56	-60.96
364.772	-53.61
364.983	-32.18
365.194	-24.03
365.405	0.24
365.616	27.1
365.827	35.11
366.038	12.87
366.25	13.2
366.461	-19.98
366.672	-8.51
366.883	10.36
367.094	30.86
367.305	19.25
367.516	20.63
367.727	-11.61
367.938	-28.54
368.149	-35.78
368.36	-10.97
368.571	-1.54
368.781	-3.64
368.992	-14.46
369.203	-26.74
369.414	-46.93
369.625	-56.81
369.836	-40.98
370.047	-57.01
370.258	-53.15
370.468	-52.53
370.679	-62.58
370.89	-72.67
371.101	-50.2
371.312	-44.83
371.522	-37.47
371.733	-19.3
371.944	-0.51
372.155	7.23
372.365	6.49
372.576	3.83
372.787	1.91
372.997	-23.48
373.208	-30.43
373.419	-2.79
373.629	-18.01
373.84	-27.71
374.05	-28.63
374.261	-20.59
374.472	-50.09
374.682	-3.47
374.893	-4.47
375.103	27.99
375.314	23.51
375.524	25.37
375.735	11.09
375.945	17.34
376.156	-4.39
376.366	1.17
376.577	1.16
376.787	1.88
376.997	13.86
377.208	18.04
377.418	5.18
377.629	20
377.839	19.58
378.049	16.36
378.26	27.32
378.47	35.24
378.68	19.74
378.89	11.15
379.101	2.06
379.311	-28.32
379.521	-53.58
379.732	-44.48
379.942	-40.22
380.152	-44.23
380.362	-9.09
380.572	-7.87
380.783	-1.62
380.993	6.99
381.203	19.96
381.413	30.57
381.623	39.4
381.833	27.57
382.043	17.98
382.253	2.73
382.463	-8.94
382.674	-12.74
382.884	-23.89
383.094	-24.18
383.304	-13.03
383.514	-5.08
383.724	5.84
383.934	5.51
384.144	-6.22
384.353	-21.47
384.563	-24.74
384.773	-26.56
384.983	-32.85
385.193	-8.17
385.403	5.31
385.613	4.49
385.823	-7.84
386.033	1.46
386.242	-9.92
386.452	-16.77
386.662	-24.36
386.872	-6.27
387.082	-10.78
387.291	-10.39
387.501	-8.93
387.711	-4.01
387.921	-14.37
388.13	-12.19
388.34	-1.61
388.55	-5.3
388.759	-3.73
388.969	0.67
389.179	0.35
389.388	-1.81
389.598	6.47
389.807	-0.38
390.017	-1.54
390.227	-3.22
390.436	-4.74
390.646	-6.71
390.855	-2.18
391.065	-2.36
391.274	-3.5
391.484	-4.04
391.693	-3.09
391.903	-2.14
392.112	3.41
392.322	7.48
392.531	10.2
392.74	8.95
392.95	5.24
393.159	1.92
393.369	0.5
393.578	-0.78
393.787	-1.49
393.997	0.34
394.206	-2.55
394.415	-1.54
394.625	-0.92
394.834	-0.9
395.043	-0.52
395.252	2.83
395.462	3.51
395.671	4.62
395.88	5.31
396.089	5.7
396.298	3.78
396.508	3.18
396.717	1.22
396.926	2.19
397.135	1.75
397.344	1.86
397.553	2.96
397.762	4.86
397.971	3.49
398.181	3.62
398.39	2.83
398.599	2.37
398.808	1.96
399.017	2.9
399.226	3.81
399.435	5.11
399.644	4.67
399.853	3.73
400.062	3.57
400.27	3.2
400.479	2.49
400.688	1.91
400.897	2.18
401.106	1.87
401.315	1.44
401.524	1.76
401.733	2.53
401.941	3.1
402.15	3.45
402.359	3.28
402.568	3.67
402.777	3.67
402.985	3.19
403.194	3.03
403.403	3.1
403.612	2.61
403.82	2.4
404.029	2.58
404.238	2.24
404.446	2.57
404.655	2.53
404.864	2.34
405.072	2.06
405.281	2.33
405.489	1.98
405.698	1.83
405.906	2
406.115	2.09
406.324	2.03
406.532	2.29
406.741	2.47
406.949	2.41
407.158	2.35
407.366	2.37
407.574	2.28
407.783	2.3
407.991	2.12
408.2	2.36
408.408	2.22
408.617	2.17
408.825	2.08
409.033	2.18
409.242	2.12
409.45	2.28
409.658	2.06
409.867	2.22
410.075	2.12
410.283	1.98
410.491	1.94
410.7	1.96
410.908	1.8
411.116	2.13
411.324	2.13
411.533	2.03
411.741	2.3
411.949	2.41
412.157	2.12
412.365	2.28
412.573	2.41
412.781	2.37
412.99	2.27
413.198	2.46
413.406	2.3
413.614	2.19
413.822	2
414.03	1.91
414.238	1.67
414.446	1.7
414.654	1.48
414.862	1.58
415.07	1.75
415.278	2.09
415.486	1.89
415.694	2.13
415.902	2.12
416.109	1.99
416.317	1.87
416.525	1.71
416.733	1.67
416.941	1.91
417.149	1.88
417.357	1.85
417.564	2.22
417.772	2.47
417.98	2.21
418.188	2.12
418.395	2.14
418.603	2.17
418.811	1.7
419.019	1.7
419.226	2.02
419.434	2.06
419.642	1.93
419.849	2.18
420.057	2.23
420.265	2.16
420.472	1.87
420.68	1.96
420.887	1.86
421.095	1.78
421.302	1.65
421.51	1.89
421.717	1.88
421.925	2.03
422.132	2.06
422.34	1.86
422.547	1.92
422.755	1.75
422.962	1.6
423.17	1.48
423.377	1.66
423.585	1.63
423.792	1.57
423.999	1.6
424.207	1.56
424.414	1.69
424.621	1.47
424.829	1.62
425.036	1.69
425.243	1.94
425.451	1.74
425.658	1.69
425.865	1.85
426.072	1.71
426.28	1.89
426.487	1.8
426.694	1.95
426.901	1.63
427.108	1.71
427.315	1.5
427.523	1.79
427.73	1.83
427.937	1.82
428.144	1.73
428.351	1.67
428.558	1.74
428.765	1.57
428.972	1.63
429.179	1.77
429.386	2.04
429.593	1.7
429.8	1.69
430.007	1.8
430.214	1.8
430.421	1.55
430.628	1.45
430.835	1.37
431.042	1.56
431.249	1.6
431.456	1.62
431.662	1.86
431.869	2.04
432.076	1.99
432.283	2.07
432.49	2.1
432.697	2.14
432.903	1.94
433.11	1.87
433.317	1.92
433.524	2.08
433.73	2.09
433.937	2.42
434.144	2.32
434.35	2.13
434.557	1.89
434.764	1.88
434.97	1.71
435.177	1.9
435.384	1.88
435.59	2.14
435.797	2.3
436.003	2.39
436.21	2.29
436.416	2.44
436.623	2.31
436.829	2.33
437.036	2.5
437.242	2.49
437.449	2.41
437.655	2.44
437.862	2.4
438.068	2.15
438.275	2.32
438.481	2.52
438.687	2.46
438.894	2.4
439.1	2.57
439.307	2.76
439.513	2.61
439.719	2.71
439.926	2.82
440.132	2.7
440.338	2.41
440.544	2.55
440.751	2.42
440.957	2.39
441.163	2.38
441.369	2.45
441.575	2.22
441.782	2.28
441.988	2.28
442.194	2.26
442.4	2.31
442.606	2.69
442.812	2.78
443.018	2.75
443.224	2.82
443.431	2.86
443.637	2.55
443.843	2.44
444.049	2.46
444.255	2.46
444.461	2.44
444.667	2.5
444.873	2.7
445.079	2.79
445.284	2.9
445.49	2.78
445.696	2.63
445.902	2.49
446.108	2.28
446.314	2.18
446.52	2.19
446.726	2.51
446.931	2.52
447.137	2.72
447.343	2.83
447.549	2.8
447.755	2.58
447.96	2.59
448.166	2.48
448.372	2.35
448.578	2.49
448.783	2.53
448.989	2.73
449.195	2.92
449.4	2.96
449.606	2.9
449.812	2.82
450.017	2.82
450.223	2.7
450.428	2.62
450.634	2.76
450.84	2.97
451.045	2.8
451.251	2.79
451.456	3.03
451.662	2.99
451.867	2.93
452.073	2.94
452.278	3.02
452.483	3.06
452.689	3
452.894	3.1
453.1	3.11
453.305	3.15
453.51	3.05
453.716	3.04
453.921	2.93
454.127	2.87
454.332	2.66
454.537	2.6
454.742	2.65
454.948	2.7
455.153	2.76
455.358	2.95
455.563	3.12
455.769	3.25
455.974	3.19
456.179	3.15
456.384	3.12
456.589	3.1
456.795	2.9
457	2.93
457.205	3.16
457.41	3.14
457.615	2.94
457.82	3
458.025	3
458.23	2.84
458.435	2.9
458.64	2.93
458.845	3.06
459.05	3.08
459.255	3.05
459.46	3.02
459.665	3.03
459.87	2.96
460.075	2.93
460.28	2.99
460.485	3.13
460.69	3.2
460.895	3.05
461.099	2.97
461.304	3.02
461.509	2.9
461.714	2.79
461.919	3.02
462.123	3.03
462.328	3.19
462.533	3.27
462.738	3.45
462.942	3.35
463.147	3.44
463.352	3.35
463.556	3.32
