Data from OFra_PS_T2_2A_0CX04_Reflection_2.txt Node
Date: Wed Jul 21 16:48:49 EDT 2021
User: Adam
Spectrometer: FLMT01687
Trigger mode: 0
Integration Time (sec): 1.100000E0
Scans to average: 2
Electric dark correction enabled: true
Nonlinearity correction enabled: false
Boxcar width: 2
XAxis mode: Wavelengths
Number of Pixels in Spectrum: 3648
>>>>>Begin Spectral Data<<<<<
179.494	408.2
179.716	428
179.937	433.32
180.158	443.56
180.38	758.28
180.601	385.22
180.823	186.76
181.044	107.23
181.265	86.95
181.486	51.81
181.708	97.29
181.929	155.61
182.15	-27.11
182.372	104.98
182.593	96.78
182.814	74.66
183.035	70.74
183.257	51.63
183.478	-4.73
183.699	18.47
183.92	0.69
184.141	-11.03
184.363	-29.92
184.584	8.66
184.805	9.73
185.026	35.26
185.247	33.9
185.468	12.13
185.689	11.86
185.91	9.58
186.132	-10.87
186.353	-8.18
186.574	43.79
186.795	9.72
187.016	-13.14
187.237	-0.12
187.458	-22.15
187.679	-88.55
187.9	-73.05
188.121	-59.62
188.342	-90.98
188.563	-13.42
188.784	17.02
189.005	23.29
189.226	36.74
189.447	24.24
189.667	-152.06
189.888	-272.54
190.109	-741.88
190.33	-368.55
190.551	-675.44
190.772	-181.9
190.993	-135.62
191.214	-103.77
191.434	-71.53
191.655	-18.19
191.876	-26.33
192.097	-72.07
192.318	-147.8
192.538	-187.76
192.759	-121.55
192.98	-53.5
193.201	-16.28
193.421	-0.57
193.642	2.49
193.863	0.84
194.083	-14.71
194.304	-19.12
194.525	-1.51
194.745	-9.56
194.966	9.19
195.187	2.08
195.407	2.75
195.628	-39.18
195.848	-44.61
196.069	-64.95
196.29	-48.42
196.51	-40.18
196.731	-34.09
196.951	-19.52
197.172	-16.66
197.392	4.96
197.613	-5.07
197.833	-31.69
198.054	-22.1
198.274	-11.59
198.495	-38.91
198.715	-3.76
198.936	-11.42
199.156	-27.6
199.377	-73.74
199.597	-66.66
199.817	-110.27
200.038	-52.88
200.258	-93.54
200.479	-45.61
200.699	-68.6
200.919	-17.94
201.14	-16.08
201.36	-15.68
201.58	5.7
201.801	22.61
202.021	6.57
202.241	-0.69
202.461	1.08
202.682	-45.95
202.902	-41.66
203.122	-8.6
203.342	-22.07
203.563	16.5
203.783	14.91
204.003	-27.34
204.223	-18.04
204.443	48.32
204.663	16.17
204.884	33.99
205.104	63.32
205.324	63.66
205.544	44.85
205.764	43.62
205.984	40.24
206.204	36.86
206.424	23.91
206.644	-14.3
206.864	-10.15
207.084	-38.46
207.304	-45.78
207.525	-60.39
207.745	-10.93
207.964	27.66
208.184	1.74
208.404	-11.79
208.624	-23.17
208.844	-34.25
209.064	-204.9
209.284	-161.98
209.504	-75.66
209.724	-28.41
209.944	-7.78
210.164	8.28
210.384	3.57
210.604	-8.72
210.823	-8.73
211.043	-5.17
211.263	4.68
211.483	3.95
211.703	-19.1
211.922	-22.94
212.142	2.7
212.362	-7.36
212.582	-4.41
212.801	15.78
213.021	8.04
213.241	-17.46
213.461	-38.69
213.68	-40.9
213.9	-57.54
214.12	-54.14
214.339	-60.58
214.559	-20.91
214.779	-25
214.998	-9.97
215.218	-16.16
215.438	-26.19
215.657	-36.99
215.877	-12.14
216.096	13.57
216.316	21.31
216.535	25.68
216.755	34.7
216.974	28.56
217.194	-4.05
217.413	-23.36
217.633	-14.82
217.852	-56.67
218.072	-3.7
218.291	14.23
218.511	45.7
218.73	34.97
218.95	19.18
219.169	-6.13
219.389	-31.27
219.608	-24.96
219.827	-16.93
220.047	-20.41
220.266	10.41
220.485	35.25
220.705	35.16
220.924	16.56
221.143	32.83
221.363	24.15
221.582	10.31
221.801	14.75
222.021	24.56
222.24	-8.97
222.459	-23.97
222.678	11.34
222.897	-26.78
223.117	-63.07
223.336	-53.84
223.555	-2.66
223.774	-10.84
223.993	-24.4
224.213	-0.79
224.432	2
224.651	4.28
224.87	-5.64
225.089	14.03
225.308	23.76
225.527	29.97
225.746	35
225.965	26.59
226.184	5.78
226.404	2.47
226.623	1.26
226.842	-9.7
227.061	0.53
227.28	19.96
227.499	11.03
227.718	8.35
227.936	6.66
228.155	20.25
228.374	-1.18
228.593	27.19
228.812	35.23
229.031	32.71
229.25	0.13
229.469	2.05
229.688	-22.97
229.907	14.76
230.125	15.35
230.344	21.65
230.563	29.4
230.782	39.69
231.001	-35.65
231.22	-24.13
231.438	4.8
231.657	3.12
231.876	7.9
232.095	53.68
232.313	51.56
232.532	39.42
232.751	15.37
232.969	-20.08
233.188	-111.39
233.407	-55.26
233.625	-39.26
233.844	-38.14
234.063	-33.46
234.281	-3.06
234.5	-4.32
234.719	3.33
234.937	8.74
235.156	18.06
235.374	8.21
235.593	-23.87
235.811	-30.49
236.03	-39.49
236.249	-59.88
236.467	-52.64
236.686	-0.74
236.904	10.03
237.123	6.48
237.341	8.73
237.559	14.9
237.778	9.59
237.996	6.11
238.215	11.38
238.433	19.75
238.652	14.95
238.87	6.16
239.088	-2.07
239.307	-11.07
239.525	-27.83
239.743	-22.88
239.962	-23.12
240.18	-32
240.398	-27.68
240.617	-30.03
240.835	-32.22
241.053	-36.44
241.271	-21.53
241.49	1
241.708	-17.85
241.926	-45.99
242.144	-14.6
242.363	-45.43
242.581	-75.4
242.799	-21.48
243.017	-11.31
243.235	-13.5
243.453	10.76
243.672	19.62
243.89	3.75
244.108	7.08
244.326	18.98
244.544	24.08
244.762	17.03
244.98	16.8
245.198	26.9
245.416	23.52
245.634	21.39
245.852	5.18
246.07	-2.21
246.288	3.85
246.506	-12.02
246.724	-35.84
246.942	-12.34
247.16	13.38
247.378	13.92
247.596	2.21
247.814	24.6
248.032	4.38
248.25	3.96
248.468	-13.14
248.685	-11.16
248.903	0.91
249.121	9.63
249.339	1.14
249.557	6.89
249.775	24.51
249.992	3.37
250.21	6.38
250.428	-3.81
250.646	-20.22
250.863	-37.32
251.081	-35.43
251.299	-45.58
251.517	-15.02
251.734	6.77
251.952	15.91
252.17	24.11
252.387	26.22
252.605	17.6
252.823	21.64
253.04	22.85
253.258	27.1
253.475	28.6
253.693	44.48
253.911	46.49
254.128	55.1
254.346	53.63
254.563	37.93
254.781	21.8
254.998	10.66
255.216	-10.85
255.433	7.49
255.651	38.19
255.868	32
256.086	46.48
256.303	53.51
256.521	31.58
256.738	15.93
256.956	4.83
257.173	-18.37
257.39	-38.05
257.608	-50.28
257.825	-27.16
258.043	-4.66
258.26	11.06
258.477	29.45
258.695	29.18
258.912	1.98
259.129	19.83
259.346	-5.05
259.564	-11.57
259.781	-26.37
259.998	8.3
260.216	-12.26
260.433	12.1
260.65	-2.95
260.867	1.68
261.084	-18.36
261.302	-19.79
261.519	-35.86
261.736	-34.06
261.953	-32.14
262.17	-19.8
262.387	-54.56
262.604	-59.85
262.822	-31.24
263.039	-15.07
263.256	-33.5
263.473	16.94
263.69	21.17
263.907	31.43
264.124	31.38
264.341	31.26
264.558	26.74
264.775	24.99
264.992	6.02
265.209	-1.76
265.426	10.18
265.643	2.33
265.86	-1.38
266.077	-10.25
266.294	-2.25
266.51	-31.13
266.727	-18.47
266.944	-20.59
267.161	-23.86
267.378	-41.56
267.595	6.33
267.812	-17.78
268.028	-15.25
268.245	6.1
268.462	8.75
268.679	-21.47
268.896	17.9
269.112	14.27
269.329	11.07
269.546	13.26
269.763	16.77
269.979	-9.12
270.196	-7.57
270.413	-33.37
270.629	-42.52
270.846	-33.3
271.063	-18.13
271.279	-11.81
271.496	3.55
271.712	11.15
271.929	4.8
272.146	-2.51
272.362	-15.93
272.579	-1.85
272.795	23.4
273.012	30.23
273.228	27.3
273.445	29.34
273.661	13.85
273.878	-6.75
274.094	-14.63
274.311	-50.02
274.527	0.88
274.744	-5.41
274.96	5.09
275.177	22.55
275.393	50.65
275.609	32.72
275.826	60.76
276.042	53.9
276.259	36.22
276.475	31.1
276.691	39.76
276.908	21.51
277.124	30.85
277.34	31.98
277.557	22.98
277.773	5.62
277.989	7.69
278.205	-15.37
278.422	4.72
278.638	1.83
278.854	14.15
279.07	28.4
279.286	43.85
279.503	25.52
279.719	32.2
279.935	28.75
280.151	3.08
280.367	1.59
280.583	-18.69
280.799	-6.76
281.016	-35.45
281.232	-1.65
281.448	3.05
281.664	29.67
281.88	26.68
282.096	48.82
282.312	51.64
282.528	53.88
282.744	40.39
282.96	25.71
283.176	14.01
283.392	1.35
283.608	8.96
283.824	10.18
284.04	9.1
284.256	0.79
284.471	-2.39
284.687	-28.95
284.903	-27.56
285.119	-15.22
285.335	-19.42
285.551	-23.74
285.767	-13.08
285.982	-21.96
286.198	-45.64
286.414	2.75
286.63	-0.74
286.846	20.85
287.061	16.1
287.277	43.33
287.493	24.77
287.709	38.07
287.924	13.13
288.14	34.65
288.356	21.81
288.571	35.03
288.787	25.61
289.003	32.53
289.218	20.36
289.434	9.09
289.65	14.76
289.865	19.07
290.081	28.07
290.296	30.83
290.512	37.87
290.727	23.33
290.943	6.84
291.159	-0.5
291.374	-11.62
291.59	-32.51
291.805	-26.79
292.021	-4.33
292.236	5.43
292.451	27.17
292.667	35.37
292.882	42.63
293.098	26.77
293.313	3.39
293.529	-13.86
293.744	-16.78
293.959	-21.6
294.175	-13.19
294.39	14.4
294.605	26.06
294.821	31.36
295.036	40.77
295.251	54.66
295.467	57.22
295.682	56.73
295.897	46.23
296.112	26.36
296.328	7.61
296.543	-9.87
296.758	-15.8
296.973	5.98
297.188	23.46
297.404	16.44
297.619	8.16
297.834	8.59
298.049	-5.73
298.264	-32.03
298.479	-11.8
298.694	-14.03
298.909	-4.09
299.125	11.92
299.34	30.22
299.555	33.92
299.77	47.34
299.985	17.94
300.2	-26.38
300.415	-48.74
300.63	-44.91
300.845	-44.52
301.06	-35.32
301.275	-0.61
301.49	17.25
301.704	26.53
301.919	19.15
302.134	9.1
302.349	-8.06
302.564	-39.61
302.779	-74.24
302.994	-84.37
303.209	-48.92
303.423	0.55
303.638	17.48
303.853	9.56
304.068	19.75
304.283	18.62
304.497	14.65
304.712	5.19
304.927	5.62
305.142	2.56
305.356	3.65
305.571	-6.22
305.786	1.43
306	-2.02
306.215	-5.42
306.43	-14.39
306.644	-17
306.859	7.55
307.074	4.59
307.288	-2.52
307.503	-6.23
307.717	2.2
307.932	-14.8
308.147	-10.59
308.361	1.55
308.576	-6.67
308.79	-34.49
309.005	-22.95
309.219	-8.79
309.434	-24.5
309.648	-7.8
309.863	15.04
310.077	27.58
310.292	19.94
310.506	22.05
310.72	23.7
310.935	20.17
311.149	8.09
311.364	26.42
311.578	34.81
311.792	32.82
312.007	27.23
312.221	20.45
312.435	5.07
312.649	2.12
312.864	19.97
313.078	45.76
313.292	88.15
313.507	82.59
313.721	104.85
313.935	40.06
314.149	22.35
314.363	24.87
314.578	28.95
314.792	30.93
315.006	17.93
315.22	20.23
315.434	12.59
315.648	14.51
315.862	4.29
316.077	10.3
316.291	-8.05
316.505	-21.91
316.719	-40.76
316.933	-52.8
317.147	-60.77
317.361	-58.28
317.575	-72.01
317.789	-76.94
318.003	-102.2
318.217	-74.72
318.431	-30.11
318.645	-0.47
318.859	-1.61
319.073	19.18
319.287	11.12
319.5	1.55
319.714	-20.85
319.928	-35.89
320.142	-61.43
320.356	-30
320.57	-20.39
320.784	-26.24
320.997	-43.05
321.211	-23.86
321.425	-46.1
321.639	-72.88
321.853	-28.71
322.066	3.95
322.28	-1.54
322.494	4.09
322.707	23.79
322.921	21.93
323.135	23.37
323.349	14.58
323.562	-3.58
323.776	-2.65
323.989	2.24
324.203	-15.93
324.417	-9.62
324.63	-11.58
324.844	-26.1
325.057	-27.72
325.271	-9.58
325.485	15.99
325.698	34.34
325.912	55.24
326.125	38.81
326.339	34.3
326.552	26.32
326.766	27.87
326.979	28.95
327.193	44.03
327.406	26.59
327.619	13.48
327.833	10.98
328.046	-15.81
328.26	-51.86
328.473	-25.76
328.686	-42.15
328.9	-26.02
329.113	-16.69
329.326	1.14
329.54	1.74
329.753	-0.34
329.966	-20.43
330.179	-16.98
330.393	-17.25
330.606	-4.75
330.819	20.7
331.032	36.89
331.246	36.66
331.459	53.07
331.672	38.91
331.885	24.07
332.098	4.04
332.311	-10.16
332.525	-33.99
332.738	-38.91
332.951	-15.79
333.164	3.26
333.377	14.39
333.59	22.58
333.803	36.43
334.016	20.51
334.229	14.38
334.442	19.74
334.655	19.37
334.868	16.76
335.081	17.61
335.294	7.01
335.507	1.09
335.72	9.05
335.933	-3.49
336.146	-1.41
336.359	-10.09
336.572	-12.69
336.785	-44.89
336.997	-39.24
337.21	-15.86
337.423	-9.66
337.636	-23.81
337.849	-5.58
338.062	0.49
338.274	-15.14
338.487	-5.9
338.7	-9.55
338.913	-34.79
339.125	-31.58
339.338	-57.28
339.551	-95.41
339.763	-43.87
339.976	-24.84
340.189	-23.65
340.402	-26.66
340.614	-0.94
340.827	-5.02
341.039	-8.18
341.252	-3.08
341.465	28.95
341.677	44.78
341.89	31.59
342.102	39.36
342.315	28.54
342.527	-2.93
342.74	-4.99
342.952	2.2
343.165	5
343.377	11.72
343.59	19.36
343.802	19.02
344.015	16.56
344.227	4.65
344.44	14.23
344.652	17.57
344.864	5.91
345.077	35.83
345.289	39.22
345.502	26.41
345.714	23.05
345.926	26.09
346.139	17.28
346.351	14.75
346.563	24.14
346.775	21.24
346.988	15.86
347.2	4.83
347.412	-21.17
347.624	-18.09
347.837	-30.3
348.049	-19.12
348.261	-16.08
348.473	6.07
348.685	-6.64
348.897	-10.38
349.11	-22.69
349.322	-34.45
349.534	-38.89
349.746	-21.99
349.958	-14.77
350.17	-22.03
350.382	-1.11
350.594	7.21
350.806	19.09
351.018	23.87
351.23	35.02
351.442	16.42
351.654	-2.26
351.866	-17.8
352.078	-3.2
352.29	6.02
352.502	19.4
352.714	29.79
352.926	26.35
353.138	21.45
353.35	13.82
353.561	7.74
353.773	-10.52
353.985	-7.25
354.197	-18.84
354.409	-18.53
354.621	-25
354.832	-12.25
355.044	-10.1
355.256	-5.3
355.468	3.02
355.679	8.8
355.891	21.66
356.103	3.56
356.314	17.8
356.526	21.31
356.738	23.22
356.949	13.52
357.161	30.67
357.373	12.18
357.584	16.69
357.796	11.83
358.008	12.57
358.219	24.41
358.431	29.61
358.642	18.42
358.854	10.79
359.065	-3.71
359.277	-34.16
359.488	-48.84
359.7	-55.84
359.911	-48.13
360.123	-27.76
360.334	-28.19
360.546	-32.09
360.757	-33.56
360.969	-24.8
361.18	-20.06
361.391	4.93
361.603	11.24
361.814	7.82
362.025	5.25
362.237	-22.91
362.448	-25.56
362.659	-9.69
362.871	-8.84
363.082	-14.31
363.293	-1.47
363.504	-5.28
363.716	-24.01
363.927	-28.99
364.138	-29.13
364.349	-20.13
364.56	-14.84
364.772	-5.2
364.983	4.94
365.194	14.63
365.405	16.57
365.616	13.67
365.827	15.63
366.038	14.97
366.25	2.7
366.461	4.61
366.672	16.15
366.883	1.88
367.094	7.98
367.305	6.24
367.516	3.43
367.727	-9.23
367.938	2.45
368.149	8.78
368.36	9.7
368.571	16.19
368.781	6.48
368.992	5.21
369.203	-19.53
369.414	-14.97
369.625	-40.42
369.836	-36.87
370.047	-67.97
370.258	-54.07
370.468	-67.51
370.679	-55.71
370.89	-39.55
371.101	-23.94
371.312	-10.11
371.522	3.67
371.733	7.75
371.944	9.72
372.155	21.95
372.365	12.5
372.576	12.43
372.787	6.96
372.997	5.5
373.208	-4.99
373.419	-7.67
373.629	-24.47
373.84	-28.13
374.05	-41.62
374.261	-37.08
374.472	-22.96
374.682	-4.09
374.893	-0.21
375.103	13.8
375.314	9.13
375.524	7.74
375.735	17.57
375.945	18.21
376.156	11.5
376.366	17.14
376.577	15.48
376.787	6.11
376.997	7.75
377.208	8.73
377.418	-0.68
377.629	-4.66
377.839	-2.26
378.049	2.01
378.26	5.37
378.47	18.19
378.68	18.54
378.89	14.17
379.101	6.28
379.311	-2.11
379.521	-31.31
379.732	-29.89
379.942	-28.62
380.152	-42.66
380.362	-19.89
380.572	-8.05
380.783	-1.14
380.993	14.12
381.203	22.07
381.413	9.21
381.623	20.72
381.833	17.01
382.043	6.43
382.253	8.61
382.463	10.21
382.674	-7.17
382.884	-15.12
383.094	-6.95
383.304	0.58
383.514	2.98
383.724	11.62
383.934	13.25
384.144	2.95
384.353	-5.68
384.563	-9.76
384.773	-4.65
384.983	-16.92
385.193	-2.73
385.403	0.58
385.613	9.61
385.823	6.49
386.033	13.45
386.242	0.96
386.452	1.89
386.662	-6.14
386.872	1.41
387.082	-5.11
387.291	0.94
387.501	-0.6
387.711	6.04
387.921	-4.26
388.13	1.17
388.34	6.67
388.55	5.65
388.759	1.47
388.969	9.29
389.179	8.1
389.388	3.12
389.598	8.02
389.807	5.91
390.017	-0.02
390.227	0.87
390.436	2.02
390.646	-2.31
390.855	0.54
391.065	1.44
391.274	1.95
391.484	0.43
391.693	0.32
391.903	2.92
392.112	5.94
392.322	7.15
392.531	11.04
392.74	12.77
392.95	10.24
393.159	7.23
393.369	4.73
393.578	3.05
393.787	2.76
393.997	3.23
394.206	3.53
394.415	5.7
394.625	5.59
394.834	4.95
395.043	6.46
395.252	8.42
395.462	9.22
395.671	10.06
395.88	11.43
396.089	11.67
396.298	10.04
396.508	9.26
396.717	8.25
396.926	7.78
397.135	6.85
397.344	7.15
397.553	7.79
397.762	8.71
397.971	9.05
398.181	9
398.39	8.53
398.599	7.66
398.808	7.69
399.017	7.68
399.226	8.27
399.435	9.28
399.644	9.86
399.853	9.05
400.062	8.7
400.27	8.12
400.479	7.86
400.688	7.72
400.897	8.08
401.106	8.52
401.315	9.15
401.524	8.96
401.733	8.93
401.941	9.22
402.15	9.16
402.359	8.89
402.568	8.97
402.777	8.99
402.985	8.64
403.194	8.38
403.403	8.3
403.612	8.25
403.82	8.2
404.029	8.31
404.238	8.46
404.446	8.49
404.655	8.22
404.864	8.07
405.072	7.8
405.281	7.66
405.489	7.56
405.698	7.82
405.906	7.92
406.115	8.05
406.324	8.12
406.532	8.22
406.741	8.33
406.949	8.26
407.158	8.35
407.366	8.3
407.574	8.33
407.783	8.2
407.991	8.18
408.2	8.06
408.408	8.06
408.617	7.94
408.825	7.85
409.033	7.84
409.242	7.96
409.45	7.85
409.658	7.82
409.867	7.85
410.075	7.83
410.283	7.72
410.491	7.81
410.7	7.73
410.908	7.72
411.116	7.95
411.324	7.88
411.533	7.67
411.741	7.76
411.949	7.74
412.157	7.5
412.365	7.59
412.573	7.77
412.781	7.82
412.99	7.88
413.198	7.96
413.406	7.97
413.614	7.87
413.822	7.85
414.03	7.84
414.238	7.66
414.446	7.66
414.654	7.65
414.862	7.6
415.07	7.56
415.278	7.68
415.486	7.52
415.694	7.56
415.902	7.36
416.109	7.23
416.317	7.28
416.525	7.15
416.733	7.08
416.941	7.25
417.149	7.25
417.357	7.12
417.564	7.25
417.772	7.41
417.98	7.33
418.188	7.24
418.395	7.38
418.603	7.56
418.811	7.16
419.019	7.14
419.226	7.24
419.434	7.15
419.642	6.8
419.849	6.96
420.057	6.92
420.265	6.83
420.472	6.65
420.68	6.65
420.887	6.7
421.095	6.7
421.302	6.75
421.51	6.81
421.717	7.01
421.925	6.99
422.132	6.96
422.34	6.74
422.547	6.72
422.755	6.59
422.962	6.43
423.17	6.48
423.377	6.64
423.585	6.77
423.792	6.8
423.999	6.86
424.207	6.69
424.414	6.65
424.621	6.38
424.829	6.36
425.036	6.4
425.243	6.67
425.451	6.66
425.658	6.73
425.865	6.76
426.072	6.76
426.28	6.71
426.487	6.73
426.694	6.81
426.901	6.72
427.108	6.69
427.315	6.66
427.523	6.74
427.73	6.72
427.937	6.82
428.144	6.77
428.351	6.77
428.558	6.88
428.765	6.91
428.972	6.86
429.179	7.11
429.386	7.33
429.593	7.2
429.8	7.25
430.007	7.45
430.214	7.52
430.421	7.28
430.628	7.18
430.835	7.05
431.042	6.94
431.249	6.85
431.456	6.87
431.662	7
431.869	7.17
432.076	7.19
432.283	7.19
432.49	7.35
432.697	7.44
432.903	7.33
433.11	7.45
433.317	7.54
433.524	7.59
433.73	7.63
433.937	7.78
434.144	7.68
434.35	7.74
434.557	7.48
434.764	7.35
434.97	7.39
435.177	7.52
435.384	7.48
435.59	7.8
435.797	8.11
436.003	7.96
436.21	7.88
436.416	7.91
436.623	7.87
436.829	7.86
437.036	8.05
437.242	8.26
437.449	8.15
437.655	8.18
437.862	8.21
438.068	8.18
438.275	8.2
438.481	8.45
438.687	8.4
438.894	8.39
439.1	8.44
439.307	8.45
439.513	8.33
439.719	8.39
439.926	8.46
440.132	8.54
440.338	8.55
440.544	8.72
440.751	8.75
440.957	8.83
441.163	8.86
441.369	8.91
441.575	8.77
441.782	8.74
441.988	8.6
442.194	8.58
442.4	8.61
442.606	8.84
442.812	9.05
443.018	9.08
443.224	9.11
443.431	9.13
443.637	9.06
443.843	8.97
444.049	9.06
444.255	9.05
444.461	9.18
444.667	9.19
444.873	9.26
445.079	9.29
445.284	9.41
445.49	9.23
445.696	9.2
445.902	9.22
446.108	9.19
446.314	9.16
446.52	9.24
446.726	9.36
446.931	9.38
447.137	9.43
447.343	9.47
447.549	9.47
447.755	9.43
447.96	9.49
448.166	9.48
448.372	9.48
448.578	9.57
448.783	9.59
448.989	9.55
449.195	9.71
449.4	9.77
449.606	9.73
449.812	9.73
450.017	9.74
450.223	9.67
450.428	9.66
450.634	9.68
450.84	9.78
451.045	9.78
451.251	9.77
451.456	9.88
451.662	9.99
451.867	9.97
452.073	10.03
452.278	10.11
452.483	10.06
452.689	9.97
452.894	9.98
453.1	9.93
453.305	9.88
453.51	9.92
453.716	9.97
453.921	10.04
454.127	10.03
454.332	10.07
454.537	9.94
454.742	9.86
454.948	9.79
455.153	9.88
455.358	9.98
455.563	10.12
455.769	10.29
455.974	10.37
456.179	10.35
456.384	10.23
456.589	10.3
456.795	10.15
457	10.12
457.205	10.27
457.41	10.35
457.615	10.24
457.82	10.34
458.025	10.34
458.23	10.26
458.435	10.29
458.64	10.33
458.845	10.32
459.05	10.33
459.255	10.32
459.46	10.28
459.665	10.27
459.87	10.33
460.075	10.37
460.28	10.34
460.485	10.44
460.69	10.52
460.895	10.44
461.099	10.48
461.304	10.62
461.509	10.66
461.714	10.6
461.919	10.68
462.123	10.56
462.328	10.63
462.533	10.52
462.738	10.65
462.942	10.72
463.147	10.87
463.352	10.8
463.556	10.95
463.761	10.87
463.966	10.81
464.17	10.75
464.375	10.77
464.58	10.7
464.784	10.74
