Data from Ofra_PS_T2_2A_1GT43_Reflection_1.txt Node
Date: Wed Jul 21 16:55:53 EDT 2021
User: Adam
Spectrometer: FLMT01687
Trigger mode: 0
Integration Time (sec): 1.100000E0
Scans to average: 2
Electric dark correction enabled: true
Nonlinearity correction enabled: false
Boxcar width: 2
XAxis mode: Wavelengths
Number of Pixels in Spectrum: 3648
>>>>>Begin Spectral Data<<<<<
179.494	419.8
179.716	481.88
179.937	512.65
180.158	460.94
180.38	764.22
180.601	475
180.823	169.25
181.044	67.65
181.265	488.79
181.486	217.63
181.708	132.04
181.929	719.9
182.15	-298.24
182.372	140.29
182.593	188.59
182.814	91.61
183.035	107.7
183.257	106.42
183.478	43.67
183.699	13.71
183.92	-2
184.141	-0.23
184.363	-32.74
184.584	-7.13
184.805	17.07
185.026	28.09
185.247	22.29
185.468	-2.23
185.689	4.94
185.91	4.08
186.132	-5.12
186.353	0.67
186.574	28.41
186.795	33.73
187.016	-5.72
187.237	-17.55
187.458	-66.59
187.679	-49.56
187.9	-52.96
188.121	-29.91
188.342	-14.83
188.563	46.14
188.784	75.06
189.005	59.34
189.226	66.37
189.447	29.91
189.667	-267.35
189.888	-531.4
190.109	-1350.32
190.33	-606.94
190.551	-973.23
190.772	-171.13
190.993	-138.6
191.214	-123.53
191.434	-99.96
191.655	-39.97
191.876	-91.43
192.097	-98.38
192.318	-153.43
192.538	-230.13
192.759	-145.71
192.98	-61.97
193.201	-7.54
193.421	14.33
193.642	29.95
193.863	49.74
194.083	34.8
194.304	18.15
194.525	24.69
194.745	-8.32
194.966	-23.02
195.187	-26.76
195.407	-43.02
195.628	-105.72
195.848	-33.47
196.069	-48.4
196.29	-27.58
196.51	-32.9
196.731	-18.21
196.951	-46.99
197.172	-72.1
197.392	-74.39
197.613	-70.5
197.833	-105.47
198.054	-80.37
198.274	-18.34
198.495	-45.55
198.715	-29.45
198.936	-35.18
199.156	-47.93
199.377	-152.69
199.597	-132.89
199.817	-124.14
200.038	-80.01
200.258	-126.59
200.479	-37.63
200.699	-20.98
200.919	17.56
201.14	31.32
201.36	12.92
201.58	19.82
201.801	39.71
202.021	11.09
202.241	9.51
202.461	20.9
202.682	-61.98
202.902	-96.78
203.122	-56.35
203.342	-53.68
203.563	-16.5
203.783	31.11
204.003	8.29
204.223	12.29
204.443	52.92
204.663	45.14
204.884	43.92
205.104	73.14
205.324	110.03
205.544	111.96
205.764	103.94
205.984	83.69
206.204	60.74
206.424	41.08
206.644	4.39
206.864	-3.32
207.084	0.19
207.304	28.26
207.525	-58.67
207.745	-0.89
207.964	6.83
208.184	-56
208.404	-70.79
208.624	-37.84
208.844	-55.34
209.064	-211.23
209.284	-166.77
209.504	-66.74
209.724	-17.42
209.944	6.1
210.164	27.87
210.384	34.07
210.604	53.36
210.823	47.67
211.043	43.18
211.263	26.52
211.483	39.58
211.703	-17.86
211.922	-16.93
212.142	19.65
212.362	39.92
212.582	7.2
212.801	13.09
213.021	-4.4
213.241	-17.77
213.461	-47.95
213.68	-62.62
213.9	-57.04
214.12	-37.97
214.339	-93.32
214.559	-70.86
214.779	-21.7
214.998	-14.04
215.218	-41.76
215.438	-2.4
215.657	6.77
215.877	8.78
216.096	35.58
216.316	44.18
216.535	36.66
216.755	16.02
216.974	-10.27
217.194	-78.77
217.413	-77.16
217.633	-82.06
217.852	-120.11
218.072	-66.91
218.291	-8.78
218.511	33.86
218.73	15.81
218.95	3.72
219.169	2.46
219.389	-38.84
219.608	-34.85
219.827	-28.2
220.047	-10.18
220.266	10.96
220.485	20.02
220.705	21.99
220.924	6.85
221.143	34.06
221.363	11.93
221.582	16.24
221.801	37.69
222.021	60.67
222.24	16.93
222.459	73.54
222.678	73.3
222.897	36.75
223.117	-11.54
223.336	38.17
223.555	17.02
223.774	62.14
223.993	33.54
224.213	80.29
224.432	65.34
224.651	63.82
224.87	25.69
225.089	31.02
225.308	10.06
225.527	24
225.746	33.49
225.965	27.51
226.184	30.27
226.404	41.72
226.623	24.95
226.842	14.1
227.061	36.59
227.28	29.63
227.499	13.42
227.718	17.33
227.936	16.81
228.155	16.39
228.374	17.13
228.593	27.67
228.812	25.38
229.031	3.01
229.25	-40.79
229.469	-49.26
229.688	-59.69
229.907	-7.9
230.125	14.85
230.344	30.64
230.563	43.71
230.782	48.09
231.001	-8.78
231.22	-9.93
231.438	8.32
231.657	12.49
231.876	-10.19
232.095	31.17
232.313	45.85
232.532	27.03
232.751	-0.8
232.969	21.57
233.188	-30.34
233.407	-22.18
233.625	8.47
233.844	-18.9
234.063	-12.29
234.281	10.35
234.5	-3.35
234.719	0.46
234.937	23.06
235.156	13.07
235.374	3.24
235.593	-1.14
235.811	-16.06
236.03	-26.99
236.249	-47.98
236.467	-21.35
236.686	9.49
236.904	13.09
237.123	6.62
237.341	16.03
237.559	15.15
237.778	2.58
237.996	2.84
238.215	23.19
238.433	22.97
238.652	14.92
238.87	1.25
239.088	4.06
239.307	-6.44
239.525	-22.09
239.743	-39.42
239.962	-25.5
240.18	-52.98
240.398	-65.74
240.617	-66.19
240.835	-56.49
241.053	-40.2
241.271	7.66
241.49	8.79
241.708	8.21
241.926	22.5
242.144	32.39
242.363	-0.45
242.581	0.83
242.799	18.51
243.017	20.54
243.235	-8.8
243.453	2.74
243.672	6.93
243.89	8.45
244.108	14.36
244.326	40.73
244.544	52.72
244.762	62.3
244.98	86.05
245.198	82.09
245.416	46.42
245.634	25.94
245.852	10.66
246.07	-17.15
246.288	-43.95
246.506	-57.74
246.724	-37.81
246.942	-33.54
247.16	4.07
247.378	25
247.596	43.24
247.814	26.54
248.032	10.62
248.25	10.46
248.468	12.62
248.685	28.08
248.903	45.04
249.121	45.16
249.339	27.64
249.557	4.07
249.775	0.76
249.992	-52.43
250.21	-33.99
250.428	-26.82
250.646	-33
250.863	-42.65
251.081	-15.94
251.299	-40.92
251.517	-36.72
251.734	-22.58
251.952	-15.91
252.17	-17.77
252.387	5.99
252.605	-2.95
252.823	-0.08
253.04	12.49
253.258	32.04
253.475	33.67
253.693	65.72
253.911	70.45
254.128	65.01
254.346	75.73
254.563	38.08
254.781	2.59
254.998	-9.69
255.216	-18.23
255.433	2.47
255.651	44.85
255.868	56.91
256.086	67.43
256.303	60.6
256.521	40.65
256.738	18.6
256.956	-1.43
257.173	-14.84
257.39	-34.2
257.608	-64.03
257.825	-20.6
258.043	24.34
258.26	18.24
258.477	56.69
258.695	52.16
258.912	27.31
259.129	20.16
259.346	7.03
259.564	-11.37
259.781	12.81
259.998	26.38
260.216	45.54
260.433	48.82
260.65	48.68
260.867	44.66
261.084	38.12
261.302	13.75
261.519	38.77
261.736	16.74
261.953	3.35
262.17	22.83
262.387	11.85
262.604	-28.86
262.822	-29.04
263.039	1.66
263.256	-21.9
263.473	6.27
263.69	12.88
263.907	28.32
264.124	12.51
264.341	7.37
264.558	5.24
264.775	12.51
264.992	2.73
265.209	21.03
265.426	30.79
265.643	24.68
265.86	25.56
266.077	23.8
266.294	15.9
266.51	1.15
266.727	-9.81
266.944	-10.62
267.161	-10.46
267.378	-20.75
267.595	11.11
267.812	0.09
268.028	-4.86
268.245	14.59
268.462	1.32
268.679	-20.65
268.896	25.99
269.112	22.78
269.329	10.12
269.546	9.98
269.763	9.42
269.979	-11.6
270.196	-9.64
270.413	-11.15
270.629	-22.08
270.846	-19.6
271.063	-6.89
271.279	-10.5
271.496	-10.17
271.712	18.67
271.929	26.84
272.146	11.56
272.362	25.2
272.579	15.83
272.795	32.62
273.012	32.36
273.228	37.23
273.445	18.23
273.661	24.56
273.878	-19.52
274.094	-14.43
274.311	-40.23
274.527	21.87
274.744	13.97
274.96	9.43
275.177	11.79
275.393	30.86
275.609	10.33
275.826	25.64
276.042	25.43
276.259	19.7
276.475	30.59
276.691	32.89
276.908	23.36
277.124	38.59
277.34	35.86
277.557	22.76
277.773	5.6
277.989	0.24
278.205	-6.02
278.422	9.17
278.638	6.31
278.854	15.66
279.07	14.91
279.286	47.31
279.503	22.45
279.719	28.07
279.935	6.31
280.151	5.49
280.367	-22.1
280.583	-36.12
280.799	-19.79
281.016	-42.98
281.232	-13.87
281.448	-13.53
281.664	22.94
281.88	2.05
282.096	39.38
282.312	55.67
282.528	60.25
282.744	44.73
282.96	50.43
283.176	33.92
283.392	20.55
283.608	7.33
283.824	2.96
284.04	-1.27
284.256	11.52
284.471	5.21
284.687	15.14
284.903	31.35
285.119	52.75
285.335	19.42
285.551	19.61
285.767	17.62
285.982	9
286.198	-33.75
286.414	20.7
286.63	21.38
286.846	27.94
287.061	12.84
287.277	42.6
287.493	14.35
287.709	34.03
287.924	21.78
288.14	51.98
288.356	35.72
288.571	52.11
288.787	40.99
289.003	39.62
289.218	17.82
289.434	-5.36
289.65	0.98
289.865	-3.18
290.081	12.46
290.296	27.15
290.512	32.15
290.727	7.1
290.943	-0.27
291.159	-5.3
291.374	-14.92
291.59	-25.4
291.805	-10.52
292.021	-13.51
292.236	-7.66
292.451	11.42
292.667	23.02
292.882	32.89
293.098	39.5
293.313	24.94
293.529	3.83
293.744	-15.88
293.959	-38.25
294.175	-28.75
294.39	3.25
294.605	18.56
294.821	30.87
295.036	57.13
295.251	57.27
295.467	38.54
295.682	24.95
295.897	6.62
296.112	-31.65
296.328	-15.93
296.543	-31.35
296.758	-21.46
296.973	16.11
297.188	36.24
297.404	19.41
297.619	27.75
297.834	16.51
298.049	-8.48
298.264	-29.95
298.479	5.78
298.694	6.98
298.909	22.2
299.125	28.87
299.34	35.81
299.555	11.11
299.77	5.11
299.985	-23.83
300.2	-72.1
300.415	-83.31
300.63	-40.97
300.845	-34.05
301.06	-26.98
301.275	11.39
301.49	33.37
301.704	16.77
301.919	3.5
302.134	-6.63
302.349	-5.43
302.564	-39.41
302.779	-40.56
302.994	-20.02
303.209	3.48
303.423	8.08
303.638	23.23
303.853	-0.11
304.068	10.64
304.283	15.45
304.497	20.3
304.712	22.63
304.927	27.15
305.142	23.59
305.356	28.72
305.571	8
305.786	-2.92
306	-15.43
306.215	-36.74
306.43	-52.4
306.644	-19.72
306.859	3.81
307.074	21.85
307.288	14.42
307.503	8.02
307.717	-12.45
307.932	-1.7
308.147	-5.18
308.361	16.87
308.576	17.57
308.79	3.84
309.005	-7.18
309.219	2.3
309.434	-13.53
309.648	-15.56
309.863	4.47
310.077	6.77
310.292	3.86
310.506	20.29
310.72	26.91
310.935	39.74
311.149	30.06
311.364	36.91
311.578	45.1
311.792	39.17
312.007	32.96
312.221	22.65
312.435	22.23
312.649	-1.71
312.864	-4.05
313.078	-6.46
313.292	42.46
313.507	0.78
313.721	27.85
313.935	30.69
314.149	27.3
314.363	20.77
314.578	27.35
314.792	28.13
315.006	14.46
315.22	28.98
315.434	18.11
315.648	32.54
315.862	30.65
316.077	49.04
316.291	35.42
316.505	47.11
316.719	63.52
316.933	27.56
317.147	7.73
317.361	-28.45
317.575	-49.81
317.789	-92.13
318.003	-140.86
318.217	-114.23
318.431	-29.39
318.645	10.55
318.859	4.7
319.073	28.69
319.287	18.01
319.5	0.39
319.714	-26.17
319.928	-49.37
320.142	-62.45
320.356	-11.63
320.57	-11.85
320.784	-17.59
320.997	-9.05
321.211	-8.7
321.425	-50.47
321.639	-53.48
321.853	-10.36
322.066	19.31
322.28	26.15
322.494	31.02
322.707	49.22
322.921	40.76
323.135	29.01
323.349	25.58
323.562	2.35
323.776	-15.56
323.989	-29.65
324.203	-39.15
324.417	-53.5
324.63	-47.34
324.844	-34.14
325.057	-8.29
325.271	0.66
325.485	25
325.698	42.47
325.912	33.84
326.125	5.8
326.339	9.9
326.552	-17.59
326.766	-17.7
326.979	9.56
327.193	53.74
327.406	51.66
327.619	51.03
327.833	62.06
328.046	33.26
328.26	-6.25
328.473	-3.6
328.686	-26.44
328.9	-21.77
329.113	7.09
329.326	0.85
329.54	17.73
329.753	22.02
329.966	4.76
330.179	21.6
330.393	38.9
330.606	44.39
330.819	54.26
331.032	56.25
331.246	54
331.459	61.2
331.672	45.83
331.885	34.95
332.098	8.12
332.311	-21.04
332.525	-64.03
332.738	-64.67
332.951	-40.46
333.164	-4.14
333.377	13.09
333.59	30.1
333.803	25.19
334.016	21.53
334.229	28.24
334.442	31.75
334.655	43.07
334.868	56.8
335.081	53.15
335.294	34.58
335.507	30.37
335.72	15.65
335.933	3.14
336.146	-14.19
336.359	-13.53
336.572	-17.41
336.785	-37.18
336.997	-0.12
337.21	21.24
337.423	19.6
337.636	13.26
337.849	32.14
338.062	9.33
338.274	17.07
338.487	16.6
338.7	9.75
338.913	-12.22
339.125	-27.73
339.338	-88.95
339.551	-84.14
339.763	-41.54
339.976	-21.03
340.189	-1.31
340.402	6.91
340.614	8.02
340.827	-10.48
341.039	-35.16
341.252	-22.41
341.465	9.95
341.677	5.07
341.89	-11.66
342.102	24.74
342.315	2.32
342.527	-38.14
342.74	-14.01
342.952	17.22
343.165	10.89
343.377	28.14
343.59	30.95
343.802	28.47
344.015	29.6
344.227	39.72
344.44	30.69
344.652	38.03
344.864	35.46
345.077	46.67
345.289	36.46
345.502	38.73
345.714	29.45
345.926	27.18
346.139	7.28
346.351	20.81
346.563	22.02
346.775	34.56
346.988	22.89
347.2	24.41
347.412	-19.52
347.624	-31.02
347.837	-60.76
348.049	-16.07
348.261	-8.94
348.473	1.75
348.685	4.32
348.897	5.14
349.11	-23.57
349.322	-39.34
349.534	-33.42
349.746	-30.35
349.958	-18.81
350.17	0.1
350.382	14.44
350.594	17.93
350.806	31.73
351.018	27.61
351.23	19.86
351.442	-7.67
351.654	-16.3
351.866	-16.58
352.078	-8
352.29	-0.85
352.502	19.1
352.714	28.62
352.926	18.57
353.138	17.57
353.35	14.41
353.561	19.22
353.773	7.08
353.985	10.56
354.197	4.55
354.409	1.32
354.621	-17.24
354.832	-7.09
355.044	-11.57
355.256	0.89
355.468	9.38
355.679	14.22
355.891	11.79
356.103	0.07
356.314	3.7
356.526	-7.54
356.738	3.69
356.949	8.46
357.161	15
357.373	-0.42
357.584	6.17
357.796	6.83
358.008	6.03
358.219	16.96
358.431	19.2
358.642	6.76
358.854	-6.42
359.065	-21.15
359.277	-24.3
359.488	-32.95
359.7	-28.76
359.911	-31.58
360.123	-24.21
360.334	-42.44
360.546	-58.46
360.757	-49.95
360.969	-44.26
361.18	-38.37
361.391	-19.59
361.603	-23.28
361.814	-21.96
362.025	-16.92
362.237	-10.33
362.448	-10.7
362.659	17.6
362.871	22.56
363.082	19.58
363.293	10.8
363.504	-0.08
363.716	-22.39
363.927	-34.34
364.138	-39.69
364.349	-33.58
364.56	-10.26
364.772	0.75
364.983	22.27
365.194	25.59
365.405	28.34
365.616	24.17
365.827	32.26
366.038	-7.76
366.25	-3.84
366.461	-23.4
366.672	-0.1
366.883	-13.27
367.094	10.29
367.305	-3.46
367.516	5.26
367.727	-21.02
367.938	-23.32
368.149	-23.96
368.36	-4.48
368.571	1.35
368.781	-1.78
368.992	-7.71
369.203	-21.98
369.414	-31.47
369.625	-45.47
369.836	-29.72
370.047	-47.99
370.258	-32.56
370.468	-46.24
370.679	-51.44
370.89	-43.48
371.101	-6.9
371.312	-9.42
371.522	3.33
371.733	14.04
371.944	17.2
372.155	14.46
372.365	10.28
372.576	17.01
372.787	16.53
372.997	4.86
373.208	-9.22
373.419	6.68
373.629	-13.58
373.84	-23.18
374.05	-25.71
374.261	-10.58
374.472	-30.97
374.682	5.03
374.893	22.54
375.103	38.57
375.314	36.66
375.524	39.25
375.735	31.76
375.945	26.56
376.156	9.7
376.366	7.04
376.577	13.18
376.787	6.21
376.997	11.5
377.208	11.48
377.418	3.58
377.629	17.79
377.839	19.73
378.049	5.29
378.26	17.96
378.47	21.43
378.68	2.24
378.89	0.71
379.101	2.57
379.311	-21.14
379.521	-48.39
379.732	-35.28
379.942	-43.84
380.152	-47.34
380.362	-19.53
380.572	-6.62
380.783	4.64
380.993	23.62
381.203	27.09
381.413	34.61
381.623	39.04
381.833	30.82
382.043	9.34
382.253	8.49
382.463	-1.81
382.674	-10.3
382.884	-27.41
383.094	-9.04
383.304	-2.25
383.514	1.76
383.724	13.66
383.934	15.12
384.144	5.39
384.353	-7.43
384.563	-9.24
384.773	-8.08
384.983	-13.34
385.193	-5.69
385.403	4.8
385.613	11.87
385.823	-0.12
386.033	8
386.242	4.04
386.452	-2.53
386.662	-6.59
386.872	10.34
387.082	6.89
387.291	6.87
387.501	12.92
387.711	5.88
387.921	-4.69
388.13	-5.82
388.34	1.35
388.55	-4.88
388.759	-0.54
388.969	3.72
389.179	2.25
389.388	0.78
389.598	4.85
389.807	0.26
390.017	-6.16
390.227	-2.15
390.436	-3.9
390.646	-3.07
390.855	-2.03
391.065	0.16
391.274	-3.59
391.484	-2.59
391.693	-0.84
391.903	-0.14
392.112	5.13
392.322	9.06
392.531	11.54
392.74	11.85
392.95	8.45
393.159	6.14
393.369	5.78
393.578	4.15
393.787	3.23
393.997	5.09
394.206	1.87
394.415	0.9
394.625	1.36
394.834	0.33
395.043	1.76
395.252	4.25
395.462	6.7
395.671	5.75
395.88	6.36
396.089	6.75
396.298	5.46
396.508	3.72
396.717	4.25
396.926	4.46
397.135	3.58
397.344	4.44
397.553	5.43
397.762	6.48
397.971	7.04
398.181	7.11
398.39	6.56
398.599	6.08
398.808	5.99
399.017	6.21
399.226	7.77
399.435	9.03
399.644	9.45
399.853	8.54
400.062	8.29
400.27	7.23
400.479	6.25
400.688	5.68
400.897	6.17
401.106	6.06
401.315	6.07
401.524	6.45
401.733	6.78
401.941	6.69
402.15	6.64
402.359	6.59
402.568	6.79
402.777	6.94
402.985	7
403.194	6.79
403.403	6.77
403.612	6.39
403.82	6.11
404.029	6.04
404.238	6.04
404.446	6.44
404.655	6.14
404.864	6.11
405.072	5.9
405.281	6.11
405.489	5.64
405.698	5.74
405.906	5.75
406.115	5.88
406.324	5.88
406.532	6.16
406.741	6.4
406.949	6.43
407.158	6.42
407.366	6.37
407.574	6.13
407.783	5.99
407.991	5.86
408.2	5.84
408.408	5.77
408.617	5.72
408.825	5.53
409.033	5.54
409.242	5.7
409.45	5.74
409.658	5.69
409.867	5.94
410.075	5.8
410.283	5.52
410.491	5.44
410.7	5.41
410.908	5.25
411.116	5.47
411.324	5.51
411.533	5.35
411.741	5.55
411.949	5.57
412.157	5.39
412.365	5.39
412.573	5.45
412.781	5.42
412.99	5.38
413.198	5.51
413.406	5.46
413.614	5.48
413.822	5.26
414.03	5.14
414.238	5.05
414.446	5.2
414.654	5.02
414.862	5.13
415.07	5.16
415.278	5.22
415.486	4.99
415.694	5.13
415.902	5.09
416.109	5.09
416.317	5.11
416.525	5.11
416.733	5.08
416.941	5.19
417.149	5.2
417.357	5.19
417.564	5.2
417.772	5.45
417.98	5.22
418.188	5.16
418.395	5.1
418.603	5.3
418.811	4.88
419.019	4.97
419.226	5.16
419.434	5.25
419.642	5.01
419.849	5.24
420.057	5.1
420.265	5.05
420.472	4.78
420.68	4.77
420.887	4.67
421.095	4.76
421.302	4.72
421.51	4.82
421.717	4.99
421.925	4.92
422.132	4.85
422.34	4.56
422.547	4.54
422.755	4.29
422.962	4.25
423.17	4.25
423.377	4.32
423.585	4.26
423.792	4.28
423.999	4.29
424.207	4.33
424.414	4.57
424.621	4.53
424.829	4.59
425.036	4.68
425.243	4.71
425.451	4.56
425.658	4.58
425.865	4.7
426.072	4.62
426.28	4.78
426.487	4.83
426.694	4.93
426.901	4.74
427.108	4.88
427.315	4.65
427.523	4.78
427.73	4.71
427.937	4.74
428.144	4.55
428.351	4.61
428.558	4.54
428.765	4.44
428.972	4.29
429.179	4.53
429.386	4.76
429.593	4.63
429.8	4.73
430.007	5.01
430.214	4.98
430.421	4.77
430.628	4.74
430.835	4.66
431.042	4.73
431.249	4.72
431.456	4.64
431.662	4.79
431.869	4.9
432.076	4.83
432.283	4.9
432.49	5.03
432.697	5.08
432.903	4.94
433.11	4.78
433.317	4.83
433.524	4.84
433.73	4.78
433.937	5.05
434.144	5.15
434.35	5.08
434.557	4.98
434.764	4.99
434.97	4.83
435.177	5.04
435.384	5.03
435.59	5.13
435.797	5.34
436.003	5.5
436.21	5.38
436.416	5.46
436.623	5.49
436.829	5.35
437.036	5.33
437.242	5.46
437.449	5.35
437.655	5.31
437.862	5.38
438.068	5.3
438.275	5.39
438.481	5.67
438.687	5.71
438.894	5.71
439.1	5.84
439.307	5.91
439.513	5.77
439.719	5.83
439.926	5.93
440.132	5.8
440.338	5.64
440.544	5.74
440.751	5.72
440.957	5.68
441.163	5.79
441.369	5.85
441.575	5.71
441.782	5.68
441.988	5.53
442.194	5.51
442.4	5.58
442.606	5.8
442.812	6
443.018	6.18
443.224	6.23
443.431	6.31
443.637	6.13
443.843	6.03
444.049	6.11
444.255	6.1
444.461	6.05
444.667	6.02
444.873	6.07
445.079	6.04
445.284	6.13
445.49	5.95
445.696	5.95
445.902	5.92
446.108	5.84
446.314	5.75
446.52	5.85
446.726	6.13
446.931	6.17
447.137	6.31
447.343	6.41
447.549	6.35
447.755	6.16
447.96	6.21
448.166	6.12
448.372	6.04
448.578	6.1
448.783	6.15
448.989	6.23
449.195	6.36
449.4	6.42
449.606	6.4
449.812	6.28
450.017	6.17
450.223	6.07
450.428	6.03
450.634	6.12
450.84	6.26
451.045	6.2
451.251	6.06
451.456	6.3
451.662	6.42
451.867	6.46
452.073	6.49
452.278	6.69
452.483	6.64
452.689	6.56
452.894	6.48
453.1	6.56
453.305	6.45
453.51	6.34
453.716	6.27
453.921	6.32
454.127	6.23
454.332	6.28
454.537	6.28
454.742	6.32
454.948	6.28
455.153	6.34
455.358	6.41
455.563	6.59
455.769	6.68
455.974	6.81
456.179	6.7
456.384	6.69
456.589	6.58
456.795	6.35
457	6.24
457.205	6.42
457.41	6.52
457.615	6.52
457.82	6.64
458.025	6.66
458.23	6.64
458.435	6.55
458.64	6.45
458.845	6.51
459.05	6.49
459.255	6.47
459.46	6.53
459.665	6.62
459.87	6.67
460.075	6.73
460.28	6.73
460.485	6.78
460.69	6.78
460.895	6.65
461.099	6.62
461.304	6.69
461.509	6.65
461.714	6.65
461.919	6.83
462.123	6.69
462.328	6.75
462.533	6.73
462.738	6.83
462.942	6.62
463.147	6.86
463.352	6.89
463.556	6.85
463.761	6.87
463.966	6.98
464.17	6.97
464.375	6.87
464.58	6.97
464.784	6.94
464.989	6.92
465.193	6.93
465.398	6.95
465.602	7
