Data from Ofra_1a_PS_2HS17_Reflection_2.txt Node
Date: Tue Jul 20 10:52:55 EDT 2021
User: Adam
Spectrometer: FLMT01687
Trigger mode: 0
Integration Time (sec): 1.004000E0
Scans to average: 2
Electric dark correction enabled: true
Nonlinearity correction enabled: false
Boxcar width: 2
XAxis mode: Wavelengths
Number of Pixels in Spectrum: 3648
>>>>>Begin Spectral Data<<<<<
179.494	-213.71
179.716	-376.34
179.937	583.61
180.158	-553.5
180.38	95.87
180.601	44.96
180.823	-88.88
181.044	-172.73
181.265	-162.05
181.486	184.48
181.708	107.57
181.929	-3009.09
182.15	-70.1
182.372	108.87
182.593	402.51
182.814	-171.99
183.035	3.12
183.257	26.51
183.478	-9.1
183.699	-18.35
183.92	-60.4
184.141	-87.4
184.363	-89.65
184.584	-106.09
184.805	-51.04
185.026	7.4
185.247	-17.8
185.468	-13.62
185.689	-16.81
185.91	-31.81
186.132	-46.59
186.353	-11.02
186.574	-23.34
186.795	-17.94
187.016	-1.19
187.237	4.12
187.458	6.04
187.679	-8.67
187.9	34.22
188.121	50.52
188.342	67.1
188.563	68.13
188.784	89.42
189.005	69.96
189.226	57.7
189.447	39.26
189.667	25.77
189.888	11.75
190.109	6.12
190.33	10.49
190.551	-0.1
190.772	15.69
190.993	0.8
191.214	-14.02
191.434	-55.8
191.655	-55.01
191.876	-18.97
192.097	3.12
192.318	22.9
192.538	-17.26
192.759	-19.86
192.98	-3.92
193.201	-11.99
193.421	-26.02
193.642	7.89
193.863	16.83
194.083	-5.87
194.304	0.16
194.525	3.18
194.745	-14.48
194.966	-5.88
195.187	-12.79
195.407	-18.08
195.628	1.18
195.848	12.71
196.069	-27.72
196.29	-7
196.51	-18.3
196.731	-26.09
196.951	-41.43
197.172	5.07
197.392	-2.68
197.613	28.6
197.833	16.23
198.054	8.77
198.274	0.56
198.495	-0.31
198.715	-15.72
198.936	14.96
199.156	18.89
199.377	18.21
199.597	32.91
199.817	39.13
200.038	13.59
200.258	29.66
200.479	34.45
200.699	17.66
200.919	5.18
201.14	13.89
201.36	-0.8
201.58	-30.51
201.801	-48.39
202.021	-52.68
202.241	-58.58
202.461	-41.15
202.682	-0.37
202.902	18.57
203.122	24.05
203.342	29.67
203.563	4.98
203.783	-8.84
204.003	-22.94
204.223	-9.88
204.443	-10.15
204.663	-6.92
204.884	7.17
205.104	6.4
205.324	6.63
205.544	-8.97
205.764	11.38
205.984	9.66
206.204	31.32
206.424	22.01
206.644	24.88
206.864	0.91
207.084	-2.45
207.304	-46.75
207.525	-53.02
207.745	-42.93
207.964	-23.96
208.184	-34.77
208.404	2.17
208.624	12.33
208.844	-5.27
209.064	-1.99
209.284	-12.39
209.504	-42.81
209.724	-56.31
209.944	-56.72
210.164	-43.52
210.384	-56.22
210.604	-66.94
210.823	-43.56
211.043	0.85
211.263	-75.55
211.483	-52.82
211.703	-39.23
211.922	-58.79
212.142	-57.95
212.362	-2.06
212.582	12.55
212.801	7.93
213.021	14.17
213.241	0.94
213.461	-16.68
213.68	-11.7
213.9	1.79
214.12	-0.63
214.339	0.89
214.559	4.66
214.779	9.55
214.998	11.89
215.218	22.3
215.438	21.22
215.657	3.36
215.877	-11.61
216.096	2.45
216.316	-4.99
216.535	-9.9
216.755	6.03
216.974	15.06
217.194	-5.09
217.413	-2.04
217.633	0.78
217.852	-8.46
218.072	2.24
218.291	-1.15
218.511	-8.92
218.73	-12.69
218.95	-19.54
219.169	-37.13
219.389	-11.1
219.608	-10.05
219.827	8.91
220.047	19.54
220.266	13.18
220.485	-1.35
220.705	1.98
220.924	-46.74
221.143	-7.81
221.363	2.53
221.582	-9
221.801	-5.01
222.021	15.58
222.24	-5.2
222.459	31.99
222.678	32.48
222.897	37.34
223.117	52.36
223.336	70.22
223.555	51.54
223.774	57.35
223.993	77.36
224.213	59.24
224.432	37.63
224.651	18.26
224.87	30.91
225.089	14.94
225.308	17.79
225.527	18.91
225.746	28.72
225.965	14.43
226.184	1.81
226.404	-13.38
226.623	0.29
226.842	1.89
227.061	-1.48
227.28	17.67
227.499	22.12
227.718	10.87
227.936	12.04
228.155	16.91
228.374	11.31
228.593	21.82
228.812	12.25
229.031	28.9
229.25	14.52
229.469	19.22
229.688	10.2
229.907	34.05
230.125	23.63
230.344	32.15
230.563	29.79
230.782	36.75
231.001	35.38
231.22	42.59
231.438	49.4
231.657	50.51
231.876	30.26
232.095	29.68
232.313	6.18
232.532	-1.59
232.751	-11.81
232.969	-11
233.188	-32.44
233.407	-9.78
233.625	-16.88
233.844	-19.4
234.063	-4.78
234.281	15.84
234.5	5.47
234.719	18.85
234.937	-4.85
235.156	-13.97
235.374	-31.15
235.593	-6.9
235.811	-1.09
236.03	29.22
236.249	31.98
236.467	34.95
236.686	25.71
236.904	28.25
237.123	19.8
237.341	21.65
237.559	23.67
237.778	44.85
237.996	20.86
238.215	12.26
238.433	-2.08
238.652	32.21
238.87	1.59
239.088	31.1
239.307	27.59
239.525	21.89
239.743	2.91
239.962	-12.56
240.18	-2.73
240.398	-13.97
240.617	-0.33
240.835	-7.88
241.053	3.82
241.271	7.94
241.49	21.97
241.708	-1.58
241.926	17.08
242.144	57.24
242.363	37.69
242.581	10.08
242.799	-1.04
243.017	-23.43
243.235	-43.23
243.453	-63.27
243.672	-36.83
243.89	-12.7
244.108	15.6
244.326	39.1
244.544	45.38
244.762	36.02
244.98	46.61
245.198	32.35
245.416	14.51
245.634	18.01
245.852	10.12
246.07	20.84
246.288	22.63
246.506	18.4
246.724	2.33
246.942	10.77
247.16	-13.57
247.378	-38.76
247.596	-1.25
247.814	10.17
248.032	9.99
248.25	23.42
248.468	23.98
248.685	10.04
248.903	8.16
249.121	4.11
249.339	-6.32
249.557	-25.4
249.775	-13.98
249.992	-18.47
250.21	-8.9
250.428	12.29
250.646	23.77
250.863	8.97
251.081	20.53
251.299	22.3
251.517	10.82
251.734	12.32
251.952	23.18
252.17	25.71
252.387	18.4
252.605	17.09
252.823	21.76
253.04	46.63
253.258	27.92
253.475	31.3
253.693	13.61
253.911	7.19
254.128	-15.61
254.346	-0.61
254.563	5.3
254.781	16.56
254.998	12.41
255.216	-10.78
255.433	-45.27
255.651	-44.46
255.868	-41.21
256.086	-20
256.303	5.91
256.521	18.75
256.738	22.28
256.956	11.09
257.173	-4.9
257.39	-1.82
257.608	8.53
257.825	7.1
258.043	28.61
258.26	30.67
258.477	23.76
258.695	3.92
258.912	-8.28
259.129	-17.2
259.346	-2.66
259.564	9.28
259.781	24.87
259.998	38.14
260.216	30.24
260.433	11.97
260.65	7.28
260.867	16.04
261.084	13.95
261.302	11.04
261.519	26.13
261.736	18.39
261.953	7.37
262.17	9.95
262.387	1.26
262.604	-3.72
262.822	12.87
263.039	21.2
263.256	18.5
263.473	31.04
263.69	39.68
263.907	37.19
264.124	39.7
264.341	46.53
264.558	26.21
264.775	18.56
264.992	20.31
265.209	9.1
265.426	-15.26
265.643	-8.54
265.86	-5.07
266.077	-11.17
266.294	12.02
266.51	31.26
266.727	44.27
266.944	33.46
267.161	44.63
267.378	55.64
267.595	54.39
267.812	46.24
268.028	55.53
268.245	53.46
268.462	20.35
268.679	19.91
268.896	26.2
269.112	22.86
269.329	-17.49
269.546	11.46
269.763	24.33
269.979	15.04
270.196	15.82
270.413	35.76
270.629	18.53
270.846	11.03
271.063	34.62
271.279	34.8
271.496	29.97
271.712	38.7
271.929	47.16
272.146	34.31
272.362	30.5
272.579	25.01
272.795	21.97
273.012	6.28
273.228	25.87
273.445	23.45
273.661	14.31
273.878	-5.59
274.094	2.16
274.311	-24.68
274.527	-23.29
274.744	5.66
274.96	7.74
275.177	-1.07
275.393	15.79
275.609	13.51
275.826	1.97
276.042	-6.3
276.259	-9.87
276.475	-22.31
276.691	-26.27
276.908	-11.59
277.124	2.51
277.34	15.67
277.557	10.69
277.773	20.97
277.989	10.24
278.205	12.42
278.422	1.43
278.638	10.86
278.854	5.47
279.07	16.25
279.286	4.05
279.503	12.09
279.719	13.24
279.935	2.6
280.151	-11.81
280.367	7.01
280.583	-5.45
280.799	-16.73
281.016	-27.39
281.232	-10.94
281.448	-21.35
281.664	-4.88
281.88	16.51
282.096	25.97
282.312	23.64
282.528	18.41
282.744	17.97
282.96	-19.58
283.176	-45.08
283.392	-67.7
283.608	-45.15
283.824	-62.75
284.04	-38.7
284.256	-18.89
284.471	-9.36
284.687	-17.11
284.903	-11.36
285.119	4.26
285.335	6.66
285.551	5.27
285.767	2.16
285.982	2.47
286.198	-44.05
286.414	-57.5
286.63	-74.07
286.846	-52.33
287.061	-47.95
287.277	-18.44
287.493	-10.96
287.709	-3.12
287.924	-0.71
288.14	10.88
288.356	33.47
288.571	37.27
288.787	26.54
289.003	41.72
289.218	32.97
289.434	9.61
289.65	24.73
289.865	28.24
290.081	22.71
290.296	32.5
290.512	18.71
290.727	0.21
290.943	4.46
291.159	-2.95
291.374	-38.6
291.59	-23.78
291.805	-36.74
292.021	-35.23
292.236	-38.22
292.451	-13.71
292.667	1.69
292.882	18.51
293.098	8.6
293.313	0.89
293.529	5.87
293.744	-17.73
293.959	-21.49
294.175	-14.75
294.39	-11.85
294.605	8.89
294.821	22.48
295.036	32.76
295.251	30.52
295.467	28.47
295.682	26.97
295.897	17.95
296.112	7.86
296.328	15.39
296.543	14.36
296.758	-4.86
296.973	0.93
297.188	-21.21
297.404	-59.65
297.619	-71.5
297.834	-76.68
298.049	-76.89
298.264	-46.4
298.479	-36.59
298.694	1.73
298.909	5.96
299.125	6.23
299.34	10.1
299.555	22.58
299.77	34.91
299.985	43.12
300.2	45.12
300.415	44.65
300.63	48.24
300.845	38.28
301.06	20.43
301.275	27.43
301.49	33.26
301.704	17.58
301.919	12.77
302.134	23.34
302.349	17.45
302.564	10.38
302.779	14.75
302.994	20.7
303.209	15.39
303.423	12.49
303.638	13.47
303.853	0.52
304.068	-0.55
304.283	12.15
304.497	3.14
304.712	17.51
304.927	13.97
305.142	20.9
305.356	12.02
305.571	15.86
305.786	14.63
306	26.24
306.215	6.17
306.43	6.48
306.644	0.29
306.859	-9.17
307.074	-9.39
307.288	6.89
307.503	12.96
307.717	2.83
307.932	12.66
308.147	-1
308.361	2.19
308.576	-9.12
308.79	3.17
309.005	-33.81
309.219	-1.9
309.434	-10.53
309.648	-3.08
309.863	1.07
310.077	12.33
310.292	13.17
310.506	5.88
310.72	-0.48
310.935	15.58
311.149	21.85
311.364	15.8
311.578	23.52
311.792	34.11
312.007	12.46
312.221	9.63
312.435	2.42
312.649	2.49
312.864	8.07
313.078	4.4
313.292	-0.06
313.507	13.96
313.721	12.75
313.935	4.93
314.149	18.9
314.363	29.99
314.578	4.63
314.792	-31.78
315.006	-45.01
315.22	-33.09
315.434	-15.08
315.648	-18.6
315.862	5.86
316.077	1.08
316.291	0.45
316.505	-33.56
316.719	-20.55
316.933	-31.36
317.147	-16.48
317.361	-12.77
317.575	0.73
317.789	7.23
318.003	20.99
318.217	27.29
318.431	12.32
318.645	11.96
318.859	17.1
319.073	13.37
319.287	4.59
319.5	11.98
319.714	5.6
319.928	-6.15
320.142	1.4
320.356	20.11
320.57	7.83
320.784	11.43
320.997	3.71
321.211	2.37
321.425	-29.62
321.639	4.22
321.853	11.95
322.066	27.33
322.28	21.69
322.494	31.49
322.707	22.65
322.921	17.96
323.135	14.75
323.349	4.49
323.562	4.66
323.776	-1.17
323.989	6.12
324.203	-5.87
324.417	1.05
324.63	-13.96
324.844	-17.48
325.057	-41.61
325.271	-17.92
325.485	-30.72
325.698	-6.71
325.912	15.71
326.125	21.03
326.339	20.92
326.552	18.81
326.766	10.96
326.979	-2.65
327.193	-1.71
327.406	-1.21
327.619	19.04
327.833	15.8
328.046	9.82
328.26	4.58
328.473	3.21
328.686	-6
328.9	6.59
329.113	6.72
329.326	19.21
329.54	34.58
329.753	34.15
329.966	24.07
330.179	24.11
330.393	15.37
330.606	3.86
330.819	7.25
331.032	22.26
331.246	26.77
331.459	39.27
331.672	26.36
331.885	13.16
332.098	0.3
332.311	-8.12
332.525	-8.89
332.738	3.46
332.951	-2.06
333.164	9.45
333.377	8.35
333.59	8.7
333.803	0.1
334.016	7.85
334.229	4.76
334.442	3.83
334.655	-4.73
334.868	-9.81
335.081	-12.63
335.294	-36.42
335.507	-24.86
335.72	-19.79
335.933	-12.48
336.146	-10.41
336.359	12.27
336.572	8.12
336.785	8.56
336.997	-13.82
337.21	-19.74
337.423	-34.82
337.636	-26.09
337.849	-20.57
338.062	-4.87
338.274	29.67
338.487	9.75
338.7	-1.53
338.913	5.58
339.125	-0.65
339.338	-27.9
339.551	-21.21
339.763	-11.89
339.976	-17.8
340.189	-13.6
340.402	17.66
340.614	38.56
340.827	45.01
341.039	56.15
341.252	62.24
341.465	19.56
341.677	10.82
341.89	-11.56
342.102	-21.47
342.315	-17.75
342.527	2.31
342.74	-12.57
342.952	-3.37
343.165	1.75
343.377	8.12
343.59	7.65
343.802	10.29
344.015	18.63
344.227	23.68
344.44	11.77
344.652	9.23
344.864	22.24
345.077	30.73
345.289	28.55
345.502	40.96
345.714	36.62
345.926	31.05
346.139	0.49
346.351	15.55
346.563	1.23
346.775	-8.67
346.988	-10.11
347.2	5.74
347.412	-8.24
347.624	-7.34
347.837	0.35
348.049	3.55
348.261	0.62
348.473	-6.36
348.685	-1.71
348.897	-2.43
349.11	-0.07
349.322	-3.01
349.534	-8.82
349.746	-6.89
349.958	-22.84
350.17	-43.41
350.382	-51.38
350.594	-30.97
350.806	-14.33
351.018	-7.26
351.23	8.97
351.442	18.28
351.654	19.06
351.866	-8.69
352.078	7.83
352.29	3.12
352.502	3.05
352.714	4.85
352.926	25.66
353.138	21.5
353.35	4.82
353.561	7.44
353.773	-0.52
353.985	11.87
354.197	17.16
354.409	21.11
354.621	10.79
354.832	11.92
355.044	-29.15
355.256	-47.23
355.468	-51.11
355.679	-15.73
355.891	-17.35
356.103	-3.13
356.314	-13.32
356.526	-24.69
356.738	-37.08
356.949	-26.27
357.161	-17.15
357.373	-0.99
357.584	13.96
357.796	15.63
358.008	11.18
358.219	10.09
358.431	9.4
358.642	14.32
358.854	19.79
359.065	15.12
359.277	19.22
359.488	15.72
359.7	8.17
359.911	-5.07
360.123	18.51
360.334	4.8
360.546	-4.55
360.757	-4.61
360.969	-2.64
361.18	-14.82
361.391	-2.4
361.603	6.95
361.814	13.34
362.025	23.1
362.237	12.24
362.448	22.86
362.659	19.68
362.871	9.25
363.082	-0.99
363.293	14.36
363.504	-34.51
363.716	-42.97
363.927	-13.12
364.138	-22.03
364.349	-43.04
364.56	-40.19
364.772	-22.35
364.983	-19.77
365.194	-5.32
365.405	0.72
365.616	24.33
365.827	20.87
366.038	15.49
366.25	10.29
366.461	19.72
366.672	12.33
366.883	7.41
367.094	12.4
367.305	-3.02
367.516	-13.98
367.727	-18.32
367.938	-17.46
368.149	-31.43
368.36	-20.36
368.571	-25.26
368.781	-34.38
368.992	-26.9
369.203	-28.18
369.414	-33.29
369.625	-30.79
369.836	-5.54
370.047	-9.07
370.258	-1.39
370.468	-2.82
370.679	3.42
370.89	-8.17
371.101	4.84
371.312	3.31
371.522	8.43
371.733	2.59
371.944	-13.66
372.155	-12.88
372.365	-3.72
372.576	10.5
372.787	17.03
372.997	21.17
373.208	11.69
373.419	11.52
373.629	-3.63
373.84	-7.65
374.05	-1.17
374.261	-3.62
374.472	-3.41
374.682	13.27
374.893	14.13
375.103	19.81
375.314	28.23
375.524	19.21
375.735	14.23
375.945	17.17
376.156	12.48
376.366	16.51
376.577	25.95
376.787	13.83
376.997	12.8
377.208	12.09
377.418	6.3
377.629	8.77
377.839	20.4
378.049	16.36
378.26	16.09
378.47	9.95
378.68	-2.72
378.89	-3.8
379.101	10.18
379.311	10.83
379.521	6.41
379.732	23.45
379.942	17.17
380.152	-5.94
380.362	-2.6
380.572	6.63
380.783	8.23
380.993	3.54
381.203	10.45
381.413	15.85
381.623	19.73
381.833	13.7
382.043	16.54
382.253	24.2
382.463	20.82
382.674	21.05
382.884	17.66
383.094	26.12
383.304	25.08
383.514	19.59
383.724	11.56
383.934	3.76
384.144	4.59
384.353	3.61
384.563	3.02
384.773	10.83
384.983	10.25
385.193	2.04
385.403	3.58
385.613	3.59
385.823	1
386.033	1.46
386.242	-1.35
386.452	-5.61
386.662	-1.17
386.872	-1.34
387.082	-1.88
387.291	-2.97
387.501	-0.74
387.711	-5.77
387.921	-4.13
388.13	-1.05
388.34	-2.39
388.55	-7.67
388.759	-8.84
388.969	-12.03
389.179	-9.75
389.388	-8.22
389.598	-6.08
389.807	-5.77
390.017	-4.9
390.227	-6.14
390.436	-2.62
390.646	1.97
390.855	3.87
391.065	2.9
391.274	1.39
391.484	0.62
391.693	-3.49
391.903	-2.96
392.112	-2.83
392.322	-3.29
392.531	-3.64
392.74	-4.3
392.95	-5.54
393.159	-4.44
393.369	-2.97
393.578	-2.4
393.787	-1.09
393.997	1.18
394.206	0.85
394.415	0.09
394.625	-0.63
394.834	-1.51
395.043	-2.28
395.252	0.12
395.462	2.09
395.671	3.06
395.88	4.12
396.089	3.82
396.298	2.24
396.508	1.96
396.717	1.25
396.926	1.39
397.135	1.91
397.344	1.77
397.553	1.42
397.762	2.73
397.971	2.12
398.181	2.1
398.39	2.29
398.599	2.67
398.808	2.3
399.017	3.62
399.226	3.78
399.435	3.92
399.644	4.02
399.853	3.86
400.062	3.33
400.27	3.15
400.479	3.03
400.688	2.85
400.897	2.91
401.106	2.88
401.315	2.97
401.524	3.33
401.733	2.98
401.941	3.2
402.15	3.32
402.359	3.31
402.568	3.2
402.777	3.61
402.985	3.19
403.194	3.24
403.403	3.14
403.612	2.97
403.82	2.64
404.029	2.94
404.238	2.67
404.446	3.07
404.655	3.34
404.864	3.47
405.072	3.52
405.281	3.7
405.489	3.42
405.698	3.4
405.906	3.45
406.115	3.26
406.324	3.29
406.532	3.29
406.741	3.17
406.949	3.34
407.158	3.46
407.366	3.24
407.574	3.21
407.783	3.28
407.991	3.12
408.2	3.28
408.408	3.53
408.617	3.55
408.825	3.37
409.033	3.38
409.242	3.2
409.45	3
409.658	2.93
409.867	2.99
410.075	3.01
410.283	2.92
410.491	2.91
410.7	2.83
410.908	2.92
411.116	3.02
411.324	3.1
411.533	3.01
411.741	3.16
411.949	3.09
412.157	2.97
412.365	3
412.573	3.14
412.781	3.07
412.99	3.12
413.198	3.11
413.406	3.2
413.614	3.18
413.822	3.41
414.03	3.41
414.238	3.44
414.446	3.27
414.654	3.15
414.862	2.8
415.07	2.75
415.278	2.75
415.486	2.68
415.694	2.72
415.902	2.82
416.109	2.76
416.317	2.72
416.525	2.78
416.733	2.88
416.941	2.9
417.149	2.85
417.357	2.83
417.564	2.77
417.772	2.74
417.98	2.69
418.188	2.68
418.395	2.44
418.603	2.41
418.811	2.36
419.019	2.36
419.226	2.35
419.434	2.5
419.642	2.4
419.849	2.37
420.057	2.35
420.265	2.47
420.472	2.46
420.68	2.57
420.887	2.55
421.095	2.63
421.302	2.59
421.51	2.64
421.717	2.72
421.925	2.76
422.132	2.75
422.34	2.56
422.547	2.55
422.755	2.55
422.962	2.66
423.17	2.42
423.377	2.36
423.585	2.39
423.792	2.3
423.999	2.13
424.207	2.16
424.414	2.29
424.621	2.27
424.829	2.37
425.036	2.45
425.243	2.61
425.451	2.75
425.658	2.77
425.865	2.86
426.072	2.82
426.28	2.92
426.487	2.78
426.694	2.62
426.901	2.49
427.108	2.53
427.315	2.45
427.523	2.43
427.73	2.6
427.937	2.45
428.144	2.46
428.351	2.45
428.558	2.56
428.765	2.38
428.972	2.49
429.179	2.4
429.386	2.36
429.593	2.23
429.8	2.41
430.007	2.4
430.214	2.53
430.421	2.59
430.628	2.62
430.835	2.59
431.042	2.58
431.249	2.61
431.456	2.57
431.662	2.65
431.869	2.75
432.076	2.78
432.283	2.81
432.49	2.86
432.697	2.79
432.903	2.67
433.11	2.72
433.317	2.66
433.524	2.64
433.73	2.58
433.937	2.72
434.144	2.58
434.35	2.46
434.557	2.44
434.764	2.39
434.97	2.22
435.177	2.39
435.384	2.46
435.59	2.43
435.797	2.49
436.003	2.65
436.21	2.49
436.416	2.39
436.623	2.47
436.829	2.51
437.036	2.42
437.242	2.53
437.449	2.55
437.655	2.65
437.862	2.73
438.068	2.72
438.275	2.8
438.481	2.84
438.687	2.72
438.894	2.75
439.1	2.69
439.307	2.67
439.513	2.73
439.719	2.74
439.926	2.66
440.132	2.73
440.338	2.74
440.544	2.71
440.751	2.67
440.957	2.81
441.163	2.72
441.369	2.65
441.575	2.55
441.782	2.66
441.988	2.62
442.194	2.68
442.4	2.67
442.606	2.89
442.812	2.82
443.018	2.86
443.224	2.99
443.431	3
443.637	2.79
443.843	2.84
444.049	2.81
444.255	2.72
444.461	2.67
444.667	2.77
444.873	2.78
445.079	2.67
445.284	2.69
445.49	2.74
445.696	2.72
445.902	2.68
446.108	2.77
446.314	2.77
446.52	2.86
446.726	2.95
446.931	2.91
447.137	2.91
447.343	2.92
447.549	2.9
447.755	2.84
447.96	2.97
448.166	2.99
448.372	2.92
448.578	2.83
448.783	2.81
448.989	2.8
449.195	2.79
449.4	2.89
449.606	2.87
449.812	2.83
450.017	2.79
450.223	2.74
450.428	2.67
450.634	2.72
450.84	2.76
451.045	2.8
451.251	2.89
451.456	2.91
451.662	2.97
451.867	2.96
452.073	2.89
452.278	2.81
452.483	2.72
452.689	2.67
452.894	2.76
453.1	2.78
453.305	2.81
453.51	2.95
453.716	2.92
453.921	2.92
454.127	2.84
454.332	2.8
454.537	2.69
454.742	2.73
454.948	2.69
455.153	2.81
455.358	2.82
455.563	2.97
455.769	3.02
455.974	2.92
456.179	2.84
456.384	2.8
456.589	2.68
456.795	2.63
457	2.69
457.205	2.61
457.41	2.61
457.615	2.61
457.82	2.67
458.025	2.67
458.23	2.85
458.435	2.94
458.64	2.96
458.845	2.94
459.05	3.03
459.255	2.92
459.46	2.91
459.665	2.9
459.87	2.86
460.075	2.84
460.28	2.91
460.485	2.96
460.69	2.96
460.895	3.05
461.099	2.93
461.304	2.84
461.509	2.81
461.714	2.88
461.919	2.85
462.123	2.88
462.328	2.81
462.533	2.68
462.738	2.57
462.942	2.42
463.147	2.5
463.352	2.62
463.556	2.75
463.761	2.8
463.966	2.86
464.17	2.87
464.375	2.92
464.58	2.85
464.784	2.88
464.989	2.91
465.193	2.82
465.398	2.76
465.602	2.94
465.807	2.94
466.011	2.97
466.216	2.95
466.42	3
466.625	2.98
466.829	2.96
467.034	3.04
467.238	3.17
467.443	3.2
