Data from Ofra_1a_PS_2HS27_Reflection_2.txt Node
Date: Tue Jul 20 10:53:41 EDT 2021
User: Adam
Spectrometer: FLMT01687
Trigger mode: 0
Integration Time (sec): 1.004000E0
Scans to average: 2
Electric dark correction enabled: true
Nonlinearity correction enabled: false
Boxcar width: 2
XAxis mode: Wavelengths
Number of Pixels in Spectrum: 3648
>>>>>Begin Spectral Data<<<<<
179.494	-489.85
179.716	-679.39
179.937	1376.92
180.158	-1674.52
180.38	214.92
180.601	133.23
180.823	104.48
181.044	62.74
181.265	17.42
181.486	86.23
181.708	48.36
181.929	-1845.45
182.15	40.48
182.372	467.49
182.593	60.45
182.814	83.36
183.035	44.63
183.257	58.42
183.478	45.77
183.699	8.5
183.92	-25.71
184.141	8.1
184.363	8.03
184.584	-19.8
184.805	21.54
185.026	54.86
185.247	29.13
185.468	6.73
185.689	30.69
185.91	2.74
186.132	10.4
186.353	13.23
186.574	24.43
186.795	53.99
187.016	71.46
187.237	72.56
187.458	53.47
187.679	39.52
187.9	20.62
188.121	22.41
188.342	47.83
188.563	86.66
188.784	90.35
189.005	77.63
189.226	47.84
189.447	38.58
189.667	18.04
189.888	-5.53
190.109	-11.97
190.33	17.15
190.551	-7.62
190.772	-15.04
190.993	-30.98
191.214	-35.61
191.434	-74.5
191.655	-49.71
191.876	14.92
192.097	93.03
192.318	94.88
192.538	76.82
192.759	49.74
192.98	55.13
193.201	24.33
193.421	-0.38
193.642	13.29
193.863	28.23
194.083	4.07
194.304	27.27
194.525	7.32
194.745	3
194.966	-8.73
195.187	-8.61
195.407	-35.99
195.628	-1.09
195.848	8.18
196.069	-1.24
196.29	10.81
196.51	-7.79
196.731	-29.15
196.951	-57.31
197.172	-23.66
197.392	-27.85
197.613	13.05
197.833	5.21
198.054	26.35
198.274	9.57
198.495	11.74
198.715	-2.29
198.936	40.62
199.156	22.43
199.377	30.41
199.597	21.85
199.817	23.33
200.038	-10.59
200.258	22.95
200.479	29.39
200.699	43.73
200.919	26.42
201.14	21.48
201.36	20.3
201.58	-14.97
201.801	-38.89
202.021	-49.37
202.241	-59.12
202.461	-62.44
202.682	-24.11
202.902	-0.02
203.122	17.93
203.342	30.17
203.563	22.85
203.783	10.97
204.003	11.17
204.223	9.39
204.443	19.35
204.663	7.09
204.884	55.11
205.104	27.74
205.324	59.95
205.544	-6.93
205.764	46.49
205.984	11.29
206.204	22.19
206.424	-7.58
206.644	0.54
206.864	-70.08
207.084	-21.3
207.304	-26.29
207.525	-22.7
207.745	12.02
207.964	37.94
208.184	34.64
208.404	32.81
208.624	50.89
208.844	36.28
209.064	40.69
209.284	18.16
209.504	3.5
209.724	-2.55
209.944	-12.85
210.164	-24.6
210.384	-3.21
210.604	6.61
210.823	-2.74
211.043	27.6
211.263	-7.58
211.483	4.99
211.703	3.3
211.922	-38.68
212.142	-47.94
212.362	-14.23
212.582	-34.12
212.801	-58.52
213.021	-13.77
213.241	-3.15
213.461	-14.74
213.68	5.13
213.9	5.06
214.12	0.9
214.339	-6.6
214.559	11.32
214.779	2.45
214.998	11.73
215.218	22.15
215.438	29.05
215.657	16.57
215.877	9.86
216.096	19.82
216.316	11.02
216.535	12.75
216.755	7.34
216.974	-5.21
217.194	-15.93
217.413	-11.3
217.633	-19.15
217.852	-8.77
218.072	16.55
218.291	12.37
218.511	8.44
218.73	-10.27
218.95	-30.87
219.169	-56.43
219.389	-24.27
219.608	-15.99
219.827	4.38
220.047	26.21
220.266	22.58
220.485	10.4
220.705	7.78
220.924	-2.84
221.143	7.95
221.363	27.77
221.582	34.45
221.801	39.16
222.021	43.75
222.24	51.31
222.459	44.97
222.678	30.21
222.897	10.51
223.117	14.66
223.336	13.96
223.555	21.1
223.774	16.18
223.993	50.96
224.213	58.2
224.432	37.47
224.651	21.42
224.87	24.7
225.089	14.27
225.308	25.07
225.527	15.35
225.746	21.91
225.965	40.88
226.184	37.74
226.404	4.48
226.623	13.98
226.842	16.63
227.061	19.7
227.28	29.06
227.499	33.04
227.718	30.83
227.936	28.26
228.155	19.81
228.374	18.94
228.593	28.09
228.812	36.41
229.031	34.92
229.25	22.35
229.469	16.34
229.688	11.66
229.907	14.71
230.125	10.84
230.344	23.75
230.563	38.52
230.782	40.48
231.001	50.8
231.22	60.05
231.438	75.32
231.657	51.56
231.876	63.12
232.095	56.89
232.313	43.62
232.532	23.16
232.751	16.52
232.969	0.57
233.188	-14.94
233.407	0.82
233.625	2.96
233.844	4.52
234.063	6.71
234.281	20.32
234.5	25.21
234.719	22.46
234.937	26.07
235.156	32.95
235.374	18.09
235.593	14.87
235.811	34.45
236.03	27.99
236.249	29.21
236.467	39.48
236.686	34.36
236.904	25.21
237.123	19.38
237.341	26.66
237.559	28.41
237.778	39.65
237.996	10.47
238.215	28.71
238.433	-43.42
238.652	-24.67
238.87	-51.15
239.088	-31.85
239.307	-21.63
239.525	12.99
239.743	10.7
239.962	9.96
240.18	26.56
240.398	25.81
240.617	6.3
240.835	-4.91
241.053	-11.13
241.271	-12.15
241.49	5.89
241.708	-15.95
241.926	-13.26
242.144	25.76
242.363	7.92
242.581	-7.98
242.799	26.99
243.017	28.9
243.235	-2.92
243.453	-0.52
243.672	6.66
243.89	7.08
244.108	6.81
244.326	28.01
244.544	34.44
244.762	27.2
244.98	36.65
245.198	45.83
245.416	43.71
245.634	35.36
245.852	23.53
246.07	38.43
246.288	30.08
246.506	25.16
246.724	15.91
246.942	22.87
247.16	-2.41
247.378	-27.34
247.596	-18.2
247.814	-42.72
248.032	-44.27
248.25	4.33
248.468	18.1
248.685	9.52
248.903	13.06
249.121	25.21
249.339	11.25
249.557	13.32
249.775	33.8
249.992	43.99
250.21	33.74
250.428	50.58
250.646	57.71
250.863	34.44
251.081	25.77
251.299	36.75
251.517	35.92
251.734	24.76
251.952	23.23
252.17	23.84
252.387	15.69
252.605	-1.16
252.823	-32.05
253.04	-7.63
253.258	17.9
253.475	15.07
253.693	17.16
253.911	22.85
254.128	14.8
254.346	12.26
254.563	21.28
254.781	9.41
254.998	4.82
255.216	-40.9
255.433	-74.42
255.651	-75.94
255.868	-66.24
256.086	-50.82
256.303	-19.45
256.521	-14.47
256.738	-24.01
256.956	-15.87
257.173	-16.74
257.39	-7.83
257.608	-2.98
257.825	8.17
258.043	16.75
258.26	17.54
258.477	23.24
258.695	34.93
258.912	38.17
259.129	35.68
259.346	35.78
259.564	39.28
259.781	18.65
259.998	17.56
260.216	14.17
260.433	7.56
260.65	9.52
260.867	10.56
261.084	-3.66
261.302	-3.73
261.519	11.19
261.736	2.65
261.953	-0.95
262.17	12.17
262.387	9.53
262.604	5.98
262.822	12.92
263.039	22.79
263.256	18.9
263.473	20.11
263.69	21.97
263.907	29.73
264.124	24.94
264.341	37.85
264.558	37.34
264.775	31.52
264.992	23.53
265.209	10.69
265.426	-17.93
265.643	-9.2
265.86	-12.35
266.077	-15.07
266.294	-11.37
266.51	11.4
266.727	11.07
266.944	24.14
267.161	29.52
267.378	43.74
267.595	37.72
267.812	24.54
268.028	14.98
268.245	18.14
268.462	19.04
268.679	31.07
268.896	49.18
269.112	34.46
269.329	1.6
269.546	8.23
269.763	9.82
269.979	-8.98
270.196	0.79
270.413	7
270.629	-13.23
270.846	-32.97
271.063	-32.85
271.279	-7.48
271.496	-10.65
271.712	11.38
271.929	13.18
272.146	28.41
272.362	4.09
272.579	17.14
272.795	2.69
273.012	16.68
273.228	19.66
273.445	21.19
273.661	19.18
273.878	3.72
274.094	6.32
274.311	3.72
274.527	-9
274.744	7.35
274.96	25.07
275.177	7.81
275.393	17.8
275.609	36.84
275.826	36.31
276.042	27.71
276.259	40.38
276.475	28.08
276.691	20.02
276.908	13.71
277.124	26.6
277.34	35.06
277.557	30.26
277.773	20.07
277.989	7.23
278.205	10.02
278.422	-2.68
278.638	10.4
278.854	-8.24
279.07	5.32
279.286	-0.49
279.503	8.53
279.719	2.76
279.935	16.33
280.151	2.48
280.367	10.74
280.583	4.74
280.799	-1.53
281.016	-27.52
281.232	-3.91
281.448	-10.65
281.664	-14.44
281.88	-7.38
282.096	17.26
282.312	10.41
282.528	6.23
282.744	18.02
282.96	16.58
283.176	-4.13
283.392	-23.57
283.608	4.63
283.824	-33.35
284.04	-72.91
284.256	-12.78
284.471	8.26
284.687	2.26
284.903	14.11
285.119	43.84
285.335	49.13
285.551	43.09
285.767	56.4
285.982	65.94
286.198	20.25
286.414	13.08
286.63	14.36
286.846	-6.13
287.061	-6.65
287.277	7.52
287.493	-7.92
287.709	0.98
287.924	11.18
288.14	22.77
288.356	32.74
288.571	27.71
288.787	16.18
289.003	16.22
289.218	-8.13
289.434	-28.89
289.65	5.59
289.865	-1.61
290.081	0.67
290.296	17
290.512	37.13
290.727	14.35
290.943	14.6
291.159	8.43
291.374	1.53
291.59	-3.32
291.805	-22.87
292.021	-2.24
292.236	-14.46
292.451	-18.15
292.667	-27.12
292.882	-6.15
293.098	-16.43
293.313	-6.84
293.529	4.57
293.744	-9.01
293.959	-0.92
294.175	-0.19
294.39	9.83
294.605	16.81
294.821	32.49
295.036	30.71
295.251	36.83
295.467	24.35
295.682	12.95
295.897	10.05
296.112	16.17
296.328	18.67
296.543	28.18
296.758	28.53
296.973	19.58
297.188	5.62
297.404	-27.65
297.619	-38.28
297.834	-52.82
298.049	-40.34
298.264	-21.71
298.479	-21.91
298.694	1.18
298.909	1.79
299.125	0.87
299.34	-0.91
299.555	19.28
299.77	29.61
299.985	35.91
300.2	42.22
300.415	36.53
300.63	32.5
300.845	28.4
301.06	12.14
301.275	-3.01
301.49	5.57
301.704	-7.81
301.919	-13.01
302.134	-14.8
302.349	-9.38
302.564	-15.45
302.779	-15.43
302.994	-9.83
303.209	3.08
303.423	18.15
303.638	27.46
303.853	27.21
304.068	19.98
304.283	27.99
304.497	2.72
304.712	17.2
304.927	16.93
305.142	28.42
305.356	27.35
305.571	27.82
305.786	13.47
306	15.95
306.215	4.67
306.43	1.81
306.644	8.45
306.859	7.85
307.074	9.71
307.288	20.9
307.503	36.88
307.717	32.91
307.932	32.19
308.147	19.74
308.361	12.75
308.576	-16.55
308.79	-5.69
309.005	-14.67
309.219	3.08
309.434	13.1
309.648	24.56
309.863	23.35
310.077	26.26
310.292	33.94
310.506	14.69
310.72	12.8
310.935	41.17
311.149	48.46
311.364	57.64
311.578	73.31
311.792	72.4
312.007	47.8
312.221	18.18
312.435	9.23
312.649	1.35
312.864	-36.38
313.078	-34.11
313.292	-20.4
313.507	-19.12
313.721	-21.55
313.935	7.96
314.149	12.63
314.363	17.27
314.578	7.04
314.792	-10.23
315.006	-0.73
315.22	-9.34
315.434	-1.24
315.648	-16.56
315.862	-9.67
316.077	-9.04
316.291	-16.39
316.505	-70.68
316.719	-39.25
316.933	-19.38
317.147	-24.04
317.361	-16.47
317.575	-3.51
317.789	-13.82
318.003	-18.42
318.217	-0.18
318.431	7.04
318.645	8.06
318.859	11.43
319.073	27.64
319.287	13.08
319.5	7.97
319.714	4.35
319.928	2.06
320.142	-10.08
320.356	0.42
320.57	-21.36
320.784	-21.01
320.997	-33.56
321.211	-18.16
321.425	-56.61
321.639	-10.13
321.853	13.65
322.066	5.41
322.28	-9.98
322.494	10.33
322.707	3.87
322.921	-12.49
323.135	6.17
323.349	5.53
323.562	8.39
323.776	2.98
323.989	21.6
324.203	9.98
324.417	15.4
324.63	8.65
324.844	4.94
325.057	-14.06
325.271	-5.63
325.485	-16.21
325.698	-0.01
325.912	13.58
326.125	9.85
326.339	23.43
326.552	21.32
326.766	-4.32
326.979	-10.51
327.193	-8.03
327.406	-16.27
327.619	3.77
327.833	11.72
328.046	7.98
328.26	4.49
328.473	-5.59
328.686	-14.87
328.9	2.03
329.113	-1.22
329.326	6.06
329.54	28.88
329.753	39.42
329.966	32.68
330.179	29.6
330.393	23.25
330.606	15.24
330.819	-12.4
331.032	-6.13
331.246	18.22
331.459	43.52
331.672	34.49
331.885	54.79
332.098	54.74
332.311	33.2
332.525	15.16
332.738	13.67
332.951	-5.21
333.164	5.99
333.377	-7.24
333.59	-5.86
333.803	4.22
334.016	15.2
334.229	4.97
334.442	13.81
334.655	5.26
334.868	-6.65
335.081	-6.11
335.294	-9.1
335.507	8.47
335.72	17.28
335.933	25.95
336.146	43.65
336.359	42.94
336.572	42.16
336.785	43.18
336.997	59.74
337.21	29.23
337.423	3.6
337.636	-10.91
337.849	-19.74
338.062	-22.39
338.274	-10.96
338.487	-12.85
338.7	-19.62
338.913	-1.79
339.125	-0.4
339.338	-0.82
339.551	22.77
339.763	34.68
339.976	39.34
340.189	55.31
340.402	63.6
340.614	49.8
340.827	54.05
341.039	37.41
341.252	35.73
341.465	17.3
341.677	21.44
341.89	-2.8
342.102	17.64
342.315	5.45
342.527	13.75
342.74	5.25
342.952	19.75
343.165	2.54
343.377	-1.14
343.59	0.47
343.802	8.97
344.015	16.59
344.227	23.73
344.44	26.99
344.652	32.27
344.864	31.23
345.077	34.59
345.289	28.89
345.502	37.09
345.714	21.94
345.926	16.62
346.139	11.98
346.351	11.09
346.563	11.36
346.775	20.63
346.988	19.31
347.2	0.36
347.412	5.92
347.624	1.36
347.837	2.85
348.049	7.87
348.261	12.08
348.473	5.83
348.685	10.31
348.897	16.29
349.11	23.39
349.322	29.73
349.534	37.1
349.746	30.22
349.958	14.97
350.17	-9.82
350.382	-11.04
350.594	10.34
350.806	22.36
351.018	20.23
351.23	39.7
351.442	39.9
351.654	24.81
351.866	15.87
352.078	25.77
352.29	-1.67
352.502	-1.72
352.714	-0.02
352.926	0.47
353.138	3
353.35	13.93
353.561	7.09
353.773	-0.24
353.985	8.45
354.197	3.93
354.409	12.86
354.621	8.38
354.832	6.21
355.044	-10.47
355.256	4.94
355.468	-8.86
355.679	11.32
355.891	21.07
356.103	24.75
356.314	7.01
356.526	-2.2
356.738	-18.22
356.949	-21.7
357.161	-20.9
357.373	-5.33
357.584	1.26
357.796	1.05
358.008	9.29
358.219	7.48
358.431	8.54
358.642	18.4
358.854	23.9
359.065	6.22
359.277	11.01
359.488	6.79
359.7	-0.01
359.911	-11.29
360.123	8.95
360.334	-6.2
360.546	-6.62
360.757	-1.78
360.969	-1.64
361.18	-9.85
361.391	9.21
361.603	17.82
361.814	18.51
362.025	27.38
362.237	29.98
362.448	35.36
362.659	19.48
362.871	1.28
363.082	1.37
363.293	-14.63
363.504	-42.48
363.716	-27.21
363.927	1.17
364.138	-10.9
364.349	-22.16
364.56	-25.21
364.772	-0.37
364.983	-0.99
365.194	10.64
365.405	30.31
365.616	32.7
365.827	9.39
366.038	13.52
366.25	14.91
366.461	11.95
366.672	15.01
366.883	25.9
367.094	9.48
367.305	-16.19
367.516	1.05
367.727	-10.81
367.938	-20.81
368.149	-3.78
368.36	6.97
368.571	-25.01
368.781	-34.32
368.992	-11.64
369.203	-8.83
369.414	-5.65
369.625	9.88
369.836	36.89
370.047	39.7
370.258	35.73
370.468	35.21
370.679	32.71
370.89	22.96
371.101	12.99
371.312	14.04
371.522	15.77
371.733	13.22
371.944	5.05
372.155	4.1
372.365	4.75
372.576	8.72
372.787	-0.3
372.997	-0.75
373.208	3.43
373.419	-2.76
373.629	-21.05
373.84	-18.02
374.05	-17.74
374.261	-30.65
374.472	-23.3
374.682	4.23
374.893	-1.91
375.103	13.04
375.314	24.25
375.524	24.6
375.735	15.39
375.945	21.17
376.156	16.66
376.366	9
376.577	2.76
376.787	3.99
376.997	5.67
377.208	7.76
377.418	5.75
377.629	11.19
377.839	12.07
378.049	13.28
378.26	5.37
378.47	11.72
378.68	13.89
378.89	11.81
379.101	6.02
379.311	8.52
379.521	3.02
379.732	0.55
379.942	1.33
380.152	5.78
380.362	10.65
380.572	19.12
380.783	27.42
380.993	28.8
381.203	22.72
381.413	21.82
381.623	25.85
381.833	19.61
382.043	14.73
382.253	22.1
382.463	27.42
382.674	17.64
382.884	20.81
383.094	22.9
383.304	21.52
383.514	18.76
383.724	18.18
383.934	13.59
384.144	10.51
384.353	10.99
384.563	5.24
384.773	6.32
384.983	0.96
385.193	1.99
385.403	0.95
385.613	5.81
385.823	4.57
386.033	7.31
386.242	1.6
386.452	0.5
386.662	0.07
386.872	9.03
387.082	7.01
387.291	9.72
387.501	12.11
387.711	12.27
387.921	7.82
388.13	7.45
388.34	5.51
388.55	-1.69
388.759	-4.31
388.969	-3.06
389.179	1.12
389.388	2.22
389.598	5.32
389.807	3.27
390.017	1.31
390.227	-1.92
390.436	-0.99
390.646	-1
390.855	-1.7
391.065	-1.94
391.274	-2.16
391.484	-2.17
391.693	-2.74
391.903	-1.58
392.112	-2.68
392.322	-2.6
392.531	-2.1
392.74	-3.02
392.95	-0.98
393.159	-0.55
393.369	1.29
393.578	1.95
393.787	4.11
393.997	2.2
394.206	1.96
394.415	2.48
394.625	0.16
394.834	-1.57
395.043	-0.87
395.252	1.31
395.462	-0
395.671	2.15
395.88	3.27
396.089	3.45
396.298	2.27
396.508	2.52
396.717	2.32
396.926	2.53
397.135	3.14
397.344	2.66
397.553	2.75
397.762	3.49
397.971	3.03
398.181	2.64
398.39	2.64
398.599	2.18
398.808	1.49
399.017	2.11
399.226	1.56
399.435	2.04
399.644	2.61
399.853	2.95
400.062	2.52
400.27	2.53
400.479	2.37
400.688	2.46
400.897	1.96
401.106	1.87
401.315	2.03
401.524	2.28
401.733	1.96
401.941	2.42
402.15	2.81
402.359	2.89
402.568	2.68
402.777	3.01
402.985	2.53
403.194	2.37
403.403	2.46
403.612	2.26
403.82	1.85
404.029	2.04
404.238	2.08
404.446	2.16
404.655	2.45
404.864	2.48
405.072	2.37
405.281	2.36
405.489	2.05
405.698	1.91
405.906	2.11
406.115	2.11
406.324	2.03
406.532	2.22
406.741	2.27
406.949	2.16
407.158	2.22
407.366	2.14
407.574	2.04
407.783	2.02
407.991	2.02
408.2	2.04
408.408	2.12
408.617	2.18
408.825	1.96
409.033	2.01
409.242	2.13
409.45	2.12
409.658	2.04
409.867	2.17
410.075	2.15
410.283	2.07
410.491	2
410.7	1.87
410.908	1.95
411.116	2
411.324	1.94
411.533	1.85
411.741	2.06
411.949	2.09
412.157	2.03
412.365	2.09
412.573	2.2
412.781	2.01
412.99	1.98
413.198	2.09
413.406	2.11
413.614	2.17
413.822	2.42
414.03	2.36
414.238	2.34
414.446	2.35
414.654	2.18
414.862	2.11
415.07	2.1
415.278	2.17
415.486	2
415.694	2.15
415.902	2.05
416.109	1.97
416.317	1.85
416.525	1.89
416.733	1.83
416.941	1.96
417.149	1.98
417.357	2.04
417.564	1.98
417.772	2.03
417.98	1.89
418.188	1.9
418.395	1.69
418.603	1.6
418.811	1.52
419.019	1.51
419.226	1.55
419.434	1.73
419.642	1.67
419.849	1.78
420.057	1.92
420.265	1.91
420.472	1.82
420.68	2.07
420.887	1.98
421.095	2.02
421.302	2.16
421.51	2.03
421.717	1.98
421.925	1.97
422.132	1.85
422.34	1.6
422.547	1.63
422.755	1.73
422.962	1.82
423.17	1.63
423.377	1.74
423.585	1.9
423.792	1.68
423.999	1.64
424.207	1.78
424.414	1.8
424.621	1.79
424.829	1.9
425.036	1.85
425.243	1.92
425.451	1.91
425.658	1.66
425.865	1.7
426.072	1.73
426.28	1.74
426.487	1.74
426.694	1.79
426.901	1.82
427.108	1.78
427.315	1.61
427.523	1.52
427.73	1.66
427.937	1.54
428.144	1.5
428.351	1.61
428.558	1.79
428.765	1.75
428.972	1.84
429.179	1.81
429.386	1.88
429.593	1.7
429.8	1.74
430.007	1.69
430.214	1.75
430.421	1.75
430.628	1.75
430.835	1.6
431.042	1.58
431.249	1.72
431.456	1.65
431.662	1.67
431.869	1.88
432.076	1.87
432.283	1.86
432.49	1.86
432.697	1.96
432.903	1.92
433.11	2.15
433.317	2.1
433.524	2.14
433.73	2.08
433.937	2.12
434.144	1.88
434.35	1.79
434.557	1.85
434.764	1.91
434.97	1.86
435.177	2.03
435.384	2.12
435.59	2.18
435.797	2.19
436.003	2.29
436.21	2.16
436.416	2.13
436.623	1.97
436.829	1.94
437.036	1.75
437.242	1.87
437.449	1.86
437.655	2
437.862	2.11
438.068	2.15
438.275	2.19
438.481	2.3
438.687	2.32
438.894	2.3
439.1	2.34
439.307	2.35
439.513	2.36
439.719	2.34
439.926	2.29
440.132	2.35
440.338	2.33
440.544	2.26
440.751	2.21
440.957	2.29
441.163	2.21
441.369	2.21
441.575	2.23
441.782	2.22
441.988	2.15
442.194	2.16
442.4	2.06
442.606	2.18
442.812	2.24
443.018	2.24
443.224	2.42
443.431	2.55
443.637	2.41
443.843	2.5
444.049	2.64
444.255	2.57
444.461	2.45
444.667	2.47
444.873	2.4
445.079	2.29
445.284	2.24
445.49	2.26
445.696	2.26
445.902	2.21
446.108	2.2
446.314	2.34
446.52	2.41
446.726	2.45
446.931	2.38
447.137	2.45
447.343	2.41
447.549	2.41
447.755	2.37
447.96	2.57
448.166	2.48
448.372	2.42
448.578	2.39
448.783	2.42
448.989	2.32
449.195	2.37
449.4	2.38
449.606	2.44
449.812	2.4
450.017	2.37
450.223	2.34
450.428	2.32
450.634	2.3
450.84	2.34
451.045	2.51
451.251	2.62
451.456	2.68
451.662	2.65
451.867	2.67
452.073	2.6
452.278	2.51
452.483	2.5
452.689	2.47
452.894	2.57
453.1	2.55
453.305	2.61
453.51	2.66
453.716	2.76
453.921	2.74
454.127	2.81
454.332	2.83
454.537	2.76
454.742	2.71
454.948	2.74
455.153	2.66
455.358	2.65
455.563	2.81
455.769	2.77
455.974	2.74
456.179	2.72
456.384	2.67
456.589	2.55
456.795	2.52
457	2.49
457.205	2.5
457.41	2.56
457.615	2.57
457.82	2.64
458.025	2.65
458.23	2.73
458.435	2.68
458.64	2.6
458.845	2.63
459.05	2.68
459.255	2.62
459.46	2.61
459.665	2.62
459.87	2.65
460.075	2.62
460.28	2.7
460.485	2.85
460.69	2.9
460.895	2.9
461.099	2.82
461.304	2.67
461.509	2.62
461.714	2.65
461.919	2.62
462.123	2.72
462.328	2.76
462.533	2.67
462.738	2.61
462.942	2.59
463.147	2.53
463.352	2.6
463.556	2.68
463.761	2.72
463.966	2.74
464.17	2.86
464.375	2.89
464.58	2.81
464.784	2.76
464.989	2.82
465.193	2.76
465.398	2.75
465.602	2.95
465.807	3.03
466.011	3
466.216	2.96
466.42	2.97
466.625	2.93
466.829	2.94
467.034	3.08
467.238	3.21
467.443	3.23
467.647	3.15
467.851	3.13
468.056	3.01
468.26	2.98
468.464	2.99
