Data from Ofra_PS_T2_1A_1GT43_Reflection_2.txt Node
Date: Wed Jul 21 17:49:41 EDT 2021
User: Adam
Spectrometer: FLMT01687
Trigger mode: 0
Integration Time (sec): 1.100000E0
Scans to average: 2
Electric dark correction enabled: true
Nonlinearity correction enabled: false
Boxcar width: 2
XAxis mode: Wavelengths
Number of Pixels in Spectrum: 3648
>>>>>Begin Spectral Data<<<<<
179.494	783.8
179.716	839.53
179.937	801.36
180.158	773.19
180.38	1117.34
180.601	424.17
180.823	141.88
181.044	-28.55
181.265	178.49
181.486	152.75
181.708	152.37
181.929	1217.86
182.15	-358.8
182.372	142.99
182.593	119.25
182.814	43.93
183.035	137.26
183.257	53.16
183.478	-48.46
183.699	15.61
183.92	0.04
184.141	-52.36
184.363	-104.69
184.584	-0.35
184.805	10.81
185.026	51.58
185.247	56.93
185.468	29.93
185.689	8.43
185.91	12.19
186.132	7.19
186.353	11.7
186.574	88.22
186.795	75.28
187.016	3.93
187.237	-0.54
187.458	-12.18
187.679	-20.92
187.9	-18.2
188.121	5.86
188.342	33.28
188.563	53.26
188.784	102.71
189.005	123.6
189.226	181.65
189.447	146.69
189.667	170.51
189.888	-209.73
190.109	-1098.38
190.33	-580.48
190.551	-944.91
190.772	-164.1
190.993	-96.6
191.214	-128.33
191.434	-103.77
191.655	-63.28
191.876	-172.07
192.097	-218.14
192.318	-265.52
192.538	-406.38
192.759	-246.51
192.98	-118.36
193.201	-62.36
193.421	-22.75
193.642	-2.55
193.863	20.28
194.083	16.6
194.304	-2.7
194.525	-1.2
194.745	-9.4
194.966	-23.12
195.187	-49.89
195.407	-46.77
195.628	-89.92
195.848	-88.14
196.069	-130.79
196.29	-50.64
196.51	-71.38
196.731	-76.93
196.951	-75.24
197.172	-104.49
197.392	-160.75
197.613	-134.1
197.833	-163.91
198.054	-179.08
198.274	-95.99
198.495	-111.78
198.715	-73.26
198.936	-76.63
199.156	-42.68
199.377	-115.27
199.597	-91.26
199.817	-124.25
200.038	-63
200.258	-107.65
200.479	-59.89
200.699	-17.45
200.919	35.99
201.14	-11.75
201.36	-21.72
201.58	15.96
201.801	31.88
202.021	-6.82
202.241	-3.79
202.461	-1.91
202.682	-83.4
202.902	-144.38
203.122	-79.99
203.342	-50.48
203.563	-0.93
203.783	25.91
204.003	-9.35
204.223	3.54
204.443	42.18
204.663	6.88
204.884	26.64
205.104	63.46
205.324	109.29
205.544	92.85
205.764	82.78
205.984	74.33
206.204	72.64
206.424	42.68
206.644	15.54
206.864	25.9
207.084	-15.1
207.304	-3.96
207.525	-123.67
207.745	-40.48
207.964	16.35
208.184	-29.29
208.404	-72.64
208.624	-54.52
208.844	-23.57
209.064	-290.26
209.284	-278.95
209.504	-109.71
209.724	3.93
209.944	-5.74
210.164	34.4
210.384	36.12
210.604	32.58
210.823	-20.1
211.043	-52.93
211.263	-39.84
211.483	-43.74
211.703	-105.71
211.922	-87.14
212.142	-20.69
212.362	-38.87
212.582	-36.72
212.801	-28.13
213.021	-52.8
213.241	-68.31
213.461	-80.89
213.68	-108.06
213.9	-53.03
214.12	-10.27
214.339	-79.24
214.559	-71.79
214.779	1.35
214.998	-21.97
215.218	-79.88
215.438	-39.11
215.657	-54.88
215.877	-84.97
216.096	-38.34
216.316	-0.2
216.535	-13.57
216.755	-2.26
216.974	-50.91
217.194	-105.9
217.413	-157.31
217.633	-132.26
217.852	-226.25
218.072	-116.16
218.291	-67.53
218.511	-7.23
218.73	-23.99
218.95	-15.26
219.169	-20.73
219.389	-66.02
219.608	-60.92
219.827	-63.97
220.047	-60.51
220.266	-37.1
220.485	-22.68
220.705	-10.05
220.924	-24.56
221.143	7.54
221.363	-9.17
221.582	15.5
221.801	11.93
222.021	28.64
222.24	-32.65
222.459	10.89
222.678	-29.21
222.897	-85.4
223.117	-116.99
223.336	-48.85
223.555	-32.98
223.774	2.88
223.993	20.7
224.213	76.58
224.432	29.15
224.651	48.33
224.87	16.23
225.089	36.29
225.308	45.75
225.527	61.86
225.746	47.09
225.965	44.28
226.184	32.4
226.404	3.91
226.623	-17.2
226.842	4.92
227.061	39.97
227.28	33.44
227.499	16.66
227.718	33.21
227.936	18.13
228.155	-6.83
228.374	-24.67
228.593	12.88
228.812	6.12
229.031	-1.44
229.25	-49
229.469	-46.65
229.688	-65.81
229.907	-41.11
230.125	-10.13
230.344	8.01
230.563	16.5
230.782	30.8
231.001	-41.53
231.22	-53.87
231.438	-5.1
231.657	-6.76
231.876	-12.32
232.095	38.89
232.313	52.22
232.532	10.68
232.751	-17.02
232.969	-39.6
233.188	-108.64
233.407	-25.09
233.625	-25.57
233.844	-37.21
234.063	-20
234.281	7.86
234.5	-28.83
234.719	-5.28
234.937	32.5
235.156	26.87
235.374	7.41
235.593	10.48
235.811	4.12
236.03	-28.32
236.249	-36.79
236.467	-12.16
236.686	4.39
236.904	14.58
237.123	6.07
237.341	5.14
237.559	4.29
237.778	-8.22
237.996	-26.3
238.215	10.33
238.433	9.92
238.652	4.4
238.87	-9.15
239.088	5.45
239.307	-6.13
239.525	-15
239.743	-33.63
239.962	-23
240.18	-62.07
240.398	-120.09
240.617	-128.18
240.835	-119.63
241.053	-96.07
241.271	-24.7
241.49	10.03
241.708	4.69
241.926	9.27
242.144	1.83
242.363	-74.26
242.581	-89.04
242.799	-37.31
243.017	-23.45
243.235	-41.04
243.453	-17.11
243.672	-18.98
243.89	-20.12
244.108	-26.08
244.326	-6.93
244.544	-15.85
244.762	-5.26
244.98	-1.48
245.198	14.55
245.416	-9.65
245.634	-10.41
245.852	-22.3
246.07	-21.43
246.288	-22.93
246.506	-35.01
246.724	6.72
246.942	-10.4
247.16	15.7
247.378	22.48
247.596	47.76
247.814	52.7
248.032	43.68
248.25	36.76
248.468	42.99
248.685	50.78
248.903	59.66
249.121	62.41
249.339	33.83
249.557	2.21
249.775	9.47
249.992	-60.28
250.21	-60.88
250.428	-37.42
250.646	-53.41
250.863	-85.03
251.081	-59.57
251.299	-28.72
251.517	-20.22
251.734	-6.16
251.952	-14.06
252.17	-4.49
252.387	-2.39
252.605	-14.36
252.823	-5.08
253.04	22.93
253.258	54.68
253.475	52.28
253.693	70.51
253.911	73.42
254.128	85.18
254.346	77.5
254.563	45.55
254.781	15.65
254.998	-26.65
255.216	-49.76
255.433	-33.18
255.651	30.22
255.868	70.29
256.086	100.79
256.303	90.43
256.521	56.78
256.738	17.03
256.956	-12.07
257.173	-41.66
257.39	-59.94
257.608	-73.17
257.825	-2.03
258.043	37.94
258.26	58
258.477	97.45
258.695	85.84
258.912	30.69
259.129	32.47
259.346	-11.1
259.564	-57.34
259.781	-72.09
259.998	-10.81
260.216	6.91
260.433	43.16
260.65	48.61
260.867	76.2
261.084	48.88
261.302	11.21
261.519	0.82
261.736	-34.18
261.953	-58.49
262.17	-16.88
262.387	-19.19
262.604	-63.34
262.822	-58.57
263.039	-43.57
263.256	-100.71
263.473	-63.44
263.69	-18.76
263.907	26.57
264.124	30.41
264.341	32.95
264.558	21.33
264.775	28.51
264.992	11.81
265.209	8.63
265.426	37.42
265.643	42.05
265.86	37.4
266.077	39.29
266.294	36.89
266.51	-8.06
266.727	-38.42
266.944	-6.65
267.161	-17.97
267.378	-23.15
267.595	9.24
267.812	-11.36
268.028	-49.15
268.245	-48.34
268.462	-65.53
268.679	-80.17
268.896	-8.45
269.112	10.81
269.329	10.06
269.546	23.86
269.763	12.79
269.979	-7.15
270.196	-15.5
270.413	-47.65
270.629	-63.11
270.846	-63.55
271.063	-54.12
271.279	-84.05
271.496	-65.63
271.712	-3.86
271.929	32.15
272.146	13.33
272.362	41.2
272.579	72.9
272.795	65.76
273.012	65.43
273.228	72.92
273.445	40.05
273.661	14.86
273.878	-55
274.094	-57.87
274.311	-80.15
274.527	-10.01
274.744	-3.03
274.96	2.01
275.177	2.49
275.393	22.38
275.609	19.77
275.826	31.3
276.042	24.86
276.259	7.86
276.475	15.36
276.691	25.66
276.908	0.95
277.124	25.75
277.34	28
277.557	11.45
277.773	-13.26
277.989	-10.28
278.205	-24.01
278.422	2.1
278.638	17.46
278.854	49.7
279.07	44.88
279.286	43.37
279.503	7.83
279.719	-15.67
279.935	-49.69
280.151	-50.14
280.367	-21.13
280.583	-29.77
280.799	-27.46
281.016	-54.62
281.232	-15.5
281.448	-21.87
281.664	0.53
281.88	-35.04
282.096	-22.9
282.312	9.28
282.528	19.74
282.744	32.52
282.96	36.01
283.176	29.34
283.392	-1.25
283.608	-7.4
283.824	-19.5
284.04	-18.46
284.256	-8.83
284.471	-13.26
284.687	-28.86
284.903	-1.12
285.119	31.55
285.335	8.46
285.551	26.19
285.767	24.98
285.982	8.93
286.198	-24.33
286.414	33.78
286.63	31.81
286.846	45.9
287.061	23.67
287.277	60.55
287.493	24.99
287.709	40.31
287.924	31.75
288.14	66.01
288.356	55.6
288.571	76.43
288.787	47.54
289.003	47.4
289.218	15.7
289.434	-15.96
289.65	-10.12
289.865	-13.84
290.081	18.34
290.296	36.74
290.512	28.23
290.727	-4.08
290.943	-4.65
291.159	-32.03
291.374	-30.27
291.59	-47.45
291.805	-29.48
292.021	-25.08
292.236	-27.49
292.451	-14.46
292.667	4.26
292.882	27.26
293.098	43.01
293.313	47.85
293.529	27.08
293.744	-1.62
293.959	-42.65
294.175	-40.01
294.39	-8.69
294.605	7.96
294.821	42.58
295.036	61.25
295.251	59.57
295.467	22.8
295.682	17.65
295.897	-44.28
296.112	-56.85
296.328	-53.03
296.543	-46.45
296.758	-32.79
296.973	23.08
297.188	35.49
297.404	19.36
297.619	18.46
297.834	-15.7
298.049	-25.26
298.264	-45.26
298.479	11.3
298.694	15.65
298.909	40.78
299.125	27.95
299.34	34.98
299.555	2.29
299.77	33.11
299.985	-16.04
300.2	-45.67
300.415	-80.82
300.63	-35.55
300.845	-48.7
301.06	-43.79
301.275	-20.28
301.49	18.34
301.704	0.01
301.919	-37.57
302.134	-40.04
302.349	-27.48
302.564	-101.95
302.779	-131.27
302.994	-65.32
303.209	-20.29
303.423	-16.2
303.638	55.3
303.853	7.34
304.068	-9.25
304.283	-3.79
304.497	-15.13
304.712	-47.64
304.927	-23.43
305.142	-23.11
305.356	-23.37
305.571	-14.72
305.786	-11.95
306	-12.78
306.215	-10.85
306.43	-35.14
306.644	-15.08
306.859	19.98
307.074	27.7
307.288	16.11
307.503	17.89
307.717	-11.95
307.932	-3
308.147	-21.36
308.361	5.07
308.576	4.97
308.79	-20.83
309.005	-24.16
309.219	-1.65
309.434	-18.8
309.648	-22.98
309.863	-0.14
310.077	-7.56
310.292	-18.19
310.506	-7.07
310.72	0.89
310.935	4.35
311.149	7.44
311.364	28.48
311.578	35.35
311.792	35.3
312.007	40.27
312.221	32.4
312.435	36.04
312.649	16.19
312.864	66.95
313.078	70.05
313.292	121.56
313.507	71.16
313.721	107.09
313.935	29.51
314.149	16.69
314.363	0.01
314.578	10.21
314.792	17.52
315.006	5.05
315.22	26.93
315.434	42.08
315.648	59.44
315.862	45.4
316.077	44.93
316.291	29.63
316.505	43.4
316.719	8.48
316.933	11.67
317.147	13.08
317.361	-44.78
317.575	-93.88
317.789	-124.18
318.003	-203.28
318.217	-162.73
318.431	-56.95
318.645	5.25
318.859	0.79
319.073	33.57
319.287	29.73
319.5	2.27
319.714	-45.91
319.928	-56.29
320.142	-97.85
320.356	-26.94
320.57	-1.28
320.784	-6.81
320.997	-20.06
321.211	9.46
321.425	-68.15
321.639	-115.56
321.853	-57.64
322.066	-24.48
322.28	-35.58
322.494	-35.09
322.707	6.73
322.921	1.41
323.135	-0.93
323.349	12.85
323.562	-3.5
323.776	-26.89
323.989	-35.65
324.203	-68.15
324.417	-76.1
324.63	-82.29
324.844	-78.04
325.057	-66.97
325.271	-31.21
325.485	-5.15
325.698	25.82
325.912	58.87
326.125	34.59
326.339	25.14
326.552	25.43
326.766	7.64
326.979	5.82
327.193	52.17
327.406	56.28
327.619	42.25
327.833	77.41
328.046	48.03
328.26	15.46
328.473	23.63
328.686	-4.94
328.9	-37.56
329.113	-22.2
329.326	-27.55
329.54	-17.16
329.753	-9.72
329.966	-35.95
330.179	-26.9
330.393	-21.05
330.606	-20.24
330.819	-4.6
331.032	6.79
331.246	1.17
331.459	28.58
331.672	28.43
331.885	24.82
332.098	5.03
332.311	17.71
332.525	-48.76
332.738	-33.42
332.951	-5.43
333.164	18.27
333.377	8.75
333.59	38.72
333.803	43.98
334.016	38.63
334.229	41.69
334.442	70.74
334.655	95.81
334.868	77.89
335.081	56.9
335.294	38.51
335.507	18.39
335.72	-14.48
335.933	-35.84
336.146	-44.12
336.359	-18
336.572	-48.59
336.785	-61.32
336.997	-32.61
337.21	-3.33
337.423	-25.26
337.636	-8.6
337.849	6.36
338.062	-14.52
338.274	-9.62
338.487	-15.19
338.7	-16.69
338.913	-61.32
339.125	-72.66
339.338	-129.38
339.551	-95.55
339.763	-61.49
339.976	-13.85
340.189	6.41
340.402	32.86
340.614	21.27
340.827	8.16
341.039	-10.54
341.252	-12.73
341.465	-4.69
341.677	-3.78
341.89	-26.84
342.102	-1.2
342.315	-0.92
342.527	-36.57
342.74	-33.68
342.952	1.24
343.165	7.45
343.377	33.98
343.59	30.9
343.802	45.44
344.015	53.45
344.227	63.29
344.44	41.48
344.652	34.67
344.864	9.05
345.077	24.23
345.289	17.76
345.502	22.36
345.714	23.67
345.926	35.52
346.139	27.84
346.351	35.85
346.563	46.44
346.775	47.72
346.988	37.65
347.2	12.66
347.412	-32.65
347.624	-70.17
347.837	-79.77
348.049	-58.7
348.261	-6.13
348.473	-2.59
348.685	-4.61
348.897	-29.32
349.11	-44.53
349.322	-104.44
349.534	-66.32
349.746	-54.07
349.958	-17.77
350.17	-0.89
350.382	25.12
350.594	12.85
350.806	18.83
351.018	25.33
351.23	7.28
351.442	-37.15
351.654	-35.49
351.866	-42.94
352.078	-39.54
352.29	-14.02
352.502	10.09
352.714	16.54
352.926	3.28
353.138	-3.35
353.35	-15.32
353.561	-15.98
353.773	-32.98
353.985	-14.16
354.197	-23.4
354.409	-22.66
354.621	-28.24
354.832	-15.27
355.044	-24.7
355.256	-25.52
355.468	-10.06
355.679	-13.4
355.891	-3.61
356.103	-9.6
356.314	8.64
356.526	12.16
356.738	35.05
356.949	27.86
357.161	25.61
357.373	13.23
357.584	-8.91
357.796	-4.82
358.008	-1.05
358.219	26.78
358.431	28.19
358.642	31.35
358.854	21.71
359.065	-3.79
359.277	-50.27
359.488	-60.15
359.7	-63.38
359.911	-81.39
360.123	-39.04
360.334	-54.59
360.546	-65.01
360.757	-63.93
360.969	-25.49
361.18	-28.24
361.391	22.77
361.603	9.18
361.814	16.91
362.025	-11.48
362.237	-17.2
362.448	-17.43
362.659	9.93
362.871	8.25
363.082	10.42
363.293	6.51
363.504	-1.87
363.716	-26.07
363.927	-27.13
364.138	-42.48
364.349	-50.94
364.56	-52.71
364.772	-40.7
364.983	-20.07
365.194	-11.34
365.405	10.79
365.616	37.97
365.827	39.78
366.038	23.97
366.25	14
366.461	-27.76
366.672	-27.65
366.883	-7.03
367.094	6.36
367.305	5.94
367.516	15.99
367.727	-14.77
367.938	-32.25
368.149	-39.18
368.36	-19.5
368.571	-13.24
368.781	-19.87
368.992	-25.53
369.203	-42.26
369.414	-76.39
369.625	-80.14
369.836	-69.55
370.047	-92.38
370.258	-60.78
370.468	-61.03
370.679	-79.91
370.89	-61.94
371.101	-37.93
371.312	-45.55
371.522	-25.51
371.733	-14.24
371.944	-12.85
372.155	-0.52
372.365	-11.64
372.576	-8.93
372.787	-4.44
372.997	-27.05
373.208	-28.84
373.419	6.35
373.629	-27.43
373.84	-25.48
374.05	-29.66
374.261	-10.13
374.472	-47.5
374.682	1.22
374.893	-7.09
375.103	38.4
375.314	17.54
375.524	26.97
375.735	27.82
375.945	40.43
376.156	-1.06
376.366	6.31
376.577	7.2
376.787	-5.45
376.997	2.15
377.208	11.21
377.418	-8.8
377.629	-2.83
377.839	-9.54
378.049	-18.6
378.26	0.67
378.47	15.06
378.68	4.67
378.89	7.5
379.101	-0.96
379.311	-39.11
379.521	-81.12
379.732	-84.42
379.942	-76.96
380.152	-82.79
380.362	-34.67
380.572	-17.22
380.783	1.76
380.993	13.62
381.203	27.4
381.413	37.7
381.623	47.34
381.833	43.37
382.043	28.62
382.253	14.4
382.463	2.96
382.674	-10.84
382.884	-39.19
383.094	-37.12
383.304	-25.99
383.514	-22.61
383.724	-5.31
383.934	-4.34
384.144	-10.61
384.353	-27.12
384.563	-31.05
384.773	-26.33
384.983	-27.11
385.193	-7.27
385.403	5
385.613	11.24
385.823	-10.76
386.033	-4.34
386.242	-14.86
386.452	-15.99
386.662	-24.73
386.872	-4.5
387.082	-9.72
387.291	-16.42
387.501	-19.24
387.711	-5.77
387.921	-17.76
388.13	-13.39
388.34	2.26
388.55	2.1
388.759	-5.84
388.969	2.38
389.179	-1.63
389.388	-2.68
389.598	6.27
389.807	2.27
390.017	-3.58
390.227	-0.63
390.436	-6.31
390.646	-10.59
390.855	-5.27
391.065	-3.24
391.274	-5.22
391.484	-6.03
391.693	-3.48
391.903	-2.01
392.112	4.51
392.322	7.96
392.531	11.18
392.74	11.43
392.95	6.83
393.159	3.49
393.369	2.57
393.578	2.6
393.787	0.14
393.997	1.68
394.206	0.36
394.415	0.27
394.625	-0.59
394.834	-1.79
395.043	-0.75
395.252	2.7
395.462	4.36
395.671	5.04
395.88	6.55
396.089	8.5
396.298	5.87
396.508	5.67
396.717	5.83
396.926	5.94
397.135	4.81
397.344	5
397.553	5.59
397.762	7.38
397.971	7.77
398.181	7.49
398.39	7.14
398.599	6.59
398.808	5.84
399.017	6.55
399.226	8.21
399.435	9.66
399.644	10.22
399.853	9.21
400.062	8.51
400.27	7.54
400.479	6.71
400.688	5.46
400.897	5.78
401.106	6.06
401.315	5.85
401.524	6.07
401.733	7.25
401.941	7.86
402.15	7.82
402.359	7.62
402.568	7.83
402.777	7.63
402.985	7.18
403.194	7.03
403.403	7.18
403.612	6.87
403.82	6.61
404.029	6.67
404.238	6.67
404.446	7.06
404.655	6.81
404.864	6.68
405.072	6.63
405.281	6.78
405.489	6.32
405.698	6.42
405.906	6.53
406.115	6.37
406.324	6.27
406.532	6.49
406.741	6.75
406.949	6.77
407.158	6.81
407.366	6.77
407.574	6.62
407.783	6.56
407.991	6.14
408.2	6.26
408.408	6.11
408.617	6.07
408.825	5.75
409.033	6.14
409.242	6.23
409.45	6.35
409.658	6.33
409.867	6.59
410.075	6.4
410.283	6.11
410.491	6.15
410.7	5.94
410.908	5.99
411.116	6.29
411.324	6.4
411.533	6.24
411.741	6.5
411.949	6.44
412.157	6.08
412.365	6.13
412.573	6.13
412.781	6.19
412.99	5.9
413.198	6.11
413.406	6.06
413.614	6.19
413.822	5.98
414.03	5.95
414.238	5.72
414.446	5.7
414.654	5.28
414.862	5.46
415.07	5.7
415.278	5.99
415.486	5.81
415.694	6.04
415.902	5.79
416.109	5.52
416.317	5.37
416.525	5.22
416.733	5.22
416.941	5.34
417.149	5.41
417.357	5.53
417.564	5.89
417.772	6.12
417.98	6.01
418.188	6.1
418.395	5.97
418.603	6.03
418.811	5.68
419.019	5.65
419.226	5.87
419.434	5.96
419.642	5.7
419.849	5.88
420.057	5.88
420.265	5.64
420.472	5.35
420.68	5.34
420.887	5.12
421.095	5.26
421.302	5.22
421.51	5.55
421.717	5.63
421.925	5.77
422.132	5.52
422.34	5.28
422.547	5.25
422.755	5.18
422.962	5.08
423.17	5.11
423.377	5.35
423.585	5.15
423.792	5.06
423.999	5.17
424.207	5.07
424.414	5.17
424.621	5.27
424.829	5.23
425.036	5.22
425.243	5.35
425.451	5.2
425.658	4.9
425.865	5.19
426.072	5.18
426.28	5.54
426.487	5.54
426.694	5.89
426.901	5.64
427.108	5.57
427.315	5.33
427.523	5.55
427.73	5.35
427.937	5.23
428.144	5.05
428.351	4.78
428.558	4.85
428.765	4.81
428.972	4.88
429.179	5.28
429.386	5.79
429.593	5.52
429.8	5.51
430.007	5.73
430.214	5.7
430.421	5.42
430.628	5.21
430.835	5.23
431.042	5.38
431.249	5.43
431.456	5.41
431.662	5.71
431.869	5.87
432.076	5.68
432.283	5.64
432.49	5.64
432.697	5.58
432.903	5.3
433.11	5.34
433.317	5.48
433.524	5.79
433.73	5.72
433.937	6.03
434.144	5.85
434.35	5.71
434.557	5.52
434.764	5.52
434.97	5.4
435.177	5.65
435.384	5.52
435.59	5.65
435.797	5.93
436.003	6.03
436.21	5.98
436.416	6.17
436.623	6.13
436.829	6.09
437.036	6.23
437.242	6.26
437.449	6.21
437.655	6.16
437.862	6.13
438.068	5.91
438.275	6.01
438.481	6.19
438.687	6.24
438.894	6.27
439.1	6.42
439.307	6.6
439.513	6.4
439.719	6.45
439.926	6.45
440.132	6.37
440.338	6.12
440.544	6.38
440.751	6.26
440.957	6.35
441.163	6.24
441.369	6.33
441.575	5.99
441.782	6
441.988	5.85
442.194	5.99
442.4	5.9
442.606	6.24
442.812	6.33
443.018	6.41
443.224	6.5
443.431	6.67
443.637	6.47
443.843	6.43
444.049	6.49
444.255	6.49
444.461	6.5
444.667	6.5
444.873	6.59
445.079	6.51
445.284	6.55
445.49	6.32
445.696	6.21
445.902	6.08
446.108	6.07
446.314	5.98
446.52	6.05
446.726	6.34
446.931	6.52
447.137	6.58
447.343	6.57
447.549	6.49
447.755	6.29
447.96	6.27
448.166	6.22
448.372	6.2
448.578	6.37
448.783	6.42
448.989	6.41
449.195	6.62
449.4	6.63
449.606	6.57
449.812	6.51
450.017	6.57
450.223	6.44
450.428	6.36
450.634	6.5
450.84	6.72
451.045	6.64
451.251	6.49
451.456	6.76
451.662	6.78
451.867	6.78
452.073	6.75
452.278	6.95
452.483	7.08
452.689	6.89
452.894	6.9
453.1	6.97
453.305	6.86
453.51	6.73
453.716	6.8
453.921	6.76
454.127	6.71
454.332	6.67
454.537	6.52
454.742	6.58
454.948	6.61
455.153	6.66
455.358	6.76
455.563	7.04
455.769	7.09
455.974	7.04
456.179	6.95
456.384	6.99
456.589	6.82
456.795	6.61
457	6.54
457.205	6.82
457.41	6.71
457.615	6.71
457.82	6.84
458.025	6.86
458.23	6.59
458.435	6.69
458.64	6.58
458.845	6.72
459.05	6.78
459.255	6.9
459.46	6.92
459.665	7.01
459.87	7.01
460.075	6.96
460.28	6.98
460.485	7.03
460.69	7.01
460.895	6.89
461.099	6.94
461.304	7.02
461.509	6.97
461.714	6.93
461.919	7.03
