Data from Ofra_2a_PS_2CX10_Reflection_2.txt Node
Date: Tue Jul 20 09:37:22 EDT 2021
User: Adam
Spectrometer: FLMT01687
Trigger mode: 0
Integration Time (sec): 9.450000E-1
Scans to average: 3
Electric dark correction enabled: true
Nonlinearity correction enabled: false
Boxcar width: 3
XAxis mode: Wavelengths
Number of Pixels in Spectrum: 3648
>>>>>Begin Spectral Data<<<<<
179.494	613.61
179.716	376.67
179.937	452.2
180.158	1534.77
180.38	-461.92
180.601	-97.49
180.823	-45.55
181.044	-39.94
181.265	-151.32
181.486	3.91
181.708	-175
181.929	-119.19
182.15	-166.48
182.372	-8.21
182.593	18.92
182.814	279.49
183.035	253.62
183.257	91.97
183.478	86.99
183.699	76.24
183.92	64.24
184.141	66.3
184.363	53.58
184.584	41.95
184.805	44.7
185.026	49.85
185.247	42.33
185.468	44.42
185.689	55.98
185.91	59.13
186.132	58.45
186.353	42.51
186.574	32.13
186.795	17.46
187.016	9.93
187.237	6.28
187.458	-7.23
187.679	-14.04
187.9	12.55
188.121	31.29
188.342	58.07
188.563	65.44
188.784	65.25
189.005	75.49
189.226	65.15
189.447	67.7
189.667	50.83
189.888	54.64
190.109	61.07
190.33	49.19
190.551	33.25
190.772	36.36
190.993	32.61
191.214	29.33
191.434	25.99
191.655	34
191.876	43.51
192.097	48.11
192.318	60.16
192.538	62.09
192.759	69.48
192.98	60
193.201	64.2
193.421	59.28
193.642	67.47
193.863	66.43
194.083	67.57
194.304	65.91
194.525	74.16
194.745	42.82
194.966	33.81
195.187	38.15
195.407	22.44
195.628	18.79
195.848	14.84
196.069	11.72
196.29	21.45
196.51	24.88
196.731	22.45
196.951	34.23
197.172	44.47
197.392	44.37
197.613	37.84
197.833	45.22
198.054	47.14
198.274	31.01
198.495	26.11
198.715	13.54
198.936	-3.8
199.156	1.42
199.377	6.66
199.597	10.24
199.817	23.19
200.038	32.64
200.258	40.41
200.479	42.59
200.699	37.36
200.919	28.53
201.14	29.86
201.36	35.47
201.58	42.3
201.801	32.53
202.021	34.91
202.241	41.81
202.461	50.63
202.682	53.3
202.902	46.65
203.122	44.33
203.342	61.13
203.563	72.38
203.783	77.25
204.003	75.3
204.223	72.36
204.443	73.31
204.663	78.07
204.884	72.07
205.104	62.88
205.324	53.91
205.544	50.73
205.764	43.73
205.984	54.72
206.204	54.79
206.424	53.28
206.644	47.61
206.864	48.22
207.084	57.7
207.304	66.14
207.525	56.66
207.745	54.41
207.964	52.41
208.184	51.44
208.404	40.22
208.624	20.6
208.844	-3.67
209.064	7.05
209.284	-2.54
209.504	-3.96
209.724	-27.99
209.944	-6.28
210.164	-4.77
210.384	5.11
210.604	-3.53
210.823	8.77
211.043	9.58
211.263	40.26
211.483	35.6
211.703	50.53
211.922	54.42
212.142	62.63
212.362	62.65
212.582	66.59
212.801	56.65
213.021	60.8
213.241	54.8
213.461	47.23
213.68	43.42
213.9	57.8
214.12	43.83
214.339	43.96
214.559	47.67
214.779	47.36
214.998	47.73
215.218	51.17
215.438	46.02
215.657	53.85
215.877	54.05
216.096	43.89
216.316	50.26
216.535	55.44
216.755	38.67
216.974	39.09
217.194	41.85
217.413	54.95
217.633	52.42
217.852	35.99
218.072	40.6
218.291	56.27
218.511	45.6
218.73	41.95
218.95	32.22
219.169	41.66
219.389	46.03
219.608	50.67
219.827	47.43
220.047	65.04
220.266	57.96
220.485	55.07
220.705	38.12
220.924	36.87
221.143	27.21
221.363	23.39
221.582	23.08
221.801	20.53
222.021	23.68
222.24	29.51
222.459	30.8
222.678	22.64
222.897	11.36
223.117	7.61
223.336	13.09
223.555	-3.66
223.774	12.37
223.993	23.45
224.213	24.37
224.432	44.08
224.651	50.03
224.87	53.51
225.089	76.56
225.308	72.16
225.527	68.09
225.746	84.27
225.965	68.71
226.184	68.86
226.404	64.31
226.623	56.91
226.842	36.82
227.061	37.76
227.28	40.04
227.499	41.69
227.718	32.53
227.936	26.69
228.155	23.62
228.374	21.83
228.593	18.04
228.812	10.26
229.031	1.42
229.25	14.82
229.469	31.29
229.688	33.07
229.907	44.59
230.125	45.45
230.344	58.49
230.563	62.68
230.782	50.22
231.001	41.51
231.22	43.44
231.438	39.27
231.657	49.58
231.876	36.59
232.095	29.04
232.313	42.31
232.532	46.52
232.751	48.15
232.969	50.4
233.188	39.12
233.407	40.39
233.625	42.56
233.844	36.29
234.063	37.66
234.281	36.44
234.5	45.45
234.719	50.78
234.937	56.89
235.156	54.68
235.374	62.79
235.593	59.1
235.811	53.34
236.03	35.24
236.249	31.94
236.467	39.63
236.686	60.66
236.904	54.7
237.123	61.8
237.341	60.87
237.559	70.74
237.778	70.07
237.996	61.66
238.215	45.45
238.433	46.59
238.652	41.11
238.87	42.12
239.088	33.53
239.307	34.95
239.525	35.54
239.743	32.36
239.962	38.46
240.18	37.55
240.398	38.53
240.617	37.23
240.835	42.08
241.053	51.3
241.271	52.06
241.49	37.92
241.708	34.11
241.926	23.75
242.144	36.77
242.363	23.99
242.581	13.13
242.799	10.21
243.017	13.86
243.235	12.64
243.453	20.6
243.672	12.78
243.89	14.78
244.108	14.97
244.326	16.02
244.544	29.6
244.762	32.43
244.98	34.38
245.198	24.49
245.416	30.69
245.634	46.59
245.852	59.43
246.07	55.73
246.288	64.48
246.506	69.66
246.724	78.87
246.942	69.57
247.16	50.67
247.378	40.32
247.596	47.58
247.814	38.79
248.032	34.86
248.25	23.73
248.468	32.73
248.685	36.62
248.903	29.5
249.121	19.55
249.339	29.46
249.557	30.95
249.775	24.52
249.992	17.18
250.21	16.66
250.428	19.95
250.646	28.34
250.863	34.65
251.081	33.16
251.299	62.08
251.517	82.82
251.734	83.48
251.952	90.12
252.17	77.15
252.387	63.5
252.605	68.78
252.823	51.59
253.04	55.64
253.258	49.97
253.475	38.52
253.693	47.06
253.911	38.98
254.128	30.26
254.346	26.96
254.563	12.77
254.781	10.02
254.998	14.2
255.216	11.71
255.433	17.95
255.651	22.86
255.868	38.46
256.086	55.84
256.303	59.28
256.521	53.41
256.738	39.97
256.956	30.88
257.173	31.7
257.39	26.46
257.608	22.26
257.825	26.76
258.043	31.03
258.26	27.05
258.477	32.8
258.695	38.65
258.912	43.63
259.129	36.64
259.346	41.18
259.564	40.03
259.781	64.14
259.998	57.58
260.216	47.08
260.433	39.62
260.65	43.22
260.867	28.15
261.084	25.63
261.302	19.24
261.519	16.05
261.736	15.99
261.953	9.32
262.17	11.91
262.387	14.7
262.604	11.22
262.822	6.81
263.039	10.1
263.256	9.84
263.473	14.04
263.69	11.8
263.907	20.77
264.124	25.75
264.341	20.14
264.558	24.7
264.775	28.71
264.992	30.41
265.209	38.11
265.426	31.85
265.643	28.48
265.86	30.92
266.077	36.92
266.294	43.31
266.51	53.52
266.727	45.27
266.944	3.67
267.161	2.88
267.378	-6.82
267.595	-18.53
267.812	-34.36
268.028	-49.28
268.245	-40.14
268.462	0.24
268.679	-2.17
268.896	-7.1
269.112	7.46
269.329	9.9
269.546	9.57
269.763	21.99
269.979	23.87
270.196	29.16
270.413	46.89
270.629	39.59
270.846	46.43
271.063	46.65
271.279	46.42
271.496	40.74
271.712	37.62
271.929	30.5
272.146	35.83
272.362	13.97
272.579	18
272.795	0.94
273.012	11.67
273.228	16.62
273.445	20.33
273.661	9.05
273.878	22.96
274.094	30.97
274.311	41.16
274.527	40.35
274.744	50.29
274.96	47.89
275.177	57.04
275.393	62.12
275.609	59.17
275.826	58.41
276.042	76.26
276.259	62.97
276.475	55.01
276.691	56.66
276.908	47.72
277.124	43.71
277.34	39.67
277.557	30.3
277.773	28.82
277.989	24.64
278.205	0.8
278.422	3.63
278.638	6.22
278.854	10.46
279.07	0.54
279.286	-2.9
279.503	5.75
279.719	37.27
279.935	22.36
280.151	25.75
280.367	19.06
280.583	24.69
280.799	30.25
281.016	31.43
281.232	14.45
281.448	28.34
281.664	25.41
281.88	33.71
282.096	26.3
282.312	17.74
282.528	11.11
282.744	12.76
282.96	9.06
283.176	11.27
283.392	13.51
283.608	19.3
283.824	18.43
284.04	22.53
284.256	24.48
284.471	30.67
284.687	29.04
284.903	25.37
285.119	15.9
285.335	27.02
285.551	39.81
285.767	44.88
285.982	50.34
286.198	54.84
286.414	54.61
286.63	63.08
286.846	57.22
287.061	46.32
287.277	53.03
287.493	45.58
287.709	45.73
287.924	48.45
288.14	44.27
288.356	48.95
288.571	49.93
288.787	40.9
289.003	40.11
289.218	40.19
289.434	32.55
289.65	35.87
289.865	36.96
290.081	35.92
290.296	36.47
290.512	43.09
290.727	51.04
290.943	51.8
291.159	52.88
291.374	58.87
291.59	61.81
291.805	60.27
292.021	45.04
292.236	28.52
292.451	31.03
292.667	40.3
292.882	33.09
293.098	32.04
293.313	33.45
293.529	39.47
293.744	44.03
293.959	43.71
294.175	38.61
294.39	53.73
294.605	47.44
294.821	44.82
295.036	46.12
295.251	34.77
295.467	23.79
295.682	22.57
295.897	14.43
296.112	18.2
296.328	30.24
296.543	25.16
296.758	26.71
296.973	36.88
297.188	30.37
297.404	34.53
297.619	37.51
297.834	30.49
298.049	36.62
298.264	42.3
298.479	30.67
298.694	31.49
298.909	31.68
299.125	30.21
299.34	23.67
299.555	21.86
299.77	18.05
299.985	19.85
300.2	30.13
300.415	27.65
300.63	20.09
300.845	30.53
301.06	23.14
301.275	29.58
301.49	35.74
301.704	25.75
301.919	22.71
302.134	24.5
302.349	12.89
302.564	27.79
302.779	21.96
302.994	19.95
303.209	21.3
303.423	31.64
303.638	33.81
303.853	40.14
304.068	38.67
304.283	33.13
304.497	32.96
304.712	30.93
304.927	26.7
305.142	31.73
305.356	34.78
305.571	32.65
305.786	42.5
306	34.82
306.215	41.57
306.43	43.35
306.644	37.12
306.859	36.97
307.074	27.55
307.288	24.6
307.503	30.55
307.717	33.13
307.932	31.27
308.147	35.85
308.361	30.01
308.576	38.75
308.79	36.32
309.005	37.28
309.219	33.18
309.434	31.59
309.648	15.03
309.863	22.77
310.077	11.92
310.292	17.6
310.506	30.43
310.72	38.86
310.935	40.29
311.149	50.94
311.364	47.37
311.578	50.09
311.792	42.1
312.007	32.23
312.221	26.66
312.435	26.21
312.649	22.68
312.864	17.88
313.078	31.86
313.292	35.29
313.507	38.37
313.721	37.92
313.935	49.71
314.149	41.99
314.363	48.53
314.578	43.12
314.792	40.83
315.006	34.46
315.22	42.43
315.434	26.28
315.648	26.85
315.862	25.34
316.077	31.64
316.291	33.94
316.505	40.88
316.719	26.25
316.933	36.28
317.147	32.91
317.361	28.79
317.575	25.96
317.789	32.72
318.003	36.35
318.217	38.37
318.431	38.91
318.645	41.55
318.859	34.63
319.073	32.59
319.287	30.33
319.5	29.79
319.714	28.71
319.928	31.12
320.142	35.05
320.356	40.8
320.57	31.77
320.784	35.67
320.997	37.89
321.211	44.9
321.425	35.22
321.639	26.97
321.853	28.25
322.066	36.29
322.28	29.06
322.494	24.69
322.707	20.52
322.921	22.43
323.135	35.45
323.349	39.72
323.562	39.39
323.776	35.58
323.989	40.25
324.203	42.07
324.417	39.57
324.63	24.21
324.844	6.04
325.057	10.55
325.271	7.31
325.485	-0.04
325.698	-1.43
325.912	9.77
326.125	20.22
326.339	34.18
326.552	35
326.766	47.41
326.979	47.03
327.193	51.68
327.406	52.36
327.619	52.32
327.833	46.92
328.046	33.48
328.26	24.66
328.473	24.95
328.686	21.61
328.9	15.16
329.113	17.61
329.326	26.44
329.54	27.28
329.753	34.2
329.966	39.85
330.179	43.83
330.393	52.68
330.606	51.2
330.819	46.15
331.032	50.8
331.246	49.42
331.459	43.75
331.672	45.77
331.885	38.57
332.098	44.86
332.311	43.57
332.525	49.07
332.738	54.11
332.951	52.81
333.164	40.26
333.377	37.9
333.59	35.43
333.803	41.76
334.016	29.89
334.229	8.23
334.442	16.62
334.655	36.58
334.868	41.31
335.081	49.25
335.294	39.38
335.507	47.77
335.72	46.68
335.933	51.42
336.146	44.08
336.359	46.2
336.572	40.72
336.785	46.99
336.997	41.76
337.21	52.97
337.423	48.24
337.636	53.58
337.849	49.95
338.062	47.4
338.274	47.39
338.487	46.66
338.7	43.02
338.913	44.77
339.125	36.21
339.338	29.24
339.551	34.29
339.763	27.32
339.976	22.8
340.189	20.48
340.402	16.39
340.614	16.8
340.827	14.34
341.039	9.73
341.252	19.38
341.465	12.66
341.677	8.35
341.89	13.67
342.102	23.72
342.315	35.02
342.527	29.77
342.74	29.04
342.952	37.18
343.165	45.08
343.377	40.32
343.59	38.33
343.802	33.36
344.015	42.25
344.227	36.44
344.44	40.39
344.652	38.52
344.864	38.08
345.077	31.46
345.289	36.2
345.502	30.92
345.714	24.24
345.926	23.64
346.139	20.31
346.351	13.32
346.563	23.76
346.775	24.91
346.988	22.93
347.2	30.68
347.412	30.45
347.624	35.87
347.837	39.11
348.049	36.47
348.261	32.11
348.473	28.68
348.685	32.38
348.897	32.4
349.11	30.6
349.322	22.53
349.534	23.05
349.746	28.89
349.958	30.35
350.17	24.49
350.382	17.1
350.594	12.8
350.806	24.64
351.018	26.85
351.23	30.66
351.442	32.44
351.654	35.24
351.866	41.74
352.078	42.99
352.29	47.37
352.502	46.96
352.714	41.12
352.926	38.57
353.138	40.07
353.35	26.14
353.561	24.45
353.773	20.81
353.985	21.87
354.197	22.34
354.409	27.29
354.621	25.61
354.832	24.72
355.044	32.55
355.256	28.99
355.468	20.21
355.679	15.69
355.891	13.46
356.103	10.29
356.314	15.3
356.526	10.46
356.738	6.69
356.949	11.34
357.161	8.75
357.373	12.09
357.584	18.89
357.796	23.63
358.008	29.27
358.219	39.31
358.431	47.24
358.642	45.96
358.854	40.77
359.065	29.57
359.277	27.9
359.488	22.53
359.7	21.55
359.911	14.59
360.123	22.94
360.334	23.54
360.546	22.61
360.757	23.56
360.969	25.32
361.18	19.02
361.391	17.68
361.603	21.16
361.814	21.02
362.025	29.6
362.237	34.67
362.448	31.51
362.659	26.02
362.871	28.52
363.082	25.26
363.293	32.55
363.504	29.99
363.716	23.4
363.927	24.84
364.138	32.13
364.349	36.67
364.56	37.16
364.772	35.37
364.983	27.42
365.194	27.94
365.405	30.56
365.616	24.84
365.827	16.33
366.038	15.08
366.25	12.14
366.461	22.91
366.672	24.68
366.883	19.05
367.094	24.32
367.305	22.77
367.516	23.58
367.727	26.61
367.938	24.79
368.149	28.59
368.36	33.05
368.571	33.86
368.781	33.32
368.992	30.15
369.203	23.09
369.414	18.91
369.625	16.92
369.836	19.32
370.047	14.2
370.258	11.68
370.468	10.63
370.679	14.68
370.89	23.78
371.101	21.23
371.312	16.82
371.522	19.79
371.733	17.84
371.944	25.66
372.155	20.36
372.365	14.17
372.576	10.05
372.787	8.91
372.997	10.68
373.208	17.17
373.419	9.7
373.629	16.74
373.84	21.46
374.05	31.2
374.261	27.44
374.472	26.14
374.682	24.62
374.893	17.74
375.103	19.34
375.314	17.1
375.524	12.85
375.735	13.68
375.945	15.6
376.156	16.67
376.366	22.54
376.577	22.48
376.787	24.41
376.997	30.62
377.208	31.52
377.418	27.62
377.629	24.53
377.839	30.79
378.049	30.54
378.26	32.22
378.47	29.32
378.68	30.32
378.89	30.19
379.101	29.7
379.311	23.06
379.521	28.86
379.732	23.55
379.942	26.14
380.152	30.86
380.362	30.86
380.572	33.5
380.783	30.03
380.993	25.01
381.203	24.3
381.413	24.62
381.623	24.1
381.833	19.54
382.043	15.33
382.253	21.2
382.463	23.08
382.674	26.28
382.884	21.97
383.094	20.08
383.304	23.06
383.514	27.4
383.724	26.16
383.934	25.33
384.144	24.31
384.353	24.38
384.563	18.24
384.773	22.78
384.983	22.5
385.193	22.63
385.403	22.65
385.613	16.14
385.823	17.22
386.033	20.69
386.242	14.4
386.452	13.45
386.662	14.65
386.872	11.86
387.082	13.89
387.291	13.44
387.501	13.25
387.711	13.55
387.921	10.8
388.13	7.25
388.34	4.86
388.55	7.78
388.759	5.28
388.969	3.81
389.179	5.68
389.388	7.15
389.598	7.33
389.807	10.58
390.017	8.55
390.227	10.12
390.436	10.02
390.646	10.44
390.855	9.79
391.065	9.54
391.274	6.63
391.484	7.69
391.693	7.57
391.903	6.75
392.112	4.99
392.322	5.9
392.531	5.83
392.74	5.57
392.95	5.63
393.159	5.32
393.369	6.01
393.578	5.84
393.787	5.38
393.997	6.5
394.206	6.98
394.415	6.67
394.625	5.76
394.834	5.28
395.043	6.19
395.252	6.84
395.462	6.05
395.671	6.22
395.88	6.4
396.089	6.88
396.298	7.16
396.508	6.66
396.717	5.95
396.926	5.59
397.135	5.08
397.344	4.41
397.553	4.31
397.762	4.11
397.971	4.15
398.181	3.92
398.39	4.14
398.599	4.46
398.808	4.73
399.017	4.84
399.226	5.07
399.435	4.71
399.644	4.58
399.853	4.52
400.062	4.43
400.27	4.21
400.479	4.14
400.688	4.17
400.897	4.53
401.106	4.75
401.315	4.54
401.524	4.74
401.733	5.04
401.941	4.96
402.15	4.58
402.359	4.55
402.568	4.48
402.777	4.53
402.985	4.34
403.194	4.11
403.403	3.97
403.612	4.05
403.82	3.92
404.029	3.81
404.238	3.8
404.446	3.8
404.655	3.63
404.864	3.63
405.072	3.72
405.281	3.57
405.489	3.76
405.698	3.71
405.906	3.64
406.115	3.8
406.324	3.79
406.532	3.78
406.741	3.9
406.949	3.71
407.158	3.77
407.366	3.82
407.574	3.74
407.783	3.76
407.991	3.66
408.2	3.61
408.408	3.66
408.617	3.68
408.825	3.64
409.033	3.61
409.242	3.5
409.45	3.56
409.658	3.58
409.867	3.56
410.075	3.46
410.283	3.43
410.491	3.47
410.7	3.54
410.908	3.53
411.116	3.46
411.324	3.43
411.533	3.37
411.741	3.4
411.949	3.4
412.157	3.46
412.365	3.44
412.573	3.48
412.781	3.5
412.99	3.68
413.198	3.7
413.406	3.68
413.614	3.68
413.822	3.7
414.03	3.57
414.238	3.68
414.446	3.52
414.654	3.44
414.862	3.33
415.07	3.31
415.278	3.15
415.486	3.31
415.694	3.12
415.902	3.07
416.109	3.18
416.317	3.16
416.525	3.19
416.733	3.36
416.941	3.26
417.149	3.43
417.357	3.56
417.564	3.5
417.772	3.55
417.98	3.42
418.188	3.25
418.395	3.25
418.603	3.11
418.811	2.97
419.019	2.89
419.226	3
419.434	2.93
419.642	2.99
419.849	3.02
420.057	3
420.265	3.1
420.472	3.12
420.68	3.07
420.887	3.22
421.095	3.21
421.302	3.22
421.51	3.35
421.717	3.36
421.925	3.32
422.132	3.25
422.34	3.18
422.547	3.15
422.755	3.14
422.962	3
423.17	2.94
423.377	2.99
423.585	2.96
423.792	2.89
423.999	2.85
424.207	2.7
424.414	2.77
424.621	2.75
424.829	2.74
425.036	2.73
425.243	2.75
425.451	2.89
425.658	3.07
425.865	2.97
426.072	3.02
426.28	3.04
426.487	3.04
426.694	3.02
426.901	2.87
427.108	2.79
427.315	2.8
427.523	2.83
427.73	2.86
427.937	2.96
428.144	3
428.351	3.12
428.558	3.1
428.765	3.1
428.972	2.97
429.179	2.92
429.386	2.94
429.593	2.96
429.8	2.93
430.007	3
430.214	3.13
430.421	3.2
430.628	3.08
430.835	2.96
431.042	2.95
431.249	2.95
431.456	2.99
431.662	2.91
431.869	3.02
432.076	3.13
432.283	3.14
432.49	3.18
432.697	3.13
432.903	3.11
433.11	3.13
433.317	3.06
433.524	2.98
433.73	3.04
433.937	2.93
434.144	3.07
434.35	3.06
434.557	3.01
434.764	2.98
434.97	3.13
435.177	3.08
435.384	3.2
435.59	3.16
435.797	3.2
436.003	3.26
436.21	3.23
436.416	3.16
436.623	3.28
436.829	3.26
437.036	3.28
437.242	3.21
437.449	3.22
437.655	3.28
437.862	3.28
438.068	3.29
438.275	3.32
438.481	3.33
438.687	3.45
438.894	3.47
439.1	3.5
439.307	3.53
439.513	3.46
439.719	3.47
439.926	3.55
440.132	3.48
440.338	3.5
440.544	3.45
440.751	3.43
440.957	3.39
441.163	3.39
441.369	3.3
441.575	3.31
441.782	3.29
441.988	3.38
442.194	3.4
442.4	3.45
442.606	3.48
442.812	3.49
443.018	3.54
443.224	3.57
443.431	3.56
443.637	3.54
443.843	3.58
444.049	3.55
444.255	3.57
444.461	3.56
444.667	3.54
444.873	3.53
445.079	3.59
445.284	3.49
445.49	3.46
445.696	3.47
445.902	3.51
446.108	3.53
446.314	3.58
446.52	3.59
446.726	3.68
446.931	3.71
447.137	3.74
447.343	3.7
447.549	3.7
447.755	3.6
447.96	3.59
448.166	3.64
448.372	3.64
448.578	3.65
448.783	3.61
448.989	3.63
449.195	3.66
449.4	3.69
449.606	3.64
449.812	3.64
450.017	3.6
450.223	3.64
450.428	3.68
450.634	3.74
450.84	3.75
451.045	3.75
451.251	3.83
451.456	3.8
451.662	3.79
451.867	3.78
452.073	3.69
452.278	3.69
452.483	3.71
452.689	3.66
452.894	3.73
453.1	3.69
453.305	3.68
453.51	3.75
453.716	3.77
453.921	3.75
454.127	3.77
454.332	3.73
454.537	3.82
454.742	3.8
454.948	3.8
455.153	3.81
455.358	3.88
455.563	3.92
455.769	3.91
455.974	3.9
456.179	3.9
456.384	3.87
456.589	3.86
456.795	3.81
457	3.81
457.205	3.79
457.41	3.76
457.615	3.81
457.82	3.9
458.025	3.88
458.23	3.89
458.435	3.84
458.64	3.97
458.845	3.98
459.05	3.99
459.255	3.94
459.46	3.95
459.665	4
459.87	4
460.075	3.96
460.28	4.02
460.485	4.02
460.69	3.98
460.895	4.03
461.099	3.98
461.304	3.97
461.509	3.93
461.714	3.87
461.919	3.85
462.123	3.89
462.328	3.86
462.533	3.87
462.738	3.91
462.942	3.97
463.147	4.03
463.352	4.08
463.556	4.1
463.761	4.09
463.966	4.13
464.17	4.16
464.375	4.15
464.58	4.1
464.784	4.12
464.989	4.08
465.193	4.13
465.398	4.12
465.602	4.09
465.807	4.08
466.011	4.13
466.216	4.1
466.42	4.18
466.625	4.23
466.829	4.22
467.034	4.27
467.238	4.34
467.443	4.38
467.647	4.4
467.851	4.4
468.056	4.36
468.26	4.42
468.464	4.41
468.669	4.39
