Data from Ofra_PS_T2_1A_1GT37_Reflection_2.txt Node
Date: Wed Jul 21 17:48:02 EDT 2021
User: Adam
Spectrometer: FLMT01687
Trigger mode: 0
Integration Time (sec): 1.100000E0
Scans to average: 2
Electric dark correction enabled: true
Nonlinearity correction enabled: false
Boxcar width: 2
XAxis mode: Wavelengths
Number of Pixels in Spectrum: 3648
>>>>>Begin Spectral Data<<<<<
179.494	607
179.716	691.53
179.937	615.47
180.158	610.19
180.38	837.34
180.601	223.07
180.823	46.48
181.044	-67.42
181.265	93.93
181.486	89.75
181.708	179.85
181.929	977.04
182.15	-674.3
182.372	119
182.593	48.52
182.814	74.05
183.035	118.13
183.257	89.01
183.478	-16.97
183.699	44.33
183.92	8.02
184.141	-7.99
184.363	-35.94
184.584	40.82
184.805	29.39
185.026	50.3
185.247	50.26
185.468	14.41
185.689	-6.26
185.91	-16.54
186.132	-11.74
186.353	-17.68
186.574	57.35
186.795	50.8
187.016	-3.44
187.237	-23.43
187.458	-50.71
187.679	-79.38
187.9	-72.79
188.121	-46.32
188.342	-26.99
188.563	0.67
188.784	39.98
189.005	43.7
189.226	91.41
189.447	38.06
189.667	-18.33
189.888	-364.41
190.109	-1365.91
190.33	-719.19
190.551	-1265.27
190.772	-345.46
190.993	-280.37
191.214	-238.16
191.434	-159.87
191.655	-60.21
191.876	-81.84
192.097	-126.18
192.318	-203.84
192.538	-284.68
192.759	-193.86
192.98	-112.76
193.201	-50.92
193.421	-11.05
193.642	3.32
193.863	0.26
194.083	-16.3
194.304	-27.32
194.525	-25.34
194.745	-69.75
194.966	-78.93
195.187	-75.02
195.407	-112.67
195.628	-203.66
195.848	-176.56
196.069	-148.12
196.29	-118.47
196.51	-101.64
196.731	-78.93
196.951	-110.93
197.172	-134.44
197.392	-144.18
197.613	-137.75
197.833	-168.55
198.054	-130.27
198.274	-81.07
198.495	-99.74
198.715	-70.44
198.936	-100.8
199.156	-81.29
199.377	-183.79
199.597	-163.43
199.817	-165.91
200.038	-84.29
200.258	-178.25
200.479	-114.85
200.699	-116.39
200.919	-34.63
201.14	-71.22
201.36	-63.72
201.58	0.48
201.801	30.83
202.021	-8.84
202.241	15.52
202.461	12.81
202.682	-88.61
202.902	-198.9
203.122	-124.45
203.342	-126.13
203.563	-52.55
203.783	-14.71
204.003	-35.26
204.223	-47.2
204.443	29.52
204.663	-13.23
204.884	7.32
205.104	61.02
205.324	101.82
205.544	84.71
205.764	93.29
205.984	83.06
206.204	59.16
206.424	45.55
206.644	-3.9
206.864	6.71
207.084	-33.64
207.304	3.71
207.525	-153.36
207.745	-49.86
207.964	-42.86
208.184	-91.87
208.404	-134.12
208.624	-143.84
208.844	-151.62
209.064	-496.72
209.284	-476.88
209.504	-250.23
209.724	-43.74
209.944	-20.06
210.164	18.61
210.384	17.75
210.604	9.8
210.823	-41.18
211.043	-78.95
211.263	-64.46
211.483	-49.94
211.703	-107.16
211.922	-93.38
212.142	-6.19
212.362	3.74
212.582	-24.22
212.801	-6.64
213.021	-31.13
213.241	-59.68
213.461	-77.32
213.68	-82.58
213.9	-48.02
214.12	-18.67
214.339	-86.67
214.559	-82.23
214.779	-27.26
214.998	-28.63
215.218	-83.04
215.438	-26.99
215.657	-38.42
215.877	-44.9
216.096	-19.75
216.316	2.25
216.535	-17.01
216.755	-7.87
216.974	-93.43
217.194	-190.97
217.413	-177.29
217.633	-176.49
217.852	-312.43
218.072	-140.79
218.291	-59.04
218.511	-7.17
218.73	-22.65
218.95	-16
219.169	-17.65
219.389	-57.8
219.608	-61.19
219.827	-59.56
220.047	-47.98
220.266	-28.29
220.485	-35.84
220.705	-29.69
220.924	-54.31
221.143	-11.37
221.363	-39.52
221.582	-16.61
221.801	-4.93
222.021	26.2
222.24	-42.14
222.459	33.26
222.678	-17.98
222.897	-91.42
223.117	-125
223.336	-85.72
223.555	-77
223.774	-29.07
223.993	-8.97
224.213	52.48
224.432	51.39
224.651	74.87
224.87	48.52
225.089	50.96
225.308	44.93
225.527	54.03
225.746	40.69
225.965	21.08
226.184	12.37
226.404	19.37
226.623	-16.18
226.842	-2.13
227.061	28.99
227.28	28.26
227.499	4.41
227.718	25.89
227.936	8.7
228.155	15.18
228.374	-11.05
228.593	9.89
228.812	-9.28
229.031	-13.28
229.25	-70.84
229.469	-62.21
229.688	-69.61
229.907	-11.79
230.125	7.48
230.344	21.62
230.563	32.47
230.782	47.72
231.001	-37
231.22	-30.46
231.438	9.66
231.657	2.34
231.876	-9.73
232.095	44.52
232.313	41.5
232.532	-2.69
232.751	-30.24
232.969	-69.29
233.188	-168.57
233.407	-86.72
233.625	-51.3
233.844	-61.16
234.063	-35.88
234.281	-20.27
234.5	-47.33
234.719	-36.81
234.937	-9.61
235.156	-3.01
235.374	2.19
235.593	1.11
235.811	-14.85
236.03	-32.25
236.249	-62.51
236.467	-30.34
236.686	-3.12
236.904	10.01
237.123	-20.24
237.341	-21.91
237.559	-28.53
237.778	-55.24
237.996	-66.45
238.215	-7.18
238.433	-4.32
238.652	0.09
238.87	-22.35
239.088	-13.88
239.307	-16.69
239.525	-12.15
239.743	-61.56
239.962	-20.58
240.18	-62.24
240.398	-118.83
240.617	-120.87
240.835	-89.76
241.053	-78.24
241.271	-14.95
241.49	2.48
241.708	-24.12
241.926	-31.42
242.144	-34.85
242.363	-82.48
242.581	-75.12
242.799	-39.65
243.017	-14.96
243.235	-32.88
243.453	-24.08
243.672	-38.61
243.89	-29.07
244.108	-33.34
244.326	-9.78
244.544	-13.63
244.762	-12.84
244.98	-4.19
245.198	-9.26
245.416	-63.32
245.634	-46.4
245.852	-45.74
246.07	-63.63
246.288	-61.71
246.506	-52.11
246.724	-37.81
246.942	-32.05
247.16	-10.73
247.378	3.43
247.596	18.43
247.814	2.74
248.032	4.12
248.25	2.12
248.468	5.23
248.685	28.29
248.903	57.27
249.121	48.24
249.339	33.71
249.557	11.84
249.775	5.23
249.992	-76.86
250.21	-68.06
250.428	-49.96
250.646	-66.28
250.863	-94.06
251.081	-38.54
251.299	-31.51
251.517	-45.99
251.734	-34.94
251.952	-30
252.17	-29.78
252.387	-14.78
252.605	-13.36
252.823	1.81
253.04	25.52
253.258	37.01
253.475	31.23
253.693	47.69
253.911	36.15
254.128	42.38
254.346	41.83
254.563	19.35
254.781	-11.38
254.998	-25.35
255.216	-41.55
255.433	-18.87
255.651	24.72
255.868	57.19
256.086	81.5
256.303	72.8
256.521	48.47
256.738	17.08
256.956	-9.74
257.173	-34.01
257.39	-60.73
257.608	-101.79
257.825	-45.39
258.043	-4.22
258.26	1.53
258.477	57.63
258.695	65.43
258.912	15.08
259.129	1.33
259.346	-36.25
259.564	-102.91
259.781	-121.03
259.998	-28.41
260.216	-2.2
260.433	48.62
260.65	54.99
260.867	69.24
261.084	19.85
261.302	-3.04
261.519	-35.64
261.736	-64.87
261.953	-83.96
262.17	-35.43
262.387	-68.48
262.604	-86.79
262.822	-71.94
263.039	-46.32
263.256	-90.22
263.473	-29.52
263.69	-10.02
263.907	23.22
264.124	45.04
264.341	41.74
264.558	17.73
264.775	37.24
264.992	32.42
265.209	11.23
265.426	34.65
265.643	38.27
265.86	29.65
266.077	33.17
266.294	16.86
266.51	-26.74
266.727	-19.96
266.944	-13.72
267.161	-33.2
267.378	-42.3
267.595	-5.13
267.812	-32.78
268.028	-67.45
268.245	-44.89
268.462	-36.08
268.679	-48.24
268.896	11.13
269.112	21.33
269.329	2.07
269.546	3.94
269.763	1.31
269.979	-29.88
270.196	-26.01
270.413	-48.57
270.629	-72.96
270.846	-83.17
271.063	-59.38
271.279	-64.59
271.496	-47.38
271.712	-2.98
271.929	28.31
272.146	-6.54
272.362	-6.16
272.579	28.56
272.795	33.08
273.012	28.9
273.228	23.42
273.445	-12.38
273.661	-37.42
273.878	-89.19
274.094	-88.5
274.311	-96.2
274.527	0.66
274.744	3.31
274.96	4.66
275.177	14.93
275.393	35.3
275.609	20.95
275.826	47.39
276.042	39.48
276.259	23.43
276.475	28.2
276.691	33.05
276.908	-4.94
277.124	15.44
277.34	26.42
277.557	17.61
277.773	-14.32
277.989	-22.54
278.205	-30.87
278.422	-19.8
278.638	-23.06
278.854	5.21
279.07	11.39
279.286	-7.08
279.503	-35.51
279.719	-50.85
279.935	-100.2
280.151	-101.2
280.367	-32.57
280.583	-61.62
280.799	-31.3
281.016	-41.91
281.232	-11.49
281.448	-31.19
281.664	20.01
281.88	-14.02
282.096	6.22
282.312	19.75
282.528	56.55
282.744	33.38
282.96	38.99
283.176	25.04
283.392	17.08
283.608	-7.94
283.824	-13.23
284.04	3.17
284.256	12.04
284.471	-4.08
284.687	-1
284.903	36.28
285.119	46.4
285.335	8.87
285.551	29.48
285.767	8.55
285.982	-21.19
286.198	-50.55
286.414	25.76
286.63	24.04
286.846	54.8
287.061	35.03
287.277	61.88
287.493	30.09
287.709	43.76
287.924	18.94
288.14	46.9
288.356	24.25
288.571	52.55
288.787	22.95
289.003	25.82
289.218	9.83
289.434	-33.75
289.65	-27.25
289.865	-22.54
290.081	1.7
290.296	1.81
290.512	22.21
290.727	-22.55
290.943	-23.95
291.159	-36.62
291.374	-35.21
291.59	-55.27
291.805	-37.74
292.021	-41.75
292.236	-41.53
292.451	-18.92
292.667	-9.01
292.882	5.01
293.098	18.66
293.313	-9.66
293.529	-39.79
293.744	-53.7
293.959	-54.11
294.175	-52.6
294.39	-16.96
294.605	0.52
294.821	24.01
295.036	28.26
295.251	32.78
295.467	1.54
295.682	-13.29
295.897	-63.55
296.112	-75.51
296.328	-77.31
296.543	-71.39
296.758	-55.68
296.973	-0.9
297.188	33.87
297.404	11.74
297.619	9.11
297.834	-4.62
298.049	-35.22
298.264	-91.94
298.479	-23.56
298.694	-21.81
298.909	2.27
299.125	8.91
299.34	22.85
299.555	-5.18
299.77	20.21
299.985	-47.01
300.2	-87.92
300.415	-98.61
300.63	-52.7
300.845	-70.13
301.06	-49.95
301.275	-6.39
301.49	1.75
301.704	-20.04
301.919	-35.63
302.134	-52.34
302.349	-68.41
302.564	-126.72
302.779	-165.62
302.994	-108.89
303.209	-47.88
303.423	-0.55
303.638	45.73
303.853	10.3
304.068	-6.41
304.283	4.37
304.497	-6.35
304.712	-11.63
304.927	1.23
305.142	-3.8
305.356	-7.37
305.571	-14.83
305.786	-37.66
306	-59.65
306.215	-56.93
306.43	-78.18
306.644	-58.81
306.859	-9.08
307.074	4.3
307.288	-14.68
307.503	-14.19
307.717	-45.68
307.932	-58.29
308.147	-53.02
308.361	-26.66
308.576	-30.64
308.79	-59.95
309.005	-35.63
309.219	-22.16
309.434	-34.94
309.648	-20.71
309.863	-0.09
310.077	-1.34
310.292	-5.87
310.506	-9.26
310.72	-10.35
310.935	5.85
311.149	-5.76
311.364	21.61
311.578	38.39
311.792	29.25
312.007	31.49
312.221	18.99
312.435	14.88
312.649	-3.61
312.864	1.4
313.078	19.52
313.292	84.81
313.507	57.43
313.721	85.24
313.935	56.64
314.149	27.3
314.363	15.43
314.578	5.08
314.792	7.84
315.006	-0.37
315.22	15.08
315.434	16.26
315.648	36.41
315.862	28.04
316.077	31.91
316.291	12.54
316.505	12.94
316.719	-23.92
316.933	-27.61
317.147	-45.58
317.361	-84.52
317.575	-94.79
317.789	-117.64
318.003	-179.46
318.217	-122.85
318.431	-40.74
318.645	-3.41
318.859	-5.97
319.073	23.46
319.287	2.12
319.5	-21.07
319.714	-72.46
319.928	-98.16
320.142	-147.81
320.356	-65.55
320.57	-39.93
320.784	-60.49
320.997	-59.11
321.211	-46.42
321.425	-118.1
321.639	-132.82
321.853	-54.23
322.066	-30.71
322.28	-27
322.494	-19.65
322.707	9.27
322.921	-12.5
323.135	-21.49
323.349	0.56
323.562	-13.84
323.776	-41.02
323.989	-21.89
324.203	-30.63
324.417	-46.4
324.63	-64.68
324.844	-58.16
325.057	-64.18
325.271	-40.26
325.485	-10.12
325.698	15.61
325.912	35.4
326.125	7.55
326.339	8.09
326.552	-20.57
326.766	-23.76
326.979	-35.92
327.193	8.27
327.406	-6.68
327.619	2.39
327.833	19.37
328.046	-1.48
328.26	-29.77
328.473	-9.67
328.686	-40.67
328.9	-43.82
329.113	-12.93
329.326	-38.64
329.54	-19.83
329.753	-27.9
329.966	-34.99
330.179	-28.45
330.393	-8.31
330.606	-12.22
330.819	3.38
331.032	8.41
331.246	6.65
331.459	36.07
331.672	21.4
331.885	22
332.098	0.67
332.311	-8.48
332.525	-67.69
332.738	-41.52
332.951	-19.31
333.164	9.03
333.377	23.25
333.59	34.43
333.803	28.03
334.016	15.57
334.229	10.03
334.442	-3.61
334.655	19.76
334.868	27.41
335.081	8.26
335.294	-7.37
335.507	-3.63
335.72	-21.94
335.933	-32.2
336.146	-21.61
336.359	-5.52
336.572	-29.81
336.785	-46.18
336.997	-45.4
337.21	-25.91
337.423	-46.47
337.636	-56.37
337.849	-39.35
338.062	-43.53
338.274	-29.37
338.487	-29.77
338.7	-22.27
338.913	-63.49
339.125	-80.36
339.338	-145.82
339.551	-95.74
339.763	-59.76
339.976	-32.34
340.189	-8.9
340.402	5.59
340.614	-20.84
340.827	-27.74
341.039	-48.92
341.252	-52.58
341.465	-42.59
341.677	-47.37
341.89	-82.99
342.102	-43.88
342.315	-67.25
342.527	-90.3
342.74	-78.13
342.952	-39.11
343.165	-45.56
343.377	-14.36
343.59	-20.49
343.802	5.96
344.015	19.51
344.227	38.88
344.44	27.24
344.652	29.9
344.864	4.81
345.077	9.21
345.289	9.17
345.502	17.33
345.714	2.3
345.926	12.95
346.139	10.43
346.351	16.66
346.563	9.99
346.775	25.45
346.988	7.25
347.2	-13.53
347.412	-68.06
347.624	-77.06
347.837	-88.71
348.049	-66.22
348.261	-8.53
348.473	3.43
348.685	2.2
348.897	-7.96
349.11	-17.92
349.322	-62.62
349.534	-35.71
349.746	-40.86
349.958	-31.71
350.17	-40.12
350.382	-9.62
350.594	-11.03
350.806	-2.74
351.018	-15.49
351.23	-7.99
351.442	-66.46
351.654	-69.57
351.866	-58.78
352.078	-46.6
352.29	-28.72
352.502	7.37
352.714	14.53
352.926	1.96
353.138	12.11
353.35	-2.02
353.561	-14.61
353.773	-45.79
353.985	-18.38
354.197	-35.74
354.409	-33.1
354.621	-39.15
354.832	-15.6
355.044	-41.97
355.256	-33.06
355.468	-21.18
355.679	-17.15
355.891	-10.8
356.103	-20.26
356.314	-7.05
356.526	-10.44
356.738	-12.75
356.949	-39.69
357.161	-16.81
357.373	-27.65
357.584	-32.66
357.796	-9.48
358.008	-1.67
358.219	23.85
358.431	21.63
358.642	33.72
358.854	26.69
359.065	14.31
359.277	-27.71
359.488	-36.97
359.7	-70.96
359.911	-96.22
360.123	-70.42
360.334	-81.84
360.546	-95.93
360.757	-85.13
360.969	-57.21
361.18	-53.88
361.391	-29.8
361.603	-36.57
361.814	-24.16
362.025	-41.12
362.237	-42.88
362.448	-21.99
362.659	8.11
362.871	1.16
363.082	8.04
363.293	12.78
363.504	-10.96
363.716	-40.71
363.927	-51.73
364.138	-73.11
364.349	-93.91
364.56	-88.39
364.772	-72.61
364.983	-33.69
365.194	-30.79
365.405	-10.62
365.616	14.48
365.827	7.35
366.038	-27.65
366.25	-20.27
366.461	-47.09
366.672	-18.71
366.883	8.3
367.094	28.3
367.305	11.54
367.516	19.15
367.727	-23.48
367.938	-44.78
368.149	-54.6
368.36	-27.98
368.571	-34.64
368.781	-44.67
368.992	-49.57
369.203	-70.18
369.414	-95.78
369.625	-86
369.836	-59.51
370.047	-91.75
370.258	-67.35
370.468	-68.72
370.679	-92.14
370.89	-84.5
371.101	-42.12
371.312	-48.34
371.522	-33.39
371.733	-21.87
371.944	-14.94
372.155	-16.35
372.365	-21.82
372.576	-33.47
372.787	-35.18
372.997	-57
373.208	-59.82
373.419	-29.25
373.629	-54.51
373.84	-56.05
374.05	-60.3
374.261	-49.28
374.472	-76.4
374.682	-16.75
374.893	-9.22
375.103	23.57
375.314	16.15
375.524	16.87
375.735	10.87
375.945	22.2
376.156	-9
376.366	-9.81
376.577	-7.6
376.787	-15.87
376.997	-13.54
377.208	-13.12
377.418	-21.21
377.629	-6.93
377.839	-9.38
378.049	-13.73
378.26	10.85
378.47	20.29
378.68	9.81
378.89	6.09
379.101	-4.43
379.311	-37.25
379.521	-62.29
379.732	-66.06
379.942	-54.96
380.152	-69.69
380.362	-36.62
380.572	-37.3
380.783	-18.21
380.993	-6.7
381.203	9.9
381.413	15.83
381.623	32.5
381.833	25.83
382.043	13.93
382.253	8.81
382.463	5.4
382.674	-12.81
382.884	-34.63
383.094	-33.53
383.304	-25.52
383.514	-25.34
383.724	-11.54
383.934	-13.9
384.144	-25.5
384.353	-36.37
384.563	-35.08
384.773	-27.1
384.983	-36.24
385.193	-13.38
385.403	-5.27
385.613	-6.19
385.823	-18.75
386.033	-4.75
386.242	-18.36
386.452	-20.8
386.662	-28.49
386.872	-14.17
387.082	-19.63
387.291	-23.6
387.501	-26.95
387.711	-17.74
387.921	-28.66
388.13	-26.71
388.34	-8.75
388.55	-13.1
388.759	-14.33
388.969	-2.1
389.179	-4.68
389.388	-9.54
389.598	-4.33
389.807	-12.27
390.017	-19.82
390.227	-16.85
390.436	-17.54
390.646	-14.29
390.855	-8.45
391.065	-10.07
391.274	-9.48
391.484	-13.69
391.693	-15.15
391.903	-14.14
392.112	-7.62
392.322	-5.17
392.531	-0.2
392.74	2.23
392.95	-2.31
393.159	-5.39
393.369	-5.81
393.578	-6.73
393.787	-9.2
393.997	-6.13
394.206	-7.55
394.415	-7.32
394.625	-7.72
394.834	-8.3
395.043	-8.28
395.252	-4.85
395.462	-2.92
395.671	-1.94
395.88	-0.87
396.089	0.76
396.298	-1.33
396.508	-1.62
396.717	-1.94
396.926	-0.54
397.135	-0.66
397.344	-0.19
397.553	-0.17
397.762	1.69
397.971	1.31
398.181	1
398.39	0.77
398.599	0.76
398.808	0.24
399.017	0.95
399.226	2.12
399.435	3.42
399.644	3.69
399.853	2.72
400.062	2.09
400.27	1.44
400.479	0.66
400.688	-0.56
400.897	-0.22
401.106	-0.17
401.315	-0.48
401.524	-0.14
401.733	1.07
401.941	1.71
402.15	2.03
402.359	1.83
402.568	2.04
402.777	2
402.985	1.56
403.194	1.12
403.403	1.23
403.612	0.75
403.82	0.48
404.029	0.88
404.238	0.83
404.446	1.29
404.655	1.32
404.864	1.15
405.072	0.76
405.281	1.15
405.489	0.81
405.698	0.77
405.906	0.82
406.115	0.85
406.324	0.57
406.532	0.55
406.741	0.94
406.949	1.07
407.158	1
407.366	1.08
407.574	1.1
407.783	0.98
407.991	0.73
408.2	0.97
408.408	0.96
408.617	0.93
408.825	0.76
409.033	0.97
409.242	0.98
409.45	0.99
409.658	0.94
409.867	1.18
410.075	1.02
410.283	0.86
410.491	0.87
410.7	0.85
410.908	0.81
411.116	1.13
411.324	1.08
411.533	1.08
411.741	1.34
411.949	1.36
412.157	1
412.365	1.05
412.573	1.06
412.781	1
412.99	0.76
413.198	1.04
413.406	0.99
413.614	0.98
413.822	0.8
414.03	0.79
414.238	0.68
414.446	0.93
414.654	0.62
414.862	0.78
415.07	0.9
415.278	0.99
415.486	0.61
415.694	0.83
415.902	0.68
416.109	0.61
416.317	0.55
416.525	0.53
416.733	0.58
416.941	0.71
417.149	0.56
417.357	0.58
417.564	0.83
417.772	1.09
417.98	1.06
418.188	1.2
418.395	1.26
418.603	1.42
418.811	0.99
419.019	0.88
419.226	1.28
419.434	1.35
419.642	1.11
419.849	1.22
420.057	1.32
420.265	1.01
420.472	0.66
420.68	0.72
420.887	0.66
421.095	0.81
421.302	0.67
421.51	1.01
421.717	0.98
421.925	1.08
422.132	0.71
422.34	0.64
422.547	0.61
422.755	0.53
422.962	0.42
423.17	0.44
423.377	0.59
423.585	0.58
423.792	0.63
423.999	0.67
424.207	0.62
424.414	0.85
424.621	0.88
424.829	0.86
425.036	0.82
425.243	1.02
425.451	0.65
425.658	0.4
425.865	0.51
426.072	0.62
426.28	0.93
426.487	0.92
426.694	1.01
426.901	0.82
427.108	0.72
427.315	0.42
427.523	0.75
427.73	0.66
427.937	0.71
428.144	0.67
428.351	0.65
428.558	0.72
428.765	0.67
428.972	0.53
429.179	0.68
429.386	0.92
429.593	0.72
429.8	0.63
430.007	0.92
430.214	0.96
430.421	0.62
430.628	0.35
430.835	0.31
431.042	0.43
431.249	0.41
431.456	0.5
431.662	0.81
431.869	1.08
432.076	1.05
432.283	1.17
432.49	1.14
432.697	1
432.903	0.72
433.11	0.65
433.317	0.61
433.524	0.87
433.73	0.86
433.937	1.26
434.144	1.13
434.35	1.14
434.557	0.89
434.764	0.84
434.97	0.56
435.177	0.7
435.384	0.59
435.59	0.71
435.797	0.97
436.003	1.17
436.21	1.12
436.416	1.16
436.623	1.18
436.829	1.24
437.036	1.33
437.242	1.38
437.449	1.33
437.655	1.3
437.862	1.1
438.068	0.94
438.275	0.98
438.481	1.22
438.687	1.18
438.894	1.23
439.1	1.27
439.307	1.49
439.513	1.28
439.719	1.26
439.926	1.37
440.132	1.38
440.338	1.09
440.544	1.29
440.751	1.23
440.957	1.26
441.163	1.09
441.369	1.23
441.575	0.89
441.782	0.96
441.988	0.75
442.194	0.8
442.4	0.79
442.606	1.17
442.812	1.21
443.018	1.39
443.224	1.45
443.431	1.46
443.637	1.18
443.843	1.09
444.049	1.05
444.255	1.04
444.461	1.12
444.667	1.11
444.873	1.31
445.079	1.34
445.284	1.42
445.49	1.07
445.696	0.92
445.902	0.73
446.108	0.65
446.314	0.52
446.52	0.69
446.726	1.06
446.931	1.08
447.137	1.17
447.343	1.18
447.549	1.08
447.755	0.88
447.96	0.93
448.166	0.85
448.372	0.86
448.578	0.93
448.783	0.95
448.989	1
449.195	1.18
449.4	1.17
449.606	1.12
449.812	1.03
450.017	1
450.223	0.81
450.428	0.76
450.634	1.05
450.84	1.26
451.045	1.22
451.251	1.19
451.456	1.47
451.662	1.45
451.867	1.42
452.073	1.52
452.278	1.69
452.483	1.63
452.689	1.4
452.894	1.41
453.1	1.34
453.305	1.19
453.51	1.1
453.716	1.14
453.921	1.14
454.127	1.02
454.332	0.98
454.537	0.96
454.742	0.96
454.948	0.9
455.153	1.09
455.358	1.24
455.563	1.4
455.769	1.54
455.974	1.54
456.179	1.37
456.384	1.4
456.589	1.29
456.795	1.08
457	1.05
457.205	1.32
457.41	1.24
457.615	1.17
457.82	1.28
458.025	1.32
458.23	1.1
458.435	1.17
458.64	1.12
458.845	1.3
459.05	1.3
459.255	1.32
459.46	1.26
