Data from Ofra_1a_PS_1GT43_Reflection_2.txt Node
Date: Tue Jul 20 10:45:59 EDT 2021
User: Adam
Spectrometer: FLMT01687
Trigger mode: 0
Integration Time (sec): 1.004000E0
Scans to average: 2
Electric dark correction enabled: true
Nonlinearity correction enabled: false
Boxcar width: 2
XAxis mode: Wavelengths
Number of Pixels in Spectrum: 3648
>>>>>Begin Spectral Data<<<<<
179.494	-447.21
179.716	-585.5
179.937	1003.68
180.158	-1238.85
180.38	153.4
180.601	-24.57
180.823	-65.56
181.044	-218.03
181.265	-372.08
181.486	302.06
181.708	119.01
181.929	-10790.91
182.15	-62.76
182.372	550.25
182.593	605.29
182.814	-344.48
183.035	-66.5
183.257	-17.83
183.478	-10.2
183.699	-31.19
183.92	-83.57
184.141	-88.7
184.363	-72.54
184.584	-92.54
184.805	-33.44
185.026	18.07
185.247	21.14
185.468	19.43
185.689	34.62
185.91	46.42
186.132	44.47
186.353	16.26
186.574	3.85
186.795	5.25
187.016	11.82
187.237	-4.82
187.458	28.54
187.679	60.72
187.9	53.2
188.121	28.88
188.342	19.63
188.563	-3.95
188.784	2.97
189.005	-21.06
189.226	-7.02
189.447	0.35
189.667	-10.47
189.888	-29.4
190.109	-30.66
190.33	-12.25
190.551	-12.46
190.772	-12.2
190.993	-34.69
191.214	-64.42
191.434	-81.13
191.655	-166.21
191.876	-112.82
192.097	-40.38
192.318	16.2
192.538	-33.16
192.759	-14.2
192.98	11.5
193.201	5.68
193.421	-5.24
193.642	8.4
193.863	5.93
194.083	-10.59
194.304	-3.27
194.525	-25.84
194.745	-9.53
194.966	-0.02
195.187	-1.17
195.407	-19.68
195.628	0.88
195.848	-4.02
196.069	-17.87
196.29	-12.83
196.51	-18.71
196.731	-27.05
196.951	-47.39
197.172	-29.08
197.392	-20.64
197.613	1.07
197.833	-0.85
198.054	1.18
198.274	3.9
198.495	-5.68
198.715	-8.84
198.936	2.78
199.156	-1.45
199.377	-11.46
199.597	12.11
199.817	3.61
200.038	-28.87
200.258	5.01
200.479	7.58
200.699	-8.24
200.919	-19.92
201.14	0.2
201.36	-2.12
201.58	-25.79
201.801	-55.81
202.021	-25.34
202.241	-38.04
202.461	-53.19
202.682	-25.4
202.902	-14.48
203.122	-23.95
203.342	-17.57
203.563	-36.04
203.783	-56.29
204.003	-66.91
204.223	-53.14
204.443	-73.21
204.663	-93.22
204.884	-83.39
205.104	-71.25
205.324	-64.54
205.544	-75.87
205.764	-20.34
205.984	-23.67
206.204	-12.49
206.424	-48.47
206.644	-23.33
206.864	-87.33
207.084	-45.82
207.304	-51.49
207.525	-26.6
207.745	-36.75
207.964	-19.2
208.184	-12.29
208.404	-10.33
208.624	-10.78
208.844	-15.99
209.064	-10.35
209.284	-28.61
209.504	-43.67
209.724	-39.76
209.944	-36.74
210.164	-29.93
210.384	-26.35
210.604	-71.88
210.823	-87.21
211.043	-59.22
211.263	-110.05
211.483	-64.89
211.703	-19.97
211.922	-10.69
212.142	-4.82
212.362	2.19
212.582	-12.16
212.801	-22.71
213.021	-28.32
213.241	-49.36
213.461	-47.91
213.68	-26.87
213.9	-29.79
214.12	-24.55
214.339	-18.81
214.559	-12.18
214.779	-19.08
214.998	0.48
215.218	-1.51
215.438	9.61
215.657	1.49
215.877	-13.8
216.096	-3.54
216.316	-3.07
216.535	-22.02
216.755	-24.61
216.974	-21.23
217.194	-58.2
217.413	-51.42
217.633	-38.05
217.852	-22.36
218.072	-12.89
218.291	-5.22
218.511	1.14
218.73	-20.31
218.95	-42.59
219.169	-48.37
219.389	-20.27
219.608	-36.4
219.827	-8.59
220.047	9.42
220.266	-0.82
220.485	-24.25
220.705	-12.03
220.924	-34.16
221.143	-23.66
221.363	-1.11
221.582	-0.02
221.801	4.26
222.021	16.77
222.24	19.53
222.459	51.02
222.678	51.64
222.897	45.79
223.117	39.9
223.336	56.32
223.555	24.15
223.774	17.1
223.993	32.45
224.213	40.31
224.432	15.54
224.651	9.26
224.87	2.75
225.089	2.18
225.308	10.09
225.527	0.71
225.746	2.56
225.965	14.7
226.184	-8.24
226.404	-28.03
226.623	-6.01
226.842	-14.4
227.061	-12.34
227.28	15.16
227.499	20.1
227.718	8.15
227.936	24.88
228.155	24.66
228.374	14.83
228.593	19.92
228.812	21.77
229.031	17.37
229.25	-3.25
229.469	-11.23
229.688	-7.16
229.907	4.07
230.125	-6.86
230.344	3.22
230.563	5.69
230.782	11.77
231.001	2.36
231.22	19.21
231.438	33.31
231.657	39.75
231.876	12.27
232.095	19.17
232.313	6.25
232.532	-8.3
232.751	-30.4
232.969	4.47
233.188	0.57
233.407	2.5
233.625	20.12
233.844	25.02
234.063	8.39
234.281	11.45
234.5	14.75
234.719	-6.52
234.937	-30.65
235.156	-36.45
235.374	-44.25
235.593	-40.22
235.811	-16.55
236.03	5.5
236.249	2
236.467	3.63
236.686	-9.93
236.904	-13.73
237.123	-16.84
237.341	-14.64
237.559	-27.99
237.778	-8.72
237.996	-42.58
238.215	-66.54
238.433	-113.2
238.652	-47.14
238.87	-39.16
239.088	-10.23
239.307	-3.45
239.525	26
239.743	13.52
239.962	-6.67
240.18	-5.66
240.398	-1.78
240.617	-30.93
240.835	-22.72
241.053	-14.42
241.271	-9.89
241.49	-10.26
241.708	-8.07
241.926	-12.89
242.144	8.17
242.363	11.76
242.581	56.95
242.799	41.15
243.017	28.34
243.235	19.69
243.453	0.97
243.672	-10.71
243.89	-13.03
244.108	0.54
244.326	3.33
244.544	21.3
244.762	1.38
244.98	11.72
245.198	-0.01
245.416	-7.54
245.634	-22.49
245.852	-18.11
246.07	-6.08
246.288	-2.64
246.506	-6.17
246.724	-2.42
246.942	-6.73
247.16	-21.04
247.378	-23.99
247.596	7.93
247.814	20.6
248.032	26.65
248.25	54.7
248.468	32.1
248.685	17.52
248.903	7.4
249.121	17.77
249.339	5.41
249.557	-0.68
249.775	-1.15
249.992	4.03
250.21	-5.22
250.428	6.68
250.646	0.98
250.863	-7.06
251.081	-4.89
251.299	6.56
251.517	-2.12
251.734	6.44
251.952	22.29
252.17	11.56
252.387	-11.74
252.605	-22.34
252.823	-17.21
253.04	-18.61
253.258	1.75
253.475	12.46
253.693	13.68
253.911	-0.01
254.128	-7.51
254.346	6.57
254.563	13.97
254.781	20.31
254.998	19.54
255.216	-3.67
255.433	-64.24
255.651	-38.86
255.868	-58.88
256.086	-33.75
256.303	-18.12
256.521	4.36
256.738	-10.56
256.956	-2
257.173	-17.25
257.39	-16.28
257.608	-2.83
257.825	-7.76
258.043	3.59
258.26	5.75
258.477	24.92
258.695	17.74
258.912	15.73
259.129	15.01
259.346	13.79
259.564	1.12
259.781	-8.64
259.998	3.5
260.216	19.49
260.433	12.17
260.65	8.11
260.867	2.41
261.084	13.83
261.302	-6.98
261.519	-2.26
261.736	-0.84
261.953	-2.62
262.17	-1.35
262.387	-3.98
262.604	-6.59
262.822	-3.05
263.039	7.11
263.256	3.12
263.473	-0.62
263.69	16.17
263.907	7.79
264.124	-3.45
264.341	1.28
264.558	9.24
264.775	-6.11
264.992	4.91
265.209	-3.46
265.426	-22.06
265.643	-21.36
265.86	-49.31
266.077	-64.89
266.294	-27.46
266.51	-7.62
266.727	-7.8
266.944	8.77
267.161	19.55
267.378	19.99
267.595	4.76
267.812	-8.96
268.028	-34.39
268.245	-35.64
268.462	-32.23
268.679	-10.91
268.896	17.27
269.112	13.09
269.329	-1.03
269.546	26.58
269.763	12
269.979	-12.97
270.196	6.73
270.413	0.92
270.629	-31
270.846	-28.53
271.063	-13.07
271.279	-5.98
271.496	0.8
271.712	20.2
271.929	9.59
272.146	-7.37
272.362	-11.1
272.579	-8.75
272.795	-18.2
273.012	-4.63
273.228	13.17
273.445	13.89
273.661	7.78
273.878	-11.88
274.094	-29.87
274.311	-20.29
274.527	-53.87
274.744	-41.26
274.96	-10.48
275.177	4.98
275.393	8.12
275.609	22.8
275.826	23.02
276.042	11.02
276.259	5.11
276.475	-5.03
276.691	-9.77
276.908	-2.22
277.124	7.38
277.34	23.3
277.557	12.79
277.773	12.97
277.989	1.08
278.205	12.48
278.422	-0.68
278.638	15.09
278.854	-0.33
279.07	18.58
279.286	-0.33
279.503	2.45
279.719	-9.71
279.935	-7.55
280.151	-30.11
280.367	-17.41
280.583	-23.78
280.799	-19.4
281.016	-46.6
281.232	-19.69
281.448	-22.71
281.664	-8.14
281.88	1.33
282.096	17
282.312	5.7
282.528	10.26
282.744	1.27
282.96	-28.39
283.176	-25.47
283.392	-60.08
283.608	-63.98
283.824	-61.96
284.04	-51.54
284.256	-41.54
284.471	-10.15
284.687	0.96
284.903	6.77
285.119	34.33
285.335	41.88
285.551	45.17
285.767	43.74
285.982	35.87
286.198	-0.31
286.414	-16.74
286.63	-35.82
286.846	-35.61
287.061	-21.06
287.277	-22.88
287.493	-33.1
287.709	-16.85
287.924	-6.66
288.14	10.58
288.356	13.43
288.571	21.62
288.787	2.47
289.003	12.59
289.218	-0.83
289.434	-10.29
289.65	14.86
289.865	29.16
290.081	24.95
290.296	17.25
290.512	19.78
290.727	7.43
290.943	4.5
291.159	-0.77
291.374	-23.23
291.59	-10.52
291.805	-16.46
292.021	-15.96
292.236	-27.23
292.451	6.64
292.667	-3.71
292.882	-0.01
293.098	-3.03
293.313	-0.17
293.529	-2.22
293.744	3.72
293.959	6.34
294.175	-1.74
294.39	-11.98
294.605	-2.64
294.821	-9.53
295.036	-17.05
295.251	-10.02
295.467	-17.24
295.682	-19.46
295.897	-14.3
296.112	-14.57
296.328	-4.51
296.543	-1.65
296.758	6.06
296.973	-2.84
297.188	-1.63
297.404	-31.36
297.619	-16.42
297.834	-74.59
298.049	-52.92
298.264	-41.02
298.479	-56.46
298.694	-18.84
298.909	-2.27
299.125	-3.53
299.34	-0.61
299.555	17.27
299.77	27.44
299.985	20.51
300.2	15.17
300.415	9.61
300.63	18.48
300.845	2.09
301.06	6.58
301.275	10.98
301.49	12.9
301.704	-2.22
301.919	-16.18
302.134	-18.15
302.349	-12.91
302.564	-9.34
302.779	-0.4
302.994	25.1
303.209	12.01
303.423	11.19
303.638	12.2
303.853	-16.27
304.068	-43.19
304.283	-34.04
304.497	-68.34
304.712	-45.19
304.927	-26.68
305.142	-16.97
305.356	0.68
305.571	7.02
305.786	-1.83
306	-0.56
306.215	-15.83
306.43	-34.62
306.644	-30.21
306.859	-34.86
307.074	-15.87
307.288	1.45
307.503	24.01
307.717	13.4
307.932	12.1
308.147	-5.92
308.361	-5.62
308.576	-35.78
308.79	-29.51
309.005	-47.4
309.219	-12.76
309.434	-7.24
309.648	-4.7
309.863	-3.66
310.077	-7.13
310.292	1.51
310.506	-32.42
310.72	-24.08
310.935	5.92
311.149	16.62
311.364	13.3
311.578	30.24
311.792	33.62
312.007	6.74
312.221	-22.32
312.435	-31.42
312.649	-30.1
312.864	-32.11
313.078	-29.36
313.292	-5.88
313.507	-1.55
313.721	10.18
313.935	10.37
314.149	18.79
314.363	23.29
314.578	31.63
314.792	9.14
315.006	12.51
315.22	-0.02
315.434	-12.75
315.648	-23.93
315.862	-7.98
316.077	-20.86
316.291	-23.07
316.505	-50.12
316.719	-25.54
316.933	-27.2
317.147	-10.84
317.361	3.92
317.575	16.84
317.789	9.99
318.003	2.79
318.217	-0.52
318.431	-21.77
318.645	-20.11
318.859	-12.96
319.073	-0.55
319.287	0.35
319.5	6.22
319.714	2.46
319.928	-18.18
320.142	-25.97
320.356	-18.88
320.57	-37.49
320.784	-33.68
320.997	-36.72
321.211	-24.79
321.425	-41.17
321.639	3.59
321.853	5.84
322.066	-3.86
322.28	2.64
322.494	-2.44
322.707	-23
322.921	-27.9
323.135	-10.6
323.349	-17.06
323.562	-9.01
323.776	-4.74
323.989	6.3
324.203	-3.93
324.417	-3.48
324.63	-4.26
324.844	-26.05
325.057	-44.84
325.271	-28.07
325.485	-31.08
325.698	-15.34
325.912	16.39
326.125	7.88
326.339	3.61
326.552	3.33
326.766	-15.7
326.979	-16.77
327.193	-2.93
327.406	-13.81
327.619	-12.04
327.833	-16.54
328.046	-28.79
328.26	-27.01
328.473	-16.2
328.686	-10.56
328.9	2.8
329.113	3.76
329.326	2.57
329.54	4.2
329.753	10.9
329.966	11.81
330.179	14.73
330.393	10.23
330.606	5.07
330.819	4.46
331.032	5.03
331.246	20.27
331.459	41.93
331.672	50.48
331.885	27.64
332.098	37.36
332.311	12.06
332.525	-0.8
332.738	0.57
332.951	6.25
333.164	2.86
333.377	5.11
333.59	-0.32
333.803	-0.69
334.016	6.2
334.229	3.72
334.442	-3.1
334.655	-8.29
334.868	-19.39
335.081	-22.71
335.294	-36.22
335.507	-24.97
335.72	-3.05
335.933	3.7
336.146	12.64
336.359	22.61
336.572	16.77
336.785	10.46
336.997	9.75
337.21	-1.98
337.423	-27.22
337.636	-19.35
337.849	-40.43
338.062	-18.14
338.274	-12.92
338.487	-20.1
338.7	-42.31
338.913	-14.25
339.125	-31.56
339.338	-30.27
339.551	-16.9
339.763	6.3
339.976	-5.42
340.189	-9.83
340.402	-14.17
340.614	-18.54
340.827	-14.59
341.039	-10.68
341.252	-7.1
341.465	-13.3
341.677	-3.48
341.89	-23
342.102	-19.39
342.315	-9.5
342.527	-5.39
342.74	-29.78
342.952	-15.52
343.165	-13.88
343.377	-11.09
343.59	10.44
343.802	35.29
344.015	28.56
344.227	24.52
344.44	18.35
344.652	0.13
344.864	-0.95
345.077	2.88
345.289	8.66
345.502	18.39
345.714	19.83
345.926	13.58
346.139	-2.68
346.351	-18.47
346.563	-11.58
346.775	-13.1
346.988	-2.25
347.2	-9.77
347.412	5.92
347.624	0.68
347.837	15.25
348.049	5.33
348.261	1.48
348.473	-6.01
348.685	-12.31
348.897	-46.75
349.11	-32.97
349.322	-14
349.534	-10.71
349.746	-5.28
349.958	-16.37
350.17	-40.6
350.382	-22.66
350.594	-1.03
350.806	-2.11
351.018	13.85
351.23	33.2
351.442	24.93
351.654	15.31
351.866	12.69
352.078	19.14
352.29	6.48
352.502	8.7
352.714	-1.34
352.926	-6.53
353.138	-6.35
353.35	-19.12
353.561	-26.24
353.773	-18.93
353.985	-6.45
354.197	-1.81
354.409	12.53
354.621	8.67
354.832	11.37
355.044	-8.02
355.256	-18.18
355.468	-26.56
355.679	4.86
355.891	7.31
356.103	9.23
356.314	7.01
356.526	-5.26
356.738	-9.57
356.949	-22.01
357.161	-3.81
357.373	6.37
357.584	10.29
357.796	3.29
358.008	15.18
358.219	12.19
358.431	8.41
358.642	16.25
358.854	21.93
359.065	4.32
359.277	-0.45
359.488	-9.35
359.7	-21.18
359.911	-37.19
360.123	-16.14
360.334	-22.98
360.546	-23.13
360.757	-16.08
360.969	-17.54
361.18	-20.01
361.391	-12.46
361.603	2.58
361.814	3.3
362.025	10.53
362.237	7.88
362.448	19.77
362.659	13.29
362.871	6.29
363.082	8.45
363.293	0.89
363.504	-29.29
363.716	-29.09
363.927	-0.16
364.138	-16.9
364.349	-25.8
364.56	-23.85
364.772	-15.52
364.983	-15.65
365.194	-4.68
365.405	3.3
365.616	0.42
365.827	-5.63
366.038	1.85
366.25	9.93
366.461	19.89
366.672	29.55
366.883	22.11
367.094	13.34
367.305	-4.21
367.516	-17.56
367.727	-30.64
367.938	-17.27
368.149	-24.14
368.36	-23.71
368.571	-34.45
368.781	-32.86
368.992	-39.5
369.203	-33.44
369.414	-28.07
369.625	-16.2
369.836	3.95
370.047	10.13
370.258	17.27
370.468	4.27
370.679	-0.15
370.89	-17.04
371.101	-7.98
371.312	-10.26
371.522	2.26
371.733	6.39
371.944	-9.42
372.155	-11.56
372.365	-14.14
372.576	-6.14
372.787	-8.27
372.997	5.15
373.208	5.29
373.419	6.93
373.629	-5.65
373.84	-14.3
374.05	-17.6
374.261	-36.94
374.472	-32.12
374.682	-19.25
374.893	-18.15
375.103	-0.92
375.314	9.77
375.524	-5.48
375.735	4.46
375.945	11.88
376.156	-1.62
376.366	2.3
376.577	17.58
376.787	10.64
376.997	14.02
377.208	20.09
377.418	14.55
377.629	17.6
377.839	20.25
378.049	23.36
378.26	16.74
378.47	16.16
378.68	8.11
378.89	-1.34
379.101	8.92
379.311	11.93
379.521	10.47
379.732	7.67
379.942	7
380.152	-16.27
380.362	-10.88
380.572	2.12
380.783	6.8
380.993	13.66
381.203	16.38
381.413	22.82
381.623	18.53
381.833	15
382.043	4.39
382.253	2.93
382.463	8.93
382.674	10.76
382.884	21.39
383.094	27.45
383.304	27.53
383.514	19.46
383.724	13.65
383.934	0.9
384.144	-2.54
384.353	-0.01
384.563	3.91
384.773	8.25
384.983	8.35
385.193	10.67
385.403	12.01
385.613	0.49
385.823	-0.89
386.033	-0.15
386.242	-4.26
386.452	-10.72
386.662	-5.06
386.872	-0.49
387.082	-0.93
387.291	-2.39
387.501	0.29
387.711	2.99
387.921	-1.69
388.13	-0.33
388.34	7.41
388.55	6.52
388.759	-0.11
388.969	0.21
389.179	3.61
389.388	0.76
389.598	-2.81
389.807	-4.4
390.017	-3.08
390.227	-8.08
390.436	-8.22
390.646	-4.55
390.855	-2.96
391.065	-2.54
391.274	-0.56
391.484	-1.98
391.693	-3.32
391.903	-4
392.112	-4.41
392.322	-3.61
392.531	-2.63
392.74	-2.68
392.95	1.25
393.159	1.68
393.369	0.84
393.578	1.97
393.787	3.05
393.997	3.11
394.206	1.38
394.415	2.76
394.625	2.55
394.834	1.23
395.043	1.29
395.252	4.21
395.462	3.8
395.671	3.33
395.88	5.29
396.089	5.5
396.298	3.71
396.508	4.39
396.717	4.73
396.926	4.2
397.135	4.05
397.344	4.11
397.553	3.45
397.762	4.78
397.971	5.22
398.181	4.85
398.39	5.14
398.599	5.46
398.808	4.53
399.017	5.07
399.226	5.28
399.435	5.1
399.644	5.47
399.853	5.7
400.062	5
400.27	4.58
400.479	5
400.688	4.7
400.897	4.2
401.106	4.41
401.315	4.73
401.524	4.53
401.733	4.39
401.941	4.79
402.15	4.68
402.359	4.81
402.568	5.01
402.777	5.25
402.985	4.91
403.194	4.8
403.403	4.84
403.612	4.77
403.82	4.53
404.029	4.75
404.238	4.82
404.446	4.81
404.655	4.76
404.864	4.8
405.072	4.76
405.281	4.61
405.489	4.5
405.698	4.5
405.906	4.78
406.115	4.51
406.324	4.67
406.532	4.62
406.741	4.53
406.949	4.36
407.158	4.67
407.366	4.52
407.574	4.66
407.783	4.77
407.991	4.69
408.2	4.65
408.408	4.75
408.617	4.69
408.825	4.63
409.033	4.53
409.242	4.55
409.45	4.51
409.658	4.38
409.867	4.34
410.075	4.48
410.283	4.38
410.491	4.25
410.7	4.27
410.908	4.41
411.116	4.5
411.324	4.46
411.533	4.48
411.741	4.47
411.949	4.4
412.157	4.23
412.365	4.37
412.573	4.37
412.781	4.3
412.99	4.32
413.198	4.34
413.406	4.23
413.614	4.3
413.822	4.49
414.03	4.45
414.238	4.43
414.446	4.55
414.654	4.44
414.862	4.27
415.07	4.1
415.278	4.22
415.486	3.86
415.694	3.82
415.902	3.85
416.109	3.9
416.317	3.71
416.525	3.85
416.733	3.89
416.941	3.84
417.149	3.77
417.357	3.86
417.564	3.76
417.772	3.89
417.98	3.8
418.188	3.7
418.395	3.38
418.603	3.48
418.811	3.29
419.019	3.4
419.226	3.66
419.434	3.85
419.642	3.69
419.849	3.68
420.057	3.52
420.265	3.41
420.472	3.41
420.68	3.57
420.887	3.62
421.095	3.76
421.302	3.73
421.51	3.56
421.717	3.68
421.925	3.68
422.132	3.77
422.34	3.65
422.547	3.74
422.755	3.58
422.962	3.73
423.17	3.55
423.377	3.59
423.585	3.85
423.792	3.89
423.999	3.79
424.207	3.83
424.414	3.81
424.621	3.69
424.829	3.68
425.036	3.66
425.243	3.68
425.451	3.74
425.658	3.51
425.865	3.54
426.072	3.49
426.28	3.63
426.487	3.65
426.694	3.8
426.901	3.79
427.108	3.72
427.315	3.54
427.523	3.49
427.73	3.51
427.937	3.38
428.144	3.48
428.351	3.52
428.558	3.52
428.765	3.52
428.972	3.56
429.179	3.47
429.386	3.46
429.593	3.53
429.8	3.54
430.007	3.5
430.214	3.43
430.421	3.48
430.628	3.53
430.835	3.48
431.042	3.47
431.249	3.75
431.456	3.78
431.662	3.91
431.869	4.08
432.076	4.23
432.283	4.21
432.49	4.25
432.697	4.1
432.903	4.04
433.11	4
433.317	3.96
433.524	3.96
433.73	3.89
433.937	4.02
434.144	3.98
434.35	4.02
434.557	4.06
434.764	4.14
434.97	3.99
435.177	4.22
435.384	4.25
435.59	4.24
435.797	4.35
436.003	4.44
436.21	4.33
436.416	4.34
436.623	4.33
436.829	4.29
437.036	4.08
437.242	4.19
437.449	4.04
437.655	4.19
437.862	4.25
438.068	4.44
438.275	4.39
438.481	4.58
438.687	4.37
438.894	4.49
439.1	4.44
439.307	4.49
439.513	4.47
439.719	4.64
439.926	4.51
440.132	4.67
440.338	4.7
440.544	4.67
440.751	4.56
440.957	4.57
441.163	4.47
441.369	4.47
441.575	4.49
441.782	4.62
441.988	4.66
442.194	4.77
442.4	4.79
442.606	4.9
442.812	4.84
443.018	4.91
443.224	4.95
443.431	4.91
443.637	4.85
443.843	4.94
444.049	4.96
444.255	4.9
444.461	4.87
444.667	4.91
444.873	4.89
445.079	4.78
445.284	4.82
445.49	4.85
445.696	4.8
445.902	4.76
446.108	4.91
446.314	4.91
446.52	4.93
446.726	5.03
446.931	5.04
447.137	5
447.343	5.13
447.549	5.19
447.755	5.14
447.96	5.25
448.166	5.2
448.372	5.07
448.578	4.97
448.783	5
448.989	5.09
449.195	5.03
449.4	5.11
449.606	5.18
449.812	5.17
450.017	5.08
450.223	5.08
450.428	5.03
450.634	5.01
450.84	5.04
451.045	5.05
451.251	5.18
451.456	5.18
451.662	5.31
451.867	5.38
452.073	5.34
452.278	5.32
452.483	5.4
452.689	5.32
452.894	5.27
453.1	5.31
453.305	5.34
453.51	5.33
453.716	5.31
453.921	5.35
454.127	5.34
454.332	5.35
454.537	5.31
454.742	5.38
454.948	5.3
455.153	5.34
455.358	5.32
455.563	5.33
455.769	5.25
455.974	5.28
456.179	5.23
456.384	5.16
456.589	5.16
456.795	5.28
457	5.31
457.205	5.28
457.41	5.31
457.615	5.32
457.82	5.35
458.025	5.41
458.23	5.48
458.435	5.53
458.64	5.68
458.845	5.67
459.05	5.6
459.255	5.54
459.46	5.57
459.665	5.43
459.87	5.4
460.075	5.48
460.28	5.57
460.485	5.64
460.69	5.68
460.895	5.64
461.099	5.52
461.304	5.44
461.509	5.41
461.714	5.5
461.919	5.56
462.123	5.6
462.328	5.55
462.533	5.47
462.738	5.41
462.942	5.32
463.147	5.32
463.352	5.45
463.556	5.57
463.761	5.55
463.966	5.58
464.17	5.69
464.375	5.7
464.58	5.58
464.784	5.64
464.989	5.66
465.193	5.61
465.398	5.6
