Data from Ofra_PS_T2_1A_8HS24_Reflection_1.txt Node
Date: Wed Jul 21 18:16:51 EDT 2021
User: Adam
Spectrometer: FLMT01687
Trigger mode: 0
Integration Time (sec): 1.100000E0
Scans to average: 2
Electric dark correction enabled: true
Nonlinearity correction enabled: false
Boxcar width: 2
XAxis mode: Wavelengths
Number of Pixels in Spectrum: 3648
>>>>>Begin Spectral Data<<<<<
179.494	512.8
179.716	567.29
179.937	557.86
180.158	560.5
180.38	941.87
180.601	182.87
180.823	66.24
181.044	-62.09
181.265	106.62
181.486	42.09
181.708	165.82
181.929	1085.71
182.15	-314.08
182.372	110.14
182.593	62.37
182.814	30.29
183.035	53.04
183.257	43.83
183.478	-27.66
183.699	14.36
183.92	1.16
184.141	7.24
184.363	-46.34
184.584	-3.2
184.805	2.36
185.026	22.67
185.247	36.09
185.468	20.79
185.689	26.15
185.91	10.6
186.132	-9.74
186.353	-32.62
186.574	10.1
186.795	-6.81
187.016	-34.24
187.237	-35.7
187.458	-74.22
187.679	-81.07
187.9	-42.32
188.121	-41.24
188.342	-20.81
188.563	15.16
188.784	37.52
189.005	48.64
189.226	88.12
189.447	72.68
189.667	25.73
189.888	-197.04
190.109	-877.92
190.33	-465.16
190.551	-975.22
190.772	-241.4
190.993	-201.43
191.214	-176.42
191.434	-141.01
191.655	-54.6
191.876	-62.52
192.097	-119.76
192.318	-184.02
192.538	-243.11
192.759	-148.48
192.98	-42.87
193.201	-5.77
193.421	15.57
193.642	24.53
193.863	24.59
194.083	4.23
194.304	4.21
194.525	3.19
194.745	-5.96
194.966	-22.95
195.187	-37.11
195.407	-64.33
195.628	-110.93
195.848	-120.42
196.069	-97.73
196.29	-82.57
196.51	-76.86
196.731	-73.15
196.951	-83.8
197.172	-135.09
197.392	-157.25
197.613	-147.86
197.833	-163.33
198.054	-122.77
198.274	-48.68
198.495	-56.71
198.715	-46.79
198.936	-63.79
199.156	-71.35
199.377	-195.83
199.597	-168.78
199.817	-156.5
200.038	-96.48
200.258	-125.7
200.479	-16.62
200.699	-1.24
200.919	18.81
201.14	17.21
201.36	27.85
201.58	27.24
201.801	49.26
202.021	23.29
202.241	15.17
202.461	-9.13
202.682	-108.05
202.902	-197.21
203.122	-127.82
203.342	-99.3
203.563	-42.29
203.783	-17.12
204.003	-47.28
204.223	-42.64
204.443	-4.02
204.663	-50.65
204.884	-29.21
205.104	10.62
205.324	19.79
205.544	20.49
205.764	46.52
205.984	54.4
206.204	39.68
206.424	30.54
206.644	-10.79
206.864	-23.06
207.084	-43.77
207.304	16.36
207.525	-79.06
207.745	-15.38
207.964	55.87
208.184	1.46
208.404	-63.42
208.624	-57.17
208.844	-55.9
209.064	-373.5
209.284	-468.91
209.504	-289.49
209.724	-126.54
209.944	-91.28
210.164	-38.21
210.384	-4.48
210.604	2.3
210.823	-16.81
211.043	-17.31
211.263	-20.43
211.483	-35.75
211.703	-58.08
211.922	-28.69
212.142	22.73
212.362	33.67
212.582	36.4
212.801	28.07
213.021	4.63
213.241	-25.44
213.461	-41.16
213.68	-57.98
213.9	-46.03
214.12	-39.45
214.339	-85.73
214.559	-66.08
214.779	-19.64
214.998	-11.29
215.218	-50.89
215.438	-31.69
215.657	-41.68
215.877	-68.87
216.096	-43.28
216.316	-16.07
216.535	-27.5
216.755	-35.33
216.974	-128.16
217.194	-161.48
217.413	-173.71
217.633	-128.77
217.852	-202.3
218.072	-63.26
218.291	-45.79
218.511	10.7
218.73	-13.24
218.95	-18.98
219.169	-31.01
219.389	-51.22
219.608	-51.78
219.827	-48.1
220.047	-22.8
220.266	-14.25
220.485	-9.74
220.705	-11.9
220.924	-26.97
221.143	-3.81
221.363	-26.11
221.582	-32.39
221.801	-39.55
222.021	-19.92
222.24	-98.6
222.459	-44.06
222.678	-22.75
222.897	-82.75
223.117	-107.5
223.336	-92.25
223.555	-79.43
223.774	-47.51
223.993	-30.73
224.213	18.87
224.432	21.74
224.651	41.33
224.87	25.11
225.089	38.45
225.308	20.09
225.527	19.72
225.746	17.48
225.965	11.48
226.184	-17.01
226.404	-3.1
226.623	-7.14
226.842	-17.97
227.061	-5.42
227.28	15.49
227.499	14.68
227.718	22.68
227.936	12.71
228.155	20.87
228.374	-7.06
228.593	-1.75
228.812	-5.74
229.031	-4.25
229.25	-39.38
229.469	-26.53
229.688	-19.04
229.907	13.86
230.125	37.28
230.344	27.82
230.563	33.68
230.782	39.34
231.001	-55.75
231.22	-41.6
231.438	16.16
231.657	10.85
231.876	-0.76
232.095	46.76
232.313	49.12
232.532	-2.62
232.751	-21.8
232.969	-22.14
233.188	-115.86
233.407	-66.74
233.625	-38.34
233.844	-60.04
234.063	-46.07
234.281	-9.96
234.5	-18.22
234.719	-2.33
234.937	-2.3
235.156	-2.11
235.374	-11.69
235.593	-29.19
235.811	-36.25
236.03	-27.93
236.249	-68.25
236.467	-51.74
236.686	-6.78
236.904	12.14
237.123	0.44
237.341	3.91
237.559	19.19
237.778	4.77
237.996	-34.11
238.215	-4.65
238.433	8.39
238.652	-4.46
238.87	-24.45
239.088	-1.69
239.307	-4.16
239.525	-21.34
239.743	-54.56
239.962	-27.24
240.18	-61.2
240.398	-92.36
240.617	-77.73
240.835	-68.39
241.053	-64.16
241.271	1.41
241.49	32.12
241.708	20.1
241.926	43
242.144	43.92
242.363	-9.85
242.581	-47.41
242.799	-14.97
243.017	0.94
243.235	-24.14
243.453	-18.14
243.672	-16.24
243.89	-21.1
244.108	-31.3
244.326	-4.9
244.544	-5.29
244.762	-2.61
244.98	21.31
245.198	26.92
245.416	-2.1
245.634	-1.74
245.852	-12.8
246.07	-45.08
246.288	-47.55
246.506	-75.18
246.724	-56.85
246.942	-38.53
247.16	-0.52
247.378	19.05
247.596	53.72
247.814	61.2
248.032	28.58
248.25	17.28
248.468	18.85
248.685	30.22
248.903	30.91
249.121	45.04
249.339	17.63
249.557	-0.27
249.775	-4.01
249.992	-47.62
250.21	-46.28
250.428	-27.45
250.646	-58.01
250.863	-96.76
251.081	-70.34
251.299	-59.15
251.517	-39.46
251.734	-27.79
251.952	-18.63
252.17	-10.23
252.387	-13.33
252.605	-25.91
252.823	-13.88
253.04	12.53
253.258	12.7
253.475	8.38
253.693	39.64
253.911	51.13
254.128	49.23
254.346	56.19
254.563	44.55
254.781	14.32
254.998	9.22
255.216	-15.02
255.433	8.22
255.651	31.78
255.868	63.58
256.086	50.88
256.303	52.38
256.521	23.23
256.738	5.67
256.956	-34.42
257.173	-61.14
257.39	-80.95
257.608	-81.03
257.825	0.61
258.043	47.2
258.26	49.45
258.477	88.9
258.695	83.42
258.912	-2.61
259.129	-0.96
259.346	-24.69
259.564	-59.15
259.781	-75.38
259.998	-7.36
260.216	16.22
260.433	41.28
260.65	37.82
260.867	41.19
261.084	6.94
261.302	-19.55
261.519	-45.1
261.736	-55.02
261.953	-72.76
262.17	-16.53
262.387	-37.46
262.604	-39.4
262.822	-41.87
263.039	-22.27
263.256	-53.93
263.473	-24.7
263.69	-24.42
263.907	11.53
264.124	22.51
264.341	18.1
264.558	10.46
264.775	35.32
264.992	38.58
265.209	25.13
265.426	35.87
265.643	42.62
265.86	44.39
266.077	38.21
266.294	39.66
266.51	4.34
266.727	-9.51
266.944	-9.85
267.161	-1.72
267.378	2.7
267.595	26.8
267.812	0.98
268.028	-17.96
268.245	-22.84
268.462	-22.05
268.679	-21.67
268.896	33.47
269.112	37.81
269.329	38.45
269.546	24.73
269.763	15.38
269.979	0.88
270.196	-1.59
270.413	-49.7
270.629	-51.37
270.846	-58.1
271.063	-66.1
271.279	-71.07
271.496	-39.42
271.712	-4.15
271.929	20.52
272.146	5.24
272.362	4.82
272.579	18.39
272.795	38.1
273.012	25.27
273.228	50.42
273.445	13.11
273.661	5.43
273.878	-52.35
274.094	-33.12
274.311	-66.39
274.527	15.55
274.744	7.36
274.96	3.12
275.177	0.94
275.393	22.17
275.609	-0.62
275.826	23.93
276.042	31.3
276.259	20.34
276.475	23.44
276.691	28.62
276.908	15.11
277.124	21.12
277.34	25.81
277.557	23.95
277.773	18.91
277.989	9.73
278.205	-1.7
278.422	20.11
278.638	16.67
278.854	25.3
279.07	29
279.286	30.71
279.503	-4.63
279.719	-22.82
279.935	-41.35
280.151	-43.39
280.367	-12.63
280.583	-23.91
280.799	-5.07
281.016	-27.93
281.232	-7.49
281.448	-22.13
281.664	2.01
281.88	-37.34
282.096	5.25
282.312	28.84
282.528	56.61
282.744	47.89
282.96	43
283.176	12.68
283.392	3.41
283.608	-12.7
283.824	-11.81
284.04	3.05
284.256	10.35
284.471	-0.72
284.687	6.04
284.903	19.08
285.119	36.05
285.335	24.03
285.551	22.65
285.767	-5.64
285.982	-19.51
286.198	-61.44
286.414	-12.8
286.63	8.77
286.846	28.27
287.061	13.03
287.277	31.94
287.493	7.6
287.709	13.84
287.924	-0.89
288.14	25.66
288.356	36.12
288.571	49.54
288.787	22.54
289.003	23.01
289.218	14.16
289.434	-32.32
289.65	-31.54
289.865	-12.7
290.081	-8.32
290.296	-4.58
290.512	18.81
290.727	-15.28
290.943	-41.53
291.159	-38.76
291.374	-44.07
291.59	-66.04
291.805	-39.98
292.021	-28.46
292.236	-24.3
292.451	-5.96
292.667	1.37
292.882	1.06
293.098	-13.2
293.313	-43.73
293.529	-69.6
293.744	-57.87
293.959	-49.72
294.175	-35.11
294.39	2.39
294.605	13.84
294.821	26.83
295.036	25.74
295.251	34.57
295.467	-6.71
295.682	-13.43
295.897	-56.07
296.112	-73.48
296.328	-51.87
296.543	-31.77
296.758	-45.78
296.973	3.84
297.188	40.58
297.404	-1.89
297.619	-0.65
297.834	-6.02
298.049	-39.55
298.264	-85.12
298.479	-17.95
298.694	-20.25
298.909	5.69
299.125	14.18
299.34	30.7
299.555	-0.58
299.77	25.87
299.985	-30.38
300.2	-75.02
300.415	-90.91
300.63	-51.51
300.845	-66.16
301.06	-50.68
301.275	-15.69
301.49	6.84
301.704	-7.84
301.919	-30.61
302.134	-32.35
302.349	-46.19
302.564	-114.59
302.779	-147.19
302.994	-105.49
303.209	-75.12
303.423	-14.61
303.638	49.43
303.853	18.83
304.068	19.21
304.283	21.11
304.497	3.59
304.712	-21.42
304.927	5.92
305.142	-14.91
305.356	0.1
305.571	-1.19
305.786	-3.38
306	-27.21
306.215	-10.06
306.43	-62.19
306.644	-54.59
306.859	-23.13
307.074	12.03
307.288	-4.26
307.503	6.3
307.717	-8.61
307.932	-19.93
308.147	-35.81
308.361	-23.18
308.576	-24.82
308.79	-69.49
309.005	-50.65
309.219	-40.46
309.434	-37.09
309.648	-32.43
309.863	-8.86
310.077	-12.39
310.292	-17.55
310.506	-10.25
310.72	2
310.935	18.74
311.149	4.61
311.364	14.19
311.578	24.52
311.792	19.37
312.007	13.06
312.221	5.05
312.435	18.11
312.649	-8.2
312.864	19.99
313.078	57.3
313.292	127.22
313.507	102.9
313.721	149.25
313.935	56.5
314.149	21.98
314.363	12.65
314.578	-0.21
314.792	-0.6
315.006	-10.99
315.22	7.47
315.434	5.5
315.648	28.45
315.862	37.94
316.077	28.49
316.291	14.84
316.505	14.94
316.719	-17.01
316.933	-23.66
317.147	-13.96
317.361	-45.41
317.575	-74.22
317.789	-99.35
318.003	-174.39
318.217	-109.83
318.431	-37.9
318.645	6.33
318.859	19.43
319.073	34.89
319.287	13.34
319.5	-15.87
319.714	-46.35
319.928	-73.48
320.142	-112.43
320.356	-76.42
320.57	-38.82
320.784	-44.87
320.997	-54.26
321.211	-18.66
321.425	-57.71
321.639	-82.31
321.853	-28.48
322.066	-14.05
322.28	-5.96
322.494	4.28
322.707	17.97
322.921	3.43
323.135	9.23
323.349	17.39
323.562	-3.41
323.776	-16.49
323.989	-16.73
324.203	-48.22
324.417	-75.98
324.63	-74.44
324.844	-65.51
325.057	-55.55
325.271	-32.26
325.485	-0.19
325.698	24.09
325.912	37.43
326.125	2.5
326.339	11.91
326.552	-17.14
326.766	-28.21
326.979	-15.16
327.193	21.39
327.406	-2.65
327.619	3.3
327.833	17.96
328.046	-15.03
328.26	-45.52
328.473	-5.8
328.686	-7.4
328.9	-14.36
329.113	5.74
329.326	-6.04
329.54	-11.76
329.753	-35.15
329.966	-76.98
330.179	-64.55
330.393	-32.05
330.606	-28.1
330.819	-6.97
331.032	21.28
331.246	26.36
331.459	46.2
331.672	35.45
331.885	29.4
332.098	7.25
332.311	-21.75
332.525	-72.44
332.738	-61.57
332.951	-12.5
333.164	-1.29
333.377	16.15
333.59	34.89
333.803	31.36
334.016	12.62
334.229	5.94
334.442	10.82
334.655	19.17
334.868	16.16
335.081	10.02
335.294	12.65
335.507	7.36
335.72	7.28
335.933	-0.57
336.146	-10.72
336.359	-13.08
336.572	-35.25
336.785	-63.71
336.997	-54.45
337.21	-32.55
337.423	-30.04
337.636	-10.26
337.849	5.62
338.062	9.75
338.274	25.53
338.487	16.83
338.7	-3.29
338.913	-35.67
339.125	-64.99
339.338	-151.55
339.551	-135.82
339.763	-95.66
339.976	-56.19
340.189	-22.84
340.402	5.82
340.614	1.67
340.827	5.54
341.039	1.26
341.252	3.5
341.465	10.77
341.677	5.29
341.89	-20.84
342.102	-6.83
342.315	-18.39
342.527	-43.51
342.74	-23.55
342.952	-10.73
343.165	-18.14
343.377	4.14
343.59	11.29
343.802	19.72
344.015	39.29
344.227	43.48
344.44	33.25
344.652	30.39
344.864	24.62
345.077	33.91
345.289	38.92
345.502	36.86
345.714	30.49
345.926	34.15
346.139	22.67
346.351	30.81
346.563	24.41
346.775	24.97
346.988	0.78
347.2	-29.14
347.412	-78.66
347.624	-89.29
347.837	-105.56
348.049	-57.84
348.261	-4.99
348.473	-9.01
348.685	-1.41
348.897	7.1
349.11	-23.87
349.322	-51.73
349.534	-29
349.746	-9.93
349.958	-14.97
350.17	-10.13
350.382	12.06
350.594	7.05
350.806	-2.87
351.018	-14.6
351.23	-32.75
351.442	-88.74
351.654	-94.26
351.866	-99.66
352.078	-65.13
352.29	-28.31
352.502	-2.67
352.714	9.82
352.926	2.27
353.138	3.31
353.35	-15.98
353.561	-19.6
353.773	-43.77
353.985	-23.19
354.197	-33.8
354.409	-17.82
354.621	-22.54
354.832	-7.31
355.044	-21.45
355.256	-24.75
355.468	-16.37
355.679	-12.69
355.891	-18.58
356.103	-27.47
356.314	-18.52
356.526	-21.63
356.738	-16.5
356.949	-13.05
357.161	12.74
357.373	6.87
357.584	-3.97
357.796	-5.44
358.008	-2.83
358.219	5.9
358.431	10.74
358.642	17.47
358.854	18.13
359.065	1.85
359.277	-29.55
359.488	-41.62
359.7	-46.28
359.911	-54.33
360.123	-31.64
360.334	-31.28
360.546	-45.44
360.757	-58.75
360.969	-47.35
361.18	-48.94
361.391	-37.47
361.603	-41.2
361.814	-30.54
362.025	-34.9
362.237	-33.47
362.448	-20.24
362.659	0.67
362.871	-4.16
363.082	-8.88
363.293	0.52
363.504	4.01
363.716	-3.52
363.927	-3.61
364.138	-20.76
364.349	-28.57
364.56	-46.11
364.772	-43.68
364.983	-14.77
365.194	1.81
365.405	9.17
365.616	35.08
365.827	48.81
366.038	22.65
366.25	17.68
366.461	-3.95
366.672	-8.25
366.883	-3.94
367.094	-3.02
367.305	-18.06
367.516	-12.66
367.727	-43.43
367.938	-47.11
368.149	-31.43
368.36	-8.29
368.571	-11.35
368.781	-7.24
368.992	-26.24
369.203	-46.12
369.414	-68.93
369.625	-58.16
369.836	-55.78
370.047	-84.79
370.258	-57.37
370.468	-54.99
370.679	-73.75
370.89	-74.14
371.101	-31.57
371.312	-44.48
371.522	-47.04
371.733	-30.33
371.944	-19.33
372.155	-20.85
372.365	-22.43
372.576	-13.98
372.787	-13.95
372.997	-24.18
373.208	-20.93
373.419	11.65
373.629	-15.82
373.84	-16.89
374.05	-22.95
374.261	-14.59
374.472	-50
374.682	5.74
374.893	2.71
375.103	27.16
375.314	18.8
375.524	24.69
375.735	6.88
375.945	18.22
376.156	-10.52
376.366	-15.28
376.577	-14.08
376.787	-14.56
376.997	-8.47
377.208	9.32
377.418	3.73
377.629	9.66
377.839	7.53
378.049	0.07
378.26	1.58
378.47	12.12
378.68	4.64
378.89	-0.32
379.101	-3.53
379.311	-29.96
379.521	-57.67
379.732	-54.18
379.942	-38.6
380.152	-52.25
380.362	-19
380.572	-6.26
380.783	6.41
380.993	10.92
381.203	16.81
381.413	16.49
381.623	11.12
381.833	11.09
382.043	-7.76
382.253	-16.1
382.463	-7.7
382.674	-19.72
382.884	-34.28
383.094	-24.52
383.304	-6.46
383.514	-1.84
383.724	11.89
383.934	3.83
384.144	-1.96
384.353	-24.06
384.563	-29.56
384.773	-23.66
384.983	-32
385.193	-14.83
385.403	0.9
385.613	0.89
385.823	-9.77
386.033	2.01
386.242	-6.86
386.452	-13.6
386.662	-18.57
386.872	-3.44
387.082	-9.25
387.291	-13.48
387.501	-15.89
387.711	-8.36
387.921	-18.49
388.13	-15.24
388.34	-6.72
388.55	-6.3
388.759	-9.04
388.969	-2.95
389.179	-2.19
389.388	-2.24
389.598	3.57
389.807	-0.11
390.017	-4.56
390.227	-2.18
390.436	-3.15
390.646	-1.79
390.855	0.43
391.065	0.57
391.274	-4.29
391.484	-5.84
391.693	-4.32
391.903	-0.29
392.112	4.9
392.322	9.32
392.531	12.46
392.74	10.98
392.95	4.55
393.159	1.59
393.369	1.55
393.578	0.63
393.787	-0.41
393.997	2.18
394.206	1.37
394.415	0.19
394.625	-0.39
394.834	-1.96
395.043	-1.27
395.252	0.53
395.462	1.24
395.671	2.33
395.88	4.36
396.089	4.93
396.298	3.28
396.508	3.89
396.717	2.9
396.926	2.81
397.135	1.65
397.344	2.49
397.553	2.68
397.762	4.73
397.971	4.53
398.181	5.1
398.39	4.49
398.599	4.72
398.808	4.15
399.017	4.93
399.226	6.1
399.435	7.17
399.644	7.18
399.853	6.35
400.062	5.93
400.27	5.28
400.479	4.78
400.688	4.33
400.897	4.65
401.106	4.8
401.315	4.76
401.524	4.89
401.733	5.5
401.941	5.73
402.15	5.76
402.359	5.89
402.568	6.25
402.777	6.14
402.985	5.99
403.194	5.97
403.403	5.81
403.612	5.42
403.82	5.26
404.029	5.54
404.238	5.46
404.446	5.74
404.655	5.59
404.864	5.58
405.072	5.17
405.281	5.04
405.489	4.7
405.698	4.8
405.906	4.8
406.115	5.02
406.324	5.31
406.532	5.51
406.741	5.72
406.949	5.75
407.158	5.69
407.366	5.45
407.574	5.32
407.783	5.16
407.991	4.97
408.2	5.12
408.408	5.2
408.617	5.16
408.825	5.03
409.033	5.13
409.242	5.01
409.45	4.93
409.658	4.81
409.867	5
410.075	5.01
410.283	4.96
410.491	4.9
410.7	4.91
410.908	4.77
411.116	4.95
411.324	5.01
411.533	5
411.741	5.22
411.949	5.26
412.157	4.98
412.365	4.91
412.573	5.04
412.781	4.96
412.99	4.93
413.198	5.02
413.406	4.96
413.614	4.95
413.822	4.85
414.03	4.7
414.238	4.44
414.446	4.63
414.654	4.43
414.862	4.45
415.07	4.64
415.278	4.98
415.486	4.68
415.694	4.76
415.902	4.63
416.109	4.45
416.317	4.45
416.525	4.35
416.733	4.38
416.941	4.66
417.149	4.59
417.357	4.42
417.564	4.71
417.772	4.87
417.98	4.8
418.188	4.82
418.395	4.91
418.603	4.95
418.811	4.45
419.019	4.23
419.226	4.46
419.434	4.47
419.642	4.24
419.849	4.56
420.057	4.68
420.265	4.68
420.472	4.59
420.68	4.6
420.887	4.44
421.095	4.41
421.302	4.26
421.51	4.3
421.717	4.46
421.925	4.65
422.132	4.67
422.34	4.44
422.547	4.4
422.755	4.24
422.962	4.01
423.17	3.91
423.377	4.02
423.585	4.06
423.792	4.05
423.999	4.19
424.207	4.1
424.414	4.31
424.621	4.16
424.829	4.24
425.036	4.18
425.243	4.36
425.451	4.14
425.658	4.05
425.865	4.1
426.072	4.11
426.28	4.39
426.487	4.39
426.694	4.54
426.901	4.35
427.108	4.38
427.315	4.12
427.523	4.37
427.73	4.36
427.937	4.43
428.144	4.31
428.351	4.24
428.558	4.27
428.765	4.34
428.972	4.3
429.179	4.52
429.386	4.83
429.593	4.56
429.8	4.44
430.007	4.54
430.214	4.58
430.421	4.41
430.628	4.43
430.835	4.31
431.042	4.37
431.249	4.44
431.456	4.51
431.662	4.62
431.869	4.82
432.076	4.77
432.283	4.72
432.49	4.63
432.697	4.65
432.903	4.5
433.11	4.55
433.317	4.45
433.524	4.61
433.73	4.58
433.937	4.83
434.144	4.76
434.35	4.85
434.557	4.72
434.764	4.74
434.97	4.65
435.177	4.78
435.384	4.72
435.59	4.77
435.797	4.99
436.003	5
436.21	4.97
436.416	5.05
436.623	5.05
436.829	5
437.036	5.06
437.242	5.03
437.449	5
437.655	4.96
437.862	4.9
438.068	4.84
438.275	5
438.481	5.17
438.687	5.19
438.894	5.25
439.1	5.28
439.307	5.33
439.513	5.28
439.719	5.3
439.926	5.35
440.132	5.42
440.338	5.22
440.544	5.3
440.751	5.3
440.957	5.33
441.163	5.2
441.369	5.42
441.575	5.22
441.782	5.25
441.988	5.08
442.194	5.19
442.4	5.08
442.606	5.37
442.812	5.41
443.018	5.5
443.224	5.53
443.431	5.7
443.637	5.46
443.843	5.35
444.049	5.42
444.255	5.33
444.461	5.29
444.667	5.35
444.873	5.48
445.079	5.47
445.284	5.58
445.49	5.32
445.696	5.17
445.902	5.11
446.108	5.08
446.314	5.11
446.52	5.27
446.726	5.62
446.931	5.63
447.137	5.68
447.343	5.7
447.549	5.6
447.755	5.39
447.96	5.44
448.166	5.38
448.372	5.27
448.578	5.39
448.783	5.35
448.989	5.38
449.195	5.59
449.4	5.6
449.606	5.53
449.812	5.42
450.017	5.5
450.223	5.4
450.428	5.36
450.634	5.48
450.84	5.7
451.045	5.59
451.251	5.42
451.456	5.68
451.662	5.71
451.867	5.78
452.073	5.81
452.278	5.99
452.483	5.89
452.689	5.8
452.894	5.82
453.1	5.84
453.305	5.78
453.51	5.77
453.716	5.79
453.921	5.74
454.127	5.66
454.332	5.65
454.537	5.65
454.742	5.64
454.948	5.61
455.153	5.73
455.358	5.77
455.563	5.86
455.769	5.95
455.974	5.94
456.179	5.81
456.384	5.72
456.589	5.66
456.795	5.46
457	5.34
457.205	5.52
457.41	5.5
457.615	5.49
457.82	5.61
458.025	5.72
458.23	5.56
458.435	5.69
458.64	5.58
458.845	5.7
459.05	5.64
459.255	5.72
459.46	5.68
459.665	5.72
459.87	5.72
460.075	5.74
460.28	5.8
460.485	5.89
460.69	5.9
460.895	5.74
461.099	5.74
461.304	5.75
461.509	5.72
461.714	5.62
461.919	5.8
