Data from Ofra_PS_T2_2A_2GT41_Reflection_3.txt Node
Date: Wed Jul 21 17:05:05 EDT 2021
User: Adam
Spectrometer: FLMT01687
Trigger mode: 0
Integration Time (sec): 1.100000E0
Scans to average: 2
Electric dark correction enabled: true
Nonlinearity correction enabled: false
Boxcar width: 2
XAxis mode: Wavelengths
Number of Pixels in Spectrum: 3648
>>>>>Begin Spectral Data<<<<<
179.494	537
179.716	619.06
179.937	585.94
180.158	601.31
180.38	1075.78
180.601	523.34
180.823	159.4
181.044	106.28
181.265	250.92
181.486	90.68
181.708	87.82
181.929	65.82
182.15	229.23
182.372	195.86
182.593	172.74
182.814	76.03
183.035	53.35
183.257	36.68
183.478	-34.95
183.699	13.11
183.92	-4.68
184.141	-13.49
184.363	-81.29
184.584	5.85
184.805	0.39
185.026	26.67
185.247	28.76
185.468	25.97
185.689	15.34
185.91	35.08
186.132	24.89
186.353	38.16
186.574	83.17
186.795	58.77
187.016	-0.89
187.237	-16.19
187.458	-23.51
187.679	-30.8
187.9	-8.56
188.121	-4.1
188.342	47.13
188.563	57.46
188.784	64.04
189.005	47.74
189.226	82.85
189.447	43.25
189.667	-177.31
189.888	-308.5
190.109	-1066.56
190.33	-584.03
190.551	-1122.35
190.772	-255.51
190.993	-222.49
191.214	-168.18
191.434	-96.38
191.655	-9.85
191.876	-60.61
192.097	-99.52
192.318	-182.43
192.538	-309.46
192.759	-205.5
192.98	-74.82
193.201	-15.52
193.421	2.43
193.642	33.51
193.863	35.83
194.083	4.34
194.304	-16.08
194.525	-15
194.745	-64.27
194.966	-81.09
195.187	-65.74
195.407	-77.54
195.628	-143.46
195.848	-127.3
196.069	-129.44
196.29	-110.49
196.51	-106.7
196.731	-90.41
196.951	-106.24
197.172	-101.86
197.392	-110.99
197.613	-114.39
197.833	-117.27
198.054	-105.37
198.274	-65.78
198.495	-74.39
198.715	-40.94
198.936	-72.17
199.156	-67.46
199.377	-159.2
199.597	-143.81
199.817	-148.71
200.038	-59.24
200.258	-113.54
200.479	-44.14
200.699	-20.54
200.919	28.7
201.14	5.28
201.36	9.41
201.58	27.36
201.801	44.12
202.021	4.22
202.241	-12.18
202.461	-14.99
202.682	-112.81
202.902	-194.18
203.122	-104.11
203.342	-77.18
203.563	-21.28
203.783	18.34
204.003	1.89
204.223	-2.16
204.443	31.1
204.663	5.3
204.884	0.62
205.104	19.81
205.324	41.45
205.544	59.32
205.764	65.74
205.984	71.62
206.204	68.98
206.424	44.53
206.644	-8.76
206.864	-17.63
207.084	-98.7
207.304	-44.95
207.525	-176.02
207.745	-67.4
207.964	-5.1
208.184	-27.68
208.404	-91.85
208.624	-88.5
208.844	-65.91
209.064	-317.11
209.284	-337.89
209.504	-147.33
209.724	-9.99
209.944	-7.14
210.164	23.64
210.384	31.35
210.604	23.78
210.823	-8.82
211.043	-33.13
211.263	-20.52
211.483	-8.92
211.703	-76.67
211.922	-67.3
212.142	11.46
212.362	6.41
212.582	-16.66
212.801	16.42
213.021	2.41
213.241	-50.91
213.461	-95.79
213.68	-99.17
213.9	-67.21
214.12	-44.7
214.339	-69.07
214.559	-21
214.779	10.06
214.998	-20.36
215.218	-87.25
215.438	-53.62
215.657	-61.76
215.877	-68.15
216.096	-6.34
216.316	21.24
216.535	9.43
216.755	-1.31
216.974	-73.48
217.194	-134.71
217.413	-126.32
217.633	-115.91
217.852	-166.84
218.072	-47.89
218.291	0.28
218.511	28.44
218.73	-6.96
218.95	-10.62
219.169	-20.23
219.389	-70.47
219.608	-60.9
219.827	-41.65
220.047	-23.54
220.266	-14.91
220.485	-14.56
220.705	8.81
220.924	-12.15
221.143	16.62
221.363	-11.98
221.582	2.6
221.801	13.21
222.021	40.16
222.24	-9.53
222.459	86.88
222.678	44.42
222.897	-66.34
223.117	-107.2
223.336	-91.5
223.555	-88.19
223.774	-24.14
223.993	5.66
224.213	43.59
224.432	21.92
224.651	55.04
224.87	29.5
225.089	34.77
225.308	20.02
225.527	45.53
225.746	41.77
225.965	31.26
226.184	24.59
226.404	41.01
226.623	19.95
226.842	17.28
227.061	36.72
227.28	37.19
227.499	28.48
227.718	25.57
227.936	8.67
228.155	-0.55
228.374	-16.11
228.593	-15.87
228.812	-10.19
229.031	1.1
229.25	-28.41
229.469	-31.5
229.688	-36.3
229.907	-6.34
230.125	27.04
230.344	36.55
230.563	45.43
230.782	73.17
231.001	21.49
231.22	-4.61
231.438	26.07
231.657	13.59
231.876	0.97
232.095	33
232.313	28.8
232.532	5.4
232.751	4.73
232.969	5.73
233.188	-31.43
233.407	18.92
233.625	5.94
233.844	-10.76
234.063	-15.19
234.281	15.73
234.5	-2.37
234.719	6.86
234.937	24.58
235.156	20.05
235.374	6.03
235.593	-1.18
235.811	-11.52
236.03	-10.47
236.249	-37.38
236.467	-35.32
236.686	-7.02
236.904	-3.33
237.123	-34.68
237.341	-24.43
237.559	-20.54
237.778	-47.39
237.996	-66.99
238.215	-21.53
238.433	-8.89
238.652	-17.91
238.87	-27.26
239.088	-22.07
239.307	-16.54
239.525	-18.89
239.743	-25.13
239.962	7.56
240.18	-6.76
240.398	-66.08
240.617	-70.87
240.835	-53.04
241.053	-63.99
241.271	-15
241.49	43.56
241.708	24.33
241.926	30.91
242.144	39.57
242.363	-14.84
242.581	-55.49
242.799	-22.39
243.017	-0.95
243.235	-9.42
243.453	-0.71
243.672	9.01
243.89	10.56
244.108	-8.1
244.326	-0.28
244.544	15.55
244.762	7.32
244.98	-7.64
245.198	5.45
245.416	-17.93
245.634	-24.55
245.852	-33.06
246.07	-30.61
246.288	-35.43
246.506	-45.59
246.724	-50.29
246.942	-53.25
247.16	-1.27
247.378	3.39
247.596	24.65
247.814	17.91
248.032	10.13
248.25	4.34
248.468	-8.21
248.685	-13.53
248.903	16.17
249.121	22.51
249.339	-8.11
249.557	15.4
249.775	26.17
249.992	-32.8
250.21	-39.12
250.428	-25.48
250.646	-48.85
250.863	-83.52
251.081	-42.28
251.299	-28.68
251.517	5.97
251.734	-2.92
251.952	0.91
252.17	-2.13
252.387	1.87
252.605	-18.99
252.823	-23.85
253.04	0.79
253.258	19.42
253.475	11.62
253.693	43.8
253.911	59.94
254.128	48.97
254.346	35.57
254.563	18.96
254.781	-13.92
254.998	-34.93
255.216	-46.05
255.433	-30.77
255.651	-8.04
255.868	15.56
256.086	40.64
256.303	26.28
256.521	25.33
256.738	14.19
256.956	-21.85
257.173	-49.87
257.39	-38.98
257.608	-65.88
257.825	11.88
258.043	52.86
258.26	55.35
258.477	81.87
258.695	60.13
258.912	-30.38
259.129	-8.56
259.346	-40.06
259.564	-85.13
259.781	-67.14
259.998	0.28
260.216	0.75
260.433	45.59
260.65	47.5
260.867	54.46
261.084	30.01
261.302	29.83
261.519	4.83
261.736	-20.46
261.953	-48.94
262.17	-24.86
262.387	-67.46
262.604	-90.97
262.822	-98.34
263.039	-64.17
263.256	-73.9
263.473	-36.84
263.69	-28.01
263.907	7.6
264.124	16.75
264.341	0.58
264.558	3.85
264.775	25.1
264.992	14.29
265.209	9
265.426	38.48
265.643	41.44
265.86	46.36
266.077	58.85
266.294	63.27
266.51	27.43
266.727	11.18
266.944	3.63
267.161	-27.86
267.378	-15
267.595	14.89
267.812	-6.69
268.028	-15.58
268.245	36.01
268.462	-0.15
268.679	-17.48
268.896	26.66
269.112	20.82
269.329	12.72
269.546	12.27
269.763	13.6
269.979	3.82
270.196	11.29
270.413	-15.12
270.629	-23.17
270.846	-34.4
271.063	-41.58
271.279	-51.33
271.496	-39.08
271.712	-3.01
271.929	-0.43
272.146	-18.3
272.362	-8.39
272.579	34.75
272.795	41.62
273.012	54.86
273.228	65.49
273.445	24.78
273.661	-15.93
273.878	-69.06
274.094	-65.57
274.311	-94.98
274.527	-7.66
274.744	-13.65
274.96	-19.65
275.177	-10.2
275.393	20.88
275.609	3.77
275.826	29.58
276.042	37.39
276.259	13.98
276.475	17.62
276.691	22.98
276.908	-6.21
277.124	6.43
277.34	16.47
277.557	8.24
277.773	-6.6
277.989	6.12
278.205	6.13
278.422	26.62
278.638	23.74
278.854	50.24
279.07	42.96
279.286	23.66
279.503	-14.71
279.719	-13.13
279.935	-45.21
280.151	-46.43
280.367	-13.56
280.583	-21.86
280.799	-18.52
281.016	-49.45
281.232	-18.64
281.448	-26.07
281.664	2.62
281.88	-27.21
282.096	16.63
282.312	33.26
282.528	48.38
282.744	48.82
282.96	44.16
283.176	21.83
283.392	7.76
283.608	-6.94
283.824	-14.36
284.04	-11.34
284.256	-7.76
284.471	-9.58
284.687	-17.89
284.903	-4.88
285.119	12.55
285.335	-8.75
285.551	-18.31
285.767	-15.22
285.982	-22.64
286.198	-58.87
286.414	-1.97
286.63	1.04
286.846	9.77
287.061	-11.72
287.277	19.54
287.493	-7.76
287.709	11
287.924	-1.63
288.14	35.08
288.356	26.51
288.571	33.97
288.787	7.37
289.003	18.68
289.218	1.52
289.434	-19.97
289.65	-7.01
289.865	-6.27
290.081	12.42
290.296	26.68
290.512	29.89
290.727	-9.31
290.943	-0.65
291.159	-5.47
291.374	-18.38
291.59	-43.39
291.805	-20.17
292.021	-8.17
292.236	-24.89
292.451	-9.76
292.667	13.92
292.882	16.93
293.098	3.61
293.313	-14.8
293.529	-44.73
293.744	-74.88
293.959	-64.52
294.175	-63.19
294.39	-18.65
294.605	7.98
294.821	22.71
295.036	31.32
295.251	44.63
295.467	34.37
295.682	11.19
295.897	-26.26
296.112	-52.41
296.328	-49.67
296.543	-75.24
296.758	-54.79
296.973	-5.81
297.188	34.96
297.404	11.71
297.619	-0.15
297.834	-6.82
298.049	-20
298.264	-62.99
298.479	-15.61
298.694	-8.27
298.909	12.67
299.125	21.11
299.34	37.66
299.555	22.47
299.77	40.11
299.985	-21.54
300.2	-73.71
300.415	-91.19
300.63	-57.65
300.845	-61.63
301.06	-39.86
301.275	-3.37
301.49	4.41
301.704	-5.96
301.919	-9.74
302.134	-17.96
302.349	-16.45
302.564	-65.48
302.779	-72.52
302.994	-79.35
303.209	-25.03
303.423	-14.41
303.638	30.7
303.853	3.71
304.068	-3.84
304.283	1.86
304.497	4.41
304.712	-1.65
304.927	4.26
305.142	6.09
305.356	-5.85
305.571	-21.49
305.786	-24.89
306	-49.21
306.215	-41.66
306.43	-53.38
306.644	-37.24
306.859	-1.77
307.074	21.81
307.288	-25.51
307.503	-38.23
307.717	-43.24
307.932	-66.13
308.147	-70.05
308.361	-43.3
308.576	-45.69
308.79	-82.71
309.005	-59.1
309.219	-45.72
309.434	-33.37
309.648	-25.34
309.863	4.44
310.077	-1.01
310.292	-8.25
310.506	-22.08
310.72	-6.12
310.935	-7.51
311.149	0.33
311.364	27.17
311.578	39.81
311.792	27.24
312.007	39.09
312.221	25.37
312.435	16.11
312.649	6.97
312.864	26.65
313.078	13.61
313.292	58.36
313.507	26.8
313.721	46.51
313.935	32.9
314.149	12.32
314.363	7.25
314.578	19.96
314.792	17.68
315.006	6.66
315.22	28.33
315.434	33.01
315.648	32.91
315.862	27.59
316.077	32.49
316.291	15.78
316.505	21.87
316.719	21.53
316.933	-12.13
317.147	-18.43
317.361	-58.89
317.575	-82.97
317.789	-109.28
318.003	-148.57
318.217	-108.98
318.431	-15.06
318.645	22.93
318.859	19.99
319.073	42.83
319.287	35.79
319.5	2.46
319.714	-29.12
319.928	-34.37
320.142	-54.64
320.356	-15.15
320.57	2.14
320.784	-16.09
320.997	-54.4
321.211	-40.09
321.425	-84.87
321.639	-97.92
321.853	-43.82
322.066	-27.07
322.28	-27.84
322.494	-6.47
322.707	20.55
322.921	10
323.135	20.18
323.349	24.89
323.562	-6.68
323.776	-23.81
323.989	-16.96
324.203	-35.62
324.417	-40.54
324.63	-46.33
324.844	-43.18
325.057	-44.96
325.271	-37.38
325.485	-6.7
325.698	17.09
325.912	31.67
326.125	15.02
326.339	22.29
326.552	3.23
326.766	-1.71
326.979	-6.34
327.193	23.76
327.406	6.79
327.619	-2.15
327.833	7.3
328.046	-4.44
328.26	-38.4
328.473	-8.58
328.686	-32.3
328.9	-39.16
329.113	-23.17
329.326	-46.87
329.54	-48.95
329.753	-29.89
329.966	-36.77
330.179	-37.19
330.393	-13.22
330.606	-11.21
330.819	-5.3
331.032	8.75
331.246	11.84
331.459	38.92
331.672	34.75
331.885	37.65
332.098	13.72
332.311	-4.52
332.525	-58.57
332.738	-49.98
332.951	-24.8
333.164	10.23
333.377	38.31
333.59	56.35
333.803	60.46
334.016	45.51
334.229	33.46
334.442	14.23
334.655	33.41
334.868	31.08
335.081	29.15
335.294	21.47
335.507	21.55
335.72	-3.18
335.933	-18.91
336.146	-21.26
336.359	-27.17
336.572	-64.22
336.785	-77.62
336.997	-64.82
337.21	-40.8
337.423	-30.29
337.636	-16.49
337.849	-12.32
338.062	-17.13
338.274	-8.89
338.487	-13.47
338.7	-5.18
338.913	-40.47
339.125	-53.65
339.338	-131.36
339.551	-111.62
339.763	-71.39
339.976	-8.91
340.189	1.05
340.402	18.84
340.614	6.78
340.827	-0.92
341.039	-35
341.252	-21.88
341.465	-8.59
341.677	4.53
341.89	-36.03
342.102	-6.38
342.315	-19.4
342.527	-57.06
342.74	-58.56
342.952	-17.97
343.165	-17.87
343.377	4.23
343.59	8.25
343.802	25.97
344.015	33.44
344.227	32.1
344.44	27.84
344.652	38.16
344.864	6.47
345.077	21.19
345.289	26.5
345.502	30.07
345.714	18.84
345.926	32.67
346.139	26.68
346.351	24.39
346.563	21.61
346.775	31.84
346.988	13.32
347.2	-3.44
347.412	-36.92
347.624	-64
347.837	-60.35
348.049	-8.02
348.261	17.89
348.473	28.56
348.685	42.46
348.897	23.09
349.11	-5.44
349.322	-25.77
349.534	-15.09
349.746	-20.97
349.958	-12.84
350.17	-2.91
350.382	6.28
350.594	-1.86
350.806	9.19
351.018	13.21
351.23	-4.99
351.442	-36.62
351.654	-30.61
351.866	-20.91
352.078	-24.25
352.29	2.08
352.502	24.05
352.714	34.36
352.926	13.1
353.138	11.09
353.35	-1.19
353.561	-11.73
353.773	-34.55
353.985	-17.92
354.197	-28.28
354.409	-20.11
354.621	-23.32
354.832	-8.22
355.044	-10.54
355.256	-8.11
355.468	4.08
355.679	6.48
355.891	17.41
356.103	8.39
356.314	14.11
356.526	8.02
356.738	9.62
356.949	-12.72
357.161	8.75
357.373	1.33
357.584	-12.02
357.796	1.55
358.008	0.83
358.219	6.66
358.431	11.09
358.642	24.12
358.854	7.79
359.065	1.78
359.277	-37.8
359.488	-46.72
359.7	-77.86
359.911	-87.58
360.123	-58.47
360.334	-54.07
360.546	-71.86
360.757	-54.12
360.969	-30.17
361.18	-27.99
361.391	-6.89
361.603	-12.89
361.814	-7.85
362.025	-19.35
362.237	-23.48
362.448	-12.27
362.659	22.17
362.871	12.93
363.082	21.84
363.293	15.58
363.504	1.78
363.716	-26.87
363.927	-31.53
364.138	-44.26
364.349	-50.17
364.56	-40.46
364.772	-28.73
364.983	-3.89
365.194	-1.7
365.405	16.42
365.616	27.11
365.827	23.57
366.038	-3.72
366.25	-14.6
366.461	-52.43
366.672	-26.42
366.883	-2.06
367.094	4.05
367.305	4.75
367.516	10.91
367.727	-27.2
367.938	-47.03
368.149	-40.63
368.36	-27.45
368.571	-19.2
368.781	-23.25
368.992	-31.82
369.203	-42.08
369.414	-71.98
369.625	-73.83
369.836	-59.71
370.047	-89.92
370.258	-72.52
370.468	-59.37
370.679	-67.75
370.89	-53.69
371.101	-21.26
371.312	-28.41
371.522	-16.45
371.733	-6.82
371.944	-5.86
372.155	0.57
372.365	-6.7
372.576	-6.41
372.787	-18.6
372.997	-25.79
373.208	-30.99
373.419	2.85
373.629	-25.13
373.84	-35.07
374.05	-52.02
374.261	-30.04
374.472	-54.06
374.682	-2.66
374.893	0.62
375.103	30.03
375.314	18.03
375.524	20.43
375.735	14
375.945	24.42
376.156	4.44
376.366	8.74
376.577	13.62
376.787	5.14
376.997	8.84
377.208	13.08
377.418	8.34
377.629	8.9
377.839	10.16
378.049	10.72
378.26	14.91
378.47	15.61
378.68	6.63
378.89	-4.01
379.101	-8.04
379.311	-33.03
379.521	-57.3
379.732	-52.67
379.942	-39.51
380.152	-57.11
380.362	-22.05
380.572	-18.87
380.783	-13.09
380.993	-2.07
381.203	10.11
381.413	12.18
381.623	18.76
381.833	16.04
382.043	7.13
382.253	2.84
382.463	-6.44
382.674	-13.03
382.884	-22.59
383.094	-19.73
383.304	-13.46
383.514	-3.69
383.724	1.22
383.934	-1.95
384.144	-18.23
384.353	-26.83
384.563	-33.11
384.773	-20.59
384.983	-23.95
385.193	1.41
385.403	7.47
385.613	10.8
385.823	-7.37
386.033	1.25
386.242	-10.34
386.452	-16.9
386.662	-22.31
386.872	-0.6
387.082	-4.84
387.291	-3.85
387.501	-1.99
387.711	-1.88
387.921	-15.7
388.13	-15.52
388.34	-7.15
388.55	-7.7
388.759	-3.73
388.969	4.21
389.179	4.47
389.388	2.8
389.598	10.73
389.807	1.51
390.017	-5.16
390.227	-6.23
390.436	-9.2
390.646	-11.06
390.855	-4.11
391.065	-5.6
391.274	-6.51
391.484	-7.12
391.693	-5.58
391.903	-3.68
392.112	3.94
392.322	8.31
392.531	11.75
392.74	12.89
392.95	5.65
393.159	2.67
393.369	3.07
393.578	2.73
393.787	0.75
393.997	5.24
394.206	3.93
394.415	3.14
394.625	3
394.834	0.28
395.043	1.23
395.252	3.18
395.462	4.73
395.671	6.05
395.88	8.58
396.089	8.19
396.298	6.94
396.508	6.1
396.717	4.55
396.926	4.73
397.135	4.51
397.344	5.11
397.553	6.33
397.762	7.1
397.971	6.96
398.181	6.94
398.39	6.11
398.599	5.19
398.808	5.13
399.017	5.29
399.226	6.42
399.435	6.94
399.644	6.77
399.853	6.36
400.062	6.3
400.27	5.38
400.479	5.47
400.688	5.01
400.897	4.99
401.106	5.02
401.315	5.24
401.524	5.35
401.733	5.86
401.941	6.39
402.15	6.6
402.359	6.38
402.568	6.58
402.777	6.54
402.985	6.36
403.194	5.96
403.403	5.92
403.612	5.55
403.82	5.16
404.029	5.24
404.238	5.31
404.446	5.46
404.655	5.51
404.864	5.87
405.072	5.58
405.281	5.54
405.489	5.23
405.698	5.03
405.906	4.9
406.115	4.98
406.324	5.01
406.532	5.42
406.741	5.54
406.949	5.59
407.158	5.63
407.366	5.72
407.574	5.57
407.783	5.72
407.991	5.46
408.2	5.54
408.408	5.48
408.617	5.34
408.825	5.07
409.033	5.25
409.242	5.28
409.45	5.44
409.658	5.42
409.867	5.63
410.075	5.56
410.283	5.38
410.491	5.19
410.7	5.17
410.908	5.14
411.116	5.33
411.324	5.29
411.533	5.23
411.741	5.37
411.949	5.32
412.157	5.08
412.365	5.21
412.573	5.21
412.781	5.25
412.99	5.26
413.198	5.44
413.406	5.35
413.614	5.35
413.822	5.05
414.03	5
414.238	4.8
414.446	4.94
414.654	4.75
414.862	4.92
415.07	4.92
415.278	5.13
415.486	4.8
415.694	4.99
415.902	4.78
416.109	4.61
416.317	4.53
416.525	4.43
416.733	4.54
416.941	4.85
417.149	4.94
417.357	4.87
417.564	5.15
417.772	5.33
417.98	5.2
418.188	5.2
418.395	5.31
418.603	5.34
418.811	4.78
419.019	4.79
419.226	5.04
419.434	5.08
419.642	4.88
419.849	5.17
420.057	5.05
420.265	4.88
420.472	4.63
420.68	4.71
420.887	4.43
421.095	4.54
421.302	4.46
421.51	4.66
421.717	4.77
421.925	4.99
422.132	4.7
422.34	4.49
422.547	4.52
422.755	4.27
422.962	4.1
423.17	4.18
423.377	4.29
423.585	4.2
423.792	4.19
423.999	4.24
424.207	4.29
424.414	4.42
424.621	4.28
424.829	4.21
425.036	4.16
425.243	4.2
425.451	4.04
425.658	3.96
425.865	4.29
426.072	4.33
426.28	4.74
426.487	4.84
426.694	4.89
426.901	4.58
427.108	4.62
427.315	4.21
427.523	4.46
427.73	4.56
427.937	4.59
428.144	4.45
428.351	4.46
428.558	4.44
428.765	4.29
428.972	4.35
429.179	4.48
429.386	4.63
429.593	4.36
429.8	4.39
430.007	4.56
430.214	4.69
430.421	4.55
430.628	4.45
430.835	4.29
431.042	4.4
431.249	4.4
431.456	4.41
431.662	4.62
431.869	4.93
432.076	4.9
432.283	4.96
432.49	5
432.697	5.02
432.903	4.84
433.11	4.82
433.317	4.91
433.524	5.09
433.73	5.06
433.937	5.26
434.144	5.13
434.35	5.07
434.557	4.87
434.764	4.96
434.97	4.89
435.177	5.15
435.384	5.1
435.59	5.22
435.797	5.33
436.003	5.34
436.21	5.21
436.416	5.2
436.623	5.14
436.829	5.13
437.036	5.26
437.242	5.35
437.449	5.4
437.655	5.46
437.862	5.44
438.068	5.37
438.275	5.45
438.481	5.57
438.687	5.55
438.894	5.46
439.1	5.5
439.307	5.6
439.513	5.45
439.719	5.49
439.926	5.66
440.132	5.54
440.338	5.28
440.544	5.45
440.751	5.45
440.957	5.46
441.163	5.57
441.369	5.74
441.575	5.54
441.782	5.54
441.988	5.42
442.194	5.38
442.4	5.33
442.606	5.63
442.812	5.64
443.018	5.72
443.224	5.77
443.431	5.78
443.637	5.53
443.843	5.45
444.049	5.48
444.255	5.36
444.461	5.4
444.667	5.41
444.873	5.52
445.079	5.42
445.284	5.63
445.49	5.39
445.696	5.27
445.902	5.21
446.108	5.21
446.314	5.13
446.52	5.28
446.726	5.58
446.931	5.56
447.137	5.63
447.343	5.63
447.549	5.61
447.755	5.43
447.96	5.47
448.166	5.43
448.372	5.43
448.578	5.45
448.783	5.49
448.989	5.6
449.195	5.7
449.4	5.7
449.606	5.7
449.812	5.55
450.017	5.53
450.223	5.4
450.428	5.32
450.634	5.43
450.84	5.67
451.045	5.56
451.251	5.52
451.456	5.8
451.662	5.76
451.867	5.75
452.073	5.77
452.278	5.88
452.483	5.93
452.689	5.81
452.894	5.83
453.1	5.79
453.305	5.78
453.51	5.59
453.716	5.61
453.921	5.66
454.127	5.69
454.332	5.67
454.537	5.61
454.742	5.68
454.948	5.52
455.153	5.52
455.358	5.67
455.563	5.83
455.769	5.83
455.974	5.84
456.179	5.75
456.384	5.62
456.589	5.57
456.795	5.43
457	5.38
457.205	5.62
457.41	5.6
457.615	5.52
457.82	5.63
458.025	5.68
458.23	5.46
458.435	5.54
458.64	5.48
458.845	5.57
459.05	5.61
459.255	5.65
459.46	5.62
459.665	5.71
459.87	5.61
460.075	5.57
460.28	5.56
460.485	5.64
460.69	5.58
460.895	5.51
461.099	5.51
461.304	5.68
461.509	5.61
461.714	5.56
461.919	5.69
462.123	5.63
462.328	5.58
462.533	5.57
