Data from Ofra_PS_T2_1A_1GT43_Reflection_1.txt Node
Date: Wed Jul 21 17:49:32 EDT 2021
User: Adam
Spectrometer: FLMT01687
Trigger mode: 0
Integration Time (sec): 1.100000E0
Scans to average: 2
Electric dark correction enabled: true
Nonlinearity correction enabled: false
Boxcar width: 2
XAxis mode: Wavelengths
Number of Pixels in Spectrum: 3648
>>>>>Begin Spectral Data<<<<<
179.494	654.6
179.716	756
179.937	671.82
180.158	675.56
180.38	1087.03
180.601	337.71
180.823	35.87
181.044	-138.27
181.265	-108.64
181.486	-50.07
181.708	61.49
181.929	929.08
182.15	-413.03
182.372	91.47
182.593	-49.91
182.814	19.75
183.035	105.52
183.257	56.28
183.478	-27.29
183.699	55.67
183.92	22.75
184.141	12.9
184.363	-47.9
184.584	3.55
184.805	13.94
185.026	53.27
185.247	48.05
185.468	42.4
185.689	55.84
185.91	39.3
186.132	17.72
186.353	11.75
186.574	27.67
186.795	13.51
187.016	-35.35
187.237	-49.28
187.458	-98
187.679	-66.3
187.9	-46.3
188.121	-31.07
188.342	-27.47
188.563	46.65
188.784	62.94
189.005	59.27
189.226	93.03
189.447	68.17
189.667	-152.55
189.888	-339.53
190.109	-1335.39
190.33	-647.9
190.551	-1162.17
190.772	-213.38
190.993	-196
191.214	-209.44
191.434	-151.71
191.655	-42.98
191.876	-137.34
192.097	-163.51
192.318	-148.62
192.538	-254.03
192.759	-194.42
192.98	-71.53
193.201	-36.22
193.421	-22.23
193.642	6.7
193.863	25.97
194.083	-10.09
194.304	-8.31
194.525	0.25
194.745	-5.77
194.966	-46.22
195.187	-32.02
195.407	-50.33
195.628	-121.31
195.848	-129.17
196.069	-112.82
196.29	-51.78
196.51	-62.65
196.731	-44.11
196.951	-58.74
197.172	-60.79
197.392	-105.15
197.613	-104.57
197.833	-158.71
198.054	-122.9
198.274	-63.39
198.495	-80
198.715	-40.48
198.936	-36.05
199.156	-39.7
199.377	-178.16
199.597	-159.08
199.817	-162.17
200.038	-63.52
200.258	-111.95
200.479	-22.02
200.699	26.63
200.919	56.15
201.14	-0.61
201.36	14.24
201.58	44.5
201.801	65.53
202.021	43.15
202.241	42.56
202.461	31.47
202.682	-56.01
202.902	-161.47
203.122	-101.28
203.342	-61.85
203.563	-11.8
203.783	22.45
204.003	-0.53
204.223	-17.19
204.443	41.06
204.663	12.47
204.884	9.5
205.104	73.94
205.324	105.55
205.544	62.8
205.764	81.27
205.984	93.79
206.204	88.32
206.424	75.95
206.644	53.59
206.864	45.75
207.084	-3.45
207.304	-39.44
207.525	-202.27
207.745	-102.3
207.964	-46.26
208.184	-96.28
208.404	-133.58
208.624	-130.67
208.844	-104.81
209.064	-372.41
209.284	-308.35
209.504	-111.87
209.724	13.41
209.944	15.9
210.164	42.16
210.384	48.64
210.604	36.93
210.823	-0.2
211.043	-47.83
211.263	-54.96
211.483	-47.74
211.703	-105.67
211.922	-104.97
212.142	-16.7
212.362	16.36
212.582	-2.22
212.801	7.04
213.021	-8.93
213.241	-11.41
213.461	-66.41
213.68	-99.45
213.9	-61.74
214.12	-26.44
214.339	-111.31
214.559	-79.51
214.779	-19.51
214.998	-6.45
215.218	-53.69
215.438	3.07
215.657	4.23
215.877	6.5
216.096	1.82
216.316	3.3
216.535	-23.38
216.755	-32.92
216.974	-127.9
217.194	-182.38
217.413	-166.14
217.633	-173.3
217.852	-288.34
218.072	-121.77
218.291	-49.75
218.511	1.71
218.73	-14.39
218.95	-14.12
219.169	-17.99
219.389	-65.57
219.608	-57.5
219.827	-42.92
220.047	-22.01
220.266	-20.74
220.485	-8.44
220.705	6.84
220.924	-25.31
221.143	16.34
221.363	-9.31
221.582	-1.32
221.801	7.99
222.021	24.29
222.24	-72.8
222.459	38.86
222.678	0.55
222.897	-115.7
223.117	-151.15
223.336	-102.41
223.555	-98.24
223.774	-35.18
223.993	29.5
224.213	102.48
224.432	72.88
224.651	69.31
224.87	21.39
225.089	27.55
225.308	6.88
225.527	20.11
225.746	2.82
225.965	-9.98
226.184	-36.73
226.404	-7.75
226.623	-20.62
226.842	-2.49
227.061	32.69
227.28	28.61
227.499	12.18
227.718	23.5
227.936	9.36
228.155	4.08
228.374	-12.84
228.593	-0.63
228.812	-10.63
229.031	-8.72
229.25	-51.9
229.469	-50.65
229.688	-52.83
229.907	-17.54
230.125	2.59
230.344	14.41
230.563	27.59
230.782	41.28
231.001	-48.02
231.22	-49.86
231.438	-5.28
231.657	-5.6
231.876	-15.94
232.095	47.87
232.313	57.93
232.532	14.37
232.751	-10.77
232.969	-30.61
233.188	-91.53
233.407	-54.68
233.625	-15.34
233.844	-37.96
234.063	-21.62
234.281	-3.69
234.5	-0.15
234.719	-1.09
234.937	36.33
235.156	36.47
235.374	29.99
235.593	5.59
235.811	0.3
236.03	-11.22
236.249	-59.98
236.467	-35.61
236.686	-1.47
236.904	3.68
237.123	-23.7
237.341	-10.8
237.559	0.43
237.778	-22.51
237.996	-29.99
238.215	9.02
238.433	32.85
238.652	9.66
238.87	-0.93
239.088	16.18
239.307	9.74
239.525	-10.57
239.743	-32.29
239.962	-12.09
240.18	-62.03
240.398	-111.34
240.617	-111.63
240.835	-93.31
241.053	-67.42
241.271	22.09
241.49	38.13
241.708	-3.34
241.926	-17.23
242.144	-13.19
242.363	-99.16
242.581	-129.72
242.799	-57.28
243.017	-14.59
243.235	-47.12
243.453	-17.83
243.672	-20.18
243.89	-5.15
244.108	-31.04
244.326	7.79
244.544	17.89
244.762	23.7
244.98	18.44
245.198	39.91
245.416	2.53
245.634	-4.53
245.852	-28.5
246.07	-44.31
246.288	-37.88
246.506	-61.86
246.724	-48.06
246.942	-12.44
247.16	28.77
247.378	14.29
247.596	36.12
247.814	16.37
248.032	-7.56
248.25	-7.83
248.468	9.5
248.685	23.87
248.903	56.75
249.121	49.18
249.339	0.74
249.557	-8.72
249.775	-9.41
249.992	-85.97
250.21	-75.93
250.428	-42.67
250.646	-74.33
250.863	-90.71
251.081	-53.58
251.299	-41.22
251.517	-28.33
251.734	-17.58
251.952	-12.96
252.17	-18.97
252.387	-7.88
252.605	-19.81
252.823	-3.02
253.04	7.68
253.258	28.53
253.475	20.29
253.693	25.98
253.911	15.68
254.128	10.9
254.346	1.21
254.563	-12.81
254.781	-45.6
254.998	-85.34
255.216	-101.33
255.433	-78.44
255.651	-21.74
255.868	39.36
256.086	72.69
256.303	85.41
256.521	52.62
256.738	17.56
256.956	-16.19
257.173	-11.53
257.39	-29.92
257.608	-45.45
257.825	-2.22
258.043	46.62
258.26	31.21
258.477	65.13
258.695	66.17
258.912	4.9
259.129	-8.56
259.346	-54.95
259.564	-116.38
259.781	-135.22
259.998	-30.43
260.216	-3.84
260.433	54.38
260.65	67.97
260.867	65.17
261.084	31.07
261.302	-0.62
261.519	-34.89
261.736	-54.2
261.953	-51.03
262.17	-12.94
262.387	-20.48
262.604	-63.81
262.822	-92.45
263.039	-79.39
263.256	-134.34
263.473	-93.31
263.69	-40.59
263.907	13.16
264.124	23.68
264.341	24.79
264.558	12.83
264.775	24.28
264.992	-0.97
265.209	-0.97
265.426	23.19
265.643	20.98
265.86	21.81
266.077	30.15
266.294	31.66
266.51	-19.48
266.727	-22.66
266.944	-17.81
267.161	-40.06
267.378	-57.86
267.595	-14.99
267.812	-26.49
268.028	-38.43
268.245	7.56
268.462	-20.09
268.679	-26.67
268.896	15.6
269.112	18.89
269.329	10.24
269.546	27.92
269.763	10.48
269.979	-14.84
270.196	-17.17
270.413	-58.85
270.629	-87.77
270.846	-79.92
271.063	-70.08
271.279	-96.19
271.496	-74.36
271.712	-22.82
271.929	-6.81
272.146	-31.08
272.362	-12.75
272.579	38.25
272.795	32.59
273.012	30.6
273.228	44.66
273.445	16.78
273.661	-44.16
273.878	-78.46
274.094	-69.79
274.311	-109.1
274.527	-24.44
274.744	-6.8
274.96	-11.09
275.177	-9.7
275.393	19.65
275.609	0.79
275.826	26.09
276.042	18.89
276.259	33.6
276.475	50.39
276.691	58.35
276.908	24.11
277.124	47.25
277.34	32.25
277.557	9.2
277.773	-9.6
277.989	-0.13
278.205	-9.83
278.422	-1.46
278.638	7.02
278.854	39.11
279.07	49.98
279.286	34.89
279.503	12.86
279.719	-9.5
279.935	-86.26
280.151	-102.47
280.367	-59.61
280.583	-75.24
280.799	-59.92
281.016	-53.95
281.232	-35.11
281.448	-43.55
281.664	-9.58
281.88	-31.59
282.096	-7.52
282.312	17
282.528	23.73
282.744	12.96
282.96	20.65
283.176	26.86
283.392	20.84
283.608	10.65
283.824	11.8
284.04	21.47
284.256	17.73
284.471	3.86
284.687	5.42
284.903	8.58
285.119	23.65
285.335	7.78
285.551	21.86
285.767	-4.07
285.982	-2.18
286.198	-46.94
286.414	-1.77
286.63	-3.12
286.846	45.49
287.061	23.84
287.277	60.34
287.493	36.99
287.709	54.54
287.924	20.25
288.14	47.37
288.356	38.34
288.571	51.66
288.787	20.28
289.003	21.67
289.218	1.67
289.434	-53.01
289.65	-48.45
289.865	-44.79
290.081	-18.95
290.296	-8.32
290.512	21.36
290.727	-8.92
290.943	-23.98
291.159	-53.03
291.374	-43.2
291.59	-62.08
291.805	-48.85
292.021	-25.68
292.236	-21.62
292.451	-15.83
292.667	-10.03
292.882	-1.87
293.098	-5.77
293.313	-0.41
293.529	-13.47
293.744	-23.43
293.959	-32.05
294.175	-27.65
294.39	5.28
294.605	21.87
294.821	46.79
295.036	49.72
295.251	62.82
295.467	24.9
295.682	14.34
295.897	-41.32
296.112	-57.7
296.328	-62.57
296.543	-74.52
296.758	-71.89
296.973	-18.32
297.188	19.38
297.404	-21.47
297.619	-13.1
297.834	-20.18
298.049	-26.27
298.264	-53.05
298.479	7.86
298.694	2.66
298.909	18.79
299.125	17.74
299.34	35.47
299.555	12.66
299.77	38.76
299.985	-4.41
300.2	-54.33
300.415	-79.22
300.63	-35.7
300.845	-52.94
301.06	-53.1
301.275	-10.37
301.49	6.43
301.704	-30.12
301.919	-40.98
302.134	-45.66
302.349	-56.02
302.564	-126.75
302.779	-119.47
302.994	-82.17
303.209	-48.31
303.423	17.35
303.638	66.05
303.853	11.04
304.068	-3.47
304.283	-1.12
304.497	-20.21
304.712	-44.9
304.927	-17.73
305.142	-25.97
305.356	-15.6
305.571	-18.58
305.786	-24.56
306	-38.35
306.215	-19.91
306.43	-52.44
306.644	-29.54
306.859	40.61
307.074	29.96
307.288	-5.68
307.503	11.3
307.717	-13.62
307.932	-25.15
308.147	-30.62
308.361	-11.51
308.576	-16.96
308.79	-59.57
309.005	-53.15
309.219	-29.05
309.434	-26.17
309.648	-34.53
309.863	1.14
310.077	0.57
310.292	9.42
310.506	3.85
310.72	9.43
310.935	-4.78
311.149	-7.1
311.364	12.67
311.578	32.02
311.792	22.99
312.007	33.34
312.221	20.02
312.435	13.34
312.649	-5.27
312.864	46.71
313.078	76.64
313.292	140.31
313.507	121.75
313.721	142.98
313.935	38.32
314.149	10.4
314.363	-6.39
314.578	-1.37
314.792	6.29
315.006	-6.15
315.22	8.55
315.434	14.25
315.648	14.86
315.862	7.58
316.077	5.45
316.291	-6.08
316.505	10.24
316.719	18.61
316.933	-16.84
317.147	11.22
317.361	-17.49
317.575	-57.27
317.789	-90.77
318.003	-113.03
318.217	-93.73
318.431	-10.27
318.645	37.67
318.859	24.63
319.073	52.53
319.287	34.61
319.5	-14.16
319.714	-69.76
319.928	-93.86
320.142	-116.7
320.356	-43.97
320.57	1.88
320.784	-7.07
320.997	3.49
321.211	-16.05
321.425	-106.51
321.639	-138.11
321.853	-60.11
322.066	-46.31
322.28	-38.01
322.494	-11.53
322.707	12.42
322.921	-5.54
323.135	-7.2
323.349	14.03
323.562	-9.28
323.776	-23.32
323.989	-15.15
324.203	-27.69
324.417	-47.65
324.63	-54.27
324.844	-42.98
325.057	-53.33
325.271	-28.65
325.485	-8.56
325.698	13.02
325.912	13.57
326.125	-4.74
326.339	-4.65
326.552	-21.79
326.766	-22.23
326.979	-3.63
327.193	39.42
327.406	21.86
327.619	6.88
327.833	11.22
328.046	-9.53
328.26	-53.67
328.473	-19.75
328.686	-31.87
328.9	-17.51
329.113	-2.55
329.326	-21.54
329.54	-18.26
329.753	-18.69
329.966	-61.73
330.179	-71.74
330.393	-35.84
330.606	-32.85
330.819	-15.1
331.032	8.99
331.246	19.48
331.459	47.41
331.672	37.71
331.885	18.3
332.098	-8.02
332.311	-21.07
332.525	-88.11
332.738	-60.97
332.951	-1.69
333.164	28.83
333.377	41.49
333.59	65.01
333.803	53.28
334.016	42.68
334.229	21.64
334.442	30.55
334.655	38.76
334.868	51.63
335.081	27.44
335.294	26.92
335.507	6.69
335.72	-6.58
335.933	-6.96
336.146	-8.13
336.359	6.85
336.572	-23.34
336.785	-50.82
336.997	-65.41
337.21	-26.69
337.423	-47.89
337.636	-40.75
337.849	-14.66
338.062	-7.69
338.274	-7.32
338.487	-2.77
338.7	0.86
338.913	-43.15
339.125	-68.96
339.338	-114.82
339.551	-104.83
339.763	-64.77
339.976	-30.25
340.189	-14.73
340.402	-11.34
340.614	-6.87
340.827	-18.18
341.039	-25.96
341.252	-9.51
341.465	21.52
341.677	13.84
341.89	-10.86
342.102	5.43
342.315	-11.92
342.527	-56.83
342.74	-46.72
342.952	-14.83
343.165	-30.04
343.377	1.28
343.59	-7.9
343.802	16.78
344.015	25.12
344.227	64.67
344.44	39.15
344.652	43.58
344.864	19.04
345.077	30.47
345.289	18.19
345.502	28.38
345.714	20.19
345.926	34.88
346.139	25.77
346.351	29.51
346.563	37.7
346.775	45.82
346.988	34.49
347.2	11.42
347.412	-33
347.624	-69.53
347.837	-86.95
348.049	-85.99
348.261	-27.02
348.473	-4.24
348.685	-13.45
348.897	-24.4
349.11	-31.14
349.322	-59.67
349.534	-51.36
349.746	-34.76
349.958	-14.4
350.17	5.08
350.382	8.87
350.594	3.86
350.806	16.57
351.018	21.08
351.23	5.09
351.442	-28.12
351.654	-14.73
351.866	-10.3
352.078	-17.34
352.29	4.11
352.502	24.46
352.714	20.78
352.926	2.08
353.138	13.2
353.35	-4.96
353.561	-6.97
353.773	-15.6
353.985	-0.92
354.197	-19.98
354.409	-15.64
354.621	-32.4
354.832	-23.5
355.044	-33.14
355.256	-27.01
355.468	-14.33
355.679	-10.47
355.891	-7.78
356.103	-21.55
356.314	-18.88
356.526	-19.71
356.738	-5.73
356.949	-22.14
357.161	7.69
357.373	6.16
357.584	-5.6
357.796	-3.28
358.008	-2.89
358.219	3.95
358.431	-7.92
358.642	7.15
358.854	6.38
359.065	-0.12
359.277	-38.82
359.488	-34.32
359.7	-70.99
359.911	-85.13
360.123	-47.73
360.334	-46.88
360.546	-53.22
360.757	-48.67
360.969	-25.65
361.18	-34.37
361.391	-8.44
361.603	-24.03
361.814	-10.05
362.025	-24.5
362.237	-17.86
362.448	-0.98
362.659	32.67
362.871	27.21
363.082	30.53
363.293	20.24
363.504	-6.2
363.716	-30.5
363.927	-39.52
364.138	-65.15
364.349	-83.46
364.56	-64.28
364.772	-59.02
364.983	-22.54
365.194	-10.08
365.405	15.19
365.616	32.31
365.827	41.59
366.038	8.18
366.25	-3.54
366.461	-38.75
366.672	-21.81
366.883	-1.76
367.094	11.7
367.305	0.15
367.516	1.88
367.727	-31.03
367.938	-54.28
368.149	-59.2
368.36	-28
368.571	-13.35
368.781	-24.16
368.992	-33.67
369.203	-44.21
369.414	-71.63
369.625	-80.83
369.836	-66.19
370.047	-93.66
370.258	-82.45
370.468	-80.51
370.679	-86.4
370.89	-89.55
371.101	-56.88
371.312	-62.37
371.522	-47.42
371.733	-41.77
371.944	-27.82
372.155	-17.44
372.365	-24.04
372.576	-28.23
372.787	-28.45
372.997	-41.4
373.208	-43.61
373.419	2.01
373.629	-26.79
373.84	-26.1
374.05	-32.35
374.261	-25.65
374.472	-51.98
374.682	0.17
374.893	-5.47
375.103	28
375.314	18.15
375.524	14.99
375.735	9.97
375.945	17.7
376.156	-3.78
376.366	4.96
376.577	-1.8
376.787	-7.06
376.997	3.55
377.208	-6.67
377.418	-25.51
377.629	-7.66
377.839	-18.72
378.049	-19.71
378.26	3.44
378.47	17.54
378.68	4.95
378.89	8.28
379.101	4.3
379.311	-29.4
379.521	-59.16
379.732	-50.3
379.942	-48.09
380.152	-69.56
380.362	-28.16
380.572	-32.1
380.783	-14.84
380.993	-5.17
381.203	3.12
381.413	2.54
381.623	21.84
381.833	13.86
382.043	5.77
382.253	4.41
382.463	2.06
382.674	-10.02
382.884	-32.28
383.094	-25.35
383.304	-19.46
383.514	-11.28
383.724	0.36
383.934	2.48
384.144	-8.93
384.353	-16.91
384.563	-20.15
384.773	-19.08
384.983	-25.12
385.193	-10.94
385.403	-4.67
385.613	-3.17
385.823	-14.52
386.033	-1.79
386.242	-8.44
386.452	-13.13
386.662	-26.9
386.872	-7.97
387.082	-16.57
387.291	-22.42
387.501	-20.68
387.711	-7.88
387.921	-19.86
388.13	-16.97
388.34	0.59
388.55	-2.44
388.759	-0.09
388.969	6.34
389.179	7.68
389.388	3.5
389.598	7.9
389.807	-5.43
390.017	-11.34
390.227	-9.46
390.436	-14.88
390.646	-13.55
390.855	-5.23
391.065	-0.1
391.274	-3.77
391.484	-3.9
391.693	-0.52
391.903	1.93
392.112	4.83
392.322	9.08
392.531	11.64
392.74	8.7
392.95	3
393.159	-0.89
393.369	-1.6
393.578	-1.57
393.787	-2.06
393.997	0.38
394.206	-1.2
394.415	-1.7
394.625	-2.44
394.834	-2.5
395.043	-2.04
395.252	0.99
395.462	3.63
395.671	5.77
395.88	5.92
396.089	5.43
396.298	3.85
396.508	3.3
396.717	1.64
396.926	2.17
397.135	2.89
397.344	3.13
397.553	3.17
397.762	5.13
397.971	4.87
398.181	4.64
398.39	4.24
398.599	3.27
398.808	2.38
399.017	3.46
399.226	4.49
399.435	5.49
399.644	5.77
399.853	5.33
400.062	4.43
400.27	3.53
400.479	3.03
400.688	2.77
400.897	2.9
401.106	3.02
401.315	3.03
401.524	3.14
401.733	3.48
401.941	3.94
402.15	4.15
402.359	3.97
402.568	4.14
402.777	4.22
402.985	3.98
403.194	3.82
403.403	3.89
403.612	3.57
403.82	3.25
404.029	3.17
404.238	3.13
404.446	3.39
404.655	3.01
404.864	3.04
405.072	3.01
405.281	3.1
405.489	2.83
405.698	3.01
405.906	2.99
406.115	2.91
406.324	2.7
406.532	2.86
406.741	3.1
406.949	3.09
407.158	3.01
407.366	3.04
407.574	2.84
407.783	2.8
407.991	2.53
408.2	2.82
408.408	2.84
408.617	2.87
408.825	2.62
409.033	2.78
409.242	2.73
409.45	2.69
409.658	2.64
409.867	2.91
410.075	2.76
410.283	2.59
410.491	2.6
410.7	2.51
410.908	2.47
411.116	2.86
411.324	2.9
411.533	2.79
411.741	3.12
411.949	3.15
412.157	2.81
412.365	2.83
412.573	2.89
412.781	2.92
412.99	2.8
413.198	3.09
413.406	3.13
413.614	3.23
413.822	2.91
414.03	2.83
414.238	2.56
414.446	2.51
414.654	2.11
414.862	2.24
415.07	2.37
415.278	2.62
415.486	2.43
415.694	2.74
415.902	2.61
416.109	2.53
416.317	2.36
416.525	2.31
416.733	2.3
416.941	2.44
417.149	2.19
417.357	2.29
417.564	2.59
417.772	2.73
417.98	2.67
418.188	2.79
418.395	2.82
418.603	2.84
418.811	2.41
419.019	2.45
419.226	2.73
419.434	2.73
419.642	2.52
419.849	2.79
420.057	2.73
420.265	2.62
420.472	2.37
420.68	2.34
420.887	2.11
421.095	2.15
421.302	2.08
421.51	2.34
421.717	2.5
421.925	2.87
422.132	2.73
422.34	2.64
422.547	2.68
422.755	2.58
422.962	2.46
423.17	2.47
423.377	2.46
423.585	2.35
423.792	2.27
423.999	2.25
424.207	2.31
424.414	2.5
424.621	2.57
424.829	2.53
425.036	2.39
425.243	2.54
425.451	2.28
425.658	2.08
425.865	2.47
426.072	2.48
426.28	2.61
426.487	2.6
426.694	2.8
426.901	2.46
427.108	2.46
427.315	2.22
427.523	2.54
427.73	2.38
427.937	2.3
428.144	2.21
428.351	2.27
428.558	2.38
428.765	2.33
428.972	2.36
429.179	2.65
429.386	2.82
429.593	2.53
429.8	2.55
430.007	2.59
430.214	2.6
430.421	2.33
430.628	2.21
430.835	2.09
431.042	2.29
431.249	2.3
431.456	2.32
431.662	2.44
431.869	2.54
432.076	2.58
432.283	2.63
432.49	2.56
432.697	2.67
432.903	2.47
433.11	2.33
433.317	2.32
433.524	2.52
433.73	2.33
433.937	2.62
434.144	2.58
434.35	2.47
434.557	2.36
434.764	2.34
434.97	2.15
435.177	2.32
435.384	2.22
435.59	2.24
435.797	2.58
436.003	2.75
436.21	2.76
436.416	2.93
436.623	3.02
436.829	2.88
437.036	3.04
437.242	3.03
437.449	2.95
437.655	2.87
437.862	2.93
438.068	2.83
438.275	2.9
438.481	3.15
438.687	3.14
438.894	3.07
439.1	3.11
439.307	3.2
439.513	2.96
439.719	3.09
439.926	3.2
440.132	3.13
440.338	2.94
440.544	3.21
440.751	3.11
440.957	3.16
441.163	3.05
441.369	3.08
441.575	2.77
441.782	2.7
441.988	2.48
442.194	2.6
442.4	2.62
442.606	2.99
442.812	3.13
443.018	3.33
443.224	3.32
443.431	3.51
443.637	3.23
443.843	3.07
444.049	3.03
444.255	3.03
444.461	2.87
444.667	2.8
444.873	3.09
445.079	3.01
445.284	3.07
445.49	2.94
445.696	2.89
445.902	2.69
446.108	2.67
446.314	2.59
446.52	2.75
446.726	3.03
446.931	3.03
447.137	3.12
447.343	3.28
447.549	3.11
447.755	2.98
447.96	3.14
448.166	3.03
448.372	2.87
448.578	3.02
448.783	3.06
448.989	3.11
449.195	3.38
449.4	3.46
449.606	3.37
449.812	3.27
450.017	3.2
450.223	3.02
450.428	2.91
450.634	3.02
450.84	3.18
451.045	3.12
451.251	3.05
451.456	3.39
451.662	3.5
451.867	3.54
452.073	3.56
452.278	3.73
452.483	3.69
452.689	3.53
452.894	3.51
453.1	3.57
453.305	3.53
453.51	3.49
453.716	3.45
453.921	3.51
454.127	3.41
454.332	3.3
454.537	3.12
454.742	3.2
454.948	3.15
455.153	3.17
455.358	3.26
455.563	3.56
455.769	3.62
455.974	3.61
456.179	3.52
456.384	3.5
456.589	3.33
456.795	3.16
457	3.13
457.205	3.43
457.41	3.33
457.615	3.25
457.82	3.29
458.025	3.27
458.23	3.08
458.435	3.17
458.64	3.13
458.845	3.26
459.05	3.19
459.255	3.21
459.46	3.23
459.665	3.27
459.87	3.23
460.075	3.31
460.28	3.38
460.485	3.42
460.69	3.47
460.895	3.34
461.099	3.34
