Data from Ofra_2a_PS_8HS23_Reflection_3.txt Node
Date: Tue Jul 20 09:57:05 EDT 2021
User: Adam
Spectrometer: FLMT01687
Trigger mode: 0
Integration Time (sec): 9.450000E-1
Scans to average: 3
Electric dark correction enabled: true
Nonlinearity correction enabled: false
Boxcar width: 3
XAxis mode: Wavelengths
Number of Pixels in Spectrum: 3648
>>>>>Begin Spectral Data<<<<<
179.494	1269.23
179.716	813.64
179.937	918.13
180.158	3420.7
180.38	-1903.78
180.601	-449.16
180.823	-239.79
181.044	-23.61
181.265	60.65
181.486	87.79
181.708	342.39
181.929	106.4
182.15	506.25
182.372	-18.68
182.593	41.87
182.814	221.41
183.035	209.81
183.257	152.94
183.478	94.04
183.699	93.47
183.92	97.2
184.141	93.49
184.363	82.06
184.584	63.54
184.805	54.5
185.026	63.12
185.247	45.76
185.468	21.31
185.689	11.92
185.91	2.8
186.132	19.99
186.353	8.55
186.574	14.58
186.795	1.58
187.016	6.37
187.237	27.49
187.458	28.02
187.679	16.96
187.9	14.34
188.121	17.56
188.342	38.94
188.563	36.84
188.784	24.72
189.005	33.88
189.226	35.25
189.447	35.24
189.667	29.77
189.888	45.03
190.109	55.2
190.33	38.26
190.551	18.42
190.772	13.41
190.993	17.98
191.214	26.16
191.434	1.33
191.655	10.21
191.876	27.29
192.097	27.49
192.318	32.51
192.538	31.58
192.759	27.06
192.98	31.03
193.201	17.68
193.421	13.95
193.642	23.35
193.863	14.37
194.083	5.65
194.304	-12.92
194.525	6.49
194.745	-1.31
194.966	3.37
195.187	7.12
195.407	12.37
195.628	22.46
195.848	31.03
196.069	18.3
196.29	12.46
196.51	-3.53
196.731	17.66
196.951	11.67
197.172	-2.49
197.392	7.9
197.613	10.37
197.833	16.12
198.054	27.2
198.274	-9.95
198.495	-15.52
198.715	-30.34
198.936	-24.3
199.156	-4.93
199.377	12.15
199.597	-10.61
199.817	28.87
200.038	35.54
200.258	49.61
200.479	46.55
200.699	46.61
200.919	26.44
201.14	38.58
201.36	22.21
201.58	13.21
201.801	13.11
202.021	6.91
202.241	6.23
202.461	8.98
202.682	27.29
202.902	22.82
203.122	27.03
203.342	35.9
203.563	36.9
203.783	36.29
204.003	46.39
204.223	36.01
204.443	32.23
204.663	31.31
204.884	25.37
205.104	24.59
205.324	28.24
205.544	23.54
205.764	31.21
205.984	48.92
206.204	44.87
206.424	40.23
206.644	41.51
206.864	43.23
207.084	58.84
207.304	49.27
207.525	46.04
207.745	45.61
207.964	54.43
208.184	42.57
208.404	33.71
208.624	1.16
208.844	-7.46
209.064	15
209.284	25.2
209.504	18.99
209.724	-0.83
209.944	-3.15
210.164	8.58
210.384	15.4
210.604	-18.62
210.823	-23.23
211.043	-33.41
211.263	-9.01
211.483	-7.57
211.703	-1.09
211.922	11.12
212.142	19.22
212.362	26.38
212.582	25.72
212.801	23.4
213.021	28
213.241	23.76
213.461	2.47
213.68	2.58
213.9	7.85
214.12	6.82
214.339	14.36
214.559	17.66
214.779	14.08
214.998	20.89
215.218	21.76
215.438	19.45
215.657	30.41
215.877	23
216.096	18.08
216.316	16.35
216.535	13.09
216.755	-8.09
216.974	-3.99
217.194	-7.7
217.413	7.32
217.633	8.47
217.852	18.5
218.072	12.47
218.291	36.33
218.511	24.44
218.73	18.68
218.95	19.97
219.169	28.54
219.389	23.78
219.608	39.18
219.827	36.04
220.047	40.54
220.266	45.85
220.485	44.73
220.705	31.65
220.924	32.71
221.143	20.89
221.363	31.68
221.582	26.82
221.801	27.63
222.021	19.2
222.24	28.35
222.459	19.69
222.678	22.73
222.897	-1.35
223.117	18.53
223.336	18.64
223.555	16.06
223.774	17.32
223.993	35.82
224.213	32.04
224.432	51.62
224.651	25.26
224.87	36.23
225.089	43.88
225.308	46.74
225.527	45.87
225.746	41.26
225.965	20.92
226.184	32.85
226.404	13.19
226.623	-0.88
226.842	-8.2
227.061	-12.42
227.28	14.39
227.499	32.67
227.718	37.49
227.936	29.8
228.155	40.8
228.374	47.51
228.593	40.14
228.812	26.65
229.031	18.41
229.25	19.89
229.469	28.75
229.688	29.53
229.907	22.48
230.125	30.79
230.344	34.29
230.563	43.36
230.782	36.16
231.001	37.39
231.22	28.63
231.438	29.18
231.657	39.5
231.876	38.92
232.095	32.48
232.313	38.71
232.532	38.62
232.751	41.15
232.969	45.61
233.188	30.18
233.407	20.43
233.625	12.78
233.844	21.89
234.063	20.25
234.281	15.87
234.5	20.05
234.719	13.77
234.937	21.06
235.156	20.3
235.374	10.23
235.593	11.14
235.811	9.07
236.03	-25.12
236.249	-5.16
236.467	0.36
236.686	8.7
236.904	0.57
237.123	8.94
237.341	11.73
237.559	22.71
237.778	32.16
237.996	36.29
238.215	27.38
238.433	36.44
238.652	29.49
238.87	29.77
239.088	25.39
239.307	17.77
239.525	5.15
239.743	-0.57
239.962	-4.82
240.18	2.94
240.398	10.84
240.617	24.81
240.835	24.79
241.053	38.18
241.271	48.66
241.49	44.25
241.708	37.83
241.926	30.45
242.144	26.44
242.363	18.68
242.581	7.98
242.799	2.18
243.017	2.22
243.235	-0.35
243.453	5.88
243.672	0.83
243.89	20.16
244.108	37.4
244.326	34.89
244.544	33.66
244.762	39.65
244.98	28.52
245.198	23.76
245.416	11.79
245.634	2.62
245.852	14.68
246.07	15.9
246.288	-2.44
246.506	7.93
246.724	21.15
246.942	32.09
247.16	36.47
247.378	16.42
247.596	27.31
247.814	26.37
248.032	36.48
248.25	32.24
248.468	33.37
248.685	34.25
248.903	39.91
249.121	39.83
249.339	37.96
249.557	36.56
249.775	23.71
249.992	13.5
250.21	2.2
250.428	5.83
250.646	-2.92
250.863	0.76
251.081	-7.41
251.299	17.64
251.517	31.51
251.734	44.91
251.952	50.27
252.17	45.97
252.387	41.89
252.605	33.74
252.823	1.65
253.04	-7.49
253.258	-8.03
253.475	-10.6
253.693	4.49
253.911	6.74
254.128	4.44
254.346	13.13
254.563	6.59
254.781	1.11
254.998	5.02
255.216	2.34
255.433	-0.76
255.651	6.37
255.868	7.42
256.086	15.87
256.303	13.68
256.521	5
256.738	4.54
256.956	7.6
257.173	12.5
257.39	16.66
257.608	22.91
257.825	29.22
258.043	35.45
258.26	37.99
258.477	43.17
258.695	42.1
258.912	47.15
259.129	37.06
259.346	41.4
259.564	37.16
259.781	45.59
259.998	36.63
260.216	45.33
260.433	41.89
260.65	48.16
260.867	31.54
261.084	40.16
261.302	31.3
261.519	28.9
261.736	10.91
261.953	17.43
262.17	6.05
262.387	19.52
262.604	6.29
262.822	19.22
263.039	18.49
263.256	23.61
263.473	14.8
263.69	20.69
263.907	21.02
264.124	14.58
264.341	3.07
264.558	9.13
264.775	11.49
264.992	10.25
265.209	19.3
265.426	12.7
265.643	20.19
265.86	20.06
266.077	24.34
266.294	16.57
266.51	25.94
266.727	21.29
266.944	18
267.161	12.5
267.378	24.44
267.595	9.61
267.812	13.93
268.028	3.88
268.245	1.33
268.462	16.41
268.679	27.54
268.896	30.27
269.112	41.8
269.329	47.87
269.546	48.3
269.763	53.26
269.979	43.35
270.196	38.43
270.413	31.65
270.629	24.09
270.846	18.68
271.063	23.53
271.279	20.37
271.496	13.66
271.712	9.18
271.929	13.89
272.146	15.16
272.362	10.62
272.579	2.63
272.795	-3.11
273.012	-4.02
273.228	-8.81
273.445	-10.53
273.661	-13.76
273.878	-4.17
274.094	0.25
274.311	0.38
274.527	7.22
274.744	0.8
274.96	-1.92
275.177	3.32
275.393	-0.42
275.609	2.66
275.826	4.53
276.042	7.05
276.259	20.83
276.475	18.21
276.691	20.22
276.908	24.93
277.124	24.53
277.34	21.27
277.557	23.94
277.773	16.07
277.989	17.63
278.205	7.88
278.422	3.51
278.638	7.8
278.854	11.84
279.07	0.43
279.286	2.54
279.503	6.79
279.719	14.32
279.935	-1.27
280.151	0.82
280.367	4.25
280.583	10.51
280.799	17.68
281.016	11.67
281.232	3.7
281.448	8.44
281.664	-3.57
281.88	-4.54
282.096	-7.53
282.312	-19.92
282.528	-20.14
282.744	-9.11
282.96	1.48
283.176	4.34
283.392	14.15
283.608	26.51
283.824	32.41
284.04	42.84
284.256	37.5
284.471	31.19
284.687	28.21
284.903	19.35
285.119	-3.98
285.335	-1.8
285.551	-13.62
285.767	0.86
285.982	5.22
286.198	14.09
286.414	26.7
286.63	45.69
286.846	35.85
287.061	41.61
287.277	38.67
287.493	44.53
287.709	38.03
287.924	39.47
288.14	39.47
288.356	56.94
288.571	44.89
288.787	43.72
289.003	47.09
289.218	44.73
289.434	36.36
289.65	29.53
289.865	19.66
290.081	26.27
290.296	19.16
290.512	17.57
290.727	26.79
290.943	26.6
291.159	24.8
291.374	31.54
291.59	30.52
291.805	34.64
292.021	21.14
292.236	14.12
292.451	15.15
292.667	13.84
292.882	6.73
293.098	0.91
293.313	-2.18
293.529	12.45
293.744	6.73
293.959	7.94
294.175	5.59
294.39	21.28
294.605	18.17
294.821	14.88
295.036	16.03
295.251	21.11
295.467	15.78
295.682	23.13
295.897	15.28
296.112	20.43
296.328	23.94
296.543	16.57
296.758	20.39
296.973	21.6
297.188	20.36
297.404	21.49
297.619	26.41
297.834	30.37
298.049	30.1
298.264	22.43
298.479	17.72
298.694	22.8
298.909	14.32
299.125	14.1
299.34	9.47
299.555	13.08
299.77	10.4
299.985	8.42
300.2	0.22
300.415	12.35
300.63	2.3
300.845	12.92
301.06	11.82
301.275	20.98
301.49	31.42
301.704	29.81
301.919	20.89
302.134	21.46
302.349	13.23
302.564	3.14
302.779	-6.04
302.994	-9.35
303.209	-1.46
303.423	14.67
303.638	30.71
303.853	25.81
304.068	36.16
304.283	36.26
304.497	37.07
304.712	36.3
304.927	23.36
305.142	21.99
305.356	26.79
305.571	29.25
305.786	27.66
306	24.97
306.215	21.88
306.43	29.51
306.644	32.95
306.859	39.47
307.074	33.82
307.288	37.39
307.503	33.36
307.717	32.91
307.932	37.65
308.147	28.42
308.361	18.52
308.576	18.56
308.79	15.81
309.005	8.47
309.219	15.5
309.434	11.05
309.648	10.85
309.863	13.85
310.077	17.2
310.292	25.44
310.506	48.42
310.72	46.1
310.935	44.37
311.149	38.28
311.364	34.83
311.578	32.69
311.792	24.89
312.007	9.07
312.221	8.87
312.435	11.34
312.649	-8.91
312.864	-8.76
313.078	-2.92
313.292	5.35
313.507	21.78
313.721	20.15
313.935	30.28
314.149	42.32
314.363	45.68
314.578	66.05
314.792	60.13
315.006	53.04
315.22	61.21
315.434	50.7
315.648	52.05
315.862	48.37
316.077	29.57
316.291	37.27
316.505	31.67
316.719	4.51
316.933	13.98
317.147	16.05
317.361	21
317.575	33.95
317.789	36.11
318.003	36.63
318.217	51.05
318.431	45.38
318.645	45.7
318.859	26.9
319.073	17.25
319.287	12.25
319.5	11.34
319.714	7.13
319.928	11.94
320.142	17.24
320.356	36.87
320.57	38.41
320.784	39.44
320.997	46.22
321.211	45.82
321.425	27.79
321.639	22.77
321.853	10.78
322.066	6.34
322.28	12.43
322.494	7.18
322.707	6.71
322.921	19.07
323.135	18.68
323.349	25.19
323.562	28.94
323.776	17.12
323.989	15.95
324.203	18.03
324.417	9.66
324.63	2.92
324.844	-8.88
325.057	0.02
325.271	-4.02
325.485	8.74
325.698	0.37
325.912	22
326.125	32.49
326.339	37.15
326.552	30.75
326.766	41.11
326.979	34.91
327.193	45.17
327.406	31.78
327.619	15.63
327.833	17.87
328.046	8.02
328.26	4.85
328.473	0.96
328.686	3.41
328.9	-6.83
329.113	0.83
329.326	13.68
329.54	14.29
329.753	18.36
329.966	25.93
330.179	28.03
330.393	34.99
330.606	36.72
330.819	33.75
331.032	38.77
331.246	24.15
331.459	20.31
331.672	15.38
331.885	14.73
332.098	25.96
332.311	1.97
332.525	8.8
332.738	24.73
332.951	25.44
333.164	21.89
333.377	13.02
333.59	4.65
333.803	21.1
334.016	16.37
334.229	9.91
334.442	14.46
334.655	24.62
334.868	34.86
335.081	38.69
335.294	34.84
335.507	34.61
335.72	21.52
335.933	21.44
336.146	16.13
336.359	15.5
336.572	5.94
336.785	9.74
336.997	4.17
337.21	13
337.423	10.77
337.636	10.35
337.849	5.87
338.062	14.79
338.274	12.62
338.487	15.56
338.7	17.33
338.913	10.09
339.125	6.54
339.338	17.41
339.551	16.85
339.763	17.52
339.976	20.49
340.189	13.54
340.402	15.78
340.614	21.09
340.827	7.94
341.039	7.33
341.252	14.14
341.465	0.71
341.677	-2.16
341.89	1.42
342.102	4.56
342.315	13.59
342.527	4.17
342.74	-9.37
342.952	2.67
343.165	12.9
343.377	11.82
343.59	14.53
343.802	17.37
344.015	23.2
344.227	23.25
344.44	19.27
344.652	28.86
344.864	31.46
345.077	23.84
345.289	18.68
345.502	25.63
345.714	22.22
345.926	26.14
346.139	13.74
346.351	2.4
346.563	8.8
346.775	3.7
346.988	2.45
347.2	15.95
347.412	18.19
347.624	20.96
347.837	24.57
348.049	24.56
348.261	28.72
348.473	20.58
348.685	20.45
348.897	20.9
349.11	19.55
349.322	17.5
349.534	13.74
349.746	16.12
349.958	25.01
350.17	16.99
350.382	9.46
350.594	11.94
350.806	24.3
351.018	36.28
351.23	37.79
351.442	32.36
351.654	37.31
351.866	48.47
352.078	45.22
352.29	40.94
352.502	33.78
352.714	28.83
352.926	28.19
353.138	23.83
353.35	9.71
353.561	7.83
353.773	9.12
353.985	10.79
354.197	6.32
354.409	15.17
354.621	18.38
354.832	9.69
355.044	18.47
355.256	10.78
355.468	6.49
355.679	10.3
355.891	5.22
356.103	0.15
356.314	12.45
356.526	5.36
356.738	10.8
356.949	9.48
357.161	15.6
357.373	16.47
357.584	30.81
357.796	26.52
358.008	22.54
358.219	30.04
358.431	36.67
358.642	24.55
358.854	25.63
359.065	10.24
359.277	12.67
359.488	11.87
359.7	10.88
359.911	11.12
360.123	23.93
360.334	22.95
360.546	21.8
360.757	23.48
360.969	36.47
361.18	25.37
361.391	21.53
361.603	24.94
361.814	23.65
362.025	31.39
362.237	32
362.448	24.01
362.659	24.36
362.871	27.26
363.082	26.36
363.293	31.76
363.504	23.89
363.716	17.96
363.927	19.78
364.138	25.87
364.349	26.7
364.56	16.73
364.772	11.44
364.983	13.52
365.194	14.95
365.405	6.68
365.616	-1.54
365.827	-12.94
366.038	3.74
366.25	2.21
366.461	5.77
366.672	5.68
366.883	18.23
367.094	20.64
367.305	22.75
367.516	11.24
367.727	12.41
367.938	12.42
368.149	9.96
368.36	9.64
368.571	13.76
368.781	10.46
368.992	12.84
369.203	10.72
369.414	7.38
369.625	16.96
369.836	10.45
370.047	6.41
370.258	5.02
370.468	-4.79
370.679	-3.27
370.89	13.8
371.101	-2.29
371.312	-4.2
371.522	-0.41
371.733	-3.78
371.944	5.34
372.155	-5.4
372.365	-21.57
372.576	-11.02
372.787	-5.12
372.997	-8.46
373.208	2.14
373.419	2.66
373.629	10.44
373.84	7.91
374.05	10.15
374.261	1.4
374.472	-0.96
374.682	-3.2
374.893	-8.01
375.103	-4.99
375.314	-3.08
375.524	4.27
375.735	10.7
375.945	10.55
376.156	17.66
376.366	21.97
376.577	23.94
376.787	31.57
376.997	24.57
377.208	19.22
377.418	21.11
377.629	14.34
377.839	19.51
378.049	25.98
378.26	23.14
378.47	26.16
378.68	25.75
378.89	23.45
379.101	17.38
379.311	10.11
379.521	11.18
379.732	5.11
379.942	9.14
380.152	17.45
380.362	18.76
380.572	28.51
380.783	27.89
380.993	24.42
381.203	26.3
381.413	19.58
381.623	15.86
381.833	15
382.043	8.77
382.253	11.6
382.463	12.16
382.674	11.48
382.884	13.64
383.094	14.33
383.304	12.63
383.514	20.42
383.724	14.66
383.934	10.34
384.144	14.55
384.353	15.9
384.563	14.13
384.773	15.85
384.983	11.09
385.193	15.91
385.403	20.14
385.613	13.36
385.823	8.19
386.033	8.55
386.242	7.73
386.452	7.93
386.662	7.02
386.872	4.96
387.082	6.15
387.291	7.5
387.501	8.56
387.711	10.32
387.921	7.07
388.13	7.19
388.34	7.12
388.55	10.41
388.759	9.48
388.969	6.5
389.179	8.57
389.388	8.72
389.598	5.35
389.807	2.74
390.017	1.41
390.227	1.37
390.436	4.15
390.646	2.53
390.855	4.16
391.065	6.73
391.274	7.14
391.484	6.17
391.693	8.4
391.903	5.35
392.112	4.03
392.322	4.79
392.531	4.47
392.74	2.87
392.95	4.01
393.159	3.32
393.369	4.33
393.578	4.92
393.787	4.45
393.997	4.9
394.206	6.19
394.415	5.43
394.625	4.41
394.834	4.15
395.043	4.08
395.252	3.86
395.462	3.95
395.671	4.41
395.88	4.29
396.089	4.8
396.298	4.89
396.508	4.74
396.717	4.44
396.926	3.62
397.135	3.09
397.344	3.23
397.553	3.32
397.762	3.25
397.971	2.91
398.181	2.65
398.39	2.98
398.599	3.32
398.808	3.29
399.017	3.31
399.226	3.53
399.435	3.61
399.644	3.73
399.853	3.79
400.062	3.63
400.27	3.64
400.479	3.56
400.688	3.62
400.897	3.89
401.106	3.98
401.315	3.73
401.524	3.91
401.733	4.15
401.941	4.17
402.15	3.96
402.359	3.93
402.568	3.96
402.777	4.09
402.985	3.99
403.194	3.71
403.403	3.4
403.612	3.43
403.82	3.35
404.029	3.29
404.238	3.29
404.446	3.19
404.655	3.11
404.864	3.2
405.072	3.28
405.281	3.13
405.489	3.11
405.698	3.04
405.906	3.05
406.115	3.15
406.324	3.14
406.532	3.08
406.741	3.13
406.949	3.08
407.158	3.18
407.366	3.29
407.574	3.3
407.783	3.32
407.991	3.21
408.2	3.16
408.408	3.18
408.617	3.07
408.825	2.93
409.033	2.84
409.242	2.83
409.45	2.82
409.658	2.87
409.867	2.83
410.075	2.74
410.283	2.68
410.491	2.68
410.7	2.7
410.908	2.72
411.116	2.65
411.324	2.68
411.533	2.65
411.741	2.68
411.949	2.72
412.157	2.66
412.365	2.67
412.573	2.72
412.781	2.71
412.99	2.83
413.198	2.86
413.406	2.78
413.614	2.83
413.822	2.79
414.03	2.66
414.238	2.72
414.446	2.57
414.654	2.52
414.862	2.53
415.07	2.64
415.278	2.59
415.486	2.79
415.694	2.65
415.902	2.74
416.109	2.78
416.317	2.72
416.525	2.58
416.733	2.66
416.941	2.57
417.149	2.7
417.357	2.68
417.564	2.73
417.772	2.82
417.98	2.78
418.188	2.66
418.395	2.65
418.603	2.44
418.811	2.39
419.019	2.3
419.226	2.4
419.434	2.39
419.642	2.41
419.849	2.36
420.057	2.48
420.265	2.45
420.472	2.44
420.68	2.27
420.887	2.31
421.095	2.43
421.302	2.54
421.51	2.65
421.717	2.69
421.925	2.67
422.132	2.63
422.34	2.56
422.547	2.44
422.755	2.31
422.962	2.09
423.17	2.06
423.377	2.18
423.585	2.21
423.792	2.24
423.999	2.3
424.207	2.23
424.414	2.28
424.621	2.34
424.829	2.18
425.036	2.17
425.243	2.25
425.451	2.28
425.658	2.38
425.865	2.35
426.072	2.43
426.28	2.5
426.487	2.49
426.694	2.39
426.901	2.29
427.108	2.29
427.315	2.37
427.523	2.36
427.73	2.36
427.937	2.39
428.144	2.48
428.351	2.57
428.558	2.58
428.765	2.53
428.972	2.44
429.179	2.38
429.386	2.44
429.593	2.35
429.8	2.4
430.007	2.47
430.214	2.52
430.421	2.5
430.628	2.44
430.835	2.39
431.042	2.42
431.249	2.35
431.456	2.4
431.662	2.4
431.869	2.51
432.076	2.61
432.283	2.63
432.49	2.61
432.697	2.59
432.903	2.57
433.11	2.62
433.317	2.62
433.524	2.57
433.73	2.56
433.937	2.57
434.144	2.69
434.35	2.73
434.557	2.69
434.764	2.64
434.97	2.77
435.177	2.74
435.384	2.85
435.59	2.76
435.797	2.79
436.003	2.75
436.21	2.78
436.416	2.75
436.623	2.81
436.829	2.79
437.036	2.88
437.242	2.82
437.449	2.94
437.655	2.93
437.862	2.93
438.068	3
438.275	3.03
438.481	3.05
438.687	3.15
438.894	3.1
439.1	3.19
439.307	3.2
439.513	3.14
439.719	3.15
439.926	3.17
440.132	3.14
440.338	3.19
440.544	3.13
440.751	3.17
440.957	3.19
441.163	3.24
441.369	3.2
441.575	3.21
441.782	3.18
441.988	3.24
442.194	3.28
442.4	3.35
442.606	3.31
442.812	3.35
443.018	3.38
443.224	3.41
443.431	3.41
443.637	3.39
443.843	3.37
444.049	3.37
444.255	3.34
444.461	3.29
444.667	3.3
444.873	3.27
445.079	3.32
445.284	3.28
445.49	3.29
445.696	3.33
445.902	3.4
446.108	3.42
446.314	3.48
446.52	3.48
446.726	3.55
446.931	3.57
447.137	3.6
447.343	3.59
447.549	3.57
447.755	3.53
447.96	3.48
448.166	3.51
448.372	3.54
448.578	3.53
448.783	3.56
448.989	3.6
449.195	3.65
449.4	3.7
449.606	3.68
449.812	3.71
450.017	3.74
450.223	3.72
450.428	3.79
450.634	3.82
450.84	3.83
451.045	3.85
451.251	3.86
451.456	3.87
451.662	3.89
451.867	3.85
452.073	3.83
452.278	3.84
452.483	3.83
452.689	3.85
452.894	3.87
453.1	3.83
453.305	3.84
453.51	3.87
453.716	3.88
453.921	3.91
454.127	3.86
454.332	3.86
454.537	3.99
454.742	3.99
454.948	3.95
455.153	4
455.358	4.05
455.563	4.09
455.769	4.09
455.974	4.01
456.179	3.95
456.384	3.96
456.589	3.98
456.795	3.91
457	3.92
457.205	3.89
457.41	3.92
457.615	4.03
457.82	4.1
458.025	4.11
458.23	4.14
458.435	4.1
458.64	4.19
458.845	4.16
459.05	4.13
459.255	4.1
459.46	4.08
459.665	4.15
459.87	4.18
460.075	4.12
460.28	4.18
460.485	4.23
460.69	4.19
460.895	4.23
461.099	4.19
461.304	4.24
461.509	4.19
461.714	4.18
461.919	4.15
462.123	4.21
462.328	4.16
462.533	4.2
462.738	4.21
462.942	4.28
463.147	4.32
463.352	4.38
463.556	4.42
463.761	4.49
463.966	4.54
464.17	4.58
464.375	4.61
464.58	4.63
464.784	4.63
464.989	4.63
465.193	4.61
465.398	4.65
465.602	4.63
465.807	4.67
466.011	4.66
466.216	4.67
466.42	4.72
466.625	4.78
466.829	4.74
467.034	4.8
467.238	4.88
467.443	4.93
467.647	4.96
467.851	4.96
468.056	4.94
468.26	4.95
468.464	4.94
468.669	4.87
468.873	4.85
469.077	4.87
469.282	4.91
469.486	4.99
469.69	5.04
469.894	5.08
470.099	5.09
470.303	5.13
