Data from Ofra_2a_PS_1GT43_Reflection_1.txt Node
Date: Tue Jul 20 09:36:26 EDT 2021
User: Adam
Spectrometer: FLMT01687
Trigger mode: 0
Integration Time (sec): 9.450000E-1
Scans to average: 3
Electric dark correction enabled: true
Nonlinearity correction enabled: false
Boxcar width: 3
XAxis mode: Wavelengths
Number of Pixels in Spectrum: 3648
>>>>>Begin Spectral Data<<<<<
179.494	771.6
179.716	493.13
179.937	493.41
180.158	1650.78
180.38	-823.84
180.601	-202.04
180.823	-72.47
181.044	-34.86
181.265	-161
181.486	-10.63
181.708	-1267.39
181.929	-82.56
182.15	-185.23
182.372	19.68
182.593	-14.21
182.814	570.96
183.035	313.43
183.257	120.3
183.478	99.02
183.699	104.03
183.92	83.01
184.141	85.12
184.363	61.42
184.584	49.75
184.805	64.88
185.026	65.67
185.247	51.93
185.468	43.57
185.689	49.56
185.91	43.74
186.132	55.99
186.353	21.97
186.574	23.13
186.795	5.58
187.016	10.08
187.237	-7.81
187.458	-5.07
187.679	-27.75
187.9	8.69
188.121	33.45
188.342	67.58
188.563	62.47
188.784	78.64
189.005	70.51
189.226	77.31
189.447	70.26
189.667	53.81
189.888	46.01
190.109	54.06
190.33	22.53
190.551	22.72
190.772	15.92
190.993	19.42
191.214	23.29
191.434	15.06
191.655	16.56
191.876	35.81
192.097	28.55
192.318	32.15
192.538	37.44
192.759	35.25
192.98	31.88
193.201	38.82
193.421	41.19
193.642	56.9
193.863	65.25
194.083	46.42
194.304	43.81
194.525	59.91
194.745	45.28
194.966	42.79
195.187	47.75
195.407	45.03
195.628	48.28
195.848	59.4
196.069	59.81
196.29	60.05
196.51	49.71
196.731	39.56
196.951	37.4
197.172	34.39
197.392	26.72
197.613	24.26
197.833	20.01
198.054	27.05
198.274	16.32
198.495	18.15
198.715	8.74
198.936	-8.49
199.156	-5.83
199.377	13.59
199.597	10.11
199.817	16.45
200.038	23.61
200.258	30.58
200.479	48
200.699	47.88
200.919	33.6
201.14	33.76
201.36	50.28
201.58	49.73
201.801	56.42
202.021	52.93
202.241	56.2
202.461	60.82
202.682	67.7
202.902	54.6
203.122	46.67
203.342	54.04
203.563	54.54
203.783	55.71
204.003	54.71
204.223	59.2
204.443	62.51
204.663	68.72
204.884	52.96
205.104	55.07
205.324	52.59
205.544	45.59
205.764	49.35
205.984	58.83
206.204	55.06
206.424	57.55
206.644	47.73
206.864	46.72
207.084	60.33
207.304	48.95
207.525	40.75
207.745	42.72
207.964	56.6
208.184	58.07
208.404	46.94
208.624	16.84
208.844	12.02
209.064	17.28
209.284	16.37
209.504	14.56
209.724	-3.05
209.944	-0.66
210.164	16.95
210.384	23.3
210.604	9.48
210.823	5.58
211.043	0.94
211.263	32.35
211.483	31.78
211.703	35.4
211.922	38.03
212.142	46.77
212.362	49.86
212.582	50.58
212.801	35.38
213.021	37.54
213.241	32.77
213.461	27.52
213.68	22.82
213.9	32.19
214.12	28.76
214.339	29.55
214.559	41.82
214.779	48.55
214.998	48.02
215.218	45.34
215.438	48.29
215.657	45.56
215.877	47.49
216.096	45.94
216.316	47.28
216.535	47.87
216.755	41.01
216.974	32.38
217.194	39.04
217.413	39.12
217.633	43.56
217.852	37.17
218.072	37.42
218.291	50.52
218.511	43.71
218.73	41.37
218.95	37.29
219.169	25.61
219.389	25.49
219.608	32.07
219.827	19.67
220.047	32.08
220.266	33.37
220.485	38.53
220.705	31.06
220.924	41.31
221.143	37.23
221.363	41.99
221.582	33.39
221.801	39.3
222.021	36.95
222.24	35.5
222.459	17.14
222.678	7.06
222.897	8.25
223.117	19.3
223.336	18.71
223.555	20.48
223.774	42.89
223.993	65.41
224.213	58.2
224.432	60.56
224.651	59.35
224.87	51.71
225.089	58.83
225.308	42.64
225.527	29.25
225.746	30.31
225.965	36.75
226.184	30.02
226.404	20.83
226.623	5.61
226.842	11.29
227.061	10.92
227.28	24.71
227.499	35.16
227.718	35.04
227.936	30.74
228.155	33.6
228.374	38.35
228.593	40.11
228.812	35.3
229.031	21.74
229.25	23.07
229.469	33.36
229.688	31.2
229.907	26.8
230.125	34.33
230.344	37.38
230.563	50.41
230.782	45.8
231.001	45.96
231.22	51.48
231.438	44.33
231.657	43.7
231.876	40.6
232.095	25.15
232.313	30.21
232.532	22.18
232.751	26.76
232.969	36.56
233.188	31.56
233.407	32.27
233.625	37.86
233.844	39.76
234.063	43.1
234.281	28.91
234.5	23.15
234.719	15.99
234.937	15.26
235.156	7.84
235.374	0.97
235.593	8.24
235.811	8.06
236.03	13.27
236.249	31.72
236.467	26.58
236.686	50.24
236.904	37.13
237.123	31.49
237.341	37.2
237.559	30.91
237.778	27.16
237.996	33.03
238.215	24.35
238.433	38.96
238.652	40.78
238.87	38.38
239.088	27.63
239.307	26.22
239.525	22.67
239.743	16.81
239.962	12.68
240.18	15.73
240.398	17.56
240.617	38.04
240.835	44.43
241.053	46.36
241.271	50.04
241.49	42.21
241.708	39.05
241.926	27
242.144	15.22
242.363	14.05
242.581	5.86
242.799	-1.25
243.017	-0.72
243.235	-5.09
243.453	13
243.672	9.17
243.89	2.17
244.108	13.94
244.326	12.51
244.544	22.73
244.762	22.11
244.98	17.66
245.198	14
245.416	19.04
245.634	23.3
245.852	33.64
246.07	38.14
246.288	44.68
246.506	44.96
246.724	48.67
246.942	52.25
247.16	33.06
247.378	22.4
247.596	17.78
247.814	13.02
248.032	10.29
248.25	9.04
248.468	1.62
248.685	26.79
248.903	32.8
249.121	37.61
249.339	37.63
249.557	43.24
249.775	38.33
249.992	37.42
250.21	23.56
250.428	19.72
250.646	22.38
250.863	25.84
251.081	19.99
251.299	40.99
251.517	50.5
251.734	44.86
251.952	52.36
252.17	43.19
252.387	44.2
252.605	43.8
252.823	31.04
253.04	18.59
253.258	39.79
253.475	28.14
253.693	36.85
253.911	36.98
254.128	31.4
254.346	22.28
254.563	24.19
254.781	20.16
254.998	21.92
255.216	15.35
255.433	15.09
255.651	11.69
255.868	17.13
256.086	14.37
256.303	13.56
256.521	2.73
256.738	0.91
256.956	0.09
257.173	15.59
257.39	24.17
257.608	29.16
257.825	19.72
258.043	36.97
258.26	38.2
258.477	38.85
258.695	46.31
258.912	54.85
259.129	48.49
259.346	49.54
259.564	32.45
259.781	41.74
259.998	28.7
260.216	33.9
260.433	30.97
260.65	38.83
260.867	37.4
261.084	44.88
261.302	38.34
261.519	37.29
261.736	22.41
261.953	16.38
262.17	24.55
262.387	32.98
262.604	29.46
262.822	29.35
263.039	39.35
263.256	33.18
263.473	24
263.69	13.76
263.907	13.61
264.124	3.08
264.341	-6.46
264.558	-0.09
264.775	3.86
264.992	15.82
265.209	25.46
265.426	17.79
265.643	27.06
265.86	33.55
266.077	33.48
266.294	34.4
266.51	29.04
266.727	11.33
266.944	-24.42
267.161	-22.91
267.378	-32.88
267.595	-28.76
267.812	-44.54
268.028	-38.95
268.245	-24.21
268.462	13.27
268.679	7.4
268.896	1.71
269.112	6.29
269.329	17.72
269.546	11.93
269.763	17.05
269.979	15.8
270.196	20.64
270.413	32.05
270.629	27.14
270.846	23.12
271.063	26.32
271.279	24.89
271.496	23.07
271.712	25.37
271.929	18.53
272.146	19.65
272.362	11.62
272.579	12.07
272.795	11.94
273.012	10.49
273.228	5.79
273.445	14.3
273.661	13.76
273.878	18.64
274.094	16.62
274.311	15.38
274.527	18.69
274.744	10.11
274.96	6.19
275.177	16.56
275.393	20.68
275.609	29.08
275.826	37.39
276.042	55.27
276.259	53.57
276.475	43.52
276.691	37.48
276.908	33.45
277.124	28.93
277.34	19.84
277.557	8.01
277.773	17.02
277.989	11.81
278.205	-0.6
278.422	12.34
278.638	16.91
278.854	15.88
279.07	8.9
279.286	14.54
279.503	33.48
279.719	37.14
279.935	11.99
280.151	15.68
280.367	19
280.583	23.81
280.799	21.65
281.016	16.72
281.232	11.32
281.448	20.95
281.664	22.39
281.88	16.51
282.096	21.43
282.312	3.23
282.528	-4.52
282.744	4.29
282.96	10
283.176	18.46
283.392	21.75
283.608	24.37
283.824	34.23
284.04	35.62
284.256	30.75
284.471	31.63
284.687	21.84
284.903	26.49
285.119	2.63
285.335	7.68
285.551	19.51
285.767	26.38
285.982	17.28
286.198	11.98
286.414	10.14
286.63	25.88
286.846	23.15
287.061	24.9
287.277	28.96
287.493	35.07
287.709	42.92
287.924	48.05
288.14	56.62
288.356	70.18
288.571	54.19
288.787	51.6
289.003	56.96
289.218	49.42
289.434	50.48
289.65	48.34
289.865	43.85
290.081	49.24
290.296	43.83
290.512	45.83
290.727	54.4
290.943	45.22
291.159	35.34
291.374	34.2
291.59	25.7
291.805	27.25
292.021	14.09
292.236	8.37
292.451	15.02
292.667	27.79
292.882	24.17
293.098	30.47
293.313	25.92
293.529	31.23
293.744	30.64
293.959	39.04
294.175	26.23
294.39	42.29
294.605	36.09
294.821	34.07
295.036	40.56
295.251	35.49
295.467	21.99
295.682	26.85
295.897	18.14
296.112	25.96
296.328	31.26
296.543	12.33
296.758	22.92
296.973	28.68
297.188	32.75
297.404	30.1
297.619	19.39
297.834	24.78
298.049	35.25
298.264	26.87
298.479	21.38
298.694	25.05
298.909	29.31
299.125	30.29
299.34	23.41
299.555	29.15
299.77	36.42
299.985	35.79
300.2	35.45
300.415	29.46
300.63	35.46
300.845	41.55
301.06	38.79
301.275	40.92
301.49	43.33
301.704	36.15
301.919	36.17
302.134	24.93
302.349	20.88
302.564	14.11
302.779	5.96
302.994	1.78
303.209	0.62
303.423	8.25
303.638	16.2
303.853	18.1
304.068	26.37
304.283	23.5
304.497	32.57
304.712	43.9
304.927	35.38
305.142	36.84
305.356	36.54
305.571	37.01
305.786	38.79
306	33.23
306.215	20.46
306.43	35.14
306.644	33.64
306.859	41.61
307.074	37.6
307.288	38.5
307.503	39.46
307.717	36.46
307.932	30.74
308.147	23.41
308.361	23.15
308.576	27.48
308.79	23.96
309.005	17.54
309.219	22.4
309.434	25.26
309.648	27.72
309.863	21.74
310.077	18.34
310.292	19.7
310.506	40.39
310.72	40.3
310.935	36.7
311.149	39.76
311.364	41.47
311.578	39.24
311.792	39.82
312.007	25.78
312.221	30.97
312.435	32.1
312.649	36.38
312.864	26.36
313.078	24.52
313.292	25.74
313.507	38.19
313.721	37.61
313.935	48.16
314.149	43.01
314.363	47.36
314.578	58.59
314.792	62.69
315.006	60.28
315.22	58.57
315.434	59.44
315.648	55.81
315.862	56.56
316.077	58.15
316.291	56.06
316.505	50.75
316.719	39.74
316.933	37.26
317.147	35.33
317.361	29.24
317.575	17.32
317.789	13.07
318.003	23.93
318.217	28.07
318.431	24.45
318.645	27.33
318.859	20.12
319.073	19.58
319.287	26.94
319.5	23.8
319.714	26.93
319.928	29.8
320.142	27.66
320.356	43.26
320.57	38.99
320.784	28.69
320.997	36.07
321.211	40.42
321.425	28.09
321.639	31.88
321.853	16.27
322.066	21.85
322.28	34.32
322.494	28.22
322.707	22.09
322.921	27.75
323.135	26.13
323.349	30.43
323.562	33.15
323.776	24.48
323.989	19.32
324.203	20.97
324.417	26
324.63	18.58
324.844	21.77
325.057	21.79
325.271	14.13
325.485	18.04
325.698	8.61
325.912	8.08
326.125	20.7
326.339	14.4
326.552	20.58
326.766	34.87
326.979	34.45
327.193	40.51
327.406	31.57
327.619	20.09
327.833	26.61
328.046	7.9
328.26	-4.46
328.473	2.87
328.686	-0.18
328.9	-0.54
329.113	4.03
329.326	13.49
329.54	27.91
329.753	40.12
329.966	36.47
330.179	45.55
330.393	47.3
330.606	48.02
330.819	41.84
331.032	42.01
331.246	35.49
331.459	39.67
331.672	32.7
331.885	32.7
332.098	38.04
332.311	45.27
332.525	37.08
332.738	27.75
332.951	20.45
333.164	19.07
333.377	14.46
333.59	16.6
333.803	9.37
334.016	8.73
334.229	23.88
334.442	30.71
334.655	42.84
334.868	53.17
335.081	56.5
335.294	62.73
335.507	49.5
335.72	43.21
335.933	44.88
336.146	38.96
336.359	33.49
336.572	26.18
336.785	35.8
336.997	40.14
337.21	44.39
337.423	38.4
337.636	38.18
337.849	32.77
338.062	31.31
338.274	15.34
338.487	15.74
338.7	14.96
338.913	19.99
339.125	13.11
339.338	17.38
339.551	21.89
339.763	16.96
339.976	20.1
340.189	21.13
340.402	15.63
340.614	21.18
340.827	6.68
341.039	5.72
341.252	20.84
341.465	13.84
341.677	2.36
341.89	7.22
342.102	7.39
342.315	23.65
342.527	14.19
342.74	8.62
342.952	11.53
343.165	29.22
343.377	27.94
343.59	29.14
343.802	27.08
344.015	32.62
344.227	27.36
344.44	21.29
344.652	21.57
344.864	19.63
345.077	17.16
345.289	13.23
345.502	17.26
345.714	12.29
345.926	12.3
346.139	-2.25
346.351	-9.17
346.563	-8.71
346.775	-13.58
346.988	-13.92
347.2	1.76
347.412	14.65
347.624	19.04
347.837	18.51
348.049	15.83
348.261	20.63
348.473	15.56
348.685	17.82
348.897	5.84
349.11	7.95
349.322	11.98
349.534	20.78
349.746	29.34
349.958	34.92
350.17	28.64
350.382	20.46
350.594	17.94
350.806	19.96
351.018	25.69
351.23	23.21
351.442	21.86
351.654	25.41
351.866	34.7
352.078	33.51
352.29	36.13
352.502	29.76
352.714	25.27
352.926	28.67
353.138	21.1
353.35	18.88
353.561	16.53
353.773	16.91
353.985	20.65
354.197	23.77
354.409	19.64
354.621	23.55
354.832	23.89
355.044	29.28
355.256	21.3
355.468	11.65
355.679	14.69
355.891	16.81
356.103	22.95
356.314	24.23
356.526	29.43
356.738	27.66
356.949	32.06
357.161	30.95
357.373	34.34
357.584	31.23
357.796	27.31
358.008	28.82
358.219	36.84
358.431	36.98
358.642	28.88
358.854	27.26
359.065	27.25
359.277	22.07
359.488	11.91
359.7	14.49
359.911	3.09
360.123	12.83
360.334	12.21
360.546	2.57
360.757	9.37
360.969	14.94
361.18	11.9
361.391	27.31
361.603	31.73
361.814	32.69
362.025	35.8
362.237	40.91
362.448	37.24
362.659	29.2
362.871	28.15
363.082	22.9
363.293	28.03
363.504	29.6
363.716	28.83
363.927	30.98
364.138	38.1
364.349	35.93
364.56	38.39
364.772	33.76
364.983	26.76
365.194	30.26
365.405	28.29
365.616	19.85
365.827	20.56
366.038	23.88
366.25	20.11
366.461	37.88
366.672	29.26
366.883	28.84
367.094	27.48
367.305	23.61
367.516	21.56
367.727	22.74
367.938	13.48
368.149	21.6
368.36	26.46
368.571	34.63
368.781	34.27
368.992	25.91
369.203	27.71
369.414	25.86
369.625	17.96
369.836	15.71
370.047	9.94
370.258	6.88
370.468	13.51
370.679	13.83
370.89	24.57
371.101	22.37
371.312	18.06
371.522	21.16
371.733	16.32
371.944	16.19
372.155	8
372.365	-0.46
372.576	5.51
372.787	7.76
372.997	4.32
373.208	8.07
373.419	11.26
373.629	25.5
373.84	21.28
374.05	25.44
374.261	20.52
374.472	23.5
374.682	25.22
374.893	15.84
375.103	13.16
375.314	15.03
375.524	12.93
375.735	19.38
375.945	22.1
376.156	28.74
376.366	37.21
376.577	34.97
376.787	40.37
376.997	40.53
377.208	35.06
377.418	30.18
377.629	23.85
377.839	21.9
378.049	20.91
378.26	22.16
378.47	27.56
378.68	27.01
378.89	20.82
379.101	17.97
379.311	11.03
379.521	12.26
379.732	1.28
379.942	-3.32
380.152	7.36
380.362	11.97
380.572	21.45
380.783	23.81
380.993	21.72
381.203	25.4
381.413	25.44
381.623	21.29
381.833	20.45
382.043	12.88
382.253	13.47
382.463	22.25
382.674	24.39
382.884	21.01
383.094	21.35
383.304	22.38
383.514	28.92
383.724	23.94
383.934	18.96
384.144	16.72
384.353	16.52
384.563	16.39
384.773	18.56
384.983	12.14
385.193	16.28
385.403	18.5
385.613	19.71
385.823	20.68
386.033	17.81
386.242	16.43
386.452	17.11
386.662	18.93
386.872	11.27
387.082	11.9
387.291	10.18
387.501	13.69
387.711	11.95
387.921	13.24
388.13	8.46
388.34	9.94
388.55	10.14
388.759	11.51
388.969	7.96
389.179	13.18
389.388	10.84
389.598	9.68
389.807	11.26
390.017	10.83
390.227	10.47
390.436	9.51
390.646	7.5
390.855	10.55
391.065	10.84
391.274	8.84
391.484	10.62
391.693	9.25
391.903	10.71
392.112	9.36
392.322	9.21
392.531	9.51
392.74	10.29
392.95	9.26
393.159	10.58
393.369	10.4
393.578	10.16
393.787	9.17
393.997	10.57
394.206	10.06
394.415	8.86
394.625	7.11
394.834	6.49
395.043	7.18
395.252	7.85
395.462	6.74
395.671	7.16
395.88	7.86
396.089	8.44
396.298	8.81
396.508	8.27
396.717	7.27
396.926	7.44
397.135	7.07
397.344	6.77
397.553	6.99
397.762	6.66
397.971	6.78
398.181	6.8
398.39	6.76
398.599	7.01
398.808	7.07
399.017	7.23
399.226	7.32
399.435	7.27
399.644	7.37
399.853	7.18
400.062	6.89
400.27	6.83
400.479	6.77
400.688	6.93
400.897	7.18
401.106	7.38
401.315	7.49
401.524	7.76
401.733	8.04
401.941	7.97
402.15	7.67
402.359	7.47
402.568	7.32
402.777	7.17
402.985	7.04
403.194	6.83
403.403	6.58
403.612	6.69
403.82	6.64
404.029	6.55
404.238	6.77
404.446	6.73
404.655	6.59
404.864	6.61
405.072	6.55
405.281	6.44
405.489	6.46
405.698	6.25
405.906	6.21
406.115	6.34
406.324	6.31
406.532	6.33
406.741	6.44
406.949	6.29
407.158	6.34
407.366	6.31
407.574	6.27
407.783	6.27
407.991	6.16
408.2	6.1
408.408	6.1
408.617	6.08
408.825	6.09
409.033	6.08
409.242	6.04
409.45	6.02
409.658	6.01
409.867	6.03
410.075	5.98
410.283	5.91
410.491	5.93
410.7	5.98
410.908	6.05
411.116	5.96
411.324	6
411.533	5.89
411.741	5.91
411.949	5.91
412.157	5.88
412.365	5.79
412.573	5.85
412.781	5.76
412.99	5.92
413.198	5.91
413.406	5.81
413.614	5.81
413.822	5.78
414.03	5.7
414.238	5.75
414.446	5.7
414.654	5.73
414.862	5.65
415.07	5.61
415.278	5.63
415.486	5.72
415.694	5.67
415.902	5.62
416.109	5.61
416.317	5.64
416.525	5.64
416.733	5.64
416.941	5.52
417.149	5.59
417.357	5.57
417.564	5.56
417.772	5.61
417.98	5.57
418.188	5.49
418.395	5.53
418.603	5.41
418.811	5.32
419.019	5.33
419.226	5.28
419.434	5.29
419.642	5.32
419.849	5.33
420.057	5.35
420.265	5.48
420.472	5.4
420.68	5.43
420.887	5.43
421.095	5.38
421.302	5.4
421.51	5.39
421.717	5.4
421.925	5.28
422.132	5.15
422.34	5.11
422.547	5.1
422.755	5.06
422.962	5.02
423.17	4.95
423.377	5.08
423.585	5.08
423.792	5.1
423.999	5.13
424.207	5.08
424.414	5.19
424.621	5.17
424.829	5.08
425.036	5.1
425.243	5.12
425.451	5.12
425.658	5.21
425.865	5.05
426.072	5.01
426.28	5.04
426.487	5.05
426.694	4.99
426.901	4.93
427.108	4.87
427.315	4.94
427.523	5.02
427.73	5.1
427.937	5.14
428.144	5.17
428.351	5.26
428.558	5.25
428.765	5.25
428.972	5.18
429.179	5.08
429.386	5.12
429.593	5.11
429.8	5.2
430.007	5.24
430.214	5.21
430.421	5.25
430.628	5.19
430.835	5.16
431.042	5.24
431.249	5.14
431.456	5.18
431.662	5.17
431.869	5.28
432.076	5.36
432.283	5.31
432.49	5.26
432.697	5.36
432.903	5.35
433.11	5.42
433.317	5.36
433.524	5.29
433.73	5.32
433.937	5.29
434.144	5.32
434.35	5.29
434.557	5.26
434.764	5.2
434.97	5.35
435.177	5.4
435.384	5.5
435.59	5.42
435.797	5.47
436.003	5.42
436.21	5.45
436.416	5.39
436.623	5.44
436.829	5.37
437.036	5.4
437.242	5.36
437.449	5.47
437.655	5.48
437.862	5.54
438.068	5.51
438.275	5.59
438.481	5.62
438.687	5.71
438.894	5.69
439.1	5.71
439.307	5.69
439.513	5.69
439.719	5.71
439.926	5.77
440.132	5.77
440.338	5.78
440.544	5.77
440.751	5.75
440.957	5.76
441.163	5.78
441.369	5.76
441.575	5.8
441.782	5.8
441.988	5.84
442.194	5.93
442.4	5.95
442.606	5.95
442.812	5.97
443.018	6.01
443.224	6.06
443.431	6.14
443.637	6.09
443.843	6.12
444.049	6.06
444.255	6.01
444.461	5.97
444.667	5.93
444.873	5.82
445.079	5.9
445.284	5.86
445.49	5.88
445.696	5.95
445.902	5.99
446.108	6.02
446.314	6.16
446.52	6.18
446.726	6.27
446.931	6.28
447.137	6.25
447.343	6.24
447.549	6.28
447.755	6.18
447.96	6.14
448.166	6.16
448.372	6.22
448.578	6.27
448.783	6.24
448.989	6.24
449.195	6.29
449.4	6.3
449.606	6.25
449.812	6.28
450.017	6.23
450.223	6.25
450.428	6.28
450.634	6.35
450.84	6.39
451.045	6.38
451.251	6.41
451.456	6.38
451.662	6.39
451.867	6.38
452.073	6.33
452.278	6.25
452.483	6.28
452.689	6.23
452.894	6.26
453.1	6.25
453.305	6.22
453.51	6.24
453.716	6.3
453.921	6.3
454.127	6.3
454.332	6.35
454.537	6.42
454.742	6.41
454.948	6.33
455.153	6.34
455.358	6.42
455.563	6.45
455.769	6.43
455.974	6.34
456.179	6.37
456.384	6.46
456.589	6.52
456.795	6.41
457	6.41
457.205	6.42
457.41	6.53
457.615	6.55
457.82	6.58
458.025	6.56
458.23	6.61
458.435	6.6
458.64	6.67
458.845	6.63
459.05	6.69
459.255	6.6
459.46	6.56
459.665	6.6
459.87	6.6
460.075	6.56
460.28	6.59
460.485	6.57
460.69	6.61
460.895	6.63
461.099	6.66
461.304	6.67
461.509	6.6
461.714	6.62
461.919	6.64
462.123	6.69
462.328	6.7
462.533	6.71
462.738	6.74
462.942	6.84
463.147	6.84
463.352	6.87
463.556	6.89
463.761	6.91
463.966	6.92
464.17	6.94
464.375	6.91
464.58	6.89
464.784	6.89
464.989	6.91
465.193	6.92
465.398	6.92
465.602	6.98
465.807	6.98
466.011	7.05
466.216	7.05
466.42	7.08
466.625	7.13
466.829	7.17
467.034	7.19
467.238	7.26
467.443	7.26
467.647	7.31
467.851	7.31
468.056	7.29
468.26	7.27
468.464	7.27
468.669	7.3
