Data from Ofra_PS_T2_1A_0GT14_Reflection_1.txt Node
Date: Wed Jul 21 17:44:37 EDT 2021
User: Adam
Spectrometer: FLMT01687
Trigger mode: 0
Integration Time (sec): 1.100000E0
Scans to average: 2
Electric dark correction enabled: true
Nonlinearity correction enabled: false
Boxcar width: 2
XAxis mode: Wavelengths
Number of Pixels in Spectrum: 3648
>>>>>Begin Spectral Data<<<<<
179.494	504.6
179.716	605.65
179.937	574.14
180.158	595.69
180.38	921.09
180.601	351.8
180.823	112.21
181.044	-28.08
181.265	53.49
181.486	56.5
181.708	109.64
181.929	442.35
182.15	-220.77
182.372	163.94
182.593	34.23
182.814	37.05
183.035	90.65
183.257	78.7
183.478	-0.16
183.699	105.23
183.92	52.14
184.141	39.88
184.363	-11.09
184.584	47.47
184.805	13.48
185.026	68.21
185.247	79.04
185.468	53.04
185.689	50.62
185.91	71.71
186.132	44.05
186.353	33.85
186.574	93.22
186.795	65.63
187.016	-9.83
187.237	-16.33
187.458	-53.43
187.679	-54.76
187.9	-26.31
188.121	8.27
188.342	56.66
188.563	63.42
188.784	113.55
189.005	97.05
189.226	128.47
189.447	80.39
189.667	-10.56
189.888	-285.59
190.109	-1286.69
190.33	-724.35
190.551	-1259.07
190.772	-288.56
190.993	-246.48
191.214	-146.23
191.434	-109.41
191.655	-33.96
191.876	-97.11
192.097	-128.1
192.318	-212.24
192.538	-269.43
192.759	-165.77
192.98	-26.04
193.201	27.72
193.421	25.32
193.642	38.38
193.863	52.36
194.083	25.31
194.304	2.09
194.525	3.2
194.745	-57.94
194.966	-107.69
195.187	-104
195.407	-162.24
195.628	-201.74
195.848	-139.82
196.069	-128.37
196.29	-51.58
196.51	-29.45
196.731	-16.61
196.951	-33.34
197.172	-33.47
197.392	-110.44
197.613	-122.51
197.833	-145.32
198.054	-126.61
198.274	-76.44
198.495	-70.36
198.715	-39.68
198.936	-54.39
199.156	-36.9
199.377	-92.26
199.597	-111.4
199.817	-155.78
200.038	-86.48
200.258	-151.49
200.479	-97.02
200.699	-69.57
200.919	22.33
201.14	-24.68
201.36	-20.11
201.58	34.63
201.801	53.4
202.021	33.56
202.241	44.27
202.461	39.09
202.682	-46.6
202.902	-124.57
203.122	-83.87
203.342	-69.21
203.563	-24.01
203.783	0.36
204.003	-30.32
204.223	-21.19
204.443	49.29
204.663	45.24
204.884	38.75
205.104	68.44
205.324	94.03
205.544	68.35
205.764	55.2
205.984	52.3
206.204	52.54
206.424	36.67
206.644	-7.02
206.864	6.54
207.084	-5.9
207.304	34.93
207.525	-39.61
207.745	-10.83
207.964	34.02
208.184	-20.97
208.404	-74.49
208.624	-71.2
208.844	-68.3
209.064	-358.93
209.284	-375.58
209.504	-145.92
209.724	-25.43
209.944	-1.98
210.164	23.09
210.384	35.68
210.604	6.42
210.823	-32.99
211.043	-54.03
211.263	-30.16
211.483	-30.12
211.703	-73.46
211.922	-43.24
212.142	23.68
212.362	50.88
212.582	33.89
212.801	54.79
213.021	18.98
213.241	-10.74
213.461	-50.1
213.68	-74.5
213.9	-59.69
214.12	-35.06
214.339	-95.25
214.559	-79.64
214.779	-15.85
214.998	-6.79
215.218	-61.86
215.438	-20.13
215.657	-16.98
215.877	-35.02
216.096	-7.33
216.316	14.64
216.535	11.43
216.755	-10.52
216.974	-93.29
217.194	-178.77
217.413	-161.31
217.633	-183.28
217.852	-270.78
218.072	-99.58
218.291	-32.58
218.511	10.72
218.73	14.82
218.95	7.44
219.169	-4.19
219.389	-50.8
219.608	-40.93
219.827	-29.59
220.047	-0.27
220.266	12.97
220.485	1.33
220.705	-7.28
220.924	-43.6
221.143	-12.16
221.363	-41.47
221.582	4.55
221.801	34.21
222.021	54.27
222.24	22.94
222.459	100.04
222.678	26.92
222.897	-75.59
223.117	-100.81
223.336	-69.42
223.555	-33.82
223.774	8.46
223.993	34.07
224.213	90.54
224.432	81.22
224.651	78.85
224.87	42.19
225.089	59.44
225.308	44.82
225.527	51.4
225.746	41.31
225.965	33.24
226.184	12.45
226.404	18.24
226.623	-4.45
226.842	6.38
227.061	26.21
227.28	28.55
227.499	24.75
227.718	43.35
227.936	36.7
228.155	48.47
228.374	25.07
228.593	20.44
228.812	10.85
229.031	-3.6
229.25	-57.89
229.469	-56.45
229.688	-30.44
229.907	-10.11
230.125	12.62
230.344	18.4
230.563	41.45
230.782	35.51
231.001	-39.53
231.22	-29.45
231.438	10.84
231.657	1.65
231.876	-28.39
232.095	33.93
232.313	19.06
232.532	8.9
232.751	-18.98
232.969	-4.25
233.188	-89.77
233.407	-0.09
233.625	-5.72
233.844	-20.14
234.063	2.08
234.281	23.29
234.5	-0.05
234.719	7.9
234.937	36.25
235.156	31.26
235.374	34.84
235.593	27.22
235.811	18.99
236.03	7.96
236.249	-48.2
236.467	-58.68
236.686	-3.74
236.904	7.25
237.123	-22.64
237.341	-1.5
237.559	3.44
237.778	-13.11
237.996	-30.11
238.215	11.98
238.433	12.47
238.652	22.72
238.87	-13.12
239.088	-10.92
239.307	5.54
239.525	12.19
239.743	-25.02
239.962	23.47
240.18	7.73
240.398	-64.77
240.617	-97.06
240.835	-75.36
241.053	-80.15
241.271	-18.47
241.49	28.23
241.708	36.92
241.926	21.47
242.144	23.44
242.363	-46.53
242.581	-74.31
242.799	-26.85
243.017	21.01
243.235	-0.84
243.453	4.9
243.672	-6.02
243.89	-17.88
244.108	-35.78
244.326	-16.18
244.544	-8.16
244.762	-18.78
244.98	-0.27
245.198	-3.37
245.416	-24.12
245.634	-36.33
245.852	-23.34
246.07	-41.48
246.288	-48.44
246.506	-95.49
246.724	-41.21
246.942	-51.32
247.16	-4.25
247.378	1.95
247.596	35.6
247.814	10.3
248.032	0.17
248.25	-23.27
248.468	-4.68
248.685	-1.93
248.903	25.54
249.121	19.68
249.339	-12.18
249.557	-35.53
249.775	-13.28
249.992	-73.76
250.21	-51.75
250.428	-24.72
250.646	-47.93
250.863	-66.91
251.081	-46.9
251.299	-36.13
251.517	-20.88
251.734	-10.59
251.952	-23.1
252.17	-16.05
252.387	-9.5
252.605	-28.23
252.823	-15.18
253.04	6.25
253.258	24.81
253.475	15.96
253.693	52.62
253.911	47.76
254.128	40.97
254.346	34.76
254.563	13.36
254.781	-30.28
254.998	-50.47
255.216	-39.37
255.433	-19.98
255.651	35.16
255.868	75.93
256.086	98.41
256.303	79.54
256.521	59.63
256.738	30.28
256.956	-5.33
257.173	-34.16
257.39	-49.23
257.608	-77.13
257.825	-19.84
258.043	32.58
258.26	37.5
258.477	69.92
258.695	73.88
258.912	13.55
259.129	10.53
259.346	-29.43
259.564	-77.69
259.781	-109.4
259.998	-20.6
260.216	-7.17
260.433	39.9
260.65	45.68
260.867	70.35
261.084	16.09
261.302	17.18
261.519	8.67
261.736	-20.12
261.953	-37.44
262.17	21.61
262.387	-21.42
262.604	-67.31
262.822	-73.53
263.039	-76.42
263.256	-155.9
263.473	-107.71
263.69	-61.74
263.907	-8.84
264.124	12.22
264.341	33.96
264.558	27.37
264.775	49.25
264.992	37.98
265.209	28.52
265.426	41.53
265.643	41.2
265.86	23.76
266.077	34.24
266.294	6.17
266.51	-35.51
266.727	-48.41
266.944	-18.88
267.161	-42.23
267.378	-23.92
267.595	14.39
267.812	7.53
268.028	-6.77
268.245	23.99
268.462	4.26
268.679	-18.01
268.896	32.79
269.112	28.64
269.329	20.84
269.546	22.57
269.763	18.97
269.979	-20.96
270.196	-21.01
270.413	-54.22
270.629	-93.16
270.846	-102.17
271.063	-75.92
271.279	-100.13
271.496	-87.3
271.712	-41.51
271.929	-16.74
272.146	-32.28
272.362	-6.89
272.579	28.39
272.795	32.93
273.012	33.52
273.228	30.06
273.445	0.65
273.661	-43.43
273.878	-72.79
274.094	-64.04
274.311	-71.16
274.527	1.11
274.744	9.46
274.96	18.05
275.177	5.41
275.393	15.59
275.609	4.98
275.826	32.2
276.042	26.51
276.259	25.46
276.475	38.8
276.691	31.82
276.908	8.25
277.124	31.03
277.34	31.85
277.557	10.44
277.773	1.86
277.989	-5.27
278.205	-25.55
278.422	-6.91
278.638	5.2
278.854	24.63
279.07	37.21
279.286	19.89
279.503	-10.69
279.719	-27.12
279.935	-43.77
280.151	-61.24
280.367	-25.17
280.583	-36.76
280.799	-16.57
281.016	-44.84
281.232	-7.96
281.448	-6.12
281.664	16.98
281.88	-26.12
282.096	10.59
282.312	35.64
282.528	39.87
282.744	38.37
282.96	52.38
283.176	24.09
283.392	17.77
283.608	10.58
283.824	5.36
284.04	7.8
284.256	17.47
284.471	3.28
284.687	10
284.903	42.97
285.119	69.19
285.335	39.87
285.551	37.36
285.767	21.61
285.982	3.6
286.198	-33.66
286.414	24.21
286.63	39.41
286.846	58.19
287.061	26.85
287.277	45.46
287.493	19.45
287.709	16.02
287.924	-10.4
288.14	35.99
288.356	28.01
288.571	46.51
288.787	29.6
289.003	27.86
289.218	-6.99
289.434	-45.8
289.65	-54.33
289.865	-51.21
290.081	-25.02
290.296	20.13
290.512	26.34
290.727	-1.41
290.943	-18.19
291.159	-33.82
291.374	-43.9
291.59	-59.24
291.805	-33.77
292.021	-20.87
292.236	-21.7
292.451	-4.55
292.667	11.73
292.882	17.64
293.098	9.15
293.313	4.82
293.529	-30.38
293.744	-68.42
293.959	-71.04
294.175	-57.51
294.39	-17.17
294.605	1.16
294.821	42.55
295.036	46.7
295.251	53.51
295.467	15.06
295.682	-2.09
295.897	-78.99
296.112	-86.9
296.328	-65.79
296.543	-80.12
296.758	-61.23
296.973	-5.72
297.188	31.97
297.404	-5.88
297.619	-0.64
297.834	-15.22
298.049	-24.29
298.264	-70.08
298.479	1.47
298.694	2.59
298.909	21.72
299.125	18.56
299.34	39.92
299.555	-0.92
299.77	32.47
299.985	-15.92
300.2	-58.59
300.415	-85.01
300.63	-30.69
300.845	-49.25
301.06	-41.13
301.275	2.29
301.49	25.01
301.704	3.69
301.919	-9.31
302.134	-8.16
302.349	-14.24
302.564	-62.99
302.779	-59.14
302.994	-17.99
303.209	-8.96
303.423	9.93
303.638	56.09
303.853	20.2
304.068	14.22
304.283	12.86
304.497	3.02
304.712	-12.08
304.927	4.19
305.142	-10.91
305.356	-4.84
305.571	-10.73
305.786	-19.99
306	-49.11
306.215	-37.11
306.43	-62.87
306.644	-44.79
306.859	-5.91
307.074	29.35
307.288	3.03
307.503	20.62
307.717	-0.05
307.932	-9.62
308.147	-18.97
308.361	9.35
308.576	-5.16
308.79	-25.9
309.005	-11.58
309.219	5.88
309.434	5.55
309.648	3.45
309.863	14.43
310.077	8.06
310.292	1.94
310.506	-8.51
310.72	7.3
310.935	26.14
311.149	14.24
311.364	20.45
311.578	40.94
311.792	31
312.007	34.34
312.221	22.17
312.435	24.21
312.649	0.24
312.864	-8.12
313.078	-5.48
313.292	73.35
313.507	50.78
313.721	99.22
313.935	68.84
314.149	40.59
314.363	16.74
314.578	22.54
314.792	18.31
315.006	6.01
315.22	28.89
315.434	31.51
315.648	34
315.862	28.53
316.077	36.92
316.291	16.9
316.505	33.62
316.719	43.15
316.933	6.59
317.147	2.65
317.361	-32.29
317.575	-72.96
317.789	-118.11
318.003	-158.69
318.217	-103.18
318.431	-29.81
318.645	12.75
318.859	17.59
319.073	32.13
319.287	7.17
319.5	-26.83
319.714	-76.78
319.928	-101.96
320.142	-113.39
320.356	-43.31
320.57	3.57
320.784	10.49
320.997	0.26
321.211	-1.29
321.425	-72.84
321.639	-110.14
321.853	-38.7
322.066	-11.24
322.28	-8.41
322.494	10.27
322.707	33.54
322.921	12.88
323.135	1.06
323.349	11.64
323.562	-20.96
323.776	-30.49
323.989	-20.02
324.203	-39.28
324.417	-47.14
324.63	-30.55
324.844	-46.88
325.057	-67.25
325.271	-44.07
325.485	-12.94
325.698	6.45
325.912	24.76
326.125	21.15
326.339	31.75
326.552	13.65
326.766	7.57
326.979	21.63
327.193	51.96
327.406	32.5
327.619	27.2
327.833	33.65
328.046	-2.97
328.26	-63.06
328.473	-29.72
328.686	-74.25
328.9	-63.56
329.113	-25.07
329.326	-19.18
329.54	-16.09
329.753	10.41
329.966	-16.03
330.179	-20.74
330.393	-1.22
330.606	6.71
330.819	5.01
331.032	20.2
331.246	18.61
331.459	33.24
331.672	5.88
331.885	11.01
332.098	-16
332.311	-15.84
332.525	-60.52
332.738	-10.58
332.951	4.74
333.164	41.38
333.377	37.6
333.59	56.14
333.803	44.38
334.016	32.62
334.229	23.04
334.442	37.65
334.655	60.25
334.868	62.83
335.081	38.95
335.294	24.29
335.507	13.05
335.72	-14.19
335.933	-25.31
336.146	-8.23
336.359	-1.05
336.572	-30.15
336.785	-60.55
336.997	-46.92
337.21	-24.74
337.423	-43.27
337.636	-34.33
337.849	5.64
338.062	-8.73
338.274	-11.61
338.487	-6.62
338.7	-2.47
338.913	-61.62
339.125	-83.95
339.338	-134.99
339.551	-103.84
339.763	-60.86
339.976	-32.06
340.189	-3.45
340.402	18.94
340.614	0.99
340.827	-19.22
341.039	-28.31
341.252	-33.4
341.465	-31.4
341.677	-25.58
341.89	-57.33
342.102	-15.5
342.315	-31.47
342.527	-69.22
342.74	-56.82
342.952	-34.5
343.165	-52.61
343.377	-11.83
343.59	-7.55
343.802	8.2
344.015	31.28
344.227	58
344.44	45.82
344.652	58.27
344.864	39.19
345.077	43.54
345.289	37.51
345.502	39.92
345.714	36.92
345.926	45.63
346.139	33.05
346.351	32.9
346.563	41.42
346.775	37.04
346.988	15.19
347.2	11.02
347.412	-20.77
347.624	-49.37
347.837	-55.5
348.049	-10.04
348.261	13.89
348.473	7.97
348.685	0.92
348.897	-3.36
349.11	-32.94
349.322	-58.17
349.534	-13.37
349.746	8.92
349.958	16.62
350.17	12.97
350.382	22.63
350.594	9.32
350.806	-3.74
351.018	-3.81
351.23	-1.87
351.442	-51.32
351.654	-63.03
351.866	-50.86
352.078	-27.22
352.29	-11.31
352.502	19.28
352.714	28.28
352.926	21.34
353.138	17.24
353.35	9.58
353.561	-3.6
353.773	-19.25
353.985	2.45
354.197	-10.51
354.409	-5.49
354.621	-1.05
354.832	7.48
355.044	-13.25
355.256	-9.83
355.468	-0.03
355.679	-4.96
355.891	7.35
356.103	9.73
356.314	15.4
356.526	16.99
356.738	37.7
356.949	10.62
357.161	23.59
357.373	11.08
357.584	-5.36
357.796	-3.77
358.008	-0.03
358.219	16.73
358.431	21
358.642	22.41
358.854	12.36
359.065	3.44
359.277	-35.5
359.488	-49.99
359.7	-64.4
359.911	-68.64
360.123	-36.92
360.334	-53.17
360.546	-64.06
360.757	-64.37
360.969	-56.36
361.18	-65.28
361.391	-25.69
361.603	-19.27
361.814	-7.57
362.025	-14.46
362.237	-14.19
362.448	-6.88
362.659	10.75
362.871	7.65
363.082	2.96
363.293	0.25
363.504	-35.71
363.716	-70.71
363.927	-68.17
364.138	-73.05
364.349	-82.63
364.56	-62.93
364.772	-45.75
364.983	-25.22
365.194	-23.96
365.405	-9.12
365.616	23.86
365.827	22.67
366.038	-5.21
366.25	-9.15
366.461	-44.16
366.672	-33.68
366.883	-12.32
367.094	0.1
367.305	-7.41
367.516	3.1
367.727	-29.19
367.938	-49.62
368.149	-49.84
368.36	-25.73
368.571	-18.74
368.781	-34.3
368.992	-43.08
369.203	-56.6
369.414	-79.07
369.625	-75.54
369.836	-47.36
370.047	-61.77
370.258	-43.44
370.468	-44.26
370.679	-60.72
370.89	-67.85
371.101	-40.84
371.312	-35.98
371.522	-28.36
371.733	-28.13
371.944	-6.46
372.155	3.57
372.365	-11.42
372.576	-13.18
372.787	-21.23
372.997	-51.07
373.208	-53.83
373.419	-22.58
373.629	-53.7
373.84	-34.67
374.05	-34.81
374.261	-25.06
374.472	-47.56
374.682	19.2
374.893	16.64
375.103	52.21
375.314	42.9
375.524	44.73
375.735	23.88
375.945	32.02
376.156	-5.51
376.366	-3.24
376.577	-2.08
376.787	-13.39
376.997	-9.97
377.208	-1.88
377.418	-22.43
377.629	-9.49
377.839	-7.37
378.049	-15.76
378.26	1.3
378.47	15.21
378.68	0.95
378.89	-4.63
379.101	-9.55
379.311	-46.3
379.521	-76.72
379.732	-67.74
379.942	-55.05
380.152	-65.29
380.362	-34.09
380.572	-23.81
380.783	-18.18
380.993	-8
381.203	6.16
381.413	23.88
381.623	31.65
381.833	28.26
382.043	8.64
382.253	5.09
382.463	-4.36
382.674	-17.6
382.884	-36.64
383.094	-26.29
383.304	-28.4
383.514	-21.6
383.724	-4.74
383.934	-9.61
384.144	-22.05
384.353	-16.86
384.563	-20.64
384.773	-22.62
384.983	-24.81
385.193	-5.34
385.403	-2.86
385.613	-3.28
385.823	-14.32
386.033	-6.61
386.242	-15.87
386.452	-20.92
386.662	-34.06
386.872	-13.67
387.082	-15.82
387.291	-19.19
387.501	-20.88
387.711	-3.6
387.921	-22.5
388.13	-21.4
388.34	-8.5
388.55	-12.73
388.759	-16.88
388.969	-3.56
389.179	-4.47
389.388	-6.24
389.598	1.76
389.807	-6.18
390.017	-12.77
390.227	-9.49
390.436	-12.12
390.646	-11.55
390.855	-7.36
391.065	-6.05
391.274	-10.06
391.484	-10.32
391.693	-8.2
391.903	-4.86
392.112	-0.38
392.322	3.14
392.531	5.58
392.74	6.15
392.95	1.4
393.159	-1.22
393.369	-0.52
393.578	-1.82
393.787	-4.68
393.997	-2.47
394.206	-4.23
394.415	-3.44
394.625	-4.5
394.834	-4.97
395.043	-3.17
395.252	0.15
395.462	3.46
395.671	6.12
395.88	6.5
396.089	7.56
396.298	4.71
396.508	2.35
396.717	1.18
396.926	1.5
397.135	-0.03
397.344	0.5
397.553	0.91
397.762	3.01
397.971	2.53
398.181	2.69
398.39	2.43
398.599	1.6
398.808	0.67
399.017	1.89
399.226	3.29
399.435	4.5
399.644	4.5
399.853	2.91
400.062	1.73
400.27	0.81
400.479	-0.11
400.688	-0.7
400.897	0.25
401.106	0.61
401.315	0.3
401.524	0.4
401.733	1.4
401.941	2.11
402.15	2.27
402.359	2.32
402.568	2.9
402.777	2.88
402.985	2.41
403.194	2.44
403.403	2.45
403.612	1.85
403.82	1.73
404.029	1.81
404.238	1.52
404.446	1.9
404.655	1.8
404.864	1.62
405.072	1.44
405.281	1.83
405.489	1.38
405.698	1.39
405.906	1.36
406.115	1.44
406.324	1.26
406.532	1.52
406.741	1.9
406.949	1.97
407.158	1.86
407.366	1.95
407.574	1.76
407.783	1.68
407.991	1.51
408.2	1.73
408.408	1.53
408.617	1.57
408.825	1.37
409.033	1.5
409.242	1.55
409.45	1.71
409.658	1.69
409.867	1.9
410.075	1.69
410.283	1.46
410.491	1.42
410.7	1.33
410.908	1.26
411.116	1.71
411.324	1.71
411.533	1.67
411.741	1.91
411.949	1.86
412.157	1.47
412.365	1.53
412.573	1.61
412.781	1.63
412.99	1.57
413.198	1.75
413.406	1.67
413.614	1.58
413.822	1.38
414.03	1.35
414.238	1.21
414.446	1.37
414.654	1.18
414.862	1.4
415.07	1.48
415.278	1.72
415.486	1.44
415.694	1.63
415.902	1.37
416.109	1.26
416.317	1.14
416.525	1.03
416.733	1.05
416.941	1.18
417.149	1.03
417.357	1.11
417.564	1.42
417.772	1.56
417.98	1.51
418.188	1.63
418.395	1.55
418.603	1.68
418.811	1.3
419.019	1.3
419.226	1.62
419.434	1.76
419.642	1.41
419.849	1.64
420.057	1.67
420.265	1.54
420.472	1.26
420.68	1.33
420.887	1.31
421.095	1.28
421.302	1.15
421.51	1.45
421.717	1.53
421.925	1.43
422.132	1.35
422.34	1.17
422.547	1.08
422.755	0.99
422.962	0.96
423.17	0.89
423.377	1.16
423.585	1.15
423.792	1.01
423.999	1.19
424.207	1.34
424.414	1.37
424.621	1.31
424.829	1.4
425.036	1.33
425.243	1.31
425.451	1.12
425.658	0.96
425.865	1.11
426.072	1.14
426.28	1.43
426.487	1.37
426.694	1.58
426.901	1.34
427.108	1.32
427.315	1.07
427.523	1.5
427.73	1.52
427.937	1.64
428.144	1.43
428.351	1.41
428.558	1.44
428.765	1.33
428.972	1.29
429.179	1.52
429.386	1.86
429.593	1.55
429.8	1.46
430.007	1.54
430.214	1.61
430.421	1.22
430.628	1.03
430.835	0.93
431.042	1.05
431.249	1.01
431.456	1.04
431.662	1.24
431.869	1.42
432.076	1.36
432.283	1.5
432.49	1.53
432.697	1.48
432.903	1.3
433.11	1.28
433.317	1.22
433.524	1.4
433.73	1.44
433.937	1.7
434.144	1.66
434.35	1.57
434.557	1.41
434.764	1.45
434.97	1.35
435.177	1.49
435.384	1.39
435.59	1.44
435.797	1.64
436.003	1.73
436.21	1.71
436.416	1.87
436.623	1.88
436.829	1.94
437.036	1.97
437.242	1.94
437.449	1.86
437.655	1.88
437.862	1.76
438.068	1.6
438.275	1.66
438.481	1.88
438.687	1.83
438.894	1.73
439.1	1.83
439.307	2.04
439.513	1.91
439.719	1.93
439.926	2.06
440.132	2.01
440.338	1.78
440.544	1.89
440.751	1.89
440.957	1.9
441.163	1.84
441.369	1.92
441.575	1.69
441.782	1.66
441.988	1.5
442.194	1.56
442.4	1.56
442.606	1.84
442.812	1.9
443.018	2.08
443.224	2.11
443.431	2.23
443.637	1.98
443.843	1.84
444.049	1.77
444.255	1.76
444.461	1.72
444.667	1.75
444.873	2.02
445.079	2.07
445.284	2.1
445.49	1.87
445.696	1.76
445.902	1.61
446.108	1.54
446.314	1.52
446.52	1.59
446.726	1.86
446.931	1.84
447.137	1.85
447.343	1.91
447.549	1.85
447.755	1.71
447.96	1.79
448.166	1.79
448.372	1.69
448.578	1.78
448.783	1.81
448.989	1.88
449.195	2.02
449.4	1.99
449.606	1.97
449.812	1.88
450.017	1.83
450.223	1.75
450.428	1.73
450.634	1.91
450.84	2.14
451.045	2.06
451.251	1.98
451.456	2.29
451.662	2.24
451.867	2.19
452.073	2.19
452.278	2.29
452.483	2.28
452.689	2.2
452.894	2.21
453.1	2.2
453.305	2.19
453.51	2.03
453.716	1.99
453.921	1.95
454.127	1.94
454.332	1.81
454.537	1.76
454.742	1.73
454.948	1.74
455.153	1.77
455.358	1.96
455.563	2.23
455.769	2.39
455.974	2.31
456.179	2.25
456.384	2.2
456.589	2.08
456.795	1.85
457	1.87
457.205	2.11
457.41	2.07
457.615	2
457.82	2.15
458.025	2.22
458.23	2.01
458.435	2.1
458.64	2.04
458.845	2.15
459.05	2.08
459.255	2.13
459.46	2.11
459.665	2.09
459.87	2.03
460.075	2.11
460.28	2.13
460.485	2.14
460.69	2.19
460.895	2.05
461.099	1.96
461.304	2.18
461.509	2.23
461.714	2.2
461.919	2.42
