Data from Ofra_PS_T2_2A_2GT31_Reflection_1.txt Node
Date: Wed Jul 21 17:02:38 EDT 2021
User: Adam
Spectrometer: FLMT01687
Trigger mode: 0
Integration Time (sec): 1.100000E0
Scans to average: 2
Electric dark correction enabled: true
Nonlinearity correction enabled: false
Boxcar width: 2
XAxis mode: Wavelengths
Number of Pixels in Spectrum: 3648
>>>>>Begin Spectral Data<<<<<
179.494	483.4
179.716	560.94
179.937	535.94
180.158	519.81
180.38	757.66
180.601	288.54
180.823	123.59
181.044	51.3
181.265	361.95
181.486	164.14
181.708	149.02
181.929	484.18
182.15	113.73
182.372	221.88
182.593	130.57
182.814	43.85
183.035	71.43
183.257	34.36
183.478	-61.97
183.699	-6.79
183.92	-4.83
184.141	-4.3
184.363	-75.5
184.584	15.7
184.805	14.14
185.026	50.43
185.247	60.27
185.468	69.29
185.689	67.98
185.91	56.85
186.132	34.44
186.353	23.33
186.574	50.37
186.795	21.7
187.016	-3.28
187.237	-7.03
187.458	-35.45
187.679	-52.22
187.9	0.93
188.121	9.15
188.342	23.07
188.563	52.38
188.784	99.73
189.005	63.62
189.226	114.11
189.447	101.08
189.667	31.92
189.888	-292.73
190.109	-818.51
190.33	-600.16
190.551	-1051.55
190.772	-212.17
190.993	-102.45
191.214	-142.85
191.434	-106.14
191.655	-9.6
191.876	-50.67
192.097	-121.72
192.318	-121.77
192.538	-147.87
192.759	-140.17
192.98	-50.82
193.201	0.26
193.421	7.81
193.642	25.43
193.863	27.56
194.083	7.59
194.304	-12.65
194.525	1.2
194.745	-16.93
194.966	-28.88
195.187	-38.69
195.407	-53.36
195.628	-129.87
195.848	-109.87
196.069	-88.25
196.29	-26.17
196.51	-36.07
196.731	-33.69
196.951	-70.55
197.172	-112.62
197.392	-151.31
197.613	-147.39
197.833	-147.46
198.054	-109.93
198.274	-42.88
198.495	-60.8
198.715	-24.98
198.936	-41.66
199.156	-36.05
199.377	-139.6
199.597	-100.48
199.817	-109.81
200.038	-45.08
200.258	-82.68
200.479	-10.49
200.699	-38.21
200.919	-29.03
201.14	-33.63
201.36	-30.75
201.58	8.36
201.801	31.22
202.021	16.31
202.241	-2.62
202.461	-12.36
202.682	-100.15
202.902	-168.78
203.122	-106.72
203.342	-88.4
203.563	-38.44
203.783	-3.1
204.003	-17.87
204.223	-31.37
204.443	47.7
204.663	35.19
204.884	28.54
205.104	52.7
205.324	103.24
205.544	76.32
205.764	74.54
205.984	70.92
206.204	67.16
206.424	48.28
206.644	10.95
206.864	16.35
207.084	-9.83
207.304	-6.05
207.525	-126.64
207.745	-16.37
207.964	23.33
208.184	-24.66
208.404	-55.47
208.624	-43.88
208.844	-53.59
209.064	-300.75
209.284	-251.88
209.504	-108.11
209.724	-15.63
209.944	0.94
210.164	37.89
210.384	28.6
210.604	29.31
210.823	-1.07
211.043	-34.99
211.263	-39.66
211.483	-22.91
211.703	-73.67
211.922	-49.24
212.142	9.76
212.362	48.22
212.582	31.4
212.801	35.59
213.021	2.33
213.241	6.92
213.461	-49.81
213.68	-91.85
213.9	-77.14
214.12	-36.81
214.339	-98.67
214.559	-78.21
214.779	4.21
214.998	14.57
215.218	-0.02
215.438	24.31
215.657	30.2
215.877	29.61
216.096	40.1
216.316	46.45
216.535	17.79
216.755	8.4
216.974	-84.07
217.194	-148.35
217.413	-175.55
217.633	-172.22
217.852	-270.68
218.072	-120.68
218.291	-69.84
218.511	-19.91
218.73	-29.98
218.95	-20.69
219.169	-25.86
219.389	-53.62
219.608	-44.46
219.827	-30.29
220.047	-24.71
220.266	-12.26
220.485	-4.95
220.705	-6.37
220.924	-19.76
221.143	17.96
221.363	-1.52
221.582	3.05
221.801	-2.32
222.021	4.79
222.24	-89.7
222.459	-68.72
222.678	-79.36
222.897	-97.82
223.117	-119.12
223.336	-78.36
223.555	-23.36
223.774	39.16
223.993	68.71
224.213	128.54
224.432	93.4
224.651	64.86
224.87	24.52
225.089	29.04
225.308	13.13
225.527	42.65
225.746	60.54
225.965	67.51
226.184	59.1
226.404	45.19
226.623	8.98
226.842	-12.35
227.061	0.14
227.28	8.81
227.499	3.28
227.718	30.83
227.936	36.73
228.155	62.6
228.374	42.37
228.593	37.23
228.812	28.11
229.031	12.31
229.25	-43.62
229.469	-27
229.688	-38.8
229.907	-2.76
230.125	24.42
230.344	36.28
230.563	34.11
230.782	34.99
231.001	-27.46
231.22	-30.81
231.438	-14.03
231.657	-16
231.876	-35.43
232.095	2.52
232.313	4.33
232.532	-20.49
232.751	-33.81
232.969	-21.77
233.188	-62.15
233.407	-30.03
233.625	-10.66
233.844	-21.15
234.063	-6.22
234.281	20.15
234.5	15.92
234.719	18.9
234.937	46.47
235.156	49.42
235.374	44.55
235.593	38.12
235.811	26.75
236.03	7.25
236.249	-29.41
236.467	-17.72
236.686	12.77
236.904	24.79
237.123	8.99
237.341	12.44
237.559	11.08
237.778	3.03
237.996	-22.87
238.215	18.7
238.433	26.46
238.652	9.38
238.87	-16.6
239.088	0.71
239.307	0.36
239.525	-12.73
239.743	-16.95
239.962	3.86
240.18	-10.25
240.398	-61.53
240.617	-67.86
240.835	-55.76
241.053	-38.92
241.271	0.28
241.49	17.82
241.708	13.96
241.926	23.46
242.144	21.68
242.363	-41.04
242.581	-52.85
242.799	-23.29
243.017	-5.23
243.235	-20.74
243.453	9.88
243.672	19.68
243.89	18.29
244.108	3.64
244.326	23.06
244.544	13.87
244.762	8.72
244.98	21.36
245.198	35.07
245.416	19.1
245.634	17.08
245.852	-0.26
246.07	-20.58
246.288	-19.62
246.506	-50.08
246.724	-48.17
246.942	-22.96
247.16	4.18
247.378	10.43
247.596	31.46
247.814	31.28
248.032	10.95
248.25	17.79
248.468	18.72
248.685	44.27
248.903	60.44
249.121	64.64
249.339	29.81
249.557	10.15
249.775	-2.42
249.992	-60.75
250.21	-47.41
250.428	-22.99
250.646	-33.92
250.863	-53.97
251.081	-19.95
251.299	-26.68
251.517	-9.86
251.734	4.1
251.952	1.26
252.17	0.49
252.387	8.33
252.605	3.82
252.823	5.38
253.04	28
253.258	49.35
253.475	54.69
253.693	59.33
253.911	58.63
254.128	57.92
254.346	57.4
254.563	32.11
254.781	24.58
254.998	13.68
255.216	-13.65
255.433	-16.86
255.651	32.97
255.868	43.28
256.086	71.93
256.303	86.25
256.521	80.03
256.738	43.61
256.956	9.61
257.173	-19.63
257.39	-26.11
257.608	-46.83
257.825	4.3
258.043	36.22
258.26	54.04
258.477	53.21
258.695	49.33
258.912	7.36
259.129	16.3
259.346	-11.14
259.564	-19.55
259.781	-38.1
259.998	-10.18
260.216	9.62
260.433	18.56
260.65	28.68
260.867	42.47
261.084	26.33
261.302	2.22
261.519	-3.2
261.736	-39
261.953	-51.8
262.17	7.56
262.387	-20.04
262.604	-42.44
262.822	-50.77
263.039	-36.65
263.256	-104.22
263.473	-60.14
263.69	-37.36
263.907	-1.09
264.124	6.03
264.341	5.15
264.558	8.21
264.775	23.4
264.992	16.86
265.209	11.48
265.426	33.98
265.643	35.95
265.86	43.13
266.077	49.62
266.294	32.3
266.51	-2.63
266.727	-31.93
266.944	-48.15
267.161	-64.32
267.378	-65.35
267.595	-32.3
267.812	-44.68
268.028	-55.65
268.245	-19.42
268.462	-30.43
268.679	-33.59
268.896	31.09
269.112	35.59
269.329	28.44
269.546	44.28
269.763	34.74
269.979	6.58
270.196	1.86
270.413	-31.73
270.629	-65.68
270.846	-65.02
271.063	-56.41
271.279	-73.72
271.496	-49.63
271.712	2.84
271.929	11.26
272.146	-0.29
272.362	2.16
272.579	43.41
272.795	35
273.012	32.69
273.228	40.96
273.445	45.19
273.661	-7.59
273.878	-54.77
274.094	-52.52
274.311	-76.91
274.527	-10.23
274.744	14.44
274.96	24.65
275.177	27.89
275.393	28.33
275.609	12.84
275.826	24.92
276.042	17.63
276.259	-6.29
276.475	18.53
276.691	11.14
276.908	-11.58
277.124	8.36
277.34	17.39
277.557	-6.69
277.773	-15.5
277.989	-16.89
278.205	-25.69
278.422	2.68
278.638	15.11
278.854	40.25
279.07	35.87
279.286	27.85
279.503	-10.22
279.719	-41.87
279.935	-57.49
280.151	-50.92
280.367	-31.84
280.583	-61.26
280.799	-23.22
281.016	-49.3
281.232	-21.23
281.448	-13.63
281.664	25.95
281.88	8.75
282.096	20.45
282.312	32.96
282.528	51.25
282.744	63.44
282.96	53.24
283.176	36.69
283.392	25.98
283.608	15.4
283.824	-6.52
284.04	-1.93
284.256	12.99
284.471	1.15
284.687	-8.26
284.903	24.24
285.119	44.55
285.335	32.87
285.551	44.05
285.767	24.12
285.982	-4.07
286.198	-33.14
286.414	-3.66
286.63	13.14
286.846	45.15
287.061	34.66
287.277	47.6
287.493	31.89
287.709	35.04
287.924	12.35
288.14	40.93
288.356	41.1
288.571	45.37
288.787	35.64
289.003	25.89
289.218	11.68
289.434	-19.56
289.65	2.16
289.865	-2.67
290.081	27.46
290.296	28.97
290.512	37.13
290.727	-7.04
290.943	-9.17
291.159	-22.92
291.374	-24.05
291.59	-32.64
291.805	-17.78
292.021	-10.27
292.236	-8.44
292.451	4.66
292.667	2.54
292.882	17.19
293.098	14.82
293.313	5.09
293.529	-23.81
293.744	-19.28
293.959	-28.9
294.175	-30.11
294.39	3.96
294.605	15.3
294.821	33.84
295.036	27.65
295.251	36.22
295.467	16.12
295.682	16.88
295.897	-23.41
296.112	-23.6
296.328	-28.31
296.543	-64.36
296.758	-53.46
296.973	-12.13
297.188	20.58
297.404	-1.01
297.619	5.87
297.834	-3.27
298.049	-18.61
298.264	-45.5
298.479	7.51
298.694	10.78
298.909	21.22
299.125	26.19
299.34	35.11
299.555	10.15
299.77	28.63
299.985	-19.1
300.2	-70.22
300.415	-87.13
300.63	-44.28
300.845	-46.43
301.06	-27.27
301.275	3.4
301.49	21.51
301.704	3.39
301.919	-11.86
302.134	-11.84
302.349	-15.09
302.564	-53.25
302.779	-79.98
302.994	-74.33
303.209	-34.39
303.423	-2.79
303.638	23.77
303.853	1.33
304.068	12.96
304.283	5.94
304.497	9.75
304.712	14.4
304.927	18.34
305.142	7.01
305.356	17.33
305.571	1.44
305.786	-13.81
306	-26
306.215	-19.55
306.43	-53.46
306.644	-28.16
306.859	8.57
307.074	21.97
307.288	-12.58
307.503	-12.79
307.717	-18.24
307.932	-20.06
308.147	-16.66
308.361	24.19
308.576	22.94
308.79	-4.4
309.005	4.82
309.219	26.11
309.434	11.99
309.648	12.68
309.863	30.66
310.077	26.76
310.292	9.36
310.506	1.2
310.72	15.39
310.935	29.54
311.149	24.75
311.364	41.23
311.578	56.42
311.792	48.45
312.007	46.13
312.221	32.25
312.435	25.76
312.649	12.09
312.864	44.46
313.078	45.39
313.292	97.59
313.507	80.77
313.721	72.83
313.935	34.89
314.149	15.7
314.363	-2.84
314.578	-6.76
314.792	7.35
315.006	-2.6
315.22	20.4
315.434	34.95
315.648	45.5
315.862	44.36
316.077	36.34
316.291	32.66
316.505	27.85
316.719	17.52
316.933	10.79
317.147	18.74
317.361	-41.68
317.575	-68.22
317.789	-65.07
318.003	-125.76
318.217	-92.18
318.431	-25.48
318.645	18.79
318.859	8.03
319.073	35.7
319.287	19.26
319.5	-2.92
319.714	-33.73
319.928	-59.06
320.142	-83.42
320.356	-31.52
320.57	2.06
320.784	-7.8
320.997	-1.39
321.211	3.63
321.425	-44.66
321.639	-53.09
321.853	-8.58
322.066	12.93
322.28	-4.93
322.494	7.22
322.707	17.84
322.921	2.6
323.135	-1.27
323.349	18.91
323.562	7.47
323.776	-10.65
323.989	3.78
324.203	-32.32
324.417	-38.99
324.63	-53.29
324.844	-48.65
325.057	-46.49
325.271	-7
325.485	15.47
325.698	37.56
325.912	56.28
326.125	17.99
326.339	12.25
326.552	-7.56
326.766	-9.4
326.979	-16.47
327.193	32.53
327.406	33.92
327.619	14.55
327.833	27.72
328.046	6.01
328.26	-13.88
328.473	8.44
328.686	10.55
328.9	-5.12
329.113	19
329.326	-5.73
329.54	-13.99
329.753	-10.98
329.966	-55.73
330.179	-57.14
330.393	-32.01
330.606	-25.29
330.819	-10.1
331.032	13.43
331.246	20.6
331.459	49.55
331.672	39.47
331.885	33.66
332.098	25.38
332.311	24.71
332.525	-17.88
332.738	-9.84
332.951	11.76
333.164	26.49
333.377	33.81
333.59	48.2
333.803	52.18
334.016	38.9
334.229	31.34
334.442	28.16
334.655	13.67
334.868	26.7
335.081	35.37
335.294	17.96
335.507	13.47
335.72	15.38
335.933	2.21
336.146	-8.96
336.359	-5.42
336.572	-39.88
336.785	-60.31
336.997	-55.78
337.21	-30.09
337.423	-28.6
337.636	-16.37
337.849	-8.03
338.062	-20.78
338.274	-28.75
338.487	-28.74
338.7	-17.94
338.913	-31.59
339.125	-48.54
339.338	-81.84
339.551	-56.57
339.763	-36.93
339.976	-13.67
340.189	24.35
340.402	41.19
340.614	11.22
340.827	-8.48
341.039	-32.05
341.252	-41.61
341.465	-32
341.677	-24.51
341.89	-53.51
342.102	-11.65
342.315	-22.46
342.527	-59.26
342.74	-41.07
342.952	-19.61
343.165	-29.76
343.377	-6.22
343.59	3.96
343.802	11.65
344.015	32.64
344.227	39.13
344.44	24.8
344.652	27.56
344.864	17.61
345.077	18.55
345.289	21.7
345.502	21.07
345.714	9.45
345.926	21.83
346.139	17.84
346.351	25.86
346.563	44.98
346.775	62.58
346.988	46.07
347.2	35.87
347.412	-10.28
347.624	-42.38
347.837	-81.16
348.049	-57.55
348.261	-17.45
348.473	-1.51
348.685	-6.76
348.897	-4.73
349.11	-28.11
349.322	-69.66
349.534	-61.99
349.746	-62.86
349.958	-46.72
350.17	-41.15
350.382	0.5
350.594	-0.19
350.806	13.53
351.018	0.67
351.23	2.61
351.442	-47.87
351.654	-29.35
351.866	-32.37
352.078	-9.07
352.29	-9.43
352.502	5.51
352.714	10.75
352.926	-1.24
353.138	-2.37
353.35	0.23
353.561	-3.05
353.773	-24.53
353.985	-1.19
354.197	-6.82
354.409	-9.25
354.621	-7.36
354.832	0.11
355.044	-3.58
355.256	-6.36
355.468	-1.48
355.679	-3.05
355.891	1
356.103	-19.39
356.314	-8.49
356.526	1.07
356.738	-0.38
356.949	-13.21
357.161	-5.88
357.373	-9.52
357.584	-20.52
357.796	-4.99
358.008	-0.14
358.219	21.48
358.431	20.89
358.642	38.45
358.854	28.17
359.065	20.25
359.277	-11.61
359.488	-12.42
359.7	-50.81
359.911	-60.69
360.123	-44.52
360.334	-56.58
360.546	-70.51
360.757	-54.56
360.969	-41.81
361.18	-32.74
361.391	-3.87
361.603	-12.23
361.814	-7.36
362.025	-1.04
362.237	-5.98
362.448	-1.72
362.659	17.38
362.871	15.5
363.082	7.11
363.293	3.24
363.504	-7.84
363.716	-27.42
363.927	-32.3
364.138	-40.87
364.349	-24.48
364.56	-15.42
364.772	-4.87
364.983	15.55
365.194	15.66
365.405	12.45
365.616	30.5
365.827	22.14
366.038	-13.32
366.25	-11.4
366.461	-35.76
366.672	-34.68
366.883	-12.89
367.094	7.38
367.305	-1.95
367.516	1.26
367.727	-25.33
367.938	-45.45
368.149	-43.92
368.36	-21.59
368.571	-17.68
368.781	-23.29
368.992	-22.92
369.203	-41.68
369.414	-65.03
369.625	-66.54
369.836	-53.81
370.047	-73.89
370.258	-61.64
370.468	-58.82
370.679	-56.4
370.89	-56.24
371.101	-28.81
371.312	-29.87
371.522	-16.04
371.733	-15.5
371.944	2.67
372.155	-1.35
372.365	-1.95
372.576	4.2
372.787	1.07
372.997	-13.78
373.208	-11.61
373.419	13.37
373.629	-23.05
373.84	-27.43
374.05	-44.45
374.261	-34.49
374.472	-61.4
374.682	-7.41
374.893	4.05
375.103	42.83
375.314	35.16
375.524	26.7
375.735	15.97
375.945	15.66
376.156	-13.94
376.366	-15.02
376.577	-1.15
376.787	-17.9
376.997	-10.71
377.208	-16.07
377.418	-24.8
377.629	-16.68
377.839	-7.11
378.049	-13.17
378.26	10.42
378.47	23.24
378.68	13.55
378.89	5.66
379.101	3.1
379.311	-24.48
379.521	-56.06
379.732	-58.09
379.942	-44.62
380.152	-52.36
380.362	-20.84
380.572	-16.13
380.783	-7.44
380.993	7.18
381.203	17.87
381.413	22.28
381.623	33.21
381.833	27.65
382.043	11.9
382.253	5.1
382.463	2.3
382.674	-8.04
382.884	-19.82
383.094	-17.39
383.304	-9.44
383.514	-10.02
383.724	2.48
383.934	5.32
384.144	-4.66
384.353	-21.22
384.563	-23.06
384.773	-25.07
384.983	-31.61
385.193	-7.12
385.403	0.3
385.613	5.23
385.823	-0.79
386.033	6.73
386.242	-3.74
386.452	-1.64
386.662	-9.54
386.872	7.98
387.082	-1.58
387.291	-0.68
387.501	-0.97
387.711	6.87
387.921	-6.49
388.13	-5.73
388.34	2.77
388.55	-1.79
388.759	-4.31
388.969	-1.37
389.179	0.19
389.388	-1.88
389.598	4.59
389.807	1.54
390.017	-4
390.227	-3.32
390.436	-9.17
390.646	-11.7
390.855	-8.58
391.065	-3.72
391.274	-4.03
391.484	-2.85
391.693	-0.13
391.903	0.47
392.112	3.41
392.322	4.78
392.531	9.68
392.74	8.28
392.95	3.6
393.159	1.6
393.369	2.71
393.578	-0.22
393.787	-0.33
393.997	3.66
394.206	2.94
394.415	2.67
394.625	3.38
394.834	1.76
395.043	1.94
395.252	3.89
395.462	4.76
395.671	5.65
395.88	6.77
396.089	7.44
396.298	6
396.508	5.17
396.717	4.59
396.926	5.42
397.135	4.48
397.344	4.46
397.553	5.15
397.762	6.19
397.971	6.26
398.181	6.71
398.39	6.67
398.599	6.58
398.808	6.34
399.017	6.92
399.226	7.92
399.435	8.48
399.644	8.68
399.853	7.71
400.062	7.21
400.27	6.21
400.479	6.04
400.688	5.33
400.897	5.85
401.106	5.76
401.315	5.79
401.524	5.59
401.733	5.92
401.941	6.25
402.15	6.55
402.359	6.39
402.568	6.78
402.777	7.25
402.985	6.95
403.194	6.84
403.403	6.75
403.612	6.27
403.82	5.8
404.029	6.14
404.238	5.85
404.446	6.27
404.655	6.12
404.864	6.25
405.072	5.85
405.281	5.93
405.489	5.48
405.698	5.56
405.906	5.46
406.115	5.45
406.324	5.71
406.532	6
406.741	6.27
406.949	6.17
407.158	6.15
407.366	5.99
407.574	5.97
407.783	5.98
407.991	5.97
408.2	6.08
408.408	6.09
408.617	5.94
408.825	5.75
409.033	5.77
409.242	5.76
409.45	5.7
409.658	5.63
409.867	5.72
410.075	5.6
410.283	5.38
410.491	5.35
410.7	5.32
410.908	5.31
411.116	5.51
411.324	5.59
411.533	5.4
411.741	5.55
411.949	5.5
412.157	5.38
412.365	5.43
412.573	5.51
412.781	5.64
412.99	5.49
413.198	5.55
413.406	5.5
413.614	5.46
413.822	5.19
414.03	5.18
414.238	5.13
414.446	5.14
414.654	4.97
414.862	4.96
415.07	5
415.278	5.01
415.486	4.95
415.694	5.08
415.902	4.97
416.109	4.84
416.317	4.82
416.525	4.66
416.733	4.78
416.941	5.02
417.149	5.1
417.357	5.12
417.564	5.19
417.772	5.29
417.98	5.1
418.188	4.99
418.395	4.9
418.603	5.08
418.811	4.65
419.019	4.53
419.226	4.71
419.434	4.88
419.642	4.57
419.849	4.87
420.057	4.94
420.265	4.9
420.472	4.47
420.68	4.55
420.887	4.42
421.095	4.57
421.302	4.58
421.51	4.9
421.717	5.09
421.925	5.05
422.132	4.78
422.34	4.43
422.547	4.39
422.755	4.26
422.962	4.19
423.17	4.17
423.377	4.29
423.585	4.29
423.792	4.16
423.999	4.2
424.207	4.18
424.414	4.32
424.621	4.21
424.829	4.2
425.036	4.17
425.243	4.46
425.451	4.35
425.658	4.26
425.865	4.47
426.072	4.55
426.28	4.76
426.487	4.79
426.694	4.81
426.901	4.6
427.108	4.61
427.315	4.33
427.523	4.57
427.73	4.65
427.937	4.73
428.144	4.58
428.351	4.55
428.558	4.48
428.765	4.39
428.972	4.46
429.179	4.67
429.386	4.86
429.593	4.61
429.8	4.56
430.007	4.76
430.214	4.82
430.421	4.77
430.628	4.71
430.835	4.73
431.042	4.76
431.249	4.73
431.456	4.71
431.662	4.97
431.869	5.17
432.076	5.16
432.283	5.25
432.49	5.24
432.697	5.2
432.903	5.04
433.11	4.97
433.317	4.85
433.524	4.96
433.73	4.97
433.937	5.22
434.144	5.17
434.35	5.33
434.557	5.21
434.764	5.29
434.97	5.2
435.177	5.29
435.384	5.21
435.59	5.28
435.797	5.38
436.003	5.4
436.21	5.36
436.416	5.44
436.623	5.35
436.829	5.39
437.036	5.53
437.242	5.59
437.449	5.5
437.655	5.68
437.862	5.66
438.068	5.61
438.275	5.74
438.481	6.05
438.687	6.04
438.894	6.02
439.1	6.1
439.307	6.08
439.513	5.88
439.719	5.83
439.926	5.86
440.132	5.85
440.338	5.79
440.544	5.97
440.751	6.01
440.957	6.06
441.163	5.95
441.369	6.06
441.575	5.84
441.782	5.9
441.988	5.87
442.194	5.91
442.4	5.86
442.606	6.14
442.812	6.24
443.018	6.28
443.224	6.39
443.431	6.53
443.637	6.38
443.843	6.28
444.049	6.33
444.255	6.24
444.461	6.27
444.667	6.26
444.873	6.36
445.079	6.35
445.284	6.44
445.49	6.15
445.696	6.12
445.902	6.1
446.108	6.02
446.314	6.04
446.52	6.24
446.726	6.47
446.931	6.48
447.137	6.67
447.343	6.74
447.549	6.69
447.755	6.52
447.96	6.5
448.166	6.42
448.372	6.34
448.578	6.43
448.783	6.48
448.989	6.59
449.195	6.71
449.4	6.72
449.606	6.71
449.812	6.62
450.017	6.62
450.223	6.52
450.428	6.47
450.634	6.59
450.84	6.73
451.045	6.73
451.251	6.66
451.456	6.91
451.662	6.97
451.867	7.11
452.073	7.14
452.278	7.34
452.483	7.44
452.689	7.4
452.894	7.35
453.1	7.32
453.305	7.27
453.51	7.11
453.716	6.95
453.921	7
454.127	7.03
454.332	6.99
454.537	6.92
454.742	6.93
454.948	6.84
455.153	6.83
455.358	6.94
455.563	7.13
455.769	7.29
455.974	7.34
456.179	7.29
456.384	7.23
456.589	7.2
456.795	7.05
457	7.02
457.205	7.24
457.41	7.29
457.615	7.24
457.82	7.33
458.025	7.43
458.23	7.27
458.435	7.3
458.64	7.2
458.845	7.37
459.05	7.32
459.255	7.41
459.46	7.41
459.665	7.48
459.87	7.43
460.075	7.41
460.28	7.51
460.485	7.64
460.69	7.71
460.895	7.52
461.099	7.52
461.304	7.57
461.509	7.5
461.714	7.45
461.919	7.65
462.123	7.55
462.328	7.53
462.533	7.4
462.738	7.51
462.942	7.47
463.147	7.57
463.352	7.6
