Data from Ofra_PS_T2_1A_8CX24_Reflection_1.txt Node
Date: Wed Jul 21 18:14:08 EDT 2021
User: Adam
Spectrometer: FLMT01687
Trigger mode: 0
Integration Time (sec): 1.100000E0
Scans to average: 2
Electric dark correction enabled: true
Nonlinearity correction enabled: false
Boxcar width: 2
XAxis mode: Wavelengths
Number of Pixels in Spectrum: 3648
>>>>>Begin Spectral Data<<<<<
179.494	502
179.716	551.06
179.937	550.91
180.158	551.12
180.38	882.81
180.601	438.95
180.823	183.25
181.044	42.42
181.265	145.22
181.486	56.97
181.708	33.14
181.929	-56.12
182.15	199.3
182.372	148.14
182.593	51.39
182.814	-0.95
183.035	23.04
183.257	-0.36
183.478	-67.55
183.699	-6.66
183.92	1.81
184.141	16.75
184.363	-54.34
184.584	6.2
184.805	-0.56
185.026	14.58
185.247	1.73
185.468	-1.86
185.689	3.1
185.91	9.73
186.132	-0.78
186.353	20.06
186.574	81.78
186.795	43.75
187.016	-14.9
187.237	-16.21
187.458	-77.27
187.679	-89.76
187.9	-80.54
188.121	-35.54
188.342	-53.45
188.563	-0.79
188.784	9.93
189.005	4.9
189.226	-3.32
189.447	4.87
189.667	-205.1
189.888	-345.57
190.109	-1125.32
190.33	-470
190.551	-1005.75
190.772	-172.76
190.993	-145.94
191.214	-103.38
191.434	-58.92
191.655	1.53
191.876	-51.07
192.097	-97.47
192.318	-193.55
192.538	-375.51
192.759	-228.17
192.98	-100.79
193.201	-42.2
193.421	-2.57
193.642	26.49
193.863	23.58
194.083	-12.26
194.304	-33.58
194.525	-29.25
194.745	-56.5
194.966	-54.36
195.187	-48.77
195.407	-40.21
195.628	-101.4
195.848	-105.67
196.069	-104.33
196.29	-86.39
196.51	-128.75
196.731	-134.02
196.951	-194.7
197.172	-214.49
197.392	-212.24
197.613	-192.63
197.833	-188.81
198.054	-143.12
198.274	-69.15
198.495	-73.43
198.715	-35.69
198.936	-49.59
199.156	-28.78
199.377	-129.27
199.597	-106.17
199.817	-95.91
200.038	-31.32
200.258	-58.34
200.479	20.98
200.699	1.68
200.919	10.89
201.14	-19.34
201.36	-34.81
201.58	11.79
201.801	39.35
202.021	8.2
202.241	9.86
202.461	-4.4
202.682	-110.71
202.902	-175.07
203.122	-106.33
203.342	-84.12
203.563	-27.47
203.783	9.28
204.003	-32.91
204.223	-25.21
204.443	20.19
204.663	-13.64
204.884	-14.09
205.104	21.48
205.324	37.95
205.544	22.54
205.764	44.19
205.984	43.1
206.204	37.31
206.424	23.68
206.644	-11.2
206.864	-3.65
207.084	-39.09
207.304	6.59
207.525	-79.53
207.745	-22.42
207.964	-12.55
208.184	-66.68
208.404	-109.39
208.624	-101.73
208.844	-116.31
209.064	-418.09
209.284	-435.1
209.504	-235.74
209.724	-81.2
209.944	-47.72
210.164	-14.95
210.384	5.79
210.604	-2.77
210.823	-53.27
211.043	-56.46
211.263	-51.52
211.483	-55.16
211.703	-103.64
211.922	-75.57
212.142	-28.59
212.362	5.18
212.582	-11.11
212.801	-17.04
213.021	-33.54
213.241	-61.08
213.461	-105.02
213.68	-116.59
213.9	-60.12
214.12	-34.43
214.339	-98.89
214.559	-69.55
214.779	-26.87
214.998	-44.61
215.218	-90.84
215.438	-35.08
215.657	-48.75
215.877	-25.4
216.096	-9
216.316	-2.13
216.535	-25.51
216.755	-20.66
216.974	-160.6
217.194	-191.09
217.413	-161.15
217.633	-142.4
217.852	-263.63
218.072	-116.43
218.291	-62.51
218.511	-29.8
218.73	-52.02
218.95	-34.33
219.169	-28.22
219.389	-77.21
219.608	-55.41
219.827	-39.67
220.047	-36.45
220.266	-19.2
220.485	-14.37
220.705	-17.7
220.924	-40.81
221.143	11.45
221.363	-16.01
221.582	-3.03
221.801	-6.44
222.021	5.88
222.24	-126.47
222.459	-94.41
222.678	-89
222.897	-166.06
223.117	-233.48
223.336	-171.76
223.555	-142.76
223.774	-72.98
223.993	-56.75
224.213	31.46
224.432	-1.47
224.651	29.95
224.87	-5.94
225.089	28.91
225.308	23.16
225.527	41.65
225.746	43.97
225.965	33.13
226.184	-10.02
226.404	-2.17
226.623	-13.55
226.842	-17.21
227.061	3.31
227.28	13.19
227.499	3.67
227.718	13.9
227.936	9
228.155	9.9
228.374	-7.39
228.593	-2.34
228.812	-31.14
229.031	-45.51
229.25	-99.81
229.469	-120.01
229.688	-105.16
229.907	-39.03
230.125	-20.25
230.344	-8.58
230.563	12.44
230.782	14.87
231.001	-81.75
231.22	-79.51
231.438	-52
231.657	-37.4
231.876	-71.02
232.095	7.97
232.313	10.44
232.532	-3.88
232.751	-32.8
232.969	-45.23
233.188	-117.11
233.407	-39.01
233.625	-23.06
233.844	-48.55
234.063	-32.84
234.281	-22
234.5	-35.47
234.719	-32.69
234.937	-8.09
235.156	3.11
235.374	-4.02
235.593	-23.14
235.811	-21.42
236.03	-39.34
236.249	-81
236.467	-46.95
236.686	2.38
236.904	6.61
237.123	-10.45
237.341	-12.13
237.559	-16.14
237.778	-59.22
237.996	-82.91
238.215	-35.11
238.433	-20.44
238.652	-35.48
238.87	-37.03
239.088	-21.72
239.307	-14.5
239.525	-19.14
239.743	-30.57
239.962	-16.51
240.18	-59.86
240.398	-107.3
240.617	-106.49
240.835	-98.01
241.053	-61.15
241.271	-17.74
241.49	-4.53
241.708	-13.63
241.926	-27.66
242.144	-32.21
242.363	-80.83
242.581	-71.4
242.799	-36.47
243.017	-2.17
243.235	-32.53
243.453	-18.23
243.672	-23.53
243.89	-31.09
244.108	-54.49
244.326	-12.08
244.544	-9.53
244.762	-18.53
244.98	-19.42
245.198	1.07
245.416	-53.26
245.634	-34.99
245.852	-44.6
246.07	-40.47
246.288	-52.91
246.506	-68.14
246.724	-50.64
246.942	-27.36
247.16	-13.22
247.378	-12.19
247.596	-4.55
247.814	-11.65
248.032	-40.71
248.25	-34
248.468	-12.52
248.685	6.51
248.903	18.93
249.121	24.11
249.339	-9.16
249.557	-28.27
249.775	-19.57
249.992	-81.66
250.21	-76.53
250.428	-48.13
250.646	-77.43
250.863	-104.27
251.081	-74.14
251.299	-82.01
251.517	-90.21
251.734	-54.69
251.952	-42.21
252.17	-31.99
252.387	-13.26
252.605	-20.92
252.823	-21.09
253.04	1.37
253.258	19.57
253.475	10.49
253.693	32.24
253.911	33.8
254.128	33.87
254.346	16.18
254.563	-1.99
254.781	-23.11
254.998	-69.21
255.216	-92.45
255.433	-69.45
255.651	-16.17
255.868	-11.42
256.086	32.09
256.303	22.58
256.521	11.31
256.738	-31.64
256.956	-54.91
257.173	-90.23
257.39	-101.98
257.608	-134.18
257.825	-17.02
258.043	4.6
258.26	15.3
258.477	56.46
258.695	55.43
258.912	-34.32
259.129	-4.81
259.346	-13.67
259.564	-69.04
259.781	-87.93
259.998	-17.64
260.216	-14.65
260.433	19.41
260.65	21.65
260.867	44.27
261.084	6.41
261.302	-14.29
261.519	-33.58
261.736	-36.66
261.953	-59.64
262.17	-17.51
262.387	-46.93
262.604	-81.16
262.822	-101.45
263.039	-87.4
263.256	-133.11
263.473	-75.16
263.69	-48.45
263.907	2.96
264.124	17.62
264.341	9.64
264.558	-1.8
264.775	8.71
264.992	-16.44
265.209	-29.72
265.426	-2.5
265.643	3.86
265.86	19.56
266.077	26.15
266.294	36.19
266.51	9.17
266.727	-5.04
266.944	-9.97
267.161	-9.68
267.378	-12.24
267.595	-0.17
267.812	-11.13
268.028	-37.46
268.245	-40.56
268.462	-55.45
268.679	-52.14
268.896	-17.6
269.112	-13.67
269.329	-12.19
269.546	-2.45
269.763	-12.91
269.979	-32.38
270.196	-27.24
270.413	-56.5
270.629	-73.22
270.846	-84.04
271.063	-62.1
271.279	-65.78
271.496	-63.68
271.712	-33.25
271.929	2.49
272.146	-13.8
272.362	-3.5
272.579	31.99
272.795	42.06
273.012	25.6
273.228	19.28
273.445	-4.91
273.661	-20.61
273.878	-63.27
274.094	-42.38
274.311	-61.47
274.527	-11.92
274.744	-20.7
274.96	-10.71
275.177	-9.22
275.393	4.78
275.609	-7.05
275.826	14.32
276.042	4.31
276.259	-14.49
276.475	12.81
276.691	27.11
276.908	7.22
277.124	21.04
277.34	33.54
277.557	20.24
277.773	-5.82
277.989	-11.61
278.205	-12.97
278.422	-6.99
278.638	-2.59
278.854	15.79
279.07	34.95
279.286	26.94
279.503	6.98
279.719	-7.24
279.935	-34.13
280.151	-47.92
280.367	-30.53
280.583	-73.35
280.799	-56.4
281.016	-80.54
281.232	-45.88
281.448	-46.51
281.664	-8.22
281.88	-32.1
282.096	-2.01
282.312	28.95
282.528	55.51
282.744	63.76
282.96	37.69
283.176	21.82
283.392	7.75
283.608	-15.24
283.824	-14.92
284.04	-2.49
284.256	5.58
284.471	-5.78
284.687	-0.15
284.903	17.47
285.119	45.13
285.335	28.17
285.551	39.06
285.767	23.14
285.982	5.3
286.198	-39.65
286.414	-1.58
286.63	0.69
286.846	14.98
287.061	-5.26
287.277	28.82
287.493	6.81
287.709	10.06
287.924	-2.81
288.14	37.69
288.356	10.26
288.571	26.12
288.787	20.27
289.003	15.82
289.218	-12.85
289.434	-41.55
289.65	-46.29
289.865	-59.68
290.081	-11.64
290.296	-14.57
290.512	20.74
290.727	-12.45
290.943	-8.09
291.159	-37.97
291.374	-32.44
291.59	-59.35
291.805	-32.89
292.021	-28.54
292.236	-28.17
292.451	-18.8
292.667	-2.81
292.882	4.01
293.098	-5.79
293.313	-22.95
293.529	-39.15
293.744	-59.4
293.959	-60.95
294.175	-54.08
294.39	-13.16
294.605	4.05
294.821	24.8
295.036	27.69
295.251	30.1
295.467	-8.71
295.682	-21.32
295.897	-64.73
296.112	-83.28
296.328	-64.67
296.543	-52.38
296.758	-42.38
296.973	-1.14
297.188	36.34
297.404	1.53
297.619	-13.51
297.834	-22.73
298.049	-49.48
298.264	-63.22
298.479	0.63
298.694	2.79
298.909	16.44
299.125	22.97
299.34	14.23
299.555	-16.97
299.77	-9.45
299.985	-59.72
300.2	-102.41
300.415	-121.81
300.63	-85.28
300.845	-77.23
301.06	-79.01
301.275	-40.57
301.49	-22.67
301.704	-41.32
301.919	-69.48
302.134	-73.03
302.349	-85.66
302.564	-141.68
302.779	-182.58
302.994	-138.17
303.209	-65.7
303.423	-42.41
303.638	14.39
303.853	-14.62
304.068	-32.03
304.283	-22.96
304.497	-20.22
304.712	-27.44
304.927	-1.87
305.142	-0.53
305.356	-1.83
305.571	-10.5
305.786	-24.4
306	-50.58
306.215	-56.32
306.43	-76.13
306.644	-74.28
306.859	-40.79
307.074	-25.66
307.288	-44.93
307.503	-57.66
307.717	-49.15
307.932	-58.34
308.147	-51.66
308.361	-34.11
308.576	-32.99
308.79	-75.85
309.005	-68.78
309.219	-54.63
309.434	-56.6
309.648	-53.31
309.863	-21.53
310.077	-23.93
310.292	-36.03
310.506	-34.01
310.72	-9.51
310.935	7.9
311.149	7.01
311.364	29.56
311.578	42.07
311.792	29.07
312.007	19.42
312.221	5.12
312.435	-4
312.649	-21.05
312.864	-18.5
313.078	-4.48
313.292	53.12
313.507	27.41
313.721	68.05
313.935	45.02
314.149	34.73
314.363	16.34
314.578	22.92
314.792	17.11
315.006	4.05
315.22	7.53
315.434	20.91
315.648	21.29
315.862	14.09
316.077	14.3
316.291	9.43
316.505	-7.47
316.719	-6.12
316.933	-7.16
317.147	-23.89
317.361	-76.99
317.575	-89.91
317.789	-130.89
318.003	-203.25
318.217	-138.51
318.431	-44.58
318.645	-2.29
318.859	6.83
319.073	34.66
319.287	17.83
319.5	-15.14
319.714	-57.2
319.928	-89.78
320.142	-127.02
320.356	-81.36
320.57	-32.45
320.784	-45.34
320.997	-58.85
321.211	-57.76
321.425	-108.7
321.639	-127.1
321.853	-56.58
322.066	-26.38
322.28	-22.61
322.494	-16.07
322.707	-13.05
322.921	-30.7
323.135	-30.81
323.349	-14.13
323.562	-21.66
323.776	-29.3
323.989	-27.88
324.203	-50.69
324.417	-71.62
324.63	-76.22
324.844	-82.42
325.057	-89.78
325.271	-52.13
325.485	-14.02
325.698	-6.31
325.912	5.87
326.125	-12.08
326.339	-16.78
326.552	-47.82
326.766	-41.21
326.979	-22.81
327.193	22.23
327.406	1.93
327.619	3.81
327.833	14.4
328.046	-13.25
328.26	-44.91
328.473	-17.85
328.686	-60.57
328.9	-56.33
329.113	-36.99
329.326	-72.48
329.54	-65.46
329.753	-50.12
329.966	-80.61
330.179	-48.37
330.393	-16.16
330.606	-2.39
330.819	21.65
331.032	40.35
331.246	31.74
331.459	49.92
331.672	42.33
331.885	11.34
332.098	-25.82
332.311	-46.39
332.525	-104.62
332.738	-114.3
332.951	-62.75
333.164	-25.78
333.377	-0.13
333.59	14.83
333.803	19.32
334.016	18.07
334.229	9.42
334.442	2.56
334.655	20.56
334.868	30.45
335.081	21.91
335.294	21.1
335.507	13.71
335.72	3.97
335.933	-11.92
336.146	-16.14
336.359	-17.58
336.572	-45.73
336.785	-68.84
336.997	-65.03
337.21	-42.3
337.423	-57.32
337.636	-46.75
337.849	-25.7
338.062	-35.08
338.274	-39.22
338.487	-39.39
338.7	-45.47
338.913	-78.32
339.125	-77.17
339.338	-116.3
339.551	-76.3
339.763	-53.9
339.976	-34.1
340.189	-16.34
340.402	-12.69
340.614	-34.19
340.827	-35.62
341.039	-56.5
341.252	-52.25
341.465	-30.08
341.677	-14.98
341.89	-40.87
342.102	-9.35
342.315	-33.07
342.527	-61.8
342.74	-49.18
342.952	-8.37
343.165	-18.56
343.377	12.75
343.59	9.38
343.802	14.84
344.015	-1.9
344.227	10.49
344.44	-1.86
344.652	3.79
344.864	-10.39
345.077	22.99
345.289	20.51
345.502	24.58
345.714	12.97
345.926	16.45
346.139	6.19
346.351	17.6
346.563	15.45
346.775	20.54
346.988	16.35
347.2	-11.2
347.412	-74.46
347.624	-95.94
347.837	-121.68
348.049	-92.43
348.261	-38.93
348.473	-26.43
348.685	-27.92
348.897	-13.59
349.11	-40.06
349.322	-70.06
349.534	-21.54
349.746	-14.64
349.958	-16.2
350.17	-10.7
350.382	9.03
350.594	-12.98
350.806	-7
351.018	5.5
351.23	-9.85
351.442	-58.5
351.654	-58.88
351.866	-56.82
352.078	-53.1
352.29	-27.11
352.502	5.13
352.714	23.08
352.926	5.06
353.138	9.71
353.35	-0.22
353.561	-6.32
353.773	-34.96
353.985	-16.16
354.197	-31.01
354.409	-27.26
354.621	-34.14
354.832	-22.28
355.044	-35.26
355.256	-38.06
355.468	-21.71
355.679	-24.01
355.891	-21.11
356.103	-18.72
356.314	-2.85
356.526	-2.15
356.738	0.39
356.949	-4.15
357.161	14.6
357.373	3.73
357.584	-4.67
357.796	2.65
358.008	-3.43
358.219	7.46
358.431	-0.25
358.642	-1.48
358.854	1.15
359.065	1.45
359.277	-26.9
359.488	-28.63
359.7	-51.91
359.911	-72.14
360.123	-50.7
360.334	-70.44
360.546	-75.32
360.757	-52.63
360.969	-38.62
361.18	-35.23
361.391	1
361.603	-4.1
361.814	7.74
362.025	1.23
362.237	4.8
362.448	5.33
362.659	9.08
362.871	-1.49
363.082	0.45
363.293	-3.23
363.504	-16.94
363.716	-33.16
363.927	-41.31
364.138	-64.8
364.349	-73.73
364.56	-63.34
364.772	-53.75
364.983	-30.51
365.194	-17.62
365.405	-8.51
365.616	-4.47
365.827	-2.18
366.038	-22.68
366.25	-28.93
366.461	-58.78
366.672	-19.78
366.883	-5.22
367.094	-0.63
367.305	-10.38
367.516	-5.19
367.727	-43.23
367.938	-50.3
368.149	-44.18
368.36	-23.89
368.571	-17.91
368.781	-21.69
368.992	-36.84
369.203	-61.71
369.414	-86.54
369.625	-74.93
369.836	-51.84
370.047	-66.74
370.258	-36.58
370.468	-30.5
370.679	-58.73
370.89	-58.3
371.101	-44.47
371.312	-45.97
371.522	-48.05
371.733	-24.78
371.944	-17.12
372.155	-3.18
372.365	-10.98
372.576	-6.81
372.787	-17.12
372.997	-38.02
373.208	-39.42
373.419	-13.5
373.629	-38.48
373.84	-41.34
374.05	-47.8
374.261	-39.52
374.472	-65.17
374.682	-19.21
374.893	-10.56
375.103	26.08
375.314	18.86
375.524	13.25
375.735	11.98
375.945	17.93
376.156	-7.72
376.366	-4.68
376.577	3.79
376.787	-5.44
376.997	-16.09
377.208	-6.68
377.418	-18.23
377.629	-11.45
377.839	-6.27
378.049	0.53
378.26	9.31
378.47	22.03
378.68	16.92
378.89	8.27
379.101	0.02
379.311	-30.86
379.521	-67.49
379.732	-71.78
379.942	-71.88
380.152	-89.97
380.362	-51.62
380.572	-39.11
380.783	-36.72
380.993	-15.7
381.203	7.24
381.413	18.8
381.623	24.78
381.833	28.2
382.043	11.29
382.253	-1.13
382.463	-6.82
382.674	-21.07
382.884	-39.72
383.094	-43.04
383.304	-34.44
383.514	-35.89
383.724	-27.59
383.934	-27.78
384.144	-30.26
384.353	-36.85
384.563	-35.46
384.773	-26.33
384.983	-28.27
385.193	-8.74
385.403	-2.14
385.613	1.23
385.823	-10.12
386.033	-6.08
386.242	-14.15
386.452	-22.03
386.662	-30.25
386.872	-11.32
387.082	-14.93
387.291	-18.42
387.501	-16.9
387.711	-14.32
387.921	-26.56
388.13	-20.18
388.34	-11.08
388.55	-13.78
388.759	-14.7
388.969	-6.52
389.179	-9.15
389.388	-9.91
389.598	-3.91
389.807	-7.07
390.017	-15.29
390.227	-13.89
390.436	-17.71
390.646	-17.62
390.855	-12.36
391.065	-10.44
391.274	-11.27
391.484	-9.62
391.693	-6.67
391.903	-4.47
392.112	2.84
392.322	8.79
392.531	11.32
392.74	10.51
392.95	5.14
393.159	2.31
393.369	-1.67
393.578	-2.51
393.787	-4.35
393.997	-3.23
394.206	-6.86
394.415	-6.05
394.625	-6.75
394.834	-6.05
395.043	-4.69
395.252	-1.36
395.462	0.51
395.671	1.75
395.88	1.58
396.089	2.58
396.298	0.51
396.508	-0.57
396.717	-1.23
396.926	-0.16
397.135	-1.08
397.344	-0.62
397.553	0.51
397.762	1.36
397.971	1.25
398.181	1.77
398.39	2.02
398.599	1.04
398.808	1.47
399.017	1.96
399.226	2.93
399.435	3.36
399.644	3.59
399.853	2.33
400.062	1.86
400.27	1.3
400.479	0.95
400.688	0.48
400.897	1.07
401.106	1.03
401.315	0.99
401.524	1.07
401.733	1.57
401.941	2.15
402.15	2.38
402.359	2.2
402.568	2.4
402.777	2.56
402.985	2.02
403.194	1.76
403.403	1.81
403.612	1.5
403.82	1.25
404.029	1.43
404.238	1.4
404.446	1.65
404.655	1.38
404.864	1.29
405.072	1.17
405.281	1.3
405.489	1.02
405.698	1.22
405.906	1.38
406.115	1.32
406.324	1.29
406.532	1.52
406.741	1.76
406.949	1.67
407.158	1.64
407.366	1.7
407.574	1.56
407.783	1.54
407.991	1.4
408.2	1.61
408.408	1.52
408.617	1.41
408.825	1.2
409.033	1.37
409.242	1.26
409.45	1.33
409.658	1.36
409.867	1.62
410.075	1.57
410.283	1.58
410.491	1.55
410.7	1.51
410.908	1.33
411.116	1.5
411.324	1.44
411.533	1.39
411.741	1.65
411.949	1.68
412.157	1.37
412.365	1.4
412.573	1.36
412.781	1.28
412.99	1.22
413.198	1.39
413.406	1.38
413.614	1.43
413.822	1.22
414.03	1.19
414.238	1.11
414.446	1.11
414.654	0.98
414.862	1.17
415.07	1.31
415.278	1.46
415.486	1.4
415.694	1.59
415.902	1.43
416.109	1.24
416.317	1.2
416.525	1.05
416.733	0.88
416.941	1.01
417.149	1.06
417.357	1.08
417.564	1.26
417.772	1.61
417.98	1.55
418.188	1.54
418.395	1.56
418.603	1.63
418.811	1.2
419.019	1.16
419.226	1.35
419.434	1.41
419.642	1.21
419.849	1.39
420.057	1.49
420.265	1.45
420.472	1.24
420.68	1.46
420.887	1.33
421.095	1.31
421.302	1.28
421.51	1.43
421.717	1.44
421.925	1.57
422.132	1.45
422.34	1.36
422.547	1.38
422.755	1.24
422.962	1.2
423.17	1.24
423.377	1.32
423.585	1.26
423.792	1.28
423.999	1.31
424.207	1.28
424.414	1.31
424.621	1.27
424.829	1.13
425.036	1.02
425.243	1.16
425.451	1.09
425.658	0.98
425.865	1.18
426.072	1.26
426.28	1.44
426.487	1.37
426.694	1.4
426.901	1.24
427.108	1.24
427.315	0.89
427.523	1.16
427.73	1.3
427.937	1.34
428.144	1.37
428.351	1.44
428.558	1.55
428.765	1.5
428.972	1.4
429.179	1.48
429.386	1.64
429.593	1.31
429.8	1.1
430.007	1.26
430.214	1.31
430.421	1.11
430.628	1
430.835	1.02
431.042	1.13
431.249	1.08
431.456	1.11
431.662	1.23
431.869	1.41
432.076	1.42
432.283	1.42
432.49	1.45
432.697	1.4
432.903	1.19
433.11	1.12
433.317	1.22
433.524	1.38
433.73	1.4
433.937	1.64
434.144	1.53
434.35	1.42
434.557	1.22
434.764	1.21
434.97	1.14
435.177	1.33
435.384	1.27
435.59	1.4
435.797	1.65
436.003	1.6
436.21	1.56
436.416	1.6
436.623	1.54
436.829	1.5
437.036	1.6
437.242	1.52
437.449	1.41
437.655	1.37
437.862	1.26
438.068	1.19
438.275	1.37
438.481	1.62
438.687	1.59
438.894	1.57
439.1	1.63
439.307	1.68
439.513	1.52
439.719	1.54
439.926	1.67
440.132	1.61
440.338	1.48
440.544	1.71
440.751	1.72
440.957	1.7
441.163	1.73
441.369	1.82
441.575	1.49
441.782	1.47
441.988	1.37
442.194	1.38
442.4	1.27
442.606	1.55
442.812	1.64
443.018	1.74
443.224	1.74
443.431	1.87
443.637	1.61
443.843	1.51
444.049	1.47
444.255	1.45
444.461	1.44
444.667	1.48
444.873	1.65
445.079	1.67
445.284	1.74
445.49	1.5
445.696	1.42
445.902	1.26
446.108	1.22
446.314	1.1
446.52	1.29
446.726	1.52
446.931	1.53
447.137	1.55
447.343	1.63
447.549	1.5
447.755	1.32
447.96	1.4
448.166	1.39
448.372	1.3
448.578	1.39
448.783	1.38
448.989	1.39
449.195	1.53
449.4	1.65
449.606	1.59
449.812	1.59
450.017	1.65
450.223	1.5
450.428	1.4
450.634	1.57
450.84	1.74
451.045	1.65
451.251	1.57
451.456	1.82
451.662	1.76
451.867	1.79
452.073	1.76
452.278	1.97
452.483	1.99
452.689	1.92
452.894	1.83
453.1	1.87
453.305	1.72
453.51	1.58
453.716	1.59
453.921	1.61
454.127	1.63
454.332	1.61
454.537	1.46
454.742	1.46
454.948	1.41
455.153	1.41
455.358	1.53
455.563	1.79
455.769	1.88
455.974	1.87
456.179	1.78
456.384	1.72
456.589	1.59
456.795	1.39
457	1.38
457.205	1.6
457.41	1.62
457.615	1.59
457.82	1.69
458.025	1.71
458.23	1.5
458.435	1.57
458.64	1.48
458.845	1.71
459.05	1.68
459.255	1.71
