Data from Ofra_2a_PS_2CX80_Reflection_2.txt Node
Date: Tue Jul 20 09:38:56 EDT 2021
User: Adam
Spectrometer: FLMT01687
Trigger mode: 0
Integration Time (sec): 9.450000E-1
Scans to average: 3
Electric dark correction enabled: true
Nonlinearity correction enabled: false
Boxcar width: 3
XAxis mode: Wavelengths
Number of Pixels in Spectrum: 3648
>>>>>Begin Spectral Data<<<<<
179.494	782.25
179.716	505.55
179.937	469.78
180.158	1755.08
180.38	-849.13
180.601	-104.18
180.823	1.3
181.044	164.44
181.265	111.36
181.486	13.73
181.708	-357.61
181.929	31.51
182.15	-936.93
182.372	140.16
182.593	220.29
182.814	202.25
183.035	285.85
183.257	120.18
183.478	71.2
183.699	105.97
183.92	75.19
184.141	69.31
184.363	34.99
184.584	20.44
184.805	21.62
185.026	-1.1
185.247	-11.28
185.468	8.86
185.689	21.5
185.91	25.52
186.132	30.51
186.353	22.08
186.574	29.58
186.795	14.12
187.016	0.3
187.237	3.64
187.458	-3.81
187.679	-13.06
187.9	11.8
188.121	8
188.342	28.22
188.563	27.13
188.784	14.01
189.005	12.67
189.226	8.5
189.447	5.14
189.667	3.27
189.888	7.7
190.109	16.2
190.33	8.89
190.551	8.4
190.772	11.7
190.993	12.49
191.214	14.7
191.434	-1.82
191.655	-3.44
191.876	10.48
192.097	8.02
192.318	12.99
192.538	8.81
192.759	12.39
192.98	12.7
193.201	27.71
193.421	26.16
193.642	35.69
193.863	25.41
194.083	19.88
194.304	6.78
194.525	25.44
194.745	-0.73
194.966	12.23
195.187	16.74
195.407	23.5
195.628	18.88
195.848	27.03
196.069	23.37
196.29	17.38
196.51	-3.34
196.731	-2.77
196.951	-6.03
197.172	5.33
197.392	9.01
197.613	2.68
197.833	4.47
198.054	15.15
198.274	-2.92
198.495	-18.24
198.715	-43.29
198.936	-69.21
199.156	-47.28
199.377	-40.77
199.597	-46.55
199.817	-14.77
200.038	8.64
200.258	26.3
200.479	33.46
200.699	38.69
200.919	31.66
201.14	28.18
201.36	20.55
201.58	5.19
201.801	5.92
202.021	0.88
202.241	0.99
202.461	8.64
202.682	8.98
202.902	16.38
203.122	12.69
203.342	19.2
203.563	35.5
203.783	32.85
204.003	33.19
204.223	48.65
204.443	47.05
204.663	57.34
204.884	47.3
205.104	27.97
205.324	41.99
205.544	43.8
205.764	20.47
205.984	20.66
206.204	9.95
206.424	33.22
206.644	36.43
206.864	26.61
207.084	44.95
207.304	40.22
207.525	37.16
207.745	42.33
207.964	31.81
208.184	34
208.404	33.07
208.624	-3.43
208.844	-13.43
209.064	-7.81
209.284	-10.68
209.504	-10.84
209.724	-40.22
209.944	-41.81
210.164	-14.22
210.384	10.02
210.604	11.68
210.823	19.98
211.043	13.7
211.263	29.75
211.483	29.72
211.703	24.89
211.922	18.39
212.142	19.52
212.362	17.53
212.582	28.17
212.801	26.46
213.021	23.36
213.241	20.22
213.461	22.49
213.68	9.11
213.9	4.49
214.12	-4.14
214.339	8.68
214.559	12.99
214.779	21.87
214.998	25.69
215.218	38.36
215.438	57.15
215.657	42.05
215.877	31.49
216.096	32.21
216.316	20.14
216.535	6.54
216.755	-1.69
216.974	-17.08
217.194	-2.76
217.413	15.24
217.633	17.06
217.852	20.6
218.072	23.72
218.291	30.59
218.511	28.02
218.73	23.1
218.95	14.4
219.169	16.68
219.389	10.88
219.608	18.69
219.827	16.26
220.047	26.64
220.266	26
220.485	32.03
220.705	18.26
220.924	34.12
221.143	34.92
221.363	30.09
221.582	20.25
221.801	28.17
222.021	15.38
222.24	19.85
222.459	7.12
222.678	8.33
222.897	5.59
223.117	-0.4
223.336	5.09
223.555	12.75
223.774	16.6
223.993	25.46
224.213	14.66
224.432	28.32
224.651	26.43
224.87	20.85
225.089	34.59
225.308	36.32
225.527	33.45
225.746	21.99
225.965	10.34
226.184	17.87
226.404	16.03
226.623	13.56
226.842	9.9
227.061	8.33
227.28	41.29
227.499	45.18
227.718	36.63
227.936	31.99
228.155	19.96
228.374	23.67
228.593	25.82
228.812	11.13
229.031	1.05
229.25	22.24
229.469	27.94
229.688	38.46
229.907	33.46
230.125	30.07
230.344	42.21
230.563	45.65
230.782	34.05
231.001	34.61
231.22	27.9
231.438	31.05
231.657	39.77
231.876	34.56
232.095	31.17
232.313	39.64
232.532	29.72
232.751	39.56
232.969	38.62
233.188	32.01
233.407	23.34
233.625	36.04
233.844	37.67
234.063	45.93
234.281	29.65
234.5	22.37
234.719	16.37
234.937	24.82
235.156	19.43
235.374	5.95
235.593	6.48
235.811	-0.89
236.03	-7.06
236.249	1.8
236.467	-0.94
236.686	3.04
236.904	2.13
237.123	2.87
237.341	13.24
237.559	16.34
237.778	25.1
237.996	27.9
238.215	18.26
238.433	24.52
238.652	26.69
238.87	25.47
239.088	18.69
239.307	22.44
239.525	14.82
239.743	7.09
239.962	1.64
240.18	3.69
240.398	11.23
240.617	23.42
240.835	15.5
241.053	28.8
241.271	35.72
241.49	23
241.708	10.21
241.926	-2.07
242.144	8.96
242.363	4.85
242.581	9.05
242.799	7.85
243.017	25.21
243.235	35
243.453	37.52
243.672	18.73
243.89	26.65
244.108	14.7
244.326	2.18
244.544	1.79
244.762	6.67
244.98	6.48
245.198	9.25
245.416	13.37
245.634	27.16
245.852	37.76
246.07	35.56
246.288	28.74
246.506	43.45
246.724	44.08
246.942	35.97
247.16	25.51
247.378	21.89
247.596	29.1
247.814	28.99
248.032	16.78
248.25	24.97
248.468	19.14
248.685	22.63
248.903	18.95
249.121	12.4
249.339	21.5
249.557	24.14
249.775	4.88
249.992	9.63
250.21	1.27
250.428	11.41
250.646	16.02
250.863	15.7
251.081	15.25
251.299	40.14
251.517	49.1
251.734	48.75
251.952	39.65
252.17	12.79
252.387	7.68
252.605	8.44
252.823	-18.64
253.04	-31.28
253.258	-16.31
253.475	-8.04
253.693	23.25
253.911	26.92
254.128	23.27
254.346	25.63
254.563	24.1
254.781	23.42
254.998	31.14
255.216	26.57
255.433	27.45
255.651	23.7
255.868	28.21
256.086	38.62
256.303	36.63
256.521	15.09
256.738	9.6
256.956	-0.04
257.173	12.89
257.39	18.84
257.608	12.39
257.825	14.97
258.043	28.08
258.26	23.81
258.477	32.37
258.695	38.31
258.912	32.71
259.129	29.58
259.346	24.49
259.564	21.36
259.781	36
259.998	40.28
260.216	35.6
260.433	41.3
260.65	51.29
260.867	45.67
261.084	38.78
261.302	24.06
261.519	13.28
261.736	9.82
261.953	1.29
262.17	4.29
262.387	14.41
262.604	5.42
262.822	18.95
263.039	16.6
263.256	26.93
263.473	20.11
263.69	23.92
263.907	23.2
264.124	19.97
264.341	17.09
264.558	22.77
264.775	19.96
264.992	22.46
265.209	20.55
265.426	18.24
265.643	21.12
265.86	15.51
266.077	16.85
266.294	7.81
266.51	9.23
266.727	0.89
266.944	-0.64
267.161	-6.77
267.378	-4.88
267.595	-27.77
267.812	-15.75
268.028	-8.27
268.245	-3.76
268.462	0.05
268.679	2.18
268.896	-8.01
269.112	14.71
269.329	16.13
269.546	13.21
269.763	10.43
269.979	5.46
270.196	15.05
270.413	27.84
270.629	16.38
270.846	17.22
271.063	21.83
271.279	18.65
271.496	13.69
271.712	10.81
271.929	18.51
272.146	26.7
272.362	8.38
272.579	10.19
272.795	11.23
273.012	18.64
273.228	8.29
273.445	5.12
273.661	-4.41
273.878	9.08
274.094	5.79
274.311	5.53
274.527	2.94
274.744	6.9
274.96	4.54
275.177	12.23
275.393	7.77
275.609	14.59
275.826	22.18
276.042	39.69
276.259	41.91
276.475	36.1
276.691	32.77
276.908	25.39
277.124	22.6
277.34	20.59
277.557	10.67
277.773	3.45
277.989	2.74
278.205	-8.73
278.422	12.23
278.638	21.06
278.854	23.13
279.07	14.49
279.286	20.32
279.503	13.68
279.719	30.84
279.935	8.91
280.151	5.25
280.367	3.4
280.583	13.53
280.799	21.77
281.016	32.27
281.232	29.31
281.448	34.07
281.664	31.49
281.88	37.24
282.096	28.36
282.312	19.02
282.528	-1.62
282.744	-0.78
282.96	8.88
283.176	7.39
283.392	5.69
283.608	10.63
283.824	2.56
284.04	22.99
284.256	18.79
284.471	18.65
284.687	22.33
284.903	10.22
285.119	0.73
285.335	6.79
285.551	2.73
285.767	-3.28
285.982	-5.95
286.198	-14.4
286.414	5.61
286.63	19.9
286.846	25.16
287.061	22.77
287.277	31.3
287.493	40.2
287.709	37.97
287.924	41.73
288.14	33.25
288.356	38.09
288.571	35.2
288.787	29.95
289.003	29.52
289.218	29.66
289.434	23.03
289.65	24.52
289.865	27.5
290.081	30.8
290.296	28.58
290.512	25.94
290.727	29.8
290.943	27.73
291.159	20.88
291.374	15.13
291.59	14.49
291.805	15.26
292.021	-1.21
292.236	6.21
292.451	6.34
292.667	14.83
292.882	7.17
293.098	7.92
293.313	2.25
293.529	13.59
293.744	7.95
293.959	10.48
294.175	7.42
294.39	13.09
294.605	15.47
294.821	28.29
295.036	36.53
295.251	38.31
295.467	34.46
295.682	38.34
295.897	36.35
296.112	39.01
296.328	35.19
296.543	28.6
296.758	31.18
296.973	29.94
297.188	23.74
297.404	25.97
297.619	22.57
297.834	25.44
298.049	26.02
298.264	19.13
298.479	16.74
298.694	21.08
298.909	16.34
299.125	18.45
299.34	11.86
299.555	17.22
299.77	23.14
299.985	19.51
300.2	17.24
300.415	20.4
300.63	17.61
300.845	23.32
301.06	19.06
301.275	16.12
301.49	15.31
301.704	15.61
301.919	11.62
302.134	7.99
302.349	-1.88
302.564	-3.5
302.779	-1.4
302.994	5.08
303.209	-0.04
303.423	3.05
303.638	1.93
303.853	12.38
304.068	12.56
304.283	8.65
304.497	10.12
304.712	16.63
304.927	6.33
305.142	7.21
305.356	3.33
305.571	8.04
305.786	1.4
306	4.73
306.215	9.72
306.43	29.61
306.644	30.49
306.859	32.85
307.074	34.51
307.288	36.35
307.503	37.29
307.717	27.86
307.932	23.77
308.147	29.73
308.361	39.84
308.576	38.1
308.79	38.64
309.005	38.25
309.219	41.05
309.434	36.96
309.648	26.93
309.863	14.85
310.077	4.76
310.292	12.67
310.506	21.94
310.72	16.86
310.935	17.46
311.149	23.6
311.364	28.8
311.578	25.03
311.792	21.67
312.007	9.89
312.221	19.72
312.435	20.41
312.649	19.63
312.864	18.22
313.078	24.49
313.292	30.82
313.507	39.72
313.721	38.49
313.935	45.81
314.149	47.44
314.363	46.82
314.578	70.65
314.792	66.83
315.006	55.81
315.22	59.56
315.434	47.01
315.648	37.57
315.862	29.37
316.077	6.16
316.291	7.05
316.505	20.17
316.719	1.89
316.933	11.58
317.147	13.51
317.361	29.56
317.575	43.29
317.789	47.31
318.003	42.22
318.217	41.52
318.431	39.87
318.645	47.87
318.859	25.22
319.073	19.01
319.287	18.74
319.5	16.84
319.714	17.44
319.928	22.11
320.142	14.79
320.356	34.77
320.57	29.26
320.784	24.94
320.997	28.03
321.211	31.47
321.425	20.19
321.639	19.26
321.853	9.64
322.066	14.23
322.28	20.24
322.494	10.79
322.707	9.43
322.921	14.8
323.135	13.65
323.349	19.41
323.562	23.65
323.776	15.48
323.989	18.42
324.203	18.55
324.417	12.76
324.63	10.38
324.844	-2.78
325.057	-5.48
325.271	-16.39
325.485	-10.68
325.698	-5.18
325.912	4.46
326.125	9.09
326.339	22.38
326.552	26.32
326.766	36.45
326.979	35.49
327.193	36.55
327.406	35.4
327.619	29.25
327.833	21.63
328.046	17.14
328.26	21.54
328.473	27.84
328.686	29.54
328.9	25.87
329.113	36.22
329.326	44.11
329.54	39.56
329.753	26.65
329.966	20.38
330.179	15.45
330.393	23.59
330.606	25.34
330.819	23.42
331.032	25.88
331.246	29.55
331.459	31.45
331.672	32.24
331.885	34.22
332.098	27.77
332.311	10.84
332.525	19.01
332.738	23.29
332.951	23.25
333.164	22.43
333.377	3.98
333.59	11.29
333.803	27.81
334.016	27.15
334.229	17.4
334.442	25.41
334.655	30.98
334.868	42.07
335.081	39.95
335.294	32.57
335.507	37.27
335.72	34.55
335.933	27.86
336.146	19.56
336.359	18.55
336.572	13.83
336.785	20.45
336.997	13.9
337.21	23.15
337.423	23.55
337.636	22.88
337.849	13.51
338.062	14.89
338.274	10.23
338.487	14.03
338.7	13.91
338.913	11.24
339.125	10.7
339.338	24.15
339.551	26.1
339.763	27.14
339.976	23.16
340.189	19.47
340.402	20.83
340.614	26.04
340.827	15.88
341.039	21.55
341.252	25.84
341.465	24.93
341.677	20.43
341.89	17.32
342.102	17.99
342.315	24.48
342.527	14.18
342.74	12.84
342.952	11.73
343.165	26.34
343.377	34.93
343.59	32.41
343.802	31.53
344.015	35.48
344.227	31.27
344.44	34.89
344.652	25.96
344.864	22.88
345.077	17.61
345.289	18.21
345.502	17.23
345.714	9.44
345.926	11.15
346.139	14.09
346.351	1.24
346.563	8.83
346.775	7.66
346.988	9.59
347.2	15.63
347.412	19
347.624	14.35
347.837	22.26
348.049	21.4
348.261	23.48
348.473	19.77
348.685	17.14
348.897	11.3
349.11	6.86
349.322	5.93
349.534	-3.95
349.746	4.96
349.958	5.37
350.17	8.67
350.382	4.23
350.594	7.77
350.806	10.62
351.018	21.36
351.23	17.98
351.442	19.11
351.654	22.12
351.866	25.97
352.078	27.72
352.29	27.26
352.502	21.04
352.714	17.57
352.926	14.75
353.138	9.64
353.35	6.48
353.561	0.1
353.773	3.09
353.985	13.53
354.197	7.2
354.409	9.23
354.621	8.06
354.832	5.75
355.044	22.63
355.256	13.23
355.468	4.86
355.679	7.43
355.891	7
356.103	9.9
356.314	14.01
356.526	0.11
356.738	-0.37
356.949	-2
357.161	-5.31
357.373	2.86
357.584	13.47
357.796	11.12
358.008	17.67
358.219	29.43
358.431	36.21
358.642	39.69
358.854	32.92
359.065	19.68
359.277	15.11
359.488	7.54
359.7	10.7
359.911	4.66
360.123	9.34
360.334	9.12
360.546	4.28
360.757	17.41
360.969	26.92
361.18	16.16
361.391	18.53
361.603	18.03
361.814	23.3
362.025	27.21
362.237	20
362.448	13.81
362.659	8.32
362.871	12.26
363.082	13.83
363.293	16.29
363.504	19.39
363.716	19.49
363.927	25.24
364.138	28.03
364.349	25.11
364.56	14.58
364.772	8.33
364.983	1.63
365.194	-1.8
365.405	-7.38
365.616	-12.23
365.827	-12.1
366.038	10.98
366.25	3.76
366.461	10.32
366.672	13.43
366.883	18.12
367.094	23.34
367.305	24.42
367.516	13.65
367.727	17.97
367.938	16.83
368.149	17.23
368.36	17.5
368.571	17.73
368.781	15.87
368.992	18.97
369.203	20.98
369.414	21.08
369.625	20.97
369.836	16.98
370.047	14.67
370.258	12.65
370.468	5.3
370.679	5.68
370.89	14.59
371.101	10.66
371.312	4.95
371.522	12.06
371.733	3.83
371.944	18.72
372.155	10.07
372.365	-3.37
372.576	-6.5
372.787	-4.92
372.997	-10.86
373.208	3.92
373.419	-6.15
373.629	5.13
373.84	9.93
374.05	18.89
374.261	26.87
374.472	26.4
374.682	14.97
374.893	7.36
375.103	13.46
375.314	10.68
375.524	10.24
375.735	10.95
375.945	14.27
376.156	22.33
376.366	27.61
376.577	25.21
376.787	20.88
376.997	19.34
377.208	11.95
377.418	6.36
377.629	3.85
377.839	12.36
378.049	13.51
378.26	23.68
378.47	25.44
378.68	25.22
378.89	23.32
379.101	18.07
379.311	4.11
379.521	6.92
379.732	-2.77
379.942	-4.73
380.152	2.17
380.362	9.76
380.572	14.1
380.783	17.47
380.993	11.38
381.203	14.98
381.413	14.58
381.623	13.55
381.833	9.79
382.043	10.75
382.253	14.95
382.463	16.66
382.674	17.94
382.884	13.38
383.094	14.3
383.304	12.11
383.514	8.23
383.724	4.81
383.934	2.59
384.144	1.62
384.353	7.77
384.563	8.59
384.773	9.8
384.983	12.88
385.193	17.81
385.403	19.8
385.613	17.64
385.823	14.42
386.033	11.91
386.242	12.42
386.452	12.4
386.662	9.39
386.872	6.41
387.082	5.23
387.291	6.78
387.501	6.21
387.711	6.81
387.921	6.78
388.13	5.61
388.34	6.88
388.55	9.37
388.759	9.42
388.969	10.49
389.179	11.95
389.388	10.24
389.598	10.33
389.807	8.72
390.017	8.39
390.227	6.97
390.436	4.8
390.646	3.55
390.855	4.35
391.065	3.28
391.274	2.85
391.484	2.38
391.693	3.76
391.903	4.54
392.112	2.82
392.322	4.25
392.531	6.03
392.74	5.63
392.95	7.05
393.159	6.8
393.369	6.02
393.578	6.62
393.787	5.17
393.997	5.91
394.206	6.68
394.415	6.44
394.625	5.36
394.834	5.46
395.043	5.36
395.252	6.14
395.462	5.55
395.671	5.84
395.88	5.82
396.089	5.61
396.298	5.53
396.508	5.57
396.717	4.85
396.926	4.33
397.135	3.38
397.344	3.13
397.553	3.76
397.762	3.9
397.971	3.62
398.181	3.67
398.39	3.56
398.599	4.21
398.808	4.13
399.017	4.17
399.226	4.33
399.435	4.6
399.644	4.54
399.853	4.7
400.062	4.52
400.27	4.58
400.479	4.42
400.688	4.43
400.897	4.38
401.106	4.54
401.315	4.46
401.524	4.47
401.733	4.33
401.941	4.32
402.15	3.98
402.359	3.99
402.568	3.95
402.777	3.86
402.985	3.89
403.194	3.98
403.403	3.83
403.612	3.99
403.82	4.04
404.029	3.86
404.238	3.97
404.446	3.93
404.655	3.81
404.864	3.88
405.072	3.87
405.281	3.79
405.489	4.06
405.698	3.97
405.906	3.86
406.115	4.02
406.324	3.98
406.532	4.04
406.741	4.16
406.949	3.97
407.158	4.13
407.366	4.27
407.574	4.29
407.783	4.22
407.991	4.15
408.2	4.03
408.408	4.03
408.617	3.9
408.825	3.77
409.033	3.59
409.242	3.62
409.45	3.62
409.658	3.58
409.867	3.53
410.075	3.51
410.283	3.47
410.491	3.52
410.7	3.59
410.908	3.57
411.116	3.53
411.324	3.57
411.533	3.49
411.741	3.49
411.949	3.54
412.157	3.53
412.365	3.58
412.573	3.59
412.781	3.59
412.99	3.72
413.198	3.77
413.406	3.7
413.614	3.67
413.822	3.59
414.03	3.53
414.238	3.56
414.446	3.45
414.654	3.46
414.862	3.48
415.07	3.56
415.278	3.56
415.486	3.7
415.694	3.59
415.902	3.63
416.109	3.63
416.317	3.53
416.525	3.45
416.733	3.48
416.941	3.41
417.149	3.51
417.357	3.47
417.564	3.34
417.772	3.41
417.98	3.27
418.188	3.15
418.395	3.11
418.603	2.99
418.811	2.9
419.019	2.95
419.226	2.96
419.434	2.97
419.642	2.99
419.849	3
420.057	3.06
420.265	3.22
420.472	3.2
420.68	3.11
420.887	3.19
421.095	3.26
421.302	3.3
421.51	3.34
421.717	3.33
421.925	3.25
422.132	3.23
422.34	3.15
422.547	3.16
422.755	3.17
422.962	3.01
423.17	2.92
423.377	3.04
423.585	3.14
423.792	3.12
423.999	3.14
424.207	3.04
424.414	3.18
424.621	3.32
424.829	3.26
425.036	3.22
425.243	3.3
425.451	3.26
425.658	3.38
425.865	3.28
426.072	3.21
426.28	3.24
426.487	3.24
426.694	3.18
426.901	3.07
427.108	3.03
427.315	3.04
427.523	3.02
427.73	3.08
427.937	3.08
428.144	3.13
428.351	3.21
428.558	3.17
428.765	3.11
428.972	3.08
429.179	2.98
429.386	3
429.593	2.91
429.8	2.95
430.007	2.98
430.214	3.07
430.421	3.09
430.628	3.02
430.835	2.98
431.042	3.04
431.249	2.95
431.456	3
431.662	3
431.869	3.03
432.076	3.11
432.283	3.05
432.49	3.01
432.697	3.04
432.903	3.02
433.11	3.03
433.317	2.97
433.524	2.95
433.73	3.02
433.937	3
434.144	3.04
434.35	3.07
434.557	3.02
434.764	3.08
434.97	3.14
435.177	3.14
435.384	3.28
435.59	3.27
435.797	3.24
436.003	3.25
436.21	3.21
436.416	3.12
436.623	3.1
436.829	3
437.036	2.99
437.242	3
437.449	3.03
437.655	2.99
437.862	3.07
438.068	3.17
438.275	3.25
438.481	3.27
438.687	3.3
438.894	3.3
439.1	3.4
439.307	3.36
439.513	3.29
439.719	3.32
439.926	3.38
440.132	3.37
440.338	3.44
440.544	3.39
440.751	3.41
440.957	3.36
441.163	3.33
441.369	3.29
441.575	3.24
441.782	3.17
441.988	3.2
442.194	3.23
442.4	3.3
442.606	3.3
442.812	3.28
443.018	3.3
443.224	3.34
443.431	3.35
443.637	3.3
443.843	3.3
444.049	3.25
444.255	3.27
444.461	3.27
444.667	3.23
444.873	3.18
445.079	3.24
445.284	3.18
445.49	3.15
445.696	3.17
445.902	3.21
446.108	3.25
446.314	3.35
446.52	3.35
446.726	3.42
446.931	3.5
447.137	3.48
447.343	3.47
447.549	3.4
447.755	3.35
447.96	3.31
448.166	3.28
448.372	3.3
448.578	3.32
448.783	3.27
448.989	3.37
449.195	3.37
449.4	3.45
449.606	3.47
449.812	3.51
450.017	3.5
450.223	3.55
450.428	3.5
450.634	3.52
450.84	3.48
451.045	3.44
451.251	3.47
451.456	3.44
451.662	3.41
451.867	3.48
452.073	3.45
452.278	3.48
452.483	3.51
452.689	3.51
452.894	3.54
453.1	3.55
453.305	3.49
453.51	3.5
453.716	3.5
453.921	3.49
454.127	3.42
454.332	3.41
454.537	3.45
454.742	3.5
454.948	3.48
455.153	3.46
455.358	3.59
455.563	3.64
455.769	3.66
455.974	3.61
456.179	3.58
456.384	3.65
456.589	3.77
456.795	3.65
457	3.66
457.205	3.63
457.41	3.69
457.615	3.78
457.82	3.81
458.025	3.75
458.23	3.82
458.435	3.78
458.64	3.88
458.845	3.86
459.05	3.86
459.255	3.82
459.46	3.82
459.665	3.86
459.87	3.91
460.075	3.92
460.28	3.97
460.485	3.95
460.69	3.94
460.895	4.02
461.099	4.02
461.304	4.01
461.509	3.93
461.714	3.98
461.919	3.99
462.123	4.08
462.328	4.07
462.533	4.09
462.738	4.1
462.942	4.18
463.147	4.17
463.352	4.24
463.556	4.26
463.761	4.27
463.966	4.29
464.17	4.37
464.375	4.36
464.58	4.36
464.784	4.38
464.989	4.38
465.193	4.39
465.398	4.47
465.602	4.42
465.807	4.48
466.011	4.52
466.216	4.53
466.42	4.55
466.625	4.55
466.829	4.52
467.034	4.64
467.238	4.68
467.443	4.68
467.647	4.69
467.851	4.73
468.056	4.76
468.26	4.76
468.464	4.7
468.669	4.69
468.873	4.68
469.077	4.69
469.282	4.71
469.486	4.78
469.69	4.82
469.894	4.93
470.099	4.94
470.303	5
470.507	5.04
470.711	5
