Data from Ofra_2a_PS_2H517_Reflection_1.txt Node
Date: Tue Jul 20 09:45:24 EDT 2021
User: Adam
Spectrometer: FLMT01687
Trigger mode: 0
Integration Time (sec): 9.450000E-1
Scans to average: 3
Electric dark correction enabled: true
Nonlinearity correction enabled: false
Boxcar width: 3
XAxis mode: Wavelengths
Number of Pixels in Spectrum: 3648
>>>>>Begin Spectral Data<<<<<
179.494	852.07
179.716	424.38
179.937	479.67
180.158	1965.23
180.38	-820.64
180.601	-125.19
180.823	-14.18
181.044	159.86
181.265	124.52
181.486	111.97
181.708	844.57
181.929	121.05
182.15	427.84
182.372	20.85
182.593	90.67
182.814	-23.8
183.035	77.79
183.257	56.31
183.478	38.9
183.699	42.33
183.92	40.76
184.141	49.56
184.363	35.02
184.584	23.52
184.805	31.95
185.026	12.89
185.247	7.11
185.468	6.03
185.689	16.39
185.91	11.17
186.132	14.81
186.353	-1.88
186.574	16.86
186.795	5.21
187.016	19.81
187.237	9.21
187.458	10.86
187.679	1.52
187.9	35.97
188.121	28.05
188.342	37.57
188.563	36.02
188.784	36.28
189.005	42.88
189.226	50.24
189.447	31.88
189.667	21.48
189.888	34.95
190.109	32.23
190.33	32.75
190.551	38.25
190.772	19.98
190.993	28.88
191.214	32.69
191.434	21.18
191.655	27.43
191.876	26.59
192.097	25.83
192.318	32.88
192.538	37.97
192.759	48.21
192.98	45.7
193.201	60.78
193.421	67.57
193.642	65.77
193.863	80.34
194.083	68.53
194.304	49.04
194.525	65.91
194.745	36.78
194.966	30.26
195.187	34.74
195.407	33.06
195.628	27.25
195.848	24.36
196.069	9.9
196.29	12.29
196.51	11.65
196.731	13.12
196.951	15.02
197.172	24.25
197.392	41.69
197.613	35.13
197.833	30.08
198.054	24.05
198.274	5.46
198.495	6.07
198.715	-2.3
198.936	-16.56
199.156	10.89
199.377	18.62
199.597	11.96
199.817	36.3
200.038	18.09
200.258	24.2
200.479	26.98
200.699	17.75
200.919	3.5
201.14	22.92
201.36	19.86
201.58	43.8
201.801	39.78
202.021	35.96
202.241	40.28
202.461	52.05
202.682	58.67
202.902	58.52
203.122	51.39
203.342	68.65
203.563	66.86
203.783	55.34
204.003	54.52
204.223	44.33
204.443	37.07
204.663	39.27
204.884	10.4
205.104	12.41
205.324	31.78
205.544	34.77
205.764	32.19
205.984	40.03
206.204	35.41
206.424	49.31
206.644	35.12
206.864	26.05
207.084	38.95
207.304	37.75
207.525	37.18
207.745	37.86
207.964	41.02
208.184	53.23
208.404	56.91
208.624	42.26
208.844	28.32
209.064	17.72
209.284	29.81
209.504	35.41
209.724	12.2
209.944	10.48
210.164	2.26
210.384	6.46
210.604	7.73
210.823	-9.98
211.043	-26.73
211.263	-5.16
211.483	-12.68
211.703	7.51
211.922	19.05
212.142	18.83
212.362	21.21
212.582	23.44
212.801	23.45
213.021	19.35
213.241	-0.75
213.461	-6.85
213.68	10.64
213.9	16.08
214.12	16.14
214.339	23.73
214.559	41.22
214.779	49.31
214.998	42.17
215.218	39.08
215.438	45.36
215.657	41.78
215.877	35.58
216.096	29.23
216.316	19.31
216.535	22.45
216.755	9.19
216.974	8.6
217.194	5.38
217.413	19.89
217.633	21.42
217.852	34.09
218.072	41.39
218.291	55.46
218.511	52.63
218.73	53.83
218.95	43.89
219.169	47.96
219.389	34.41
219.608	41.92
219.827	16.16
220.047	13.01
220.266	27.2
220.485	29.28
220.705	25.26
220.924	33.94
221.143	7.31
221.363	17.73
221.582	14.79
221.801	16.38
222.021	9.46
222.24	7.84
222.459	-1.44
222.678	6.9
222.897	-2.29
223.117	-3.33
223.336	0.89
223.555	-4.01
223.774	6.37
223.993	14.5
224.213	20.88
224.432	36.51
224.651	35.49
224.87	31.95
225.089	51.82
225.308	50.1
225.527	58.97
225.746	61.38
225.965	39.48
226.184	38.48
226.404	32.57
226.623	30.09
226.842	24.18
227.061	22.42
227.28	36.69
227.499	53.05
227.718	50.31
227.936	35.44
228.155	30.15
228.374	31.53
228.593	26.73
228.812	15.38
229.031	10.44
229.25	19.75
229.469	39.77
229.688	47.74
229.907	36.54
230.125	34.98
230.344	41.4
230.563	39.25
230.782	27.8
231.001	31.14
231.22	11.32
231.438	23.87
231.657	34.2
231.876	37.42
232.095	36.08
232.313	41.61
232.532	39.46
232.751	49.71
232.969	42.39
233.188	30.32
233.407	25.18
233.625	16.51
233.844	16.76
234.063	14.96
234.281	20.35
234.5	26.64
234.719	26.27
234.937	25.01
235.156	36.05
235.374	39.93
235.593	35.87
235.811	30.1
236.03	29.41
236.249	29.86
236.467	37.64
236.686	30.74
236.904	17.68
237.123	21.49
237.341	19.15
237.559	23.36
237.778	42.03
237.996	34.99
238.215	31.41
238.433	48.43
238.652	40.91
238.87	43.34
239.088	26.89
239.307	14.58
239.525	14.02
239.743	14.52
239.962	11.08
240.18	22.73
240.398	27.64
240.617	44.31
240.835	52.02
241.053	55.43
241.271	54.9
241.49	41.62
241.708	36.21
241.926	21.64
242.144	18.18
242.363	12.94
242.581	14.09
242.799	13.3
243.017	22.94
243.235	27.97
243.453	46.27
243.672	40.96
243.89	42.25
244.108	35.78
244.326	35.54
244.544	33.39
244.762	26.28
244.98	18.07
245.198	16.01
245.416	12.2
245.634	24.58
245.852	41
246.07	38.49
246.288	35.37
246.506	36.26
246.724	52.21
246.942	68.82
247.16	57.12
247.378	29.67
247.596	27.75
247.814	22.26
248.032	26.9
248.25	26.32
248.468	24.55
248.685	32.08
248.903	36.06
249.121	40.82
249.339	50.53
249.557	39.74
249.775	14.8
249.992	-2.54
250.21	-10.63
250.428	-7.97
250.646	-1.45
250.863	1.45
251.081	-0.13
251.299	36.44
251.517	50.49
251.734	51.46
251.952	66.36
252.17	50.05
252.387	41.3
252.605	56.73
252.823	35.77
253.04	43.55
253.258	36
253.475	25.39
253.693	40.2
253.911	37.06
254.128	23.6
254.346	21.57
254.563	10.61
254.781	10.24
254.998	3.04
255.216	-9.22
255.433	-3.68
255.651	0.81
255.868	9.73
256.086	21.41
256.303	21.91
256.521	21.78
256.738	31.99
256.956	27.82
257.173	21.91
257.39	20.51
257.608	16.96
257.825	13.22
258.043	23.51
258.26	18.69
258.477	17.42
258.695	26.19
258.912	31.33
259.129	23.08
259.346	36.94
259.564	33.25
259.781	47.54
259.998	55.98
260.216	54.88
260.433	54.33
260.65	68.76
260.867	59.37
261.084	57.67
261.302	52.7
261.519	28.4
261.736	20.83
261.953	19.38
262.17	16.16
262.387	17.19
262.604	5.09
262.822	15.33
263.039	28.58
263.256	22.49
263.473	16.78
263.69	15.4
263.907	25.17
264.124	22.42
264.341	9.13
264.558	13.01
264.775	18.42
264.992	24.09
265.209	27.76
265.426	23.89
265.643	22.5
265.86	20.33
266.077	23.71
266.294	23.08
266.51	19.99
266.727	6.87
266.944	-4.85
267.161	7.89
267.378	20.63
267.595	11.15
267.812	-0.14
268.028	-2.32
268.245	10.86
268.462	10.63
268.679	7.39
268.896	3.18
269.112	13.3
269.329	19.06
269.546	23.88
269.763	23.81
269.979	24.25
270.196	26.42
270.413	21.81
270.629	14.6
270.846	23.72
271.063	19.85
271.279	14.95
271.496	10.21
271.712	5.27
271.929	18.27
272.146	22.6
272.362	5.47
272.579	0.91
272.795	1.84
273.012	5.06
273.228	3.01
273.445	-4.03
273.661	-12.6
273.878	-8.83
274.094	-0.09
274.311	2.51
274.527	1.68
274.744	5.12
274.96	9.75
275.177	16.38
275.393	31.01
275.609	27.96
275.826	30.87
276.042	49.38
276.259	53.3
276.475	48.75
276.691	54.6
276.908	45.94
277.124	44.59
277.34	43.79
277.557	40.63
277.773	29.44
277.989	29.17
278.205	18.04
278.422	17.96
278.638	24.36
278.854	19.23
279.07	6.99
279.286	19.33
279.503	23.76
279.719	33.05
279.935	25.27
280.151	27.69
280.367	28.66
280.583	33.85
280.799	28.16
281.016	20.76
281.232	11.84
281.448	5.12
281.664	-4.82
281.88	5.4
282.096	1.87
282.312	-1.01
282.528	-1.83
282.744	1.13
282.96	24.01
283.176	34.16
283.392	42.17
283.608	50.09
283.824	43.78
284.04	45.71
284.256	47.5
284.471	41.75
284.687	38.01
284.903	24.67
285.119	7.65
285.335	9.02
285.551	14.06
285.767	14.24
285.982	14.68
286.198	12.27
286.414	23.43
286.63	36.14
286.846	33.85
287.061	31.54
287.277	38.94
287.493	32.53
287.709	33.3
287.924	35.78
288.14	38.2
288.356	51.11
288.571	42.53
288.787	39.14
289.003	38.85
289.218	34.81
289.434	28.98
289.65	27.27
289.865	33.59
290.081	30.74
290.296	21.32
290.512	32.18
290.727	35.92
290.943	32.63
291.159	23.24
291.374	15.74
291.59	21.85
291.805	30.87
292.021	22.46
292.236	14.79
292.451	15.46
292.667	18.54
292.882	17.37
293.098	15
293.313	7.01
293.529	4.49
293.744	11.78
293.959	14.21
294.175	28.02
294.39	33.21
294.605	37.96
294.821	34.9
295.036	40.45
295.251	39.2
295.467	33.8
295.682	25.01
295.897	13.51
296.112	5.06
296.328	17.25
296.543	7.37
296.758	3.71
296.973	6.14
297.188	2.79
297.404	15.6
297.619	22.49
297.834	24.26
298.049	32.94
298.264	35.34
298.479	33.3
298.694	36.13
298.909	26.58
299.125	23.24
299.34	14.58
299.555	19.55
299.77	17.31
299.985	17.75
300.2	14.99
300.415	20.65
300.63	18.21
300.845	20.42
301.06	10.8
301.275	14.19
301.49	23.14
301.704	24.53
301.919	23.22
302.134	20.54
302.349	16.07
302.564	18.96
302.779	11.75
302.994	-2.58
303.209	-13.09
303.423	-7.5
303.638	-5.07
303.853	7.12
304.068	11.01
304.283	11.12
304.497	9.73
304.712	20.76
304.927	13.52
305.142	16.66
305.356	13.75
305.571	17.56
305.786	22.89
306	27.16
306.215	23.14
306.43	40.33
306.644	38.16
306.859	36.77
307.074	31.37
307.288	33.01
307.503	30.7
307.717	26.12
307.932	20.62
308.147	22.27
308.361	18.41
308.576	22.18
308.79	17.96
309.005	22.8
309.219	30.06
309.434	22.04
309.648	15.12
309.863	23.68
310.077	15.72
310.292	17.18
310.506	22.68
310.72	8.93
310.935	19.03
311.149	21.28
311.364	18.97
311.578	18.05
311.792	21.08
312.007	10.76
312.221	25.04
312.435	22.9
312.649	-2.97
312.864	-9.96
313.078	9.03
313.292	-4.5
313.507	13.71
313.721	6.34
313.935	11.46
314.149	40.49
314.363	40.74
314.578	50.26
314.792	50.35
315.006	45.18
315.22	52.39
315.434	47.84
315.648	45.75
315.862	46.61
316.077	42.28
316.291	51.86
316.505	43.31
316.719	23.98
316.933	22.95
317.147	24.27
317.361	26.93
317.575	17.4
317.789	18.32
318.003	29.64
318.217	38.8
318.431	41.93
318.645	45.86
318.859	32.53
319.073	20.94
319.287	20.17
319.5	16.67
319.714	13.63
319.928	14.95
320.142	5.98
320.356	26.24
320.57	32.8
320.784	29.91
320.997	31
321.211	32.5
321.425	26.47
321.639	30.68
321.853	19.7
322.066	29.04
322.28	31.42
322.494	27.28
322.707	26.75
322.921	28.83
323.135	26.63
323.349	28.4
323.562	19.76
323.776	11.43
323.989	15.85
324.203	18.14
324.417	12.11
324.63	10.76
324.844	11.2
325.057	12.08
325.271	15.13
325.485	15.85
325.698	11.22
325.912	21.96
326.125	23.02
326.339	22.54
326.552	26.1
326.766	32.52
326.979	30.65
327.193	35.41
327.406	24.88
327.619	4
327.833	0.07
328.046	-6.34
328.26	-22.17
328.473	-15.5
328.686	-15.8
328.9	-21.01
329.113	-2.12
329.326	5.31
329.54	11.04
329.753	24.93
329.966	19.09
330.179	22.28
330.393	30.63
330.606	27.09
330.819	28.8
331.032	29.41
331.246	31.44
331.459	30.19
331.672	22.08
331.885	20.93
332.098	25.69
332.311	7.76
332.525	11.36
332.738	4.91
332.951	7.56
333.164	10.92
333.377	0.15
333.59	-3.24
333.803	10.94
334.016	2.71
334.229	4.92
334.442	21.35
334.655	27.97
334.868	41.78
335.081	54.34
335.294	51.91
335.507	52.07
335.72	48.58
335.933	39.36
336.146	35.06
336.359	23.99
336.572	16.28
336.785	27.16
336.997	23.62
337.21	21.63
337.423	18.96
337.636	23.84
337.849	25.08
338.062	27.83
338.274	20.1
338.487	21.95
338.7	28.13
338.913	26.04
339.125	14.55
339.338	21.54
339.551	21.56
339.763	21.93
339.976	20.16
340.189	18.73
340.402	19.54
340.614	29.1
340.827	16.44
341.039	14.73
341.252	15.62
341.465	12.87
341.677	4.8
341.89	9.75
342.102	11.58
342.315	21.58
342.527	13.97
342.74	10.2
342.952	10.38
343.165	25.12
343.377	20.12
343.59	17.77
343.802	24.29
344.015	31.14
344.227	36.93
344.44	36.73
344.652	27.67
344.864	26.64
345.077	32.11
345.289	21.13
345.502	30.85
345.714	16.11
345.926	27.06
346.139	29.89
346.351	20.2
346.563	20.35
346.775	26.14
346.988	14.45
347.2	25.11
347.412	25.37
347.624	28.4
347.837	31.89
348.049	19.65
348.261	20.12
348.473	19.85
348.685	17.82
348.897	11.9
349.11	5.73
349.322	6.1
349.534	8.67
349.746	6.95
349.958	8.62
350.17	17.21
350.382	4.99
350.594	10.05
350.806	19.8
351.018	27.84
351.23	24.71
351.442	20.67
351.654	16.1
351.866	25.14
352.078	25.66
352.29	21.58
352.502	19.32
352.714	25.96
352.926	28.45
353.138	25.01
353.35	23.04
353.561	15.28
353.773	16.66
353.985	19.69
354.197	12.9
354.409	17.71
354.621	19.1
354.832	17.52
355.044	25.53
355.256	19.56
355.468	11.2
355.679	18.45
355.891	16.8
356.103	21.06
356.314	18.64
356.526	17.01
356.738	17.34
356.949	21.58
357.161	20.19
357.373	18.82
357.584	20.54
357.796	13.53
358.008	21.64
358.219	28.67
358.431	28.55
358.642	28.94
358.854	32.73
359.065	28.38
359.277	36.99
359.488	24.76
359.7	22.58
359.911	21.7
360.123	27.63
360.334	20.67
360.546	12.03
360.757	9.9
360.969	21.25
361.18	25.53
361.391	25.2
361.603	19.57
361.814	23.99
362.025	30.95
362.237	35.3
362.448	32.39
362.659	26.03
362.871	29.06
363.082	34.2
363.293	38.63
363.504	35.91
363.716	34.36
363.927	35.56
364.138	36.44
364.349	33.96
364.56	26.27
364.772	23.66
364.983	20.19
365.194	20.19
365.405	9.76
365.616	5.14
365.827	6.86
366.038	18.07
366.25	17.26
366.461	23.14
366.672	23.37
366.883	29.04
367.094	28.79
367.305	30.28
367.516	26.11
367.727	23.79
367.938	26.33
368.149	21.29
368.36	15.16
368.571	17.68
368.781	9.15
368.992	8.06
369.203	9.55
369.414	2.77
369.625	5.85
369.836	10.91
370.047	9.64
370.258	13.71
370.468	11.42
370.679	7.43
370.89	12.44
371.101	8.19
371.312	6.01
371.522	5.57
371.733	10.75
371.944	9.88
372.155	1.83
372.365	-2.26
372.576	-3.55
372.787	-3.62
372.997	-5.15
373.208	-6.64
373.419	-2.85
373.629	6.45
373.84	1.93
374.05	11.4
374.261	11.01
374.472	10.61
374.682	3.2
374.893	3.04
375.103	9.61
375.314	16.69
375.524	15.64
375.735	18.81
375.945	21.81
376.156	27.67
376.366	29.02
376.577	25.06
376.787	28.52
376.997	32.38
377.208	27.27
377.418	30.29
377.629	26.56
377.839	29.57
378.049	33.23
378.26	31.12
378.47	29.67
378.68	31.36
378.89	19.84
379.101	17.63
379.311	7.19
379.521	3.82
379.732	-6.29
379.942	-10.07
380.152	-5.64
380.362	5.13
380.572	15.07
380.783	23.47
380.993	25.17
381.203	32.64
381.413	35.52
381.623	31.2
381.833	26.77
382.043	14.06
382.253	13.47
382.463	13.03
382.674	12.97
382.884	3.55
383.094	10.09
383.304	6.71
383.514	17.38
383.724	10.25
383.934	8.98
384.144	7.16
384.353	14.25
384.563	9.05
384.773	13.29
384.983	11.53
385.193	19.32
385.403	22.44
385.613	19.88
385.823	16.99
386.033	18.49
386.242	20.63
386.452	16.67
386.662	10.96
386.872	4.87
387.082	4.58
387.291	7.88
387.501	5.53
387.711	2.21
387.921	3.02
388.13	1.69
388.34	2.12
388.55	5.72
388.759	1.86
388.969	2.22
389.179	5.57
389.388	6.59
389.598	5.32
389.807	7
390.017	4.56
390.227	4.06
390.436	4.22
390.646	3.52
390.855	2.47
391.065	4.6
391.274	3.47
391.484	4.26
391.693	6.1
391.903	5.27
392.112	4.97
392.322	6.59
392.531	5.53
392.74	4.21
392.95	3.26
393.159	3.1
393.369	3.1
393.578	3.26
393.787	2.73
393.997	3.53
394.206	3.82
394.415	4.36
394.625	3.95
394.834	3.23
395.043	3.43
395.252	3.38
395.462	2.98
395.671	3.92
395.88	4.31
396.089	4.12
396.298	4.34
396.508	3.36
396.717	2.72
396.926	2.72
397.135	2.1
397.344	2.04
397.553	2.46
397.762	2.97
397.971	3.15
398.181	2.81
398.39	2.82
398.599	3.02
398.808	2.88
399.017	3.1
399.226	3.22
399.435	3.14
399.644	3.32
399.853	3.18
400.062	2.92
400.27	2.99
400.479	2.65
400.688	2.36
400.897	2.73
401.106	2.88
401.315	2.91
401.524	3.07
401.733	3.01
401.941	2.92
402.15	2.82
402.359	2.6
402.568	2.51
402.777	2.34
402.985	2.3
403.194	2.18
403.403	2.16
403.612	2.24
403.82	2.27
404.029	2.23
404.238	2.4
404.446	2.32
404.655	2.26
404.864	2.2
405.072	2.17
405.281	2.11
405.489	2.12
405.698	2.07
405.906	2.09
406.115	2.24
406.324	2.23
406.532	2.22
406.741	2.26
406.949	2.25
407.158	2.25
407.366	2.3
407.574	2.18
407.783	2.12
407.991	2.07
408.2	1.97
408.408	1.94
408.617	1.92
408.825	1.88
409.033	1.84
409.242	1.84
409.45	1.8
409.658	1.81
409.867	1.83
410.075	1.81
410.283	1.73
410.491	1.78
410.7	1.84
410.908	1.92
411.116	1.88
411.324	1.94
411.533	1.82
411.741	1.87
411.949	1.87
412.157	1.89
412.365	1.85
412.573	1.91
412.781	1.86
412.99	1.97
413.198	2.02
413.406	2.04
413.614	2.04
413.822	2.04
414.03	1.95
414.238	1.99
414.446	1.93
414.654	1.9
414.862	1.79
415.07	1.86
415.278	1.83
415.486	1.94
415.694	1.8
415.902	1.78
416.109	1.78
416.317	1.79
416.525	1.75
416.733	1.79
416.941	1.69
417.149	1.83
417.357	1.91
417.564	1.83
417.772	1.81
417.98	1.72
418.188	1.59
418.395	1.65
418.603	1.5
418.811	1.44
419.019	1.47
419.226	1.58
419.434	1.57
419.642	1.69
419.849	1.71
420.057	1.8
420.265	1.87
420.472	1.9
420.68	1.8
420.887	1.82
421.095	1.81
421.302	1.84
421.51	1.94
421.717	1.88
421.925	1.78
422.132	1.72
422.34	1.73
422.547	1.67
422.755	1.56
422.962	1.36
423.17	1.21
423.377	1.39
423.585	1.44
423.792	1.47
423.999	1.48
424.207	1.45
424.414	1.57
424.621	1.83
424.829	1.75
425.036	1.76
425.243	1.74
425.451	1.83
425.658	1.98
425.865	1.88
426.072	1.81
426.28	1.81
426.487	1.88
426.694	1.88
426.901	1.69
427.108	1.58
427.315	1.68
427.523	1.66
427.73	1.64
427.937	1.57
428.144	1.58
428.351	1.74
428.558	1.73
428.765	1.59
428.972	1.6
429.179	1.57
429.386	1.64
429.593	1.61
429.8	1.61
430.007	1.62
430.214	1.68
430.421	1.62
430.628	1.55
430.835	1.55
431.042	1.58
431.249	1.53
431.456	1.55
431.662	1.56
431.869	1.63
432.076	1.69
432.283	1.61
432.49	1.63
432.697	1.66
432.903	1.64
433.11	1.7
433.317	1.69
433.524	1.65
433.73	1.71
433.937	1.65
434.144	1.68
434.35	1.77
434.557	1.66
434.764	1.64
434.97	1.7
435.177	1.66
435.384	1.77
435.59	1.73
435.797	1.66
436.003	1.69
436.21	1.66
436.416	1.65
436.623	1.7
436.829	1.61
437.036	1.59
437.242	1.57
437.449	1.6
437.655	1.66
437.862	1.66
438.068	1.72
438.275	1.71
438.481	1.85
438.687	1.9
438.894	1.88
439.1	1.9
439.307	1.91
439.513	1.85
439.719	1.93
439.926	1.87
440.132	1.85
440.338	1.87
440.544	1.83
440.751	1.83
440.957	1.82
441.163	1.75
441.369	1.71
441.575	1.73
441.782	1.75
441.988	1.75
442.194	1.82
442.4	1.88
442.606	1.96
442.812	1.98
443.018	1.98
443.224	2
443.431	2
443.637	1.96
443.843	1.95
444.049	1.85
444.255	1.83
444.461	1.79
444.667	1.81
444.873	1.82
445.079	1.84
445.284	1.79
445.49	1.85
445.696	1.93
445.902	2.01
446.108	1.97
446.314	2.02
446.52	2
446.726	2.03
446.931	2.05
447.137	2.02
447.343	2.01
447.549	1.98
447.755	1.96
447.96	2.01
448.166	2.05
448.372	2.07
448.578	2.04
448.783	2.02
448.989	2.09
449.195	2.05
449.4	2.03
449.606	1.96
449.812	1.96
450.017	1.98
450.223	1.98
450.428	1.94
450.634	2.02
450.84	2
451.045	2.02
451.251	2.04
451.456	2.02
451.662	2.02
451.867	2.01
452.073	1.9
452.278	1.88
452.483	1.93
452.689	1.92
452.894	1.93
453.1	1.88
453.305	1.88
453.51	1.93
453.716	1.96
453.921	1.97
454.127	1.94
454.332	1.95
454.537	2.11
454.742	2.11
454.948	2.12
455.153	2.14
455.358	2.14
455.563	2.12
455.769	2.16
455.974	2.03
456.179	2
456.384	2.04
456.589	2.04
456.795	1.97
457	1.99
457.205	1.96
457.41	2.03
457.615	2.11
457.82	2.14
458.025	2.14
458.23	2.18
458.435	2.17
458.64	2.2
458.845	2.14
459.05	2.12
459.255	2.04
459.46	2.04
459.665	2.11
459.87	2.12
460.075	2.15
460.28	2.19
460.485	2.22
460.69	2.19
460.895	2.2
461.099	2.15
461.304	2.15
461.509	2.07
461.714	2.1
461.919	2.04
462.123	2.12
462.328	2.1
462.533	2.1
462.738	2.11
462.942	2.19
463.147	2.16
463.352	2.22
463.556	2.21
463.761	2.24
463.966	2.28
464.17	2.31
464.375	2.23
464.58	2.2
464.784	2.22
464.989	2.22
465.193	2.22
465.398	2.19
465.602	2.2
465.807	2.27
466.011	2.33
466.216	2.31
466.42	2.32
466.625	2.35
466.829	2.36
467.034	2.38
467.238	2.39
467.443	2.42
467.647	2.43
467.851	2.45
468.056	2.39
468.26	2.34
468.464	2.31
468.669	2.34
468.873	2.27
469.077	2.31
469.282	2.33
469.486	2.4
469.69	2.45
