Data from Ofra_PS_T2_2A_8CX24_Reflection_2.txt Node
Date: Wed Jul 21 17:18:44 EDT 2021
User: Adam
Spectrometer: FLMT01687
Trigger mode: 0
Integration Time (sec): 1.100000E0
Scans to average: 2
Electric dark correction enabled: true
Nonlinearity correction enabled: false
Boxcar width: 2
XAxis mode: Wavelengths
Number of Pixels in Spectrum: 3648
>>>>>Begin Spectral Data<<<<<
179.494	604.4
179.716	653.18
179.937	614.62
180.158	584.37
180.38	885.31
180.601	381.49
180.823	97.57
181.044	-102.13
181.265	11.4
181.486	41.96
181.708	36.84
181.929	594.9
182.15	-300.7
182.372	46.45
182.593	12.37
182.814	19.02
183.035	88.61
183.257	63.06
183.478	21.6
183.699	48.18
183.92	10.38
184.141	-0.45
184.363	-47.18
184.584	0.32
184.805	4.57
185.026	39.17
185.247	47.47
185.468	19.56
185.689	22.62
185.91	22.56
186.132	1.61
186.353	1.62
186.574	72.81
186.795	55.04
187.016	16.85
187.237	19.02
187.458	-21.23
187.679	-52.96
187.9	-24.04
188.121	-9.5
188.342	14.53
188.563	64.28
188.784	98.6
189.005	95.97
189.226	127.65
189.447	98.64
189.667	-86.17
189.888	-297.29
190.109	-1313.64
190.33	-699.03
190.551	-1250.88
190.772	-272.52
190.993	-275.06
191.214	-231.99
191.434	-150.99
191.655	-40.55
191.876	-85.88
192.097	-83.48
192.318	-96
192.538	-195.45
192.759	-179.21
192.98	-61.08
193.201	-21.6
193.421	-12.85
193.642	20.63
193.863	38.86
194.083	16.74
194.304	4.83
194.525	8.1
194.745	-21.83
194.966	-65.58
195.187	-57.91
195.407	-87.48
195.628	-164.48
195.848	-142.78
196.069	-100.64
196.29	-53.95
196.51	-63.13
196.731	-27.71
196.951	-46.1
197.172	-95.05
197.392	-155.72
197.613	-152.71
197.833	-188.57
198.054	-135.2
198.274	-86.47
198.495	-99.39
198.715	-44.47
198.936	-74.77
199.156	-77.71
199.377	-168.46
199.597	-139.88
199.817	-142.29
200.038	-46.25
200.258	-103.77
200.479	-33.04
200.699	-53.09
200.919	-13.98
201.14	-39.55
201.36	-37.34
201.58	23.29
201.801	53.09
202.021	11.55
202.241	1.77
202.461	5.94
202.682	-100.89
202.902	-148.47
203.122	-67.21
203.342	-52.96
203.563	-10
203.783	21.54
204.003	-21.52
204.223	-19.56
204.443	25.91
204.663	-4.62
204.884	17.98
205.104	59.16
205.324	75.42
205.544	75.66
205.764	78.51
205.984	57.6
206.204	56.42
206.424	37.02
206.644	2.1
206.864	10.52
207.084	-25.45
207.304	10.43
207.525	-101.41
207.745	-27.11
207.964	-10.44
208.184	-35.91
208.404	-93.73
208.624	-101.27
208.844	-103.35
209.064	-413.48
209.284	-450.91
209.504	-210.6
209.724	-33.53
209.944	-25.72
210.164	14.95
210.384	27.82
210.604	12.69
210.823	-35.84
211.043	-50.97
211.263	-40.54
211.483	-41.32
211.703	-79.6
211.922	-58.89
212.142	23.24
212.362	58.74
212.582	44.55
212.801	31.72
213.021	6.81
213.241	-33.14
213.461	-100.37
213.68	-127.23
213.9	-77.16
214.12	-51.24
214.339	-104.48
214.559	-62.71
214.779	8.41
214.998	-2.06
215.218	-22.33
215.438	-0.79
215.657	7.16
215.877	-30.52
216.096	-11.72
216.316	-0.04
216.535	2.77
216.755	-5.95
216.974	-71.92
217.194	-125.28
217.413	-136.53
217.633	-133.99
217.852	-247.7
218.072	-107
218.291	-33.7
218.511	1.83
218.73	-31.69
218.95	-18.32
219.169	-19.81
219.389	-77.68
219.608	-59.19
219.827	-45.17
220.047	-33.69
220.266	-24.13
220.485	-16.22
220.705	-4.2
220.924	-26.94
221.143	13.77
221.363	-5.04
221.582	4.4
221.801	17.93
222.021	41.96
222.24	-26.05
222.459	34.51
222.678	11.89
222.897	-71.76
223.117	-113.54
223.336	-61.79
223.555	-65.01
223.774	-9.32
223.993	3.11
224.213	57.2
224.432	22.4
224.651	42.75
224.87	7.65
225.089	10.46
225.308	3.48
225.527	31.79
225.746	40.22
225.965	45.37
226.184	42.15
226.404	39.93
226.623	19.1
226.842	9.1
227.061	28.45
227.28	38.26
227.499	31.01
227.718	34.8
227.936	28.95
228.155	30.17
228.374	-16.86
228.593	-7.65
228.812	-20.75
229.031	-20.72
229.25	-78.88
229.469	-49.42
229.688	-33.72
229.907	10.47
230.125	29.71
230.344	53.08
230.563	56.21
230.782	59.9
231.001	-10.76
231.22	-7.27
231.438	23.31
231.657	25.36
231.876	17.78
232.095	58.28
232.313	63.52
232.532	31.36
232.751	5.22
232.969	-16.73
233.188	-89.23
233.407	-55.87
233.625	-0.94
233.844	-37.28
234.063	-28.87
234.281	-0.59
234.5	1.18
234.719	-8.73
234.937	27.1
235.156	43.76
235.374	44.89
235.593	40.36
235.811	44.57
236.03	35.08
236.249	-6.19
236.467	-25.29
236.686	-7.09
236.904	-4.93
237.123	-25.9
237.341	-22.44
237.559	-7.64
237.778	-17.03
237.996	-43.5
238.215	9.13
238.433	22.23
238.652	28.38
238.87	0.36
239.088	18.46
239.307	9.66
239.525	4.12
239.743	-47.14
239.962	-25.65
240.18	-44.36
240.398	-76.93
240.617	-83.62
240.835	-46.16
241.053	-43.23
241.271	16.53
241.49	21.94
241.708	8.34
241.926	10.72
242.144	12.61
242.363	-45.08
242.581	-58.75
242.799	-0.32
243.017	13.2
243.235	-12.86
243.453	-4.98
243.672	-7.59
243.89	-24.12
244.108	-33.43
244.326	6.91
244.544	9.34
244.762	8.34
244.98	19
245.198	27.99
245.416	-5.88
245.634	-11.92
245.852	-27.64
246.07	-24.48
246.288	-64.34
246.506	-89.83
246.724	-42.77
246.942	-26.86
247.16	1.51
247.378	38.88
247.596	63.76
247.814	43.61
248.032	23.25
248.25	23.4
248.468	11.32
248.685	10.41
248.903	39.08
249.121	45.39
249.339	6.73
249.557	-18.37
249.775	-8.8
249.992	-87.36
250.21	-78.17
250.428	-47.16
250.646	-49.55
250.863	-66.26
251.081	-34.14
251.299	-24.87
251.517	-21.13
251.734	-4.85
251.952	-18.6
252.17	-4.03
252.387	-2.14
252.605	-14.53
252.823	-24.78
253.04	4.02
253.258	22.67
253.475	21.09
253.693	47.97
253.911	54
254.128	40.8
254.346	22.33
254.563	7.5
254.781	-15.05
254.998	-26.96
255.216	-14.98
255.433	8.02
255.651	53.36
255.868	108.94
256.086	124.71
256.303	100.96
256.521	69.47
256.738	34.84
256.956	-15.51
257.173	-57.32
257.39	-58.27
257.608	-85.65
257.825	10.2
258.043	58.04
258.26	69.7
258.477	88.93
258.695	77.6
258.912	7.34
259.129	-5.59
259.346	-40.14
259.564	-93.04
259.781	-94.66
259.998	-34.72
260.216	8.91
260.433	35.52
260.65	42.06
260.867	52.63
261.084	37.15
261.302	1.53
261.519	-1.9
261.736	-26.48
261.953	-45.09
262.17	-16.93
262.387	-51.29
262.604	-86.16
262.822	-82.76
263.039	-67.63
263.256	-130.69
263.473	-66.31
263.69	-35.32
263.907	15.88
264.124	24.32
264.341	34.87
264.558	15.51
264.775	26.5
264.992	-0.24
265.209	-1.89
265.426	20.76
265.643	27.78
265.86	42
266.077	48.6
266.294	50.24
266.51	-4.74
266.727	-29.05
266.944	-24.82
267.161	-48.21
267.378	-45.91
267.595	-5.65
267.812	-16.26
268.028	-45.49
268.245	6.94
268.462	-31.68
268.679	-35.32
268.896	12.59
269.112	21.24
269.329	3.99
269.546	13.6
269.763	3.09
269.979	-3.42
270.196	-3.95
270.413	-24.85
270.629	-30.86
270.846	-34.28
271.063	-43.71
271.279	-76.9
271.496	-77.23
271.712	-42.72
271.929	-34.38
272.146	-25.33
272.362	5.14
272.579	32.15
272.795	45.14
273.012	53.25
273.228	45.25
273.445	10.56
273.661	-11.98
273.878	-68.34
274.094	-59.57
274.311	-85.76
274.527	-15.65
274.744	-0.6
274.96	5.94
275.177	10.37
275.393	28.01
275.609	28.11
275.826	48.25
276.042	48.97
276.259	20.57
276.475	27.62
276.691	21.32
276.908	-13.31
277.124	-5.66
277.34	-5.23
277.557	-23.67
277.773	-26.9
277.989	-27.36
278.205	-38.54
278.422	-0.92
278.638	13.06
278.854	45.2
279.07	55.36
279.286	67.13
279.503	18.2
279.719	-7.09
279.935	-47.74
280.151	-57.06
280.367	-27.67
280.583	-11.48
280.799	-10.43
281.016	-20.39
281.232	9.79
281.448	-2.05
281.664	18.37
281.88	-6.62
282.096	19.41
282.312	26.17
282.528	37.43
282.744	43.55
282.96	63.83
283.176	31.31
283.392	30.07
283.608	30.08
283.824	25.85
284.04	25.1
284.256	48.7
284.471	28.18
284.687	17.01
284.903	26.88
285.119	57.75
285.335	27.4
285.551	51.84
285.767	44.53
285.982	16.78
286.198	-34.13
286.414	22
286.63	15.62
286.846	39.91
287.061	18.19
287.277	39.24
287.493	17.73
287.709	30.85
287.924	4.32
288.14	48.61
288.356	47.09
288.571	45.36
288.787	16.99
289.003	19.19
289.218	-12.46
289.434	-41.29
289.65	-36.58
289.865	-29.59
290.081	-4.62
290.296	15.64
290.512	22.5
290.727	-20.71
290.943	-35.46
291.159	-48.45
291.374	-44.67
291.59	-68.2
291.805	-35.88
292.021	-21.96
292.236	-23.58
292.451	-14.19
292.667	8.05
292.882	16.38
293.098	32.26
293.313	35.26
293.529	3.23
293.744	-25.65
293.959	-29.48
294.175	-41.17
294.39	-11.02
294.605	8.76
294.821	36.86
295.036	36.5
295.251	50.88
295.467	35.94
295.682	27.26
295.897	-23.88
296.112	-29.35
296.328	-36.23
296.543	-60.33
296.758	-45.98
296.973	-2.38
297.188	36.43
297.404	16.15
297.619	6.05
297.834	-14.12
298.049	-27.19
298.264	-80.01
298.479	-23.19
298.694	-5.97
298.909	10.92
299.125	11.7
299.34	19.17
299.555	6.8
299.77	7.9
299.985	-36.41
300.2	-87.24
300.415	-94.6
300.63	-59.05
300.845	-53.99
301.06	-44.03
301.275	-7.57
301.49	10.06
301.704	-18.68
301.919	-35.38
302.134	-36.74
302.349	-35.87
302.564	-98.23
302.779	-88.81
302.994	-50.86
303.209	-10.78
303.423	11.68
303.638	49.04
303.853	1.32
304.068	-22.45
304.283	-17.89
304.497	-30.9
304.712	-33.95
304.927	-6.58
305.142	-1.12
305.356	7.87
305.571	12.44
305.786	-1.86
306	-31.64
306.215	-10.69
306.43	-47.38
306.644	-40.03
306.859	-5.27
307.074	14.29
307.288	-19.43
307.503	-16.64
307.717	-26.8
307.932	-20.79
308.147	-33.5
308.361	-7.98
308.576	-9.44
308.79	-37.98
309.005	-41.32
309.219	-16.34
309.434	-34.86
309.648	-35.71
309.863	-0.81
310.077	-12.01
310.292	-3.09
310.506	-8.67
310.72	8.63
310.935	4.15
311.149	5.22
311.364	11.29
311.578	30.65
311.792	19.67
312.007	31.81
312.221	20.22
312.435	26.86
312.649	5.96
312.864	16.75
313.078	18.49
313.292	71.17
313.507	42.44
313.721	95.59
313.935	61.57
314.149	35.05
314.363	13.62
314.578	13.15
314.792	12.07
315.006	-6.65
315.22	18.76
315.434	27.26
315.648	26.79
315.862	20.13
316.077	26.26
316.291	-4.32
316.505	8.2
316.719	1.9
316.933	-16.68
317.147	-22.89
317.361	-60.57
317.575	-85.79
317.789	-98.46
318.003	-155.22
318.217	-124.03
318.431	-25.76
318.645	22.85
318.859	6.47
319.073	28.45
319.287	15.13
319.5	-17.29
319.714	-73.66
319.928	-98.29
320.142	-129.56
320.356	-63.83
320.57	-13.04
320.784	-33.63
320.997	-31.38
321.211	-7.35
321.425	-51.98
321.639	-94.09
321.853	-32.83
322.066	-15.77
322.28	-19.05
322.494	-15.23
322.707	13.41
322.921	11.15
323.135	11.3
323.349	25.15
323.562	-11.18
323.776	-27.74
323.989	-30.74
324.203	-49.57
324.417	-69.86
324.63	-76.71
324.844	-75.68
325.057	-77.08
325.271	-48.51
325.485	-10.77
325.698	10.24
325.912	22.92
326.125	4.91
326.339	4.67
326.552	-17.11
326.766	-18.6
326.979	-7.97
327.193	25.82
327.406	-0.89
327.619	-9.2
327.833	18.71
328.046	-12.69
328.26	-39
328.473	-11.99
328.686	-12.54
328.9	-11.88
329.113	19.78
329.326	6.42
329.54	45.99
329.753	26.5
329.966	-13.97
330.179	-27.79
330.393	-9.2
330.606	-32.23
330.819	-12.28
331.032	15
331.246	20.13
331.459	46.21
331.672	39.2
331.885	38.28
332.098	0.73
332.311	-4.41
332.525	-62.79
332.738	-44
332.951	-12.25
333.164	34.55
333.377	39.2
333.59	52.38
333.803	53.07
334.016	46.65
334.229	36.76
334.442	43.69
334.655	66.46
334.868	66.95
335.081	47.34
335.294	34.65
335.507	21.07
335.72	11.43
335.933	3.22
336.146	-2.12
336.359	1.17
336.572	-15.08
336.785	-50.49
336.997	-39.39
337.21	-6.34
337.423	-3.52
337.636	1.03
337.849	23.02
338.062	13.18
338.274	18.55
338.487	10.67
338.7	15.87
338.913	-7.2
339.125	-24.84
339.338	-83.9
339.551	-75.54
339.763	-44.76
339.976	-28.41
340.189	-17.01
340.402	1.87
340.614	4.29
340.827	-2.26
341.039	-11.9
341.252	3.34
341.465	3.58
341.677	13.77
341.89	-13.25
342.102	15.95
342.315	10.82
342.527	-14.44
342.74	-34.55
342.952	-4.4
343.165	-10.51
343.377	-3.13
343.59	8.05
343.802	36.34
344.015	41.69
344.227	36.08
344.44	31.23
344.652	36.59
344.864	19.43
345.077	28.27
345.289	38.84
345.502	37.09
345.714	22.51
345.926	19.39
346.139	-2.65
346.351	-0.85
346.563	11.22
346.775	22.3
346.988	17.55
347.2	11.51
347.412	-32.51
347.624	-53.24
347.837	-52.33
348.049	-38.55
348.261	-3.11
348.473	8.54
348.685	-1.96
348.897	-23.08
349.11	-36.86
349.322	-52.84
349.534	-41.81
349.746	-21.06
349.958	-4.26
350.17	-6.89
350.382	0.84
350.594	-10.43
350.806	-10.4
351.018	-4.99
351.23	-11.53
351.442	-67.33
351.654	-59.24
351.866	-57.16
352.078	-50.79
352.29	-11.85
352.502	18.47
352.714	14.71
352.926	1.61
353.138	2.34
353.35	-22.29
353.561	-29.89
353.773	-42.95
353.985	-22.7
354.197	-30.38
354.409	-24.37
354.621	-30.73
354.832	-14.44
355.044	-23.81
355.256	-22.65
355.468	-11.07
355.679	-13.3
355.891	-1.47
356.103	-11.53
356.314	-0.63
356.526	11.21
356.738	47.83
356.949	26.55
357.161	43.16
357.373	30.1
357.584	18.61
357.796	16.56
358.008	21.9
358.219	30.13
358.431	23.98
358.642	21.05
358.854	12.09
359.065	-1.77
359.277	-35.82
359.488	-49.13
359.7	-59.8
359.911	-84.45
360.123	-53.24
360.334	-55.29
360.546	-53.31
360.757	-52.32
360.969	-38.49
361.18	-37.22
361.391	-17.96
361.603	-35.24
361.814	-26.84
362.025	-20.45
362.237	-32.24
362.448	-18.16
362.659	15.36
362.871	7.53
363.082	1.83
363.293	11
363.504	-2.34
363.716	-20.83
363.927	-17.59
364.138	-28.72
364.349	-42.89
364.56	-36.71
364.772	-36.43
364.983	-8.57
365.194	-9.4
365.405	7.28
365.616	24.69
365.827	32.32
366.038	6.55
366.25	17.38
366.461	-8.61
366.672	-0.2
366.883	4.77
367.094	18.25
367.305	5.42
367.516	17
367.727	-14.53
367.938	-24
368.149	-34.5
368.36	-15.69
368.571	-11.97
368.781	-8
368.992	-16.87
369.203	-30.28
369.414	-59.78
369.625	-70.68
369.836	-68.02
370.047	-96.54
370.258	-76.23
370.468	-60.47
370.679	-61.59
370.89	-61.56
371.101	-24.32
371.312	-29.17
371.522	-27.72
371.733	-26.34
371.944	-4.17
372.155	-6.43
372.365	-13.22
372.576	-20.79
372.787	-27.57
372.997	-62.96
373.208	-52.95
373.419	-11.86
373.629	-24.73
373.84	-20.55
374.05	-24.96
374.261	-20.48
374.472	-57.25
374.682	-3.52
374.893	0.7
375.103	27.82
375.314	17.98
375.524	13.83
375.735	-0.9
375.945	9.52
376.156	-13.36
376.366	-7.47
376.577	3.18
376.787	-6.41
376.997	-12.98
377.208	-4.18
377.418	-20.28
377.629	-16.1
377.839	-10.27
378.049	-7.93
378.26	3.87
378.47	13.02
378.68	4.74
378.89	1.81
379.101	-1.09
379.311	-31.75
379.521	-54.92
379.732	-47.05
379.942	-51.52
380.152	-74.43
380.362	-37.57
380.572	-34.36
380.783	-23.74
380.993	-4.56
381.203	11.67
381.413	21.52
381.623	38.33
381.833	27.95
382.043	2.59
382.253	-8.15
382.463	-7.13
382.674	-25.43
382.884	-39.64
383.094	-27.37
383.304	-19.05
383.514	-23.4
383.724	-5.16
383.934	-5.02
384.144	-19.23
384.353	-26.23
384.563	-26.22
384.773	-27.07
384.983	-36.29
385.193	-15.72
385.403	-10.46
385.613	-9.65
385.823	-18.24
386.033	-7.55
386.242	-12.48
386.452	-15.51
386.662	-24.02
386.872	-12.85
387.082	-19.67
387.291	-28.18
387.501	-24.74
387.711	-14.42
387.921	-21.44
388.13	-19.64
388.34	1.38
388.55	-4.09
388.759	1.07
388.969	7.84
389.179	9.05
389.388	-1.53
389.598	6.93
389.807	-5.31
390.017	-11.95
390.227	-9.44
390.436	-10.47
390.646	-12.14
390.855	-4.94
391.065	-4.34
391.274	-5.93
391.484	-8.16
391.693	-5.6
391.903	-4.67
392.112	2.08
392.322	5.81
392.531	11.18
392.74	9.45
392.95	2.82
393.159	0.17
393.369	-0.41
393.578	-2.58
393.787	-2.67
393.997	0.86
394.206	-1.88
394.415	-2.65
394.625	-1.88
394.834	-4.04
395.043	-3.43
395.252	0.46
395.462	2.87
395.671	3.38
395.88	5.23
396.089	5.47
396.298	3.07
396.508	1.3
396.717	0.88
396.926	1.34
397.135	1.03
397.344	1.12
397.553	2.1
397.762	3.25
397.971	2.98
398.181	2.69
398.39	2.1
398.599	1.74
398.808	1.56
399.017	2.63
399.226	4.11
399.435	5.59
399.644	5.78
399.853	4.72
400.062	3.88
400.27	3.49
400.479	2.57
400.688	1.41
400.897	2.03
401.106	2.05
401.315	1.31
401.524	1.58
401.733	2.44
401.941	2.81
402.15	2.96
402.359	3.08
402.568	3.55
402.777	3.71
402.985	3.25
403.194	3.2
403.403	3.32
403.612	2.78
403.82	2.61
404.029	3
404.238	2.78
404.446	3.06
404.655	2.97
404.864	2.99
405.072	2.71
405.281	2.95
405.489	2.62
405.698	2.77
405.906	2.68
406.115	2.64
406.324	2.62
406.532	2.92
406.741	3.1
406.949	3.12
407.158	3.16
407.366	2.97
407.574	2.75
407.783	2.73
407.991	2.46
408.2	2.6
408.408	2.65
408.617	2.67
408.825	2.4
409.033	2.59
409.242	2.57
409.45	2.68
409.658	2.45
409.867	2.64
410.075	2.54
410.283	2.4
410.491	2.27
410.7	2.28
410.908	2.31
411.116	2.69
411.324	2.61
411.533	2.58
411.741	2.89
411.949	2.86
412.157	2.45
412.365	2.54
412.573	2.64
412.781	2.57
412.99	2.45
413.198	2.72
413.406	2.68
413.614	2.57
413.822	2.45
414.03	2.37
414.238	2.16
414.446	2.3
414.654	2.18
414.862	2.14
415.07	2.28
415.278	2.44
415.486	2.13
415.694	2.29
415.902	2.19
416.109	2.04
416.317	1.94
416.525	1.91
416.733	1.89
416.941	2.14
417.149	2.21
417.357	2.16
417.564	2.3
417.772	2.49
417.98	2.41
418.188	2.38
418.395	2.55
418.603	2.7
418.811	2.34
419.019	2.27
419.226	2.62
419.434	2.59
419.642	2.35
419.849	2.55
420.057	2.51
420.265	2.22
420.472	1.88
420.68	2.04
420.887	1.92
421.095	1.93
421.302	1.87
421.51	2.29
421.717	2.34
421.925	2.39
422.132	2.32
422.34	2.23
422.547	2.25
422.755	2.14
422.962	2.13
423.17	2.07
423.377	2.23
423.585	2.11
423.792	1.91
423.999	1.86
424.207	1.86
424.414	1.87
424.621	1.73
424.829	1.79
425.036	1.79
425.243	1.92
425.451	1.76
425.658	1.63
425.865	1.87
426.072	1.97
426.28	2.12
426.487	2.23
426.694	2.42
426.901	2.15
427.108	2.11
427.315	1.99
427.523	2.15
427.73	2.13
427.937	2.09
428.144	1.96
428.351	1.95
428.558	1.91
428.765	1.73
428.972	1.72
429.179	1.92
429.386	2.14
429.593	1.92
429.8	1.97
430.007	2.24
430.214	2.18
430.421	1.9
430.628	1.79
430.835	1.76
431.042	1.8
431.249	1.83
431.456	1.93
431.662	2.14
431.869	2.35
432.076	2.26
432.283	2.42
432.49	2.37
432.697	2.43
432.903	2.21
433.11	2.17
433.317	2.13
433.524	2.38
433.73	2.25
433.937	2.56
434.144	2.49
434.35	2.5
434.557	2.23
434.764	2.3
434.97	2.12
435.177	2.34
435.384	2.17
435.59	2.39
435.797	2.64
436.003	2.85
436.21	2.78
436.416	2.94
436.623	2.84
436.829	2.71
437.036	2.63
437.242	2.65
437.449	2.59
437.655	2.69
437.862	2.66
438.068	2.65
438.275	2.72
438.481	3
438.687	2.86
438.894	2.86
439.1	2.85
439.307	3
439.513	2.78
439.719	2.86
439.926	2.98
440.132	2.97
440.338	2.94
440.544	3.11
440.751	3.08
440.957	3.1
441.163	3
441.369	2.97
441.575	2.69
441.782	2.71
441.988	2.54
442.194	2.57
442.4	2.49
442.606	2.72
442.812	2.82
443.018	3.01
443.224	3.08
443.431	3.17
443.637	3.05
443.843	2.8
444.049	2.78
444.255	2.76
444.461	2.78
444.667	2.68
444.873	2.91
445.079	2.97
445.284	3.07
445.49	2.78
445.696	2.68
445.902	2.54
446.108	2.4
446.314	2.27
446.52	2.45
446.726	2.77
446.931	2.86
447.137	2.89
447.343	3.05
447.549	2.94
447.755	2.76
447.96	2.8
448.166	2.75
448.372	2.63
448.578	2.72
448.783	2.81
448.989	2.92
449.195	3.08
449.4	3.15
449.606	3.09
449.812	2.93
450.017	2.87
450.223	2.71
450.428	2.6
450.634	2.8
450.84	3.01
451.045	2.94
451.251	2.95
451.456	3.24
451.662	3.22
451.867	3.25
452.073	3.23
452.278	3.29
452.483	3.31
452.689	3.19
452.894	3.2
453.1	3.17
453.305	3.12
453.51	3.01
453.716	3.06
453.921	2.97
454.127	3.02
454.332	3
454.537	2.84
454.742	2.81
454.948	2.85
455.153	2.89
455.358	2.98
455.563	3.21
455.769	3.29
455.974	3.26
456.179	3.16
456.384	3.11
456.589	3.02
456.795	2.83
457	2.84
457.205	3.04
457.41	3.07
457.615	3.04
457.82	3.13
458.025	3.16
458.23	2.97
458.435	3.03
458.64	2.91
458.845	3.05
459.05	3.03
459.255	3.09
459.46	3.09
459.665	3.25
459.87	3.16
460.075	3.13
460.28	3.14
460.485	3.12
460.69	3.07
460.895	2.94
461.099	2.98
461.304	3.09
461.509	3.13
461.714	3.04
461.919	3.21
