Data from Ofra_2a_PS_9GT47_Reflection_2.txt Node
Date: Tue Jul 20 10:01:17 EDT 2021
User: Adam
Spectrometer: FLMT01687
Trigger mode: 0
Integration Time (sec): 9.450000E-1
Scans to average: 3
Electric dark correction enabled: true
Nonlinearity correction enabled: false
Boxcar width: 3
XAxis mode: Wavelengths
Number of Pixels in Spectrum: 3648
>>>>>Begin Spectral Data<<<<<
179.494	1247.34
179.716	820.07
179.937	884.62
180.158	3504.69
180.38	-2001.16
180.601	-465.8
180.823	-248.77
181.044	-194.42
181.265	-210.53
181.486	-23.6
181.708	-452.17
181.929	172.09
182.15	165.91
182.372	-57.76
182.593	-56.85
182.814	413.77
183.035	204.96
183.257	87.15
183.478	29.63
183.699	57.1
183.92	51.66
184.141	53.8
184.363	33.68
184.584	36.7
184.805	42.09
185.026	32.61
185.247	7.96
185.468	-5.48
185.689	10.02
185.91	14.67
186.132	16.88
186.353	3.31
186.574	13.2
186.795	11
187.016	25.64
187.237	11.39
187.458	20.55
187.679	-5.44
187.9	7.49
188.121	20.46
188.342	44.26
188.563	29.49
188.784	53.3
189.005	53.79
189.226	72.27
189.447	49.43
189.667	37.4
189.888	36.04
190.109	31.2
190.33	6.78
190.551	1.66
190.772	-9.5
190.993	11.48
191.214	14.98
191.434	24.19
191.655	30.68
191.876	40.14
192.097	37.16
192.318	47.53
192.538	50.27
192.759	54.11
192.98	30.05
193.201	38.67
193.421	46.01
193.642	45.93
193.863	47.48
194.083	42.75
194.304	29.9
194.525	51.81
194.745	27.28
194.966	23.05
195.187	34.33
195.407	24.63
195.628	18.06
195.848	17.19
196.069	24.32
196.29	21.07
196.51	13.3
196.731	24.72
196.951	34.49
197.172	44.09
197.392	51.89
197.613	39.01
197.833	53.3
198.054	48.18
198.274	15.76
198.495	19.39
198.715	8.36
198.936	-3.23
199.156	-1.6
199.377	1.74
199.597	-8.39
199.817	19.18
200.038	8.24
200.258	8.16
200.479	15.3
200.699	19.15
200.919	2.09
201.14	19.9
201.36	26.62
201.58	30.97
201.801	35.14
202.021	25.94
202.241	20.6
202.461	39.88
202.682	27.1
202.902	19.09
203.122	17.01
203.342	23.6
203.563	33.76
203.783	31.27
204.003	27.12
204.223	32.57
204.443	32.9
204.663	35.4
204.884	22.7
205.104	21.88
205.324	39.38
205.544	42.71
205.764	62.93
205.984	55.71
206.204	56.57
206.424	61.2
206.644	42.66
206.864	31.54
207.084	43.76
207.304	29.2
207.525	25.1
207.745	32.95
207.964	29.55
208.184	33.27
208.404	27.49
208.624	3.7
208.844	-0.22
209.064	8.47
209.284	8.28
209.504	7.74
209.724	-12.04
209.944	-8.39
210.164	2.34
210.384	14.09
210.604	7.14
210.823	-8.92
211.043	-25.55
211.263	-0.08
211.483	-3.81
211.703	-5.66
211.922	-5.29
212.142	6.23
212.362	9
212.582	20.54
212.801	12.33
213.021	24.09
213.241	17.21
213.461	11.13
213.68	3.98
213.9	15.46
214.12	9.95
214.339	19.58
214.559	31.97
214.779	43.17
214.998	48.34
215.218	58.58
215.438	56.64
215.657	57.22
215.877	58.3
216.096	39.43
216.316	27.43
216.535	23.73
216.755	10.02
216.974	11.04
217.194	12.68
217.413	26.79
217.633	21.14
217.852	20.69
218.072	27.21
218.291	42.83
218.511	35.1
218.73	26.76
218.95	10.23
219.169	22.14
219.389	25.67
219.608	30.82
219.827	17.2
220.047	20.75
220.266	29.04
220.485	40.71
220.705	29.64
220.924	41.26
221.143	27.28
221.363	31.89
221.582	29.19
221.801	32.53
222.021	28.3
222.24	29.71
222.459	14.16
222.678	-0.96
222.897	-11.99
223.117	-1.85
223.336	2.32
223.555	-15.24
223.774	-13.79
223.993	5.24
224.213	22.64
224.432	28.99
224.651	15.23
224.87	11
225.089	22.69
225.308	25.95
225.527	19.02
225.746	14.53
225.965	22.36
226.184	29.35
226.404	20.34
226.623	42.6
226.842	46.5
227.061	43.43
227.28	63.86
227.499	62.61
227.718	50.04
227.936	46.01
228.155	35.54
228.374	39.99
228.593	39.1
228.812	30.23
229.031	17.96
229.25	34.39
229.469	45.12
229.688	44.29
229.907	33.07
230.125	28.13
230.344	30.27
230.563	37.64
230.782	24.6
231.001	25.57
231.22	22.35
231.438	23.2
231.657	31.14
231.876	25.91
232.095	29.73
232.313	31.5
232.532	26.64
232.751	33.37
232.969	41.94
233.188	39.38
233.407	43.15
233.625	29.97
233.844	40.14
234.063	47.47
234.281	40.53
234.5	32.86
234.719	31.87
234.937	35.92
235.156	26.04
235.374	14.46
235.593	6.97
235.811	-5.75
236.03	-18.39
236.249	-5.15
236.467	-14.05
236.686	4.32
236.904	11.12
237.123	13.31
237.341	18.16
237.559	33.23
237.778	30.39
237.996	33.34
238.215	30.54
238.433	35.79
238.652	36.29
238.87	38.28
239.088	23.57
239.307	21.75
239.525	16.22
239.743	4.72
239.962	-4.23
240.18	6.31
240.398	-0.42
240.617	15.56
240.835	23.5
241.053	28.95
241.271	43.56
241.49	30.61
241.708	16.19
241.926	11
242.144	8.44
242.363	0.53
242.581	-3
242.799	-14.83
243.017	5.31
243.235	8.86
243.453	20.58
243.672	10.03
243.89	9.44
244.108	13.72
244.326	12.97
244.544	9.95
244.762	17.62
244.98	11.95
245.198	5.72
245.416	7.42
245.634	23.05
245.852	26.86
246.07	29.42
246.288	18.07
246.506	27.28
246.724	54.17
246.942	51.65
247.16	31.83
247.378	19.34
247.596	18.42
247.814	9.74
248.032	-0.75
248.25	-20.14
248.468	-11.63
248.685	-4.1
248.903	0.14
249.121	3.87
249.339	14.1
249.557	26.72
249.775	14.42
249.992	5.3
250.21	-9.45
250.428	-8.68
250.646	-9.61
250.863	-2.64
251.081	-9.6
251.299	9.41
251.517	28.04
251.734	42.97
251.952	57.79
252.17	46.76
252.387	41.47
252.605	33.53
252.823	13.64
253.04	1.83
253.258	5.08
253.475	-8.18
253.693	13.52
253.911	6.29
254.128	5.49
254.346	13.27
254.563	7.16
254.781	1.25
254.998	2.17
255.216	-3.82
255.433	-8.15
255.651	0.19
255.868	1.2
256.086	-2.99
256.303	11.71
256.521	-0.92
256.738	-4.89
256.956	-5.39
257.173	0.12
257.39	12.86
257.608	23.14
257.825	13.66
258.043	36.93
258.26	36.97
258.477	43.83
258.695	48.22
258.912	47.53
259.129	35.61
259.346	38.57
259.564	21.75
259.781	36.34
259.998	32.84
260.216	30.87
260.433	28.44
260.65	44.04
260.867	29.89
261.084	33.55
261.302	32.98
261.519	17.69
261.736	9.12
261.953	3.38
262.17	1.82
262.387	16.01
262.604	2.43
262.822	-5.67
263.039	17.59
263.256	14.18
263.473	9
263.69	-0.84
263.907	3.11
264.124	12.23
264.341	18.25
264.558	18.39
264.775	30.32
264.992	42
265.209	45.14
265.426	45.58
265.643	38.74
265.86	28.95
266.077	27.67
266.294	20.94
266.51	15.06
266.727	13.39
266.944	-5.59
267.161	-13.74
267.378	-24.24
267.595	-42.62
267.812	-33.05
268.028	-12.87
268.245	-10.86
268.462	-4.16
268.679	7.87
268.896	14.33
269.112	31.24
269.329	36.52
269.546	28.69
269.763	27.86
269.979	22.2
270.196	19.23
270.413	18.93
270.629	15.79
270.846	7.87
271.063	2.5
271.279	-0.82
271.496	-2.59
271.712	0.45
271.929	9.38
272.146	8.58
272.362	-8.68
272.579	-1.27
272.795	-0.46
273.012	5.97
273.228	-0.06
273.445	-1.94
273.661	-7.38
273.878	4.28
274.094	0.4
274.311	-4.24
274.527	-5.48
274.744	-7.3
274.96	0.18
275.177	14.57
275.393	26.07
275.609	32.61
275.826	46.79
276.042	62.44
276.259	61.08
276.475	48.39
276.691	41.36
276.908	30.25
277.124	23.89
277.34	15.38
277.557	4.08
277.773	0.86
277.989	1.53
278.205	-8.42
278.422	-2.19
278.638	5.88
278.854	13.88
279.07	-3.27
279.286	9.28
279.503	6.53
279.719	14.63
279.935	6.95
280.151	11.64
280.367	2.98
280.583	16.06
280.799	17.34
281.016	19.43
281.232	16.01
281.448	8.11
281.664	3.17
281.88	6.4
282.096	4.15
282.312	-4.88
282.528	-11.45
282.744	-12.88
282.96	3.13
283.176	6.33
283.392	15.11
283.608	21.18
283.824	19.52
284.04	30.69
284.256	36.4
284.471	36.53
284.687	28.73
284.903	17.54
285.119	9.74
285.335	7.32
285.551	2.53
285.767	-0.43
285.982	-11.17
286.198	-13.44
286.414	11.63
286.63	19.28
286.846	15.41
287.061	16.03
287.277	22.9
287.493	26.87
287.709	31.73
287.924	28.45
288.14	32.99
288.356	53.47
288.571	42.11
288.787	38.56
289.003	45.99
289.218	36.77
289.434	26.15
289.65	31.07
289.865	24.24
290.081	28.42
290.296	20.6
290.512	22.48
290.727	29.34
290.943	27.94
291.159	20.27
291.374	11.15
291.59	9.51
291.805	15.92
292.021	3.54
292.236	11.01
292.451	11.33
292.667	9.43
292.882	12.61
293.098	11.87
293.313	6.71
293.529	11.44
293.744	8.69
293.959	8.27
294.175	9.56
294.39	15.67
294.605	15.07
294.821	17.96
295.036	18.83
295.251	18.47
295.467	24.73
295.682	24.14
295.897	18.83
296.112	23.02
296.328	23.56
296.543	13.38
296.758	9.22
296.973	17.5
297.188	14.55
297.404	18.01
297.619	16.82
297.834	21.92
298.049	27.89
298.264	34.1
298.479	15.57
298.694	16.73
298.909	9.45
299.125	10.23
299.34	-2.76
299.555	7.04
299.77	-2.18
299.985	-5.03
300.2	-9.41
300.415	-1
300.63	-5.6
300.845	3.06
301.06	-0.78
301.275	5.72
301.49	15.17
301.704	17.08
301.919	10.53
302.134	9.41
302.349	6
302.564	8.7
302.779	11.16
302.994	12.25
303.209	15.12
303.423	20.06
303.638	27.87
303.853	35.04
304.068	25.41
304.283	16.09
304.497	21.97
304.712	29.02
304.927	27.16
305.142	26.62
305.356	26.16
305.571	35.73
305.786	34.53
306	33.73
306.215	29.6
306.43	31.3
306.644	30.91
306.859	27.79
307.074	19.27
307.288	27.15
307.503	22.65
307.717	20.96
307.932	26.44
308.147	28.79
308.361	26.34
308.576	23.13
308.79	13.49
309.005	12.44
309.219	16.32
309.434	6.31
309.648	-10.42
309.863	-9.47
310.077	-16.14
310.292	-4.73
310.506	8.67
310.72	-7.08
310.935	-0.79
311.149	11.22
311.364	10.14
311.578	6.32
311.792	-1.73
312.007	-13.7
312.221	3.9
312.435	4.62
312.649	3.51
312.864	6.89
313.078	29.2
313.292	35.15
313.507	45.52
313.721	37.55
313.935	45.15
314.149	33.51
314.363	36.24
314.578	43.77
314.792	43.56
315.006	46.87
315.22	44.74
315.434	38.15
315.648	41.51
315.862	39.08
316.077	38.61
316.291	41.7
316.505	35.85
316.719	26.96
316.933	28.81
317.147	25.92
317.361	27.66
317.575	14.32
317.789	20.03
318.003	27.29
318.217	42.91
318.431	41.9
318.645	41.94
318.859	30.45
319.073	27.12
319.287	24.55
319.5	20.85
319.714	11.58
319.928	13.66
320.142	15.06
320.356	34.43
320.57	35.49
320.784	33.34
320.997	36.04
321.211	36.97
321.425	21.46
321.639	25.04
321.853	17.15
322.066	15.63
322.28	14.15
322.494	16.72
322.707	20.91
322.921	34.45
323.135	45.4
323.349	40.04
323.562	45.7
323.776	44.34
323.989	32.5
324.203	32.02
324.417	24.06
324.63	3.74
324.844	-0.47
325.057	-1.58
325.271	-6.31
325.485	1.25
325.698	-3.28
325.912	11.55
326.125	21.9
326.339	31.32
326.552	33.75
326.766	41.58
326.979	44.34
327.193	46.41
327.406	40.72
327.619	25.59
327.833	11.49
328.046	6.6
328.26	-3.66
328.473	-11.06
328.686	-7.74
328.9	-15.6
329.113	-6.04
329.326	1.03
329.54	3.75
329.753	10.34
329.966	18.77
330.179	24.48
330.393	27.12
330.606	33.39
330.819	38.47
331.032	39.36
331.246	41.18
331.459	37.25
331.672	30.1
331.885	26.08
332.098	22
332.311	8.96
332.525	10.21
332.738	7.87
332.951	8.98
333.164	2.3
333.377	-0.84
333.59	7.88
333.803	18.18
334.016	14.05
334.229	6.18
334.442	22.79
334.655	35.82
334.868	36.93
335.081	37.31
335.294	32.8
335.507	39.57
335.72	40.05
335.933	37.56
336.146	34.2
336.359	31.53
336.572	23.84
336.785	27.59
336.997	19.12
337.21	19.05
337.423	6.7
337.636	6.06
337.849	6.76
338.062	14.13
338.274	10.13
338.487	13.52
338.7	18.3
338.913	18.76
339.125	21.77
339.338	33.6
339.551	31.61
339.763	27.78
339.976	25.61
340.189	22.92
340.402	18.15
340.614	21.55
340.827	7.82
341.039	10.56
341.252	10.69
341.465	10.78
341.677	-0.64
341.89	10.49
342.102	9.52
342.315	26.21
342.527	13.21
342.74	15.7
342.952	19.24
343.165	41.9
343.377	37.94
343.59	40.41
343.802	34.95
344.015	44.24
344.227	38.9
344.44	33.25
344.652	29.47
344.864	32.65
345.077	23.37
345.289	13.52
345.502	8.45
345.714	11.25
345.926	10.25
346.139	12.71
346.351	-11.23
346.563	-9.37
346.775	-13.97
346.988	-7.98
347.2	-2.97
347.412	4.81
347.624	0.87
347.837	7.31
348.049	8.08
348.261	14.37
348.473	2.33
348.685	10.67
348.897	14.46
349.11	21.32
349.322	30.22
349.534	27.12
349.746	37.91
349.958	48.3
350.17	46
350.382	26.6
350.594	26.46
350.806	29.32
351.018	40.87
351.23	29.51
351.442	26.38
351.654	27.83
351.866	34.97
352.078	30.26
352.29	38.04
352.502	34.58
352.714	40.34
352.926	38.7
353.138	35.14
353.35	29.95
353.561	21.02
353.773	7.6
353.985	5.35
354.197	0.45
354.409	4.12
354.621	1.65
354.832	1.78
355.044	6.33
355.256	4.26
355.468	2.66
355.679	7.85
355.891	10.75
356.103	16.3
356.314	19.9
356.526	17.45
356.738	17.65
356.949	22.12
357.161	19.89
357.373	13.81
357.584	23.18
357.796	15.6
358.008	21.81
358.219	33.43
358.431	30.17
358.642	26.25
358.854	25.04
359.065	10.58
359.277	15.16
359.488	0.59
359.7	-9.02
359.911	-4.87
360.123	3.56
360.334	4.28
360.546	3.6
360.757	5.87
360.969	23.18
361.18	24.99
361.391	17.27
361.603	12.18
361.814	18.16
362.025	22.59
362.237	17.89
362.448	10.59
362.659	-0.36
362.871	1.33
363.082	5.64
363.293	2.14
363.504	5.52
363.716	8.04
363.927	11.19
364.138	20.67
364.349	25.35
364.56	22.81
364.772	22.99
364.983	15.12
365.194	17.72
365.405	11.26
365.616	4.72
365.827	3.27
366.038	16.92
366.25	14.46
366.461	18.29
366.672	18.71
366.883	24.39
367.094	23.65
367.305	21.3
367.516	13.36
367.727	16.57
367.938	15.42
368.149	18.62
368.36	19.64
368.571	21.2
368.781	15.47
368.992	10.39
369.203	17.32
369.414	12.59
369.625	9.58
369.836	8.25
370.047	8.08
370.258	10.56
370.468	10.88
370.679	0.46
370.89	18.06
371.101	13.95
371.312	12.36
371.522	14.75
371.733	11.34
371.944	12.34
372.155	4.33
372.365	-7.56
372.576	-8.92
372.787	-10.56
372.997	-10.93
373.208	-7.82
373.419	-4.68
373.629	11.04
373.84	4.34
374.05	15.73
374.261	12.49
374.472	9.74
374.682	7.68
374.893	3.46
375.103	4.01
375.314	9.95
375.524	5.47
375.735	13.15
375.945	14.49
376.156	21.2
376.366	25.93
376.577	23.12
376.787	21.66
376.997	25.78
377.208	20.52
377.418	23.59
377.629	17.41
377.839	21.98
378.049	24.23
378.26	27.22
378.47	23.41
378.68	18.72
378.89	10.28
379.101	7.2
379.311	-2.81
379.521	-5.53
379.732	-13.7
379.942	-11.26
380.152	-6.06
380.362	7.35
380.572	11.02
380.783	12.97
380.993	10.55
381.203	18.02
381.413	18.98
381.623	19.37
381.833	8.98
382.043	3.71
382.253	6.68
382.463	11.37
382.674	8.88
382.884	4.82
383.094	6.23
383.304	7.58
383.514	11.15
383.724	8.04
383.934	3.64
384.144	6.33
384.353	5.34
384.563	4.19
384.773	7.9
384.983	10.12
385.193	12.35
385.403	17.4
385.613	12.81
385.823	11.6
386.033	12.14
386.242	11.9
386.452	9.62
386.662	10.71
386.872	6.2
387.082	3.12
387.291	7.47
387.501	8.34
387.711	8.27
387.921	8.65
388.13	5.97
388.34	7.13
388.55	14.17
388.759	12.86
388.969	10.08
389.179	10.8
389.388	10.13
389.598	7.89
389.807	7.07
390.017	3.25
390.227	2.3
390.436	3.83
390.646	4.68
390.855	5.61
391.065	7.1
391.274	6.55
391.484	8.71
391.693	10.1
391.903	9.38
392.112	7.21
392.322	8.96
392.531	9.56
392.74	7.96
392.95	7.82
393.159	7.25
393.369	7.34
393.578	7.06
393.787	6.11
393.997	5.45
394.206	6.77
394.415	6.3
394.625	5.34
394.834	4.73
395.043	5.4
395.252	5.7
395.462	6.11
395.671	6.72
395.88	6.77
396.089	7.1
396.298	7.28
396.508	7.18
396.717	6.42
396.926	5.95
397.135	5.06
397.344	4.83
397.553	5.22
397.762	5.38
397.971	5.28
398.181	4.98
398.39	5.23
398.599	5.7
398.808	5.82
399.017	5.67
399.226	5.82
399.435	5.75
399.644	5.97
399.853	5.93
400.062	5.97
400.27	5.84
400.479	5.86
400.688	5.9
400.897	6.23
401.106	6.26
401.315	6.1
401.524	6.24
401.733	6.41
401.941	6.16
402.15	5.94
402.359	5.7
402.568	5.48
402.777	5.59
402.985	5.33
403.194	5.1
403.403	5.01
403.612	5.1
403.82	5.19
404.029	5.33
404.238	5.35
404.446	5.1
404.655	4.99
404.864	5.08
405.072	5.01
405.281	4.72
405.489	4.78
405.698	4.64
405.906	4.75
406.115	4.85
406.324	4.72
406.532	4.72
406.741	4.8
406.949	4.6
407.158	4.77
407.366	4.91
407.574	4.94
407.783	4.95
407.991	4.89
408.2	4.93
408.408	5.01
408.617	4.87
408.825	4.81
409.033	4.7
409.242	4.69
409.45	4.67
409.658	4.67
409.867	4.7
410.075	4.68
410.283	4.6
410.491	4.58
410.7	4.71
410.908	4.7
411.116	4.6
411.324	4.58
411.533	4.51
411.741	4.51
411.949	4.65
412.157	4.58
412.365	4.59
412.573	4.66
412.781	4.61
412.99	4.69
413.198	4.73
413.406	4.64
413.614	4.62
413.822	4.56
414.03	4.42
414.238	4.52
414.446	4.34
414.654	4.26
414.862	4.16
415.07	4.21
415.278	4.17
415.486	4.33
415.694	4.16
415.902	4.19
416.109	4.25
416.317	4.17
416.525	4.12
416.733	4.27
416.941	4.15
417.149	4.28
417.357	4.3
417.564	4.23
417.772	4.35
417.98	4.29
418.188	4.16
418.395	4.18
418.603	4.02
418.811	3.95
419.019	3.96
419.226	4.04
419.434	3.97
419.642	3.98
419.849	3.92
420.057	4.03
420.265	4.11
420.472	4.06
420.68	3.95
420.887	4.06
421.095	4.05
421.302	4.16
421.51	4.15
421.717	4.2
421.925	4.17
422.132	4.1
422.34	4.06
422.547	4.01
422.755	3.98
422.962	3.88
423.17	3.83
423.377	3.94
423.585	3.99
423.792	4.04
423.999	4.07
424.207	3.94
424.414	4.03
424.621	4
424.829	3.88
425.036	3.82
425.243	3.77
425.451	3.75
425.658	3.85
425.865	3.72
426.072	3.84
426.28	3.95
426.487	3.96
426.694	3.89
426.901	3.83
427.108	3.82
427.315	3.85
427.523	3.81
427.73	3.81
427.937	3.85
428.144	3.88
428.351	4.03
428.558	3.93
428.765	3.94
428.972	3.89
429.179	3.77
429.386	3.89
429.593	3.81
429.8	3.84
430.007	3.98
430.214	4.05
430.421	4.1
430.628	4.03
430.835	3.93
431.042	4.02
431.249	3.92
431.456	3.94
431.662	3.93
431.869	3.99
432.076	4.11
432.283	4.07
432.49	4.04
432.697	4.03
432.903	4.04
433.11	4.02
433.317	4
433.524	3.92
433.73	3.99
433.937	3.97
434.144	4.09
434.35	4.01
434.557	3.99
434.764	3.92
434.97	4.06
435.177	4.03
435.384	4.1
435.59	4.06
435.797	4.09
436.003	4.07
436.21	4.06
436.416	3.96
436.623	4.05
436.829	4.02
437.036	3.98
437.242	4
437.449	4.08
437.655	4.15
437.862	4.12
438.068	4.18
438.275	4.15
438.481	4.18
438.687	4.17
438.894	4.12
439.1	4.12
439.307	4.22
439.513	4.13
439.719	4.24
439.926	4.26
440.132	4.27
440.338	4.32
440.544	4.32
440.751	4.28
440.957	4.26
441.163	4.26
441.369	4.21
441.575	4.24
441.782	4.2
441.988	4.22
442.194	4.32
442.4	4.33
442.606	4.32
442.812	4.34
443.018	4.36
443.224	4.35
443.431	4.35
443.637	4.24
443.843	4.33
444.049	4.29
444.255	4.27
444.461	4.2
444.667	4.22
444.873	4.17
445.079	4.26
445.284	4.2
445.49	4.2
445.696	4.25
445.902	4.33
446.108	4.37
446.314	4.43
446.52	4.4
446.726	4.42
446.931	4.43
447.137	4.42
447.343	4.41
447.549	4.36
447.755	4.34
447.96	4.34
448.166	4.35
448.372	4.35
448.578	4.4
448.783	4.37
448.989	4.41
449.195	4.42
449.4	4.42
449.606	4.4
449.812	4.47
450.017	4.47
450.223	4.48
450.428	4.48
450.634	4.56
450.84	4.55
451.045	4.57
451.251	4.55
451.456	4.49
451.662	4.49
451.867	4.52
452.073	4.47
452.278	4.48
452.483	4.57
452.689	4.55
452.894	4.59
453.1	4.56
453.305	4.55
453.51	4.57
453.716	4.58
453.921	4.5
454.127	4.51
454.332	4.48
454.537	4.54
454.742	4.55
454.948	4.52
455.153	4.53
455.358	4.61
455.563	4.66
455.769	4.66
455.974	4.58
456.179	4.51
456.384	4.54
456.589	4.54
456.795	4.42
457	4.34
457.205	4.34
457.41	4.4
457.615	4.53
457.82	4.6
458.025	4.59
458.23	4.7
458.435	4.69
458.64	4.73
458.845	4.74
459.05	4.68
459.255	4.64
459.46	4.67
459.665	4.71
459.87	4.73
460.075	4.74
460.28	4.76
460.485	4.83
460.69	4.79
460.895	4.81
461.099	4.8
461.304	4.86
461.509	4.82
461.714	4.82
461.919	4.8
462.123	4.9
462.328	4.88
462.533	4.85
462.738	4.82
462.942	4.95
463.147	4.94
463.352	4.96
463.556	4.94
463.761	4.95
463.966	5.04
464.17	5.11
464.375	5.01
464.58	5.03
464.784	5
464.989	4.97
465.193	4.99
465.398	4.98
465.602	4.91
465.807	4.95
466.011	5.01
466.216	5.04
466.42	5.12
466.625	5.12
466.829	5.12
467.034	5.19
467.238	5.26
467.443	5.25
467.647	5.27
467.851	5.24
468.056	5.27
468.26	5.2
468.464	5.2
468.669	5.16
468.873	5.14
469.077	5.13
469.282	5.17
469.486	5.2
469.69	5.28
469.894	5.32
470.099	5.39
470.303	5.4
470.507	5.44
