Data from Ofra_PS_T2_2A_0GT03_Reflection_2.txt Node
Date: Wed Jul 21 16:51:42 EDT 2021
User: Adam
Spectrometer: FLMT01687
Trigger mode: 0
Integration Time (sec): 1.100000E0
Scans to average: 2
Electric dark correction enabled: true
Nonlinearity correction enabled: false
Boxcar width: 2
XAxis mode: Wavelengths
Number of Pixels in Spectrum: 3648
>>>>>Begin Spectral Data<<<<<
179.494	277.6
179.716	333.65
179.937	359.48
180.158	380.5
180.38	615.62
180.601	315.47
180.823	102.3
181.044	-86.26
181.265	-127.21
181.486	-16.62
181.708	41.11
181.929	430.61
182.15	-339.44
182.372	22.97
182.593	-57.84
182.814	-13.6
183.035	6.61
183.257	-4.93
183.478	-72.98
183.699	-10.03
183.92	22.5
184.141	9.57
184.363	-23.02
184.584	-18.93
184.805	-16.74
185.026	-20.38
185.247	2.33
185.468	19.73
185.689	27.93
185.91	26.24
186.132	7.35
186.353	18.54
186.574	-3.18
186.795	15.17
187.016	-29.36
187.237	-19.44
187.458	-48.17
187.679	-25.33
187.9	-10.66
188.121	16.31
188.342	15.68
188.563	38.45
188.784	43.73
189.005	23.7
189.226	31.26
189.447	48.72
189.667	-149.03
189.888	-197.04
190.109	-616.88
190.33	-238.71
190.551	-481.42
190.772	-56.17
190.993	-15.99
191.214	1.09
191.434	-25.76
191.655	20.86
191.876	17.94
192.097	-56.29
192.318	-88.73
192.538	-93.55
192.759	-95.02
192.98	-54.93
193.201	4.16
193.421	22.45
193.642	23.85
193.863	22.58
194.083	13.98
194.304	-9.97
194.525	-29.56
194.745	-71.61
194.966	-51.5
195.187	-29.16
195.407	-1.93
195.628	-12.56
195.848	-9.84
196.069	5.82
196.29	7.91
196.51	-41.49
196.731	-35.87
196.951	-46.16
197.172	-73.47
197.392	-96.95
197.613	-82.12
197.833	-119.32
198.054	-97.52
198.274	-52.04
198.495	-59.4
198.715	-26.18
198.936	-19.94
199.156	-18.77
199.377	-67.64
199.597	-60.18
199.817	-95.74
200.038	-56.56
200.258	-78.81
200.479	-68.5
200.699	-92.93
200.919	-4.77
201.14	-1.85
201.36	-12.2
201.58	33.82
201.801	50.21
202.021	19.49
202.241	9.76
202.461	4.18
202.682	-52.66
202.902	-92.69
203.122	-39.96
203.342	-23.85
203.563	23.87
203.783	31.99
204.003	24.09
204.223	34.12
204.443	66.18
204.663	27.28
204.884	9.61
205.104	25.28
205.324	12.53
205.544	1.8
205.764	25.44
205.984	40.46
206.204	32.83
206.424	16.65
206.644	-23.91
206.864	-14.61
207.084	-61.57
207.304	-69.28
207.525	-62.19
207.745	-26.08
207.964	3.58
208.184	-10.08
208.404	-17.61
208.624	-23.15
208.844	-20.51
209.064	-187.56
209.284	-232.64
209.504	-135.83
209.724	-54.39
209.944	-40.64
210.164	-7.35
210.384	19.14
210.604	15.46
210.823	-7.14
211.043	-8.19
211.263	-24.55
211.483	-31.94
211.703	-77.84
211.922	-71.59
212.142	-24.28
212.362	-9.15
212.582	-19.09
212.801	-7.06
213.021	-21.24
213.241	-56.94
213.461	-66.56
213.68	-85.36
213.9	-78.3
214.12	-55.15
214.339	-79.94
214.559	-70.79
214.779	-24.76
214.998	-2.54
215.218	-39.31
215.438	-21.15
215.657	-30.87
215.877	-40.07
216.096	-18.59
216.316	7.71
216.535	14.45
216.755	28.58
216.974	-26.71
217.194	-69.5
217.413	-83.63
217.633	-63.64
217.852	-159.12
218.072	-43.89
218.291	-7.13
218.511	18.78
218.73	-24.29
218.95	-15.01
219.169	-22.71
219.389	-65.69
219.608	-57.92
219.827	-46.1
220.047	-47.71
220.266	-17.55
220.485	-5
220.705	5.18
220.924	0.13
221.143	38.41
221.363	12.64
221.582	22.23
221.801	26.25
222.021	33.98
222.24	-24.02
222.459	25.65
222.678	2.95
222.897	-16.3
223.117	-33.9
223.336	-57.12
223.555	-55.38
223.774	-16.51
223.993	-32.72
224.213	-6.32
224.432	-11.32
224.651	25
224.87	4.41
225.089	22.46
225.308	22.02
225.527	25.67
225.746	21.35
225.965	13.93
226.184	-2.78
226.404	17.72
226.623	19.64
226.842	20.23
227.061	23.96
227.28	19.72
227.499	-3.01
227.718	5.56
227.936	-21.97
228.155	-18.19
228.374	-13.4
228.593	6.55
228.812	-11.19
229.031	-6.34
229.25	-26.28
229.469	-30.85
229.688	-51.5
229.907	-21.78
230.125	-11.15
230.344	-12.58
230.563	-21.4
230.782	3.42
231.001	-45.3
231.22	-49.53
231.438	-15.64
231.657	12.35
231.876	-7.62
232.095	16
232.313	22.64
232.532	4.39
232.751	-18.39
232.969	-14.4
233.188	-29.22
233.407	13.49
233.625	1.74
233.844	-7.48
234.063	-6.27
234.281	5.54
234.5	0.34
234.719	12.8
234.937	21.54
235.156	17.56
235.374	15.8
235.593	9.36
235.811	18.97
236.03	15.72
236.249	5.06
236.467	19.63
236.686	19.11
236.904	12
237.123	-3.82
237.341	-8.54
237.559	5.16
237.778	-9.19
237.996	-31.13
238.215	-7.51
238.433	12.13
238.652	-10.31
238.87	-8.26
239.088	9.91
239.307	19.13
239.525	10.79
239.743	-13.53
239.962	-18.71
240.18	-42.69
240.398	-77.85
240.617	-48.32
240.835	-28.7
241.053	-14.11
241.271	2.91
241.49	12.11
241.708	-30.26
241.926	-51.73
242.144	-51.06
242.363	-51.15
242.581	-76.41
242.799	-42.29
243.017	-19.52
243.235	-16.45
243.453	-24.6
243.672	-21.86
243.89	-24.3
244.108	-16.51
244.326	-7.48
244.544	10.4
244.762	23.23
244.98	20.67
245.198	22.98
245.416	7.12
245.634	-7.99
245.852	-24.56
246.07	-16.19
246.288	-54.9
246.506	-66.11
246.724	-52.07
246.942	-55.51
247.16	-15.1
247.378	2.59
247.596	17.44
247.814	1.69
248.032	-10.15
248.25	-21.71
248.468	-15.87
248.685	-33.7
248.903	-6.08
249.121	7.87
249.339	-0.06
249.557	-6.05
249.775	2.01
249.992	-36.38
250.21	-40.6
250.428	-32.73
250.646	-63.36
250.863	-59.52
251.081	-20.21
251.299	-16.81
251.517	1.03
251.734	20.08
251.952	15.29
252.17	-0.06
252.387	13.94
252.605	1.46
252.823	6.65
253.04	18.37
253.258	36.89
253.475	26.83
253.693	39.23
253.911	42.24
254.128	40.04
254.346	38.2
254.563	19.4
254.781	-2.36
254.998	-31.4
255.216	-50.13
255.433	-35.42
255.651	-3.17
255.868	21.99
256.086	43.5
256.303	40.41
256.521	17.22
256.738	4.15
256.956	-29.33
257.173	-49.55
257.39	-60.03
257.608	-67.07
257.825	-47.61
258.043	-24.8
258.26	-9.56
258.477	40.56
258.695	22.17
258.912	-7.92
259.129	-7.05
259.346	-28.86
259.564	-99.67
259.781	-99.04
259.998	-47.79
260.216	-22.8
260.433	3.93
260.65	17.35
260.867	24.34
261.084	8
261.302	-10.6
261.519	-21.01
261.736	-37.46
261.953	-52.55
262.17	-22.6
262.387	-43.59
262.604	-70.43
262.822	-47.2
263.039	-29.49
263.256	-61.8
263.473	-43.71
263.69	-16.78
263.907	3.35
264.124	-2.9
264.341	-12.7
264.558	-7.21
264.775	1.58
264.992	-23.66
265.209	-22.7
265.426	6.78
265.643	19.29
265.86	27.65
266.077	30.83
266.294	41.34
266.51	18.94
266.727	5.72
266.944	-18.19
267.161	-8.34
267.378	-10.5
267.595	16.98
267.812	-10.6
268.028	-24.17
268.245	5.34
268.462	-3.77
268.679	-25.52
268.896	21.2
269.112	24.6
269.329	3.66
269.546	5.37
269.763	1.19
269.979	-13.25
270.196	-10.45
270.413	-28.43
270.629	-36.38
270.846	-34.93
271.063	-37.18
271.279	-38.62
271.496	-26.59
271.712	-6.19
271.929	14.15
272.146	6.3
272.362	8.09
272.579	12.65
272.795	15.96
273.012	-7.22
273.228	7.85
273.445	-6.44
273.661	-14.94
273.878	-34.38
274.094	-18.83
274.311	-55.29
274.527	-7.01
274.744	2.79
274.96	5.7
275.177	21.57
275.393	32.89
275.609	21.18
275.826	25.99
276.042	15.36
276.259	-5.36
276.475	5.38
276.691	15.24
276.908	3.23
277.124	7.41
277.34	9.06
277.557	1.46
277.773	-4.16
277.989	-12.71
278.205	-6.8
278.422	9.06
278.638	-3.25
278.854	-3.48
279.07	-8.45
279.286	-11.87
279.503	-48.26
279.719	-35.33
279.935	-46.23
280.151	-50.73
280.367	-29.8
280.583	-40.59
280.799	-28.65
281.016	-48.07
281.232	-18.26
281.448	-27.47
281.664	1.49
281.88	-38.56
282.096	-8.46
282.312	9.41
282.528	32.95
282.744	22.61
282.96	33.63
283.176	23.74
283.392	13.81
283.608	-1.79
283.824	-0.18
284.04	8.52
284.256	8.44
284.471	-2.54
284.687	-9.38
284.903	6.38
285.119	10.51
285.335	-7.62
285.551	-26.7
285.767	-15.13
285.982	-42.61
286.198	-67.29
286.414	-29.18
286.63	-5.05
286.846	4.16
287.061	-4.46
287.277	10.89
287.493	-3.51
287.709	13.07
287.924	5.12
288.14	21.4
288.356	29.06
288.571	37.94
288.787	9.19
289.003	14.18
289.218	10.16
289.434	-15.41
289.65	-17.79
289.865	-1.29
290.081	-2.82
290.296	-5.01
290.512	9.68
290.727	-4.75
290.943	-9.22
291.159	-7.88
291.374	-9.89
291.59	-33.41
291.805	-16.84
292.021	-15.2
292.236	-25.5
292.451	-12.5
292.667	-3.87
292.882	-5.15
293.098	-0.25
293.313	-6.11
293.529	-13.84
293.744	6.03
293.959	-9.13
294.175	-7.9
294.39	9.3
294.605	14.44
294.821	19.04
295.036	18.49
295.251	11.83
295.467	6.91
295.682	-7.3
295.897	-39.43
296.112	-34.46
296.328	-39.6
296.543	-68.71
296.758	-40.39
296.973	-10.81
297.188	13.31
297.404	-0.06
297.619	-4.19
297.834	-28.6
298.049	-45.61
298.264	-54.23
298.479	-14.19
298.694	-13.75
298.909	4.26
299.125	13.68
299.34	12.28
299.555	-0.76
299.77	11.94
299.985	-16.11
300.2	-61.37
300.415	-59.32
300.63	-33.17
300.845	-21.38
301.06	-12.13
301.275	28.32
301.49	23.99
301.704	10
301.919	1.14
302.134	-2
302.349	-18.69
302.564	-59.94
302.779	-62.1
302.994	-74.45
303.209	-33.74
303.423	-17.38
303.638	16.21
303.853	0.9
304.068	-2.1
304.283	-8.99
304.497	5.05
304.712	7.74
304.927	11.75
305.142	6.7
305.356	19.46
305.571	5.29
305.786	-4.21
306	-22.95
306.215	4.81
306.43	-33.13
306.644	-36.23
306.859	10.03
307.074	29.57
307.288	-8.23
307.503	-1.36
307.717	-15.25
307.932	-39.27
308.147	-39.66
308.361	-13.25
308.576	-6.16
308.79	-12.16
309.005	6.82
309.219	-2.84
309.434	-8.47
309.648	-21.03
309.863	-5.24
310.077	-17.5
310.292	-12.86
310.506	-7.14
310.72	6.85
310.935	-3.91
311.149	-15.63
311.364	-5.5
311.578	-6.99
311.792	-21.59
312.007	-9.94
312.221	-2.26
312.435	-2.4
312.649	-9.42
312.864	15.19
313.078	44.65
313.292	83.78
313.507	65.24
313.721	45.86
313.935	15.43
314.149	-5.62
314.363	-10.72
314.578	4.81
314.792	15.79
315.006	1.1
315.22	8.1
315.434	9.76
315.648	11.3
315.862	8.22
316.077	28.94
316.291	14.02
316.505	8.64
316.719	-0.76
316.933	20.43
317.147	-4.44
317.361	-22.62
317.575	-21.83
317.789	-38.22
318.003	-109.04
318.217	-82.98
318.431	-19.24
318.645	0.9
318.859	5.67
319.073	30.43
319.287	30.41
319.5	11.57
319.714	-8.99
319.928	-32.22
320.142	-47.67
320.356	-8.9
320.57	3.81
320.784	-8.5
320.997	-4.2
321.211	-16.53
321.425	-79.62
321.639	-78.9
321.853	-40.39
322.066	-22.62
322.28	-19.25
322.494	-6.03
322.707	-5.01
322.921	-1.98
323.135	-8.39
323.349	-1.54
323.562	-19.6
323.776	-37.27
323.989	-46.78
324.203	-46.83
324.417	-49.19
324.63	-50
324.844	-19.88
325.057	-30.84
325.271	-17.32
325.485	1.96
325.698	19.57
325.912	10.5
326.125	14.6
326.339	9.49
326.552	-8.8
326.766	-1.24
326.979	28.58
327.193	46.93
327.406	31.45
327.619	19.61
327.833	7.07
328.046	-14.26
328.26	-52.37
328.473	-22.87
328.686	-28.76
328.9	-17.02
329.113	-3.27
329.326	-13.74
329.54	-11.53
329.753	-14.2
329.966	-7.35
330.179	-9.34
330.393	10.47
330.606	16.56
330.819	21.72
331.032	36.54
331.246	40.37
331.459	47.11
331.672	44.96
331.885	46.02
332.098	21.39
332.311	2.98
332.525	-17.25
332.738	-21.36
332.951	-17.51
333.164	5.73
333.377	10.43
333.59	16.16
333.803	23.58
334.016	15.9
334.229	8.95
334.442	13.73
334.655	34.35
334.868	34.66
335.081	49.21
335.294	34.44
335.507	30.42
335.72	37.35
335.933	8.48
336.146	1.65
336.359	-2.27
336.572	-2.92
336.785	-43.82
336.997	-33.09
337.21	-20.48
337.423	-24.29
337.636	-25.56
337.849	-6.57
338.062	1.83
338.274	-2.34
338.487	2.94
338.7	-13.76
338.913	-26.27
339.125	-60.46
339.338	-119.92
339.551	-93.97
339.763	-59.46
339.976	-62.38
340.189	-38.42
340.402	-8.99
340.614	-23.39
340.827	-12.2
341.039	-16.08
341.252	-1.37
341.465	-2.09
341.677	4.26
341.89	-25.87
342.102	0.81
342.315	-18.58
342.527	-40.68
342.74	-26.21
342.952	-12.13
343.165	-9.18
343.377	11.58
343.59	8.31
343.802	11.62
344.015	14.5
344.227	17.49
344.44	1.2
344.652	14.41
344.864	-1.74
345.077	20.45
345.289	18.03
345.502	24.74
345.714	26.44
345.926	34.71
346.139	17.29
346.351	12.82
346.563	6.63
346.775	3.68
346.988	-7.1
347.2	-9.54
347.412	-35.53
347.624	-43.25
347.837	-62.06
348.049	-32.41
348.261	-16.68
348.473	-1.55
348.685	-6.23
348.897	8.32
349.11	-13.76
349.322	-8.61
349.534	-2.37
349.746	17.88
349.958	13.49
350.17	21.17
350.382	12.23
350.594	15.55
350.806	22.45
351.018	20.64
351.23	2.56
351.442	-18.06
351.654	-38.03
351.866	-30.41
352.078	-23.91
352.29	11.57
352.502	24.52
352.714	30.32
352.926	19.42
353.138	21.83
353.35	15.66
353.561	15.02
353.773	6.45
353.985	11.3
354.197	7.17
354.409	-1.59
354.621	-4.52
354.832	-0.29
355.044	-5.59
355.256	-2.53
355.468	10.52
355.679	3.63
355.891	18.48
356.103	17.75
356.314	12.51
356.526	19.88
356.738	30.1
356.949	3.07
357.161	13.63
357.373	13.48
357.584	-9.92
357.796	-2.4
358.008	5.4
358.219	5.63
358.431	4.81
358.642	17.2
358.854	16.86
359.065	6.12
359.277	-9.6
359.488	-10.45
359.7	-27.56
359.911	-45.29
360.123	-31.02
360.334	-37.33
360.546	-54.56
360.757	-38.06
360.969	-16.74
361.18	-22.38
361.391	-9.51
361.603	-21.44
361.814	-33.48
362.025	-46.4
362.237	-38.75
362.448	-29.99
362.659	-0.62
362.871	3.25
363.082	3.94
363.293	-2.03
363.504	-6.57
363.716	-28.45
363.927	-32.88
364.138	-35.47
364.349	-26.92
364.56	-23.4
364.772	-12
364.983	10.53
365.194	6.62
365.405	9.84
365.616	10.37
365.827	2.57
366.038	-23.85
366.25	-21.69
366.461	-37.64
366.672	-1.42
366.883	15.38
367.094	24.58
367.305	19.19
367.516	21.27
367.727	-7.44
367.938	-25.95
368.149	-28.93
368.36	-4.58
368.571	-9.66
368.781	-5.67
368.992	-9.65
369.203	-21.79
369.414	-43.87
369.625	-31.98
369.836	-32.3
370.047	-39.9
370.258	-18.28
370.468	-28.34
370.679	-39.57
370.89	-27.12
371.101	-7.69
371.312	-19.15
371.522	-12.34
371.733	-10.05
371.944	-15.85
372.155	-21.39
372.365	-20.1
372.576	-11.22
372.787	-1.53
372.997	-13.35
373.208	-4.11
373.419	7.56
373.629	-22.94
373.84	-36.61
374.05	-41.44
374.261	-58.54
374.472	-55.9
374.682	-9.73
374.893	-1.93
375.103	18.39
375.314	27.5
375.524	26.05
375.735	18.71
375.945	22.47
376.156	18.3
376.366	22.88
376.577	11.15
376.787	6.7
376.997	1.59
377.208	-0.5
377.418	-17.66
377.629	-0.75
377.839	8.58
378.049	11.48
378.26	16.09
378.47	29.12
378.68	14.32
378.89	4
379.101	-9.07
379.311	-34.32
379.521	-62.54
379.732	-50.55
379.942	-47.05
380.152	-46.4
380.362	-14.14
380.572	-3.48
380.783	3.24
380.993	11.03
381.203	17.61
381.413	20.37
381.623	15.86
381.833	8.39
382.043	4.66
382.253	6.02
382.463	3.94
382.674	-4.75
382.884	-13.5
383.094	-4.38
383.304	-0.91
383.514	-3.39
383.724	4.34
383.934	3.99
384.144	-10.65
384.353	-21.87
384.563	-24.16
384.773	-16.9
384.983	-23.38
385.193	-5.92
385.403	0.59
385.613	3.47
385.823	-7.73
386.033	5.63
386.242	-1.78
386.452	-4.72
386.662	-8.39
386.872	8.24
387.082	-2.96
387.291	-6.34
387.501	-4.7
387.711	-5.73
387.921	-14.26
388.13	-9.27
388.34	0.33
388.55	-1.14
388.759	-0.48
388.969	0.89
389.179	-0.31
389.388	-1.84
389.598	-0.06
389.807	-3.82
390.017	-5.6
390.227	-2.78
390.436	-5.07
390.646	-3.77
390.855	1.47
391.065	2.72
391.274	0.55
391.484	0.57
391.693	0.12
391.903	1.66
392.112	3.92
392.322	5.83
392.531	7.64
392.74	9.76
392.95	5.61
393.159	5.35
393.369	4.12
393.578	3.33
393.787	3.37
393.997	4.22
394.206	3.75
394.415	4.65
394.625	3.35
394.834	1.08
395.043	2.43
395.252	3.46
395.462	4.3
395.671	5.22
395.88	6.21
396.089	6.53
396.298	4.89
396.508	3.78
396.717	3.88
396.926	3.59
397.135	2.67
397.344	2.72
397.553	4.1
397.762	4.57
397.971	5.26
398.181	5.66
398.39	6.11
398.599	5.73
398.808	6.13
399.017	6.4
399.226	7.25
399.435	7.49
399.644	7.36
399.853	6.63
400.062	6.17
400.27	5.66
400.479	5.4
400.688	5.03
400.897	5.35
401.106	5.47
401.315	5.67
401.524	5.89
401.733	6.35
401.941	6.18
402.15	6.24
402.359	6.06
402.568	6.31
402.777	6.46
402.985	6.5
403.194	6.47
403.403	6.22
403.612	6.02
403.82	5.84
404.029	6.13
404.238	6.04
404.446	6.44
404.655	6.35
404.864	6.19
405.072	5.85
405.281	5.82
405.489	5.6
405.698	5.62
405.906	5.71
406.115	5.79
406.324	5.73
406.532	5.87
406.741	6.02
406.949	6.03
407.158	6.03
407.366	6.09
407.574	6.05
407.783	5.94
407.991	5.68
408.2	5.71
408.408	5.82
408.617	5.67
408.825	5.53
409.033	5.71
409.242	5.7
409.45	5.65
409.658	5.67
409.867	5.75
410.075	5.62
410.283	5.56
410.491	5.39
410.7	5.3
410.908	5.24
411.116	5.4
411.324	5.36
411.533	5.28
411.741	5.44
411.949	5.26
412.157	5.11
412.365	5.17
412.573	5.22
412.781	5.21
412.99	5.35
413.198	5.51
413.406	5.42
413.614	5.44
413.822	5.3
414.03	5.24
414.238	4.97
414.446	5.05
414.654	4.93
414.862	5.02
415.07	5.08
415.278	5.23
415.486	5.04
415.694	5.18
415.902	5.05
416.109	4.92
416.317	4.96
416.525	4.88
416.733	4.69
416.941	4.89
417.149	5.1
417.357	4.94
417.564	5.08
417.772	5.3
417.98	5.19
418.188	5.01
418.395	5.15
418.603	5.34
418.811	5.12
419.019	5.01
419.226	5.18
419.434	5.26
419.642	4.98
419.849	5.14
420.057	5.17
420.265	5.07
420.472	4.85
420.68	5.03
420.887	4.92
421.095	4.93
421.302	4.96
421.51	5.11
421.717	5.12
421.925	5.13
422.132	4.92
422.34	4.68
422.547	4.56
422.755	4.31
422.962	4.32
423.17	4.35
423.377	4.55
423.585	4.52
423.792	4.6
423.999	4.47
424.207	4.44
424.414	4.36
424.621	4.34
424.829	4.29
425.036	4.37
425.243	4.6
425.451	4.53
425.658	4.45
425.865	4.64
426.072	4.6
426.28	4.64
426.487	4.69
426.694	4.68
426.901	4.42
427.108	4.45
427.315	4.36
427.523	4.52
427.73	4.7
427.937	4.8
428.144	4.74
428.351	4.66
428.558	4.64
428.765	4.55
428.972	4.45
429.179	4.55
429.386	4.78
429.593	4.62
429.8	4.59
430.007	4.78
430.214	4.91
430.421	4.74
430.628	4.61
430.835	4.61
431.042	4.7
431.249	4.81
431.456	4.95
431.662	5.11
431.869	5.27
432.076	5.26
432.283	5.22
432.49	5.17
432.697	5.22
432.903	5.05
433.11	4.98
433.317	4.93
433.524	5.03
433.73	4.94
433.937	5.12
434.144	5.25
434.35	5.19
434.557	5.04
434.764	5.12
434.97	5.04
435.177	5.01
435.384	5.08
435.59	5.18
435.797	5.45
436.003	5.52
436.21	5.45
436.416	5.56
436.623	5.62
436.829	5.49
437.036	5.59
437.242	5.7
437.449	5.59
437.655	5.66
437.862	5.69
438.068	5.55
438.275	5.66
438.481	5.85
438.687	5.71
438.894	5.71
439.1	5.77
439.307	5.83
439.513	5.65
439.719	5.76
439.926	5.86
440.132	5.95
440.338	5.87
440.544	6.06
440.751	6
440.957	5.98
441.163	5.94
441.369	6.01
441.575	5.89
441.782	5.97
441.988	5.91
442.194	5.92
442.4	5.94
442.606	6.07
442.812	6.22
443.018	6.25
443.224	6.33
443.431	6.35
443.637	6.22
443.843	6.09
444.049	6.17
444.255	6.11
444.461	6.08
444.667	6.09
444.873	6.21
445.079	6.18
445.284	6.26
445.49	6.19
445.696	6.14
445.902	6.01
446.108	5.93
446.314	5.91
446.52	5.86
446.726	6.06
446.931	6.12
447.137	6.2
447.343	6.24
447.549	6.33
447.755	6.2
447.96	6.26
448.166	6.26
448.372	6.12
448.578	6.21
448.783	6.33
448.989	6.32
449.195	6.45
449.4	6.59
449.606	6.48
449.812	6.39
450.017	6.41
450.223	6.26
450.428	6.19
450.634	6.31
450.84	6.44
451.045	6.42
451.251	6.46
451.456	6.67
451.662	6.65
451.867	6.66
452.073	6.57
452.278	6.59
452.483	6.56
452.689	6.5
452.894	6.52
453.1	6.56
453.305	6.48
453.51	6.42
453.716	6.37
453.921	6.33
454.127	6.32
454.332	6.34
454.537	6.21
454.742	6.24
454.948	6.27
455.153	6.33
455.358	6.41
455.563	6.57
455.769	6.6
455.974	6.55
456.179	6.46
456.384	6.37
456.589	6.36
456.795	6.28
457	6.21
457.205	6.34
457.41	6.47
457.615	6.47
457.82	6.54
458.025	6.61
458.23	6.59
458.435	6.5
458.64	6.39
458.845	6.5
459.05	6.44
459.255	6.45
459.46	6.48
459.665	6.59
459.87	6.51
460.075	6.53
460.28	6.62
460.485	6.74
460.69	6.72
460.895	6.71
461.099	6.8
461.304	6.83
461.509	6.76
461.714	6.72
461.919	6.79
462.123	6.66
462.328	6.6
462.533	6.55
462.738	6.63
462.942	6.59
463.147	6.64
463.352	6.65
463.556	6.73
463.761	6.79
463.966	6.84
464.17	6.83
