Data from Ofra_1a_PS_2CX10_Reflection_1.txt Node
Date: Tue Jul 20 10:46:28 EDT 2021
User: Adam
Spectrometer: FLMT01687
Trigger mode: 0
Integration Time (sec): 1.004000E0
Scans to average: 2
Electric dark correction enabled: true
Nonlinearity correction enabled: false
Boxcar width: 2
XAxis mode: Wavelengths
Number of Pixels in Spectrum: 3648
>>>>>Begin Spectral Data<<<<<
179.494	6.6
179.716	-26.72
179.937	203.01
180.158	-256.69
180.38	87.76
180.601	-28.8
180.823	-77.94
181.044	-238.6
181.265	-273.27
181.486	241.01
181.708	101.35
181.929	-1790.91
182.15	-188.86
182.372	594.58
182.593	510.03
182.814	-351.61
183.035	-39.97
183.257	31.1
183.478	19.28
183.699	-14.58
183.92	-72.44
184.141	-105.83
184.363	-126.41
184.584	-151.66
184.805	-69.95
185.026	-0.12
185.247	3.33
185.468	3.36
185.689	5.02
185.91	0.13
186.132	-0.73
186.353	22.42
186.574	55.3
186.795	71.45
187.016	66.31
187.237	49.26
187.458	24.2
187.679	8.36
187.9	8.06
188.121	-4.96
188.342	14.36
188.563	37.88
188.784	30
189.005	11.59
189.226	21.09
189.447	16.99
189.667	-5.43
189.888	-13.79
190.109	-28.72
190.33	-32.13
190.551	-16.03
190.772	-11.29
190.993	2.61
191.214	26.83
191.434	34.38
191.655	18.09
191.876	24.53
192.097	42.68
192.318	41.01
192.538	17.54
192.759	-5.25
192.98	3.72
193.201	-10.81
193.421	-15.06
193.642	0.06
193.863	5.28
194.083	7.55
194.304	32.27
194.525	25.16
194.745	21.9
194.966	25.84
195.187	16.43
195.407	1.13
195.628	7.94
195.848	7.68
196.069	-21.41
196.29	-9.75
196.51	-23.92
196.731	-33.22
196.951	-48.63
197.172	-11.72
197.392	-54.78
197.613	-19.7
197.833	-25.43
198.054	-30.35
198.274	-35.2
198.495	1.62
198.715	-3.92
198.936	14.71
199.156	35.59
199.377	38.99
199.597	31.89
199.817	24.58
200.038	-13.88
200.258	-17.85
200.479	-23.67
200.699	-43.91
200.919	-38.17
201.14	-20.77
201.36	-26.07
201.58	-61.74
201.801	-73.83
202.021	-72.28
202.241	-48.1
202.461	-14.04
202.682	29.89
202.902	38.45
203.122	47.09
203.342	41.2
203.563	10.61
203.783	-9.55
204.003	-15.75
204.223	-4.82
204.443	-25.01
204.663	-13.08
204.884	10.77
205.104	-3.46
205.324	0.91
205.544	-14.4
205.764	14.28
205.984	16.3
206.204	32.35
206.424	3.76
206.644	21.46
206.864	-24.14
207.084	-12.81
207.304	-29.91
207.525	-20.38
207.745	3.96
207.964	19.67
208.184	13.44
208.404	26.34
208.624	40.22
208.844	6.52
209.064	-18.05
209.284	-20.18
209.504	-27.6
209.724	-32.04
209.944	-19.59
210.164	-11.39
210.384	-6.54
210.604	-22.1
210.823	-43.24
211.043	-17.62
211.263	-41.48
211.483	-18.48
211.703	-24.18
211.922	8.14
212.142	33.03
212.362	50.09
212.582	36.79
212.801	39.82
213.021	23.56
213.241	-20.25
213.461	-23.96
213.68	-0.68
213.9	-4.5
214.12	-10.18
214.339	-6.51
214.559	-1.36
214.779	-16.48
214.998	2.85
215.218	-8.86
215.438	-4.92
215.657	-8.74
215.877	-4.85
216.096	-3.79
216.316	-3.49
216.535	-9.35
216.755	-8.54
216.974	-22.85
217.194	-17
217.413	-9.67
217.633	-13.17
217.852	-16.31
218.072	-16.04
218.291	-19.49
218.511	-26.07
218.73	-34.09
218.95	-58.15
219.169	-28.23
219.389	-9.14
219.608	-6.17
219.827	12.22
220.047	24.23
220.266	6.76
220.485	-26.55
220.705	-10.38
220.924	-5.85
221.143	33.44
221.363	54.57
221.582	53.05
221.801	60.46
222.021	54.6
222.24	50.75
222.459	51.33
222.678	51.06
222.897	35.36
223.117	49.58
223.336	44.17
223.555	43.75
223.774	63.11
223.993	80.44
224.213	68.28
224.432	56.46
224.651	38.02
224.87	26.64
225.089	13.26
225.308	16.68
225.527	13.82
225.746	6.76
225.965	14.6
226.184	18.44
226.404	-4.82
226.623	-4.65
226.842	-6.08
227.061	-3.98
227.28	10.7
227.499	16.72
227.718	24.95
227.936	32.97
228.155	29.01
228.374	20.28
228.593	26.21
228.812	12.22
229.031	27.05
229.25	9.14
229.469	14.96
229.688	13.83
229.907	21.34
230.125	10.25
230.344	20.17
230.563	27.19
230.782	24.8
231.001	24.57
231.22	25.71
231.438	40.89
231.657	37.83
231.876	36.45
232.095	43.31
232.313	39.3
232.532	14.28
232.751	-3
232.969	-4.4
233.188	-25.3
233.407	-22.21
233.625	-11.13
233.844	-7.32
234.063	-7.16
234.281	-1.16
234.5	-2.55
234.719	-9.7
234.937	-24.55
235.156	-20.51
235.374	-10.02
235.593	0.94
235.811	18.63
236.03	9.53
236.249	10.64
236.467	8.18
236.686	-11
236.904	-13.65
237.123	-1.38
237.341	-14.74
237.559	-25.77
237.778	31.46
237.996	18.19
238.215	-47.01
238.433	-53.56
238.652	1.21
238.87	-48.73
239.088	-22.39
239.307	7.76
239.525	12.74
239.743	10.27
239.962	3.2
240.18	3.89
240.398	-0.7
240.617	-23.79
240.835	-55.33
241.053	-23.78
241.271	-25.63
241.49	-8.43
241.708	-9.16
241.926	-8.13
242.144	-4
242.363	-4.54
242.581	-16.15
242.799	-2.4
243.017	16.97
243.235	4.24
243.453	-27.5
243.672	-31.08
243.89	-35.02
244.108	-25.56
244.326	-12.83
244.544	8.37
244.762	13.47
244.98	19.92
245.198	15.15
245.416	10.41
245.634	2.42
245.852	-7.48
246.07	16.93
246.288	8.46
246.506	8.05
246.724	9.71
246.942	10.57
247.16	-1.13
247.378	-9.68
247.596	-12.95
247.814	-1.27
248.032	9.6
248.25	20.05
248.468	24.57
248.685	36.38
248.903	31.99
249.121	29.81
249.339	29.4
249.557	35.73
249.775	21.59
249.992	28.8
250.21	28.61
250.428	36.52
250.646	22.61
250.863	7.87
251.081	0.54
251.299	13.22
251.517	-5.85
251.734	10.02
251.952	20.03
252.17	14.28
252.387	-12.64
252.605	-3.74
252.823	-18.38
253.04	-1.85
253.258	-0.4
253.475	0.49
253.693	-0.73
253.911	-2.05
254.128	-10.1
254.346	2.92
254.563	24.45
254.781	17.45
254.998	0.08
255.216	-43.89
255.433	-74.55
255.651	-92.86
255.868	-71.54
256.086	-44.62
256.303	-10.06
256.521	6.62
256.738	7.17
256.956	6.02
257.173	-4.76
257.39	-0.73
257.608	-11.03
257.825	-3.74
258.043	5.18
258.26	1.7
258.477	-2.45
258.695	-4.63
258.912	-18.35
259.129	-48.97
259.346	-54.87
259.564	-55.71
259.781	-50.73
259.998	-26.28
260.216	-1.88
260.433	5.41
260.65	11.47
260.867	12.72
261.084	17.38
261.302	30.49
261.519	55.24
261.736	49.15
261.953	50.72
262.17	50.31
262.387	40.73
262.604	24.47
262.822	32.37
263.039	34.97
263.256	24.02
263.473	16.02
263.69	8.62
263.907	-2.88
264.124	-4.44
264.341	13.82
264.558	8.5
264.775	11.18
264.992	12.02
265.209	-25.54
265.426	-48.91
265.643	-41.82
265.86	-49.84
266.077	-47.67
266.294	1.69
266.51	14.38
266.727	18.37
266.944	25.83
267.161	18.83
267.378	15.09
267.595	3.41
267.812	-15.71
268.028	-31.78
268.245	-24.04
268.462	-13.67
268.679	-7.44
268.896	17.53
269.112	13.35
269.329	-3.96
269.546	14.52
269.763	5.54
269.979	2.06
270.196	26.23
270.413	29.03
270.629	10.67
270.846	7.85
271.063	-3.28
271.279	-16.34
271.496	-25.27
271.712	-28.04
271.929	-7.91
272.146	-20.79
272.362	-27.01
272.579	-16.76
272.795	-10.75
273.012	-8.92
273.228	28.68
273.445	14.33
273.661	17.48
273.878	8
274.094	1.52
274.311	-9.76
274.527	-19.34
274.744	-7.97
274.96	13.69
275.177	23.19
275.393	27.83
275.609	40.86
275.826	33.09
276.042	24.15
276.259	8.45
276.475	-5.62
276.691	-25.27
276.908	-13.15
277.124	-21.36
277.34	-19.24
277.557	-24.3
277.773	-30.28
277.989	-11.77
278.205	4.43
278.422	-8.08
278.638	3.89
278.854	9.24
279.07	4.33
279.286	-6.42
279.503	8.02
279.719	9.89
279.935	11.79
280.151	4.17
280.367	10.38
280.583	9.1
280.799	-7.06
281.016	-32.44
281.232	-38.84
281.448	-43.87
281.664	-30.11
281.88	-12.83
282.096	1.73
282.312	17.54
282.528	30.35
282.744	38.55
282.96	25.94
283.176	28.38
283.392	-19.99
283.608	-15.39
283.824	-52.37
284.04	-62.42
284.256	-24.49
284.471	-8.04
284.687	-19.41
284.903	-10.96
285.119	6.77
285.335	10.07
285.551	7.17
285.767	8.27
285.982	4.76
286.198	-36.21
286.414	-55.91
286.63	-84.64
286.846	-77.46
287.061	-60.96
287.277	-46.37
287.493	-41.62
287.709	-6.43
287.924	-6.55
288.14	10.5
288.356	37.24
288.571	35.48
288.787	26.84
289.003	30.98
289.218	10.43
289.434	-17.55
289.65	2.15
289.865	12.25
290.081	22.69
290.296	33.71
290.512	43.24
290.727	24.39
290.943	21.43
291.159	15.16
291.374	-14.33
291.59	-9.7
291.805	-16.05
292.021	-19.82
292.236	-22.33
292.451	0.24
292.667	-8.38
292.882	6.21
293.098	-6.71
293.313	-8.82
293.529	-1.29
293.744	-12.32
293.959	-19.7
294.175	-19.96
294.39	-42.96
294.605	-24.32
294.821	-19.12
295.036	-8.46
295.251	-4.88
295.467	12.03
295.682	5.02
295.897	5.1
296.112	2.49
296.328	27.3
296.543	27.44
296.758	28.43
296.973	26.81
297.188	23.02
297.404	-10.42
297.619	-58.69
297.834	-104.78
298.049	-85.97
298.264	-62.31
298.479	-69.47
298.694	1.26
298.909	9.85
299.125	5.48
299.34	5.74
299.555	7.45
299.77	-2.97
299.985	6.06
300.2	10.52
300.415	10.28
300.63	9.59
300.845	0.51
301.06	6.94
301.275	10.57
301.49	20.48
301.704	23.59
301.919	20.03
302.134	14.86
302.349	12.2
302.564	-9.74
302.779	-22.46
302.994	-0.58
303.209	-2.51
303.423	-11.81
303.638	11.15
303.853	8.21
304.068	-1.5
304.283	13.36
304.497	6.84
304.712	5.08
304.927	4.5
305.142	-1.28
305.356	0.61
305.571	17.7
305.786	11.58
306	41.27
306.215	52.03
306.43	28.85
306.644	15.18
306.859	6.54
307.074	-4.56
307.288	-7.26
307.503	7.2
307.717	5.25
307.932	21.72
308.147	17.8
308.361	21.8
308.576	7.39
308.79	8.49
309.005	-25.82
309.219	-12.31
309.434	-8.85
309.648	11.27
309.863	15.79
310.077	37.3
310.292	27.91
310.506	1.87
310.72	-13.33
310.935	-7.84
311.149	-19.61
311.364	-10.87
311.578	3.15
311.792	16.07
312.007	19.66
312.221	16.51
312.435	-2.04
312.649	15.45
312.864	9.05
313.078	11.28
313.292	21.28
313.507	20.55
313.721	13.6
313.935	6.2
314.149	-2.66
314.363	7.78
314.578	17.97
314.792	-4.08
315.006	-4.63
315.22	7.85
315.434	-22.79
315.648	-14.85
315.862	-9.59
316.077	2.53
316.291	-3.98
316.505	0.75
316.719	-1.6
316.933	15.53
317.147	6.67
317.361	9.38
317.575	15.64
317.789	13.72
318.003	6.77
318.217	8.01
318.431	9.62
318.645	9.62
318.859	19.64
319.073	12.27
319.287	8.74
319.5	5.18
319.714	5.47
319.928	-4.83
320.142	-0.47
320.356	20.96
320.57	14.86
320.784	8.23
320.997	5.36
321.211	32.35
321.425	13.07
321.639	40.72
321.853	41.95
322.066	35.86
322.28	24.98
322.494	17.68
322.707	-6.59
322.921	-14.42
323.135	-10.84
323.349	-14.71
323.562	-13.8
323.776	-0.88
323.989	14.55
324.203	13.45
324.417	18.67
324.63	15.1
324.844	4.22
325.057	-22.02
325.271	-23.76
325.485	-40.16
325.698	-10.15
325.912	-2.75
326.125	4.01
326.339	11.49
326.552	13.56
326.766	-9.93
326.979	-0.29
327.193	10.64
327.406	-6.73
327.619	6.16
327.833	18.58
328.046	14.74
328.26	7.79
328.473	18.29
328.686	7.64
328.9	11.93
329.113	-4.31
329.326	-10.41
329.54	-9.9
329.753	2.32
329.966	-5.26
330.179	-0.57
330.393	6.12
330.606	4.75
330.819	-12.92
331.032	-3.91
331.246	12.38
331.459	22.55
331.672	18.92
331.885	30.65
332.098	37.27
332.311	9.46
332.525	1.24
332.738	-0.89
332.951	-2.48
333.164	-4.57
333.377	-10.06
333.59	-19.16
333.803	-29.76
334.016	-28.04
334.229	-25.32
334.442	-23.02
334.655	-10.48
334.868	-3.87
335.081	5.11
335.294	-9.49
335.507	12.8
335.72	5.98
335.933	15.07
336.146	5.24
336.359	20.24
336.572	17.69
336.785	16.8
336.997	14.75
337.21	17.56
337.423	7.36
337.636	9.87
337.849	6.78
338.062	-2.21
338.274	0.56
338.487	-18.97
338.7	-37.04
338.913	-25.01
339.125	-29.17
339.338	-31.64
339.551	-17.8
339.763	-4.67
339.976	-4.32
340.189	-3.82
340.402	-1.9
340.614	18.08
340.827	1.93
341.039	-11.68
341.252	-7.5
341.465	-10.91
341.677	-14.95
341.89	-8.47
342.102	11.63
342.315	22.89
342.527	22.21
342.74	5.82
342.952	-6.12
343.165	-16.71
343.377	-11.81
343.59	-7.17
343.802	-14.24
344.015	10.79
344.227	8.41
344.44	-10.86
344.652	-5.23
344.864	5.8
345.077	4.94
345.289	8.15
345.502	22.23
345.714	26.98
345.926	30.3
346.139	10.93
346.351	6.29
346.563	3.06
346.775	-10.96
346.988	0.82
347.2	10.77
347.412	29.23
347.624	22.44
347.837	27.44
348.049	16.34
348.261	10.65
348.473	-2.79
348.685	-3.7
348.897	-24.74
349.11	-15.38
349.322	-21.44
349.534	-20.84
349.746	-7.53
349.958	0.06
350.17	-18.93
350.382	-0.72
350.594	-5.7
350.806	1.11
351.018	1.82
351.23	26.52
351.442	33.66
351.654	32.11
351.866	26.48
352.078	31.21
352.29	10
352.502	-4.13
352.714	8.24
352.926	7.23
353.138	18.61
353.35	11.21
353.561	12.71
353.773	1.81
353.985	3.39
354.197	0.38
354.409	15.2
354.621	4.26
354.832	7.8
355.044	5.62
355.256	-2.68
355.468	-26.45
355.679	-0.74
355.891	-0.83
356.103	-4.45
356.314	-15.03
356.526	-21.66
356.738	-29.07
356.949	-35.66
357.161	-21.45
357.373	0.19
357.584	15.67
357.796	13.61
358.008	27.03
358.219	23.6
358.431	15.21
358.642	10.4
358.854	11.62
359.065	-5.5
359.277	0.71
359.488	-3.23
359.7	-2.44
359.911	-9.55
360.123	2.23
360.334	-10.39
360.546	-13.81
360.757	-15.39
360.969	-4.7
361.18	-11.57
361.391	-7.11
361.603	7.38
361.814	13.62
362.025	17.26
362.237	14.14
362.448	33.81
362.659	25.05
362.871	12.24
363.082	-3.47
363.293	0.44
363.504	-33.72
363.716	-28.57
363.927	7.78
364.138	-8.55
364.349	-10.51
364.56	-27.43
364.772	-19.35
364.983	-20.45
365.194	-6.22
365.405	-4.67
365.616	15.41
365.827	4.46
366.038	-3.05
366.25	16.18
366.461	19.45
366.672	20.96
366.883	32.41
367.094	39.37
367.305	21.68
367.516	17.46
367.727	-4.06
367.938	-18.08
368.149	-27.38
368.36	-28.66
368.571	-49.73
368.781	-24.56
368.992	-14.63
369.203	-16.8
369.414	-6.83
369.625	8.01
369.836	10.52
370.047	18.37
370.258	21.62
370.468	12.63
370.679	18.86
370.89	7.67
371.101	-4.42
371.312	-9.16
371.522	0.52
371.733	-6.63
371.944	-10.65
372.155	6.71
372.365	17.84
372.576	4.5
372.787	6.33
372.997	5.37
373.208	-3.24
373.419	-2.83
373.629	-8.47
373.84	-10.2
374.05	2.27
374.261	-7.35
374.472	1.59
374.682	24.76
374.893	15.84
375.103	11.29
375.314	25.52
375.524	20.23
375.735	21.17
375.945	23.26
376.156	31.08
376.366	23.31
376.577	25.04
376.787	14.25
376.997	22.42
377.208	9.75
377.418	11.79
377.629	4.74
377.839	13.57
378.049	8.8
378.26	0.77
378.47	-9.45
378.68	0.38
378.89	-2.72
379.101	10.16
379.311	17.1
379.521	12.44
379.732	14.19
379.942	14.68
380.152	-3.88
380.362	-2.83
380.572	22.45
380.783	19.49
380.993	13.62
381.203	16.42
381.413	17.66
381.623	7.71
381.833	7.18
382.043	9.66
382.253	11.3
382.463	24.4
382.674	21.48
382.884	22.34
383.094	24.65
383.304	28.03
383.514	20.36
383.724	19.41
383.934	16.03
384.144	17.85
384.353	12.16
384.563	6.68
384.773	11.04
384.983	6.76
385.193	-1
385.403	-1.08
385.613	3.01
385.823	-2.11
386.033	4.44
386.242	4.07
386.452	4.08
386.662	5.02
386.872	11
387.082	8.1
387.291	3.79
387.501	5.94
387.711	5.41
387.921	5.59
388.13	8.29
388.34	9.7
388.55	8.08
388.759	5.11
388.969	5.03
389.179	3.69
389.388	5.79
389.598	5.15
389.807	4.18
390.017	-2.79
390.227	-4.32
390.436	-3.97
390.646	-1.67
390.855	-0.24
391.065	3.95
391.274	6.27
391.484	4.61
391.693	1.89
391.903	1.27
392.112	2.05
392.322	-1
392.531	1.8
392.74	2.59
392.95	2.3
393.159	1.61
393.369	1.84
393.578	-1.02
393.787	-0.74
393.997	0.73
394.206	-0.8
394.415	1.43
394.625	2.53
394.834	1.67
395.043	1.13
395.252	4.25
395.462	4.48
395.671	4.64
395.88	6.23
396.089	6.06
396.298	3.89
396.508	3.85
396.717	4
396.926	2.89
397.135	3.27
397.344	3.91
397.553	3.08
397.762	4.01
397.971	4.15
398.181	3.89
398.39	3.85
398.599	4.08
398.808	3.6
399.017	4.14
399.226	4.4
399.435	4.64
399.644	5.09
399.853	4.94
400.062	4.75
400.27	4.22
400.479	4.1
400.688	4.03
400.897	3.98
401.106	3.83
401.315	4.18
401.524	4.2
401.733	3.79
401.941	3.97
402.15	4.01
402.359	3.93
402.568	4.04
402.777	4.22
402.985	3.87
403.194	3.65
403.403	3.99
403.612	3.64
403.82	3.34
404.029	3.55
404.238	3.68
404.446	3.67
404.655	3.97
404.864	4.33
405.072	4.2
405.281	4.19
405.489	3.97
405.698	3.97
405.906	4.13
406.115	4.24
406.324	4.27
406.532	4.38
406.741	4.3
406.949	4.07
407.158	4.15
407.366	3.97
407.574	3.98
407.783	4.02
407.991	3.94
408.2	3.91
408.408	4.01
408.617	3.96
408.825	3.85
409.033	3.87
409.242	3.88
409.45	4
409.658	3.96
409.867	3.93
410.075	4
410.283	3.87
410.491	3.76
410.7	3.71
410.908	3.91
411.116	3.8
411.324	3.8
411.533	3.72
411.741	3.66
411.949	3.58
412.157	3.56
412.365	3.72
412.573	3.86
412.781	3.92
412.99	3.91
413.198	3.98
413.406	3.89
413.614	3.95
413.822	4.03
414.03	3.9
414.238	3.94
414.446	4
414.654	3.84
414.862	3.63
415.07	3.67
415.278	3.7
415.486	3.52
415.694	3.55
415.902	3.63
416.109	3.64
416.317	3.53
416.525	3.55
416.733	3.56
416.941	3.57
417.149	3.55
417.357	3.57
417.564	3.5
417.772	3.53
417.98	3.57
418.188	3.52
418.395	3.29
418.603	3.29
418.811	3.07
419.019	2.99
419.226	3.07
419.434	3.32
419.642	3.27
419.849	3.47
420.057	3.46
420.265	3.28
420.472	3.21
420.68	3.38
420.887	3.23
421.095	3.28
421.302	3.42
421.51	3.32
421.717	3.3
421.925	3.43
422.132	3.47
422.34	3.23
422.547	3.07
422.755	2.96
422.962	3.03
423.17	2.78
423.377	2.86
423.585	3.21
423.792	3.27
423.999	3.29
424.207	3.4
424.414	3.44
424.621	3.31
424.829	3.34
425.036	3.29
425.243	3.47
425.451	3.53
425.658	3.5
425.865	3.55
426.072	3.45
426.28	3.35
426.487	3.45
426.694	3.41
426.901	3.36
427.108	3.33
427.315	3.39
427.523	3.2
427.73	3.27
427.937	3.15
428.144	3.13
428.351	3.03
428.558	3.31
428.765	3.27
428.972	3.42
429.179	3.25
429.386	3.34
429.593	3.14
429.8	3.21
430.007	3.22
430.214	3.36
430.421	3.35
430.628	3.37
430.835	3.32
431.042	3.27
431.249	3.33
431.456	3.29
431.662	3.46
431.869	3.48
432.076	3.58
432.283	3.64
432.49	3.65
432.697	3.51
432.903	3.57
433.11	3.66
433.317	3.61
433.524	3.65
433.73	3.56
433.937	3.67
434.144	3.43
434.35	3.39
434.557	3.42
434.764	3.55
434.97	3.38
435.177	3.57
435.384	3.66
435.59	3.62
435.797	3.64
436.003	3.69
436.21	3.56
436.416	3.58
436.623	3.67
436.829	3.62
437.036	3.64
437.242	3.85
437.449	3.83
437.655	3.89
437.862	4.05
438.068	3.87
438.275	3.85
438.481	3.81
438.687	3.6
438.894	3.54
439.1	3.66
439.307	3.62
439.513	3.78
439.719	3.87
439.926	3.86
440.132	4
440.338	3.99
440.544	3.95
440.751	3.97
440.957	3.96
441.163	3.77
441.369	3.86
441.575	3.81
441.782	3.92
441.988	4
442.194	4.04
442.4	3.86
442.606	4.02
442.812	3.94
443.018	3.91
443.224	4.1
443.431	4.21
443.637	4.11
443.843	4.19
444.049	4.21
444.255	4.12
444.461	4.08
444.667	4.06
444.873	3.95
445.079	3.91
445.284	3.9
445.49	3.92
445.696	3.85
445.902	3.87
446.108	3.84
446.314	3.82
446.52	3.86
446.726	4.06
446.931	4.06
447.137	4.12
447.343	4.19
447.549	4.26
447.755	4.19
447.96	4.16
448.166	4.19
448.372	4.21
448.578	4.11
448.783	4.07
448.989	4.17
449.195	4.19
449.4	4.18
449.606	4.22
449.812	4.16
450.017	4.13
450.223	4.15
450.428	4.17
450.634	4.17
450.84	4.24
451.045	4.32
451.251	4.33
451.456	4.33
451.662	4.35
451.867	4.32
452.073	4.31
452.278	4.24
452.483	4.15
452.689	4.17
452.894	4.25
453.1	4.22
453.305	4.28
453.51	4.38
453.716	4.33
453.921	4.46
454.127	4.48
454.332	4.43
454.537	4.4
454.742	4.45
454.948	4.24
455.153	4.29
455.358	4.36
455.563	4.41
455.769	4.41
455.974	4.52
456.179	4.45
456.384	4.48
456.589	4.36
456.795	4.29
457	4.21
457.205	4.12
457.41	4.03
457.615	4.11
457.82	4.25
458.025	4.33
458.23	4.42
458.435	4.55
458.64	4.61
458.845	4.59
459.05	4.62
459.255	4.69
459.46	4.67
459.665	4.64
459.87	4.59
460.075	4.63
460.28	4.66
460.485	4.64
460.69	4.68
460.895	4.81
461.099	4.7
461.304	4.64
461.509	4.59
461.714	4.62
461.919	4.46
462.123	4.47
462.328	4.4
462.533	4.4
462.738	4.27
462.942	4.26
463.147	4.29
463.352	4.36
463.556	4.39
463.761	4.48
463.966	4.52
464.17	4.62
464.375	4.7
464.58	4.69
464.784	4.6
464.989	4.68
465.193	4.6
465.398	4.63
465.602	4.82
465.807	4.92
466.011	4.91
466.216	4.81
466.42	4.82
466.625	4.84
466.829	4.84
467.034	4.87
467.238	5.12
