Data from Ofra_PS_T2_1A_1GT37_Reflection_1.txt Node
Date: Wed Jul 21 17:47:51 EDT 2021
User: Adam
Spectrometer: FLMT01687
Trigger mode: 0
Integration Time (sec): 1.100000E0
Scans to average: 2
Electric dark correction enabled: true
Nonlinearity correction enabled: false
Boxcar width: 2
XAxis mode: Wavelengths
Number of Pixels in Spectrum: 3648
>>>>>Begin Spectral Data<<<<<
179.494	584.2
179.716	654.82
179.937	592.79
180.158	561.81
180.38	778.28
180.601	301.8
180.823	70.65
181.044	48.46
181.265	229.6
181.486	124.73
181.708	94.98
181.929	422.96
182.15	20.77
182.372	184.38
182.593	80.4
182.814	46.43
183.035	94.39
183.257	81.39
183.478	27.39
183.699	122.97
183.92	71.37
184.141	50.42
184.363	14.14
184.584	32.58
184.805	13.53
185.026	52.63
185.247	67.26
185.468	44.43
185.689	67.21
185.91	67.53
186.132	63.12
186.353	36.12
186.574	106.21
186.795	58.94
187.016	24.35
187.237	-6.19
187.458	-28.93
187.679	-45.47
187.9	-3.86
188.121	-10.87
188.342	34.83
188.563	69.57
188.784	89.13
189.005	74.41
189.226	141.27
189.447	99.64
189.667	-71.48
189.888	-266.13
190.109	-962.66
190.33	-755
190.551	-1149.78
190.772	-202
190.993	-139.68
191.214	-110.75
191.434	-37.08
191.655	29.42
191.876	-5.37
192.097	-88.68
192.318	-137.76
192.538	-242.89
192.759	-202.77
192.98	-100.52
193.201	-7.11
193.421	-2.87
193.642	26.28
193.863	51.29
194.083	31
194.304	6.4
194.525	21.54
194.745	-3.93
194.966	-45.12
195.187	-36.22
195.407	-70.41
195.628	-146.27
195.848	-128.55
196.069	-139.38
196.29	-96.55
196.51	-78.78
196.731	-69.16
196.951	-93.21
197.172	-87.68
197.392	-128.29
197.613	-119.05
197.833	-127.66
198.054	-92.7
198.274	-39.29
198.495	-50.79
198.715	-34.14
198.936	-51.31
199.156	-63.01
199.377	-176.01
199.597	-141.2
199.817	-115.33
200.038	-51.64
200.258	-84.67
200.479	0.37
200.699	17.45
200.919	56.41
201.14	12.1
201.36	16.2
201.58	36.66
201.801	70.71
202.021	36.44
202.241	40.89
202.461	23.7
202.682	-55.41
202.902	-177.16
203.122	-118.02
203.342	-82.09
203.563	-34.64
203.783	-3.1
204.003	-48.71
204.223	-57.6
204.443	3.46
204.663	-12.09
204.884	-6.12
205.104	54.11
205.324	89.03
205.544	78.22
205.764	92.73
205.984	106.18
206.204	87.73
206.424	69.94
206.644	19.78
206.864	6.32
207.084	-66.36
207.304	-74.17
207.525	-259.77
207.745	-98.55
207.964	-46.76
208.184	-86.72
208.404	-110.63
208.624	-105.18
208.844	-92.8
209.064	-375.4
209.284	-414.31
209.504	-207.74
209.724	-23.1
209.944	-16.82
210.164	19.82
210.384	50.3
210.604	52.39
210.823	-16.75
211.043	-40.31
211.263	-28.18
211.483	-50.28
211.703	-105.24
211.922	-66.84
212.142	29.07
212.362	43.99
212.582	39.25
212.801	37.75
213.021	14.09
213.241	-14.17
213.461	-49.07
213.68	-54.21
213.9	-23.27
214.12	-7.74
214.339	-80.16
214.559	-70.73
214.779	-26.26
214.998	-26.5
215.218	-87.35
215.438	-31.63
215.657	-28.03
215.877	-13.44
216.096	3.07
216.316	31.75
216.535	17.32
216.755	19.54
216.974	-56.64
217.194	-91.05
217.413	-88.56
217.633	-99.76
217.852	-201.01
218.072	-69.44
218.291	-26.18
218.511	7.65
218.73	-5.33
218.95	-2.56
219.169	-22.67
219.389	-65.44
219.608	-52.87
219.827	-51.5
220.047	-30.17
220.266	1.73
220.485	20.12
220.705	33.49
220.924	23.02
221.143	45.27
221.363	10.18
221.582	7.64
221.801	3.74
222.021	14.19
222.24	-62.05
222.459	-0.04
222.678	-11.12
222.897	-85.96
223.117	-145.7
223.336	-147.67
223.555	-87.23
223.774	-44.92
223.993	3.94
224.213	88.63
224.432	57
224.651	73.83
224.87	35.83
225.089	37.29
225.308	22.94
225.527	46.07
225.746	23.43
225.965	43.11
226.184	25.25
226.404	27.24
226.623	5.34
226.842	21.28
227.061	33.69
227.28	35.91
227.499	15.94
227.718	40.72
227.936	33.11
228.155	29.98
228.374	11.13
228.593	17.59
228.812	-3.51
229.031	-8.17
229.25	-54.91
229.469	-40.49
229.688	-4.23
229.907	43.39
230.125	54.63
230.344	69.09
230.563	69.6
230.782	71.46
231.001	-19.88
231.22	-26.85
231.438	-14.03
231.657	-3.4
231.876	-10.99
232.095	47.65
232.313	52.76
232.532	49.6
232.751	22.91
232.969	-4.2
233.188	-85.18
233.407	-1.08
233.625	-2.74
233.844	-32.5
234.063	-18.13
234.281	7.27
234.5	-0.02
234.719	6.04
234.937	41.46
235.156	49.59
235.374	50.72
235.593	38.94
235.811	32.78
236.03	9.26
236.249	-37.49
236.467	-49.64
236.686	-18.85
236.904	-3.09
237.123	-22.94
237.341	-12.61
237.559	-2.28
237.778	-15.77
237.996	-26.35
238.215	17.17
238.433	20.94
238.652	25.89
238.87	-0.02
239.088	17.02
239.307	11.54
239.525	11.77
239.743	-27.37
239.962	-8.04
240.18	-61.14
240.398	-116.95
240.617	-125.64
240.835	-102.75
241.053	-74.67
241.271	-19.32
241.49	13.47
241.708	-6.55
241.926	-10.82
242.144	-6.96
242.363	-52.8
242.581	-96.35
242.799	-37.08
243.017	-7.24
243.235	-28.83
243.453	-6.29
243.672	-0.54
243.89	-7.03
244.108	-19.13
244.326	7.73
244.544	15.31
244.762	13.08
244.98	29.7
245.198	20.74
245.416	-21.83
245.634	-43.38
245.852	-60.74
246.07	-102.51
246.288	-92.78
246.506	-124.22
246.724	-81.96
246.942	-50.67
247.16	-1.34
247.378	12.44
247.596	46.89
247.814	38.56
248.032	5.35
248.25	5.17
248.468	7.21
248.685	12.73
248.903	48.38
249.121	51.39
249.339	22.18
249.557	15.13
249.775	18.9
249.992	-61.4
250.21	-55.63
250.428	-37.79
250.646	-62.48
250.863	-75.33
251.081	-42.76
251.299	-14.39
251.517	11.79
251.734	20.59
251.952	6.38
252.17	0.65
252.387	6.77
252.605	-15.89
252.823	-10.93
253.04	1.93
253.258	27.48
253.475	24.89
253.693	41.1
253.911	28.6
254.128	40.45
254.346	26.73
254.563	3.11
254.781	-16.49
254.998	-23.27
255.216	-33.82
255.433	-28.24
255.651	22.62
255.868	71.96
256.086	81.15
256.303	73.37
256.521	58.02
256.738	22.89
256.956	-25.88
257.173	-48.83
257.39	-72.27
257.608	-105.02
257.825	-50.97
258.043	-6.5
258.26	6.17
258.477	65.63
258.695	67.86
258.912	28.34
259.129	18.63
259.346	-14.51
259.564	-76.18
259.781	-100.41
259.998	-23.21
260.216	6.18
260.433	46.92
260.65	49.54
260.867	76.52
261.084	23.99
261.302	-2.48
261.519	-14.59
261.736	-43.1
261.953	-82.45
262.17	-32.08
262.387	-56.07
262.604	-93.64
262.822	-96.75
263.039	-73.02
263.256	-117.13
263.473	-67.12
263.69	-42.11
263.907	10.49
264.124	18.82
264.341	24.91
264.558	15.37
264.775	36.5
264.992	18.29
265.209	16.89
265.426	39.32
265.643	42.5
265.86	53.74
266.077	61.98
266.294	70.85
266.51	27.35
266.727	12.79
266.944	-2.4
267.161	-19.45
267.378	-24.11
267.595	9.21
267.812	-12.24
268.028	-17.16
268.245	-11.92
268.462	-38.65
268.679	-43.42
268.896	2.58
269.112	-0.82
269.329	-0.01
269.546	15.47
269.763	-4.84
269.979	-27.53
270.196	-33.93
270.413	-58.13
270.629	-73.06
270.846	-58.05
271.063	-47.39
271.279	-57.49
271.496	-38.29
271.712	-7.57
271.929	29.91
272.146	38.31
272.362	79.34
272.579	92.57
272.795	84.02
273.012	56.95
273.228	58.17
273.445	13.4
273.661	-19.81
273.878	-53.11
274.094	-50.18
274.311	-89.26
274.527	-1.75
274.744	0.17
274.96	-0.02
275.177	12.37
275.393	34.15
275.609	13.96
275.826	37.31
276.042	32.88
276.259	23.33
276.475	31.79
276.691	37.59
276.908	14.99
277.124	23.29
277.34	33.83
277.557	33.34
277.773	21.96
277.989	25.13
278.205	27.3
278.422	21.19
278.638	14.53
278.854	34.59
279.07	34.9
279.286	26.69
279.503	8.23
279.719	-11.16
279.935	-48.17
280.151	-69.76
280.367	-43.14
280.583	-62.69
280.799	-50.14
281.016	-78.66
281.232	-31.2
281.448	-32.94
281.664	-8.27
281.88	-16.34
282.096	12.88
282.312	41.1
282.528	50.02
282.744	75.3
282.96	44.5
283.176	25.46
283.392	1.56
283.608	-10.05
283.824	-26.58
284.04	-4.3
284.256	0.16
284.471	-6.15
284.687	-5.04
284.903	29.17
285.119	35.92
285.335	32.87
285.551	64.71
285.767	44.14
285.982	13.15
286.198	-14.14
286.414	23.03
286.63	8.81
286.846	28.88
287.061	6.6
287.277	38.67
287.493	5.19
287.709	27.01
287.924	30.72
288.14	78.43
288.356	67.04
288.571	81.04
288.787	59.25
289.003	51.93
289.218	19.23
289.434	-31.35
289.65	-25.71
289.865	-38.74
290.081	-29.79
290.296	-21.71
290.512	15.61
290.727	-37.66
290.943	-28.87
291.159	-32.06
291.374	-33.57
291.59	-59.39
291.805	-35.54
292.021	-21.95
292.236	-25.11
292.451	-10.44
292.667	5.09
292.882	12.73
293.098	0.36
293.313	-39.49
293.529	-56.01
293.744	-68.62
293.959	-56.28
294.175	-53.32
294.39	-4.87
294.605	12.45
294.821	35.24
295.036	32.76
295.251	46.34
295.467	7.39
295.682	-9.85
295.897	-57.37
296.112	-69.01
296.328	-71.58
296.543	-81.51
296.758	-72.91
296.973	-17.41
297.188	24.2
297.404	-13.69
297.619	-15.12
297.834	-40.47
298.049	-85.05
298.264	-105.17
298.479	-31.76
298.694	-21.18
298.909	14.32
299.125	26.31
299.34	26.52
299.555	11.03
299.77	21.85
299.985	-34.26
300.2	-85.45
300.415	-106.75
300.63	-79.84
300.845	-78.75
301.06	-62.7
301.275	-12.95
301.49	12.93
301.704	1.93
301.919	-10.83
302.134	-14.84
302.349	-26.45
302.564	-97.73
302.779	-128.39
302.994	-116.18
303.209	-93.13
303.423	-39.73
303.638	37.27
303.853	15.99
304.068	16.29
304.283	21.49
304.497	8.58
304.712	-4.93
304.927	4.65
305.142	-9.64
305.356	-4.5
305.571	-9.24
305.786	-29.76
306	-47.92
306.215	-30.2
306.43	-53.22
306.644	-63.4
306.859	13.49
307.074	12.83
307.288	-23.6
307.503	-28.36
307.717	-40.08
307.932	-36.92
308.147	-35.76
308.361	-1.1
308.576	-2.66
308.79	-24.2
309.005	-34.8
309.219	-13.54
309.434	-17.63
309.648	-14.55
309.863	15.09
310.077	9.67
310.292	1.07
310.506	-4.85
310.72	-4.27
310.935	-26.35
311.149	-24.04
311.364	10.63
311.578	31.98
311.792	30.03
312.007	50.81
312.221	41.52
312.435	22.71
312.649	-16.05
312.864	6.52
313.078	11.73
313.292	82.75
313.507	58.23
313.721	113.94
313.935	51.51
314.149	39.66
314.363	9.24
314.578	14.73
314.792	24.17
315.006	7.47
315.22	36.43
315.434	36.8
315.648	47.56
315.862	42.04
316.077	43.55
316.291	9.38
316.505	19.85
316.719	-12.7
316.933	-30.52
317.147	-40
317.361	-71.55
317.575	-80.83
317.789	-97.87
318.003	-155.96
318.217	-108.09
318.431	-38.59
318.645	-3.12
318.859	1.38
319.073	29.85
319.287	11.02
319.5	-7.76
319.714	-55.79
319.928	-96.22
320.142	-119.73
320.356	-44.33
320.57	-13.54
320.784	8.06
320.997	24.49
321.211	30.1
321.425	-45.47
321.639	-90.65
321.853	-25.5
322.066	0.51
322.28	-4.61
322.494	2.7
322.707	42.77
322.921	17.45
323.135	2.03
323.349	5.09
323.562	-14.98
323.776	-46.42
323.989	-42.94
324.203	-58.27
324.417	-61.52
324.63	-73.14
324.844	-66.66
325.057	-70.99
325.271	-42.49
325.485	-13.06
325.698	14.93
325.912	34.19
326.125	7.16
326.339	6.95
326.552	-20.27
326.766	-16.04
326.979	-12.4
327.193	40.74
327.406	23.53
327.619	21.1
327.833	49.21
328.046	16.35
328.26	-23.36
328.473	9.24
328.686	-13.82
328.9	-34.12
329.113	-10.02
329.326	-41.99
329.54	-27.04
329.753	-18.28
329.966	-55.15
330.179	-41.64
330.393	-6.06
330.606	-10.75
330.819	10.51
331.032	23.49
331.246	26.97
331.459	47.03
331.672	32.01
331.885	23.3
332.098	11.39
332.311	-12.19
332.525	-65.06
332.738	-59.18
332.951	-31.2
333.164	-4.93
333.377	20.47
333.59	40.09
333.803	53.08
334.016	48.3
334.229	38.66
334.442	37.68
334.655	52.16
334.868	50.94
335.081	35.94
335.294	31.04
335.507	24.41
335.72	17.17
335.933	-2.75
336.146	-7.24
336.359	5.59
336.572	-22.19
336.785	-51.1
336.997	-32.45
337.21	0.36
337.423	-21.8
337.636	-7.75
337.849	20.2
338.062	13.77
338.274	1.91
338.487	3.74
338.7	11.26
338.913	-28.68
339.125	-53.5
339.338	-95.48
339.551	-71.56
339.763	-55.38
339.976	-43.97
340.189	-8.8
340.402	18.59
340.614	10.7
340.827	5.1
341.039	2.06
341.252	-12.76
341.465	-8.64
341.677	-19.85
341.89	-45.75
342.102	-21.9
342.315	-29.75
342.527	-64.69
342.74	-50.05
342.952	-24.15
343.165	-33.48
343.377	-12.42
343.59	-6.25
343.802	18.79
344.015	37.1
344.227	65.12
344.44	51.66
344.652	50.62
344.864	30.32
345.077	30.21
345.289	24.44
345.502	37.62
345.714	28.83
345.926	26.35
346.139	18.63
346.351	36.1
346.563	29.41
346.775	29.23
346.988	17.56
347.2	5.2
347.412	-49.67
347.624	-71.64
347.837	-69.67
348.049	-5.25
348.261	38.33
348.473	38.37
348.685	29.1
348.897	10.99
349.11	-19.37
349.322	-67.12
349.534	-44.78
349.746	-25.64
349.958	-13.36
350.17	-19.67
350.382	-0.01
350.594	-7.12
350.806	12.65
351.018	9.56
351.23	-5.06
351.442	-62.94
351.654	-75.09
351.866	-91.76
352.078	-78.89
352.29	-30.29
352.502	3.44
352.714	15.23
352.926	1.89
353.138	2.97
353.35	-6.83
353.561	-13.36
353.773	-31.02
353.985	-13.59
354.197	-27.64
354.409	-38.21
354.621	-47.59
354.832	-38.2
355.044	-53.14
355.256	-46.65
355.468	-24.19
355.679	-14.81
355.891	1.29
356.103	-11.04
356.314	-2.74
356.526	-0.92
356.738	-2.36
356.949	-22.63
357.161	-0.9
357.373	-5.01
357.584	-24.6
357.796	-16.32
358.008	-14.36
358.219	9.72
358.431	2.82
358.642	17.78
358.854	16.19
359.065	4.74
359.277	-42.29
359.488	-48.28
359.7	-71.44
359.911	-78.22
360.123	-46.38
360.334	-45.79
360.546	-55.52
360.757	-63.59
360.969	-46.71
361.18	-50.8
361.391	-22
361.603	-22.47
361.814	0.9
362.025	-1.9
362.237	-3.08
362.448	-1.72
362.659	25.86
362.871	13.16
363.082	11.1
363.293	24.15
363.504	15.94
363.716	-16.85
363.927	-15.8
364.138	-42.87
364.349	-76.35
364.56	-64.17
364.772	-47.67
364.983	-20.09
365.194	-10.37
365.405	6.61
365.616	19.5
365.827	19.53
366.038	-4.24
366.25	-19.21
366.461	-56.18
366.672	-36.21
366.883	-13.49
367.094	1.29
367.305	-4.61
367.516	10.53
367.727	-21.22
367.938	-37.6
368.149	-44.07
368.36	-19.94
368.571	-20.15
368.781	-28.65
368.992	-43.98
369.203	-55.66
369.414	-80.27
369.625	-79.45
369.836	-66.08
370.047	-88.11
370.258	-78.37
370.468	-73.71
370.679	-86.3
370.89	-75.36
371.101	-40.14
371.312	-43.03
371.522	-26.93
371.733	-11.8
371.944	0.39
372.155	17.06
372.365	8.53
372.576	3.8
372.787	-18.24
372.997	-49.03
373.208	-54.82
373.419	-12.83
373.629	-36.7
373.84	-20.54
374.05	-14.94
374.261	-21.99
374.472	-48.92
374.682	4.56
374.893	8.83
375.103	40.79
375.314	39.7
375.524	37.34
375.735	27.67
375.945	25.21
376.156	-6.68
376.366	-9.29
376.577	-7.78
376.787	-16.97
376.997	0.87
377.208	1.72
377.418	-1.27
377.629	6.38
377.839	-0.24
378.049	-17.38
378.26	-1.34
378.47	8.53
378.68	-4.06
378.89	-0.49
379.101	-0.88
379.311	-23.39
379.521	-50.47
379.732	-46.09
379.942	-42.51
380.152	-48.01
380.362	-21.72
380.572	-23.35
380.783	-9.08
380.993	-0.89
381.203	9.27
381.413	26.41
381.623	38.08
381.833	36.18
382.043	22.44
382.253	6.25
382.463	-3.7
382.674	-14.27
382.884	-39.31
383.094	-36.74
383.304	-23.63
383.514	-20.38
383.724	-2.84
383.934	-2.14
384.144	-9.31
384.353	-18.39
384.563	-21.62
384.773	-26.66
384.983	-28.29
385.193	-2.87
385.403	4.14
385.613	7.51
385.823	-0.95
386.033	5.43
386.242	-12.68
386.452	-15.5
386.662	-24.23
386.872	-13.11
387.082	-17.38
387.291	-18.73
387.501	-15.79
387.711	-10.46
387.921	-17.84
388.13	-19.13
388.34	-3.82
388.55	-11.8
388.759	-12.77
388.969	-0.41
389.179	-1.04
389.388	-5.97
389.598	3.54
389.807	-3.95
390.017	-12.08
390.227	-9.56
390.436	-11.68
390.646	-13.36
390.855	-4.01
391.065	-0.99
391.274	-5.57
391.484	-8.19
391.693	-6.91
391.903	-9.52
392.112	-5.17
392.322	-0.26
392.531	3.9
392.74	2.32
392.95	-1.06
393.159	-4.77
393.369	-4.38
393.578	-5.04
393.787	-4.07
393.997	-2.69
394.206	-4.34
394.415	-4.51
394.625	-4.91
394.834	-6.49
395.043	-5.43
395.252	-1.45
395.462	0.85
395.671	3.42
395.88	4.06
396.089	5.14
396.298	2.1
396.508	0.6
396.717	-1.74
396.926	-0.79
397.135	-1.23
397.344	-1.07
397.553	-0.64
397.762	1.86
397.971	1.37
398.181	1.17
398.39	0.94
398.599	0.66
398.808	-0.14
399.017	0.54
399.226	1.93
399.435	3.54
399.644	3.46
399.853	2.5
400.062	2.24
400.27	1.19
400.479	0.44
400.688	0.3
400.897	0.37
401.106	0.25
401.315	0.24
401.524	0.06
401.733	0.5
401.941	1.37
402.15	1.43
402.359	1.34
402.568	1.88
402.777	1.81
402.985	1.32
403.194	1.22
403.403	1.23
403.612	0.59
403.82	0.37
404.029	0.37
404.238	0.34
404.446	0.59
404.655	0.54
404.864	0.4
405.072	0.28
405.281	0.43
405.489	0.2
405.698	0.18
405.906	0.28
406.115	0.35
406.324	0.31
406.532	0.42
406.741	0.82
406.949	0.85
407.158	0.89
407.366	0.89
407.574	0.8
407.783	0.71
407.991	0.52
408.2	0.59
408.408	0.49
408.617	0.49
408.825	0.32
409.033	0.52
409.242	0.61
409.45	0.78
409.658	0.68
409.867	0.9
410.075	0.78
410.283	0.61
410.491	0.52
410.7	0.57
410.908	0.57
411.116	0.85
411.324	0.95
411.533	0.84
411.741	1.17
411.949	1.13
412.157	0.89
412.365	0.89
412.573	1
412.781	0.97
412.99	0.84
413.198	0.93
413.406	0.8
413.614	0.92
413.822	0.74
414.03	0.65
414.238	0.55
414.446	0.7
414.654	0.34
414.862	0.4
415.07	0.51
415.278	0.69
415.486	0.47
415.694	0.72
415.902	0.52
416.109	0.45
416.317	0.43
416.525	0.35
416.733	0.28
416.941	0.53
417.149	0.57
417.357	0.42
417.564	0.75
417.772	1.04
417.98	0.94
418.188	0.94
418.395	1.17
418.603	1.21
418.811	0.81
419.019	0.76
419.226	0.94
419.434	0.94
419.642	0.75
419.849	0.88
420.057	0.98
420.265	0.89
420.472	0.7
420.68	0.82
420.887	0.76
421.095	0.76
421.302	0.74
421.51	1.01
421.717	1.11
421.925	1.19
422.132	1.04
422.34	0.81
422.547	0.74
422.755	0.5
422.962	0.35
423.17	0.29
423.377	0.55
423.585	0.57
423.792	0.47
423.999	0.57
424.207	0.66
424.414	0.72
424.621	0.54
424.829	0.58
425.036	0.68
425.243	0.79
425.451	0.6
425.658	0.46
425.865	0.77
426.072	0.71
426.28	0.89
426.487	0.83
426.694	1.04
426.901	0.85
427.108	0.89
427.315	0.63
427.523	0.88
427.73	0.8
427.937	0.68
428.144	0.49
428.351	0.45
428.558	0.8
428.765	0.74
428.972	0.7
429.179	0.89
429.386	1.26
429.593	0.72
429.8	0.61
430.007	0.77
430.214	0.8
430.421	0.5
430.628	0.4
430.835	0.44
431.042	0.56
431.249	0.52
431.456	0.51
431.662	0.56
431.869	0.8
432.076	0.75
432.283	0.83
432.49	0.83
432.697	1.01
432.903	0.69
433.11	0.63
433.317	0.75
433.524	0.94
433.73	0.8
433.937	1.23
434.144	1.11
434.35	0.95
434.557	0.8
434.764	0.93
434.97	0.69
435.177	0.97
435.384	0.87
435.59	0.91
435.797	0.99
436.003	1.05
436.21	0.89
436.416	0.96
436.623	0.89
436.829	0.88
437.036	0.98
437.242	1.04
437.449	1.04
437.655	1.15
437.862	1.02
438.068	0.9
438.275	0.94
438.481	1.18
438.687	1.08
438.894	1.04
439.1	1.1
439.307	1.26
439.513	1.1
439.719	1.22
439.926	1.42
440.132	1.4
440.338	1.19
440.544	1.27
440.751	1.12
440.957	1.07
441.163	0.95
441.369	1.02
441.575	0.76
441.782	0.73
441.988	0.62
442.194	0.59
442.4	0.61
442.606	0.96
442.812	1.04
443.018	1.21
443.224	1.33
443.431	1.39
443.637	1.16
443.843	0.99
444.049	0.93
444.255	0.93
444.461	0.9
444.667	0.87
444.873	1.13
445.079	1.15
445.284	1.2
445.49	0.93
445.696	0.79
445.902	0.63
446.108	0.54
446.314	0.42
446.52	0.59
446.726	0.89
446.931	0.87
447.137	0.91
447.343	1.03
447.549	0.94
447.755	0.77
447.96	0.83
448.166	0.83
448.372	0.69
448.578	0.81
448.783	0.81
448.989	0.89
449.195	1.09
449.4	1.19
449.606	1.07
449.812	1.05
450.017	1.12
450.223	0.91
450.428	0.82
450.634	1.04
450.84	1.24
451.045	1.11
451.251	1.05
451.456	1.31
451.662	1.34
451.867	1.27
452.073	1.21
452.278	1.39
452.483	1.41
452.689	1.24
452.894	1.22
453.1	1.29
453.305	1.15
453.51	1.01
453.716	1
453.921	1.05
454.127	0.98
454.332	0.98
454.537	0.94
454.742	0.98
454.948	0.86
455.153	0.92
455.358	1.03
455.563	1.33
455.769	1.44
455.974	1.49
456.179	1.4
456.384	1.38
456.589	1.18
456.795	0.94
457	0.89
457.205	1.18
457.41	1.09
457.615	0.99
457.82	1.16
458.025	1.23
458.23	1.02
458.435	1.02
458.64	0.94
458.845	1.01
459.05	0.96
459.255	0.96
459.46	1.09
459.665	1.23
459.87	1.22
460.075	1.22
460.28	1.32
460.485	1.33
460.69	1.33
460.895	1.17
461.099	1.14
461.304	1.29
461.509	1.26
