Data from Ofra_PS_T2_1A_0CX04_Reflection_3.txt Node
Date: Wed Jul 21 17:43:07 EDT 2021
User: Adam
Spectrometer: FLMT01687
Trigger mode: 0
Integration Time (sec): 1.100000E0
Scans to average: 2
Electric dark correction enabled: true
Nonlinearity correction enabled: false
Boxcar width: 2
XAxis mode: Wavelengths
Number of Pixels in Spectrum: 3648
>>>>>Begin Spectral Data<<<<<
179.494	539
179.716	632.71
179.937	569.71
180.158	587.94
180.38	912.97
180.601	303.18
180.823	84.34
181.044	2.73
181.265	37.32
181.486	24.87
181.708	71.3
181.929	513.78
182.15	-286.97
182.372	181.5
182.593	26.22
182.814	6.24
183.035	56.91
183.257	46.19
183.478	-97.61
183.699	-21.76
183.92	-21.73
184.141	-7.34
184.363	-98.29
184.584	-10.71
184.805	17.27
185.026	43.62
185.247	44.39
185.468	38.57
185.689	38.73
185.91	22.87
186.132	15.19
186.353	25.05
186.574	98.78
186.795	54.33
187.016	-1.92
187.237	-29.98
187.458	-82.19
187.679	-86.24
187.9	-39.31
188.121	-4.98
188.342	63.28
188.563	89.86
188.784	109.29
189.005	83.78
189.226	131.58
189.447	62.82
189.667	-189.2
189.888	-403.33
190.109	-1413.96
190.33	-917.26
190.551	-1332.52
190.772	-249.09
190.993	-110.92
191.214	-45.14
191.434	5.98
191.655	85.43
191.876	61.32
192.097	-10.45
192.318	-32.53
192.538	-45.67
192.759	-106.38
192.98	-0.33
193.201	17.04
193.421	28.95
193.642	35.53
193.863	40.55
194.083	7.62
194.304	0.99
194.525	-9.34
194.745	-15.57
194.966	-40.56
195.187	-31.51
195.407	-36.25
195.628	-78.4
195.848	-114.29
196.069	-104.79
196.29	-89.64
196.51	-98.75
196.731	-101.88
196.951	-134.44
197.172	-151.8
197.392	-165.86
197.613	-156.39
197.833	-153.64
198.054	-103.04
198.274	-31.58
198.495	-35.62
198.715	-2.96
198.936	-4.94
199.156	8.03
199.377	-104.27
199.597	-95.67
199.817	-118.38
200.038	-72.98
200.258	-155.33
200.479	-53.45
200.699	-52.96
200.919	11.24
201.14	-5.86
201.36	-1.7
201.58	33.5
201.801	60.58
202.021	24.13
202.241	24.08
202.461	15.63
202.682	-89.44
202.902	-190.66
203.122	-98.2
203.342	-75.13
203.563	-30.1
203.783	26.11
204.003	10.61
204.223	9.3
204.443	60.02
204.663	38.51
204.884	15
205.104	44.57
205.324	42.03
205.544	13.01
205.764	34.41
205.984	43.3
206.204	46.79
206.424	35.41
206.644	8.59
206.864	28.81
207.084	-18.21
207.304	24.08
207.525	-74.92
207.745	-28.66
207.964	-4.79
208.184	-57.67
208.404	-120.79
208.624	-105.41
208.844	-93.7
209.064	-357.32
209.284	-324.03
209.504	-106.89
209.724	4.58
209.944	-4.78
210.164	30.44
210.384	34.59
210.604	38.41
210.823	-0.24
211.043	-23.29
211.263	-22.08
211.483	-11.2
211.703	-68.24
211.922	-40.12
212.142	34.23
212.362	65.15
212.582	30.68
212.801	26.96
213.021	-7.68
213.241	-32.01
213.461	-82.88
213.68	-91.23
213.9	-61.24
214.12	-11.56
214.339	-66.8
214.559	-39.9
214.779	15.14
214.998	17.3
215.218	-60.87
215.438	-44.38
215.657	-33.25
215.877	-56.73
216.096	-25.77
216.316	6.5
216.535	16.19
216.755	-5.21
216.974	-72.24
217.194	-134.31
217.413	-85.79
217.633	-83.01
217.852	-162.91
218.072	-84.58
218.291	-25.91
218.511	-15.11
218.73	-42.69
218.95	-34.19
219.169	-34.45
219.389	-87.42
219.608	-57.21
219.827	-30.62
220.047	-8.28
220.266	5.85
220.485	18.57
220.705	17.76
220.924	-26.89
221.143	20.49
221.363	8.2
221.582	37.28
221.801	53.29
222.021	82.12
222.24	51.99
222.459	116.22
222.678	1.37
222.897	-55.5
223.117	-104.73
223.336	-47.9
223.555	-42.31
223.774	2.17
223.993	14.34
224.213	63.17
224.432	17.01
224.651	45.57
224.87	28.61
225.089	37.66
225.308	49.08
225.527	62.45
225.746	52.45
225.965	32.93
226.184	28.72
226.404	17.79
226.623	9.77
226.842	10.32
227.061	46.53
227.28	38.16
227.499	28.28
227.718	34.54
227.936	39.52
228.155	46.12
228.374	23.18
228.593	22.7
228.812	16.15
229.031	22.58
229.25	-26.41
229.469	-8.88
229.688	9.04
229.907	32.92
230.125	24.23
230.344	15.81
230.563	40.35
230.782	52.61
231.001	-27.68
231.22	-14.44
231.438	26.26
231.657	9.61
231.876	-6.38
232.095	43.11
232.313	36.52
232.532	16.57
232.751	16.45
232.969	-8.02
233.188	-64.57
233.407	26.54
233.625	33.53
233.844	13.49
234.063	33.38
234.281	44.45
234.5	18.38
234.719	6.83
234.937	13.67
235.156	12.67
235.374	10.06
235.593	3.09
235.811	0.02
236.03	-1.73
236.249	-46.47
236.467	-38.85
236.686	-8.9
236.904	12.34
237.123	-5.72
237.341	3.53
237.559	5.49
237.778	-5.89
237.996	-24.57
238.215	16.82
238.433	28.6
238.652	49.11
238.87	4.5
239.088	11.07
239.307	8.77
239.525	10.42
239.743	-35.58
239.962	8.3
240.18	-29.2
240.398	-74.54
240.617	-98.77
240.835	-88.98
241.053	-57.75
241.271	14.8
241.49	27.21
241.708	31.42
241.926	25.45
242.144	10.28
242.363	-65.37
242.581	-75.58
242.799	-71.39
243.017	-17.23
243.235	-51.69
243.453	-22.62
243.672	-26.71
243.89	-15.24
244.108	-43.7
244.326	-17.9
244.544	-15.85
244.762	-21.82
244.98	-8.11
245.198	0.85
245.416	-31.02
245.634	-45.01
245.852	-53.74
246.07	-70.58
246.288	-61.51
246.506	-68.17
246.724	-31.85
246.942	-11.3
247.16	5.76
247.378	12.03
247.596	34.83
247.814	16.99
248.032	4.05
248.25	-7.19
248.468	6.38
248.685	20.28
248.903	56.88
249.121	62.41
249.339	37.64
249.557	17.96
249.775	13.08
249.992	-62.45
250.21	-66.37
250.428	-39.29
250.646	-70.05
250.863	-85.03
251.081	-46.01
251.299	-38.92
251.517	-34.28
251.734	-6.39
251.952	-18.97
252.17	-21.83
252.387	-6.49
252.605	-4.37
252.823	4.24
253.04	36.26
253.258	52.19
253.475	51.17
253.693	60.79
253.911	49.42
254.128	37.35
254.346	49.37
254.563	29.21
254.781	7.31
254.998	9.81
255.216	9.45
255.433	-10.65
255.651	38.61
255.868	65.42
256.086	79.11
256.303	64.67
256.521	66.78
256.738	37.91
256.956	0.77
257.173	-20.26
257.39	-30.18
257.608	-38
257.825	-0.21
258.043	30.74
258.26	25.6
258.477	57.76
258.695	47.61
258.912	-12.43
259.129	3.78
259.346	-25
259.564	-65.15
259.781	-98.92
259.998	-15.89
260.216	-1.13
260.433	40.56
260.65	28.14
260.867	53.55
261.084	14.89
261.302	2.71
261.519	-6.6
261.736	-26.88
261.953	-68.01
262.17	-24.68
262.387	-63.5
262.604	-104.2
262.822	-88.86
263.039	-53.12
263.256	-104.17
263.473	-46.11
263.69	-21.23
263.907	17.46
264.124	28.27
264.341	34.2
264.558	22.7
264.775	45.05
264.992	32.36
265.209	21.82
265.426	38.9
265.643	37.25
265.86	42.05
266.077	56.23
266.294	62.03
266.51	33.64
266.727	35.31
266.944	23.85
267.161	-16.73
267.378	-35.42
267.595	-12.82
267.812	-64.24
268.028	-104.04
268.245	-45.24
268.462	-41.08
268.679	-45.53
268.896	24.73
269.112	46.74
269.329	28
269.546	40.44
269.763	35.23
269.979	32.62
270.196	23.88
270.413	8.88
270.629	-16.45
270.846	-31.36
271.063	-44.07
271.279	-76.16
271.496	-71.19
271.712	-12.24
271.929	7.62
272.146	1.62
272.362	14.48
272.579	38.21
272.795	12.9
273.012	17.78
273.228	10.89
273.445	1.67
273.661	-24.71
273.878	-77.67
274.094	-78.96
274.311	-89.98
274.527	-20.23
274.744	-22.62
274.96	1.61
275.177	11.57
275.393	26.98
275.609	21.63
275.826	46.86
276.042	31.71
276.259	23.76
276.475	39.97
276.691	43.67
276.908	24.71
277.124	51.79
277.34	51.59
277.557	45
277.773	13.61
277.989	14.52
278.205	-12.33
278.422	15.54
278.638	20.37
278.854	50.9
279.07	37.66
279.286	34.66
279.503	-2.8
279.719	-18.63
279.935	-39.48
280.151	-39.13
280.367	-1.03
280.583	-18.57
280.799	-21.52
281.016	-68.13
281.232	-15.18
281.448	-19.85
281.664	12.39
281.88	-9.48
282.096	29.08
282.312	25.09
282.528	30.83
282.744	36.13
282.96	44.12
283.176	35.04
283.392	23.81
283.608	20.81
283.824	11.64
284.04	21.59
284.256	33.48
284.471	37.51
284.687	31.93
284.903	63.31
285.119	90.56
285.335	55.41
285.551	52.58
285.767	30.97
285.982	1.43
286.198	-76.2
286.414	-8.27
286.63	2.34
286.846	36.46
287.061	19.99
287.277	60.32
287.493	21.52
287.709	46.64
287.924	13.54
288.14	56.35
288.356	34.25
288.571	61.78
288.787	21.14
289.003	22.07
289.218	-1.91
289.434	-33.96
289.65	-35.09
289.865	-18.12
290.081	25.67
290.296	22.78
290.512	31.07
290.727	13.09
290.943	-0.16
291.159	-13.91
291.374	-13.1
291.59	-24.36
291.805	-24.1
292.021	-3.46
292.236	-22.51
292.451	-9.79
292.667	6.67
292.882	16.9
293.098	-9.93
293.313	-15.31
293.529	-33.34
293.744	-66.23
293.959	-51.71
294.175	-35.85
294.39	3.08
294.605	6.3
294.821	37.23
295.036	48.76
295.251	56.78
295.467	18.66
295.682	20.06
295.897	-35.51
296.112	-72.72
296.328	-70.09
296.543	-62.17
296.758	-65.84
296.973	1.78
297.188	39.53
297.404	18.02
297.619	3.16
297.834	6.7
298.049	-8.34
298.264	-45.26
298.479	9.04
298.694	19.8
298.909	38.83
299.125	34.56
299.34	57.77
299.555	24.37
299.77	38.34
299.985	-20.85
300.2	-67.42
300.415	-100.44
300.63	-64.68
300.845	-70.02
301.06	-47.49
301.275	-9.33
301.49	8.42
301.704	0.82
301.919	-16.12
302.134	-38.81
302.349	-46.11
302.564	-104.08
302.779	-122.1
302.994	-72.84
303.209	18.5
303.423	64.93
303.638	95.8
303.853	46.67
304.068	23.73
304.283	-3.62
304.497	-15.13
304.712	-40.35
304.927	-21.4
305.142	-21.87
305.356	-8.04
305.571	-9.21
305.786	-19.1
306	-37.02
306.215	-12.85
306.43	-47.32
306.644	-55.95
306.859	-8.88
307.074	21.77
307.288	-11.66
307.503	5.64
307.717	-8.72
307.932	-11.87
308.147	-18.56
308.361	-9.2
308.576	-19.96
308.79	-42.72
309.005	-46.48
309.219	-30.19
309.434	-26.6
309.648	-25
309.863	-5.34
310.077	3.36
310.292	-15.31
310.506	-4.65
310.72	12.92
310.935	31.17
311.149	16.91
311.364	44.58
311.578	55.12
311.792	35.86
312.007	32.78
312.221	13.86
312.435	17.61
312.649	-15.62
312.864	-18.51
313.078	-20.76
313.292	66.29
313.507	19.34
313.721	52.14
313.935	66.66
314.149	59.25
314.363	27.14
314.578	15.7
314.792	16.55
315.006	-7.19
315.22	4.27
315.434	-3.11
315.648	25.8
315.862	22.34
316.077	28.25
316.291	16.15
316.505	42.18
316.719	9.45
316.933	-6.91
317.147	-5.15
317.361	-57.88
317.575	-107.72
317.789	-123.34
318.003	-181.5
318.217	-156.44
318.431	-66.28
318.645	7.58
318.859	1.25
319.073	22.49
319.287	11.78
319.5	-5.63
319.714	-53.2
319.928	-64.04
320.142	-90.25
320.356	-17.33
320.57	19
320.784	17.75
320.997	17.74
321.211	28.93
321.425	-57.87
321.639	-109
321.853	-27.56
322.066	-18.7
322.28	-18.03
322.494	3.63
322.707	27.77
322.921	4.38
323.135	-3.13
323.349	7.09
323.562	-13.58
323.776	-27.7
323.989	-25.74
324.203	-51.11
324.417	-62.3
324.63	-76.03
324.844	-81.64
325.057	-81.21
325.271	-30.43
325.485	-2.57
325.698	25.97
325.912	44.05
326.125	8.62
326.339	2.74
326.552	-21.43
326.766	-20.7
326.979	-2.31
327.193	53.69
327.406	32.73
327.619	18.65
327.833	26.59
328.046	-18.36
328.26	-64.41
328.473	-13.87
328.686	-40.1
328.9	-31.43
329.113	4.02
329.326	-3.21
329.54	-6.62
329.753	-1.93
329.966	-48.72
330.179	-20.38
330.393	-8.76
330.606	-10.2
330.819	17.17
331.032	36.22
331.246	26.64
331.459	56.8
331.672	28.17
331.885	11.73
332.098	-11.24
332.311	-29.09
332.525	-102.81
332.738	-60.54
332.951	-17.42
333.164	8.97
333.377	23.52
333.59	48.92
333.803	47.27
334.016	28.94
334.229	27.42
334.442	39.46
334.655	45.78
334.868	39.67
335.081	42.25
335.294	30.16
335.507	22.1
335.72	15.59
335.933	12.65
336.146	8.58
336.359	10.62
336.572	-29.88
336.785	-69.91
336.997	-71.37
337.21	-55.68
337.423	-60.65
337.636	-37.97
337.849	-14.52
338.062	-16.98
338.274	-7.17
338.487	-6.37
338.7	-5.42
338.913	-43.19
339.125	-66.41
339.338	-109.36
339.551	-92.15
339.763	-61.49
339.976	-10.01
340.189	22.99
340.402	38.75
340.614	18.16
340.827	8.16
341.039	-20.15
341.252	-23.59
341.465	-22.26
341.677	-12.58
341.89	-46.56
342.102	-12.32
342.315	-45.62
342.527	-83.54
342.74	-66.35
342.952	-15.38
343.165	-25.34
343.377	18.94
343.59	27.93
343.802	36.1
344.015	48.85
344.227	60.42
344.44	51.06
344.652	48.08
344.864	34.64
345.077	35.88
345.289	37.65
345.502	39.75
345.714	27.72
345.926	37.51
346.139	10.25
346.351	29.76
346.563	30.74
346.775	46.7
346.988	35.71
347.2	27.99
347.412	-37.51
347.624	-58.3
347.837	-84.05
348.049	-61.79
348.261	-5.31
348.473	15.3
348.685	15.44
348.897	11.89
349.11	-2.56
349.322	-14.05
349.534	-4.34
349.746	-8.08
349.958	2.46
350.17	-7.29
350.382	4.17
350.594	-2.41
350.806	8.1
351.018	5.49
351.23	0.82
351.442	-55.12
351.654	-52.17
351.866	-49.77
352.078	-36.2
352.29	-10.69
352.502	16.98
352.714	27.94
352.926	16.35
353.138	15.92
353.35	0.86
353.561	2.52
353.773	-15.89
353.985	1.66
354.197	-9.24
354.409	-20
354.621	-31.56
354.832	-12.31
355.044	-24.31
355.256	-22.34
355.468	2.59
355.679	-9.22
355.891	-12.29
356.103	-28.98
356.314	-23.45
356.526	-29.71
356.738	-7.21
356.949	-24.06
357.161	8.72
357.373	15.32
357.584	7.69
357.796	13.83
358.008	15.69
358.219	25.16
358.431	8.24
358.642	23
358.854	13.82
359.065	-2.84
359.277	-49.76
359.488	-35.01
359.7	-74.84
359.911	-86.67
360.123	-57.25
360.334	-53.61
360.546	-73.72
360.757	-63.93
360.969	-29.61
361.18	-22.93
361.391	4.45
361.603	-4.48
361.814	-4.39
362.025	-13.03
362.237	-18.57
362.448	-18.8
362.659	12.09
362.871	13.46
363.082	3.43
363.293	8.63
363.504	-4.19
363.716	-41.59
363.927	-43.1
364.138	-60.28
364.349	-70.06
364.56	-62.4
364.772	-39.73
364.983	-22.21
365.194	-17.38
365.405	-6.17
365.616	11.83
365.827	-0.13
366.038	-24.1
366.25	-23.25
366.461	-66.35
366.672	-43.7
366.883	-10.62
367.094	6.36
367.305	-2.53
367.516	10.2
367.727	-24.21
367.938	-45.57
368.149	-49.79
368.36	-26.51
368.571	-16.75
368.781	-21.17
368.992	-37.11
369.203	-54.57
369.414	-80.77
369.625	-90.18
369.836	-64.3
370.047	-79.66
370.258	-51.01
370.468	-48.67
370.679	-62.44
370.89	-67.24
371.101	-35.07
371.312	-38.05
371.522	-27.84
371.733	-8.62
371.944	11.8
372.155	6.15
372.365	-10.21
372.576	-12.87
372.787	-18.22
372.997	-42.2
373.208	-36.82
373.419	-7.46
373.629	-36.07
373.84	-40.87
374.05	-56.29
374.261	-43.25
374.472	-60.16
374.682	4.05
374.893	4.65
375.103	54.8
375.314	42.34
375.524	41.93
375.735	19.77
375.945	34.18
376.156	-6.9
376.366	-1.48
376.577	-0.45
376.787	5.12
376.997	1.14
377.208	2.2
377.418	-11.57
377.629	4.15
377.839	-5.23
378.049	-2.56
378.26	10.06
378.47	22.37
378.68	7.23
378.89	6.25
379.101	0.3
379.311	-28.21
379.521	-61.77
379.732	-53.49
379.942	-54.87
380.152	-68.39
380.362	-31.55
380.572	-18.22
380.783	-11.14
380.993	-0.1
381.203	6.31
381.413	10.4
381.623	12.2
381.833	10.41
382.043	0.32
382.253	-7.61
382.463	-13.39
382.674	-20.88
382.884	-41.99
383.094	-37.52
383.304	-26.78
383.514	-17.43
383.724	-2.56
383.934	0.83
384.144	-3.06
384.353	-14.28
384.563	-19.98
384.773	-19.09
384.983	-24.87
385.193	-15.29
385.403	-6.83
385.613	-1.89
385.823	-13.98
386.033	-2.6
386.242	-5.56
386.452	-8.81
386.662	-19.85
386.872	-10.03
387.082	-17.87
387.291	-26.89
387.501	-29.31
387.711	-16.96
387.921	-24.45
388.13	-16.04
388.34	-0.51
388.55	-5.15
388.759	-8.81
388.969	-5.26
389.179	-13.31
389.388	-18.61
389.598	-11.81
389.807	-16.57
390.017	-17.52
390.227	-12.28
390.436	-12.93
390.646	-12.96
390.855	-4.34
391.065	-3.67
391.274	-6.51
391.484	-9.56
391.693	-6.68
391.903	-6.99
392.112	-0.81
392.322	1.81
392.531	5.62
392.74	6.34
392.95	-0.35
393.159	-3.51
393.369	-2.98
393.578	-3.27
393.787	-6.37
393.997	-3.98
394.206	-5.32
394.415	-5.3
394.625	-5.21
394.834	-6.18
395.043	-5
395.252	-2.68
395.462	-1.47
395.671	-0.79
395.88	0.94
396.089	1.77
396.298	0.62
396.508	0.26
396.717	0.23
396.926	0.78
397.135	0.14
397.344	0.3
397.553	1.03
397.762	2.91
397.971	2.02
398.181	2.6
398.39	1.61
398.599	0.73
398.808	-0.51
399.017	0.57
399.226	1.27
399.435	2.72
399.644	2.92
399.853	1.74
400.062	1.36
400.27	0.91
400.479	0.43
400.688	-0.25
400.897	0.09
401.106	0.14
401.315	-0.41
401.524	-0.45
401.733	0.35
401.941	0.98
402.15	1.17
402.359	1.36
402.568	1.91
402.777	1.9
402.985	1.52
403.194	1.22
403.403	1.39
403.612	0.69
403.82	0.45
404.029	0.77
404.238	0.77
404.446	0.93
404.655	1.06
404.864	0.98
405.072	0.72
405.281	0.97
405.489	0.66
405.698	0.4
405.906	0.48
406.115	0.58
406.324	0.34
406.532	0.39
406.741	0.89
406.949	0.81
407.158	0.64
407.366	0.78
407.574	0.79
407.783	0.75
407.991	0.65
408.2	0.89
408.408	0.86
408.617	0.8
408.825	0.43
409.033	0.62
409.242	0.76
409.45	0.79
409.658	0.7
409.867	0.99
410.075	0.81
410.283	0.51
410.491	0.34
410.7	0.3
410.908	0.26
411.116	0.68
411.324	0.74
411.533	0.83
411.741	1.17
411.949	1.13
412.157	0.74
412.365	0.73
412.573	0.67
412.781	0.59
412.99	0.43
413.198	0.76
413.406	0.77
413.614	0.91
413.822	0.72
414.03	0.78
414.238	0.54
414.446	0.63
414.654	0.34
414.862	0.58
415.07	0.8
415.278	1.07
415.486	0.81
415.694	1.02
415.902	0.71
416.109	0.47
416.317	0.4
416.525	0.35
416.733	0.31
416.941	0.57
417.149	0.57
417.357	0.56
417.564	0.93
417.772	1.27
417.98	1.19
418.188	1.19
418.395	1.22
418.603	1.28
418.811	0.79
419.019	0.69
419.226	0.96
419.434	0.99
419.642	0.61
419.849	0.83
420.057	0.9
420.265	0.74
420.472	0.57
420.68	0.7
420.887	0.63
421.095	0.61
421.302	0.61
421.51	0.76
421.717	0.86
421.925	0.91
422.132	0.83
422.34	0.63
422.547	0.61
422.755	0.51
422.962	0.41
423.17	0.45
423.377	0.57
423.585	0.5
423.792	0.41
423.999	0.37
424.207	0.31
424.414	0.55
424.621	0.49
424.829	0.53
425.036	0.55
425.243	0.7
425.451	0.44
425.658	0.31
425.865	0.62
426.072	0.7
426.28	0.84
426.487	0.82
426.694	1.06
426.901	0.71
427.108	0.86
427.315	0.68
427.523	0.97
427.73	0.9
427.937	0.93
428.144	0.67
428.351	0.69
428.558	0.75
428.765	0.58
428.972	0.57
429.179	0.66
429.386	0.92
429.593	0.59
429.8	0.5
430.007	0.59
430.214	0.63
430.421	0.39
430.628	0.3
430.835	0.38
431.042	0.56
431.249	0.54
431.456	0.49
431.662	0.66
431.869	0.78
432.076	0.7
432.283	0.84
432.49	0.86
432.697	0.85
432.903	0.62
433.11	0.6
433.317	0.55
433.524	0.84
433.73	0.74
433.937	1.14
434.144	0.96
434.35	0.95
434.557	0.59
434.764	0.67
434.97	0.42
435.177	0.57
435.384	0.47
435.59	0.63
435.797	0.81
436.003	0.84
436.21	0.92
436.416	1.02
436.623	0.95
436.829	0.92
437.036	1.07
437.242	0.93
437.449	0.8
437.655	0.8
437.862	0.76
438.068	0.54
438.275	0.71
438.481	1.02
438.687	0.97
438.894	0.95
439.1	1.1
439.307	1.2
439.513	1.02
439.719	1.06
439.926	1.06
440.132	0.93
440.338	0.74
440.544	0.85
440.751	0.83
440.957	0.83
441.163	0.81
441.369	0.86
441.575	0.59
441.782	0.56
441.988	0.46
442.194	0.57
442.4	0.51
442.606	0.85
442.812	0.99
443.018	1.14
443.224	1.18
443.431	1.26
443.637	1.06
443.843	0.91
444.049	0.85
444.255	0.72
444.461	0.78
444.667	0.63
444.873	0.8
445.079	0.82
445.284	0.91
445.49	0.63
445.696	0.57
445.902	0.43
446.108	0.33
446.314	0.23
446.52	0.38
446.726	0.69
446.931	0.74
447.137	0.83
447.343	0.97
447.549	0.94
447.755	0.83
447.96	0.88
448.166	0.83
448.372	0.77
448.578	0.83
448.783	0.82
448.989	0.85
449.195	1.04
449.4	1
449.606	0.94
449.812	0.84
450.017	0.86
450.223	0.7
450.428	0.7
450.634	0.82
450.84	1.02
451.045	0.94
451.251	0.86
451.456	1.05
451.662	1.07
451.867	0.98
452.073	0.91
452.278	1.09
452.483	1.14
452.689	1.06
452.894	1.14
453.1	1.25
453.305	1.08
453.51	0.95
453.716	0.85
453.921	0.8
454.127	0.66
454.332	0.68
454.537	0.59
454.742	0.65
454.948	0.64
455.153	0.73
455.358	0.84
455.563	1
455.769	1.15
455.974	1.13
456.179	1.02
456.384	0.96
456.589	0.97
456.795	0.74
457	0.76
457.205	1.04
457.41	0.95
457.615	0.8
457.82	0.86
458.025	0.89
458.23	0.65
458.435	0.77
458.64	0.68
458.845	0.87
459.05	0.85
459.255	0.84
459.46	0.84
459.665	0.96
459.87	0.96
460.075	0.94
460.28	1
460.485	0.99
460.69	1.03
460.895	0.84
461.099	0.79
461.304	0.94
461.509	0.93
461.714	0.83
461.919	1.02
462.123	0.98
462.328	0.96
