Data from Ofra_PS_T2_2A_1GT36_Reflection_3.txt Node
Date: Wed Jul 21 16:53:54 EDT 2021
User: Adam
Spectrometer: FLMT01687
Trigger mode: 0
Integration Time (sec): 1.100000E0
Scans to average: 2
Electric dark correction enabled: true
Nonlinearity correction enabled: false
Boxcar width: 2
XAxis mode: Wavelengths
Number of Pixels in Spectrum: 3648
>>>>>Begin Spectral Data<<<<<
179.494	352.8
179.716	373.41
179.937	368.95
180.158	320.25
180.38	350.62
180.601	149.17
180.823	74.42
181.044	-126.54
181.265	-30.88
181.486	53.89
181.708	60.28
181.929	183.67
182.15	-507.04
182.372	-5.07
182.593	-64.81
182.814	8.78
183.035	20.35
183.257	54.86
183.478	-0.64
183.699	63.32
183.92	44.85
184.141	58.21
184.363	53.05
184.584	97.83
184.805	83.47
185.026	93.78
185.247	82.48
185.468	49.51
185.689	42.28
185.91	20.86
186.132	16.54
186.353	15.01
186.574	70.15
186.795	54.31
187.016	23.73
187.237	10.65
187.458	-13.03
187.679	-32.31
187.9	-5.76
188.121	22.8
188.342	51.08
188.563	77.36
188.784	98.29
189.005	79.28
189.226	106.08
189.447	67.09
189.667	-117.96
189.888	-271.92
190.109	-829.87
190.33	-530.32
190.551	-722.12
190.772	-145.28
190.993	-98.09
191.214	-111.35
191.434	-62.2
191.655	-6.63
191.876	-18.65
192.097	-69.23
192.318	-78.69
192.538	-109.09
192.759	-110.75
192.98	-27.77
193.201	0.85
193.421	23.48
193.642	32.95
193.863	34.88
194.083	14.24
194.304	9.91
194.525	2.44
194.745	-24.7
194.966	-24.35
195.187	-24.41
195.407	-41.35
195.628	-93.5
195.848	-101.25
196.069	-102.27
196.29	-57.1
196.51	-69.74
196.731	-52
196.951	-24.85
197.172	-44.01
197.392	-82.22
197.613	-89.92
197.833	-121.03
198.054	-115.54
198.274	-56.26
198.495	-52.97
198.715	0.92
198.936	-0.55
199.156	9.07
199.377	-38.31
199.597	-41.74
199.817	-68.35
200.038	-29.37
200.258	-67.55
200.479	-22.52
200.699	3.18
200.919	38.66
201.14	51.62
201.36	48.33
201.58	62.39
201.801	65.64
202.021	46.52
202.241	36.9
202.461	42.03
202.682	-24.14
202.902	-66.22
203.122	-8.47
203.342	3.91
203.563	24.9
203.783	45.82
204.003	37.2
204.223	34.86
204.443	58.15
204.663	61.3
204.884	63.22
205.104	74.72
205.324	94.11
205.544	92.19
205.764	83.43
205.984	77.48
206.204	69.28
206.424	33.9
206.644	0.8
206.864	-8.71
207.084	-34.27
207.304	-21.04
207.525	12.19
207.745	45.03
207.964	65.64
208.184	2.81
208.404	-21.89
208.624	-37.68
208.844	-42.72
209.064	-225.35
209.284	-175.65
209.504	-98.5
209.724	4.88
209.944	-9.12
210.164	3.09
210.384	9.41
210.604	12.72
210.823	-11.24
211.043	-3.29
211.263	-1.52
211.483	3.14
211.703	-7.44
211.922	-8.25
212.142	20.71
212.362	30.75
212.582	9.38
212.801	14.68
213.021	17.96
213.241	29.09
213.461	12.2
213.68	12.26
213.9	-6.29
214.12	9.26
214.339	-35
214.559	-34.66
214.779	-0.89
214.998	30.74
215.218	0.59
215.438	3.76
215.657	12.48
215.877	8.39
216.096	2.65
216.316	7.56
216.535	7.5
216.755	12.96
216.974	-30.91
217.194	-81.38
217.413	-98.58
217.633	-94.44
217.852	-214.2
218.072	-95.93
218.291	-54.13
218.511	-10.15
218.73	-16.57
218.95	-10.34
219.169	-14.36
219.389	-16.71
219.608	-9.05
219.827	-10.15
220.047	12.45
220.266	25.06
220.485	18.95
220.705	21.02
220.924	19.55
221.143	41.24
221.363	28.4
221.582	34.54
221.801	50.97
222.021	57.45
222.24	22.63
222.459	76.94
222.678	39.44
222.897	-32.75
223.117	-69.51
223.336	-36.55
223.555	-38.04
223.774	22.45
223.993	47.28
224.213	52.34
224.432	29.42
224.651	47.39
224.87	5.76
225.089	13.93
225.308	12.62
225.527	27.8
225.746	28.43
225.965	24.59
226.184	9.32
226.404	28.78
226.623	1.91
226.842	-5.92
227.061	16.85
227.28	21.25
227.499	7.98
227.718	23.17
227.936	16.04
228.155	31.81
228.374	17.7
228.593	26.92
228.812	21.37
229.031	15.46
229.25	-42.92
229.469	-43.44
229.688	-60.42
229.907	-33.36
230.125	-21.21
230.344	-13.94
230.563	-12.99
230.782	8.06
231.001	-49.91
231.22	-46.19
231.438	-7.12
231.657	6.58
231.876	-1.6
232.095	43.1
232.313	50.13
232.532	68.97
232.751	71.28
232.969	36.35
233.188	20.03
233.407	46.05
233.625	17.66
233.844	12.94
234.063	28.36
234.281	40.51
234.5	28.85
234.719	29.51
234.937	17.8
235.156	14.88
235.374	-1.59
235.593	-21.74
235.811	-37.86
236.03	-34.36
236.249	-40.04
236.467	-23.79
236.686	15.98
236.904	23.68
237.123	24.24
237.341	10.69
237.559	8.68
237.778	-13.07
237.996	-33.77
238.215	-9.17
238.433	5.52
238.652	-4.81
238.87	-8.39
239.088	-12.87
239.307	-36.15
239.525	-44.14
239.743	-50.8
239.962	-39.31
240.18	-32.39
240.398	-35.69
240.617	-46.95
240.835	-10.51
241.053	-20.02
241.271	-8.14
241.49	20.01
241.708	0.31
241.926	-36.97
242.144	-27.14
242.363	-46.46
242.581	-77.68
242.799	-43.01
243.017	-19.05
243.235	-2.17
243.453	6.28
243.672	-2.99
243.89	-2.59
244.108	-10.47
244.326	-7.75
244.544	-1.98
244.762	12.01
244.98	13.26
245.198	19.72
245.416	-4.05
245.634	-22.31
245.852	-33.36
246.07	-21.75
246.288	-15.92
246.506	-50.36
246.724	-32.2
246.942	-28.6
247.16	-17.45
247.378	-22.91
247.596	0.63
247.814	13.89
248.032	-2.69
248.25	-6.31
248.468	1.03
248.685	13.79
248.903	28.35
249.121	48.33
249.339	43.7
249.557	58.8
249.775	50.89
249.992	12.97
250.21	-9.01
250.428	-2.55
250.646	-32.05
250.863	-31.1
251.081	6.78
251.299	19.34
251.517	3.94
251.734	10.99
251.952	11.95
252.17	2.67
252.387	7.77
252.605	16.42
252.823	35.97
253.04	36.69
253.258	50.86
253.475	69.83
253.693	60.77
253.911	54.56
254.128	64.75
254.346	76.33
254.563	49.39
254.781	27.52
254.998	0.24
255.216	-22.27
255.433	-22.29
255.651	20.41
255.868	60.8
256.086	86.7
256.303	93.17
256.521	73.32
256.738	50.2
256.956	34.36
257.173	10.03
257.39	-11.65
257.608	-8.02
257.825	27.29
258.043	50.16
258.26	55.09
258.477	88.21
258.695	68.27
258.912	13.37
259.129	22.41
259.346	-11.52
259.564	-41.01
259.781	-68.65
259.998	-17.23
260.216	-17.9
260.433	-2
260.65	-3.64
260.867	21.06
261.084	-11.9
261.302	-40.07
261.519	-24.36
261.736	-39.44
261.953	-48.76
262.17	-1.73
262.387	-7.21
262.604	-27.16
262.822	-13.74
263.039	-10.83
263.256	-45.02
263.473	-3.63
263.69	10.94
263.907	24.09
264.124	25.95
264.341	23.86
264.558	25.13
264.775	20.96
264.992	14.64
265.209	10.14
265.426	17.37
265.643	5.75
265.86	4.84
266.077	5.58
266.294	4.31
266.51	-13.81
266.727	-38.92
266.944	-35.27
267.161	-43.42
267.378	-45.64
267.595	-17.05
267.812	-9.06
268.028	-11.42
268.245	20.17
268.462	0.62
268.679	10.05
268.896	48.91
269.112	35.61
269.329	15.93
269.546	29.74
269.763	9.35
269.979	-23.18
270.196	-18.58
270.413	-31.12
270.629	-64.18
270.846	-52.7
271.063	-41.01
271.279	-43.5
271.496	-23.31
271.712	26.55
271.929	28.7
272.146	22.36
272.362	42.82
272.579	31.7
272.795	22.36
273.012	40.07
273.228	49.81
273.445	37.44
273.661	56.16
273.878	12.72
274.094	-19.69
274.311	-33.03
274.527	12.15
274.744	17.12
274.96	15.32
275.177	38.64
275.393	38.46
275.609	35.03
275.826	40.34
276.042	49.51
276.259	29.82
276.475	47.31
276.691	46.2
276.908	12.98
277.124	24.52
277.34	17.57
277.557	-4.76
277.773	-15.17
277.989	-16.03
278.205	-26.66
278.422	-5.97
278.638	11.92
278.854	21.42
279.07	33.16
279.286	37.35
279.503	18.23
279.719	-17.29
279.935	-25.96
280.151	-35.97
280.367	-11.93
280.583	-19.54
280.799	-7.05
281.016	-23.14
281.232	5.38
281.448	-0.18
281.664	23.21
281.88	15.34
282.096	38.06
282.312	52.41
282.528	61.38
282.744	68.87
282.96	67.61
283.176	35.87
283.392	29.46
283.608	28.65
283.824	15.77
284.04	17.88
284.256	28.27
284.471	17.59
284.687	10.76
284.903	25.96
285.119	35.06
285.335	22.33
285.551	35.12
285.767	25.79
285.982	21.07
286.198	-3.65
286.414	37.8
286.63	20.48
286.846	24.25
287.061	8.96
287.277	26.57
287.493	2.45
287.709	18.99
287.924	12.19
288.14	51.75
288.356	48
288.571	51.62
288.787	36.67
289.003	33.59
289.218	14.21
289.434	-2.64
289.65	5.79
289.865	5.1
290.081	38.24
290.296	47.24
290.512	49.93
290.727	13.46
290.943	11.06
291.159	0.87
291.374	-12.02
291.59	-24.56
291.805	-13.69
292.021	-9.31
292.236	-17.54
292.451	-3.42
292.667	2.41
292.882	27.24
293.098	30.98
293.313	23.45
293.529	4.67
293.744	2.35
293.959	-19.26
294.175	-23.21
294.39	-3.58
294.605	7.24
294.821	18.84
295.036	12.35
295.251	12.76
295.467	16.28
295.682	3.71
295.897	-17.99
296.112	-9.7
296.328	-14.15
296.543	-63.38
296.758	-51.09
296.973	-27.75
297.188	0
297.404	-6.67
297.619	4.12
297.834	-16.07
298.049	-14.62
298.264	-20.52
298.479	8.88
298.694	10.1
298.909	33.48
299.125	37.42
299.34	24.82
299.555	-0.53
299.77	12.77
299.985	-27.47
300.2	-67.24
300.415	-55.33
300.63	-33.48
300.845	-45.6
301.06	-30.37
301.275	4.31
301.49	17.83
301.704	23.03
301.919	17.51
302.134	1.06
302.349	-4.08
302.564	-48.5
302.779	-44.74
302.994	-35.74
303.209	-1.48
303.423	3.8
303.638	42.43
303.853	-4.05
304.068	12.97
304.283	27.78
304.497	20.97
304.712	9.33
304.927	27.82
305.142	15.14
305.356	13.78
305.571	6.8
305.786	18.28
306	6.4
306.215	0
306.43	-18.28
306.644	4.15
306.859	-14.74
307.074	2.72
307.288	0.22
307.503	-24.51
307.717	-30.57
307.932	-31.76
308.147	-33.82
308.361	-21.31
308.576	-14.69
308.79	-41.07
309.005	-16.74
309.219	-2.04
309.434	-2.2
309.648	-1.29
309.863	12.9
310.077	7.4
310.292	-14.6
310.506	-13.48
310.72	1.47
310.935	1.93
311.149	3.79
311.364	20.62
311.578	32.59
311.792	23.38
312.007	21.8
312.221	3.13
312.435	-3.88
312.649	-17.94
312.864	9.81
313.078	23.27
313.292	81.94
313.507	80.47
313.721	114.79
313.935	42.19
314.149	37.19
314.363	21.17
314.578	31.21
314.792	30.99
315.006	21.88
315.22	30.8
315.434	39.22
315.648	42.67
315.862	40.31
316.077	40.41
316.291	31.86
316.505	41.44
316.719	51.35
316.933	44.92
317.147	36.72
317.361	-12.84
317.575	-59.06
317.789	-98.97
318.003	-208.66
318.217	-147.51
318.431	-55.71
318.645	-3.88
318.859	1.24
319.073	30.94
319.287	13.98
319.5	7.58
319.714	-24.97
319.928	-49.01
320.142	-60.1
320.356	8.81
320.57	29.64
320.784	43.21
320.997	65.04
321.211	63.59
321.425	5.68
321.639	-30.47
321.853	12.12
322.066	14.52
322.28	14.27
322.494	13.03
322.707	27.05
322.921	16.76
323.135	21.71
323.349	9.87
323.562	5.96
323.776	-1.93
323.989	-12.05
324.203	-35.47
324.417	-27.6
324.63	-38.02
324.844	-38.83
325.057	-35.17
325.271	-17.26
325.485	3.15
325.698	8.75
325.912	18.95
326.125	4.46
326.339	6.81
326.552	-14.49
326.766	5.47
326.979	11.81
327.193	42.27
327.406	47.43
327.619	45.29
327.833	40.08
328.046	27.33
328.26	3.69
328.473	19.79
328.686	20.49
328.9	7.35
329.113	18.81
329.326	7.2
329.54	1.6
329.753	-7.31
329.966	0.29
330.179	-5.98
330.393	5.85
330.606	-4.15
330.819	4.04
331.032	15.87
331.246	13.89
331.459	29.37
331.672	34.46
331.885	26.58
332.098	15.21
332.311	18.26
332.525	-17.4
332.738	-30.63
332.951	14.39
333.164	35.81
333.377	46.06
333.59	54.08
333.803	55.03
334.016	43.54
334.229	33.23
334.442	31.48
334.655	42.77
334.868	60.62
335.081	46.04
335.294	42.31
335.507	39.48
335.72	35.26
335.933	26.29
336.146	23.59
336.359	7.4
336.572	-10.78
336.785	-43.13
336.997	-49.04
337.21	-24.32
337.423	-13.07
337.636	-4.92
337.849	21.71
338.062	23.22
338.274	13.49
338.487	9.76
338.7	-3.22
338.913	-32.69
339.125	-38.39
339.338	-36.56
339.551	-26.01
339.763	16.56
339.976	32.22
340.189	34.55
340.402	31.33
340.614	30.24
340.827	14.38
341.039	4.15
341.252	8.81
341.465	1.25
341.677	-10.52
341.89	-46.57
342.102	-12.33
342.315	-20.95
342.527	-36.59
342.74	-21.24
342.952	21.52
343.165	-5.07
343.377	16.91
343.59	16.58
343.802	19.76
344.015	11.58
344.227	33.75
344.44	24.19
344.652	19.74
344.864	18.54
345.077	34.06
345.289	28
345.502	30.89
345.714	39.77
345.926	38.38
346.139	24.95
346.351	38.05
346.563	33.87
346.775	28.6
346.988	25.88
347.2	21.02
347.412	-13.25
347.624	-28.04
347.837	-40.8
348.049	-33.99
348.261	-1.64
348.473	7.45
348.685	7.13
348.897	9.95
349.11	3.08
349.322	-21.91
349.534	-8.95
349.746	-11.17
349.958	-18.01
350.17	-25.13
350.382	-9.35
350.594	-7.63
350.806	9.67
351.018	23.95
351.23	28.85
351.442	5.59
351.654	2.69
351.866	-26.79
352.078	-26.69
352.29	-20.31
352.502	-1.66
352.714	2.82
352.926	9.66
353.138	-1.12
353.35	1.22
353.561	7.53
353.773	-10.34
353.985	-5.67
354.197	7.08
354.409	3.22
354.621	-14.42
354.832	4.31
355.044	1.72
355.256	-3.17
355.468	9.7
355.679	16.19
355.891	18.68
356.103	16.39
356.314	30.58
356.526	30.63
356.738	34.86
356.949	40.61
357.161	48.7
357.373	42.86
357.584	38.67
357.796	45.19
358.008	35.08
358.219	35.42
358.431	10.92
358.642	8.76
358.854	-2.11
359.065	-15.04
359.277	-41.93
359.488	-35.03
359.7	-41.25
359.911	-52.95
360.123	-34.85
360.334	-30.25
360.546	-35.25
360.757	-42.32
360.969	-30.22
361.18	-22.1
361.391	-20.24
361.603	-23.35
361.814	-16.71
362.025	-16.99
362.237	-25.74
362.448	-3.59
362.659	10.35
362.871	13.86
363.082	9.98
363.293	14.98
363.504	3.04
363.716	-10.24
363.927	-12.42
364.138	-25.42
364.349	-17.84
364.56	-15.09
364.772	-5.7
364.983	6.77
365.194	15.42
365.405	24.14
365.616	30.39
365.827	21.47
366.038	6.58
366.25	5.53
366.461	-32.88
366.672	-19.12
366.883	4.94
367.094	14
367.305	5.2
367.516	16.21
367.727	0.41
367.938	-7.4
368.149	-12.97
368.36	12.37
368.571	15.85
368.781	5.1
368.992	-9.08
369.203	-7.75
369.414	-35.57
369.625	-52
369.836	-26.99
370.047	-43.77
370.258	-41.08
370.468	-37.07
370.679	-44.55
370.89	-42
371.101	-23.07
371.312	-16.13
371.522	15.72
371.733	21.79
371.944	28.53
372.155	40.42
372.365	22.65
372.576	8.55
372.787	1.89
372.997	-8.81
373.208	-6.67
373.419	4.09
373.629	-28.04
373.84	-18.44
374.05	-30.53
374.261	-35.66
374.472	-26.53
374.682	15.19
374.893	11.89
375.103	42.08
375.314	41.14
375.524	32.77
375.735	24.16
375.945	42.77
376.156	17.63
376.366	18.11
376.577	17.7
376.787	16.27
376.997	3.52
377.208	9.93
377.418	3.65
377.629	8.99
377.839	3.38
378.049	1.34
378.26	8.91
378.47	11.01
378.68	11.54
378.89	9.22
379.101	5.25
379.311	-14.17
379.521	-26.8
379.732	-37.24
379.942	-30.68
380.152	-42.15
380.362	-17.34
380.572	-11.78
380.783	-4.05
380.993	3.1
381.203	20.4
381.413	36.81
381.623	35.66
381.833	35.67
382.043	28.92
382.253	20.45
382.463	4.16
382.674	0.2
382.884	-15.72
383.094	-8.89
383.304	-5.29
383.514	-2.93
383.724	-0.43
383.934	2.62
384.144	-6.05
384.353	-12.74
384.563	-15.76
384.773	-2.07
384.983	-7.63
385.193	3.27
385.403	11.37
385.613	12.37
385.823	-0.31
386.033	8.63
386.242	6.48
386.452	1.49
386.662	-1.38
386.872	7.92
387.082	0.71
387.291	-3.05
387.501	-6.77
387.711	-4.02
387.921	-13.25
388.13	-14.97
388.34	-5.83
388.55	-6.33
388.759	-6
388.969	-2.18
389.179	-2.33
389.388	-3.09
389.598	5.12
389.807	1.59
390.017	-1.09
390.227	0.93
390.436	-5.17
390.646	-4.15
390.855	-3.16
391.065	-1.35
391.274	-0.49
391.484	0.75
391.693	-2.14
391.903	0.82
392.112	3.24
392.322	5.01
392.531	8.05
392.74	8.59
392.95	5.64
393.159	4.55
393.369	3.09
393.578	2.23
393.787	1.32
393.997	1.91
394.206	2.05
394.415	3.94
394.625	1.76
394.834	0.69
395.043	2.22
395.252	3.13
395.462	3.41
395.671	5.18
395.88	6.53
396.089	6.36
396.298	4.12
396.508	3.7
396.717	2.43
396.926	2.38
397.135	1.57
397.344	2.55
397.553	3.07
397.762	4.67
397.971	4.91
398.181	5.46
398.39	4.8
398.599	4.24
398.808	4.25
399.017	4.71
399.226	5.03
399.435	6.06
399.644	6.5
399.853	5.46
400.062	5.18
400.27	4.84
400.479	4.38
400.688	3.72
400.897	4.06
401.106	4.13
401.315	4.09
401.524	4.05
401.733	4.4
401.941	4.83
402.15	4.74
402.359	4.55
402.568	4.8
402.777	4.94
402.985	4.32
403.194	3.96
403.403	3.88
403.612	3.66
403.82	3.48
404.029	3.94
404.238	3.94
404.446	4.21
404.655	4.18
404.864	4.04
405.072	3.73
405.281	3.92
405.489	3.83
405.698	3.81
405.906	3.86
406.115	3.96
406.324	3.86
406.532	3.89
406.741	4.09
406.949	4.19
407.158	4.08
407.366	4.09
407.574	4.12
407.783	3.99
407.991	3.68
408.2	3.84
408.408	3.79
408.617	3.62
408.825	3.52
409.033	3.87
409.242	3.81
409.45	3.93
409.658	3.99
409.867	4.03
410.075	3.75
410.283	3.67
410.491	3.57
410.7	3.51
410.908	3.53
411.116	3.7
411.324	3.76
411.533	3.7
411.741	3.75
411.949	3.69
412.157	3.49
412.365	3.41
412.573	3.41
412.781	3.49
412.99	3.46
413.198	3.69
413.406	3.69
413.614	3.73
413.822	3.58
414.03	3.52
414.238	3.26
414.446	3.35
414.654	3.11
414.862	3.16
415.07	3.26
415.278	3.4
415.486	3.27
415.694	3.47
415.902	3.37
416.109	3.19
416.317	3.16
416.525	3
416.733	2.89
416.941	3.09
417.149	3.23
417.357	3.27
417.564	3.37
417.772	3.67
417.98	3.41
418.188	3.29
418.395	3.3
418.603	3.57
418.811	3.14
419.019	3.29
419.226	3.42
419.434	3.48
419.642	3.19
419.849	3.42
420.057	3.31
420.265	3.3
420.472	3.1
420.68	3.12
420.887	3.08
421.095	3.14
421.302	3.11
421.51	3.25
421.717	3.3
421.925	3.28
422.132	3.16
422.34	2.97
422.547	3.05
422.755	2.94
422.962	2.85
423.17	2.84
423.377	2.96
423.585	2.88
423.792	2.75
423.999	2.85
424.207	2.85
424.414	2.77
424.621	2.63
424.829	2.86
425.036	2.75
425.243	2.89
425.451	2.97
425.658	2.91
425.865	3
426.072	3.11
426.28	3.28
426.487	3.24
426.694	3.26
426.901	3.05
427.108	3.08
427.315	2.93
427.523	3.13
427.73	3.12
427.937	3.14
428.144	2.95
428.351	2.87
428.558	2.91
428.765	2.91
428.972	2.9
429.179	3.15
429.386	3.34
429.593	3.09
429.8	3.09
430.007	3.2
430.214	3.22
430.421	3.11
430.628	3.07
430.835	2.95
431.042	3.03
431.249	3.04
431.456	3.02
431.662	3.11
431.869	3.42
432.076	3.34
432.283	3.46
432.49	3.55
432.697	3.65
432.903	3.48
433.11	3.48
433.317	3.49
433.524	3.52
433.73	3.46
433.937	3.65
434.144	3.68
434.35	3.45
434.557	3.29
434.764	3.41
434.97	3.33
435.177	3.42
435.384	3.59
435.59	3.84
435.797	3.94
436.003	3.97
436.21	4
436.416	4.01
436.623	3.9
436.829	3.9
437.036	4.14
437.242	4.12
437.449	4.1
437.655	4.23
437.862	4.13
438.068	3.99
438.275	4.23
438.481	4.35
438.687	4.24
438.894	4.25
439.1	4.24
439.307	4.32
439.513	4.34
439.719	4.35
439.926	4.5
440.132	4.53
440.338	4.26
440.544	4.29
440.751	4.31
440.957	4.36
441.163	4.27
441.369	4.42
441.575	4.3
441.782	4.33
441.988	4.23
442.194	4.32
442.4	4.3
442.606	4.47
442.812	4.57
443.018	4.62
443.224	4.64
443.431	4.77
443.637	4.6
443.843	4.52
444.049	4.5
444.255	4.41
444.461	4.43
444.667	4.5
444.873	4.65
445.079	4.71
445.284	4.87
445.49	4.64
445.696	4.6
445.902	4.49
446.108	4.47
446.314	4.43
446.52	4.52
446.726	4.66
446.931	4.71
447.137	4.81
447.343	4.81
447.549	4.84
447.755	4.77
447.96	4.77
448.166	4.72
448.372	4.69
448.578	4.77
448.783	4.77
448.989	4.9
449.195	4.99
449.4	4.98
449.606	4.89
449.812	4.92
450.017	4.85
450.223	4.83
450.428	4.88
450.634	4.96
450.84	5.05
451.045	5.05
451.251	4.97
451.456	5.16
451.662	5.21
451.867	5.26
452.073	5.31
452.278	5.48
452.483	5.43
452.689	5.35
452.894	5.29
453.1	5.28
453.305	5.16
453.51	5.09
453.716	5.11
453.921	5.16
454.127	5.16
454.332	5.2
454.537	5.27
454.742	5.22
454.948	5.11
455.153	5.07
455.358	5.14
455.563	5.24
455.769	5.44
455.974	5.51
456.179	5.46
456.384	5.3
456.589	5.22
456.795	5.02
457	4.99
457.205	5.21
457.41	5.32
457.615	5.33
457.82	5.43
458.025	5.43
458.23	5.3
458.435	5.32
458.64	5.12
458.845	5.21
459.05	5.19
459.255	5.2
459.46	5.21
459.665	5.37
459.87	5.34
460.075	5.35
460.28	5.52
460.485	5.54
460.69	5.55
460.895	5.47
461.099	5.49
461.304	5.48
461.509	5.52
461.714	5.52
461.919	5.65
462.123	5.6
462.328	5.58
462.533	5.51
462.738	5.62
462.942	5.52
463.147	5.66
463.352	5.68
463.556	5.75
463.761	5.68
463.966	5.75
464.17	5.71
464.375	5.64
464.58	5.67
464.784	5.68
464.989	5.66
465.193	5.73
465.398	5.76
