Data from Ofra_PS_T2_1A_0GT05_Reflection_2.txt Node
Date: Wed Jul 21 17:46:58 EDT 2021
User: Adam
Spectrometer: FLMT01687
Trigger mode: 0
Integration Time (sec): 1.100000E0
Scans to average: 2
Electric dark correction enabled: true
Nonlinearity correction enabled: false
Boxcar width: 2
XAxis mode: Wavelengths
Number of Pixels in Spectrum: 3648
>>>>>Begin Spectral Data<<<<<
179.494	566
179.716	659.53
179.937	613.41
180.158	612.12
180.38	956.56
180.601	326.8
180.823	108.31
181.044	-50.95
181.265	48.9
181.486	40.35
181.708	124.83
181.929	576.53
182.15	-664.08
182.372	48.48
182.593	18.64
182.814	47.93
183.035	82.35
183.257	47.39
183.478	-41.6
183.699	3.03
183.92	-45.36
184.141	-21.8
184.363	-34.83
184.584	4.92
184.805	-13.6
185.026	26.55
185.247	22.87
185.468	-0.04
185.689	-8.7
185.91	8.4
186.132	5.74
186.353	14.69
186.574	85.07
186.795	72.89
187.016	19.77
187.237	-7.9
187.458	-54.61
187.679	-66.09
187.9	-52.51
188.121	-20.9
188.342	-26.82
188.563	28.23
188.784	41.23
189.005	53.16
189.226	83.95
189.447	83.79
189.667	-137.14
189.888	-341.63
190.109	-1340.91
190.33	-817.1
190.551	-1399.56
190.772	-350.97
190.993	-294.39
191.214	-265.39
191.434	-193.06
191.655	-58.59
191.876	-74.69
192.097	-124.91
192.318	-159.94
192.538	-143.55
192.759	-145.51
192.98	-46.47
193.201	1.65
193.421	17.04
193.642	13.97
193.863	19.87
194.083	-1.2
194.304	-10.52
194.525	-17.32
194.745	-21.18
194.966	-60.47
195.187	-65.86
195.407	-111.79
195.628	-193.72
195.848	-203.67
196.069	-209.73
196.29	-150.87
196.51	-133.54
196.731	-108.57
196.951	-115.53
197.172	-110.45
197.392	-157.55
197.613	-162.53
197.833	-192.6
198.054	-182.72
198.274	-103.95
198.495	-121.36
198.715	-68.51
198.936	-84.97
199.156	-77.45
199.377	-210.94
199.597	-184.33
199.817	-206.85
200.038	-120.1
200.258	-179.27
200.479	-74.06
200.699	-58.92
200.919	2.26
201.14	-40.24
201.36	-39.76
201.58	2.16
201.801	26.77
202.021	-18.45
202.241	-1.24
202.461	-10.44
202.682	-134.26
202.902	-187.57
203.122	-114.91
203.342	-128.11
203.563	-70.71
203.783	-38.25
204.003	-94.71
204.223	-84.17
204.443	5.29
204.663	-34.29
204.884	8.55
205.104	26.46
205.324	38.16
205.544	18.95
205.764	49.89
205.984	22.34
206.204	23.18
206.424	-1.52
206.644	-68.29
206.864	-52.86
207.084	-100.22
207.304	-76.71
207.525	-130.47
207.745	-87.9
207.964	-44.56
208.184	-108.58
208.404	-139.54
208.624	-136.13
208.844	-115.78
209.064	-451.5
209.284	-345.98
209.504	-183.58
209.724	-29.31
209.944	-19
210.164	21.57
210.384	7.46
210.604	6.65
210.823	-76.61
211.043	-94.3
211.263	-78.88
211.483	-78.8
211.703	-130.41
211.922	-107.29
212.142	-36.35
212.362	-35.93
212.582	-34.25
212.801	-34.44
213.021	-31.04
213.241	-37.94
213.461	-82.2
213.68	-112.12
213.9	-73.61
214.12	-64.62
214.339	-151.35
214.559	-134.52
214.779	-60.08
214.998	-65.56
215.218	-131.04
215.438	-53.72
215.657	-32.49
215.877	-33.32
216.096	-10.4
216.316	17.26
216.535	-6.13
216.755	-20.05
216.974	-111.97
217.194	-156.58
217.413	-158.96
217.633	-149.46
217.852	-232.73
218.072	-118.32
218.291	-65.31
218.511	-9.15
218.73	-35.09
218.95	-31.68
219.169	-28.11
219.389	-59.14
219.608	-64.84
219.827	-57.13
220.047	-47.23
220.266	-36.56
220.485	-40.1
220.705	-25.44
220.924	-43.19
221.143	6.8
221.363	-14.23
221.582	1.84
221.801	15.22
222.021	39.45
222.24	-41.55
222.459	-24.87
222.678	-72.3
222.897	-167.17
223.117	-227
223.336	-197.55
223.555	-126.38
223.774	-69.18
223.993	-25.5
224.213	36.26
224.432	27.25
224.651	62.77
224.87	34.53
225.089	37.28
225.308	17.84
225.527	43.68
225.746	37.08
225.965	21.91
226.184	-1.27
226.404	28.75
226.623	-11.51
226.842	-10.85
227.061	24.13
227.28	13.28
227.499	-25.69
227.718	-8.44
227.936	-22.8
228.155	-28.83
228.374	-24.51
228.593	7.42
228.812	19.15
229.031	11.04
229.25	-45.67
229.469	-40.78
229.688	-42.43
229.907	-10.78
230.125	1.11
230.344	11.04
230.563	21.69
230.782	19.03
231.001	-82.88
231.22	-62.33
231.438	-26.72
231.657	-25.8
231.876	-37.05
232.095	25.83
232.313	25.32
232.532	-8.18
232.751	-30.73
232.969	-44.44
233.188	-128.8
233.407	-49.59
233.625	-17.92
233.844	-41.51
234.063	-21.49
234.281	2.4
234.5	-18.59
234.719	-14.6
234.937	19.33
235.156	31.61
235.374	28.33
235.593	28.47
235.811	17.56
236.03	-28.39
236.249	-69.81
236.467	-58.66
236.686	-28.78
236.904	-0.44
237.123	-14.27
237.341	-18.92
237.559	-21.13
237.778	-51.4
237.996	-114.28
238.215	-47.96
238.433	-31.86
238.652	-42.24
238.87	-48.02
239.088	-21.78
239.307	-20.34
239.525	-28.93
239.743	-54.09
239.962	-61.34
240.18	-73.09
240.398	-135.54
240.617	-117.15
240.835	-96.94
241.053	-31.22
241.271	6.28
241.49	13.02
241.708	-35.8
241.926	-52.82
242.144	-77.24
242.363	-139.15
242.581	-166.46
242.799	-97.16
243.017	-49.57
243.235	-60.23
243.453	-39.6
243.672	-40.65
243.89	-33.27
244.108	-51.05
244.326	-26.98
244.544	-15.72
244.762	-9.85
244.98	-9.66
245.198	-5.85
245.416	-43.89
245.634	-46.32
245.852	-69.16
246.07	-92.11
246.288	-98.62
246.506	-113.92
246.724	-105.9
246.942	-63.8
247.16	-20.36
247.378	-10.04
247.596	26.03
247.814	32.15
248.032	-7.87
248.25	-30.02
248.468	-14.81
248.685	-12.36
248.903	8.94
249.121	9.99
249.339	-6.45
249.557	-22.16
249.775	-17.56
249.992	-84.11
250.21	-63.67
250.428	-47.84
250.646	-65.79
250.863	-100.74
251.081	-61.27
251.299	-66.42
251.517	-62.75
251.734	-48.13
251.952	-29.48
252.17	-33.88
252.387	-12.88
252.605	-21.65
252.823	-18.08
253.04	-8.71
253.258	-2.35
253.475	-12.94
253.693	18.6
253.911	25.92
254.128	26.09
254.346	35.47
254.563	3.27
254.781	-28.8
254.998	-65.13
255.216	-61.09
255.433	-52.92
255.651	3.59
255.868	46.13
256.086	104.65
256.303	83.01
256.521	66.19
256.738	29.62
256.956	-7.21
257.173	-59.55
257.39	-80.7
257.608	-136.34
257.825	-75.32
258.043	-49
258.26	-28.92
258.477	25.17
258.695	19.86
258.912	-41.54
259.129	-18.32
259.346	-53.64
259.564	-109.89
259.781	-107.93
259.998	-21.91
260.216	-2.1
260.433	38.91
260.65	43.59
260.867	58.43
261.084	16.54
261.302	-8.32
261.519	-22.82
261.736	-49.05
261.953	-90.36
262.17	-47.26
262.387	-92.13
262.604	-120.56
262.822	-139.11
263.039	-107.61
263.256	-174.76
263.473	-107.41
263.69	-69.77
263.907	-10.83
264.124	8.5
264.341	18.49
264.558	1.19
264.775	7.01
264.992	-24.64
265.209	-31.97
265.426	-0.77
265.643	-4.18
265.86	5.73
266.077	18.5
266.294	6.9
266.51	-52.95
266.727	-41.14
266.944	-53.42
267.161	-63.71
267.378	-56.33
267.595	-1.64
267.812	-35.43
268.028	-62.87
268.245	-20.22
268.462	-49.97
268.679	-87.06
268.896	-15.58
269.112	4.16
269.329	-6.21
269.546	5.09
269.763	5.12
269.979	-12.28
270.196	-32.07
270.413	-69.57
270.629	-76.46
270.846	-64.83
271.063	-67.09
271.279	-70.81
271.496	-62.26
271.712	-45.98
271.929	-50.33
272.146	-66.86
272.362	-56.23
272.579	-3.04
272.795	18.94
273.012	20.76
273.228	14.23
273.445	-4.75
273.661	-46.02
273.878	-91.01
274.094	-85.12
274.311	-92.06
274.527	-14.88
274.744	-9.73
274.96	-2.22
275.177	4.27
275.393	25.26
275.609	10.78
275.826	28.24
276.042	21.22
276.259	9.19
276.475	23.31
276.691	39.64
276.908	13.42
277.124	27.23
277.34	35.28
277.557	18.07
277.773	-10.77
277.989	-17.07
278.205	-19.78
278.422	-5.4
278.638	-4.39
278.854	1.51
279.07	-0.62
279.286	-18.23
279.503	-69.5
279.719	-77.82
279.935	-91.24
280.151	-93.52
280.367	-50.91
280.583	-52.46
280.799	-55.54
281.016	-84.25
281.232	-36.44
281.448	-42.52
281.664	-1.92
281.88	-21.71
282.096	10.2
282.312	11.48
282.528	11.54
282.744	-2.62
282.96	0.59
283.176	5.67
283.392	0.76
283.608	-11.8
283.824	-23.13
284.04	-16.28
284.256	-30.38
284.471	-36.7
284.687	-27.11
284.903	-4.96
285.119	35.73
285.335	17.38
285.551	32.79
285.767	20.6
285.982	-0.44
286.198	-63.35
286.414	-6.91
286.63	-4.86
286.846	14.64
287.061	1.74
287.277	36.66
287.493	-4.93
287.709	8
287.924	-11.89
288.14	22.41
288.356	5.62
288.571	32.02
288.787	-2.52
289.003	-4.01
289.218	-26.07
289.434	-62.85
289.65	-54.49
289.865	-53.02
290.081	-38.97
290.296	-21.73
290.512	-5.92
290.727	-30.27
290.943	-23.36
291.159	-29.6
291.374	-34.83
291.59	-58.12
291.805	-58.69
292.021	-55.42
292.236	-60.72
292.451	-35.19
292.667	-16.32
292.882	5.23
293.098	4.1
293.313	-9.79
293.529	-44.83
293.744	-72.87
293.959	-72.34
294.175	-57.66
294.39	-10.64
294.605	5.2
294.821	45.46
295.036	52.08
295.251	54.99
295.467	11.67
295.682	-7.09
295.897	-79.42
296.112	-96.14
296.328	-89.49
296.543	-110.13
296.758	-96.6
296.973	-29.74
297.188	6.1
297.404	-26.38
297.619	-32.21
297.834	-40.49
298.049	-72.11
298.264	-105.18
298.479	-46.97
298.694	-28.67
298.909	-5.75
299.125	-9.63
299.34	-10.17
299.555	-29.64
299.77	-10.68
299.985	-70.84
300.2	-127.39
300.415	-144.83
300.63	-99.53
300.845	-100.25
301.06	-90.36
301.275	-39.73
301.49	-10.45
301.704	-32.14
301.919	-55.64
302.134	-66.03
302.349	-59.64
302.564	-133.95
302.779	-168.4
302.994	-148.2
303.209	-74.69
303.423	-36.65
303.638	39.18
303.853	4.79
304.068	-7.07
304.283	-9.45
304.497	-26.53
304.712	-54.97
304.927	-40.95
305.142	-33.74
305.356	-23.72
305.571	-33.22
305.786	-37.92
306	-51.03
306.215	-61.5
306.43	-95.2
306.644	-77.34
306.859	-32.6
307.074	-4.98
307.288	-43.24
307.503	-40.64
307.717	-49.97
307.932	-47.93
308.147	-56.28
308.361	-8.34
308.576	-12.74
308.79	-46.73
309.005	-53.22
309.219	-45.8
309.434	-77.28
309.648	-71.4
309.863	-37.62
310.077	-37.55
310.292	-19.86
310.506	-2.62
310.72	9.66
310.935	21.17
311.149	9.88
311.364	24.19
311.578	29.81
311.792	10.75
312.007	10.81
312.221	2.46
312.435	-6.26
312.649	-24.22
312.864	4.32
313.078	41.75
313.292	121.22
313.507	122.59
313.721	171.71
313.935	76.88
314.149	39.46
314.363	7.81
314.578	4.68
314.792	9.84
315.006	-8.37
315.22	11.5
315.434	28.54
315.648	38.14
315.862	34.34
316.077	32.12
316.291	11.61
316.505	10.14
316.719	-34.18
316.933	-54.39
317.147	-34.59
317.361	-98.3
317.575	-126.81
317.789	-145.84
318.003	-189.24
318.217	-174.09
318.431	-50.71
318.645	-9.53
318.859	-14.41
319.073	13.52
319.287	-1.5
319.5	-39.56
319.714	-91.52
319.928	-111.28
320.142	-157.52
320.356	-88.12
320.57	-45.54
320.784	-44.51
320.997	-41.94
321.211	-27.74
321.425	-98.78
321.639	-119.57
321.853	-57.07
322.066	-46.56
322.28	-52.02
322.494	-36.76
322.707	-10.99
322.921	-28.32
323.135	-27.87
323.349	-15.17
323.562	-38.52
323.776	-58.19
323.989	-56.33
324.203	-81.67
324.417	-106.39
324.63	-110.34
324.844	-109.51
325.057	-116.85
325.271	-79.35
325.485	-32.27
325.698	-8.32
325.912	4.54
326.125	-4.49
326.339	-6.69
326.552	-26.24
326.766	-38.14
326.979	-25.58
327.193	16.09
327.406	1.36
327.619	3.33
327.833	24.95
328.046	-8.05
328.26	-69.54
328.473	-32.58
328.686	-70.13
328.9	-63.34
329.113	-31.85
329.326	-31.08
329.54	-30.04
329.753	-29.75
329.966	-69.39
330.179	-65.32
330.393	-28.32
330.606	-26.51
330.819	0.99
331.032	20.21
331.246	32.4
331.459	58.83
331.672	46.01
331.885	35.42
332.098	4.08
332.311	-21.91
332.525	-98.05
332.738	-87.49
332.951	-41.24
333.164	3.48
333.377	8.39
333.59	33.51
333.803	27.94
334.016	-3.9
334.229	-22.75
334.442	-10.33
334.655	-16.71
334.868	-7.64
335.081	-4.79
335.294	-38.17
335.507	-76.45
335.72	-64.47
335.933	-68.5
336.146	-76.13
336.359	-57.47
336.572	-62.27
336.785	-86.71
336.997	-74.98
337.21	-41.62
337.423	-37.86
337.636	-35.55
337.849	-24.75
338.062	-24.01
338.274	-26.14
338.487	-44.9
338.7	-55.81
338.913	-94.74
339.125	-131.16
339.338	-209.53
339.551	-173.66
339.763	-71.96
339.976	-38.44
340.189	4.36
340.402	16.11
340.614	9.13
340.827	-27.04
341.039	-48.46
341.252	-65.05
341.465	-46.13
341.677	-57.99
341.89	-119.2
342.102	-58.22
342.315	-76.15
342.527	-126.55
342.74	-92.75
342.952	-31.69
343.165	-44.82
343.377	-3.44
343.59	-1.44
343.802	17.13
344.015	28.62
344.227	40.64
344.44	15.68
344.652	29.21
344.864	-0.03
345.077	18.2
345.289	15.1
345.502	25.81
345.714	18.91
345.926	24.69
346.139	15.6
346.351	20.04
346.563	16.06
346.775	21.91
346.988	12.02
347.2	-13.94
347.412	-61.45
347.624	-72.89
347.837	-94.93
348.049	-50.91
348.261	0.99
348.473	25.31
348.685	15.2
348.897	-3
349.11	-32.75
349.322	-76.83
349.534	-74.64
349.746	-60.26
349.958	-42.51
350.17	-51.45
350.382	-30.32
350.594	-29.34
350.806	-26.41
351.018	-22.78
351.23	-42.6
351.442	-89.43
351.654	-109.28
351.866	-106.44
352.078	-78.67
352.29	-15.35
352.502	6.46
352.714	13.94
352.926	6.92
353.138	6.32
353.35	-13.29
353.561	-18
353.773	-35.67
353.985	-21.99
354.197	-34.05
354.409	-32.21
354.621	-36.93
354.832	-24.41
355.044	-34.65
355.256	-38.66
355.468	-27.88
355.679	-31.89
355.891	-24.06
356.103	-40.36
356.314	-42.86
356.526	-37.73
356.738	-13.4
356.949	-17.83
357.161	6.37
357.373	13.35
357.584	-9.73
357.796	-15.78
358.008	-26.33
358.219	-10.97
358.431	-8.11
358.642	-5.36
358.854	-2.56
359.065	-8.1
359.277	-50.82
359.488	-68.07
359.7	-95.13
359.911	-107.44
360.123	-67.4
360.334	-70.33
360.546	-79.84
360.757	-67.55
360.969	-45.75
361.18	-63.77
361.391	-34.74
361.603	-39.55
361.814	-30.14
362.025	-42.08
362.237	-36.34
362.448	-22.61
362.659	-3.91
362.871	1.21
363.082	12.8
363.293	4.36
363.504	-22.21
363.716	-40.15
363.927	-55.2
364.138	-93.73
364.349	-99.54
364.56	-87.06
364.772	-76.31
364.983	-41.6
365.194	-41.71
365.405	-22.47
365.616	2.7
365.827	7.68
366.038	-27.11
366.25	-22.32
366.461	-60.07
366.672	-42.2
366.883	-25.04
367.094	-15.83
367.305	-27.6
367.516	-20.63
367.727	-61.34
367.938	-79.35
368.149	-74.29
368.36	-41.11
368.571	-22.63
368.781	-29.45
368.992	-47.41
369.203	-73.16
369.414	-109.9
369.625	-138.28
369.836	-108.67
370.047	-124.03
370.258	-87.66
370.468	-86.38
370.679	-93.71
370.89	-97.42
371.101	-63.08
371.312	-75.31
371.522	-60.09
371.733	-41.14
371.944	-17.57
372.155	-10.03
372.365	-14.78
372.576	-17.11
372.787	-14.33
372.997	-45.64
373.208	-52.51
373.419	-17.36
373.629	-42.02
373.84	-39.31
374.05	-52.6
374.261	-43.8
374.472	-68.87
374.682	-12.66
374.893	-22.64
375.103	21.08
375.314	20.97
375.524	23.1
375.735	19.86
375.945	27.44
376.156	-10.02
376.366	-14.92
376.577	-9.27
376.787	-35.69
376.997	-46.58
377.208	-34.79
377.418	-48.72
377.629	-40.34
377.839	-30.3
378.049	-22.53
378.26	-3.81
378.47	10.11
378.68	-1.86
378.89	-9.04
379.101	-16.15
379.311	-52.83
379.521	-92.76
379.732	-92.35
379.942	-69.82
380.152	-89.27
380.362	-41.19
380.572	-30.59
380.783	-21.34
380.993	-13.08
381.203	8.23
381.413	8.87
381.623	13.83
381.833	10.38
382.043	-5.66
382.253	-22.65
382.463	-28.74
382.674	-43.61
382.884	-58.06
383.094	-56.2
383.304	-41.08
383.514	-33.33
383.724	-18.61
383.934	-20.92
384.144	-28.36
384.353	-41.43
384.563	-46.83
384.773	-37.41
384.983	-40.69
385.193	-24.63
385.403	-12.15
385.613	-6.99
385.823	-23.35
386.033	-11.75
386.242	-20.02
386.452	-22.05
386.662	-32.38
386.872	-14.83
387.082	-28.4
387.291	-32.41
387.501	-28.68
387.711	-19.17
387.921	-33
388.13	-23.73
388.34	-6.48
388.55	-15.17
388.759	-15.44
388.969	-3.15
389.179	-7.88
389.388	-13.82
389.598	-6.8
389.807	-12.1
390.017	-21.35
390.227	-17.21
390.436	-16.78
390.646	-18.59
390.855	-12.18
391.065	-10.31
391.274	-13.07
391.484	-15.46
391.693	-9.58
391.903	-10.82
392.112	-2.52
392.322	1.17
392.531	6.09
392.74	4.32
392.95	-0.31
393.159	-3.61
393.369	-2.53
393.578	-3.89
393.787	-4.98
393.997	-1.65
394.206	-2.87
394.415	-4.19
394.625	-4.61
394.834	-6.12
395.043	-4.85
395.252	-2.25
395.462	1.42
395.671	2.62
395.88	4.35
396.089	3.29
396.298	0.88
396.508	-1.2
396.717	-1.83
396.926	-1.2
397.135	-0.37
397.344	-0.49
397.553	0.87
397.762	1.98
397.971	1.64
398.181	1.03
398.39	0.72
398.599	0.25
398.808	0.28
399.017	1.62
399.226	2.76
399.435	4.17
399.644	4.36
399.853	3.59
400.062	2.72
400.27	2.6
400.479	1.96
400.688	1.3
400.897	1.59
401.106	1.42
401.315	0.92
401.524	1.09
401.733	1.59
401.941	2
402.15	2.54
402.359	2.71
402.568	3.06
402.777	3.29
402.985	3.2
403.194	2.93
403.403	2.97
403.612	2.45
403.82	1.97
404.029	1.95
404.238	1.87
404.446	2.03
404.655	2.03
404.864	2.17
405.072	1.85
405.281	2.15
405.489	1.83
405.698	2.01
405.906	2.06
406.115	2.24
406.324	1.97
406.532	2.23
406.741	2.46
406.949	2.39
407.158	2.33
407.366	2.45
407.574	2.42
407.783	2.34
407.991	2.15
408.2	2.45
408.408	2.38
408.617	2.24
408.825	1.98
409.033	2.18
409.242	2.08
409.45	2.17
409.658	2.06
409.867	2.32
410.075	2.14
410.283	1.97
410.491	1.81
410.7	1.88
410.908	1.78
411.116	2.04
411.324	2
411.533	1.94
411.741	2.07
411.949	2.12
412.157	1.88
412.365	1.98
412.573	2.11
412.781	2.08
412.99	1.99
413.198	2.23
413.406	2.24
413.614	2.26
413.822	2.2
414.03	2.07
414.238	1.77
414.446	1.84
414.654	1.58
414.862	1.81
415.07	1.95
415.278	2.26
415.486	2.01
415.694	2.15
415.902	1.82
416.109	1.59
416.317	1.45
416.525	1.35
416.733	1.25
416.941	1.53
417.149	1.64
417.357	1.7
417.564	1.87
417.772	2.3
417.98	2.09
418.188	2.13
418.395	2.14
418.603	2.41
418.811	1.88
419.019	1.89
419.226	2.13
419.434	2.24
419.642	1.87
419.849	2.17
420.057	2.27
420.265	2.2
420.472	1.96
420.68	2.16
420.887	2
421.095	2.03
421.302	1.92
421.51	2.18
421.717	2.32
421.925	2.42
422.132	2.19
422.34	1.96
422.547	1.74
422.755	1.48
422.962	1.3
423.17	1.26
423.377	1.48
423.585	1.5
423.792	1.39
423.999	1.52
424.207	1.61
424.414	1.62
424.621	1.68
424.829	1.79
425.036	1.85
425.243	1.93
425.451	1.78
425.658	1.56
425.865	1.81
426.072	1.78
426.28	1.98
426.487	2.05
426.694	2.19
426.901	1.95
427.108	1.84
427.315	1.55
427.523	1.88
427.73	1.92
427.937	1.77
428.144	1.72
428.351	1.84
428.558	1.82
428.765	1.66
428.972	1.69
429.179	1.88
429.386	2.09
429.593	1.74
429.8	1.64
430.007	1.71
430.214	1.71
430.421	1.52
430.628	1.41
430.835	1.4
431.042	1.63
431.249	1.68
431.456	1.65
431.662	1.76
431.869	1.93
432.076	1.95
432.283	2.03
432.49	2.11
432.697	2.32
432.903	2.11
433.11	1.97
433.317	1.99
433.524	2.14
433.73	1.94
433.937	2.34
434.144	2.17
434.35	2.14
434.557	1.93
434.764	1.99
434.97	1.78
435.177	2.11
435.384	1.92
435.59	2.07
435.797	2.2
436.003	2.33
436.21	2.18
436.416	2.35
436.623	2.19
436.829	2.23
437.036	2.25
437.242	2.18
437.449	2.12
437.655	2.14
437.862	2.12
438.068	2.06
438.275	2.26
438.481	2.39
438.687	2.35
438.894	2.33
439.1	2.35
439.307	2.42
439.513	2.39
439.719	2.4
439.926	2.44
440.132	2.43
440.338	2.29
440.544	2.47
440.751	2.39
440.957	2.43
441.163	2.36
441.369	2.4
441.575	2.11
441.782	2.19
441.988	1.99
442.194	2.06
442.4	2.06
442.606	2.34
442.812	2.36
443.018	2.55
443.224	2.57
443.431	2.62
443.637	2.36
443.843	2.3
444.049	2.22
444.255	2.22
444.461	2.28
444.667	2.26
444.873	2.48
445.079	2.51
445.284	2.56
445.49	2.26
445.696	2.11
445.902	1.95
446.108	1.92
446.314	1.76
446.52	1.96
446.726	2.24
446.931	2.2
447.137	2.25
447.343	2.41
447.549	2.32
447.755	2.18
447.96	2.32
448.166	2.21
448.372	2.03
448.578	2.13
448.783	2.25
448.989	2.22
449.195	2.43
449.4	2.44
449.606	2.38
449.812	2.21
450.017	2.24
450.223	2.05
450.428	2.07
450.634	2.26
450.84	2.44
451.045	2.42
451.251	2.34
451.456	2.58
451.662	2.52
451.867	2.58
452.073	2.6
452.278	2.79
452.483	2.83
452.689	2.67
452.894	2.65
453.1	2.57
453.305	2.45
453.51	2.33
453.716	2.29
453.921	2.27
454.127	2.31
454.332	2.34
454.537	2.23
454.742	2.27
454.948	2.28
455.153	2.35
455.358	2.43
455.563	2.75
455.769	2.9
455.974	2.78
456.179	2.65
456.384	2.64
456.589	2.46
456.795	2.24
457	2.3
