Data from Ofra_PS_T2_2A_1GT36_Reflection_2.txt Node
Date: Wed Jul 21 16:53:30 EDT 2021
User: Adam
Spectrometer: FLMT01687
Trigger mode: 0
Integration Time (sec): 1.100000E0
Scans to average: 2
Electric dark correction enabled: true
Nonlinearity correction enabled: false
Boxcar width: 2
XAxis mode: Wavelengths
Number of Pixels in Spectrum: 3648
>>>>>Begin Spectral Data<<<<<
179.494	365.8
179.716	378.12
179.937	405.9
180.158	403.56
180.38	778.28
180.601	441.02
180.823	197.25
181.044	44.19
181.265	86.21
181.486	31.43
181.708	22.92
181.929	6.63
182.15	-152.46
182.372	53.63
182.593	91.9
182.814	47.46
183.035	27.61
183.257	43.07
183.478	34.41
183.699	37.85
183.92	17.38
184.141	36.84
184.363	-13.76
184.584	-23.05
184.805	-20.97
185.026	19.72
185.247	35.91
185.468	22.52
185.689	12.46
185.91	29.04
186.132	6.04
186.353	-5.31
186.574	58.2
186.795	91.79
187.016	89.03
187.237	87.73
187.458	98.47
187.679	40.8
187.9	-11.86
188.121	-33.94
188.342	-47.47
188.563	15.23
188.784	29.2
189.005	23.05
189.226	66.16
189.447	36.86
189.667	-247.69
189.888	-320.81
190.109	-686.04
190.33	-364.03
190.551	-600.22
190.772	-41.46
190.993	-73.09
191.214	-34.77
191.434	1.33
191.655	1.44
191.876	-74.64
192.097	-69.8
192.318	-110.71
192.538	-241.13
192.759	-100.68
192.98	-15.01
193.201	11.6
193.421	24.88
193.642	37.04
193.863	27.37
194.083	19.88
194.304	17.86
194.525	12.8
194.745	-1.98
194.966	2.38
195.187	14.51
195.407	4.32
195.628	0.85
195.848	-13.85
196.069	1.67
196.29	-23.76
196.51	-15.71
196.731	-35.5
196.951	-10.63
197.172	-7.73
197.392	-25.97
197.613	-58.6
197.833	-56.51
198.054	-70.72
198.274	-30.91
198.495	-24.67
198.715	18.76
198.936	9.35
199.156	35.21
199.377	-12.17
199.597	-11.23
199.817	-51.47
200.038	-8.86
200.258	-48.11
200.479	-29.39
200.699	-26.02
200.919	25.87
201.14	-4.88
201.36	-34.21
201.58	16.13
201.801	27.42
202.021	6.25
202.241	5.2
202.461	17.14
202.682	-28.43
202.902	-55.09
203.122	-9.75
203.342	0.58
203.563	29.15
203.783	37.38
204.003	6.63
204.223	-0.35
204.443	28.71
204.663	-9.81
204.884	8.29
205.104	50.45
205.324	40.08
205.544	64.92
205.764	60.56
205.984	43.47
206.204	39.9
206.424	41.83
206.644	20.32
206.864	26.12
207.084	20.44
207.304	39.52
207.525	88.05
207.745	83.82
207.964	80.44
208.184	60.16
208.404	22.15
208.624	3.91
208.844	-11.82
209.064	-187.38
209.284	-190.48
209.504	-85.04
209.724	14.92
209.944	28.78
210.164	57.29
210.384	60.68
210.604	45.92
210.823	-13.61
211.043	-41.32
211.263	-28.39
211.483	-49.16
211.703	-60.84
211.922	-35.77
212.142	11.15
212.362	17.46
212.582	25.32
212.801	29.09
213.021	16.66
213.241	3.18
213.461	-20.93
213.68	-28.26
213.9	-51.98
214.12	-25.24
214.339	-46.6
214.559	-40.5
214.779	-17.36
214.998	4.02
215.218	-25.27
215.438	-9.05
215.657	0.81
215.877	-15.68
216.096	20.48
216.316	29.81
216.535	30.68
216.755	18.18
216.974	1.71
217.194	-69.38
217.413	-94.75
217.633	-100.17
217.852	-167.61
218.072	-63.48
218.291	-15.94
218.511	24.02
218.73	-7.45
218.95	-7.17
219.169	-12.94
219.389	-48.73
219.608	-38.97
219.827	-34.46
220.047	-4.39
220.266	-2.93
220.485	15.38
220.705	19.69
220.924	10.44
221.143	30.92
221.363	26.71
221.582	28.57
221.801	28.19
222.021	58.48
222.24	30.97
222.459	98.58
222.678	56.68
222.897	24.17
223.117	-23.04
223.336	-33.27
223.555	-21.2
223.774	19.21
223.993	23.01
224.213	75.55
224.432	54.88
224.651	41.85
224.87	17.91
225.089	28.01
225.308	11.73
225.527	27.49
225.746	26.57
225.965	28.92
226.184	3.17
226.404	16.41
226.623	-5.76
226.842	-7.62
227.061	9.08
227.28	13.54
227.499	-0.88
227.718	13.56
227.936	10.85
228.155	17.9
228.374	27.29
228.593	29.11
228.812	39.88
229.031	40.72
229.25	-5.89
229.469	-3.53
229.688	5.39
229.907	18.03
230.125	34.11
230.344	47.15
230.563	43.03
230.782	54.41
231.001	15.4
231.22	7.91
231.438	24.89
231.657	31.77
231.876	18.03
232.095	43.25
232.313	47.08
232.532	44.28
232.751	31.28
232.969	25.3
233.188	2.96
233.407	56.48
233.625	46.85
233.844	65.74
234.063	43.11
234.281	49.08
234.5	16.53
234.719	11.33
234.937	4.48
235.156	21.71
235.374	13.73
235.593	14.34
235.811	-0.98
236.03	-5.29
236.249	-40.07
236.467	-3.8
236.686	-0.01
236.904	18.62
237.123	13.25
237.341	17.57
237.559	11.48
237.778	12.34
237.996	10.16
238.215	34.74
238.433	33.28
238.652	25.89
238.87	8.96
239.088	15.76
239.307	15.26
239.525	8.76
239.743	6.49
239.962	28.94
240.18	-4.65
240.398	-57.76
240.617	-40.26
240.835	-15.2
241.053	-0.88
241.271	24.1
241.49	45.67
241.708	18.01
241.926	-31.23
242.144	-15.4
242.363	-48.78
242.581	-53.54
242.799	6.47
243.017	29.06
243.235	15.97
243.453	38.03
243.672	32.17
243.89	24.24
244.108	19.76
244.326	29.2
244.544	34.24
244.762	43.1
244.98	33.77
245.198	43.17
245.416	13.7
245.634	3.32
245.852	-15.14
246.07	0.87
246.288	3.34
246.506	9.36
246.724	24.2
246.942	14.87
247.16	39.97
247.378	43.79
247.596	55.02
247.814	54.65
248.032	35.13
248.25	18.69
248.468	11.5
248.685	24.43
248.903	32.58
249.121	44.76
249.339	28.42
249.557	11.35
249.775	-5.17
249.992	-44.76
250.21	-33.5
250.428	-28.09
250.646	-40.29
250.863	-42.12
251.081	-11.11
251.299	-21.97
251.517	-21.95
251.734	-7.81
251.952	4.68
252.17	3.99
252.387	22.74
252.605	22.43
252.823	25.76
253.04	21.85
253.258	26.16
253.475	2.43
253.693	19.83
253.911	46.37
254.128	75.77
254.346	64.09
254.563	49.92
254.781	26.25
254.998	-13.97
255.216	-55.57
255.433	-21.84
255.651	14.24
255.868	39.56
256.086	63.39
256.303	71.76
256.521	59.48
256.738	27.78
256.956	-7
257.173	-47.72
257.39	-65.37
257.608	-94.68
257.825	-31.86
258.043	24.22
258.26	62.5
258.477	89.33
258.695	88.54
258.912	53.48
259.129	29.93
259.346	-16.3
259.564	-54.45
259.781	-69.83
259.998	-21.89
260.216	6.64
260.433	36.53
260.65	43.03
260.867	56.16
261.084	42.48
261.302	13.86
261.519	24.6
261.736	-4.12
261.953	-30.67
262.17	-15.83
262.387	-36.32
262.604	-64.42
262.822	-58.06
263.039	-43.36
263.256	-66.13
263.473	-33.57
263.69	-14.87
263.907	10.95
264.124	26.11
264.341	20.64
264.558	26.79
264.775	28.81
264.992	36.39
265.209	33.11
265.426	55.65
265.643	54.01
265.86	69.92
266.077	61.78
266.294	44.51
266.51	-1.85
266.727	-7.03
266.944	-6.93
267.161	-20.07
267.378	-17.16
267.595	19.44
267.812	-9.92
268.028	-24.86
268.245	7.22
268.462	10.46
268.679	14.09
268.896	48.03
269.112	35.59
269.329	25.35
269.546	11.76
269.763	-7.49
269.979	-2.84
270.196	25.21
270.413	15.74
270.629	19.19
270.846	1.62
271.063	-6.78
271.279	-27.52
271.496	-27.39
271.712	0.39
271.929	24.26
272.146	10.63
272.362	-0.84
272.579	36.17
272.795	39.06
273.012	36.81
273.228	44.13
273.445	43.54
273.661	44.5
273.878	29.01
274.094	34.9
274.311	19.39
274.527	51.27
274.744	33.08
274.96	18.09
275.177	21.29
275.393	25.88
275.609	17.31
275.826	40.33
276.042	38.02
276.259	36.28
276.475	46.66
276.691	36.95
276.908	5.46
277.124	9.12
277.34	4.05
277.557	-15.64
277.773	-22.14
277.989	-11.32
278.205	-3.8
278.422	11.34
278.638	8.28
278.854	39.91
279.07	39.19
279.286	46.05
279.503	28.64
279.719	45.24
279.935	21.28
280.151	29.34
280.367	25.31
280.583	5.7
280.799	4.44
281.016	-18.23
281.232	-0.17
281.448	-4.61
281.664	32.48
281.88	18.73
282.096	45
282.312	61.43
282.528	76.15
282.744	57.5
282.96	48.67
283.176	30.66
283.392	16.85
283.608	24.27
283.824	16.32
284.04	36.34
284.256	47.85
284.471	47.61
284.687	32.08
284.903	56.27
285.119	43.5
285.335	26.19
285.551	20.87
285.767	24.95
285.982	23.08
286.198	12.64
286.414	65.68
286.63	59.75
286.846	56.62
287.061	40.83
287.277	58.18
287.493	24.24
287.709	30.71
287.924	36.9
288.14	63.69
288.356	47.28
288.571	62.34
288.787	44.88
289.003	29.87
289.218	3.54
289.434	-12.73
289.65	-10.87
289.865	1.82
290.081	28.15
290.296	34.99
290.512	59.86
290.727	30.41
290.943	23.14
291.159	5.64
291.374	11.54
291.59	-8.26
291.805	3.25
292.021	7.72
292.236	20.44
292.451	30.48
292.667	38.68
292.882	47.78
293.098	48.42
293.313	42.71
293.529	20.04
293.744	7.26
293.959	2.06
294.175	0.79
294.39	18.03
294.605	26.57
294.821	49.08
295.036	57.2
295.251	57.93
295.467	48.24
295.682	51.96
295.897	11
296.112	-5.09
296.328	-2.1
296.543	-20.04
296.758	-35.18
296.973	6.82
297.188	35.19
297.404	24.5
297.619	12.54
297.834	12.09
298.049	-23.83
298.264	-47.62
298.479	2.39
298.694	7.74
298.909	27.34
299.125	40.78
299.34	41.82
299.555	6.64
299.77	30.18
299.985	-8.22
300.2	-42.53
300.415	-54.76
300.63	-22.15
300.845	-36.1
301.06	-21.24
301.275	-0.73
301.49	27.9
301.704	19.12
301.919	8.91
302.134	-2.13
302.349	6.73
302.564	-50.89
302.779	-46.24
302.994	-8.5
303.209	22.88
303.423	8.6
303.638	37.27
303.853	1.53
304.068	4.99
304.283	-9.44
304.497	-6.13
304.712	-5.61
304.927	8.73
305.142	10.17
305.356	30.65
305.571	22.33
305.786	8.8
306	3.47
306.215	-1.57
306.43	-31.89
306.644	3.83
306.859	51.87
307.074	51.63
307.288	28.64
307.503	37.51
307.717	14.98
307.932	-1.79
308.147	-12.98
308.361	6.67
308.576	5.1
308.79	-15.24
309.005	2.22
309.219	22.04
309.434	10.99
309.648	21.32
309.863	23.74
310.077	7.03
310.292	-4.52
310.506	2.4
310.72	3.66
310.935	8.02
311.149	9.89
311.364	26.33
311.578	31.02
311.792	29.75
312.007	40.38
312.221	36.43
312.435	30.89
312.649	22.15
312.864	61.9
313.078	57.13
313.292	112.17
313.507	99.11
313.721	132.67
313.935	51.7
314.149	60.37
314.363	42.49
314.578	63.81
314.792	50.57
315.006	43.75
315.22	43.06
315.434	43.19
315.648	44.34
315.862	50.88
316.077	58.27
316.291	40.01
316.505	49.17
316.719	24.35
316.933	34.08
317.147	4.33
317.361	-22.03
317.575	-44.5
317.789	-61.99
318.003	-134.55
318.217	-85.22
318.431	-10.61
318.645	30.24
318.859	33.7
319.073	57.25
319.287	45.16
319.5	30.65
319.714	8
319.928	-4.12
320.142	-33.14
320.356	5.58
320.57	31.17
320.784	13.96
320.997	5.08
321.211	-1.55
321.425	-40.6
321.639	-74.63
321.853	-43.47
322.066	-27.65
322.28	-17.07
322.494	-13.4
322.707	-0.19
322.921	11.16
323.135	21.7
323.349	33.06
323.562	28.09
323.776	23.99
323.989	8.57
324.203	-3.39
324.417	-34.73
324.63	-58.51
324.844	-50.85
325.057	-36.86
325.271	-14.95
325.485	25.65
325.698	41.49
325.912	51.86
326.125	43.32
326.339	32.08
326.552	0.38
326.766	5.65
326.979	15.27
327.193	44.54
327.406	44.65
327.619	48.19
327.833	47.76
328.046	22.68
328.26	-12.13
328.473	-0.33
328.686	-19
328.9	-36.37
329.113	-15.83
329.326	-31.56
329.54	-22.46
329.753	-29.24
329.966	-16.85
330.179	-34.84
330.393	-2.75
330.606	-2.09
330.819	14.98
331.032	27.12
331.246	35.54
331.459	46.11
331.672	38.31
331.885	31.07
332.098	13.98
332.311	0.94
332.525	-39.64
332.738	-43.04
332.951	-22.91
333.164	11.22
333.377	30.48
333.59	40.51
333.803	46.95
334.016	42.04
334.229	33.21
334.442	24.47
334.655	44.03
334.868	42.93
335.081	25.67
335.294	24.86
335.507	16.21
335.72	14.84
335.933	1.35
336.146	9.69
336.359	-11.82
336.572	-31.34
336.785	-78.52
336.997	-45.9
337.21	-22.29
337.423	-13.09
337.636	-0.89
337.849	31.39
338.062	3.57
338.274	5.24
338.487	-1.71
338.7	-8.27
338.913	-32.71
339.125	-23.53
339.338	-69.95
339.551	-40.46
339.763	-9.01
339.976	-7.7
340.189	0.98
340.402	18.4
340.614	12.77
340.827	3.98
341.039	5.45
341.252	15.91
341.465	18.65
341.677	11.37
341.89	-19.95
342.102	-12
342.315	-35.93
342.527	-70.59
342.74	-49.64
342.952	-9.11
343.165	-2.04
343.377	12.86
343.59	8.07
343.802	11.38
344.015	-0.46
344.227	-10.48
344.44	-0.96
344.652	9.63
344.864	10.87
345.077	31.45
345.289	36.62
345.502	30.24
345.714	31.2
345.926	29.99
346.139	20.86
346.351	27.39
346.563	33.08
346.775	43.21
346.988	32.78
347.2	35.23
347.412	8.76
347.624	3.46
347.837	-25.26
348.049	-2.16
348.261	-4.12
348.473	-3.74
348.685	-10.62
348.897	-17.48
349.11	-32.57
349.322	-60.43
349.534	-34.45
349.746	-26.95
349.958	-9.36
350.17	-2.99
350.382	17.64
350.594	20.1
350.806	27.95
351.018	23.59
351.23	25.4
351.442	-4.15
351.654	-11.32
351.866	-21.5
352.078	-15.03
352.29	7.18
352.502	21.52
352.714	21.89
352.926	13.87
353.138	13.29
353.35	4.74
353.561	4.88
353.773	-2.26
353.985	15.34
354.197	13.46
354.409	4.19
354.621	2.44
354.832	7.87
355.044	-2.13
355.256	-6.22
355.468	8.46
355.679	6.69
355.891	16.06
356.103	16.53
356.314	31.62
356.526	23.91
356.738	38.09
356.949	12.96
357.161	9.94
357.373	2.08
357.584	10.32
357.796	12.15
358.008	12.88
358.219	26.22
358.431	19.81
358.642	11.21
358.854	4.92
359.065	7.9
359.277	-7.51
359.488	-13.09
359.7	-15.1
359.911	-20.93
360.123	-15.26
360.334	-33.69
360.546	-42.76
360.757	-38.57
360.969	-33.18
361.18	-14.47
361.391	18.3
361.603	19.03
361.814	29.18
362.025	31.05
362.237	12.43
362.448	21.37
362.659	36.36
362.871	31.14
363.082	18.23
363.293	20.05
363.504	7.82
363.716	-21.81
363.927	-39.58
364.138	-47.96
364.349	-54.46
364.56	-51.15
364.772	-30.16
364.983	-3.34
365.194	5.05
365.405	14.14
365.616	21.75
365.827	26.14
366.038	5.15
366.25	7.8
366.461	-10.64
366.672	-0.53
366.883	-1.21
367.094	7.89
367.305	7.85
367.516	21.64
367.727	7.38
367.938	12.12
368.149	20.03
368.36	20.74
368.571	21.82
368.781	9.27
368.992	-1.72
369.203	-19.48
369.414	-37.87
369.625	-48.61
369.836	-32.61
370.047	-40.04
370.258	-15.42
370.468	-11.63
370.679	-20.14
370.89	-8.52
371.101	6.13
371.312	-4.96
371.522	0.14
371.733	0.54
371.944	4.14
372.155	1.06
372.365	-4.41
372.576	6.83
372.787	18.35
372.997	11.43
373.208	15.79
373.419	40.01
373.629	8.32
373.84	-2.74
374.05	-11.55
374.261	-13.03
374.472	-30.01
374.682	10.07
374.893	9.12
375.103	36.22
375.314	25.86
375.524	20.15
375.735	9.55
375.945	12.48
376.156	-4.42
376.366	3.89
376.577	9.47
376.787	15.79
376.997	15.72
377.208	10.39
377.418	2.13
377.629	6.49
377.839	4.42
378.049	9.76
378.26	18.96
378.47	24.91
378.68	18.4
378.89	20.06
379.101	20.5
379.311	0.96
379.521	-15.35
379.732	-13.43
379.942	-18.73
380.152	-39.16
380.362	-8.74
380.572	3.33
380.783	16.28
380.993	26.22
381.203	36.66
381.413	37.55
381.623	36.16
381.833	38.67
382.043	24.22
382.253	18.25
382.463	15.97
382.674	0.69
382.884	-23.7
383.094	-14.82
383.304	-3.97
383.514	1.89
383.724	23.39
383.934	27.05
384.144	14.12
384.353	6.27
384.563	6.66
384.773	6.6
384.983	1.79
385.193	18.48
385.403	19.58
385.613	17.75
385.823	3.53
386.033	7.53
386.242	3.66
386.452	2.06
386.662	-9.1
386.872	5.46
387.082	2.14
387.291	-7.88
387.501	-6.77
387.711	0.73
387.921	-10.23
388.13	-5.73
388.34	7.27
388.55	5.2
388.759	2.46
388.969	6.42
389.179	1.73
389.388	-0.97
389.598	3.15
389.807	2.07
390.017	-0.32
390.227	2.67
390.436	-0.4
390.646	-2.14
390.855	-1.67
391.065	-3.53
391.274	-4.77
391.484	-3.33
391.693	-0.59
391.903	0.31
392.112	7.54
392.322	8.62
392.531	10.38
392.74	8.49
392.95	5.97
393.159	1.65
393.369	0.72
393.578	-0.87
393.787	-0.61
393.997	0.97
394.206	-0.34
394.415	-0.48
394.625	-0.65
394.834	-1.29
395.043	-0.61
395.252	3
395.462	4.98
395.671	4.85
395.88	5.5
396.089	5.99
396.298	3.38
396.508	2.27
396.717	2.34
396.926	3.07
397.135	2.14
397.344	2.73
397.553	4.17
397.762	5.35
397.971	4.86
398.181	5.86
398.39	5.21
398.599	4.33
398.808	4.28
399.017	4.84
399.226	4.77
399.435	5.83
399.644	6.29
399.853	5.39
400.062	4.89
400.27	4.43
400.479	3.92
400.688	3.05
400.897	3.26
401.106	3.08
401.315	3
401.524	3.12
401.733	3.4
401.941	3.6
402.15	3.7
402.359	3.69
402.568	3.92
402.777	4.14
402.985	3.96
403.194	3.98
403.403	4.2
403.612	3.84
403.82	3.69
404.029	3.88
404.238	3.63
404.446	3.7
404.655	3.48
404.864	3.38
405.072	3.22
405.281	3.39
405.489	3.21
405.698	3.38
405.906	3.38
406.115	3.3
406.324	3.25
406.532	3.31
406.741	3.4
406.949	3.42
407.158	3.49
407.366	3.67
407.574	3.58
407.783	3.56
407.991	3.48
408.2	3.54
408.408	3.4
408.617	3.41
408.825	3.35
409.033	3.42
409.242	3.41
409.45	3.55
409.658	3.53
409.867	3.59
410.075	3.52
410.283	3.41
410.491	3.23
410.7	3.17
410.908	3.12
411.116	3.22
411.324	3.18
411.533	3.13
411.741	3.3
411.949	3.25
412.157	3.11
412.365	3.14
412.573	3.15
412.781	3.24
412.99	3.26
413.198	3.31
413.406	3.29
413.614	3.28
413.822	3.03
414.03	2.96
414.238	2.92
414.446	2.98
414.654	2.89
414.862	3.01
415.07	3.09
415.278	3.21
415.486	3.05
415.694	3.21
415.902	3.05
416.109	2.98
416.317	2.97
416.525	3
416.733	2.77
416.941	2.93
417.149	2.98
417.357	2.97
417.564	3.09
417.772	3.41
417.98	3.2
418.188	3.13
418.395	3.09
418.603	3.19
418.811	2.94
419.019	3.08
419.226	3.1
419.434	3.17
419.642	2.94
419.849	2.94
420.057	2.87
420.265	2.95
420.472	2.8
420.68	2.84
420.887	2.97
421.095	3.03
421.302	3.02
421.51	3.2
421.717	3.25
421.925	3.23
422.132	3.06
422.34	2.81
422.547	2.83
422.755	2.7
422.962	2.61
423.17	2.69
423.377	2.73
423.585	2.5
423.792	2.46
423.999	2.51
424.207	2.48
424.414	2.57
424.621	2.56
424.829	2.64
425.036	2.64
425.243	2.82
425.451	2.74
425.658	2.65
425.865	2.73
426.072	2.79
426.28	2.81
426.487	2.82
426.694	2.93
426.901	2.82
427.108	2.83
427.315	2.78
427.523	3
427.73	3.02
427.937	2.95
428.144	2.77
428.351	2.7
428.558	2.75
428.765	2.63
428.972	2.7
429.179	2.78
429.386	2.97
429.593	2.76
429.8	2.73
430.007	2.78
430.214	2.96
430.421	2.72
430.628	2.69
430.835	2.81
431.042	2.84
431.249	2.84
431.456	2.83
431.662	2.94
431.869	3.13
432.076	3.19
432.283	3.18
432.49	3.19
432.697	3.18
432.903	2.86
433.11	2.84
433.317	2.93
433.524	3.23
433.73	3.22
433.937	3.59
434.144	3.53
434.35	3.45
434.557	3.14
434.764	3.11
434.97	2.94
435.177	3.06
435.384	2.99
435.59	3.13
435.797	3.29
436.003	3.32
436.21	3.27
436.416	3.4
436.623	3.38
436.829	3.47
437.036	3.56
437.242	3.62
437.449	3.58
437.655	3.6
437.862	3.53
438.068	3.47
438.275	3.64
438.481	3.91
438.687	3.94
438.894	3.98
439.1	3.99
439.307	3.95
439.513	3.72
439.719	3.69
439.926	3.77
440.132	3.86
440.338	3.78
440.544	3.87
440.751	3.87
440.957	3.84
441.163	3.77
441.369	3.82
441.575	3.74
441.782	3.75
441.988	3.68
442.194	3.69
442.4	3.68
442.606	3.96
442.812	4.09
443.018	4.2
443.224	4.21
443.431	4.26
443.637	4.02
443.843	3.91
444.049	3.89
444.255	3.85
444.461	3.9
444.667	3.89
444.873	4.05
445.079	4.18
445.284	4.32
445.49	4.2
445.696	4.15
445.902	4.01
446.108	3.85
446.314	3.82
446.52	3.85
446.726	4.12
446.931	4.19
447.137	4.3
447.343	4.25
447.549	4.24
447.755	4.07
447.96	4.16
448.166	4.12
448.372	4.1
448.578	4.23
448.783	4.23
448.989	4.21
449.195	4.34
449.4	4.38
449.606	4.3
449.812	4.31
450.017	4.33
450.223	4.21
450.428	4.21
450.634	4.25
450.84	4.34
451.045	4.32
451.251	4.3
451.456	4.52
451.662	4.5
451.867	4.6
452.073	4.57
452.278	4.62
452.483	4.51
452.689	4.55
452.894	4.46
453.1	4.4
453.305	4.4
453.51	4.44
453.716	4.39
453.921	4.4
454.127	4.43
454.332	4.33
454.537	4.28
454.742	4.27
454.948	4.28
455.153	4.4
455.358	4.54
455.563	4.64
455.769	4.7
455.974	4.67
456.179	4.57
456.384	4.55
456.589	4.49
456.795	4.46
457	4.45
457.205	4.63
457.41	4.59
457.615	4.54
457.82	4.57
458.025	4.64
458.23	4.47
458.435	4.5
458.64	4.42
458.845	4.51
459.05	4.45
459.255	4.48
459.46	4.45
459.665	4.5
459.87	4.45
460.075	4.45
460.28	4.49
460.485	4.59
460.69	4.69
460.895	4.6
461.099	4.58
461.304	4.65
461.509	4.63
461.714	4.51
461.919	4.71
462.123	4.62
462.328	4.63
462.533	4.65
462.738	4.76
462.942	4.62
463.147	4.78
463.352	4.7
463.556	4.6
463.761	4.57
463.966	4.64
464.17	4.58
464.375	4.6
464.58	4.68
464.784	4.7
464.989	4.69
465.193	4.73
465.398	4.85
465.602	4.93
465.807	4.79
466.011	4.8
466.216	4.87
466.42	4.84
