Data from Ofra_PS_T2_1A_0GT05_Reflection_3.txt Node
Date: Wed Jul 21 17:47:22 EDT 2021
User: Adam
Spectrometer: FLMT01687
Trigger mode: 0
Integration Time (sec): 1.100000E0
Scans to average: 2
Electric dark correction enabled: true
Nonlinearity correction enabled: false
Boxcar width: 2
XAxis mode: Wavelengths
Number of Pixels in Spectrum: 3648
>>>>>Begin Spectral Data<<<<<
179.494	543.2
179.716	661.65
179.937	642.14
180.158	639.5
180.38	906.87
180.601	362.43
180.823	97.95
181.044	-54.5
181.265	169.12
181.486	123.59
181.708	134.18
181.929	732.65
182.15	-383.1
182.372	147.3
182.593	29.62
182.814	3.27
183.035	36.7
183.257	30.62
183.478	-91.7
183.699	-13.84
183.92	-19.01
184.141	-21.99
184.363	-41.01
184.584	31.59
184.805	49.69
185.026	67
185.247	83.28
185.468	51.05
185.689	51.53
185.91	35.84
186.132	39.8
186.353	22.34
186.574	92.74
186.795	65.52
187.016	31.64
187.237	9.35
187.458	-5.56
187.679	-34.32
187.9	5.54
188.121	2.87
188.342	44.73
188.563	81.89
188.784	120.71
189.005	92.06
189.226	150.78
189.447	139.14
189.667	70.39
189.888	-176.85
190.109	-1007.79
190.33	-601.29
190.551	-1177.88
190.772	-254.72
190.993	-187.35
191.214	-129.48
191.434	-106.86
191.655	-12.76
191.876	-78.15
192.097	-132.52
192.318	-176.23
192.538	-224.93
192.759	-195.35
192.98	-50.3
193.201	0.38
193.421	21.42
193.642	29.43
193.863	48.81
194.083	12.16
194.304	1.62
194.525	-4.61
194.745	4.33
194.966	-23.05
195.187	-20.48
195.407	-36.88
195.628	-99.11
195.848	-122.79
196.069	-106.39
196.29	-19.57
196.51	-60.29
196.731	-30.86
196.951	-49.21
197.172	-67.36
197.392	-134.71
197.613	-109.82
197.833	-136.67
198.054	-115.45
198.274	-79.89
198.495	-81.45
198.715	-23.74
198.936	-39.06
199.156	-33.01
199.377	-110.62
199.597	-90.5
199.817	-135.56
200.038	-58.08
200.258	-96.42
200.479	2.95
200.699	-44.35
200.919	11.73
201.14	-30.72
201.36	-30.26
201.58	1.06
201.801	50.79
202.021	35.57
202.241	46.59
202.461	50.19
202.682	-20.83
202.902	-132.31
203.122	-83.68
203.342	-61.52
203.563	-28.14
203.783	28.01
204.003	34.58
204.223	31.45
204.443	77.68
204.663	52.61
204.884	43.35
205.104	103.29
205.324	120.11
205.544	72.33
205.764	76.18
205.984	89.16
206.204	66.53
206.424	51.49
206.644	31.4
206.864	63.73
207.084	5.04
207.304	38.23
207.525	13.44
207.745	51.97
207.964	24.23
208.184	-15.49
208.404	-81.91
208.624	-98.59
208.844	-107.33
209.064	-408.29
209.284	-429.53
209.504	-217.64
209.724	-62.3
209.944	-30.4
210.164	9.55
210.384	31.56
210.604	45.15
210.823	19.95
211.043	-17.65
211.263	-14.22
211.483	-17.2
211.703	-66.38
211.922	-43.35
212.142	25.45
212.362	44.42
212.582	22.13
212.801	22.45
213.021	-0.78
213.241	-10.85
213.461	-47.22
213.68	-66.92
213.9	-45.31
214.12	-26.67
214.339	-97.11
214.559	-81.7
214.779	-18.16
214.998	-23.71
215.218	-86.04
215.438	-48.58
215.657	-55.08
215.877	-69.25
216.096	-38.94
216.316	-7.49
216.535	-17.97
216.755	-14.48
216.974	-100.87
217.194	-150.08
217.413	-121.65
217.633	-105.7
217.852	-224.95
218.072	-87.49
218.291	-41.09
218.511	-18.37
218.73	-34.99
218.95	-21.9
219.169	-27.55
219.389	-78.4
219.608	-62.98
219.827	-48.88
220.047	-28.99
220.266	-10.82
220.485	-1.71
220.705	9.27
220.924	-20.65
221.143	17.05
221.363	-11.14
221.582	23.03
221.801	36.63
222.021	64.21
222.24	24.86
222.459	105.51
222.678	31.61
222.897	-25.95
223.117	-68.82
223.336	-41.61
223.555	-43.3
223.774	-3.09
223.993	31.92
224.213	53.11
224.432	38.93
224.651	67.94
224.87	30.8
225.089	28.94
225.308	26.87
225.527	38.55
225.746	28.31
225.965	24.84
226.184	5.23
226.404	35.95
226.623	15.56
226.842	26.08
227.061	65.06
227.28	71.75
227.499	55.55
227.718	68.81
227.936	48.53
228.155	46.98
228.374	8.38
228.593	26.81
228.812	30.16
229.031	36.21
229.25	-10.99
229.469	10.61
229.688	6.11
229.907	19.27
230.125	42.51
230.344	45.39
230.563	53.01
230.782	66.04
231.001	0.61
231.22	-2.49
231.438	41.44
231.657	42.01
231.876	22.92
232.095	74.08
232.313	87.07
232.532	57.85
232.751	21.8
232.969	29
233.188	-38.9
233.407	11.63
233.625	12.53
233.844	0.88
234.063	13.66
234.281	18.54
234.5	-0.54
234.719	10.84
234.937	33.41
235.156	36.83
235.374	34.41
235.593	5.81
235.811	-18.97
236.03	-31.02
236.249	-89.02
236.467	-65.18
236.686	-20.63
236.904	0.89
237.123	-19.43
237.341	-13.13
237.559	-7.44
237.778	-8.35
237.996	-33.2
238.215	8.66
238.433	17.92
238.652	14.07
238.87	-10.08
239.088	5.5
239.307	-12.98
239.525	-23.96
239.743	-47.68
239.962	-29.91
240.18	-50.57
240.398	-77.37
240.617	-80.91
240.835	-49.22
241.053	-43.95
241.271	0.7
241.49	21.61
241.708	6.32
241.926	13.22
242.144	10.65
242.363	-55.54
242.581	-75.14
242.799	-25.88
243.017	-0.53
243.235	-18.29
243.453	7.48
243.672	5.51
243.89	-10.02
244.108	-35.68
244.326	-1.88
244.544	-6.79
244.762	-1.39
244.98	18.46
245.198	26.85
245.416	-9.82
245.634	-3.47
245.852	-32.32
246.07	-55.91
246.288	-31.73
246.506	-68.72
246.724	-34.33
246.942	3.08
247.16	31
247.378	21.87
247.596	46.14
247.814	36.88
248.032	-5.97
248.25	-10.52
248.468	-6.13
248.685	16.99
248.903	31.99
249.121	43.21
249.339	23.29
249.557	19.4
249.775	13.47
249.992	-45.1
250.21	-45.37
250.428	-44.02
250.646	-67.33
250.863	-101.9
251.081	-63.42
251.299	-34.15
251.517	-9.47
251.734	-2.21
251.952	-0.78
252.17	-5.61
252.387	-8.01
252.605	-22.81
252.823	-14.08
253.04	3.05
253.258	13.14
253.475	-9.71
253.693	19.31
253.911	21.21
254.128	34.46
254.346	51.04
254.563	45.41
254.781	18.62
254.998	-13.38
255.216	-16.42
255.433	-44.27
255.651	4.57
255.868	57.46
256.086	92.08
256.303	65.41
256.521	62.83
256.738	30.21
256.956	-13.91
257.173	-35.81
257.39	-50.18
257.608	-71.03
257.825	-22.44
258.043	14.96
258.26	15.54
258.477	46.9
258.695	48.05
258.912	-3.84
259.129	0.78
259.346	-32.5
259.564	-64.85
259.781	-87.6
259.998	-5.23
260.216	28.08
260.433	76.96
260.65	77.55
260.867	98.36
261.084	62.11
261.302	35.22
261.519	13.33
261.736	-14.97
261.953	-48.68
262.17	-6.86
262.387	-29
262.604	-38.71
262.822	-40
263.039	-20.03
263.256	-54.67
263.473	-10.53
263.69	-19.74
263.907	19.66
264.124	33.83
264.341	36.2
264.558	14.67
264.775	28.55
264.992	-2.78
265.209	1.58
265.426	23.65
265.643	37.45
265.86	47.12
266.077	80.6
266.294	59.94
266.51	27.19
266.727	-5.48
266.944	-7.07
267.161	-29.08
267.378	-17.53
267.595	11.9
267.812	9.97
268.028	0.08
268.245	2.93
268.462	-27.47
268.679	-48.04
268.896	-2.71
269.112	-2.04
269.329	-1.65
269.546	14.92
269.763	11.43
269.979	-12.94
270.196	-6.93
270.413	-27.91
270.629	-42.15
270.846	-52.63
271.063	-32.33
271.279	-54.7
271.496	-36.07
271.712	4.97
271.929	43.5
272.146	23.78
272.362	33.64
272.579	60.48
272.795	50.68
273.012	45.99
273.228	51.02
273.445	33.28
273.661	-7.76
273.878	-48.85
274.094	-49.61
274.311	-75.04
274.527	-6.11
274.744	-0.7
274.96	-4.11
275.177	-1.1
275.393	21.65
275.609	22.42
275.826	68.98
276.042	74.59
276.259	68.35
276.475	70.38
276.691	75.89
276.908	29.76
277.124	38.27
277.34	54.56
277.557	47.14
277.773	12.86
277.989	4.61
278.205	3.18
278.422	11.85
278.638	13.43
278.854	39.98
279.07	49.8
279.286	38.58
279.503	4.41
279.719	-14.25
279.935	-53.4
280.151	-66.23
280.367	-42.01
280.583	-52.1
280.799	-32.24
281.016	-53.07
281.232	-10.71
281.448	-14.1
281.664	15.19
281.88	-11.36
282.096	-4.64
282.312	1.66
282.528	21.77
282.744	19.69
282.96	28.36
283.176	43.3
283.392	32.35
283.608	12.85
283.824	-1.34
284.04	-6.31
284.256	-16.42
284.471	-28.15
284.687	-35.09
284.903	-11.12
285.119	34.94
285.335	25.73
285.551	40.24
285.767	22.97
285.982	7.56
286.198	-43.51
286.414	-2.36
286.63	9.54
286.846	47.1
287.061	27.23
287.277	47.41
287.493	17.23
287.709	22.44
287.924	-7.63
288.14	26.75
288.356	26.53
288.571	49.35
288.787	27.33
289.003	32.92
289.218	14.55
289.434	-14.37
289.65	-1.75
289.865	5.37
290.081	27.56
290.296	18.97
290.512	4.74
290.727	-34.46
290.943	-45.56
291.159	-50.27
291.374	-35.54
291.59	-32.74
291.805	-23.9
292.021	-1.53
292.236	-9.74
292.451	-12.09
292.667	-9.45
292.882	2.28
293.098	-2.38
293.313	-16.64
293.529	-27.22
293.744	-39.15
293.959	-44.87
294.175	-44.61
294.39	-0.6
294.605	8.35
294.821	40.64
295.036	49.46
295.251	59.17
295.467	22.69
295.682	16.03
295.897	-56.15
296.112	-72.89
296.328	-72.95
296.543	-83.8
296.758	-61.8
296.973	-0.33
297.188	30.24
297.404	0.56
297.619	4.19
297.834	-10.96
298.049	-29.39
298.264	-42.45
298.479	13.29
298.694	13.88
298.909	31.31
299.125	34.22
299.34	45.94
299.555	24.59
299.77	55.61
299.985	13.08
300.2	-36.32
300.415	-70.18
300.63	-26.61
300.845	-52.76
301.06	-58.53
301.275	-26.89
301.49	-6.84
301.704	-16.65
301.919	-31.69
302.134	-27.65
302.349	-15.73
302.564	-64.27
302.779	-91.56
302.994	-43.1
303.209	-33.5
303.423	-0.23
303.638	59
303.853	27.06
304.068	5.25
304.283	14.94
304.497	-0.68
304.712	-18.77
304.927	-0.24
305.142	0.73
305.356	2.84
305.571	3.62
305.786	-5.43
306	-35.42
306.215	-16.12
306.43	-34.61
306.644	-41.07
306.859	16.68
307.074	52.47
307.288	21.9
307.503	27.4
307.717	5.95
307.932	-6.51
308.147	-27.45
308.361	-9.15
308.576	-11.34
308.79	-27.24
309.005	-27.28
309.219	-12.72
309.434	-7.74
309.648	-10.61
309.863	6.97
310.077	4.11
310.292	2.22
310.506	-6.16
310.72	3.42
310.935	7.6
311.149	2.82
311.364	13.08
311.578	26.52
311.792	15.07
312.007	22.25
312.221	0.7
312.435	6.56
312.649	-10.29
312.864	30.16
313.078	23.57
313.292	101.28
313.507	90.88
313.721	119
313.935	44.49
314.149	45.3
314.363	29.06
314.578	25.3
314.792	39.79
315.006	22.79
315.22	38.36
315.434	51.78
315.648	60.76
315.862	47.75
316.077	53.98
316.291	39.69
316.505	39.58
316.719	44.96
316.933	25.6
317.147	25.93
317.361	-47.07
317.575	-74.79
317.789	-129.16
318.003	-171.85
318.217	-147.73
318.431	-26.64
318.645	21.01
318.859	15.52
319.073	44.23
319.287	30.8
319.5	-13.5
319.714	-63.55
319.928	-67.63
320.142	-113.74
320.356	-31.14
320.57	33.1
320.784	39.59
320.997	49.49
321.211	46.96
321.425	-46.71
321.639	-83.98
321.853	-37.53
322.066	-29.68
322.28	-32.59
322.494	-13.33
322.707	7.13
322.921	5.47
323.135	14.37
323.349	30.99
323.562	9.83
323.776	-5.26
323.989	-7.04
324.203	-36
324.417	-46.21
324.63	-73.05
324.844	-67.58
325.057	-66.5
325.271	-44.93
325.485	-16.44
325.698	19.67
325.912	28.69
326.125	3.56
326.339	13.52
326.552	-6.68
326.766	-27.88
326.979	-2.06
327.193	39.28
327.406	13.21
327.619	8.5
327.833	31.85
328.046	-3.96
328.26	-45.76
328.473	-15.59
328.686	-46.3
328.9	-30.57
329.113	-16.14
329.326	-20.03
329.54	-4.05
329.753	8.36
329.966	-25.44
330.179	-3.99
330.393	6.7
330.606	8.54
330.819	15.76
331.032	25.84
331.246	27.02
331.459	49.25
331.672	32.7
331.885	33.3
332.098	9.33
332.311	-0.51
332.525	-40.92
332.738	-14.89
332.951	6.83
333.164	31.83
333.377	33.88
333.59	40.71
333.803	40.28
334.016	22.42
334.229	18.09
334.442	19.69
334.655	38.77
334.868	38.9
335.081	44.2
335.294	16.59
335.507	12.96
335.72	0.95
335.933	-19.41
336.146	-28.47
336.359	-16.14
336.572	-53.83
336.785	-76.97
336.997	-54.71
337.21	-31.31
337.423	-33.93
337.636	-18.93
337.849	1.73
338.062	-12.59
338.274	-8.7
338.487	-16.08
338.7	-17.45
338.913	-60.6
339.125	-82.31
339.338	-141.2
339.551	-94.63
339.763	-36.59
339.976	-4.2
340.189	16.64
340.402	32.53
340.614	4.72
340.827	-11.45
341.039	-41.02
341.252	-34.6
341.465	-2.77
341.677	-0.29
341.89	-35.17
342.102	-6.72
342.315	-27.43
342.527	-76.63
342.74	-52.62
342.952	-11.84
343.165	-10.76
343.377	19.6
343.59	9.83
343.802	13.77
344.015	2.42
344.227	12.2
344.44	-0.1
344.652	4.42
344.864	-11.29
345.077	21.77
345.289	28.14
345.502	36.19
345.714	39.35
345.926	47.02
346.139	29.98
346.351	21.08
346.563	32.35
346.775	31.98
346.988	15.96
347.2	14.75
347.412	-9.83
347.624	-45.98
347.837	-67.32
348.049	-24.17
348.261	15.86
348.473	9.75
348.685	0.06
348.897	0.23
349.11	-19.3
349.322	-55.5
349.534	-30.68
349.746	-6.72
349.958	-6.6
350.17	3.05
350.382	20.31
350.594	12.37
350.806	7.27
351.018	13.23
351.23	3.5
351.442	-47.77
351.654	-56.14
351.866	-37.32
352.078	-20.89
352.29	-9.17
352.502	15.23
352.714	37.06
352.926	21.01
353.138	14.83
353.35	4.67
353.561	-4.19
353.773	-34.54
353.985	-10.71
354.197	-8.53
354.409	-0.51
354.621	-1.83
354.832	4.35
355.044	-20.31
355.256	-26.59
355.468	-16.41
355.679	-20.95
355.891	-15.3
356.103	-6.88
356.314	-7.82
356.526	-16.44
356.738	-1.57
356.949	-33.22
357.161	-24.47
357.373	-20.09
357.584	-23.12
357.796	-6.17
358.008	11.34
358.219	29.25
358.431	32.67
358.642	34.12
358.854	24.14
359.065	9.39
359.277	-33.69
359.488	-51.56
359.7	-67.15
359.911	-77.95
360.123	-48.96
360.334	-52.26
360.546	-68.2
360.757	-68.4
360.969	-53.3
361.18	-40.93
361.391	-11.7
361.603	-6.59
361.814	0.98
362.025	-15.05
362.237	-34.89
362.448	-23.38
362.659	0.91
362.871	3.61
363.082	13.3
363.293	18.13
363.504	-2.13
363.716	-27.19
363.927	-31.7
364.138	-63.68
364.349	-76.27
364.56	-70.78
364.772	-55.67
364.983	-34.65
365.194	-29.93
365.405	-13.1
365.616	15.18
365.827	14.63
366.038	-1.36
366.25	1.84
366.461	-19.13
366.672	-8.31
366.883	13.23
367.094	15.85
367.305	1.98
367.516	11.5
367.727	-22.67
367.938	-46.13
368.149	-51.08
368.36	-21.94
368.571	-20.1
368.781	-29.51
368.992	-45.77
369.203	-59.71
369.414	-86.86
369.625	-95.88
369.836	-82.13
370.047	-90.46
370.258	-61.9
370.468	-65.91
370.679	-76.91
370.89	-70.42
371.101	-45.27
371.312	-52.59
371.522	-41.18
371.733	-17.77
371.944	-4.64
372.155	5.78
372.365	-7.72
372.576	-18.89
372.787	-30.2
372.997	-64.9
373.208	-65.06
373.419	-20.39
373.629	-37.54
373.84	-45.16
374.05	-39.97
374.261	-27.15
374.472	-51.97
374.682	1.39
374.893	13.53
375.103	52.16
375.314	43.44
375.524	36.77
375.735	35.65
375.945	38.45
376.156	1.71
376.366	2.33
376.577	5.86
376.787	-2.75
376.997	5.33
377.208	8.47
377.418	-8.14
377.629	-1.62
377.839	-1.24
378.049	-4.39
378.26	18.62
378.47	29.35
378.68	19.49
378.89	15.87
379.101	6.64
379.311	-35.57
379.521	-68.75
379.732	-56.76
379.942	-53.42
380.152	-64.45
380.362	-22.79
380.572	-13.75
380.783	-9.91
380.993	-5.61
381.203	6.11
381.413	13.31
381.623	22.1
381.833	24.99
382.043	15.8
382.253	14.85
382.463	9.08
382.674	-9.01
382.884	-29.9
383.094	-28.21
383.304	-25.88
383.514	-17.66
383.724	5.6
383.934	-0.55
384.144	-8.66
384.353	-23.63
384.563	-34.36
384.773	-34.99
384.983	-36.52
385.193	-16.33
385.403	-4.2
385.613	1.09
385.823	-14.51
386.033	-3.67
386.242	-10.33
386.452	-15.12
386.662	-23.91
386.872	-6.8
387.082	-16.56
387.291	-23.24
387.501	-22.2
387.711	-19.57
387.921	-25.92
388.13	-20.05
388.34	-7.2
388.55	-13
388.759	-11.47
388.969	-6.01
389.179	-6.17
389.388	-6.41
389.598	0.83
389.807	-6.54
390.017	-10.74
390.227	-8.7
390.436	-12.88
390.646	-11.85
390.855	-6.11
391.065	-3.55
391.274	-9.38
391.484	-10.78
391.693	-9.43
391.903	-9.19
392.112	-3.98
392.322	2.41
392.531	7.36
392.74	6.94
392.95	2.6
393.159	-0.02
393.369	-2.27
393.578	-3.96
393.787	-4.89
393.997	-1.7
394.206	-4.98
394.415	-4.09
394.625	-4.02
394.834	-5.32
395.043	-4.96
395.252	-1.55
395.462	-0.18
395.671	0.54
395.88	1.93
396.089	3.31
396.298	0.6
396.508	-0.13
396.717	-1.11
396.926	-0.22
397.135	-1.1
397.344	0.01
397.553	0.94
397.762	2.7
397.971	2.03
398.181	2.77
398.39	2.07
398.599	1.19
398.808	0.71
399.017	2.14
399.226	3.11
399.435	4.26
399.644	4.5
399.853	3.8
400.062	2.92
400.27	1.63
400.479	1.05
400.688	0.21
400.897	0.42
401.106	0.66
401.315	0.4
401.524	0.33
401.733	1.73
401.941	2.2
402.15	1.98
402.359	2.1
402.568	2.36
402.777	2.27
402.985	2.02
403.194	1.91
403.403	2.06
403.612	1.81
403.82	1.44
404.029	1.52
404.238	1.42
404.446	1.69
404.655	1.78
404.864	1.71
405.072	1.47
405.281	1.62
405.489	1.18
405.698	1.03
405.906	1
406.115	1.07
406.324	1.01
406.532	1.34
406.741	1.66
406.949	1.7
407.158	1.68
407.366	1.71
407.574	1.57
407.783	1.57
407.991	1.45
408.2	1.6
408.408	1.65
408.617	1.6
408.825	1.34
409.033	1.51
409.242	1.56
409.45	1.52
409.658	1.32
409.867	1.53
410.075	1.29
410.283	1.06
410.491	1.04
410.7	1.17
410.908	1.09
411.116	1.58
411.324	1.6
411.533	1.61
411.741	1.92
411.949	2
412.157	1.55
412.365	1.68
412.573	1.77
412.781	1.7
412.99	1.51
413.198	1.69
413.406	1.66
413.614	1.58
413.822	1.35
414.03	1.4
414.238	1.22
414.446	1.21
414.654	0.96
414.862	1.11
415.07	1.15
415.278	1.48
415.486	1.28
415.694	1.48
415.902	1.27
416.109	1.14
416.317	0.93
416.525	0.86
416.733	0.9
416.941	1.08
417.149	1.08
417.357	1.25
417.564	1.6
417.772	1.85
417.98	1.78
418.188	1.83
418.395	1.88
418.603	1.9
418.811	1.47
419.019	1.51
419.226	1.77
419.434	1.69
419.642	1.42
419.849	1.58
420.057	1.55
420.265	1.5
420.472	1.23
420.68	1.38
420.887	1.2
421.095	1.22
421.302	1.06
421.51	1.4
421.717	1.46
421.925	1.69
422.132	1.63
422.34	1.4
422.547	1.33
422.755	1.2
422.962	1.01
423.17	0.93
423.377	1.1
423.585	1.15
423.792	1.13
423.999	1.19
424.207	1.15
424.414	1.36
424.621	1.23
424.829	1.26
425.036	1.3
425.243	1.39
425.451	1.1
425.658	0.96
425.865	1.1
426.072	1.19
426.28	1.56
426.487	1.59
426.694	1.69
426.901	1.48
427.108	1.22
427.315	0.92
427.523	1.28
427.73	1.39
427.937	1.42
428.144	1.39
428.351	1.33
428.558	1.25
428.765	1.03
428.972	0.97
429.179	1.17
429.386	1.57
429.593	1.3
429.8	1.26
430.007	1.36
430.214	1.47
430.421	1.15
430.628	1.04
430.835	1.03
431.042	1.19
431.249	1.12
431.456	1.09
431.662	1.31
431.869	1.53
432.076	1.55
432.283	1.73
432.49	1.68
432.697	1.66
432.903	1.41
433.11	1.28
433.317	1.19
433.524	1.42
433.73	1.32
433.937	1.63
434.144	1.5
434.35	1.49
434.557	1.28
434.764	1.31
434.97	1.09
435.177	1.34
435.384	1.17
435.59	1.34
435.797	1.61
436.003	1.78
436.21	1.64
436.416	1.85
436.623	1.76
436.829	1.72
437.036	1.74
437.242	1.78
437.449	1.53
437.655	1.51
437.862	1.44
438.068	1.35
438.275	1.4
438.481	1.73
438.687	1.78
438.894	1.75
439.1	1.8
439.307	1.96
439.513	1.78
439.719	1.77
439.926	1.89
440.132	1.79
440.338	1.61
440.544	1.8
440.751	1.78
440.957	1.77
441.163	1.73
441.369	1.82
441.575	1.5
441.782	1.41
441.988	1.24
442.194	1.26
442.4	1.2
442.606	1.63
442.812	1.73
443.018	1.89
443.224	2.01
443.431	2.17
443.637	1.81
443.843	1.78
444.049	1.77
444.255	1.72
444.461	1.69
444.667	1.68
444.873	1.86
445.079	1.83
445.284	1.88
445.49	1.64
445.696	1.49
445.902	1.29
446.108	1.21
446.314	1.08
446.52	1.11
446.726	1.41
446.931	1.44
447.137	1.54
447.343	1.67
447.549	1.66
447.755	1.55
447.96	1.59
448.166	1.51
448.372	1.45
448.578	1.57
448.783	1.56
448.989	1.62
449.195	1.81
449.4	1.8
449.606	1.74
449.812	1.69
450.017	1.71
450.223	1.56
450.428	1.51
450.634	1.62
450.84	1.76
451.045	1.67
451.251	1.61
451.456	1.88
451.662	2.01
451.867	2.05
452.073	1.98
452.278	2.13
452.483	2.12
452.689	1.96
452.894	1.95
453.1	2.05
453.305	1.86
453.51	1.83
453.716	1.76
453.921	1.73
454.127	1.6
454.332	1.67
454.537	1.54
454.742	1.63
454.948	1.61
455.153	1.78
455.358	1.87
455.563	2.07
455.769	2.1
455.974	2.05
456.179	1.89
456.384	1.84
456.589	1.69
456.795	1.46
457	1.46
457.205	1.74
457.41	1.72
457.615	1.72
457.82	1.91
458.025	1.98
458.23	1.81
458.435	1.86
458.64	1.82
458.845	1.93
459.05	1.92
459.255	1.89
459.46	1.89
459.665	1.9
459.87	1.84
460.075	1.8
460.28	1.9
460.485	1.99
460.69	1.97
460.895	1.81
461.099	1.83
461.304	1.94
461.509	1.9
461.714	1.93
461.919	2.16
462.123	2.12
462.328	2.1
462.533	2.04
462.738	2.2
