Data from Ofra_PS_T2_2A_8HS23_Reflection_2.txt Node
Date: Wed Jul 21 17:20:25 EDT 2021
User: Adam
Spectrometer: FLMT01687
Trigger mode: 0
Integration Time (sec): 1.100000E0
Scans to average: 2
Electric dark correction enabled: true
Nonlinearity correction enabled: false
Boxcar width: 2
XAxis mode: Wavelengths
Number of Pixels in Spectrum: 3648
>>>>>Begin Spectral Data<<<<<
179.494	753.8
179.716	800
179.937	707.31
180.158	682.06
180.38	1024.53
180.601	269.2
180.823	54.8
181.044	-57.7
181.265	84.74
181.486	5.16
181.708	58.49
181.929	247.45
182.15	-175
182.372	152.62
182.593	12.11
182.814	34.38
183.035	57.7
183.257	63.82
183.478	18.24
183.699	70.89
183.92	28.99
184.141	32.83
184.363	-31.75
184.584	7.9
184.805	2.34
185.026	32.79
185.247	31.49
185.468	24.56
185.689	25.11
185.91	37.15
186.132	19.46
186.353	12.12
186.574	61.15
186.795	52.39
187.016	5.07
187.237	-0.68
187.458	-29.88
187.679	-28.91
187.9	-12.61
188.121	7.11
188.342	19.7
188.563	60.61
188.784	88.64
189.005	71.68
189.226	100.39
189.447	106.67
189.667	37.26
189.888	-198.65
190.109	-691.23
190.33	-492.42
190.551	-925
190.772	-132.51
190.993	-69.75
191.214	-76.26
191.434	-44.55
191.655	25.25
191.876	-19.94
192.097	-97.25
192.318	-148.41
192.538	-211.51
192.759	-177.41
192.98	-90.77
193.201	-36.7
193.421	-16.94
193.642	-0.75
193.863	2.3
194.083	-17.83
194.304	-31.75
194.525	-25.71
194.745	-43.04
194.966	-71.37
195.187	-56.33
195.407	-66.54
195.628	-141.1
195.848	-133.16
196.069	-127.59
196.29	-83.01
196.51	-105.92
196.731	-80.69
196.951	-111.6
197.172	-105.41
197.392	-171.16
197.613	-152.8
197.833	-189.39
198.054	-152.8
198.274	-78.63
198.495	-84.32
198.715	-39.71
198.936	-51.68
199.156	-44.95
199.377	-182.21
199.597	-161
199.817	-168.27
200.038	-69.13
200.258	-106.66
200.479	-1.78
200.699	30.52
200.919	49.71
201.14	-7.42
201.36	-31.21
201.58	-0.08
201.801	19.91
202.021	-24.57
202.241	-14.32
202.461	-12.81
202.682	-108.79
202.902	-172.11
203.122	-83.29
203.342	-64.45
203.563	-4.37
203.783	24.57
204.003	10.16
204.223	-2.69
204.443	32.34
204.663	7.04
204.884	5.15
205.104	28.92
205.324	17.55
205.544	-0.45
205.764	8.78
205.984	10.47
206.204	19.45
206.424	20.44
206.644	-17.77
206.864	3.59
207.084	-27.78
207.304	1.29
207.525	-94.14
207.745	-18.81
207.964	11.71
208.184	-46.6
208.404	-101.09
208.624	-94.59
208.844	-74.42
209.064	-377.02
209.284	-346.18
209.504	-132.5
209.724	-5.34
209.944	-23.62
210.164	8.5
210.384	15.09
210.604	7.24
210.823	-37.48
211.043	-52.55
211.263	-33.23
211.483	-32.63
211.703	-84.79
211.922	-74.08
212.142	12.94
212.362	20.68
212.582	4.96
212.801	7.12
213.021	-16.34
213.241	-61.5
213.461	-95.46
213.68	-105.92
213.9	-48.25
214.12	-5.25
214.339	-44.38
214.559	-22.85
214.779	23.93
214.998	2.37
215.218	-32.2
215.438	-16.91
215.657	-10.93
215.877	-22.2
216.096	7.84
216.316	34.71
216.535	32.25
216.755	14.69
216.974	-60.27
217.194	-129.25
217.413	-153.25
217.633	-165.03
217.852	-243.23
218.072	-88.01
218.291	-31.94
218.511	3.64
218.73	-14.32
218.95	-21.38
219.169	-30.55
219.389	-76.1
219.608	-64.56
219.827	-53.19
220.047	-24.78
220.266	2.25
220.485	15.12
220.705	35.82
220.924	14.24
221.143	31.29
221.363	0.6
221.582	-0.75
221.801	1.17
222.021	23.1
222.24	-36.21
222.459	29.73
222.678	-4.17
222.897	-108.43
223.117	-143.31
223.336	-124.09
223.555	-102.42
223.774	-17.61
223.993	6.19
224.213	58.42
224.432	61.75
224.651	71.91
224.87	21.46
225.089	40.5
225.308	28.49
225.527	35.62
225.746	33.34
225.965	37.56
226.184	17.31
226.404	26.17
226.623	-9.26
226.842	-15.28
227.061	13.8
227.28	18.22
227.499	-10.65
227.718	19.56
227.936	23.56
228.155	26.29
228.374	18.26
228.593	25.66
228.812	31.3
229.031	19.76
229.25	-40.3
229.469	-38.96
229.688	-24.47
229.907	-1.24
230.125	11.2
230.344	26.98
230.563	41.81
230.782	55.45
231.001	-24.67
231.22	-12.93
231.438	18.14
231.657	5.19
231.876	-10.83
232.095	46.58
232.313	43.05
232.532	1.85
232.751	-29.57
232.969	-34.38
233.188	-144.45
233.407	-60.84
233.625	-14.13
233.844	-27.05
234.063	-23.69
234.281	6.83
234.5	-14
234.719	-16.35
234.937	9.26
235.156	25.24
235.374	21.07
235.593	25.14
235.811	9.79
236.03	-10.14
236.249	-58.26
236.467	-51.47
236.686	-12.35
236.904	4.57
237.123	-16.94
237.341	-12.81
237.559	-3.53
237.778	-30.86
237.996	-51.76
238.215	12.91
238.433	4.48
238.652	1.79
238.87	-8.27
239.088	-0.8
239.307	-13.87
239.525	-1.02
239.743	-50.02
239.962	-28.04
240.18	-41.74
240.398	-82.52
240.617	-94.52
240.835	-52.94
241.053	-33.29
241.271	17.66
241.49	21.23
241.708	11.06
241.926	11.78
242.144	-17.91
242.363	-79.28
242.581	-64.36
242.799	-17.43
243.017	12.95
243.235	3.67
243.453	26.93
243.672	9.6
243.89	-6.01
244.108	-26
244.326	-7.65
244.544	-25.14
244.762	-21.36
244.98	-9.5
245.198	7.18
245.416	-7.96
245.634	-1.55
245.852	0.62
246.07	-2.51
246.288	-11.15
246.506	-35.48
246.724	-6.19
246.942	-15.02
247.16	9.41
247.378	13.7
247.596	27.02
247.814	38.26
248.032	16.47
248.25	11.85
248.468	16.26
248.685	36.47
248.903	46.05
249.121	57.96
249.339	36.17
249.557	25.83
249.775	18.15
249.992	-55.64
250.21	-55.5
250.428	-37.17
250.646	-65.63
250.863	-76.67
251.081	-41.18
251.299	-33.82
251.517	-28.8
251.734	-2.16
251.952	-25.48
252.17	-16.08
252.387	-5.29
252.605	-15.93
252.823	-13.02
253.04	18.51
253.258	29.42
253.475	30.6
253.693	38.2
253.911	23.21
254.128	21.44
254.346	18.35
254.563	8.37
254.781	-1.96
254.998	-17.72
255.216	-18.71
255.433	-0.34
255.651	14.42
255.868	53.51
256.086	96.06
256.303	72.83
256.521	46.86
256.738	21.32
256.956	-13.11
257.173	-42.66
257.39	-62.2
257.608	-92.18
257.825	9.91
258.043	49.58
258.26	44.89
258.477	80.05
258.695	76.77
258.912	-6.55
259.129	-1.15
259.346	-45.75
259.564	-93.1
259.781	-106.56
259.998	-19.09
260.216	3.35
260.433	48.85
260.65	60.19
260.867	86.82
261.084	40.28
261.302	20.95
261.519	26.63
261.736	-8.99
261.953	-32.6
262.17	21.14
262.387	-18.79
262.604	-48.73
262.822	-34.32
263.039	-38.54
263.256	-88.59
263.473	-33.11
263.69	-10.2
263.907	18
264.124	16.81
264.341	13.81
264.558	5.11
264.775	5.34
264.992	-1.92
265.209	11.25
265.426	41.5
265.643	47.08
265.86	61.3
266.077	58.12
266.294	63.83
266.51	-1.15
266.727	-34.67
266.944	-23.93
267.161	-29.03
267.378	-22.57
267.595	6.94
267.812	-1.77
268.028	-27.42
268.245	-0.88
268.462	-14.67
268.679	-14.84
268.896	37.26
269.112	52.13
269.329	31.17
269.546	18.37
269.763	12.71
269.979	-15.53
270.196	-39.28
270.413	-54.25
270.629	-63.42
270.846	-68.78
271.063	-53.61
271.279	-59.82
271.496	-59.11
271.712	-6.21
271.929	22.22
272.146	23.05
272.362	6.43
272.579	33.09
272.795	27.47
273.012	20.92
273.228	20.28
273.445	14.97
273.661	-16.42
273.878	-69.79
274.094	-63.85
274.311	-95.4
274.527	-8.37
274.744	-7.5
274.96	-7.24
275.177	3.23
275.393	26.14
275.609	13.34
275.826	44.24
276.042	40.36
276.259	13.65
276.475	14.64
276.691	15.39
276.908	-10.07
277.124	8.92
277.34	14.09
277.557	13.64
277.773	-6.39
277.989	-14.92
278.205	-18.01
278.422	-4.84
278.638	-7.48
278.854	18.26
279.07	18.06
279.286	9.21
279.503	-16.15
279.719	-39.9
279.935	-76.87
280.151	-72.29
280.367	-34.63
280.583	-42.99
280.799	-15.3
281.016	-29.02
281.232	-8.3
281.448	-28.77
281.664	-0.59
281.88	-33.22
282.096	-10.52
282.312	9.62
282.528	21.1
282.744	34.97
282.96	36.11
283.176	26.91
283.392	20.73
283.608	28.01
283.824	15.44
284.04	26.54
284.256	34.96
284.471	19.01
284.687	1.18
284.903	32.52
285.119	53.66
285.335	33.16
285.551	53.16
285.767	41.8
285.982	13.08
286.198	-24.21
286.414	27.61
286.63	20.41
286.846	34.5
287.061	13.9
287.277	44.03
287.493	24.77
287.709	50.27
287.924	41.36
288.14	78.37
288.356	70.16
288.571	71.86
288.787	44.68
289.003	44.91
289.218	23.91
289.434	-16.82
289.65	-12.92
289.865	-12.52
290.081	6.09
290.296	1.84
290.512	18.79
290.727	-16.27
290.943	-19.77
291.159	-37.32
291.374	-28.32
291.59	-47.36
291.805	-32.17
292.021	-20.11
292.236	-16.06
292.451	-7.53
292.667	-1.19
292.882	10.13
293.098	-0.27
293.313	-14.26
293.529	-43.25
293.744	-63.29
293.959	-66.35
294.175	-52.89
294.39	-11.57
294.605	12.05
294.821	40.9
295.036	47.08
295.251	58.77
295.467	51.59
295.682	44.11
295.897	-10.66
296.112	-21.47
296.328	-36.49
296.543	-76.11
296.758	-70.64
296.973	0.31
297.188	28.61
297.404	-0.07
297.619	-3.22
297.834	-21.03
298.049	-51.06
298.264	-79.21
298.479	-14.36
298.694	2.57
298.909	31.99
299.125	37.12
299.34	46.76
299.555	26.04
299.77	35.92
299.985	-14.34
300.2	-66.92
300.415	-89.94
300.63	-57.39
300.845	-72.07
301.06	-74.06
301.275	-30.79
301.49	-1.58
301.704	-14.34
301.919	-27.87
302.134	-39.6
302.349	-63.76
302.564	-124.31
302.779	-159.69
302.994	-141.73
303.209	-57.05
303.423	44.04
303.638	69.55
303.853	30.38
304.068	22.16
304.283	19.78
304.497	-6.32
304.712	-37.55
304.927	-13.46
305.142	-14.23
305.356	-14.62
305.571	-8.16
305.786	4.75
306	-16.56
306.215	-12.3
306.43	-37.83
306.644	-25.59
306.859	-0.74
307.074	19.17
307.288	-15.08
307.503	-4.19
307.717	-25.33
307.932	-23.85
308.147	-29.51
308.361	-3.15
308.576	-6.51
308.79	-31.98
309.005	-27.23
309.219	-14.53
309.434	-2.08
309.648	-0.26
309.863	25.89
310.077	30.23
310.292	32.56
310.506	25.33
310.72	26.34
310.935	24.99
311.149	14.36
311.364	32.94
311.578	39.25
311.792	29.42
312.007	32.71
312.221	25.41
312.435	17.68
312.649	-2.64
312.864	40.24
313.078	66.55
313.292	101.08
313.507	100.94
313.721	141.49
313.935	54.43
314.149	32.12
314.363	28.16
314.578	22.52
314.792	24.26
315.006	6.13
315.22	11.09
315.434	18.27
315.648	28.57
315.862	30.24
316.077	38.24
316.291	42.6
316.505	57.09
316.719	49.92
316.933	14.3
317.147	1.25
317.361	-75.31
317.575	-112.54
317.789	-145.91
318.003	-226.4
318.217	-147.98
318.431	-14.22
318.645	45.49
318.859	36.59
319.073	73.97
319.287	42.17
319.5	8
319.714	-40.54
319.928	-51.16
320.142	-79.82
320.356	-6.52
320.57	26.67
320.784	35
320.997	30.51
321.211	36.99
321.425	-36.36
321.639	-77.34
321.853	-30.17
322.066	-9.17
322.28	-16.47
322.494	-0.08
322.707	34.58
322.921	14.94
323.135	1.04
323.349	2.24
323.562	-21.75
323.776	-36.48
323.989	-27.64
324.203	-43.68
324.417	-41.09
324.63	-45.63
324.844	-62.53
325.057	-73.99
325.271	-37.31
325.485	-9.95
325.698	18.2
325.912	29.3
326.125	17.46
326.339	6.45
326.552	-15.77
326.766	-31.16
326.979	-5.31
327.193	20.16
327.406	8.41
327.619	0.08
327.833	17.36
328.046	-11.03
328.26	-45.89
328.473	-18.26
328.686	-37.19
328.9	-28.47
329.113	-0.68
329.326	-11.03
329.54	2.88
329.753	-6.43
329.966	-41.03
330.179	-35.47
330.393	-14.32
330.606	-15.13
330.819	7.44
331.032	34.47
331.246	30.29
331.459	59.84
331.672	49.71
331.885	41.52
332.098	2.22
332.311	-2.93
332.525	-64.22
332.738	-59.26
332.951	-25.6
333.164	13.44
333.377	14.54
333.59	45.07
333.803	56.47
334.016	49.29
334.229	55.68
334.442	81.53
334.655	79.03
334.868	61.56
335.081	55.85
335.294	25.17
335.507	-8.49
335.72	-6.34
335.933	-4.85
336.146	-18.53
336.359	4.92
336.572	-21.24
336.785	-62.47
336.997	-54.86
337.21	-26.81
337.423	-40.34
337.636	-17.48
337.849	14.96
338.062	12.76
338.274	8.51
338.487	-8.34
338.7	-20.22
338.913	-67.48
339.125	-96.5
339.338	-150.41
339.551	-82.68
339.763	-54.28
339.976	-20.57
340.189	9.5
340.402	32.58
340.614	-0.76
340.827	-5.02
341.039	-16.47
341.252	-14.88
341.465	-10.42
341.677	-9.22
341.89	-32.19
342.102	-11.19
342.315	-38.42
342.527	-57.93
342.74	-38.07
342.952	-1.65
343.165	1.45
343.377	39.8
343.59	39.76
343.802	54.84
344.015	57.98
344.227	81.59
344.44	64.8
344.652	52.52
344.864	25.22
345.077	34.81
345.289	28.26
345.502	28.63
345.714	19.78
345.926	25.76
346.139	14.39
346.351	28.03
346.563	42.71
346.775	49.84
346.988	42.98
347.2	36.13
347.412	-22.67
347.624	-53.91
347.837	-61.63
348.049	-28.63
348.261	7.09
348.473	22.28
348.685	12.07
348.897	16.69
349.11	-4.53
349.322	-22.46
349.534	1.28
349.746	18.74
349.958	13.47
350.17	15.9
350.382	21.22
350.594	12.76
350.806	7.84
351.018	12.93
351.23	-2.91
351.442	-52.09
351.654	-68.72
351.866	-49.89
352.078	-41.8
352.29	-3.58
352.502	16.92
352.714	31.97
352.926	15.05
353.138	8.4
353.35	-5.65
353.561	-4.28
353.773	-31.99
353.985	-6.07
354.197	-11.63
354.409	-15.87
354.621	-22.69
354.832	-5.6
355.044	-27.81
355.256	-16.34
355.468	-3.49
355.679	-12.95
355.891	-13.53
356.103	-28.43
356.314	-30.34
356.526	-24.37
356.738	-8.38
356.949	-15.79
357.161	11.12
357.373	-3.61
357.584	-18.07
357.796	-10.28
358.008	-9.22
358.219	8.87
358.431	20.17
358.642	21.57
358.854	18.82
359.065	3.58
359.277	-27.86
359.488	-45.82
359.7	-54.31
359.911	-59.25
360.123	-20.92
360.334	-25.41
360.546	-34.12
360.757	-37.51
360.969	-32.46
361.18	-32.38
361.391	-19.55
361.603	-18.4
361.814	-0.44
362.025	5.59
362.237	-9.11
362.448	12.24
362.659	39.33
362.871	24.37
363.082	11.48
363.293	14.07
363.504	-6.88
363.716	-47.29
363.927	-54.36
364.138	-70.54
364.349	-82.48
364.56	-68.99
364.772	-48.97
364.983	-22.62
365.194	-10.54
365.405	7.59
365.616	21.35
365.827	22.1
366.038	-2.73
366.25	-5.6
366.461	-48.49
366.672	-23.12
366.883	-3.36
367.094	8.63
367.305	-1.99
367.516	9.91
367.727	-19.22
367.938	-35.73
368.149	-40.73
368.36	-22.6
368.571	-8.5
368.781	-18.62
368.992	-31.78
369.203	-41.88
369.414	-65.44
369.625	-76.64
369.836	-62.11
370.047	-71.34
370.258	-49.77
370.468	-41.3
370.679	-58.08
370.89	-61.17
371.101	-39.77
371.312	-39.82
371.522	-39.43
371.733	-29.52
371.944	-10.77
372.155	1.41
372.365	-12.74
372.576	-3.47
372.787	-6.13
372.997	-22.8
373.208	-27.75
373.419	11.64
373.629	-30.08
373.84	-20.43
374.05	-28.22
374.261	-20.52
374.472	-37.88
374.682	29.93
374.893	22.56
375.103	55.12
375.314	45.74
375.524	37.66
375.735	26
375.945	46.38
376.156	9.95
376.366	10.15
376.577	15.48
376.787	2.86
376.997	-1.06
377.208	12.77
377.418	8.38
377.629	6.57
377.839	1.58
378.049	1.91
378.26	11.53
378.47	19.78
378.68	19.34
378.89	17.24
379.101	6.57
379.311	-23.3
379.521	-47.93
379.732	-54.2
379.942	-38.9
380.152	-53.16
380.362	-10.53
380.572	-7.94
380.783	2.58
380.993	2.5
381.203	17.03
381.413	18.98
381.623	16.88
381.833	16.59
382.043	8.21
382.253	2.77
382.463	-4.47
382.674	-7.17
382.884	-26
383.094	-20.19
383.304	-14.67
383.514	-11.69
383.724	-1.75
383.934	-4.71
384.144	-15.74
384.353	-23.34
384.563	-27.5
384.773	-28.12
384.983	-31.64
385.193	-9.69
385.403	-4.87
385.613	-3.07
385.823	-13
386.033	-10.83
386.242	-22.57
386.452	-24.63
386.662	-28.4
386.872	-11.5
387.082	-6.68
387.291	-10.66
387.501	-12.52
387.711	-6.68
387.921	-13.99
388.13	-17.58
388.34	-1.93
388.55	-2.98
388.759	-6.22
388.969	0.84
389.179	3.2
389.388	1.34
389.598	6.15
389.807	1.71
390.017	-3.88
390.227	-1.25
390.436	-4.17
390.646	-6.62
390.855	-0.8
391.065	-0.31
391.274	-4.43
391.484	-5.39
391.693	-1.4
391.903	0.81
392.112	7.04
392.322	11.81
392.531	15.18
392.74	14.43
392.95	7.92
393.159	4.57
393.369	3.71
393.578	1.45
393.787	-0.49
393.997	2.59
394.206	0.79
394.415	1.35
394.625	0.88
394.834	0.04
395.043	0.96
395.252	3.66
395.462	4.58
395.671	6.57
395.88	7.37
396.089	7.32
396.298	5.39
396.508	5.18
396.717	3.86
396.926	4.82
397.135	4.81
397.344	4.96
397.553	5.69
397.762	7.27
397.971	6.71
398.181	6.95
398.39	6.34
398.599	5.46
398.808	4.84
399.017	6.05
399.226	7.37
399.435	8.92
399.644	9.33
399.853	8.55
400.062	7.79
400.27	6.7
400.479	5.8
400.688	4.96
400.897	5.39
401.106	5.68
401.315	5.62
401.524	5.78
401.733	6.38
401.941	6.84
402.15	6.85
402.359	6.54
402.568	6.88
402.777	7.08
402.985	6.57
403.194	6.55
403.403	6.75
403.612	6.12
403.82	5.79
404.029	6.05
404.238	5.93
404.446	6.13
404.655	6.05
404.864	6.1
405.072	5.88
405.281	5.96
405.489	5.63
405.698	5.8
405.906	5.73
406.115	5.83
406.324	5.52
406.532	5.7
406.741	5.95
406.949	6.03
407.158	5.96
407.366	6.17
407.574	6.18
407.783	6.12
407.991	5.76
408.2	5.76
408.408	5.66
408.617	5.58
408.825	5.27
409.033	5.51
409.242	5.65
409.45	5.82
409.658	5.74
409.867	5.97
410.075	5.83
410.283	5.6
410.491	5.43
410.7	5.43
410.908	5.48
411.116	5.6
411.324	5.68
411.533	5.56
411.741	5.77
411.949	5.65
412.157	5.46
412.365	5.46
412.573	5.61
412.781	5.53
412.99	5.46
413.198	5.7
413.406	5.67
413.614	5.57
413.822	5.32
414.03	5.28
414.238	5.05
414.446	5.16
414.654	5.01
414.862	5.16
415.07	5.26
415.278	5.36
415.486	5.11
415.694	5.3
415.902	5.17
416.109	4.98
416.317	4.96
416.525	4.9
416.733	4.67
416.941	4.79
417.149	4.71
417.357	4.78
417.564	4.87
417.772	5.33
417.98	5.29
418.188	5.48
418.395	5.51
418.603	5.67
418.811	5.15
419.019	5.05
419.226	5.2
419.434	5.27
419.642	5
419.849	5.13
420.057	5.21
420.265	5.09
420.472	4.7
420.68	4.89
420.887	4.78
421.095	4.71
421.302	4.61
421.51	4.91
421.717	4.77
421.925	4.95
422.132	4.87
422.34	4.68
422.547	4.75
422.755	4.69
422.962	4.45
423.17	4.41
423.377	4.62
423.585	4.6
423.792	4.67
423.999	4.9
424.207	4.95
424.414	5.09
424.621	5.01
424.829	4.93
425.036	4.92
425.243	4.98
425.451	4.76
425.658	4.46
425.865	4.6
426.072	4.56
426.28	4.97
426.487	4.89
426.694	5.06
426.901	4.99
427.108	5.01
427.315	4.6
427.523	4.9
427.73	4.96
427.937	4.94
428.144	4.79
428.351	4.84
428.558	4.96
428.765	4.85
428.972	4.82
429.179	5.14
429.386	5.56
429.593	5.25
429.8	5.21
430.007	5.5
430.214	5.45
430.421	5.07
430.628	5
430.835	4.9
431.042	4.93
431.249	5.05
431.456	5.06
431.662	5.26
431.869	5.56
432.076	5.54
432.283	5.55
432.49	5.63
432.697	5.67
432.903	5.46
433.11	5.42
433.317	5.49
433.524	5.71
433.73	5.6
433.937	5.94
434.144	5.87
434.35	5.78
434.557	5.55
434.764	5.77
434.97	5.64
435.177	5.98
435.384	5.97
435.59	6.1
435.797	6.2
436.003	6.28
436.21	6.15
436.416	6.27
436.623	6.32
436.829	6.38
437.036	6.46
437.242	6.38
437.449	6.37
437.655	6.31
437.862	6.27
438.068	6.25
438.275	6.47
438.481	6.67
438.687	6.75
438.894	6.74
439.1	6.72
439.307	6.83
439.513	6.71
439.719	6.71
439.926	6.82
440.132	6.77
440.338	6.6
440.544	6.71
440.751	6.7
440.957	6.75
441.163	6.74
441.369	6.86
441.575	6.65
441.782	6.72
441.988	6.55
442.194	6.6
442.4	6.57
442.606	6.88
442.812	6.95
443.018	7.15
443.224	7.26
443.431	7.37
443.637	7.21
443.843	7.16
444.049	7.11
444.255	7.07
444.461	7.01
444.667	6.99
444.873	7.09
445.079	7.08
445.284	7.23
445.49	7.12
445.696	7.05
445.902	6.95
446.108	6.87
446.314	6.81
446.52	6.89
446.726	7.14
446.931	7.21
447.137	7.35
447.343	7.41
447.549	7.35
447.755	7.27
447.96	7.3
448.166	7.29
448.372	7.17
448.578	7.26
448.783	7.23
448.989	7.29
449.195	7.39
449.4	7.41
449.606	7.38
449.812	7.31
450.017	7.31
450.223	7.24
450.428	7.33
450.634	7.51
450.84	7.71
451.045	7.65
451.251	7.6
451.456	7.74
451.662	7.75
451.867	7.74
452.073	7.78
452.278	7.94
452.483	7.97
452.689	7.88
452.894	7.94
453.1	7.9
453.305	7.83
453.51	7.87
453.716	7.79
453.921	7.76
454.127	7.78
454.332	7.7
454.537	7.55
454.742	7.59
454.948	7.55
455.153	7.56
455.358	7.73
455.563	7.89
455.769	8.1
455.974	8.1
456.179	8.09
456.384	8.14
456.589	7.97
456.795	7.65
457	7.64
457.205	7.81
457.41	7.7
457.615	7.8
457.82	7.91
458.025	7.9
458.23	7.8
458.435	7.85
458.64	7.75
458.845	7.95
459.05	7.95
459.255	7.98
459.46	7.93
459.665	7.97
459.87	7.99
460.075	8.07
460.28	8.06
460.485	8.2
460.69	8.26
460.895	8.01
461.099	8.04
461.304	8.17
461.509	8.13
461.714	8.08
461.919	8.27
462.123	8.17
462.328	8.2
