Data from Ofra_PS_T2_1A_2HS09_Reflection_2.txt Node
Date: Wed Jul 21 18:03:56 EDT 2021
User: Adam
Spectrometer: FLMT01687
Trigger mode: 0
Integration Time (sec): 1.100000E0
Scans to average: 2
Electric dark correction enabled: true
Nonlinearity correction enabled: false
Boxcar width: 2
XAxis mode: Wavelengths
Number of Pixels in Spectrum: 3648
>>>>>Begin Spectral Data<<<<<
179.494	489.6
179.716	578.82
179.937	517.74
180.158	513
180.38	721.87
180.601	258.56
180.823	38.36
181.044	-25.59
181.265	88.24
181.486	130.29
181.708	100.46
181.929	526.53
182.15	-173.24
182.372	131.76
182.593	103.48
182.814	64.54
183.035	114.78
183.257	106.68
183.478	77.87
183.699	104.84
183.92	69.67
184.141	53.56
184.363	13.72
184.584	57.16
184.805	39.12
185.026	64.17
185.247	78.14
185.468	50.98
185.689	57.56
185.91	77.98
186.132	75.28
186.353	39.76
186.574	106.92
186.795	76.81
187.016	41.6
187.237	6.73
187.458	-15.47
187.679	-21.66
187.9	0.96
188.121	12.51
188.342	51.08
188.563	91.77
188.784	128.62
189.005	88.21
189.226	120.08
189.447	121.73
189.667	66.99
189.888	-214.29
190.109	-662.34
190.33	-510.97
190.551	-1075.22
190.772	-256.42
190.993	-173.27
191.214	-169
191.434	-86.43
191.655	-1.84
191.876	-40.5
192.097	-92.83
192.318	-132.79
192.538	-205.87
192.759	-185.87
192.98	-79.66
193.201	-31.19
193.421	7.83
193.642	9.9
193.863	24.83
194.083	7.22
194.304	-4.08
194.525	-9.76
194.745	-3.58
194.966	-41.78
195.187	-22.21
195.407	-46.07
195.628	-103.69
195.848	-93.77
196.069	-65.63
196.29	-44.64
196.51	-44.72
196.731	-32.16
196.951	-57.37
197.172	-56.48
197.392	-101.22
197.613	-84.63
197.833	-135.33
198.054	-109.01
198.274	-66.56
198.495	-77.87
198.715	-50.15
198.936	-47.7
199.156	-26.69
199.377	-97.47
199.597	-78.39
199.817	-87.34
200.038	3.42
200.258	-17.88
200.479	51.47
200.699	69.43
200.919	101.29
201.14	36.72
201.36	13.12
201.58	47.04
201.801	75.63
202.021	49.18
202.241	35.09
202.461	26.61
202.682	-73.85
202.902	-155.19
203.122	-95.71
203.342	-77.25
203.563	-28.7
203.783	6.58
204.003	-29.03
204.223	-29.74
204.443	46.1
204.663	47.61
204.884	44.36
205.104	91.64
205.324	110.53
205.544	103.91
205.764	83.88
205.984	84.66
206.204	72.1
206.424	64.66
206.644	26.23
206.864	37.5
207.084	15.13
207.304	24.04
207.525	-63.75
207.745	-3.94
207.964	25.22
208.184	-14.35
208.404	-33.56
208.624	-35.99
208.844	-30.61
209.064	-231.57
209.284	-203.63
209.504	-72.61
209.724	17.55
209.944	28.08
210.164	54.89
210.384	38.6
210.604	14.67
210.823	-14.63
211.043	-44.34
211.263	-45.92
211.483	-19.3
211.703	-46.45
211.922	-20.35
212.142	44.45
212.362	83.52
212.582	40.54
212.801	46.43
213.021	13.47
213.241	5.6
213.461	-40.08
213.68	-35.08
213.9	-24.34
214.12	-4.89
214.339	-82.16
214.559	-53.79
214.779	-4.89
214.998	-11.44
215.218	-54.06
215.438	-22.58
215.657	-30.5
215.877	-47.81
216.096	-5.51
216.316	16.64
216.535	8.2
216.755	16.15
216.974	-47.02
217.194	-89.09
217.413	-113.27
217.633	-69.61
217.852	-122.65
218.072	-19.66
218.291	2.05
218.511	37.09
218.73	8.29
218.95	-8.11
219.169	-20.43
219.389	-57.47
219.608	-36.21
219.827	-21.03
220.047	-8.08
220.266	-4.08
220.485	22.11
220.705	26.28
220.924	-15.1
221.143	20.34
221.363	8.52
221.582	8
221.801	7.94
222.021	47.84
222.24	38.13
222.459	101.2
222.678	63.37
222.897	3.8
223.117	-35.26
223.336	-7.12
223.555	-14.35
223.774	32.42
223.993	48.48
224.213	88.99
224.432	41.25
224.651	68.33
224.87	43.95
225.089	58.11
225.308	49.94
225.527	66.3
225.746	52.8
225.965	39.91
226.184	17.66
226.404	22.69
226.623	-9.76
226.842	-0.85
227.061	20.13
227.28	30.94
227.499	14.05
227.718	40.43
227.936	31.4
228.155	28.39
228.374	11.14
228.593	30.64
228.812	37.94
229.031	41.99
229.25	18.07
229.469	5.4
229.688	30.36
229.907	22.62
230.125	41.28
230.344	46.14
230.563	77.76
230.782	73.49
231.001	20.12
231.22	17.96
231.438	46.92
231.657	39.12
231.876	22.85
232.095	55.61
232.313	63.37
232.532	56.64
232.751	31.61
232.969	15.19
233.188	19.03
233.407	29.3
233.625	11.32
233.844	2.9
234.063	21.45
234.281	20.72
234.5	6.25
234.719	13.24
234.937	20.05
235.156	16.25
235.374	16.38
235.593	23.99
235.811	32.07
236.03	30.35
236.249	23.57
236.467	8.7
236.686	17.83
236.904	21.44
237.123	7.86
237.341	10.69
237.559	29.92
237.778	27.03
237.996	13.16
238.215	41.44
238.433	43.21
238.652	20.47
238.87	-16.97
239.088	3.26
239.307	1.3
239.525	-1.62
239.743	-19.1
239.962	8.53
240.18	-19.48
240.398	-45.26
240.617	-62.68
240.835	-37.06
241.053	-6.58
241.271	37.39
241.49	43.51
241.708	36.99
241.926	46.6
242.144	22.31
242.363	-37.28
242.581	-62.14
242.799	-12.17
243.017	-1.6
243.235	-19.34
243.453	-6.47
243.672	-12.84
243.89	-22.42
244.108	-35.24
244.326	-9.52
244.544	1.26
244.762	12.55
244.98	21.38
245.198	36.33
245.416	12.37
245.634	9.59
245.852	1.92
246.07	11.32
246.288	12.24
246.506	-23.46
246.724	-14.67
246.942	-6.85
247.16	13.25
247.378	8.9
247.596	38.78
247.814	26.67
248.032	7.84
248.25	8.56
248.468	12.03
248.685	11.28
248.903	47.42
249.121	45.1
249.339	22.37
249.557	24.72
249.775	22.69
249.992	-33.07
250.21	-33.09
250.428	-6.98
250.646	-31.64
250.863	-51.62
251.081	-29.79
251.299	-12.02
251.517	-23.9
251.734	0.92
251.952	19.2
252.17	17.18
252.387	35.04
252.605	16.42
252.823	13.98
253.04	34
253.258	65.93
253.475	59.6
253.693	93.18
253.911	107.7
254.128	95.65
254.346	84.86
254.563	50.67
254.781	18.14
254.998	-24.47
255.216	-33.01
255.433	-39.37
255.651	-1.12
255.868	15.77
256.086	55.57
256.303	55.21
256.521	48.39
256.738	21.06
256.956	6.23
257.173	-2.01
257.39	-24.8
257.608	-48.62
257.825	7.73
258.043	38.64
258.26	22.49
258.477	56.8
258.695	72.76
258.912	4.84
259.129	10.94
259.346	-10.92
259.564	-31.24
259.781	-41.83
259.998	17.89
260.216	33.51
260.433	69.71
260.65	60.08
260.867	56.17
261.084	23.16
261.302	-1.79
261.519	-37.86
261.736	-56.99
261.953	-71.05
262.17	-9.75
262.387	-25.62
262.604	-34.14
262.822	-25.51
263.039	-17.54
263.256	-69.57
263.473	-24.88
263.69	-7.63
263.907	22.54
264.124	57.76
264.341	58.75
264.558	34.57
264.775	55.51
264.992	57.97
265.209	24.17
265.426	40.08
265.643	49.39
265.86	37.01
266.077	40.47
266.294	16.28
266.51	-22.94
266.727	-35.54
266.944	-28.36
267.161	-39.49
267.378	-9.03
267.595	13.03
267.812	3.58
268.028	-18.87
268.245	-5.43
268.462	-30.82
268.679	-26.51
268.896	24.02
269.112	27.39
269.329	19.48
269.546	29.27
269.763	16.52
269.979	-23.18
270.196	-18.41
270.413	-43.93
270.629	-61.86
270.846	-53.73
271.063	-23.79
271.279	-29.75
271.496	-14.75
271.712	28.18
271.929	47.1
272.146	23.16
272.362	33
272.579	51.66
272.795	60.99
273.012	68.23
273.228	76.98
273.445	47.33
273.661	33.46
273.878	-29.03
274.094	-23.67
274.311	-60.25
274.527	19.47
274.744	20.55
274.96	24.27
275.177	19.48
275.393	47.65
275.609	42.3
275.826	59.71
276.042	69.22
276.259	52.98
276.475	51.62
276.691	44.45
276.908	20.17
277.124	21.62
277.34	32.86
277.557	27.06
277.773	17.23
277.989	18.56
278.205	12.18
278.422	27.63
278.638	28.21
278.854	38.89
279.07	48.96
279.286	53.23
279.503	21.71
279.719	9.55
279.935	-11.54
280.151	-20.55
280.367	-11.3
280.583	-7.39
280.799	2.23
281.016	-9
281.232	11.72
281.448	16.92
281.664	33.01
281.88	21.92
282.096	32.33
282.312	51.05
282.528	64.09
282.744	74.55
282.96	47.23
283.176	26.98
283.392	8.98
283.608	-0.58
283.824	-7.33
284.04	4.43
284.256	18.73
284.471	2.99
284.687	-7.89
284.903	7.77
285.119	32.24
285.335	12.31
285.551	44.3
285.767	30.74
285.982	11.75
286.198	-21.67
286.414	31.33
286.63	36.46
286.846	52.71
287.061	20.71
287.277	49.02
287.493	18.77
287.709	21.92
287.924	8.69
288.14	49.95
288.356	34.24
288.571	49.44
288.787	28.17
289.003	32.02
289.218	21.31
289.434	-10.08
289.65	0.72
289.865	5.3
290.081	38.24
290.296	32.43
290.512	47.29
290.727	-3.32
290.943	-4.67
291.159	-18.41
291.374	-20.6
291.59	-40.5
291.805	-15.48
292.021	-14.68
292.236	-19.6
292.451	-4.36
292.667	7.37
292.882	25.81
293.098	24.22
293.313	18.58
293.529	-0.93
293.744	-13.16
293.959	-34.36
294.175	-16.97
294.39	16.12
294.605	32.63
294.821	52.69
295.036	66.07
295.251	64.84
295.467	27.97
295.682	9.84
295.897	-20.46
296.112	-38.35
296.328	-35.16
296.543	-39.79
296.758	-26.25
296.973	13.29
297.188	40.35
297.404	10.67
297.619	-4.91
297.834	-29.26
298.049	-65.39
298.264	-83.99
298.479	-19.56
298.694	-0.69
298.909	23.84
299.125	26.57
299.34	30.28
299.555	10.86
299.77	25.35
299.985	-9.63
300.2	-66.25
300.415	-75.34
300.63	-52.96
300.845	-77.09
301.06	-84.3
301.275	-17.07
301.49	-12.95
301.704	-14.27
301.919	-14.07
302.134	-8.29
302.349	-17.39
302.564	-57.97
302.779	-66.01
302.994	-22.1
303.209	6.28
303.423	34.87
303.638	69.64
303.853	28.53
304.068	20.75
304.283	20.18
304.497	7.43
304.712	-4.92
304.927	20.68
305.142	7.98
305.356	13.16
305.571	8.74
305.786	-8.31
306	-34.91
306.215	-17.31
306.43	-29.06
306.644	-5.92
306.859	67.86
307.074	77.84
307.288	41
307.503	37.28
307.717	15.57
307.932	-2.31
308.147	-11.92
308.361	23.66
308.576	8.26
308.79	-27.1
309.005	-23.81
309.219	0
309.434	-13.61
309.648	-10.85
309.863	10.07
310.077	4.4
310.292	-12.44
310.506	-2.25
310.72	14.67
310.935	25.21
311.149	26.07
311.364	40.31
311.578	43.13
311.792	39.68
312.007	44
312.221	36.05
312.435	52.38
312.649	38.33
312.864	34.67
313.078	36.6
313.292	103.94
313.507	69.85
313.721	83.04
313.935	77.85
314.149	68.05
314.363	28.23
314.578	13.33
314.792	12.23
315.006	-3.89
315.22	9.77
315.434	25.3
315.648	40.87
315.862	40.45
316.077	43.87
316.291	16.75
316.505	15.51
316.719	-11.38
316.933	-21.9
317.147	-16.05
317.361	-52.4
317.575	-76.61
317.789	-105.14
318.003	-146.37
318.217	-99.12
318.431	-11.34
318.645	25.6
318.859	36.34
319.073	53.72
319.287	27.81
319.5	-0
319.714	-44.47
319.928	-95.29
320.142	-110.14
320.356	-54.72
320.57	-10.4
320.784	-15.23
320.997	6.13
321.211	-15.21
321.425	-69.25
321.639	-90.37
321.853	-32.59
322.066	-15.04
322.28	-16.4
322.494	4.89
322.707	26.87
322.921	11.53
323.135	4.25
323.349	15.8
323.562	-12.98
323.776	-25.94
323.989	-22.78
324.203	-43.2
324.417	-44.25
324.63	-45.96
324.844	-44.43
325.057	-37.26
325.271	-1.36
325.485	26.52
325.698	48.59
325.912	48.88
326.125	21.67
326.339	20.43
326.552	-7.35
326.766	-5.67
326.979	27.29
327.193	71.77
327.406	60.42
327.619	45.58
327.833	50.1
328.046	21.46
328.26	-29.84
328.473	-25.37
328.686	-39.04
328.9	-21.24
329.113	-10.81
329.326	-18.63
329.54	8.02
329.753	-11.93
329.966	-63.83
330.179	-48.41
330.393	-22.04
330.606	-12.29
330.819	12.97
331.032	32.22
331.246	31.38
331.459	57.36
331.672	39.99
331.885	35.17
332.098	22.05
332.311	11.6
332.525	-36.64
332.738	-17.54
332.951	5.67
333.164	20.19
333.377	36.69
333.59	50.16
333.803	61.91
334.016	57.11
334.229	61.58
334.442	54.79
334.655	73.13
334.868	77.26
335.081	63.35
335.294	43.58
335.507	30.29
335.72	8.59
335.933	-9.73
336.146	-27.58
336.359	-24.02
336.572	-41.9
336.785	-54.85
336.997	-40.15
337.21	-2.41
337.423	-4.71
337.636	6.33
337.849	33.74
338.062	14.92
338.274	9.46
338.487	8.26
338.7	9.46
338.913	-42.99
339.125	-56.72
339.338	-107.93
339.551	-87.94
339.763	-61.51
339.976	-11.74
340.189	17.98
340.402	24.3
340.614	20.39
340.827	10.07
341.039	-13
341.252	-14.99
341.465	5.33
341.677	16.56
341.89	-7.13
342.102	20.5
342.315	-0.75
342.527	-22.66
342.74	-39.82
342.952	-4.72
343.165	-16.73
343.377	20.01
343.59	22.53
343.802	45.01
344.015	37.7
344.227	49.94
344.44	34.55
344.652	38.87
344.864	14.71
345.077	39.49
345.289	35.91
345.502	38.79
345.714	22.08
345.926	23.93
346.139	16.02
346.351	23.25
346.563	26.29
346.775	42.97
346.988	37.5
347.2	34.93
347.412	-5.6
347.624	-9.82
347.837	-19.38
348.049	14.03
348.261	29.32
348.473	43.6
348.685	35.86
348.897	29.34
349.11	7.37
349.322	-21.91
349.534	-4.36
349.746	0.88
349.958	-14.01
350.17	-28.1
350.382	-2.08
350.594	-15.61
350.806	-18.82
351.018	-3.59
351.23	0.61
351.442	-43.72
351.654	-34.44
351.866	-19.46
352.078	-24.78
352.29	4.06
352.502	22.91
352.714	29.97
352.926	26.13
353.138	30.45
353.35	14.36
353.561	16.39
353.773	-12.99
353.985	-0.71
354.197	-11.16
354.409	-14.55
354.621	-25.23
354.832	-3.57
355.044	-17.58
355.256	-18.77
355.468	0.12
355.679	1.52
355.891	10.42
356.103	2.52
356.314	14.83
356.526	4.17
356.738	11.38
356.949	-13.19
357.161	0.71
357.373	-2.42
357.584	-7.99
357.796	2.21
358.008	-3.32
358.219	15.01
358.431	15.1
358.642	34.63
358.854	24.1
359.065	30.24
359.277	1.02
359.488	-10.06
359.7	-43.92
359.911	-40.33
360.123	-22.25
360.334	-31.39
360.546	-31.4
360.757	-26.33
360.969	-19.03
361.18	-15.3
361.391	3.08
361.603	0.72
361.814	16.52
362.025	18.36
362.237	23.69
362.448	29.59
362.659	31.19
362.871	27.31
363.082	24.66
363.293	15.97
363.504	3.91
363.716	-14.2
363.927	-20.58
364.138	-35.96
364.349	-44.14
364.56	-35.1
364.772	-21.95
364.983	0.59
365.194	-0.74
365.405	12.35
365.616	33.58
365.827	38.81
366.038	18.63
366.25	10.09
366.461	-12.05
366.672	-7.85
366.883	7.49
367.094	7
367.305	10.52
367.516	13.55
367.727	-16.01
367.938	-35.67
368.149	-27.26
368.36	-15.39
368.571	-5.72
368.781	-2.62
368.992	-16.45
369.203	-15.81
369.414	-38.38
369.625	-43.75
369.836	-41.71
370.047	-52.56
370.258	-65.93
370.468	-52.26
370.679	-66.9
370.89	-64.05
371.101	-37.94
371.312	-30.57
371.522	-26.61
371.733	-15.9
371.944	1.88
372.155	4.27
372.365	-13.98
372.576	-24.58
372.787	-29.3
372.997	-61.24
373.208	-57.42
373.419	-21.7
373.629	-33.96
373.84	-31.91
374.05	-36.97
374.261	-29.41
374.472	-49.42
374.682	7.66
374.893	6.81
375.103	52.88
375.314	47.46
375.524	50.7
375.735	42.53
375.945	47.96
376.156	14.41
376.366	11.12
376.577	10.39
376.787	-7.44
376.997	-5.66
377.208	-10.4
377.418	-19.13
377.629	-3.19
377.839	-3.49
378.049	-4.73
378.26	12.23
378.47	17.08
378.68	4.49
378.89	3.74
379.101	-0.87
379.311	-33.67
379.521	-58.77
379.732	-50.82
379.942	-50.66
380.152	-63.6
380.362	-27.32
380.572	-20.01
380.783	-11.59
380.993	0.22
381.203	9.28
381.413	13.02
381.623	14.75
381.833	15.18
382.043	8.04
382.253	4.49
382.463	-0.65
382.674	-1.31
382.884	-24.23
383.094	-24
383.304	-16.92
383.514	-7.16
383.724	-0.86
383.934	1.48
384.144	-5.44
384.353	-16.02
384.563	-17.02
384.773	-13.29
384.983	-14.73
385.193	6.46
385.403	15.75
385.613	7.59
385.823	-6.6
386.033	-0.94
386.242	-13.24
386.452	-20.05
386.662	-22.55
386.872	-6.35
387.082	-9.58
387.291	-14.19
387.501	-15.38
387.711	-10.02
387.921	-15.51
388.13	-12.27
388.34	-2.31
388.55	-2.2
388.759	2.77
388.969	3.8
389.179	-2.18
389.388	-3.95
389.598	-1.67
389.807	-11.13
390.017	-12.48
390.227	-9.9
390.436	-12.23
390.646	-9.05
390.855	-4.79
391.065	-2.22
391.274	-2.31
391.484	-2.12
391.693	-0.69
391.903	0.57
392.112	4.83
392.322	7.04
392.531	9.63
392.74	9.23
392.95	5.09
393.159	1.07
393.369	0.36
393.578	-0.65
393.787	-2.1
393.997	-0.24
394.206	-1.54
394.415	-0.21
394.625	-0.8
394.834	-1.98
395.043	-1.8
395.252	1.14
395.462	1.63
395.671	2.58
395.88	3.06
396.089	4.56
396.298	3.18
396.508	3.55
396.717	3.03
396.926	2.5
397.135	1.14
397.344	0.76
397.553	0.46
397.762	1.92
397.971	2.68
398.181	2.94
398.39	2.11
398.599	1.68
398.808	1.19
399.017	1.92
399.226	2.74
399.435	3.81
399.644	4.06
399.853	3.11
400.062	2.24
400.27	1.5
400.479	1.21
400.688	0.33
400.897	0.68
401.106	0.95
401.315	1.02
401.524	0.87
401.733	1.78
401.941	1.78
402.15	1.77
402.359	1.72
402.568	2.28
402.777	2.32
402.985	2.53
403.194	2.49
403.403	2.41
403.612	1.97
403.82	1.78
404.029	2.02
404.238	1.97
404.446	2.41
404.655	2.26
404.864	2.08
405.072	1.55
405.281	1.67
405.489	1.23
405.698	1.26
405.906	1.23
406.115	1.38
406.324	1.34
406.532	1.43
406.741	1.86
406.949	1.87
407.158	1.85
407.366	1.84
407.574	1.89
407.783	1.7
407.991	1.56
408.2	1.7
408.408	1.63
408.617	1.59
408.825	1.47
409.033	1.63
409.242	1.63
409.45	1.72
409.658	1.52
409.867	1.68
410.075	1.63
410.283	1.5
410.491	1.44
410.7	1.52
410.908	1.49
411.116	1.79
411.324	1.78
411.533	1.66
411.741	1.96
411.949	1.9
412.157	1.52
412.365	1.58
412.573	1.69
412.781	1.59
412.99	1.55
413.198	1.79
413.406	1.77
413.614	1.76
413.822	1.64
414.03	1.6
414.238	1.35
414.446	1.53
414.654	1.32
414.862	1.44
415.07	1.54
415.278	1.82
415.486	1.5
415.694	1.68
415.902	1.48
416.109	1.45
416.317	1.28
416.525	1.2
416.733	1.12
416.941	1.36
417.149	1.32
417.357	1.26
417.564	1.53
417.772	1.84
417.98	1.62
418.188	1.64
418.395	1.74
418.603	1.79
418.811	1.35
419.019	1.29
419.226	1.43
419.434	1.54
419.642	1.34
419.849	1.61
420.057	1.67
420.265	1.63
420.472	1.39
420.68	1.54
420.887	1.35
421.095	1.51
421.302	1.49
421.51	1.74
421.717	1.67
421.925	1.82
422.132	1.65
422.34	1.37
422.547	1.4
422.755	1.34
422.962	1.3
423.17	1.24
423.377	1.45
423.585	1.31
423.792	1.29
423.999	1.27
424.207	1.24
424.414	1.3
424.621	1.14
424.829	1.21
425.036	1.24
425.243	1.47
425.451	1.33
425.658	1.31
425.865	1.38
426.072	1.43
426.28	1.57
426.487	1.53
426.694	1.69
426.901	1.55
427.108	1.52
427.315	1.3
427.523	1.55
427.73	1.58
427.937	1.41
428.144	1.31
428.351	1.32
428.558	1.42
428.765	1.31
428.972	1.45
429.179	1.5
429.386	1.66
429.593	1.3
429.8	1.13
430.007	1.14
430.214	1.28
430.421	1.07
430.628	1.03
430.835	1.03
431.042	1.21
431.249	1.23
431.456	1.27
431.662	1.49
431.869	1.72
432.076	1.74
432.283	1.68
432.49	1.77
432.697	1.68
432.903	1.48
433.11	1.39
433.317	1.46
433.524	1.63
433.73	1.56
433.937	1.79
434.144	1.73
434.35	1.64
434.557	1.35
434.764	1.44
434.97	1.38
435.177	1.64
435.384	1.56
435.59	1.74
435.797	1.92
436.003	1.96
436.21	1.81
436.416	1.96
436.623	1.91
436.829	1.91
437.036	1.98
437.242	2.01
437.449	1.85
437.655	1.88
437.862	1.72
438.068	1.54
438.275	1.58
438.481	1.78
438.687	1.79
438.894	1.79
439.1	1.87
439.307	1.98
439.513	1.91
439.719	1.84
439.926	1.99
440.132	1.99
440.338	1.76
440.544	1.94
440.751	1.92
440.957	1.95
441.163	1.82
441.369	2.07
441.575	1.77
441.782	1.81
441.988	1.63
442.194	1.71
442.4	1.56
442.606	1.88
442.812	1.92
443.018	2.09
443.224	2.12
443.431	2.21
443.637	1.96
443.843	1.86
444.049	1.84
444.255	1.74
444.461	1.77
444.667	1.8
444.873	1.99
445.079	2.03
445.284	2.21
445.49	2.03
445.696	1.9
445.902	1.8
446.108	1.77
446.314	1.64
446.52	1.77
446.726	2.08
446.931	2.11
447.137	2.12
447.343	2.17
447.549	2.06
447.755	1.91
447.96	1.93
448.166	1.74
448.372	1.73
448.578	1.81
448.783	1.79
448.989	1.89
449.195	2.11
449.4	2.14
449.606	2.07
449.812	2.04
450.017	1.98
450.223	1.92
450.428	1.84
450.634	1.96
450.84	2.05
451.045	1.97
451.251	1.91
451.456	2.18
451.662	2.29
451.867	2.33
452.073	2.28
452.278	2.39
452.483	2.36
452.689	2.25
452.894	2.26
453.1	2.3
453.305	2.26
453.51	2.17
453.716	2.12
453.921	2.16
454.127	2.12
454.332	2.01
454.537	1.93
454.742	1.89
454.948	1.84
455.153	1.94
455.358	2.04
455.563	2.28
455.769	2.47
455.974	2.43
456.179	2.36
456.384	2.32
456.589	2.14
456.795	1.9
457	1.85
457.205	2.04
457.41	2.02
457.615	1.97
457.82	2.09
458.025	2.21
458.23	2.04
458.435	2.19
458.64	2.16
458.845	2.32
459.05	2.23
459.255	2.29
459.46	2.24
459.665	2.24
459.87	2.25
460.075	2.22
460.28	2.18
460.485	2.24
460.69	2.37
460.895	2.15
461.099	2.19
461.304	2.3
461.509	2.31
461.714	2.18
461.919	2.35
462.123	2.27
462.328	2.38
462.533	2.25
462.738	2.35
462.942	2.27
463.147	2.39
463.352	2.36
463.556	2.42
