Data from Ofra_PS_T2_2A_2CX10_Reflection_3.txt Node
Date: Wed Jul 21 16:57:34 EDT 2021
User: Adam
Spectrometer: FLMT01687
Trigger mode: 0
Integration Time (sec): 1.100000E0
Scans to average: 2
Electric dark correction enabled: true
Nonlinearity correction enabled: false
Boxcar width: 2
XAxis mode: Wavelengths
Number of Pixels in Spectrum: 3648
>>>>>Begin Spectral Data<<<<<
179.494	530.2
179.716	599.76
179.937	584.63
180.158	580.19
180.38	996.72
180.601	484.94
180.823	206.07
181.044	241.11
181.265	495.4
181.486	148.46
181.708	107.1
181.929	21.94
182.15	394.72
182.372	246.71
182.593	200.09
182.814	52.37
183.035	69.61
183.257	51.56
183.478	-31.01
183.699	-12.76
183.92	16.73
184.141	8.7
184.363	-27.71
184.584	8.6
184.805	9.98
185.026	25.07
185.247	19.39
185.468	5.35
185.689	23.03
185.91	21.21
186.132	11.97
186.353	2.62
186.574	47.81
186.795	17.69
187.016	3.06
187.237	-13.62
187.458	-16.11
187.679	-42.81
187.9	-37.93
188.121	-62.16
188.342	-90.24
188.563	-32.32
188.784	-10.44
189.005	-34.83
189.226	37.09
189.447	46.69
189.667	-137.74
189.888	-299.38
190.109	-750.32
190.33	-626.29
190.551	-1119.25
190.772	-256.84
190.993	-230.97
191.214	-185.75
191.434	-111.39
191.655	-55.06
191.876	-75.98
192.097	-112.02
192.318	-119.62
192.538	-190.54
192.759	-120.67
192.98	-49.18
193.201	-14.91
193.421	-9.15
193.642	13.39
193.863	12.49
194.083	-11.43
194.304	-18.77
194.525	-28.8
194.745	-81.45
194.966	-95.77
195.187	-94.22
195.407	-141.32
195.628	-176.18
195.848	-154.51
196.069	-132.35
196.29	-88.71
196.51	-89.29
196.731	-90.06
196.951	-103.99
197.172	-113.54
197.392	-139.07
197.613	-117.73
197.833	-128.58
198.054	-117.8
198.274	-77.23
198.495	-91.19
198.715	-79.14
198.936	-98.87
199.156	-82.63
199.377	-171.65
199.597	-142.73
199.817	-130.7
200.038	-62.9
200.258	-119.04
200.479	-56.94
200.699	-74.51
200.919	-35.41
201.14	-71.22
201.36	-88.58
201.58	-21.05
201.801	22.11
202.021	-16.06
202.241	-16.76
202.461	2.01
202.682	-80.8
202.902	-188.53
203.122	-106.56
203.342	-84.64
203.563	-40.69
203.783	-12.04
204.003	-38.89
204.223	-45.28
204.443	-15.89
204.663	-65.08
204.884	-43.97
205.104	-24.13
205.324	-13.76
205.544	9.32
205.764	28.72
205.984	15.5
206.204	38.58
206.424	36.62
206.644	7.07
206.864	-2.27
207.084	-29.64
207.304	-53.88
207.525	-222.73
207.745	-128.1
207.964	-50.65
208.184	-77.52
208.404	-95.6
208.624	-94.35
208.844	-75.74
209.064	-326.67
209.284	-316
209.504	-183.26
209.724	-43.42
209.944	-42.14
210.164	5.6
210.384	12.18
210.604	17.77
210.823	-12.96
211.043	-28.02
211.263	-12.69
211.483	-21
211.703	-59.69
211.922	-43.06
212.142	15.69
212.362	4.35
212.582	2.13
212.801	9.24
213.021	-13.6
213.241	-29.52
213.461	-65.62
213.68	-99.12
213.9	-91.23
214.12	-68.85
214.339	-133.82
214.559	-85.84
214.779	-13.25
214.998	-12.47
215.218	-40.87
215.438	-5.66
215.657	-25.39
215.877	-34.83
216.096	-11.81
216.316	-0.99
216.535	-2.95
216.755	-3.32
216.974	-66
217.194	-123.07
217.413	-132.83
217.633	-165.09
217.852	-276.73
218.072	-100.57
218.291	-47.9
218.511	0.29
218.73	-6.71
218.95	2.13
219.169	-18.76
219.389	-52.29
219.608	-50.2
219.827	-50.32
220.047	-32.9
220.266	-25.18
220.485	-15.51
220.705	-11.73
220.924	-25.47
221.143	-9.97
221.363	-20.81
221.582	-8.78
221.801	4.27
222.021	31.84
222.24	-5.69
222.459	38.94
222.678	13.48
222.897	-40.15
223.117	-113.25
223.336	-59.14
223.555	-64.8
223.774	-30.85
223.993	-35.6
224.213	32.2
224.432	18.63
224.651	37.14
224.87	5
225.089	25.86
225.308	6.73
225.527	17.9
225.746	9.49
225.965	10.67
226.184	-24.43
226.404	1.93
226.623	-21.54
226.842	-17.85
227.061	1.4
227.28	18.94
227.499	15.85
227.718	35.18
227.936	41.13
228.155	55.65
228.374	32.21
228.593	35.28
228.812	14.04
229.031	0.92
229.25	-50.28
229.469	-61.4
229.688	-57.59
229.907	-9.96
230.125	3.79
230.344	25.92
230.563	36.54
230.782	36.55
231.001	-22.63
231.22	-23.93
231.438	-14.14
231.657	-6.13
231.876	-8.36
232.095	30.83
232.313	23.16
232.532	-15.02
232.751	-52.25
232.969	-73.16
233.188	-181.09
233.407	-44.85
233.625	-5.11
233.844	7.5
234.063	24.4
234.281	35.36
234.5	14.81
234.719	21.64
234.937	25.13
235.156	21.11
235.374	24.91
235.593	8.29
235.811	5.89
236.03	-1.9
236.249	-30.87
236.467	-11.19
236.686	5.28
236.904	-0.08
237.123	-17.94
237.341	-14.59
237.559	-15.97
237.778	-26.24
237.996	-37.4
238.215	10.2
238.433	12.41
238.652	-1.38
238.87	-24.5
239.088	-24.4
239.307	-34.95
239.525	-52.37
239.743	-74.37
239.962	-76.7
240.18	-74.41
240.398	-127.54
240.617	-108.23
240.835	-72.25
241.053	-49.36
241.271	-2.89
241.49	17.49
241.708	-9.82
241.926	-59.92
242.144	-34.25
242.363	-75.6
242.581	-92.38
242.799	-45.87
243.017	-6.73
243.235	-27.94
243.453	-31.69
243.672	-31.58
243.89	-22.81
244.108	-29.52
244.326	-9.62
244.544	-8.04
244.762	-4.65
244.98	-6.75
245.198	-20.26
245.416	-41.29
245.634	-33.48
245.852	-52.22
246.07	-59.76
246.288	-49.77
246.506	-71.82
246.724	-52.47
246.942	-35.92
247.16	-27.52
247.378	-31.71
247.596	-13.46
247.814	-21.73
248.032	-36.4
248.25	-22.9
248.468	-12.82
248.685	-21.01
248.903	13.43
249.121	29.32
249.339	-10.68
249.557	-20.85
249.775	-14.54
249.992	-77.72
250.21	-92.93
250.428	-69.7
250.646	-88.48
250.863	-90.04
251.081	-63
251.299	-45.1
251.517	-33.9
251.734	-31.28
251.952	-46
252.17	-43.45
252.387	-37.95
252.605	-40.04
252.823	-35.91
253.04	-2.03
253.258	19.45
253.475	4.32
253.693	25.81
253.911	34.37
254.128	7.8
254.346	-7.74
254.563	4.3
254.781	-22.64
254.998	-52.51
255.216	-51.77
255.433	-53.97
255.651	-38.47
255.868	-3.32
256.086	37.68
256.303	35.99
256.521	33
256.738	14.89
256.956	-18.99
257.173	-54.07
257.39	-82.73
257.608	-98.43
257.825	-54.49
258.043	-26.06
258.26	1.12
258.477	48.98
258.695	21.34
258.912	-30.34
259.129	-26.11
259.346	-65.64
259.564	-117.07
259.781	-127.38
259.998	-49.83
260.216	-28.83
260.433	-0.32
260.65	5.25
260.867	32.02
261.084	-7.35
261.302	-33.49
261.519	-33.78
261.736	-51.88
261.953	-85.58
262.17	-52.98
262.387	-78.63
262.604	-102.31
262.822	-96.33
263.039	-61.54
263.256	-92.73
263.473	-48.25
263.69	-20.55
263.907	7.94
264.124	9.49
264.341	0.25
264.558	5.39
264.775	10.88
264.992	-1.34
265.209	0.92
265.426	25.59
265.643	15.25
265.86	17.93
266.077	27.99
266.294	-3.49
266.51	-47.33
266.727	-50.18
266.944	-58.04
267.161	-65.25
267.378	-39.29
267.595	-14.76
267.812	-41.84
268.028	-54.53
268.245	-41.27
268.462	-50.05
268.679	-48.45
268.896	12.34
269.112	14.25
269.329	3
269.546	13.07
269.763	9.57
269.979	-8.78
270.196	-16.8
270.413	-33.6
270.629	-48.47
270.846	-40.72
271.063	-35.8
271.279	-45.21
271.496	-46.31
271.712	-32.59
271.929	-47.24
272.146	-75.22
272.362	-55.8
272.579	-14.37
272.795	4.39
273.012	16.34
273.228	29.53
273.445	9.52
273.661	-9.77
273.878	-42.74
274.094	-43.26
274.311	-69.47
274.527	3.17
274.744	2.17
274.96	-1.51
275.177	14.1
275.393	33.16
275.609	8.46
275.826	35.16
276.042	36.05
276.259	36.38
276.475	34.91
276.691	35.59
276.908	7.41
277.124	21.99
277.34	12.76
277.557	3.32
277.773	0.22
277.989	-2.8
278.205	-3.55
278.422	-7.7
278.638	-5.47
278.854	2.81
279.07	1.84
279.286	15.18
279.503	8.12
279.719	5.33
279.935	-18.1
280.151	-34.16
280.367	-50.16
280.583	-74.96
280.799	-63.23
281.016	-80.27
281.232	-24.31
281.448	-26.41
281.664	3.68
281.88	3.75
282.096	19.73
282.312	51.83
282.528	75.53
282.744	89.88
282.96	64.16
283.176	38.28
283.392	11.41
283.608	-5.9
283.824	-12.67
284.04	-12.5
284.256	-7.56
284.471	-19.68
284.687	-11.58
284.903	19.79
285.119	42.35
285.335	35.95
285.551	57.48
285.767	28.15
285.982	-8.83
286.198	-42.76
286.414	4.33
286.63	9.39
286.846	30.41
287.061	13.72
287.277	42.37
287.493	9.44
287.709	24.15
287.924	13.93
288.14	49.69
288.356	28.31
288.571	36.74
288.787	17.08
289.003	16.57
289.218	-11.19
289.434	-38.56
289.65	-19.29
289.865	-41.49
290.081	-20.06
290.296	-12.58
290.512	-0.93
290.727	-29.37
290.943	-14.27
291.159	-17.92
291.374	-12.89
291.59	-30.71
291.805	-22.91
292.021	-17.45
292.236	-32.42
292.451	-18.3
292.667	6.29
292.882	12.33
293.098	1.77
293.313	-12.67
293.529	-32.1
293.744	-60.28
293.959	-59.96
294.175	-47.64
294.39	-13.51
294.605	-2.21
294.821	18.43
295.036	25.71
295.251	24.41
295.467	13.09
295.682	16.23
295.897	-23.29
296.112	-38.04
296.328	-37.78
296.543	-57.09
296.758	-67.64
296.973	-5.78
297.188	22.32
297.404	8.07
297.619	3.02
297.834	-14.37
298.049	-42.95
298.264	-70.57
298.479	-20.85
298.694	-22.91
298.909	12.17
299.125	23.75
299.34	42.83
299.555	16.02
299.77	39.56
299.985	3.28
300.2	-54.3
300.415	-75.85
300.63	-17.89
300.845	-36.34
301.06	-39.63
301.275	9.96
301.49	14.7
301.704	-10.15
301.919	-6.62
302.134	-22.16
302.349	-40.02
302.564	-72.54
302.779	-100.7
302.994	-104.19
303.209	-49.35
303.423	-38.18
303.638	-5.48
303.853	-17.66
304.068	-28.64
304.283	-29.53
304.497	-23.97
304.712	-29.27
304.927	-15.81
305.142	-7.92
305.356	5.64
305.571	5.9
305.786	-13.23
306	-31.53
306.215	-42.95
306.43	-67.87
306.644	-100.27
306.859	-57.6
307.074	-36.96
307.288	-54.79
307.503	-65.77
307.717	-42.26
307.932	-33.28
308.147	-33.75
308.361	-4.44
308.576	-6.7
308.79	-39.73
309.005	-40.84
309.219	-24.38
309.434	-54.55
309.648	-55.66
309.863	-23.53
310.077	-23.88
310.292	-35.26
310.506	-17.04
310.72	0.94
310.935	8.26
311.149	-4.45
311.364	11.9
311.578	28.68
311.792	19.19
312.007	16.51
312.221	14.81
312.435	9.76
312.649	-4.84
312.864	-41.77
313.078	-32.66
313.292	-5.93
313.507	-20.14
313.721	-3.09
313.935	47.87
314.149	37.08
314.363	36.13
314.578	28.14
314.792	18.12
315.006	8.12
315.22	8.82
315.434	1.91
315.648	19.13
315.862	16.74
316.077	21.09
316.291	26.02
316.505	32.33
316.719	13.46
316.933	2.61
317.147	-6.41
317.361	-54.39
317.575	-80.46
317.789	-92.97
318.003	-158.44
318.217	-123.84
318.431	-37.71
318.645	9.58
318.859	-0.09
319.073	25.77
319.287	10.36
319.5	-25.11
319.714	-66.08
319.928	-78.32
320.142	-101.45
320.356	-65.28
320.57	-33.69
320.784	-34.07
320.997	-44.13
321.211	-43.38
321.425	-82.12
321.639	-94.72
321.853	-47.13
322.066	-38.06
322.28	-44.55
322.494	-27.61
322.707	-14.42
322.921	-28.74
323.135	-13.31
323.349	-14.25
323.562	-36.6
323.776	-37.96
323.989	-40.55
324.203	-67.29
324.417	-50.86
324.63	-49.01
324.844	-62.16
325.057	-55.81
325.271	-50.92
325.485	-21.3
325.698	-0.24
325.912	18.87
326.125	-5.83
326.339	0.97
326.552	-22.55
326.766	-23.18
326.979	-15.02
327.193	18.92
327.406	10.98
327.619	17.25
327.833	18.5
328.046	-8.27
328.26	-31.17
328.473	-6.95
328.686	-39.16
328.9	-49.13
329.113	-16.33
329.326	-34.66
329.54	-47.08
329.753	-61.02
329.966	-67.48
330.179	-83.93
330.393	-44.78
330.606	-38.01
330.819	-11.62
331.032	6.71
331.246	10.82
331.459	26.09
331.672	23.33
331.885	15.73
332.098	-16.51
332.311	-29.41
332.525	-79.6
332.738	-77.07
332.951	-59.87
333.164	-24.85
333.377	-17.24
333.59	8.44
333.803	24.44
334.016	22.88
334.229	13.97
334.442	41.66
334.655	38.15
334.868	29.67
335.081	24.43
335.294	21.87
335.507	-7.54
335.72	-10.67
335.933	-25.2
336.146	-16.09
336.359	-13.73
336.572	-27.78
336.785	-50.37
336.997	-34.53
337.21	-27.03
337.423	-29.91
337.636	-18.74
337.849	11.26
338.062	-12.76
338.274	-6.94
338.487	-11.56
338.7	-23.07
338.913	-58.79
339.125	-58.14
339.338	-122.32
339.551	-91.21
339.763	-49.35
339.976	-24.02
340.189	-13.9
340.402	4.07
340.614	-2.87
340.827	-24.71
341.039	-30.83
341.252	-25.03
341.465	-2.91
341.677	-5.28
341.89	-21.73
342.102	-6.88
342.315	-26.29
342.527	-66.46
342.74	-53.62
342.952	-21.97
343.165	-26.97
343.377	5.34
343.59	4.03
343.802	7.33
344.015	6
344.227	13.4
344.44	3.84
344.652	11.82
344.864	2.82
345.077	28.23
345.289	24.29
345.502	28.5
345.714	23.93
345.926	24.09
346.139	1.24
346.351	15.56
346.563	16.4
346.775	12.37
346.988	7.11
347.2	4.02
347.412	-52.94
347.624	-67.04
347.837	-75.41
348.049	-41.74
348.261	-12.42
348.473	5.3
348.685	8.37
348.897	12.65
349.11	-13.29
349.322	-78.54
349.534	-65.55
349.746	-69.11
349.958	-67.07
350.17	-71.88
350.382	-3.04
350.594	-27.67
350.806	-11.53
351.018	-10.36
351.23	-14.44
351.442	-62.09
351.654	-49.39
351.866	-62.32
352.078	-55.42
352.29	-27.98
352.502	-8.64
352.714	9.4
352.926	5.77
353.138	5.27
353.35	3.22
353.561	-4.97
353.773	-18.63
353.985	-8.57
354.197	-19.95
354.409	-26.39
354.621	-27.33
354.832	-17.69
355.044	-29.68
355.256	-20.78
355.468	-6.33
355.679	-2.98
355.891	-7.32
356.103	-11.75
356.314	-1.15
356.526	-8.63
356.738	4.05
356.949	-1.38
357.161	20.51
357.373	3.77
357.584	-3.22
357.796	5.31
358.008	5.1
358.219	-6.3
358.431	-3.45
358.642	2.25
358.854	-14.88
359.065	-23.84
359.277	-42.2
359.488	-43.84
359.7	-66.57
359.911	-71.53
360.123	-58.6
360.334	-63.37
360.546	-87.22
360.757	-72.52
360.969	-44.46
361.18	-22.43
361.391	2.39
361.603	5.82
361.814	18.44
362.025	5.56
362.237	13.54
362.448	12.73
362.659	18.46
362.871	11.72
363.082	10.18
363.293	-4.04
363.504	-16.47
363.716	-32.95
363.927	-49.78
364.138	-62.58
364.349	-72.58
364.56	-52.5
364.772	-38.57
364.983	-8.98
365.194	-5.38
365.405	5.44
365.616	15.19
365.827	20.42
366.038	-3.85
366.25	-17.83
366.461	-44.23
366.672	-32.88
366.883	-18.81
367.094	-13.29
367.305	-12.17
367.516	4.33
367.727	-13.08
367.938	-29.83
368.149	-17.03
368.36	-2.14
368.571	-0.6
368.781	-3.87
368.992	-12.58
369.203	-18.34
369.414	-20.25
369.625	-36.15
369.836	-33.57
370.047	-49.11
370.258	-40.85
370.468	-47.73
370.679	-57.96
370.89	-49.76
371.101	-25.6
371.312	-32.35
371.522	-35.57
371.733	-21.73
371.944	-12.13
372.155	-11.95
372.365	-16.51
372.576	-13.88
372.787	-15.88
372.997	-24.83
373.208	-22.56
373.419	-8.82
373.629	-27.98
373.84	-20.94
374.05	-46.91
374.261	-36.94
374.472	-40.16
374.682	3.01
374.893	-7.19
375.103	27.26
375.314	16.5
375.524	12.79
375.735	4.58
375.945	21.49
376.156	-0.31
376.366	-0.87
376.577	3.13
376.787	-2.51
376.997	-14.04
377.208	-9.89
377.418	-7.88
377.629	-0.66
377.839	1.56
378.049	0.45
378.26	6.77
378.47	5.32
378.68	1.36
378.89	-5.62
379.101	-2.49
379.311	-12.3
379.521	-32.33
379.732	-41.75
379.942	-40.33
380.152	-59.34
380.362	-31.76
380.572	-18.29
380.783	-2.03
380.993	17.2
381.203	25.95
381.413	21.59
381.623	32.76
381.833	30.62
382.043	17.59
382.253	16.84
382.463	12.6
382.674	0.04
382.884	-24.29
383.094	-19.31
383.304	-13.54
383.514	-11.79
383.724	-2.11
383.934	-8.16
384.144	-25.06
384.353	-35.82
384.563	-36.34
384.773	-32.51
384.983	-28.79
385.193	-1.36
385.403	12.63
385.613	15.13
385.823	7.89
386.033	10.47
386.242	0.24
386.452	-11.7
386.662	-19.83
386.872	-7.69
387.082	-9.91
387.291	-19.36
387.501	-15.91
387.711	-6.04
387.921	-12.31
388.13	-8.65
388.34	1.99
388.55	-4.42
388.759	-6.95
388.969	-4.33
389.179	-4.88
389.388	-6.35
389.598	3.18
389.807	-2
390.017	-6.06
390.227	-6.4
390.436	-7.51
390.646	-12.75
390.855	-7
391.065	-4.42
391.274	-4.47
391.484	-2.76
391.693	1.36
391.903	1.18
392.112	4.12
392.322	7.77
392.531	9.83
392.74	10.26
392.95	5.9
393.159	5.32
393.369	4.59
393.578	3.04
393.787	1.49
393.997	4.44
394.206	2.97
394.415	2.34
394.625	1.93
394.834	1.94
395.043	3.11
395.252	5.45
395.462	6.13
395.671	8.05
395.88	7.95
396.089	7.11
396.298	4.87
396.508	4.65
396.717	2.64
396.926	4.33
397.135	5.1
397.344	5.25
397.553	6
397.762	8.07
397.971	7.96
398.181	8.29
398.39	8.5
398.599	7.95
398.808	7.48
399.017	7.66
399.226	7.83
399.435	8.57
399.644	9.16
399.853	8.45
400.062	7.91
400.27	7.69
400.479	7.37
400.688	6.38
400.897	6.45
401.106	6.55
401.315	6.39
401.524	6.69
401.733	7.07
401.941	7.63
402.15	7.95
402.359	7.8
402.568	8
402.777	8.19
402.985	8.03
403.194	7.95
403.403	8.03
403.612	7.52
403.82	7.4
404.029	7.75
404.238	7.47
404.446	7.93
404.655	7.99
404.864	7.91
405.072	7.33
405.281	7.5
405.489	7.08
405.698	7
405.906	7.16
406.115	7.23
406.324	7.22
406.532	7.26
406.741	7.47
406.949	7.31
407.158	7.37
407.366	7.34
407.574	7.38
407.783	7.41
407.991	7.36
408.2	7.57
408.408	7.57
408.617	7.35
408.825	7.11
409.033	7.14
409.242	7.08
409.45	7.08
409.658	7.15
409.867	7.18
410.075	7.23
410.283	7.14
410.491	6.96
410.7	7.01
410.908	7.11
411.116	7.33
411.324	7.29
411.533	7.29
411.741	7.28
411.949	7.18
412.157	6.91
412.365	6.9
412.573	6.81
412.781	6.8
412.99	6.73
413.198	6.82
413.406	6.82
413.614	6.97
413.822	6.84
414.03	6.81
414.238	6.58
414.446	6.62
414.654	6.46
414.862	6.58
415.07	6.6
415.278	6.78
415.486	6.48
415.694	6.57
415.902	6.43
416.109	6.37
416.317	6.26
416.525	6.31
416.733	6.24
416.941	6.27
417.149	6.29
417.357	6.25
417.564	6.29
417.772	6.53
417.98	6.5
418.188	6.41
418.395	6.44
418.603	6.53
418.811	6.13
419.019	6.08
419.226	6.27
419.434	6.32
419.642	6.08
419.849	6.26
420.057	6.16
420.265	5.97
420.472	5.71
420.68	5.76
420.887	5.6
421.095	5.75
421.302	5.83
421.51	6.08
421.717	6.12
421.925	6.27
422.132	6.14
422.34	5.83
422.547	5.8
422.755	5.73
422.962	5.55
423.17	5.64
423.377	5.8
423.585	5.75
423.792	5.68
423.999	5.82
424.207	5.79
424.414	5.81
424.621	5.81
424.829	5.77
425.036	5.75
425.243	5.89
425.451	5.88
425.658	5.73
425.865	6.01
426.072	5.89
426.28	5.92
426.487	5.98
426.694	6.01
426.901	5.88
427.108	5.93
427.315	5.83
427.523	5.91
427.73	5.91
427.937	5.84
428.144	5.83
428.351	5.8
428.558	5.93
428.765	5.95
428.972	5.97
429.179	6.12
429.386	6.43
429.593	6.16
429.8	6.19
430.007	6.31
430.214	6.37
430.421	6.11
430.628	6.1
430.835	6.03
431.042	6.12
431.249	6.1
431.456	6.15
431.662	6.2
431.869	6.34
432.076	6.27
432.283	6.39
432.49	6.39
432.697	6.43
432.903	6.43
433.11	6.41
433.317	6.41
433.524	6.64
433.73	6.68
433.937	6.8
434.144	6.88
434.35	6.84
434.557	6.63
434.764	6.66
434.97	6.57
435.177	6.72
435.384	6.77
435.59	6.91
435.797	7.14
436.003	7.09
436.21	7.07
436.416	7.15
436.623	7.21
436.829	7.22
437.036	7.48
437.242	7.48
437.449	7.43
437.655	7.39
437.862	7.38
438.068	7.4
438.275	7.59
438.481	7.81
438.687	7.74
438.894	7.82
439.1	7.76
439.307	7.78
439.513	7.64
439.719	7.76
439.926	7.78
440.132	7.81
440.338	7.86
440.544	8
440.751	7.94
440.957	8.05
441.163	8.09
441.369	8.1
441.575	7.89
441.782	7.97
441.988	7.87
442.194	7.82
442.4	7.81
442.606	8.27
442.812	8.46
443.018	8.54
443.224	8.63
443.431	8.74
443.637	8.47
443.843	8.42
444.049	8.47
444.255	8.45
444.461	8.45
444.667	8.44
444.873	8.62
445.079	8.66
445.284	8.76
445.49	8.55
445.696	8.48
445.902	8.35
446.108	8.27
446.314	8.19
446.52	8.37
446.726	8.7
446.931	8.71
447.137	8.73
447.343	8.87
447.549	8.8
447.755	8.51
447.96	8.53
448.166	8.67
448.372	8.6
448.578	8.74
448.783	8.84
448.989	8.89
449.195	8.96
449.4	9.04
449.606	9.03
449.812	9.07
450.017	9.1
450.223	8.89
450.428	8.79
450.634	8.79
450.84	8.89
451.045	8.82
451.251	8.86
451.456	9.08
451.662	9.13
451.867	9.18
452.073	9.17
452.278	9.34
452.483	9.41
452.689	9.39
452.894	9.39
453.1	9.53
453.305	9.41
453.51	9.31
453.716	9.29
453.921	9.31
454.127	9.22
454.332	9.22
454.537	9.18
454.742	9.22
454.948	9.22
455.153	9.4
455.358	9.59
455.563	9.75
455.769	9.84
455.974	9.79
456.179	9.67
456.384	9.6
456.589	9.6
456.795	9.49
457	9.53
457.205	9.57
457.41	9.61
457.615	9.43
457.82	9.46
458.025	9.39
458.23	9.3
458.435	9.3
458.64	9.27
458.845	9.35
459.05	9.45
459.255	9.6
459.46	9.62
459.665	9.75
459.87	9.77
460.075	9.69
460.28	9.67
460.485	9.71
460.69	9.79
