Data from Ofra_1a_PS_1GT42_Reflection_3.txt Node
Date: Tue Jul 20 10:45:31 EDT 2021
User: Adam
Spectrometer: FLMT01687
Trigger mode: 0
Integration Time (sec): 1.004000E0
Scans to average: 2
Electric dark correction enabled: true
Nonlinearity correction enabled: false
Boxcar width: 2
XAxis mode: Wavelengths
Number of Pixels in Spectrum: 3648
>>>>>Begin Spectral Data<<<<<
179.494	-247.72
179.716	-290.08
179.937	555.18
180.158	-583.44
180.38	34.28
180.601	-28.22
180.823	-92.2
181.044	-113.86
181.265	-147.97
181.486	52.62
181.708	-1.35
181.929	2872.73
182.15	-53.03
182.372	362.56
182.593	208.36
182.814	-220.71
183.035	-73.89
183.257	3.25
183.478	-6.98
183.699	-21.86
183.92	-34.01
184.141	-33.32
184.363	-26.36
184.584	-41.9
184.805	-2.52
185.026	32.36
185.247	21.52
185.468	-34.95
185.689	-1.8
185.91	-21.64
186.132	-4.04
186.353	5.04
186.574	24.13
186.795	28.8
187.016	39.17
187.237	6.4
187.458	18.67
187.679	-3.27
187.9	11.36
188.121	19.95
188.342	39.78
188.563	49.13
188.784	80.68
189.005	48.08
189.226	23.02
189.447	21.99
189.667	-1.2
189.888	-29.25
190.109	-30.47
190.33	-0.78
190.551	-25.42
190.772	-11.22
190.993	-27.96
191.214	-44.23
191.434	-75.14
191.655	-79.15
191.876	-22.36
192.097	28.96
192.318	39.38
192.538	-25.8
192.759	-13.1
192.98	-16.02
193.201	-14.05
193.421	-25.64
193.642	7.29
193.863	16.48
194.083	15.54
194.304	9.37
194.525	14.85
194.745	-4.95
194.966	7.56
195.187	18.79
195.407	13.74
195.628	23.01
195.848	25.13
196.069	-11.08
196.29	-21.51
196.51	-18.28
196.731	-20.82
196.951	-5.05
197.172	13.71
197.392	-4.47
197.613	26.98
197.833	16.87
198.054	12.87
198.274	10.17
198.495	2.11
198.715	-32.07
198.936	-6.52
199.156	-0.48
199.377	-3.97
199.597	16.03
199.817	15.79
200.038	-33.8
200.258	0.36
200.479	5.31
200.699	-12.55
200.919	-20.73
201.14	-9.32
201.36	-9.89
201.58	-11.17
201.801	24.97
202.021	3.74
202.241	33.43
202.461	-0.1
202.682	-8.37
202.902	-5.52
203.122	4.84
203.342	1.64
203.563	-5.73
203.783	-0.07
204.003	-17.56
204.223	3.66
204.443	24.8
204.663	36.15
204.884	41.74
205.104	27.33
205.324	49.29
205.544	-16.98
205.764	7.13
205.984	-5.74
206.204	25.92
206.424	-34.82
206.644	-29.86
206.864	-72.28
207.084	-39.42
207.304	-103.82
207.525	-67.14
207.745	-44.55
207.964	-20.06
208.184	-21.15
208.404	15.51
208.624	25.85
208.844	9.89
209.064	6.68
209.284	-10.86
209.504	-2.66
209.724	-19.52
209.944	-4.72
210.164	-21.17
210.384	4.43
210.604	-45.43
210.823	-23.38
211.043	-15.57
211.263	-51.4
211.483	-57.09
211.703	-29.24
211.922	-52.1
212.142	-52.49
212.362	-28.75
212.582	-43.49
212.801	-55.61
213.021	-41.86
213.241	-41.85
213.461	-19.93
213.68	9.46
213.9	-9.53
214.12	-2.26
214.339	6.14
214.559	1.37
214.779	-10.23
214.998	21.16
215.218	11.44
215.438	14.01
215.657	13.29
215.877	3.43
216.096	6.16
216.316	7.07
216.535	5.04
216.755	-0.6
216.974	2.52
217.194	-13.85
217.413	-20.24
217.633	-44.63
217.852	-31.16
218.072	-17.99
218.291	-21.96
218.511	-21.98
218.73	-22.5
218.95	-56.65
219.169	-56.5
219.389	-29.08
219.608	-31.49
219.827	-6.76
220.047	12.39
220.266	-8.6
220.485	-17.28
220.705	-7.31
220.924	-38.68
221.143	-16.9
221.363	-5.32
221.582	-9.89
221.801	-16.56
222.021	-5.91
222.24	-4.3
222.459	17.01
222.678	15.89
222.897	31.31
223.117	38.68
223.336	31.32
223.555	10.95
223.774	19.16
223.993	20.41
224.213	36.26
224.432	46.85
224.651	47.76
224.87	48.46
225.089	48.83
225.308	34.77
225.527	16.39
225.746	-2.44
225.965	-16.02
226.184	-43.73
226.404	-32.78
226.623	-13.69
226.842	-6.05
227.061	3.64
227.28	9.31
227.499	10.97
227.718	11.43
227.936	13.31
228.155	0.38
228.374	7.69
228.593	-10.18
228.812	-24.16
229.031	-7.67
229.25	-6.05
229.469	-15.32
229.688	-8.42
229.907	8.84
230.125	5.62
230.344	11.63
230.563	22.61
230.782	37.35
231.001	28.64
231.22	17.52
231.438	33.06
231.657	8.93
231.876	-6.89
232.095	0.92
232.313	-9.82
232.532	-24.93
232.751	-4.68
232.969	7.34
233.188	-2.2
233.407	7.98
233.625	15.18
233.844	2.97
234.063	-1.06
234.281	-2.04
234.5	0.1
234.719	1.65
234.937	-10.01
235.156	-16.12
235.374	-6.43
235.593	11.63
235.811	25.13
236.03	31.35
236.249	34.4
236.467	32.72
236.686	13.66
236.904	12.78
237.123	-2.3
237.341	-9.55
237.559	-29.68
237.778	1.55
237.996	-44.11
238.215	-47.77
238.433	-52.02
238.652	16.89
238.87	-12.95
239.088	5
239.307	5.18
239.525	8.05
239.743	-7.79
239.962	-27.09
240.18	-20.82
240.398	-21.98
240.617	-36.14
240.835	-44.34
241.053	4.66
241.271	24.62
241.49	34.66
241.708	26.62
241.926	25.49
242.144	25.46
242.363	2.37
242.581	-48.27
242.799	-43.9
243.017	-19.47
243.235	-17.29
243.453	-42.86
243.672	-21.67
243.89	-8.74
244.108	0.12
244.326	11.41
244.544	29.98
244.762	16.03
244.98	19.42
245.198	9.23
245.416	2.93
245.634	-4.14
245.852	-9.9
246.07	5.17
246.288	14.58
246.506	12.44
246.724	12.9
246.942	21.8
247.16	12.42
247.378	-0.34
247.596	21.78
247.814	-3.32
248.032	-0.45
248.25	16.02
248.468	28.41
248.685	24.63
248.903	35.26
249.121	45.1
249.339	32.91
249.557	40.11
249.775	35.05
249.992	32.28
250.21	12.72
250.428	25.39
250.646	16.69
250.863	20.01
251.081	23.21
251.299	31.91
251.517	24.41
251.734	35.71
251.952	15.08
252.17	16.78
252.387	14.05
252.605	19.97
252.823	-24.3
253.04	19.34
253.258	4.21
253.475	26.09
253.693	10.56
253.911	27.95
254.128	17.79
254.346	27.69
254.563	25.31
254.781	29.51
254.998	24.32
255.216	-3.47
255.433	-21.23
255.651	-38.92
255.868	-30.8
256.086	-25.88
256.303	-6.7
256.521	4.99
256.738	9.76
256.956	3.72
257.173	-17.47
257.39	-9.46
257.608	-15.36
257.825	1.85
258.043	21.42
258.26	33.42
258.477	25.58
258.695	36.03
258.912	17.53
259.129	4.73
259.346	-3.92
259.564	19.56
259.781	0.48
259.998	10.47
260.216	1.71
260.433	-2.58
260.65	-17.55
260.867	-22.76
261.084	-29.56
261.302	-43.46
261.519	-27.87
261.736	-23.88
261.953	-2.67
262.17	14.63
262.387	18.74
262.604	22.02
262.822	33.03
263.039	23.65
263.256	14.9
263.473	10.45
263.69	17.83
263.907	29.4
264.124	36.1
264.341	40.23
264.558	47.54
264.775	54.41
264.992	27.71
265.209	6.82
265.426	8.45
265.643	6.86
265.86	-28.28
266.077	-35.55
266.294	3.08
266.51	25.12
266.727	34.17
266.944	39.33
267.161	48.01
267.378	47.47
267.595	20.01
267.812	3.45
268.028	-28.4
268.245	-15.25
268.462	-7.92
268.679	-4.62
268.896	12.81
269.112	23.04
269.329	-19.7
269.546	-19.65
269.763	-5.52
269.979	-16.83
270.196	-8.72
270.413	6.96
270.629	3.37
270.846	-1.91
271.063	17.66
271.279	26.43
271.496	27.94
271.712	28.61
271.929	40.49
272.146	30.74
272.362	14.3
272.579	-2
272.795	-20.37
273.012	-26.66
273.228	-8.38
273.445	10.99
273.661	27.53
273.878	30.47
274.094	21.81
274.311	15.09
274.527	-14.79
274.744	4.76
274.96	5.26
275.177	1.94
275.393	7.39
275.609	31.77
275.826	22.61
276.042	27.81
276.259	29.25
276.475	17.33
276.691	2
276.908	0.45
277.124	6.41
277.34	0.35
277.557	4.61
277.773	4.33
277.989	4.32
278.205	-2.71
278.422	-4.38
278.638	1.5
278.854	2.16
279.07	12.75
279.286	16.56
279.503	15.72
279.719	20.17
279.935	9.73
280.151	-10.18
280.367	-12.21
280.583	-20.02
280.799	-23.99
281.016	-57.89
281.232	-33.26
281.448	-26.85
281.664	-9.01
281.88	3.96
282.096	20.7
282.312	13.48
282.528	13.22
282.744	14.6
282.96	-12.03
283.176	-14.74
283.392	-47.2
283.608	-41.4
283.824	-65.08
284.04	-100.48
284.256	-59
284.471	-30.29
284.687	-17.91
284.903	-12.9
285.119	11.24
285.335	19.32
285.551	30.76
285.767	15.02
285.982	19.73
286.198	17.37
286.414	2.84
286.63	-35.53
286.846	-18.75
287.061	9.12
287.277	5.19
287.493	-11.68
287.709	11.47
287.924	20.26
288.14	39.16
288.356	32.22
288.571	41.77
288.787	25.73
289.003	20.66
289.218	-29.47
289.434	-26.03
289.65	-1.01
289.865	-2.23
290.081	-8
290.296	4.61
290.512	-5.83
290.727	-23.05
290.943	-10.13
291.159	-4.95
291.374	-14.76
291.59	2.35
291.805	-0.05
292.021	-9.83
292.236	-16.17
292.451	-0.55
292.667	-11.32
292.882	-0.05
293.098	-2.52
293.313	2.17
293.529	-10.07
293.744	-12.79
293.959	-13.67
294.175	-6.1
294.39	-29.98
294.605	-7.92
294.821	-13.66
295.036	-16.94
295.251	-12.19
295.467	-4.89
295.682	-7.77
295.897	-9.63
296.112	-7.01
296.328	4.17
296.543	0.6
296.758	-7.24
296.973	-1.72
297.188	-5.7
297.404	-21.17
297.619	-39.97
297.834	-74.35
298.049	-63.64
298.264	-48.23
298.479	-51.9
298.694	4.73
298.909	33.83
299.125	37.87
299.34	32.38
299.555	36.68
299.77	33.33
299.985	20.11
300.2	27.49
300.415	30.16
300.63	23.63
300.845	5.66
301.06	7.42
301.275	-3.06
301.49	8.72
301.704	10.39
301.919	9.93
302.134	9.09
302.349	2.25
302.564	-18.06
302.779	-31.27
302.994	-20.18
303.209	-25.31
303.423	-13.64
303.638	-4.26
303.853	-6.77
304.068	-11.44
304.283	-4.43
304.497	-14.29
304.712	-5.43
304.927	11.62
305.142	20.51
305.356	21.76
305.571	31.37
305.786	32.67
306	47.48
306.215	44.07
306.43	38
306.644	28.66
306.859	29.51
307.074	9.44
307.288	8.01
307.503	-2.38
307.717	-0.81
307.932	2.86
308.147	-5.02
308.361	-12.39
308.576	-21.02
308.79	-25.17
309.005	-57.89
309.219	-22.1
309.434	-0.44
309.648	11.31
309.863	12.96
310.077	23.11
310.292	20.99
310.506	20.41
310.72	18.08
310.935	18.06
311.149	19.46
311.364	4.5
311.578	-12.88
311.792	-17.52
312.007	-25.92
312.221	-26.75
312.435	-3.72
312.649	17.89
312.864	26.91
313.078	33.33
313.292	30.4
313.507	25.37
313.721	23.38
313.935	9.03
314.149	4.05
314.363	19.3
314.578	12.23
314.792	-22.07
315.006	-28.21
315.22	-26.47
315.434	-29.37
315.648	-40.88
315.862	-26.15
316.077	-14.5
316.291	-6.75
316.505	-33.76
316.719	-13.78
316.933	-16.45
317.147	-17.82
317.361	-23.85
317.575	-2.91
317.789	1.22
318.003	-0.05
318.217	1.13
318.431	9.1
318.645	6.53
318.859	8.38
319.073	14.58
319.287	13.53
319.5	12.53
319.714	13.98
319.928	8.13
320.142	1.68
320.356	4.74
320.57	-21.06
320.784	-18.55
320.997	-27.49
321.211	-8.26
321.425	-26.02
321.639	-0.23
321.853	6.56
322.066	2.09
322.28	-8.19
322.494	6.85
322.707	3
322.921	-1.59
323.135	17.37
323.349	28.5
323.562	25.02
323.776	19.16
323.989	18.61
324.203	-1.31
324.417	-11.85
324.63	-14.43
324.844	-8.2
325.057	-23.41
325.271	-10.29
325.485	-11.23
325.698	11.19
325.912	28.23
326.125	17.25
326.339	20.79
326.552	20.27
326.766	3.74
326.979	-15.71
327.193	9.59
327.406	-9.14
327.619	-3.68
327.833	-10.3
328.046	-4.41
328.26	-17.06
328.473	-1.41
328.686	3.37
328.9	14.64
329.113	8.4
329.326	10.87
329.54	8.37
329.753	12.8
329.966	0.44
330.179	0.33
330.393	2.99
330.606	2.69
330.819	-11.69
331.032	1.02
331.246	11.77
331.459	17.51
331.672	17.79
331.885	23.65
332.098	12.83
332.311	10.35
332.525	14.73
332.738	13.64
332.951	3.69
333.164	20.08
333.377	19.4
333.59	1.33
333.803	1.47
334.016	10.82
334.229	-0.99
334.442	3.52
334.655	7.33
334.868	10.52
335.081	4.37
335.294	-7.57
335.507	3.34
335.72	8.75
335.933	2.85
336.146	6.36
336.359	20.55
336.572	11.38
336.785	3.43
336.997	-5.89
337.21	-1.6
337.423	-20.03
337.636	-26.07
337.849	-24.96
338.062	-6.28
338.274	6.15
338.487	-11.08
338.7	-26.14
338.913	-17.26
339.125	-21.48
339.338	-37.59
339.551	-15.3
339.763	-0.21
339.976	1.97
340.189	-3.95
340.402	25.92
340.614	24.59
340.827	23.5
341.039	31.94
341.252	21.52
341.465	-1.91
341.677	-1.37
341.89	-5.8
342.102	-1.77
342.315	5.25
342.527	6.28
342.74	-11.24
342.952	-5.1
343.165	-5.9
343.377	3.16
343.59	14.25
343.802	27.34
344.015	23.64
344.227	19.32
344.44	3.89
344.652	-0.48
344.864	9.43
345.077	19.61
345.289	27.12
345.502	41.42
345.714	38.89
345.926	40.01
346.139	18.98
346.351	14.62
346.563	18.22
346.775	10.97
346.988	2.17
347.2	2.19
347.412	-0.37
347.624	-15.43
347.837	-2.91
348.049	3.29
348.261	3.49
348.473	1.9
348.685	7.98
348.897	-17.09
349.11	-11.36
349.322	-0.05
349.534	-12.37
349.746	-6.25
349.958	-5.55
350.17	-19.87
350.382	-23.11
350.594	-0.91
350.806	11.06
351.018	19.25
351.23	19.09
351.442	21.33
351.654	18.25
351.866	10.25
352.078	15.1
352.29	22.47
352.502	27.63
352.714	31.81
352.926	26.49
353.138	41.72
353.35	24.92
353.561	21.79
353.773	25.69
353.985	34.52
354.197	30.89
354.409	33.98
354.621	16.01
354.832	4.2
355.044	-31.1
355.256	-52.9
355.468	-74.13
355.679	-11.64
355.891	-5.47
356.103	14.89
356.314	2.04
356.526	-3.11
356.738	-24.17
356.949	-32.65
357.161	-38.34
357.373	-12.54
357.584	0.54
357.796	5.86
358.008	12.89
358.219	20.13
358.431	2.94
358.642	14.47
358.854	19.53
359.065	10.79
359.277	7.76
359.488	13.79
359.7	1.83
359.911	-8.96
360.123	12.63
360.334	10.7
360.546	12.9
360.757	21.85
360.969	21.56
361.18	9.94
361.391	16.05
361.603	23.42
361.814	27.05
362.025	33.65
362.237	38.63
362.448	32.76
362.659	20.03
362.871	0.1
363.082	-9.59
363.293	-19.01
363.504	-25.84
363.716	-18.48
363.927	0.69
364.138	-6.44
364.349	-18.9
364.56	-27
364.772	-8.61
364.983	-6.08
365.194	-2.53
365.405	-0.84
365.616	13.58
365.827	0.56
366.038	0.88
366.25	9.9
366.461	19.86
366.672	20.75
366.883	22.71
367.094	20.72
367.305	2.75
367.516	-8.07
367.727	-20.05
367.938	-21.14
368.149	-25.84
368.36	-25.54
368.571	-46.91
368.781	-59.54
368.992	-42.62
369.203	-33.03
369.414	-24.97
369.625	-20.44
369.836	15.66
370.047	4.18
370.258	3.94
370.468	-6.95
370.679	3.3
370.89	-40.05
371.101	-21.72
371.312	-27.28
371.522	-13.55
371.733	-14.67
371.944	-13.07
372.155	-15.87
372.365	-11.64
372.576	-15.06
372.787	-0.47
372.997	3.2
373.208	-1.91
373.419	-8.73
373.629	-13.11
373.84	-24.3
374.05	-20.82
374.261	-33.28
374.472	-29.12
374.682	-26.41
374.893	-33.49
375.103	-25.24
375.314	-11.17
375.524	-5.77
375.735	-2.28
375.945	-0.15
376.156	2.95
376.366	4.47
376.577	20.87
376.787	24.38
376.997	30.05
377.208	24.53
377.418	22.18
377.629	6.98
377.839	-0.76
378.049	0.16
378.26	-10.79
378.47	-15.97
378.68	-3.04
378.89	5.05
379.101	-1.87
379.311	4.34
379.521	-5.58
379.732	-1.15
379.942	-2.3
380.152	-2.55
380.362	3.06
380.572	18.03
380.783	18.55
380.993	20.89
381.203	20.32
381.413	20.33
381.623	17.71
381.833	13.98
382.043	10.3
382.253	15.79
382.463	18.02
382.674	15.26
382.884	18.16
383.094	19.96
383.304	17.29
383.514	18.9
383.724	16.57
383.934	5.33
384.144	6.98
384.353	6.95
384.563	0.76
384.773	6.6
384.983	7.08
385.193	4.28
385.403	1.38
385.613	5.22
385.823	-0.39
386.033	1.47
386.242	-1.42
386.452	-2.85
386.662	-7.5
386.872	1.36
387.082	0.77
387.291	0.79
387.501	4.99
387.711	3.39
387.921	-1.03
388.13	2.2
388.34	3.07
388.55	0.39
388.759	0.82
388.969	-1.91
389.179	-2.77
389.388	-4.47
389.598	-4.3
389.807	-3.71
390.017	0.38
390.227	-2.01
390.436	0.07
390.646	-1.35
390.855	-2.14
391.065	-1.66
391.274	-1.94
391.484	-1.51
391.693	-0.81
391.903	-1.09
392.112	-2.66
392.322	-2.63
392.531	-3.42
392.74	-2.51
392.95	-1.66
393.159	-1.84
393.369	-1.9
393.578	-0.78
393.787	-0.65
393.997	0.01
394.206	0.24
394.415	1.61
394.625	0.44
394.834	-0.84
395.043	-0.47
395.252	1.4
395.462	2
395.671	1.05
395.88	2.61
396.089	3.05
396.298	1.68
396.508	1.24
396.717	2.44
396.926	1.5
397.135	1.58
397.344	1.95
397.553	1.86
397.762	2.01
397.971	2.31
398.181	2.13
398.39	1.8
398.599	2.61
398.808	2.47
399.017	3.47
399.226	3.29
399.435	2.93
399.644	2.83
399.853	3.14
400.062	2.23
400.27	1.86
400.479	2.31
400.688	2.15
400.897	2.06
401.106	2.85
401.315	3
401.524	2.88
401.733	2.63
401.941	2.86
402.15	2.13
402.359	2.25
402.568	2.32
402.777	2.45
402.985	1.92
403.194	2.05
403.403	2.41
403.612	2.34
403.82	2.06
404.029	2.44
404.238	2.42
404.446	2.34
404.655	2.3
404.864	2.39
405.072	2.2
405.281	2.23
405.489	1.95
405.698	2.14
405.906	2.29
406.115	2.26
406.324	2.39
406.532	2.61
406.741	2.48
406.949	2.5
407.158	2.64
407.366	2.56
407.574	2.41
407.783	2.49
407.991	2.38
408.2	2.41
408.408	2.26
408.617	2.3
408.825	2.14
409.033	2.23
409.242	2.15
409.45	2.3
409.658	2.23
409.867	2.31
410.075	2.3
410.283	2.21
410.491	2.02
410.7	2
410.908	2.13
411.116	2.05
411.324	2.06
411.533	2.2
411.741	2.18
411.949	2.12
412.157	1.97
412.365	2.07
412.573	1.98
412.781	2.01
412.99	1.91
413.198	2.1
413.406	2.1
413.614	2.27
413.822	2.38
414.03	2.51
414.238	2.52
414.446	2.57
414.654	2.43
414.862	2.2
415.07	2.01
415.278	1.98
415.486	1.74
415.694	1.82
415.902	1.89
416.109	1.95
416.317	1.93
416.525	2.05
416.733	1.88
416.941	1.82
417.149	1.72
417.357	1.79
417.564	1.75
417.772	1.95
417.98	2.09
418.188	2.07
418.395	1.75
418.603	1.59
418.811	1.49
419.019	1.4
419.226	1.54
419.434	1.84
419.642	1.93
419.849	1.86
420.057	1.9
420.265	1.9
420.472	1.76
420.68	1.84
420.887	1.86
421.095	1.81
421.302	1.8
421.51	1.83
421.717	1.89
421.925	1.94
422.132	2
422.34	1.84
422.547	1.79
422.755	1.67
422.962	1.79
423.17	1.61
423.377	1.73
423.585	1.92
423.792	1.97
423.999	1.93
424.207	1.96
424.414	1.99
424.621	1.95
424.829	1.94
425.036	1.73
425.243	1.82
425.451	1.88
425.658	1.9
425.865	1.94
426.072	2.03
426.28	2.08
426.487	1.93
426.694	1.83
426.901	1.81
427.108	1.72
427.315	1.7
427.523	1.6
427.73	1.6
427.937	1.45
428.144	1.59
428.351	1.6
428.558	1.8
428.765	1.72
428.972	1.81
429.179	1.68
429.386	1.78
429.593	1.56
429.8	1.62
430.007	1.68
430.214	1.72
430.421	1.68
430.628	1.86
430.835	1.85
431.042	1.64
431.249	1.73
431.456	1.7
431.662	1.76
431.869	1.86
432.076	2.03
432.283	2.15
432.49	2.06
432.697	2.03
432.903	2.03
433.11	2.16
433.317	2.17
433.524	2.28
433.73	2.2
433.937	2.24
434.144	2.04
434.35	1.98
434.557	2.01
434.764	2.1
434.97	2.01
435.177	2.16
435.384	2.15
435.59	2.1
435.797	2.09
436.003	2.11
436.21	1.98
436.416	2.05
436.623	2.13
436.829	2.16
437.036	2.11
437.242	2.23
437.449	2.17
437.655	2.25
437.862	2.27
438.068	2.42
438.275	2.45
438.481	2.44
438.687	2.31
438.894	2.4
439.1	2.33
439.307	2.31
439.513	2.3
439.719	2.36
439.926	2.37
440.132	2.44
440.338	2.45
440.544	2.44
440.751	2.42
440.957	2.39
441.163	2.28
441.369	2.23
441.575	2.24
441.782	2.3
441.988	2.23
442.194	2.3
442.4	2.26
442.606	2.45
442.812	2.47
443.018	2.52
443.224	2.54
443.431	2.65
443.637	2.5
443.843	2.55
444.049	2.53
444.255	2.5
444.461	2.42
444.667	2.46
444.873	2.37
445.079	2.44
445.284	2.47
445.49	2.59
445.696	2.56
445.902	2.56
446.108	2.54
446.314	2.49
446.52	2.49
446.726	2.64
446.931	2.57
447.137	2.65
447.343	2.79
447.549	2.82
447.755	2.66
447.96	2.77
448.166	2.74
448.372	2.69
448.578	2.66
448.783	2.69
448.989	2.76
449.195	2.72
449.4	2.77
449.606	2.78
449.812	2.73
450.017	2.75
450.223	2.73
450.428	2.67
450.634	2.62
450.84	2.68
451.045	2.61
451.251	2.69
451.456	2.62
451.662	2.67
451.867	2.68
452.073	2.72
452.278	2.72
452.483	2.83
452.689	2.84
452.894	3.01
453.1	2.93
453.305	2.94
453.51	3.01
453.716	3
453.921	2.95
454.127	2.93
454.332	2.9
454.537	2.78
454.742	2.76
454.948	2.68
455.153	2.77
455.358	2.77
455.563	2.92
455.769	2.98
455.974	3.02
456.179	2.96
456.384	2.95
456.589	2.77
456.795	2.73
457	2.7
457.205	2.73
457.41	2.74
457.615	2.78
457.82	2.88
458.025	2.87
458.23	2.81
458.435	2.89
458.64	2.95
458.845	2.85
459.05	2.9
459.255	2.95
459.46	2.92
459.665	2.92
459.87	2.95
460.075	2.97
460.28	3.03
460.485	3.09
460.69	3.06
460.895	3.15
461.099	3.08
461.304	3.02
461.509	2.95
461.714	3.04
461.919	2.89
462.123	2.9
462.328	2.88
462.533	2.84
462.738	2.75
462.942	2.8
463.147	2.79
463.352	2.88
463.556	2.98
463.761	3.06
463.966	3.07
464.17	3.16
464.375	3.24
464.58	3.11
464.784	3.05
464.989	3.06
465.193	3.01
465.398	2.93
465.602	3.15
465.807	3.17
466.011	3.24
466.216	3.16
466.42	3.2
466.625	3.14
