Data from Ofra_1a_PS_2GT41_Reflection_3.txt Node
Date: Tue Jul 20 10:51:15 EDT 2021
User: Adam
Spectrometer: FLMT01687
Trigger mode: 0
Integration Time (sec): 1.004000E0
Scans to average: 2
Electric dark correction enabled: true
Nonlinearity correction enabled: false
Boxcar width: 2
XAxis mode: Wavelengths
Number of Pixels in Spectrum: 3648
>>>>>Begin Spectral Data<<<<<
179.494	-265.99
179.716	-450.38
179.937	956.52
180.158	-1141.4
180.38	101.3
180.601	100.32
180.823	49.87
181.044	18.48
181.265	81.15
181.486	30.42
181.708	149.03
181.929	-10436.36
182.15	73.91
182.372	-110.34
182.593	218.38
182.814	-161.63
183.035	25.5
183.257	84.15
183.478	67.55
183.699	59.59
183.92	24.19
184.141	4.83
184.363	-3.38
184.584	-19.52
184.805	5.03
185.026	50.44
185.247	51.75
185.468	52.33
185.689	61.58
185.91	58.34
186.132	37.08
186.353	33.17
186.574	51.72
186.795	40.61
187.016	54.96
187.237	55.54
187.458	57.32
187.679	31.22
187.9	43.94
188.121	48.17
188.342	60
188.563	37.05
188.784	57.18
189.005	56.32
189.226	45.41
189.447	45.34
189.667	41.18
189.888	10.95
190.109	-0.09
190.33	24.15
190.551	18.81
190.772	41.87
190.993	51.9
191.214	55.38
191.434	53.89
191.655	39.26
191.876	48.56
192.097	68.59
192.318	77.14
192.538	43.89
192.759	41.77
192.98	49.42
193.201	39.66
193.421	25.88
193.642	32.06
193.863	35.81
194.083	26.12
194.304	39.63
194.525	22.44
194.745	30.54
194.966	27.7
195.187	26.39
195.407	6.62
195.628	19.97
195.848	12.13
196.069	-13.28
196.29	-17.32
196.51	-18.04
196.731	-30
196.951	-31.76
197.172	-4.76
197.392	-16.58
197.613	9.92
197.833	2.86
198.054	17.66
198.274	16.48
198.495	10.6
198.715	-7.89
198.936	6.16
199.156	4.63
199.377	7.24
199.597	18.42
199.817	20.78
200.038	2.48
200.258	9.12
200.479	25.16
200.699	23.51
200.919	11.5
201.14	27.88
201.36	18.84
201.58	-2.15
201.801	-7.31
202.021	2.14
202.241	-28.85
202.461	-12.81
202.682	6.39
202.902	21.73
203.122	36.46
203.342	59.23
203.563	47.9
203.783	16.29
204.003	-8.47
204.223	11.89
204.443	6.14
204.663	0.23
204.884	40.74
205.104	52.49
205.324	44.77
205.544	25.15
205.764	57.65
205.984	35.64
206.204	38.38
206.424	12.23
206.644	8.61
206.864	-44.47
207.084	-16.41
207.304	-18.05
207.525	-2.03
207.745	31.36
207.964	47.07
208.184	77.23
208.404	65.41
208.624	68.54
208.844	55.32
209.064	53.08
209.284	31.94
209.504	31.14
209.724	15.15
209.944	0.15
210.164	-11.13
210.384	-14.71
210.604	-29.42
210.823	-47.4
211.043	-23.79
211.263	-59.44
211.483	-25.2
211.703	-23.61
211.922	-17.44
212.142	23.53
212.362	51.38
212.582	38.15
212.801	25.57
213.021	22.01
213.241	-11.31
213.461	-19
213.68	-1.4
213.9	16.35
214.12	14.04
214.339	15.82
214.559	21.78
214.779	17.74
214.998	17.66
215.218	28.28
215.438	37.34
215.657	27.94
215.877	18.65
216.096	14.56
216.316	14.54
216.535	0.33
216.755	16.81
216.974	28.49
217.194	12.27
217.413	11.64
217.633	15.58
217.852	8.5
218.072	11.76
218.291	18.79
218.511	21.28
218.73	28.56
218.95	9.62
219.169	-14.72
219.389	2.17
219.608	6.46
219.827	7.25
220.047	31.82
220.266	44.05
220.485	45.59
220.705	35.33
220.924	45.23
221.143	36.36
221.363	41.28
221.582	33.02
221.801	58.59
222.021	42.19
222.24	30.14
222.459	42.42
222.678	50.1
222.897	33.65
223.117	56.48
223.336	77.55
223.555	84.65
223.774	90.09
223.993	108.14
224.213	112.66
224.432	86.46
224.651	78.68
224.87	75.2
225.089	57.26
225.308	32.79
225.527	20.37
225.746	7.88
225.965	9.54
226.184	-9.14
226.404	-0.89
226.623	13.39
226.842	-0.2
227.061	-8.33
227.28	22.36
227.499	22.82
227.718	8.94
227.936	19.5
228.155	28.62
228.374	24.59
228.593	27.07
228.812	44.4
229.031	51.92
229.25	32.03
229.469	33.02
229.688	40.88
229.907	40.76
230.125	29.99
230.344	37.22
230.563	38.21
230.782	38.68
231.001	47.46
231.22	67.51
231.438	84.97
231.657	77.14
231.876	55.46
232.095	43.19
232.313	24.8
232.532	4.68
232.751	-17.95
232.969	6.76
233.188	-8.4
233.407	0.78
233.625	5.9
233.844	7.67
234.063	-4.43
234.281	12.33
234.5	13.95
234.719	15.14
234.937	-4.21
235.156	5.57
235.374	1.8
235.593	8.65
235.811	20.29
236.03	36.58
236.249	33.46
236.467	42.53
236.686	21.43
236.904	8.36
237.123	5.88
237.341	2.9
237.559	-14.76
237.778	37.17
237.996	51.49
238.215	34.18
238.433	-19.49
238.652	14.43
238.87	-10.66
239.088	-5.8
239.307	10.64
239.525	25.28
239.743	12.77
239.962	-2.36
240.18	8.58
240.398	10.3
240.617	8.59
240.835	27.77
241.053	18.65
241.271	8.37
241.49	17.13
241.708	15.88
241.926	10.2
242.144	22.81
242.363	10.32
242.581	1.25
242.799	-18.16
243.017	-11.61
243.235	-12.72
243.453	-4.06
243.672	14.4
243.89	24.39
244.108	30.19
244.326	36.09
244.544	47.14
244.762	32.36
244.98	34.62
245.198	29.04
245.416	32.86
245.634	25.89
245.852	9.43
246.07	7.7
246.288	13.76
246.506	6.82
246.724	-1.17
246.942	14.4
247.16	24.73
247.378	18.47
247.596	40.52
247.814	30.12
248.032	15.42
248.25	30.6
248.468	33.43
248.685	32.07
248.903	37.42
249.121	46.36
249.339	41.95
249.557	47.94
249.775	41.85
249.992	33.78
250.21	22.66
250.428	23.01
250.646	9.6
250.863	3.01
251.081	5.14
251.299	1.72
251.517	4.52
251.734	22.63
251.952	18.51
252.17	17.83
252.387	24.38
252.605	20.93
252.823	21.78
253.04	28.35
253.258	43.09
253.475	33.13
253.693	42.46
253.911	18.38
254.128	16.55
254.346	29.12
254.563	32.3
254.781	11.77
254.998	14.04
255.216	-1.65
255.433	-45.51
255.651	-31.15
255.868	-22.58
256.086	-3.73
256.303	4.93
256.521	19.94
256.738	9.21
256.956	12.55
257.173	-5.06
257.39	13.18
257.608	13.38
257.825	26.85
258.043	31.94
258.26	42.06
258.477	31.84
258.695	25.09
258.912	17.36
259.129	6.61
259.346	-22.33
259.564	-23.17
259.781	-27.1
259.998	-6.01
260.216	18.02
260.433	22.53
260.65	23.38
260.867	30.09
261.084	35.27
261.302	34.49
261.519	45.43
261.736	52.49
261.953	47.98
262.17	39.34
262.387	19.63
262.604	29.63
262.822	25.56
263.039	31.88
263.256	31.88
263.473	35.57
263.69	36.31
263.907	53.11
264.124	45.5
264.341	36.67
264.558	45.56
264.775	39.36
264.992	26.48
265.209	29.76
265.426	34.34
265.643	26.21
265.86	30.86
266.077	15.6
266.294	39.74
266.51	54.64
266.727	49.93
266.944	41.09
267.161	43.48
267.378	26.4
267.595	2.18
267.812	-6.9
268.028	-17.98
268.245	-18.92
268.462	-9.89
268.679	2.31
268.896	20.75
269.112	18.91
269.329	15.92
269.546	38.28
269.763	37.09
269.979	24.86
270.196	42.16
270.413	41.53
270.629	18.87
270.846	5.12
271.063	6.47
271.279	-3.79
271.496	-10.29
271.712	1.41
271.929	15.25
272.146	26.97
272.362	31.75
272.579	25.02
272.795	25.66
273.012	29.81
273.228	24.47
273.445	20.97
273.661	25.13
273.878	11.79
274.094	17.31
274.311	1.51
274.527	-4.57
274.744	15.82
274.96	34.66
275.177	22.4
275.393	43.15
275.609	42.33
275.826	26.28
276.042	16.21
276.259	16.45
276.475	-3.23
276.691	-9.64
276.908	-6.5
277.124	-7.64
277.34	-7.42
277.557	-3.93
277.773	9.48
277.989	26.74
278.205	25.88
278.422	30.89
278.638	25.11
278.854	3.27
279.07	7.27
279.286	7.86
279.503	5.45
279.719	19.48
279.935	34.17
280.151	21.24
280.367	26.82
280.583	21.34
280.799	3.89
281.016	-20.75
281.232	0.14
281.448	-15.61
281.664	-12.66
281.88	9.99
282.096	19.93
282.312	17.2
282.528	10.36
282.744	14.28
282.96	4.18
283.176	-0.34
283.392	-33.21
283.608	32.19
283.824	18.06
284.04	-18.06
284.256	-4.95
284.471	10.25
284.687	1.41
284.903	17.04
285.119	33.29
285.335	36.32
285.551	36.54
285.767	31.78
285.982	28.36
286.198	-0.66
286.414	-10.93
286.63	-12.19
286.846	0.23
287.061	1.92
287.277	-0.08
287.493	-8.97
287.709	2.68
287.924	1.8
288.14	8.07
288.356	26.53
288.571	22.54
288.787	1.27
289.003	12.55
289.218	-3.52
289.434	-17.12
289.65	13.7
289.865	15.62
290.081	3.11
290.296	15.14
290.512	15.38
290.727	-0.04
290.943	12.67
291.159	22.63
291.374	-0.52
291.59	5.2
291.805	1.59
292.021	-7.43
292.236	-6.91
292.451	13.25
292.667	23
292.882	21.36
293.098	23.9
293.313	12.01
293.529	9.45
293.744	1.81
293.959	28.97
294.175	31.03
294.39	24.06
294.605	38.37
294.821	36.7
295.036	25.09
295.251	28.52
295.467	18.39
295.682	6.16
295.897	7.74
296.112	6.26
296.328	6.69
296.543	18.3
296.758	23.88
296.973	20.21
297.188	26.49
297.404	19.27
297.619	18.86
297.834	8.14
298.049	-11.39
298.264	-28.12
298.479	-23.43
298.694	10.11
298.909	13.8
299.125	16.05
299.34	11.46
299.555	20.58
299.77	28.99
299.985	24.61
300.2	33.6
300.415	36.86
300.63	35.06
300.845	23.71
301.06	18.54
301.275	14.94
301.49	26.58
301.704	17.6
301.919	6.29
302.134	4.87
302.349	10.55
302.564	1.07
302.779	9.38
302.994	29.09
303.209	43.75
303.423	40.85
303.638	53.74
303.853	17
304.068	0.15
304.283	-3.18
304.497	-15.79
304.712	-10.43
304.927	18.7
305.142	28.26
305.356	28.42
305.571	27.21
305.786	24.79
306	19.17
306.215	-6.9
306.43	-4.25
306.644	-7.43
306.859	-12.25
307.074	-4.09
307.288	29.11
307.503	31.42
307.717	24.03
307.932	23.69
308.147	9.63
308.361	0.37
308.576	-15.64
308.79	0.92
309.005	-26.37
309.219	1.58
309.434	7.73
309.648	20.01
309.863	31.54
310.077	45.37
310.292	45.95
310.506	19.41
310.72	10.78
310.935	13.29
311.149	11.63
311.364	-6.99
311.578	21.48
311.792	22.36
312.007	-1.29
312.221	2.48
312.435	30.18
312.649	31.56
312.864	32.05
313.078	38.08
313.292	38.08
313.507	41.85
313.721	32.55
313.935	30.36
314.149	16.52
314.363	32.83
314.578	19.83
314.792	-0.09
315.006	-13.08
315.22	9.45
315.434	-8.78
315.648	-12.29
315.862	6.89
316.077	11.6
316.291	9.62
316.505	-2.04
316.719	4.78
316.933	2.92
317.147	11.62
317.361	19.62
317.575	36.03
317.789	40.58
318.003	40.19
318.217	38.96
318.431	37.53
318.645	26.79
318.859	27.21
319.073	20.49
319.287	22.34
319.5	13.62
319.714	13.39
319.928	14.71
320.142	14.26
320.356	10.84
320.57	3.3
320.784	5.78
320.997	-11.67
321.211	17.39
321.425	2.61
321.639	30.3
321.853	33.88
322.066	29.19
322.28	20.04
322.494	27.41
322.707	30.7
322.921	20.59
323.135	33.65
323.349	21.68
323.562	22.96
323.776	9.08
323.989	18.61
324.203	5.01
324.417	7.04
324.63	8.6
324.844	-4.37
325.057	-14.32
325.271	1.74
325.485	-9.48
325.698	4.71
325.912	25.88
326.125	23.47
326.339	28.6
326.552	26.07
326.766	18.73
326.979	21.3
327.193	23.8
327.406	5.8
327.619	25.48
327.833	7.88
328.046	5.04
328.26	10.08
328.473	22.67
328.686	21.64
328.9	29.07
329.113	26.64
329.326	17.55
329.54	26.74
329.753	28.6
329.966	35.9
330.179	33.41
330.393	30.42
330.606	24.33
330.819	3.23
331.032	9.12
331.246	17.16
331.459	38.55
331.672	32.26
331.885	43.06
332.098	41.8
332.311	30.31
332.525	16.97
332.738	13.06
332.951	1.69
333.164	-0.17
333.377	10.6
333.59	8.26
333.803	12.82
334.016	23.86
334.229	19.42
334.442	9.21
334.655	7.78
334.868	2.8
335.081	2.16
335.294	0.42
335.507	19.64
335.72	20.74
335.933	23.98
336.146	32.02
336.359	33.28
336.572	21.81
336.785	21.63
336.997	21.55
337.21	19.57
337.423	0.95
337.636	-5.41
337.849	-12.71
338.062	-1.61
338.274	5.66
338.487	4.63
338.7	0.76
338.913	19.09
339.125	18.1
339.338	1.56
339.551	4.86
339.763	9.73
339.976	4.84
340.189	-7.33
340.402	5.32
340.614	16.72
340.827	13.16
341.039	3.38
341.252	21.84
341.465	8.91
341.677	0.44
341.89	-2.19
342.102	5.57
342.315	-1.18
342.527	5.01
342.74	9.32
342.952	24.54
343.165	25.3
343.377	33.65
343.59	37.88
343.802	20.65
344.015	26.94
344.227	31.65
344.44	19.83
344.652	14.66
344.864	28.39
345.077	35.92
345.289	31.6
345.502	39.61
345.714	42.2
345.926	43.94
346.139	3.75
346.351	6.34
346.563	17.29
346.775	22.42
346.988	10.72
347.2	24.51
347.412	21.26
347.624	13.96
347.837	15.62
348.049	23.32
348.261	8.79
348.473	-2.6
348.685	-3.17
348.897	-13.28
349.11	-17.41
349.322	4.66
349.534	13.88
349.746	4.13
349.958	1.78
350.17	-2.03
350.382	-18.7
350.594	-8.04
350.806	16.31
351.018	15.58
351.23	21.74
351.442	38.57
351.654	29.59
351.866	14.19
352.078	21.61
352.29	21.22
352.502	5.55
352.714	3.73
352.926	3.69
353.138	11.41
353.35	0.79
353.561	8.22
353.773	3.02
353.985	17.72
354.197	4.8
354.409	10.21
354.621	-6.13
354.832	2.68
355.044	-28.16
355.256	-28.5
355.468	-22.9
355.679	5.23
355.891	6.27
356.103	16.19
356.314	7.11
356.526	-5.15
356.738	-24.17
356.949	-23.14
357.161	-5.12
357.373	19.5
357.584	26.93
357.796	33.45
358.008	30.57
358.219	30.27
358.431	12.91
358.642	19.44
358.854	24.79
359.065	21.09
359.277	18.34
359.488	23.62
359.7	12.66
359.911	1.49
360.123	15.45
360.334	-8.88
360.546	-16.03
360.757	-6.88
360.969	8.79
361.18	-9.73
361.391	13.42
361.603	29.06
361.814	15.46
362.025	12.81
362.237	15.63
362.448	20.18
362.659	20.95
362.871	18.86
363.082	3.64
363.293	21.06
363.504	-4.19
363.716	-8.44
363.927	18.05
364.138	23.57
364.349	0.94
364.56	0.71
364.772	9.56
364.983	10.04
365.194	25.35
365.405	21.9
365.616	26.78
365.827	9.36
366.038	1.81
366.25	4.26
366.461	17.59
366.672	20.87
366.883	26.25
367.094	35.41
367.305	14.72
367.516	16.74
367.727	16.45
367.938	19.42
368.149	1.46
368.36	7.41
368.571	-8.76
368.781	-15.02
368.992	-15.78
369.203	-7.34
369.414	-3.5
369.625	8.94
369.836	28.31
370.047	25.72
370.258	34.95
370.468	35.03
370.679	22.93
370.89	13.99
371.101	26.24
371.312	17.52
371.522	9.36
371.733	11.51
371.944	-8.87
372.155	-19.51
372.365	-19.57
372.576	-1.43
372.787	7.79
372.997	21.19
373.208	11.84
373.419	5.45
373.629	-11.05
373.84	-27.87
374.05	-30.51
374.261	-30.05
374.472	-15.88
374.682	-15.35
374.893	-15.03
375.103	2.38
375.314	7.46
375.524	2.3
375.735	8.16
375.945	19.78
376.156	9.96
376.366	10.07
376.577	19.54
376.787	22.05
376.997	30.15
377.208	30.06
377.418	23.16
377.629	17.15
377.839	16.32
378.049	6.09
378.26	-1.48
378.47	-4.98
378.68	2.63
378.89	6.37
379.101	10.4
379.311	9.24
379.521	9.54
379.732	9.09
379.942	5.22
380.152	-1.89
380.362	-0.25
380.572	20.16
380.783	23.41
380.993	23.55
381.203	19
381.413	21.16
381.623	8.88
381.833	4.76
382.043	-0.96
382.253	13.25
382.463	26.26
382.674	27.21
382.884	35.94
383.094	41.89
383.304	36.09
383.514	25.67
383.724	20.86
383.934	3.85
384.144	-1.44
384.353	-1.47
384.563	-1.75
384.773	5.33
384.983	5.3
385.193	4.28
385.403	2.63
385.613	9.55
385.823	9.05
386.033	10.85
386.242	9.31
386.452	15.69
386.662	7.03
386.872	6.19
387.082	6.13
387.291	6.75
387.501	4.52
387.711	7.52
387.921	9.55
388.13	14.41
388.34	16.41
388.55	8.65
388.759	7.17
388.969	3.99
389.179	1.56
389.388	1.96
389.598	2.5
389.807	-1.61
390.017	-0.1
390.227	-4.05
390.436	-4.64
390.646	-2.34
390.855	-0.19
391.065	-3.32
391.274	-0.4
391.484	-2.12
391.693	-2.22
391.903	-1.26
392.112	1.44
392.322	1.11
392.531	3.51
392.74	2.32
392.95	3.49
393.159	2.52
393.369	2.73
393.578	1.8
393.787	2.57
393.997	2.55
394.206	1.34
394.415	1.86
394.625	2.1
394.834	1.33
395.043	0.86
395.252	3.15
395.462	3.11
395.671	2.59
395.88	5.21
396.089	5.08
396.298	4.68
396.508	5.44
396.717	5.35
396.926	4.3
397.135	3.79
397.344	3.19
397.553	3.03
397.762	4.36
397.971	4.04
398.181	3.88
398.39	3.99
398.599	4.31
398.808	3.89
399.017	4.62
399.226	5.18
399.435	5.11
399.644	5.2
399.853	5
400.062	4.56
400.27	4.03
400.479	4.29
400.688	3.89
400.897	3.89
401.106	3.91
401.315	4.02
401.524	3.97
401.733	3.5
401.941	3.8
402.15	3.65
402.359	3.82
402.568	3.95
402.777	4.52
402.985	4.02
403.194	4.01
403.403	4.3
403.612	4.07
403.82	3.6
404.029	3.99
404.238	4.07
404.446	3.96
404.655	4.1
404.864	4.34
405.072	4.24
405.281	4.28
405.489	4.19
405.698	4.16
405.906	4.1
406.115	3.94
406.324	3.97
406.532	3.94
406.741	3.9
406.949	3.95
407.158	3.98
407.366	3.89
407.574	4
407.783	4.05
407.991	4.06
408.2	4.09
408.408	4.13
408.617	4.03
408.825	3.97
409.033	3.9
409.242	3.93
409.45	3.93
409.658	3.86
409.867	3.94
410.075	4.09
410.283	4.13
410.491	4.02
410.7	4
410.908	3.89
411.116	3.87
411.324	3.69
411.533	3.59
411.741	3.58
411.949	3.59
412.157	3.5
412.365	3.67
412.573	3.85
412.781	3.85
412.99	3.83
413.198	3.85
413.406	3.79
413.614	3.86
413.822	3.96
414.03	3.92
414.238	3.91
414.446	3.91
414.654	3.77
414.862	3.65
415.07	3.6
415.278	3.59
415.486	3.53
415.694	3.48
415.902	3.58
416.109	3.54
416.317	3.6
416.525	3.55
416.733	3.53
416.941	3.53
417.149	3.58
417.357	3.38
417.564	3.36
417.772	3.52
417.98	3.36
418.188	3.28
418.395	3.18
418.603	3.09
418.811	2.86
419.019	2.96
419.226	3.13
419.434	3.28
419.642	3.36
419.849	3.44
420.057	3.37
420.265	3.35
420.472	3.27
420.68	3.3
420.887	3.25
421.095	3.32
421.302	3.35
421.51	3.38
421.717	3.37
421.925	3.39
422.132	3.39
422.34	3.05
422.547	2.98
422.755	2.95
422.962	3.03
423.17	2.87
423.377	3.12
423.585	3.36
423.792	3.41
423.999	3.39
424.207	3.5
424.414	3.42
424.621	3.28
424.829	3.27
425.036	3.2
425.243	3.21
425.451	3.33
425.658	3.37
425.865	3.36
426.072	3.26
426.28	3.33
426.487	3.21
426.694	3.15
426.901	3.26
427.108	3.32
427.315	3.21
427.523	3.17
427.73	3.25
427.937	3.02
428.144	3.01
428.351	3.08
428.558	3.28
428.765	3.27
428.972	3.49
429.179	3.44
429.386	3.51
429.593	3.32
429.8	3.31
430.007	3.3
430.214	3.35
430.421	3.44
430.628	3.45
430.835	3.31
431.042	3.25
431.249	3.28
431.456	3.11
431.662	3.32
431.869	3.43
432.076	3.43
432.283	3.55
432.49	3.58
432.697	3.47
432.903	3.47
433.11	3.48
433.317	3.46
433.524	3.52
433.73	3.5
433.937	3.58
434.144	3.5
434.35	3.46
434.557	3.48
434.764	3.6
434.97	3.4
435.177	3.59
435.384	3.61
435.59	3.64
435.797	3.55
436.003	3.72
436.21	3.58
436.416	3.6
436.623	3.54
436.829	3.58
437.036	3.53
437.242	3.69
437.449	3.6
437.655	3.7
437.862	3.68
438.068	3.7
438.275	3.77
438.481	3.91
438.687	3.76
438.894	3.94
439.1	3.86
439.307	3.88
439.513	3.93
439.719	4.03
439.926	3.92
440.132	4.11
440.338	3.94
440.544	3.81
440.751	3.7
440.957	3.73
441.163	3.6
441.369	3.65
441.575	3.65
441.782	3.77
441.988	3.83
442.194	3.81
442.4	3.79
442.606	3.95
442.812	3.9
443.018	3.89
443.224	4.02
443.431	4.07
443.637	3.91
443.843	3.93
444.049	3.94
444.255	3.95
444.461	3.81
444.667	3.82
444.873	3.78
445.079	3.77
445.284	3.77
445.49	3.84
445.696	3.9
445.902	3.97
446.108	3.97
446.314	3.96
446.52	4.09
446.726	4.14
446.931	4.14
447.137	4.11
447.343	4.16
447.549	4.14
447.755	4.16
447.96	4.17
448.166	4.2
448.372	4.19
448.578	4.13
448.783	4.13
448.989	4.14
449.195	4.14
449.4	4.1
449.606	4.14
449.812	4.01
450.017	4.03
450.223	4.05
450.428	4.07
450.634	4.03
450.84	4.06
451.045	4.1
451.251	4.17
451.456	4.19
451.662	4.18
451.867	4.24
452.073	4.25
452.278	4.19
452.483	4.15
452.689	4.21
452.894	4.36
453.1	4.29
453.305	4.34
453.51	4.39
453.716	4.36
453.921	4.27
454.127	4.26
454.332	4.2
454.537	4.19
454.742	4.18
454.948	4.18
455.153	4.25
455.358	4.3
455.563	4.37
455.769	4.37
455.974	4.32
456.179	4.27
456.384	4.13
456.589	4.06
456.795	4.07
457	4.12
457.205	4.13
457.41	4.21
457.615	4.22
457.82	4.3
458.025	4.24
458.23	4.25
458.435	4.28
458.64	4.25
458.845	4.21
459.05	4.24
459.255	4.25
459.46	4.19
459.665	4.13
459.87	4.15
460.075	4.21
460.28	4.28
460.485	4.35
460.69	4.4
460.895	4.45
461.099	4.33
461.304	4.27
461.509	4.3
461.714	4.4
461.919	4.27
462.123	4.36
462.328	4.21
462.533	4.09
462.738	3.95
462.942	4
463.147	4.02
463.352	4.2
463.556	4.29
463.761	4.38
463.966	4.38
464.17	4.35
464.375	4.32
464.58	4.33
464.784	4.37
464.989	4.44
465.193	4.46
465.398	4.54
465.602	4.62
465.807	4.69
466.011	4.68
466.216	4.62
466.42	4.64
466.625	4.7
466.829	4.58
467.034	4.56
467.238	4.7
467.443	4.71
467.647	4.61
467.851	4.62
468.056	4.71
468.26	4.65
468.464	4.67
468.669	4.72
468.873	4.75
469.077	4.66
469.282	4.68
469.486	4.57
469.69	4.63
