Data from Ofra_PS_T2_2A_6GT17_Reflection_1.txt Node
Date: Wed Jul 21 17:17:29 EDT 2021
User: Adam
Spectrometer: FLMT01687
Trigger mode: 0
Integration Time (sec): 1.100000E0
Scans to average: 2
Electric dark correction enabled: true
Nonlinearity correction enabled: false
Boxcar width: 2
XAxis mode: Wavelengths
Number of Pixels in Spectrum: 3648
>>>>>Begin Spectral Data<<<<<
179.494	593
179.716	625.65
179.937	575.45
180.158	522.31
180.38	820.16
180.601	340.47
180.823	155.31
181.044	24.76
181.265	278.86
181.486	25.27
181.708	35.62
181.929	241.33
182.15	-31.34
182.372	162.75
182.593	12.11
182.814	28.7
183.035	102.57
183.257	87.77
183.478	41.22
183.699	85.42
183.92	55.12
184.141	54.17
184.363	-24.89
184.584	28.23
184.805	14.96
185.026	68.99
185.247	71.28
185.468	49.63
185.689	36.82
185.91	60.24
186.132	23.6
186.353	-4.01
186.574	58.77
186.795	64.55
187.016	-5.01
187.237	-18.34
187.458	-15.64
187.679	-15.06
187.9	-19
188.121	-12.63
188.342	16.86
188.563	41.2
188.784	61.97
189.005	84.71
189.226	134.76
189.447	118.65
189.667	-6.43
189.888	-235.59
190.109	-1221.1
190.33	-635.65
190.551	-1089.6
190.772	-197.88
190.993	-178.58
191.214	-154.86
191.434	-108.57
191.655	-27.76
191.876	-85.48
192.097	-130.81
192.318	-168.08
192.538	-223.83
192.759	-182.7
192.98	-52.04
193.201	4.14
193.421	29.07
193.642	34.42
193.863	38.82
194.083	6.16
194.304	-9.21
194.525	-12.9
194.745	-31.99
194.966	-40.41
195.187	-50.85
195.407	-69.07
195.628	-140.21
195.848	-128.67
196.069	-145.49
196.29	-64.51
196.51	-66.55
196.731	-49.72
196.951	-57.52
197.172	-36.46
197.392	-68.48
197.613	-79.88
197.833	-99.91
198.054	-99.93
198.274	-63.07
198.495	-56.49
198.715	-25.06
198.936	-34.86
199.156	-27.34
199.377	-100.66
199.597	-138.26
199.817	-129.95
200.038	-47.74
200.258	-71.29
200.479	-3.79
200.699	62.32
200.919	77.93
201.14	11.29
201.36	-11.88
201.58	12.48
201.801	31.01
202.021	-13.94
202.241	8.14
202.461	15.54
202.682	-51.98
202.902	-118.25
203.122	-53.16
203.342	-44.61
203.563	4.64
203.783	29.09
204.003	6.53
204.223	14.26
204.443	55.5
204.663	8.67
204.884	16.24
205.104	58.81
205.324	75.03
205.544	42.95
205.764	65.59
205.984	55.86
206.204	50.75
206.424	33.34
206.644	9.52
206.864	19.43
207.084	-0.63
207.304	1.79
207.525	-75.39
207.745	-20.5
207.964	2.44
208.184	-45.35
208.404	-67.53
208.624	-50.73
208.844	-38.71
209.064	-286.46
209.284	-259.13
209.504	-113.93
209.724	-2.41
209.944	-16.42
210.164	13.57
210.384	26.04
210.604	20.18
210.823	-16.83
211.043	-7.2
211.263	5.76
211.483	-2.34
211.703	-57.59
211.922	-48.51
212.142	7.58
212.362	29.12
212.582	16.62
212.801	28.77
213.021	3.76
213.241	-26.8
213.461	-79.27
213.68	-91.66
213.9	-65.2
214.12	-55.17
214.339	-130.3
214.559	-105.48
214.779	-35.67
214.998	-36.67
215.218	-47.05
215.438	-10.39
215.657	0.72
215.877	1.84
216.096	11.37
216.316	12.66
216.535	11.39
216.755	10.82
216.974	-70.72
217.194	-101.32
217.413	-112.66
217.633	-133.68
217.852	-219.05
218.072	-99.33
218.291	-44.45
218.511	3.23
218.73	-6.67
218.95	-9.77
219.169	-3.26
219.389	-61.84
219.608	-64.24
219.827	-52.64
220.047	-40.51
220.266	-37.78
220.485	-3.44
220.705	25.75
220.924	5.34
221.143	39.93
221.363	23.48
221.582	22.22
221.801	28.74
222.021	43.37
222.24	-32.86
222.459	57.1
222.678	49
222.897	-32
223.117	-103.45
223.336	-50.99
223.555	-35.68
223.774	7.33
223.993	51.09
224.213	131.05
224.432	74.19
224.651	77.89
224.87	60.3
225.089	63.88
225.308	33.22
225.527	61.78
225.746	62.14
225.965	37.56
226.184	1.86
226.404	35.48
226.623	1.83
226.842	15.14
227.061	37.21
227.28	42.45
227.499	29.75
227.718	45.09
227.936	31.33
228.155	48.04
228.374	24.16
228.593	32.1
228.812	31.09
229.031	3.46
229.25	-51.83
229.469	-46.79
229.688	-57.54
229.907	-10.15
230.125	10.51
230.344	9.76
230.563	38.32
230.782	48.3
231.001	-12.39
231.22	-6.16
231.438	43.94
231.657	21.55
231.876	14.76
232.095	41.68
232.313	40.97
232.532	-10.49
232.751	-18.41
232.969	-49.58
233.188	-148.46
233.407	-53.52
233.625	-6.66
233.844	-39.46
234.063	-11.06
234.281	22.51
234.5	-4.32
234.719	-0.84
234.937	34.14
235.156	29.35
235.374	17.72
235.593	9.55
235.811	-13.61
236.03	-35.97
236.249	-73.44
236.467	-56.7
236.686	-8.14
236.904	4.99
237.123	-20.21
237.341	-3.72
237.559	2.75
237.778	-14.04
237.996	-33.88
238.215	7.75
238.433	22.02
238.652	15.79
238.87	-7.88
239.088	9.89
239.307	6.82
239.525	-16.51
239.743	-44.81
239.962	-17.69
240.18	-51.24
240.398	-82.52
240.617	-98.39
240.835	-68.7
241.053	-36.44
241.271	27.01
241.49	29.5
241.708	37.8
241.926	10.24
242.144	-6.16
242.363	-64.36
242.581	-71.26
242.799	-16.34
243.017	13.75
243.235	-4.62
243.453	5.44
243.672	7.31
243.89	1.46
244.108	-9.38
244.326	11.23
244.544	18.31
244.762	15.57
244.98	8.04
245.198	17.98
245.416	-20.33
245.634	-28.44
245.852	-41.38
246.07	-43.02
246.288	-31.96
246.506	-41.42
246.724	-12.25
246.942	-2.21
247.16	19.57
247.378	21.26
247.596	39.32
247.814	40.91
248.032	14.24
248.25	12.98
248.468	19.87
248.685	39.61
248.903	50.77
249.121	57.31
249.339	29.93
249.557	8.09
249.775	-5.74
249.992	-64.93
250.21	-52.37
250.428	-34.61
250.646	-74.06
250.863	-81.54
251.081	-40.15
251.299	-34.86
251.517	-19.52
251.734	15.48
251.952	13.99
252.17	9.44
252.387	16.76
252.605	-6.35
252.823	4.45
253.04	16.11
253.258	20.97
253.475	2.35
253.693	41.85
253.911	28.72
254.128	54
254.346	70.47
254.563	51.88
254.781	30.77
254.998	13.85
255.216	-8.76
255.433	-19.31
255.651	30.36
255.868	47.78
256.086	81.07
256.303	57.65
256.521	47.59
256.738	13.41
256.956	-12.35
257.173	-42.89
257.39	-58.54
257.608	-81.57
257.825	-6.46
258.043	39.26
258.26	45.1
258.477	92.46
258.695	95.89
258.912	23.42
259.129	4.59
259.346	-23.51
259.564	-74.55
259.781	-87.24
259.998	-8.27
260.216	27.45
260.433	62.43
260.65	46.03
260.867	47.32
261.084	12.45
261.302	-9.5
261.519	-26.32
261.736	-33.61
261.953	-56.52
262.17	-7.02
262.387	-38.81
262.604	-62.95
262.822	-55.63
263.039	-23.07
263.256	-67.18
263.473	-25.56
263.69	-12.88
263.907	13.68
264.124	16.1
264.341	7.4
264.558	-1.13
264.775	13.36
264.992	15.78
265.209	21.56
265.426	45.81
265.643	49
265.86	54.79
266.077	60.91
266.294	44.43
266.51	14.23
266.727	-1.07
266.944	6.57
267.161	-19.73
267.378	-12.84
267.595	10.95
267.812	0.54
268.028	-25.19
268.245	7.65
268.462	-13.65
268.679	-49.48
268.896	3.21
269.112	7.83
269.329	-8.26
269.546	0.86
269.763	9.75
269.979	-12.89
270.196	-10.64
270.413	-30.42
270.629	-53.29
270.846	-57.5
271.063	-46.43
271.279	-56.22
271.496	-47.34
271.712	3.39
271.929	37.43
272.146	31.83
272.362	39.16
272.579	87.5
272.795	76.04
273.012	62.73
273.228	68.28
273.445	34.52
273.661	-15.25
273.878	-55.97
274.094	-55.64
274.311	-84.81
274.527	-2.2
274.744	-1.22
274.96	0.91
275.177	22.06
275.393	38.09
275.609	25.82
275.826	55.36
276.042	45.16
276.259	14.44
276.475	19.11
276.691	3.28
276.908	-31.33
277.124	-8.9
277.34	-8.69
277.557	-21.81
277.773	-12.87
277.989	-2.77
278.205	-9.78
278.422	19.2
278.638	28.88
278.854	51.5
279.07	50.83
279.286	47.53
279.503	-3.56
279.719	-23.75
279.935	-63.55
280.151	-71.06
280.367	-37.56
280.583	-46.33
280.799	-17.9
281.016	-10.37
281.232	7.53
281.448	-4.86
281.664	30.7
281.88	-11.06
282.096	-10.52
282.312	18.2
282.528	49.2
282.744	65.93
282.96	67.32
283.176	58.76
283.392	44.37
283.608	18.41
283.824	-0.75
284.04	3.19
284.256	11.37
284.471	-5.71
284.687	-2.76
284.903	35.36
285.119	64.75
285.335	40.55
285.551	56.14
285.767	37.88
285.982	-1.5
286.198	-67.07
286.414	2.75
286.63	22.91
286.846	49.6
287.061	26.53
287.277	60.14
287.493	21.6
287.709	24.02
287.924	-0.4
288.14	38.74
288.356	37.34
288.571	51.7
288.787	30.89
289.003	35.8
289.218	22.43
289.434	-18.99
289.65	-9.85
289.865	-21.89
290.081	12.96
290.296	10
290.512	26.1
290.727	-13.54
290.943	-17.87
291.159	-37.9
291.374	-30.35
291.59	-42.59
291.805	-20.93
292.021	-4.33
292.236	-6.78
292.451	-9.71
292.667	7.45
292.882	27.66
293.098	16.63
293.313	2.23
293.529	-11.53
293.744	-45.44
293.959	-55.96
294.175	-37.85
294.39	2.63
294.605	23.92
294.821	48.58
295.036	53.12
295.251	59.65
295.467	44.49
295.682	41.69
295.897	12.28
296.112	7.4
296.328	12.81
296.543	-22.97
296.758	-28.69
296.973	12.43
297.188	34.87
297.404	1.43
297.619	-13.82
297.834	-21.75
298.049	-60.67
298.264	-98.68
298.479	-24.89
298.694	-3.79
298.909	9.85
299.125	12.8
299.34	17.89
299.555	-24.43
299.77	-16.73
299.985	-56.79
300.2	-108.45
300.415	-105.64
300.63	-64.58
300.845	-75.85
301.06	-59.26
301.275	-7.98
301.49	4.13
301.704	-2.82
301.919	-8.31
302.134	-27.96
302.349	-37.86
302.564	-110.35
302.779	-171.06
302.994	-132.33
303.209	-82.17
303.423	-37.43
303.638	29.7
303.853	13.99
304.068	-10.64
304.283	-1.06
304.497	-15.79
304.712	-24.15
304.927	-17.83
305.142	-22.76
305.356	-9.98
305.571	-9.94
305.786	-32.15
306	-31.5
306.215	-4.53
306.43	-23.07
306.644	-6.34
306.859	64.97
307.074	41.66
307.288	9.39
307.503	8.32
307.717	1.63
307.932	-15.51
308.147	-0.95
308.361	9.5
308.576	-5.35
308.79	-42.62
309.005	-32.81
309.219	-21.2
309.434	-17.7
309.648	-12.03
309.863	9.06
310.077	10.32
310.292	-2.6
310.506	-0.94
310.72	10.65
310.935	7
311.149	-7.34
311.364	10.32
311.578	28.11
311.792	19.78
312.007	28.97
312.221	26.85
312.435	39.71
312.649	11.23
312.864	33.27
313.078	54.8
313.292	117.03
313.507	78.41
313.721	112.99
313.935	57.61
314.149	46.12
314.363	24.4
314.578	22.67
314.792	24.68
315.006	5.99
315.22	11.47
315.434	22.54
315.648	29.73
315.862	35.32
316.077	42
316.291	33
316.505	29.71
316.719	31.07
316.933	-12.87
317.147	-12.62
317.361	-71.11
317.575	-92.03
317.789	-128.81
318.003	-191.24
318.217	-151.3
318.431	-29.35
318.645	4.57
318.859	8.9
319.073	32.72
319.287	19.51
319.5	-18.14
319.714	-53.84
319.928	-65.29
320.142	-76.14
320.356	0.42
320.57	31.87
320.784	40.28
320.997	17.57
321.211	19.95
321.425	-71.8
321.639	-89.69
321.853	-28.5
322.066	-3.57
322.28	-9.42
322.494	2.82
322.707	24.32
322.921	3.25
323.135	-3.84
323.349	6.68
323.562	0.09
323.776	-25.85
323.989	-15.59
324.203	-34.76
324.417	-34.79
324.63	-42.71
324.844	-31.1
325.057	-31.49
325.271	-0.08
325.485	12.41
325.698	24.53
325.912	40.13
326.125	7.26
326.339	0.85
326.552	-25.69
326.766	-24.32
326.979	-11.89
327.193	32.32
327.406	27.45
327.619	25.42
327.833	46.26
328.046	12.29
328.26	-22.72
328.473	-2.78
328.686	-24.68
328.9	-23.57
329.113	2.72
329.326	-2.34
329.54	1.97
329.753	10.13
329.966	-13.18
330.179	2.88
330.393	23.72
330.606	25.38
330.819	28.48
331.032	47.18
331.246	48.35
331.459	62.71
331.672	55.75
331.885	48.06
332.098	12.4
332.311	-1.79
332.525	-58.03
332.738	-40.78
332.951	-5.11
333.164	20.82
333.377	32.81
333.59	59.05
333.803	51.68
334.016	39.6
334.229	33.15
334.442	23.04
334.655	36.05
334.868	36.28
335.081	22.18
335.294	15.72
335.507	3.83
335.72	-11.35
335.933	-22.61
336.146	-21.77
336.359	-13.89
336.572	-36.29
336.785	-59.96
336.997	-45.96
337.21	-4.72
337.423	0.1
337.636	12.06
337.849	21.48
338.062	15.78
338.274	6.06
338.487	-20.35
338.7	-8.14
338.913	-41.06
339.125	-56.6
339.338	-133.58
339.551	-108.98
339.763	-57.59
339.976	-10.12
340.189	8.31
340.402	40.74
340.614	31.03
340.827	2.33
341.039	-28.16
341.252	-24.63
341.465	-9.63
341.677	-0.07
341.89	-27.78
342.102	-0.42
342.315	-19.9
342.527	-57.45
342.74	-56.04
342.952	-11.09
343.165	-15.96
343.377	10.95
343.59	1.22
343.802	14.9
344.015	7.21
344.227	29.12
344.44	18.78
344.652	37.31
344.864	31.81
345.077	50.99
345.289	45.61
345.502	55.19
345.714	46.48
345.926	44.29
346.139	24.76
346.351	28.45
346.563	27.67
346.775	31.24
346.988	18.07
347.2	16.69
347.412	-32
347.624	-50.43
347.837	-61.85
348.049	-14.36
348.261	10.78
348.473	12.97
348.685	6.28
348.897	-1.64
349.11	-36.74
349.322	-82.65
349.534	-47.38
349.746	-32.5
349.958	-8.77
350.17	-7.18
350.382	10.14
350.594	-5.79
350.806	-10.27
351.018	-24.36
351.23	-32.97
351.442	-88.04
351.654	-85.13
351.866	-62.53
352.078	-34.41
352.29	-2.66
352.502	20.78
352.714	24.8
352.926	5.93
353.138	-4.15
353.35	-22.69
353.561	-27.68
353.773	-47.1
353.985	-21.78
354.197	-34.09
354.409	-31.26
354.621	-21.4
354.832	-5.97
355.044	-25.43
355.256	-11.79
355.468	10.01
355.679	-4.1
355.891	-0.49
356.103	0.72
356.314	-5.97
356.526	-5.69
356.738	-3.15
356.949	-10.35
357.161	7.57
357.373	9.76
357.584	-16.51
357.796	3.12
358.008	15.22
358.219	24.82
358.431	19.49
358.642	31.01
358.854	30.66
359.065	1.99
359.277	-33.65
359.488	-35.1
359.7	-58.9
359.911	-81.86
360.123	-48.77
360.334	-58.43
360.546	-76.45
360.757	-62.9
360.969	-34.61
361.18	-19.42
361.391	9.37
361.603	15.91
361.814	21.77
362.025	11.77
362.237	-1.95
362.448	14.12
362.659	26.82
362.871	27.12
363.082	22.03
363.293	20.15
363.504	-5.14
363.716	-28.63
363.927	-35.38
364.138	-65.45
364.349	-72.55
364.56	-66.77
364.772	-53.55
364.983	-35.22
365.194	-21.76
365.405	-0.5
365.616	16.27
365.827	16.32
366.038	-3.2
366.25	-16.34
366.461	-56.25
366.672	-32.68
366.883	-5.3
367.094	7.33
367.305	-1.62
367.516	12.46
367.727	-10.6
367.938	-24.19
368.149	-23.93
368.36	11.9
368.571	8.39
368.781	-1.36
368.992	-27.96
369.203	-44.16
369.414	-79.98
369.625	-94.58
369.836	-82.96
370.047	-103.69
370.258	-78.09
370.468	-67.66
370.679	-73.03
370.89	-62.99
371.101	-20.94
371.312	-28.64
371.522	-10.65
371.733	-3.21
371.944	9.45
372.155	11.42
372.365	-0.96
372.576	-11.49
372.787	-9.37
372.997	-40.43
373.208	-45.73
373.419	-14.29
373.629	-41.3
373.84	-44.64
374.05	-39.58
374.261	-27.79
374.472	-50.71
374.682	8.95
374.893	12.26
375.103	40.63
375.314	28.09
375.524	30.74
375.735	19.58
375.945	25.4
376.156	-5.53
376.366	-6.58
376.577	-8.5
376.787	-15.97
376.997	-7.48
377.208	7
377.418	6.49
377.629	21.35
377.839	19.63
378.049	9.52
378.26	11.15
378.47	21.45
378.68	11.15
378.89	7.35
379.101	-0.14
379.311	-19.55
379.521	-46.5
379.732	-42.52
379.942	-39.18
380.152	-52.71
380.362	-23.13
380.572	-16.83
380.783	0.17
380.993	10.36
381.203	22.76
381.413	24.99
381.623	23.67
381.833	7.65
382.043	-8.19
382.253	-13.5
382.463	-16.02
382.674	-19.33
382.884	-30.2
383.094	-23.15
383.304	-18.63
383.514	-6.94
383.724	7.16
383.934	5.79
384.144	-4.07
384.353	-2.86
384.563	-10.66
384.773	-17.22
384.983	-21.5
385.193	-5.27
385.403	-4.8
385.613	1.03
385.823	-0.9
386.033	10.33
386.242	4.2
386.452	-1.59
386.662	-12.91
386.872	-4.47
387.082	-13.19
387.291	-19.72
387.501	-17.91
387.711	-8.37
387.921	-23.15
388.13	-20.22
388.34	-5.05
388.55	-5.79
388.759	-8.69
388.969	3.22
389.179	0.47
389.388	-5.54
389.598	-0.16
389.807	-6.33
390.017	-12.05
390.227	-11.66
390.436	-10.83
390.646	-12.51
390.855	-6.96
391.065	-5.98
391.274	-5.86
391.484	-9.06
391.693	-6.23
391.903	-3.13
392.112	2.24
392.322	5.74
392.531	11.28
392.74	10.06
392.95	2.86
393.159	-0.83
393.369	-1.16
393.578	-2.23
393.787	-2.68
393.997	0.91
394.206	0.59
394.415	0.57
394.625	-0.49
394.834	-2.27
395.043	-1.47
395.252	1.15
395.462	3.21
395.671	4.12
395.88	5.08
396.089	4.96
396.298	3.09
396.508	1.75
396.717	1.17
396.926	1.92
397.135	1.75
397.344	2.27
397.553	3.79
397.762	5.55
397.971	5.45
398.181	5.45
398.39	4.23
398.599	3.33
398.808	2.34
399.017	2.83
399.226	4.55
399.435	6.03
399.644	6.33
399.853	5.76
400.062	5.35
400.27	4.33
400.479	3.54
400.688	2.71
400.897	3.19
401.106	3.45
401.315	3.17
401.524	3.36
401.733	4.02
401.941	4.38
402.15	4.58
402.359	4.47
402.568	5.11
402.777	5.07
402.985	4.71
403.194	4.31
403.403	4.58
403.612	3.93
403.82	3.76
404.029	3.88
404.238	3.96
404.446	4.03
404.655	3.76
404.864	3.76
405.072	3.62
405.281	3.71
405.489	3.31
405.698	3.6
405.906	3.67
406.115	3.71
406.324	3.66
406.532	3.87
406.741	4.05
406.949	4.02
407.158	4.03
407.366	4.01
407.574	3.89
407.783	3.73
407.991	3.59
408.2	3.68
408.408	3.62
408.617	3.57
408.825	3.49
409.033	3.52
409.242	3.51
409.45	3.67
409.658	3.56
409.867	3.73
410.075	3.69
410.283	3.54
410.491	3.31
410.7	3.37
410.908	3.29
411.116	3.47
411.324	3.47
411.533	3.47
411.741	3.76
411.949	3.71
412.157	3.45
412.365	3.4
412.573	3.37
412.781	3.25
412.99	3.16
413.198	3.34
413.406	3.49
413.614	3.52
413.822	3.33
414.03	3.27
414.238	3.03
414.446	2.93
414.654	2.71
414.862	2.82
415.07	2.9
415.278	3.23
415.486	3.11
415.694	3.37
415.902	3.24
416.109	3.11
416.317	2.88
416.525	2.76
416.733	2.63
416.941	2.81
417.149	2.8
417.357	2.85
417.564	3.06
417.772	3.31
417.98	3.2
418.188	3.33
418.395	3.54
418.603	3.64
418.811	3.27
419.019	3.14
419.226	3.16
419.434	2.93
419.642	2.57
419.849	2.74
420.057	2.79
420.265	2.85
420.472	2.64
420.68	2.82
420.887	2.72
421.095	2.79
421.302	2.64
421.51	2.79
421.717	2.84
421.925	2.98
422.132	2.92
422.34	2.83
422.547	3.01
422.755	2.95
422.962	2.88
423.17	2.74
423.377	2.82
423.585	2.8
423.792	2.65
423.999	2.63
424.207	2.7
424.414	2.84
424.621	2.74
424.829	2.79
425.036	2.79
425.243	3.01
425.451	2.85
425.658	2.72
425.865	2.92
426.072	2.93
426.28	2.98
426.487	2.94
426.694	3.14
426.901	2.92
427.108	2.84
427.315	2.69
427.523	2.95
427.73	2.91
427.937	2.93
428.144	2.88
428.351	2.84
428.558	2.86
428.765	2.67
428.972	2.64
429.179	2.85
429.386	3.12
429.593	2.82
429.8	2.78
430.007	2.93
430.214	2.92
430.421	2.63
430.628	2.56
430.835	2.52
431.042	2.62
431.249	2.67
431.456	2.74
431.662	2.95
431.869	3.13
432.076	3.11
432.283	3.22
432.49	3.17
432.697	3.12
432.903	2.94
433.11	2.91
433.317	2.94
433.524	3.19
433.73	3.18
433.937	3.42
434.144	3.25
434.35	3.13
434.557	2.91
434.764	2.95
434.97	2.81
435.177	3.02
435.384	2.96
435.59	3.05
435.797	3.23
436.003	3.34
436.21	3.28
436.416	3.39
436.623	3.37
436.829	3.38
437.036	3.44
437.242	3.48
437.449	3.32
437.655	3.36
437.862	3.38
438.068	3.19
438.275	3.28
438.481	3.63
438.687	3.66
438.894	3.61
439.1	3.73
439.307	3.92
439.513	3.72
439.719	3.66
439.926	3.71
440.132	3.67
440.338	3.39
440.544	3.51
440.751	3.46
440.957	3.59
441.163	3.55
441.369	3.65
441.575	3.37
441.782	3.52
441.988	3.19
442.194	3.27
442.4	3.25
442.606	3.61
442.812	3.58
443.018	3.76
443.224	3.8
443.431	3.89
443.637	3.64
443.843	3.57
444.049	3.67
444.255	3.61
444.461	3.61
444.667	3.62
444.873	3.8
445.079	3.74
445.284	3.81
445.49	3.62
445.696	3.48
445.902	3.37
446.108	3.34
446.314	3.29
446.52	3.4
446.726	3.67
446.931	3.66
447.137	3.62
447.343	3.65
447.549	3.55
447.755	3.45
447.96	3.43
448.166	3.4
448.372	3.33
448.578	3.4
448.783	3.34
448.989	3.47
449.195	3.7
449.4	3.81
449.606	3.77
449.812	3.77
450.017	3.73
450.223	3.59
450.428	3.48
450.634	3.67
450.84	3.88
451.045	3.88
451.251	3.82
451.456	4.14
451.662	4.11
451.867	4.11
452.073	4.03
452.278	4.2
452.483	4.2
452.689	4.08
452.894	4.04
453.1	4.08
453.305	3.99
453.51	3.8
453.716	3.87
453.921	3.89
454.127	3.8
454.332	3.67
454.537	3.6
454.742	3.57
454.948	3.51
455.153	3.62
455.358	3.8
455.563	4
455.769	4.11
455.974	4.13
456.179	4.08
456.384	4.01
456.589	3.97
456.795	3.75
457	3.7
457.205	3.87
457.41	3.87
457.615	3.76
457.82	3.93
458.025	3.95
458.23	3.83
458.435	3.89
458.64	3.82
458.845	3.93
459.05	3.9
459.255	3.83
459.46	3.77
459.665	3.91
459.87	3.79
460.075	3.89
460.28	3.96
460.485	4.09
460.69	4.08
460.895	4.02
461.099	3.9
461.304	4
461.509	3.99
461.714	3.81
461.919	3.91
462.123	3.85
462.328	3.88
462.533	3.8
462.738	4.04
462.942	3.91
