Data from Ofra_PS_T2_1A_9GT30_Reflection_2.txt Node
Date: Wed Jul 21 18:19:34 EDT 2021
User: Adam
Spectrometer: FLMT01687
Trigger mode: 0
Integration Time (sec): 1.100000E0
Scans to average: 2
Electric dark correction enabled: true
Nonlinearity correction enabled: false
Boxcar width: 2
XAxis mode: Wavelengths
Number of Pixels in Spectrum: 3648
>>>>>Begin Spectral Data<<<<<
179.494	520.4
179.716	607.29
179.937	577.72
180.158	563.37
180.38	926.56
180.601	517.4
180.823	142.07
181.044	5.92
181.265	236.4
181.486	82.98
181.708	54.85
181.929	129.59
182.15	7.75
182.372	161.99
182.593	79.27
182.814	29.35
183.035	55.22
183.257	7.33
183.478	-98.4
183.699	-31.23
183.92	-53.63
184.141	-74.19
184.363	-79.19
184.584	12.98
184.805	13.81
185.026	52.61
185.247	59.28
185.468	25.67
185.689	8.62
185.91	11.63
186.132	3.81
186.353	-20.34
186.574	21.06
186.795	19.35
187.016	-35.16
187.237	-32.01
187.458	-39.15
187.679	-41.95
187.9	-40.03
188.121	-41.2
188.342	-57.64
188.563	10.21
188.784	42.69
189.005	62.47
189.226	138.26
189.447	146.57
189.667	117.72
189.888	-121.43
190.109	-682.47
190.33	-495.81
190.551	-1075.66
190.772	-241.28
190.993	-222.79
191.214	-165.17
191.434	-98.86
191.655	-22.88
191.876	-49.11
192.097	-95.02
192.318	-143.95
192.538	-266.72
192.759	-186.92
192.98	-106.39
193.201	-55.34
193.421	-22.57
193.642	8.51
193.863	18.05
194.083	14.01
194.304	11.63
194.525	-5.73
194.745	-25.08
194.966	-52.35
195.187	-65.86
195.407	-105.26
195.628	-148.08
195.848	-145.02
196.069	-140.7
196.29	-64.01
196.51	-56.79
196.731	-31.61
196.951	-43.91
197.172	-37.1
197.392	-87.03
197.613	-93.77
197.833	-140.89
198.054	-107.28
198.274	-49.84
198.495	-58.62
198.715	-27.29
198.936	-21
199.156	-10.45
199.377	-74.4
199.597	-88.29
199.817	-125.37
200.038	-79.61
200.258	-128.01
200.479	-75.27
200.699	-65.28
200.919	15.79
201.14	4.79
201.36	-9.38
201.58	16.31
201.801	48.18
202.021	17.44
202.241	6.38
202.461	-6.78
202.682	-113.67
202.902	-187.57
203.122	-89.49
203.342	-65.88
203.563	3.52
203.783	28.12
204.003	-2.47
204.223	-41.63
204.443	25.68
204.663	-17.34
204.884	-13.35
205.104	19.41
205.324	62.16
205.544	26.24
205.764	30.58
205.984	51.06
206.204	44.81
206.424	27.43
206.644	1.83
206.864	3.65
207.084	-60.16
207.304	-32.14
207.525	-137.97
207.745	-78.33
207.964	6.98
208.184	-16.89
208.404	-68.92
208.624	-54.31
208.844	-67.64
209.064	-366.47
209.284	-398.83
209.504	-209.47
209.724	-69.28
209.944	-35.32
210.164	13.41
210.384	28.01
210.604	30.59
210.823	-1.61
211.043	-12.96
211.263	-16.71
211.483	-26.51
211.703	-64.71
211.922	-64.94
212.142	-21.92
212.362	-34.42
212.582	-30.19
212.801	-29.87
213.021	-23.98
213.241	-29.94
213.461	-46.1
213.68	-52.8
213.9	-36.96
214.12	-21.4
214.339	-74.98
214.559	-47.74
214.779	-4.71
214.998	-3.18
215.218	-39.26
215.438	-5.56
215.657	-36.65
215.877	-47.02
216.096	-5.77
216.316	7.96
216.535	-7.54
216.755	-10.96
216.974	-93.69
217.194	-151.77
217.413	-170.94
217.633	-182.02
217.852	-222.94
218.072	-123.39
218.291	-75.55
218.511	-26.55
218.73	-30.63
218.95	-32.95
219.169	-15.51
219.389	-45.69
219.608	-27.67
219.827	-21.78
220.047	-5.94
220.266	-8.19
220.485	-11.28
220.705	-19.96
220.924	-40.87
221.143	-6.15
221.363	-30.93
221.582	-8.71
221.801	-6.09
222.021	18.77
222.24	-49.09
222.459	0.43
222.678	-45.72
222.897	-91.69
223.117	-132.96
223.336	-97.86
223.555	-63.58
223.774	-23.57
223.993	-41.39
224.213	26.44
224.432	33.01
224.651	39.07
224.87	26
225.089	47.77
225.308	29.41
225.527	29.26
225.746	39.48
225.965	34.77
226.184	15.9
226.404	26.55
226.623	17.57
226.842	6.06
227.061	17.12
227.28	16.01
227.499	6.21
227.718	15.17
227.936	4.46
228.155	1.17
228.374	6.3
228.593	12.67
228.812	15.44
229.031	28.17
229.25	-14.04
229.469	-26.21
229.688	-9.07
229.907	-16.03
230.125	-35.32
230.344	-3.32
230.563	2.49
230.782	-7.91
231.001	-62.5
231.22	-22.43
231.438	7.75
231.657	9.75
231.876	9.33
232.095	49.32
232.313	42.15
232.532	15.93
232.751	-12.45
232.969	-4.52
233.188	-41.65
233.407	13.2
233.625	-0.49
233.844	13.42
234.063	15.69
234.281	26.66
234.5	-0.03
234.719	13.78
234.937	26.07
235.156	30.59
235.374	19.7
235.593	17.81
235.811	17.81
236.03	-7.57
236.249	-81.75
236.467	-63.88
236.686	-8.44
236.904	-7.31
237.123	-5.59
237.341	5.98
237.559	12.4
237.778	-0.21
237.996	-7.74
238.215	7.8
238.433	16.22
238.652	9.78
238.87	-26.76
239.088	-5.47
239.307	-4.5
239.525	-13.91
239.743	-36.72
239.962	-25.91
240.18	-56.05
240.398	-84.48
240.617	-87.23
240.835	-73.88
241.053	-31.22
241.271	5.68
241.49	-5.04
241.708	-18.7
241.926	-65.15
242.144	-73.62
242.363	-107.31
242.581	-122.27
242.799	-58.21
243.017	-9.46
243.235	-19.38
243.453	1.68
243.672	-5.13
243.89	-20.31
244.108	-30.94
244.326	-9.39
244.544	-4.36
244.762	16.53
244.98	38.67
245.198	41.7
245.416	30.32
245.634	-8.37
245.852	-34.84
246.07	-54.87
246.288	-80.56
246.506	-104.54
246.724	-83.9
246.942	-57.25
247.16	-19.26
247.378	14.2
247.596	19.15
247.814	23.33
248.032	-18.17
248.25	-23.7
248.468	-18.08
248.685	-10.06
248.903	20.18
249.121	33.27
249.339	12.46
249.557	-5.22
249.775	-2.09
249.992	-62.28
250.21	-47.23
250.428	-32.36
250.646	-66.82
250.863	-90.59
251.081	-58.39
251.299	-71.65
251.517	-74.27
251.734	-32.56
251.952	-20.95
252.17	-10.37
252.387	-0.45
252.605	-0.84
252.823	13.96
253.04	28.13
253.258	38.4
253.475	41.33
253.693	42.51
253.911	35.16
254.128	37.68
254.346	42.16
254.563	23.29
254.781	8.51
254.998	-11.79
255.216	-33.32
255.433	-29.45
255.651	1.63
255.868	12.86
256.086	26.71
256.303	28.26
256.521	19.44
256.738	-6.93
256.956	-26.65
257.173	-47.73
257.39	-53.74
257.608	-79.96
257.825	-1.86
258.043	29.96
258.26	42.26
258.477	58.84
258.695	64.92
258.912	-5.11
259.129	7.5
259.346	-26.24
259.564	-66.19
259.781	-91.2
259.998	-13.51
260.216	-0.96
260.433	52.1
260.65	57.17
260.867	64.04
261.084	21.21
261.302	-10.56
261.519	-50.35
261.736	-44.49
261.953	-45.55
262.17	-6.32
262.387	-23.27
262.604	-29.78
262.822	-46.31
263.039	-48.28
263.256	-101.42
263.473	-51.77
263.69	-43.36
263.907	3.99
264.124	19.88
264.341	36.29
264.558	19.92
264.775	30.76
264.992	24.78
265.209	19.24
265.426	34.56
265.643	34.82
265.86	33.82
266.077	11.73
266.294	-13.45
266.51	-50.61
266.727	-53.22
266.944	-34.35
267.161	-20.92
267.378	-40.81
267.595	-12.27
267.812	-29.32
268.028	-54.18
268.245	-38.58
268.462	-32.09
268.679	-43.87
268.896	8.61
269.112	8.51
269.329	6.78
269.546	18.09
269.763	20.08
269.979	10.14
270.196	-2.41
270.413	-27.81
270.629	-50.49
270.846	-71.6
271.063	-65.04
271.279	-60.22
271.496	-39.81
271.712	2.62
271.929	28.41
272.146	13.53
272.362	17.41
272.579	34.65
272.795	15.55
273.012	12.74
273.228	11.74
273.445	-10.4
273.661	-44.28
273.878	-61.98
274.094	-56.29
274.311	-86.26
274.527	-16.42
274.744	-22.29
274.96	-21.12
275.177	0.8
275.393	18.67
275.609	9.66
275.826	29.04
276.042	25.5
276.259	8.99
276.475	26.03
276.691	15.27
276.908	-16.28
277.124	2.41
277.34	-6.86
277.557	-39.87
277.773	-31.01
277.989	-20.28
278.205	-26.36
278.422	2.66
278.638	12.63
278.854	41.26
279.07	39.56
279.286	47.58
279.503	10.38
279.719	11.11
279.935	-38.87
280.151	-39.68
280.367	-35.42
280.583	-41.74
280.799	-36.42
281.016	-37.96
281.232	-6.83
281.448	-17.32
281.664	7.71
281.88	-18.06
282.096	-4.74
282.312	13.06
282.528	48.03
282.744	40.46
282.96	51.14
283.176	40.03
283.392	21.09
283.608	5.5
283.824	0.53
284.04	6.18
284.256	14.88
284.471	5.12
284.687	9.29
284.903	9.25
285.119	31.15
285.335	11.75
285.551	19.93
285.767	5.54
285.982	24.07
286.198	-22.2
286.414	16.75
286.63	26.28
286.846	38.02
287.061	15.84
287.277	47.47
287.493	20.91
287.709	22.98
287.924	12.83
288.14	42.88
288.356	25.56
288.571	41.74
288.787	27.41
289.003	28.58
289.218	12.11
289.434	-15.07
289.65	-1.84
289.865	-9.61
290.081	14.62
290.296	25.52
290.512	28.99
290.727	-13.88
290.943	-8.5
291.159	-24.24
291.374	-42.17
291.59	-48.78
291.805	-20.89
292.021	-13.76
292.236	-17.22
292.451	4.64
292.667	19.53
292.882	26.74
293.098	27.19
293.313	13.43
293.529	-0.04
293.744	-28
293.959	-32.69
294.175	-37.01
294.39	7.91
294.605	15.17
294.821	42.32
295.036	46.98
295.251	56.45
295.467	16.55
295.682	6.47
295.897	-54.69
296.112	-79.83
296.328	-72.43
296.543	-72.48
296.758	-66.6
296.973	-15.47
297.188	27.11
297.404	1.97
297.619	-15.53
297.834	-24.23
298.049	-44.53
298.264	-75.56
298.479	-15.22
298.694	2.19
298.909	29.16
299.125	24.18
299.34	29.94
299.555	-3.88
299.77	4.81
299.985	-47.83
300.2	-79.33
300.415	-99.31
300.63	-69.45
300.845	-67.44
301.06	-64.67
301.275	-36.32
301.49	-5.58
301.704	0.3
301.919	-27.49
302.134	-36.21
302.349	-45.27
302.564	-117.86
302.779	-200.31
302.994	-179.23
303.209	-116.07
303.423	-73.25
303.638	-0.46
303.853	1.9
304.068	3.49
304.283	8.41
304.497	8.13
304.712	7.26
304.927	8.42
305.142	-7.45
305.356	3.38
305.571	2.4
305.786	-16.15
306	-26.79
306.215	-15.35
306.43	-47.62
306.644	-51.88
306.859	-22.47
307.074	-2.51
307.288	-26.71
307.503	-32.21
307.717	-34.4
307.932	-32.85
308.147	-42.61
308.361	-15.2
308.576	-14.39
308.79	-50.9
309.005	-43.18
309.219	-31.72
309.434	-45.06
309.648	-37.92
309.863	-13.71
310.077	-14.47
310.292	3.58
310.506	9.3
310.72	20.07
310.935	22.94
311.149	15.85
311.364	13.02
311.578	20.47
311.792	4.23
312.007	16.43
312.221	1.55
312.435	2.19
312.649	-1.52
312.864	7.81
313.078	12.61
313.292	75.57
313.507	38.57
313.721	66.28
313.935	37.12
314.149	16.45
314.363	7.66
314.578	18.95
314.792	11.37
315.006	6.17
315.22	27.27
315.434	24.7
315.648	27.57
315.862	18.54
316.077	15.3
316.291	-23.52
316.505	-21.37
316.719	-54.66
316.933	-56.61
317.147	-60.15
317.361	-73.14
317.575	-92.22
317.789	-114.72
318.003	-170.13
318.217	-130.33
318.431	-34.83
318.645	6.76
318.859	13.12
319.073	27.53
319.287	20.72
319.5	-20.2
319.714	-61.09
319.928	-85.75
320.142	-91.54
320.356	-23.53
320.57	12.18
320.784	19.53
320.997	15.61
321.211	-25.3
321.425	-89.04
321.639	-118.26
321.853	-78.59
322.066	-57.06
322.28	-35.13
322.494	-40.02
322.707	-3.74
322.921	0.84
323.135	12.56
323.349	31.08
323.562	34.65
323.776	15.44
323.989	18.63
324.203	4.92
324.417	-0.64
324.63	-35.13
324.844	-42.66
325.057	-42.74
325.271	-30.28
325.485	-14.21
325.698	14.01
325.912	29.48
326.125	3.96
326.339	-4.72
326.552	-27.04
326.766	-34.43
326.979	-18.42
327.193	24.61
327.406	21.09
327.619	9.3
327.833	20.89
328.046	-6.05
328.26	-38.82
328.473	-8.16
328.686	-12.33
328.9	-16.58
329.113	-0.43
329.326	-18.92
329.54	-9.89
329.753	-15.63
329.966	-26.45
330.179	-31.87
330.393	1.92
330.606	-1.76
330.819	19.15
331.032	30.38
331.246	37.96
331.459	53.9
331.672	37.4
331.885	23.83
332.098	2.86
332.311	-17.91
332.525	-68.05
332.738	-56.16
332.951	-17.48
333.164	12.61
333.377	43.97
333.59	59.92
333.803	67.87
334.016	48.58
334.229	39.96
334.442	23.87
334.655	29.47
334.868	28.12
335.081	32.5
335.294	13.41
335.507	-3.36
335.72	-15.78
335.933	-20.69
336.146	-28.57
336.359	-18.25
336.572	-29.32
336.785	-41.07
336.997	-35.23
337.21	-19.89
337.423	-12.58
337.636	-3.02
337.849	21.02
338.062	12.43
338.274	18.2
338.487	6.16
338.7	9.63
338.913	-31.16
339.125	-32.39
339.338	-87.38
339.551	-49.53
339.763	-43.81
339.976	-20.31
340.189	-5.43
340.402	10.22
340.614	-5.21
340.827	-8.02
341.039	-29.81
341.252	-28.89
341.465	-18.69
341.677	-23.84
341.89	-42.41
342.102	-1.94
342.315	-15.37
342.527	-27.42
342.74	-27.6
342.952	-10.52
343.165	-14.23
343.377	8.2
343.59	-6.83
343.802	5.74
344.015	7.1
344.227	5.2
344.44	-1.91
344.652	14.89
344.864	-1.4
345.077	14.69
345.289	17.84
345.502	21.06
345.714	14.96
345.926	24.58
346.139	22.3
346.351	13.95
346.563	12.14
346.775	12.93
346.988	-1.55
347.2	-18.2
347.412	-52.86
347.624	-51.4
347.837	-54.36
348.049	-19.77
348.261	17.81
348.473	22.52
348.685	11.92
348.897	13.59
349.11	-17.68
349.322	-48.46
349.534	-30.57
349.746	-30.47
349.958	-52.08
350.17	-16.49
350.382	-3.14
350.594	-4.88
350.806	-0.21
351.018	12.8
351.23	-14.36
351.442	-57.37
351.654	-53.59
351.866	-34.16
352.078	-20.77
352.29	9.75
352.502	25.51
352.714	32.13
352.926	9.37
353.138	9.55
353.35	-0.26
353.561	-1.08
353.773	-17.91
353.985	4.35
354.197	-1.11
354.409	-6.88
354.621	-13.14
354.832	-8.64
355.044	-28.83
355.256	-31.62
355.468	-18.43
355.679	-15.7
355.891	-6.11
356.103	-6.96
356.314	6.18
356.526	7.76
356.738	10.81
356.949	-3.59
357.161	-5.89
357.373	-5.02
357.584	-13.02
357.796	-8.18
358.008	-8.79
358.219	11.06
358.431	6.58
358.642	14.48
358.854	6.04
359.065	0.13
359.277	-23.38
359.488	-36.4
359.7	-57.32
359.911	-62.03
360.123	-39.7
360.334	-52.18
360.546	-56.75
360.757	-48.75
360.969	-32.6
361.18	-27.66
361.391	-3.31
361.603	-14.22
361.814	-11.23
362.025	-6.89
362.237	-17.93
362.448	7.67
362.659	29.01
362.871	21.94
363.082	10.38
363.293	13.4
363.504	-7.85
363.716	-32.55
363.927	-23.45
364.138	-29.63
364.349	-39.76
364.56	-31
364.772	-25.17
364.983	-6.2
365.194	1.46
365.405	6.61
365.616	21.03
365.827	16.63
366.038	-11.77
366.25	-29.64
366.461	-47.41
366.672	-42.03
366.883	-20.84
367.094	-8.44
367.305	-10.79
367.516	-3.49
367.727	-30.27
367.938	-39.69
368.149	-39.66
368.36	-17.48
368.571	-14.05
368.781	-29.05
368.992	-36.09
369.203	-59.33
369.414	-81.16
369.625	-79.11
369.836	-41.73
370.047	-70.92
370.258	-35.64
370.468	-33.97
370.679	-46.05
370.89	-43.14
371.101	-9.58
371.312	-12.48
371.522	-10.92
371.733	-7.97
371.944	-5.38
372.155	-8.29
372.365	-23.96
372.576	-17.38
372.787	-14.87
372.997	-38.53
373.208	-35.26
373.419	-5.66
373.629	-31.25
373.84	-33.86
374.05	-23.43
374.261	-14.23
374.472	-36.27
374.682	6.03
374.893	2.15
375.103	16.63
375.314	3.68
375.524	5.79
375.735	3.12
375.945	17.42
376.156	0.93
376.366	5.37
376.577	5.58
376.787	-5.02
376.997	-16.63
377.208	-16.77
377.418	-27.08
377.629	-13.38
377.839	-9.1
378.049	-2.38
378.26	16.1
378.47	25.08
378.68	5
378.89	-0.69
379.101	-0.5
379.311	-34.9
379.521	-66.24
379.732	-60.47
379.942	-59.55
380.152	-76.68
380.362	-45.55
380.572	-26.25
380.783	-4.61
380.993	5.18
381.203	16.48
381.413	34.79
381.623	36.15
381.833	21.92
382.043	11.99
382.253	2.9
382.463	-2.42
382.674	-17.19
382.884	-31.46
383.094	-28.85
383.304	-20.9
383.514	-20.9
383.724	-12.1
383.934	-8.38
384.144	-15.46
384.353	-26.5
384.563	-25.41
384.773	-16.25
384.983	-17.52
385.193	1.95
385.403	8.44
385.613	6.29
385.823	0.07
386.033	4.41
386.242	-8.75
386.452	-8.97
386.662	-12.96
386.872	-2.54
387.082	-11.45
387.291	-13.31
387.501	-17.17
387.711	-7.4
387.921	-17.56
388.13	-14.67
388.34	-1.05
388.55	-2.46
388.759	-7.95
388.969	-2.69
389.179	-1.34
389.388	-7.14
389.598	0.81
389.807	-3.04
390.017	-9.68
390.227	-7.78
390.436	-7.61
390.646	-10.6
390.855	-5.43
391.065	-2.41
391.274	-3.86
391.484	-5.49
391.693	-2.93
391.903	-2.34
392.112	3.9
392.322	5.38
392.531	9.54
392.74	9.48
392.95	5.38
393.159	0.67
393.369	1.28
393.578	-0.66
393.787	-1.34
393.997	0.69
394.206	0.24
394.415	-0.24
394.625	-1.39
394.834	-3.34
395.043	-2.78
395.252	-1.07
395.462	0.13
395.671	0.83
395.88	1.72
396.089	1.7
396.298	0.84
396.508	0.16
396.717	0.27
396.926	0.96
397.135	0.62
397.344	0.76
397.553	2.03
397.762	3.73
397.971	3.6
398.181	3.63
398.39	3.12
398.599	2.16
398.808	1.78
399.017	2.79
399.226	4.73
399.435	5.85
399.644	6.22
399.853	5.38
400.062	4.59
400.27	3
400.479	2.6
400.688	1.6
400.897	1.84
401.106	1.96
401.315	2.26
401.524	2.31
401.733	3.1
401.941	3.59
402.15	3.42
402.359	3.37
402.568	3.7
402.777	3.74
402.985	3.22
403.194	3.25
403.403	3.3
403.612	2.73
403.82	2.55
404.029	2.96
404.238	2.86
404.446	2.89
404.655	2.68
404.864	2.53
405.072	2.19
405.281	2.3
405.489	2.11
405.698	2.23
405.906	2.32
406.115	2.3
406.324	2.29
406.532	2.51
406.741	2.82
406.949	2.86
407.158	2.87
407.366	2.79
407.574	2.69
407.783	2.69
407.991	2.49
408.2	2.66
408.408	2.81
408.617	2.72
408.825	2.51
409.033	2.62
409.242	2.62
409.45	2.57
409.658	2.52
409.867	2.65
410.075	2.52
410.283	2.26
410.491	2.24
410.7	2.15
410.908	2.15
411.116	2.5
411.324	2.66
411.533	2.54
411.741	2.79
411.949	2.7
412.157	2.39
412.365	2.33
412.573	2.37
412.781	2.43
412.99	2.4
413.198	2.64
413.406	2.74
413.614	2.71
413.822	2.5
414.03	2.53
414.238	2.26
414.446	2.31
414.654	2.2
414.862	2.3
415.07	2.3
415.278	2.58
415.486	2.23
415.694	2.43
415.902	2.31
416.109	2.22
416.317	2.04
416.525	2
416.733	1.92
416.941	1.99
417.149	1.98
417.357	2
417.564	2.3
417.772	2.53
417.98	2.53
418.188	2.54
418.395	2.56
418.603	2.72
418.811	2.44
419.019	2.22
419.226	2.49
419.434	2.52
419.642	2.22
419.849	2.26
420.057	2.42
420.265	2.24
420.472	2.05
420.68	2.1
420.887	2.06
421.095	2.04
421.302	2.02
421.51	2.16
421.717	2.15
421.925	2.23
422.132	2.2
422.34	2.08
422.547	2.15
422.755	2.12
422.962	1.97
423.17	1.92
423.377	2.07
423.585	2.08
423.792	2.02
423.999	2.09
424.207	2.17
424.414	2.13
424.621	2.08
424.829	2.16
425.036	2.18
425.243	2.23
425.451	2.16
425.658	1.87
425.865	2
426.072	1.96
426.28	2.1
426.487	2.06
426.694	2.3
426.901	2.08
427.108	2.12
427.315	1.92
427.523	2.31
427.73	2.29
427.937	2.22
428.144	2.07
428.351	2.03
428.558	1.92
428.765	1.78
428.972	1.8
429.179	1.92
429.386	2.21
429.593	1.99
429.8	2.03
430.007	2.16
430.214	2.17
430.421	1.94
430.628	1.77
430.835	1.72
431.042	1.8
431.249	1.9
431.456	1.85
431.662	2.06
431.869	2.2
432.076	2.3
432.283	2.29
432.49	2.43
432.697	2.41
432.903	2.3
433.11	2.12
433.317	2.11
433.524	2.21
433.73	2.24
433.937	2.44
434.144	2.41
434.35	2.38
434.557	2.21
434.764	2.22
434.97	2.08
435.177	2.24
435.384	2.17
435.59	2.34
435.797	2.51
436.003	2.58
436.21	2.57
436.416	2.8
436.623	2.76
436.829	2.67
437.036	2.84
437.242	2.77
437.449	2.68
437.655	2.71
437.862	2.73
438.068	2.61
438.275	2.79
438.481	2.87
438.687	2.73
438.894	2.64
439.1	2.62
439.307	2.7
439.513	2.6
439.719	2.69
439.926	2.77
440.132	2.76
440.338	2.58
440.544	2.79
440.751	2.81
440.957	2.87
441.163	2.88
441.369	3.01
441.575	2.73
441.782	2.7
441.988	2.72
442.194	2.73
442.4	2.69
442.606	3.1
442.812	3.2
443.018	3.16
443.224	3.22
443.431	3.33
443.637	3
443.843	2.92
444.049	2.98
444.255	3.01
444.461	2.9
444.667	2.93
444.873	3.07
445.079	3.06
445.284	3.08
445.49	2.97
445.696	2.81
445.902	2.66
446.108	2.65
446.314	2.62
446.52	2.74
446.726	3.03
446.931	3.11
447.137	3.07
447.343	3.06
447.549	3
447.755	2.85
447.96	2.88
448.166	2.92
448.372	2.92
448.578	2.97
448.783	3.02
448.989	3.06
449.195	3.23
449.4	3.24
449.606	3.26
449.812	3.22
450.017	3.28
450.223	3.13
450.428	3.09
450.634	3.19
450.84	3.33
451.045	3.24
451.251	3.18
451.456	3.39
451.662	3.43
451.867	3.44
452.073	3.41
452.278	3.6
452.483	3.62
452.689	3.5
452.894	3.52
453.1	3.57
453.305	3.41
453.51	3.33
453.716	3.32
453.921	3.28
454.127	3.26
454.332	3.19
454.537	3.15
454.742	3.17
454.948	3.1
455.153	3.19
455.358	3.33
455.563	3.39
455.769	3.47
455.974	3.56
456.179	3.39
456.384	3.43
456.589	3.41
456.795	3.25
457	3.22
457.205	3.46
457.41	3.45
457.615	3.44
457.82	3.49
458.025	3.47
458.23	3.34
458.435	3.31
458.64	3.2
458.845	3.43
459.05	3.45
459.255	3.38
459.46	3.42
459.665	3.49
459.87	3.45
460.075	3.45
460.28	3.48
460.485	3.54
460.69	3.66
460.895	3.45
461.099	3.38
461.304	3.53
461.509	3.53
461.714	3.38
461.919	3.52
