Data from Ofra_PS_T2_1A_2GT03_Reflection_1.txt Node
Date: Wed Jul 21 17:55:13 EDT 2021
User: Adam
Spectrometer: FLMT01687
Trigger mode: 0
Integration Time (sec): 1.100000E0
Scans to average: 2
Electric dark correction enabled: true
Nonlinearity correction enabled: false
Boxcar width: 2
XAxis mode: Wavelengths
Number of Pixels in Spectrum: 3648
>>>>>Begin Spectral Data<<<<<
179.494	555.4
179.716	628.71
179.937	637.55
180.158	641.31
180.38	1067.03
180.601	306.77
180.823	95.2
181.044	-181.87
181.265	-138.79
181.486	-23.26
181.708	144.17
181.929	1108.67
182.15	-773.59
182.372	-3.13
182.593	-53.4
182.814	9.77
183.035	82.39
183.257	52.65
183.478	-43.46
183.699	-19.77
183.92	-18.32
184.141	-56.69
184.363	-90.59
184.584	-4.25
184.805	29.24
185.026	44.95
185.247	60.75
185.468	34.11
185.689	17.3
185.91	15.62
186.132	16.52
186.353	10.26
186.574	65.35
186.795	62.56
187.016	7.12
187.237	-25.54
187.458	-55.39
187.679	-51.15
187.9	-51.52
188.121	-37.84
188.342	3.61
188.563	50.99
188.784	74.88
189.005	108.65
189.226	191.76
189.447	162.42
189.667	135.32
189.888	-150.86
190.109	-1126.3
190.33	-845.97
190.551	-1295.8
190.772	-209.99
190.993	-177.63
191.214	-115.99
191.434	-71.84
191.655	5.12
191.876	-86.9
192.097	-99.17
192.318	-161.12
192.538	-223.53
192.759	-185.91
192.98	-58.5
193.201	-27.53
193.421	-8.32
193.642	12.45
193.863	16.97
194.083	-16.79
194.304	-19.83
194.525	-19.75
194.745	-48.78
194.966	-81.19
195.187	-64.74
195.407	-68.95
195.628	-147.16
195.848	-140.13
196.069	-101.88
196.29	-42.66
196.51	-71.44
196.731	-39.7
196.951	-31.46
197.172	-82.18
197.392	-131.21
197.613	-127.36
197.833	-169.47
198.054	-151.81
198.274	-77.83
198.495	-109.13
198.715	-72.39
198.936	-73.64
199.156	-52.6
199.377	-160.08
199.597	-154.78
199.817	-171.95
200.038	-102.97
200.258	-198.71
200.479	-96.55
200.699	-83.26
200.919	-24.39
201.14	-51.99
201.36	-34.9
201.58	3.37
201.801	45.02
202.021	9.86
202.241	20.64
202.461	7.5
202.682	-109.38
202.902	-188.33
203.122	-99.19
203.342	-91.71
203.563	-45.79
203.783	11.08
204.003	-27.85
204.223	-42.24
204.443	10.41
204.663	-20.57
204.884	-14.16
205.104	16.33
205.324	43.55
205.544	36.09
205.764	50.35
205.984	48.96
206.204	52.74
206.424	41.33
206.644	-1.09
206.864	-2.4
207.084	-66.8
207.304	-84.68
207.525	-303.83
207.745	-161.59
207.964	-79.02
208.184	-96.39
208.404	-136.31
208.624	-133.29
208.844	-138.07
209.064	-483.24
209.284	-563.54
209.504	-283.16
209.724	-86.16
209.944	-45.38
210.164	-4.21
210.384	29.37
210.604	8.82
210.823	-41.83
211.043	-73.5
211.263	-52.65
211.483	-64.19
211.703	-106.01
211.922	-88.57
212.142	12.32
212.362	24.4
212.582	12.9
212.801	37.03
213.021	7.04
213.241	-26.71
213.461	-61.02
213.68	-77.59
213.9	-78.24
214.12	-51.22
214.339	-115.74
214.559	-98.17
214.779	-14.25
214.998	-18.87
215.218	-42.2
215.438	-12.06
215.657	-14.16
215.877	-60.69
216.096	-26.91
216.316	-5.21
216.535	-10.57
216.755	-15.26
216.974	-71.88
217.194	-71.31
217.413	-97.07
217.633	-99.76
217.852	-192.37
218.072	-104
218.291	-70.3
218.511	-29.64
218.73	-63.33
218.95	-42.33
219.169	-34.16
219.389	-74.2
219.608	-66.77
219.827	-46.78
220.047	-35.42
220.266	-29.94
220.485	-31.79
220.705	-3.74
220.924	-29.05
221.143	16.29
221.363	-17.72
221.582	9.69
221.801	-1.48
222.021	12.31
222.24	-88.86
222.459	30.94
222.678	-15.99
222.897	-89.28
223.117	-110.43
223.336	-90.7
223.555	-109.48
223.774	-77.35
223.993	-41.75
224.213	22.22
224.432	11.8
224.651	59.8
224.87	46.92
225.089	51.73
225.308	33.1
225.527	48.9
225.746	43.92
225.965	19.66
226.184	-14
226.404	12.01
226.623	-20.3
226.842	-27.9
227.061	9.38
227.28	16.27
227.499	-1.58
227.718	13.56
227.936	6.54
228.155	6.63
228.374	-14.22
228.593	-2.22
228.812	-3.51
229.031	-6.08
229.25	-61.92
229.469	-41.84
229.688	-17.46
229.907	12.78
230.125	39.87
230.344	57.6
230.563	61.07
230.782	52.21
231.001	-46.01
231.22	-68.37
231.438	-45.39
231.657	-43.65
231.876	-61.71
232.095	11.99
232.313	21.55
232.532	-16.57
232.751	-38.15
232.969	-53.65
233.188	-130.76
233.407	-63.17
233.625	-15.19
233.844	-15.34
234.063	8.32
234.281	16.6
234.5	22.78
234.719	13.98
234.937	10.7
235.156	6.66
235.374	11.44
235.593	-20.93
235.811	-42.22
236.03	-28.11
236.249	-64.29
236.467	-52.25
236.686	-8.59
236.904	17.5
237.123	-16.39
237.341	-14.22
237.559	-9.36
237.778	-16.84
237.996	-58.13
238.215	2.66
238.433	14.12
238.652	10.64
238.87	-22.25
239.088	-1.83
239.307	-5.79
239.525	-10.88
239.743	-26.28
239.962	-11.4
240.18	-34.84
240.398	-85.9
240.617	-99.08
240.835	-80.86
241.053	-48.93
241.271	3.29
241.49	21.52
241.708	10.54
241.926	-33.15
242.144	-27.76
242.363	-98.4
242.581	-144.33
242.799	-88.48
243.017	-26.09
243.235	-48.77
243.453	-27.6
243.672	-5.64
243.89	-4.13
244.108	-22.62
244.326	-5.98
244.544	4.85
244.762	-8.57
244.98	-6.86
245.198	-2.3
245.416	-21.16
245.634	-22.12
245.852	-22.34
246.07	-20.58
246.288	-15.94
246.506	-45.39
246.724	-43.7
246.942	-24.16
247.16	-7.75
247.378	1.32
247.596	40.64
247.814	46.93
248.032	2.44
248.25	2.69
248.468	-3.11
248.685	-15.89
248.903	6.02
249.121	19.22
249.339	-24.29
249.557	-23.34
249.775	-3.62
249.992	-70.48
250.21	-76.58
250.428	-33.37
250.646	-92.48
250.863	-121.67
251.081	-73.99
251.299	-31.9
251.517	-23.64
251.734	9.83
251.952	17.05
252.17	-1.51
252.387	-1.71
252.605	-12.33
252.823	2.17
253.04	22.9
253.258	42.89
253.475	44.24
253.693	55.69
253.911	47.08
254.128	44.13
254.346	44.72
254.563	10.27
254.781	-5.85
254.998	-39.17
255.216	-63.69
255.433	-51.25
255.651	-0.58
255.868	13.74
256.086	78.84
256.303	50.82
256.521	36.55
256.738	11.78
256.956	-28.9
257.173	-76.47
257.39	-75.07
257.608	-101.4
257.825	-64.39
258.043	-11.78
258.26	-7.86
258.477	45.13
258.695	31.19
258.912	-8.09
259.129	3.75
259.346	-16.5
259.564	-63.97
259.781	-63.49
259.998	-8.19
260.216	6.87
260.433	46.32
260.65	30.02
260.867	57.21
261.084	36.74
261.302	6.03
261.519	-12.73
261.736	-29.65
261.953	-59.93
262.17	-34.24
262.387	-57.94
262.604	-121.06
262.822	-125.35
263.039	-118.16
263.256	-170.96
263.473	-127.8
263.69	-67.07
263.907	-11.9
264.124	5.85
264.341	5.15
264.558	-1.69
264.775	15.38
264.992	-11.41
265.209	-17.25
265.426	24.63
265.643	37.39
265.86	36.25
266.077	47.43
266.294	37.81
266.51	-24.78
266.727	-57.31
266.944	-58.64
267.161	-65.56
267.378	-76.47
267.595	-24.68
267.812	-50.79
268.028	-56.39
268.245	-33.13
268.462	-40.09
268.679	-57.75
268.896	15.19
269.112	11.91
269.329	10.81
269.546	26.16
269.763	19.16
269.979	-0.2
270.196	-10.58
270.413	-39.41
270.629	-67.79
270.846	-86.55
271.063	-78.35
271.279	-86.12
271.496	-73.79
271.712	-17.58
271.929	8.32
272.146	-16.79
272.362	-3.57
272.579	30.43
272.795	33.19
273.012	33.99
273.228	45.26
273.445	23.76
273.661	-20.39
273.878	-88.23
274.094	-68.46
274.311	-98.59
274.527	-8.31
274.744	14.25
274.96	29.23
275.177	26.24
275.393	46.87
275.609	39.49
275.826	53.35
276.042	46.07
276.259	33.53
276.475	34.19
276.691	28.66
276.908	0.61
277.124	24.2
277.34	20.16
277.557	6.08
277.773	-7.92
277.989	-9.8
278.205	-30.62
278.422	-5.24
278.638	-1.32
278.854	26.88
279.07	39.58
279.286	45.27
279.503	12.79
279.719	19.54
279.935	-34.63
280.151	-65.84
280.367	-42.52
280.583	-61.74
280.799	-58.86
281.016	-79.09
281.232	-39.91
281.448	-47.29
281.664	-6.03
281.88	-50.43
282.096	-29.89
282.312	1.79
282.528	24.38
282.744	27.84
282.96	51.16
283.176	45.41
283.392	28.82
283.608	16.42
283.824	13.27
284.04	26.74
284.256	40.56
284.471	31.01
284.687	20.79
284.903	39.4
285.119	56.18
285.335	26.54
285.551	50.48
285.767	30.93
285.982	4.64
286.198	-59.92
286.414	8.47
286.63	16.47
286.846	46.89
287.061	19.82
287.277	59.24
287.493	25.97
287.709	18.21
287.924	-1.68
288.14	20.78
288.356	-2.66
288.571	28.26
288.787	18.77
289.003	19.49
289.218	16.12
289.434	-23.75
289.65	-22.81
289.865	-26.51
290.081	-16.28
290.296	-25.79
290.512	-3.87
290.727	-41.76
290.943	-44.6
291.159	-48.44
291.374	-36.54
291.59	-61.04
291.805	-49.71
292.021	-37.73
292.236	-46.26
292.451	-30.36
292.667	-10.21
292.882	2.38
293.098	-9.59
293.313	-29.97
293.529	-70.24
293.744	-98.22
293.959	-78.93
294.175	-70.93
294.39	-21.12
294.605	4.38
294.821	34.19
295.036	33.02
295.251	38.57
295.467	1.02
295.682	-2.61
295.897	-62.76
296.112	-74.08
296.328	-60.97
296.543	-64.59
296.758	-72.44
296.973	-5.49
297.188	21.97
297.404	-23.19
297.619	-29.05
297.834	-44.08
298.049	-87.55
298.264	-116.8
298.479	-35.07
298.694	-21.18
298.909	4.16
299.125	13.34
299.34	32.92
299.555	17.33
299.77	17.21
299.985	-32.12
300.2	-75.76
300.415	-115.78
300.63	-86.65
300.845	-81.21
301.06	-68.35
301.275	-21.93
301.49	3.52
301.704	-14.45
301.919	-31.08
302.134	-49.78
302.349	-53.95
302.564	-132.04
302.779	-143.06
302.994	-135.46
303.209	-65.42
303.423	-44.22
303.638	43.7
303.853	3.84
304.068	1.1
304.283	-7.46
304.497	-14.87
304.712	-28.34
304.927	-17.2
305.142	-23.27
305.356	-5.9
305.571	-17.17
305.786	-32.42
306	-50.82
306.215	-51.5
306.43	-79.71
306.644	-71.4
306.859	-16.91
307.074	13.57
307.288	-22.28
307.503	-20.45
307.717	-34.57
307.932	-46.32
308.147	-56.09
308.361	-24.58
308.576	-53.67
308.79	-93.42
309.005	-81.66
309.219	-61.16
309.434	-61.06
309.648	-31.1
309.863	1.72
310.077	-7.59
310.292	-6.87
310.506	-4.85
310.72	6.15
310.935	15.4
311.149	8.58
311.364	17.15
311.578	25.99
311.792	13.73
312.007	7.75
312.221	6.91
312.435	0.96
312.649	-13.33
312.864	-39.26
313.078	-33
313.292	4.38
313.507	-48.95
313.721	-68.01
313.935	-5.8
314.149	-11.71
314.363	-12.56
314.578	-2.68
314.792	11.1
315.006	-3.61
315.22	5.87
315.434	-4.99
315.648	8.5
315.862	-3.64
316.077	7.05
316.291	-16.15
316.505	-17.95
316.719	-23.1
316.933	-25.53
317.147	-7.64
317.361	-60.28
317.575	-70.45
317.789	-93.39
318.003	-149.84
318.217	-138.59
318.431	-17.92
318.645	15.69
318.859	9.73
319.073	36.78
319.287	12.64
319.5	-27.61
319.714	-72.74
319.928	-110.35
320.142	-154.8
320.356	-86.23
320.57	-45.26
320.784	-44.79
320.997	-46.68
321.211	-22.24
321.425	-92.54
321.639	-106.94
321.853	-25.09
322.066	-7.89
322.28	-16.58
322.494	10.3
322.707	25.09
322.921	-2.98
323.135	0.3
323.349	9.04
323.562	-8.41
323.776	-24.83
323.989	-29.9
324.203	-55.1
324.417	-49.54
324.63	-65.62
324.844	-74.87
325.057	-77.06
325.271	-59.74
325.485	-37.14
325.698	-11.78
325.912	12.1
326.125	-7.98
326.339	3.32
326.552	-18.88
326.766	-20.54
326.979	-12.02
327.193	26.6
327.406	0.5
327.619	2.61
327.833	6.23
328.046	-18.7
328.26	-59.35
328.473	-24.91
328.686	-44.88
328.9	-42.29
329.113	-20.43
329.326	-30.07
329.54	-29.79
329.753	-49.21
329.966	-53.99
330.179	-40
330.393	-23.03
330.606	-15.08
330.819	18.01
331.032	10.41
331.246	4.39
331.459	32
331.672	18.76
331.885	1.9
332.098	-6.09
332.311	-12.19
332.525	-62.31
332.738	-22
332.951	9.57
333.164	33.86
333.377	29.37
333.59	48.75
333.803	31.69
334.016	12.36
334.229	-5.84
334.442	19.8
334.655	22.86
334.868	26.9
335.081	30.42
335.294	23.77
335.507	2.33
335.72	-5.03
335.933	-14.19
336.146	-19.8
336.359	-9.22
336.572	-32.97
336.785	-66.8
336.997	-57.37
337.21	-20.81
337.423	-31.74
337.636	-25.69
337.849	3.16
338.062	-2.85
338.274	-9.3
338.487	-15.22
338.7	-16.93
338.913	-63.15
339.125	-77.66
339.338	-115.5
339.551	-79.19
339.763	-19.42
339.976	11.08
340.189	30.54
340.402	28.84
340.614	15.88
340.827	-17.27
341.039	-35.44
341.252	-40.68
341.465	-22.75
341.677	-37.62
341.89	-56.66
342.102	-30.41
342.315	-43.78
342.527	-84.76
342.74	-74.97
342.952	-29.93
343.165	-20.3
343.377	5.42
343.59	1.55
343.802	31.96
344.015	27.89
344.227	37.78
344.44	29.2
344.652	38.56
344.864	9.64
345.077	25.11
345.289	19.06
345.502	24.55
345.714	14.86
345.926	31.2
346.139	26.38
346.351	33.75
346.563	42.23
346.775	55.91
346.988	40.39
347.2	18.16
347.412	-31.38
347.624	-61.61
347.837	-84.99
348.049	-63.73
348.261	-22.98
348.473	-6.16
348.685	-12.93
348.897	-18.35
349.11	-49.19
349.322	-83.03
349.534	-65.9
349.746	-50.38
349.958	-45.39
350.17	-32.92
350.382	0.33
350.594	-1.23
350.806	3.15
351.018	10.59
351.23	9.67
351.442	-46.42
351.654	-63.52
351.866	-64.22
352.078	-66.74
352.29	-38.97
352.502	-11.88
352.714	7.16
352.926	-4.5
353.138	4.96
353.35	-1.84
353.561	3.03
353.773	-19.62
353.985	-4.62
354.197	-18.8
354.409	-26.46
354.621	-28.56
354.832	-21.08
355.044	-31.99
355.256	-31.89
355.468	-16.7
355.679	-29.61
355.891	-18.4
356.103	-26.96
356.314	-23.32
356.526	-27.57
356.738	-17.9
356.949	-37.49
357.161	-11.03
357.373	-3.24
357.584	-19.12
357.796	-4.71
358.008	0.12
358.219	4.04
358.431	3.49
358.642	27.63
358.854	26.06
359.065	21.04
359.277	-2.57
359.488	-15.6
359.7	-45.66
359.911	-62.39
360.123	-47.16
360.334	-57.89
360.546	-72.54
360.757	-68.29
360.969	-44.75
361.18	-39.75
361.391	-30.09
361.603	-41.87
361.814	-21.31
362.025	-40.35
362.237	-37
362.448	-8.57
362.659	16.52
362.871	3.83
363.082	7.11
363.293	-2.7
363.504	-21.62
363.716	-43.77
363.927	-55.54
364.138	-78.1
364.349	-93.09
364.56	-84.5
364.772	-70.04
364.983	-47.89
365.194	-39.36
365.405	-15.28
365.616	0.46
365.827	-4.83
366.038	-14.89
366.25	-23.28
366.461	-49.64
366.672	-40.82
366.883	-13.19
367.094	-7.53
367.305	-20.57
367.516	-24.67
367.727	-49.83
367.938	-79.64
368.149	-82.08
368.36	-57.32
368.571	-49.64
368.781	-58.99
368.992	-62.28
369.203	-78.02
369.414	-90.44
369.625	-69.41
369.836	-55.91
370.047	-77.82
370.258	-51.53
370.468	-51.23
370.679	-76.23
370.89	-66.57
371.101	-40.96
371.312	-51.8
371.522	-55.25
371.733	-48.94
371.944	-34.43
372.155	-16.69
372.365	-18.91
372.576	-8.16
372.787	-7.03
372.997	-31.4
373.208	-38.87
373.419	-8.47
373.629	-51.25
373.84	-36.73
374.05	-41.56
374.261	-21.31
374.472	-27.07
374.682	30.38
374.893	24.93
375.103	55.29
375.314	38.98
375.524	29.92
375.735	26.16
375.945	33.34
376.156	-0.49
376.366	4.69
376.577	3.99
376.787	-8.84
376.997	-6.68
377.208	6.11
377.418	-8.19
377.629	-3.68
377.839	-6.76
378.049	-10.7
378.26	0.85
378.47	10.12
378.68	-1.5
378.89	-1.16
379.101	-15.85
379.311	-50.27
379.521	-77.99
379.732	-66.77
379.942	-67.98
380.152	-62.41
380.362	-26.08
380.572	-24.69
380.783	-9.63
380.993	-1.45
381.203	7.78
381.413	22.53
381.623	32.05
381.833	19.12
382.043	16.8
382.253	7.5
382.463	-5.27
382.674	-15.98
382.884	-33.82
383.094	-34.67
383.304	-29
383.514	-18.74
383.724	-7.04
383.934	-10.01
384.144	-20.89
384.353	-26.22
384.563	-38.18
384.773	-32
384.983	-37.18
385.193	-14.32
385.403	-9.07
385.613	-10.02
385.823	-23.74
386.033	-12.18
386.242	-21.49
386.452	-23.47
386.662	-24.52
386.872	-6.83
387.082	-9.23
387.291	-18.29
387.501	-18.21
387.711	-3.22
387.921	-10.72
388.13	-9.88
388.34	10.1
388.55	3.31
388.759	-4.16
388.969	0.91
389.179	1.08
389.388	-6.08
389.598	2
389.807	-6.8
390.017	-14.89
390.227	-16.74
390.436	-16.03
390.646	-14.47
390.855	-5.98
391.065	-2.91
391.274	-2.98
391.484	-5.59
391.693	-2.4
391.903	-2.24
392.112	1.33
392.322	7.07
392.531	9.57
392.74	6.93
392.95	1.43
393.159	0.07
393.369	-1.81
393.578	-2.99
393.787	-3.99
393.997	-2.04
394.206	-3.28
394.415	-3.82
394.625	-2.78
394.834	-3.84
395.043	-2.54
395.252	-0.03
395.462	2.22
395.671	3.46
395.88	4.42
396.089	5.91
396.298	4.46
396.508	3.43
396.717	1.65
396.926	2.36
397.135	1.04
397.344	0.69
397.553	2.23
397.762	3.6
397.971	3.55
398.181	3.52
398.39	2.94
398.599	1.84
398.808	1.4
399.017	1.52
399.226	3.27
399.435	4.71
399.644	4.91
399.853	4.14
400.062	3.91
400.27	3.29
400.479	2.91
400.688	2.22
400.897	2.69
401.106	3.01
401.315	2.39
401.524	2.16
401.733	2.82
401.941	2.96
402.15	3.04
402.359	3.08
402.568	3.62
402.777	3.57
402.985	3.66
403.194	3.38
403.403	3.51
403.612	2.94
403.82	2.68
404.029	2.68
404.238	2.58
404.446	2.93
404.655	2.82
404.864	2.82
405.072	2.63
405.281	2.84
405.489	2.39
405.698	2.43
405.906	2.41
406.115	2.53
406.324	2.3
406.532	2.51
406.741	2.82
406.949	2.82
407.158	2.68
407.366	2.72
407.574	2.56
407.783	2.54
407.991	2.33
408.2	2.53
408.408	2.54
408.617	2.47
408.825	2.11
409.033	2.31
409.242	2.33
409.45	2.38
409.658	2.38
409.867	2.63
410.075	2.49
410.283	2.3
410.491	2.24
410.7	2.18
410.908	2.18
411.116	2.57
411.324	2.63
411.533	2.59
411.741	2.95
411.949	2.96
412.157	2.55
412.365	2.57
412.573	2.67
412.781	2.55
412.99	2.42
413.198	2.63
413.406	2.64
413.614	2.62
413.822	2.41
414.03	2.46
414.238	2.29
414.446	2.38
414.654	2.08
414.862	2.32
415.07	2.3
415.278	2.45
415.486	2.14
415.694	2.39
415.902	2.22
416.109	2.07
416.317	1.99
416.525	2.07
416.733	2
416.941	2.15
417.149	2.25
417.357	2.27
417.564	2.39
417.772	2.73
417.98	2.59
418.188	2.54
418.395	2.73
418.603	2.79
418.811	2.27
419.019	2.3
419.226	2.44
419.434	2.5
419.642	2.39
419.849	2.64
420.057	2.59
420.265	2.53
420.472	2.17
420.68	2.12
420.887	2.03
421.095	2.15
421.302	2.08
421.51	2.21
421.717	2.3
421.925	2.41
422.132	2.25
422.34	2.14
422.547	2.3
422.755	2.08
422.962	1.93
423.17	1.95
423.377	2.11
423.585	1.97
423.792	2.08
423.999	2.19
424.207	2.25
424.414	2.26
424.621	2.33
424.829	2.33
425.036	2.31
425.243	2.41
425.451	2.28
425.658	2.08
425.865	2.32
426.072	2.29
426.28	2.46
426.487	2.47
426.694	2.63
426.901	2.39
427.108	2.37
427.315	2.12
427.523	2.35
427.73	2.29
427.937	2.08
428.144	1.95
428.351	1.92
428.558	2.1
428.765	2.01
428.972	2.12
429.179	2.4
429.386	2.63
429.593	2.2
429.8	2.14
430.007	2.27
430.214	2.29
430.421	1.98
430.628	1.84
430.835	1.76
431.042	1.96
431.249	1.91
431.456	2.05
431.662	2.27
431.869	2.52
432.076	2.34
432.283	2.34
432.49	2.27
432.697	2.36
432.903	2.15
433.11	2.11
433.317	2.22
433.524	2.39
433.73	2.26
433.937	2.56
434.144	2.49
434.35	2.45
434.557	2.31
434.764	2.35
434.97	2.09
435.177	2.38
435.384	2.21
435.59	2.33
435.797	2.48
436.003	2.57
436.21	2.38
436.416	2.52
436.623	2.52
436.829	2.52
437.036	2.64
437.242	2.6
437.449	2.51
437.655	2.46
437.862	2.36
438.068	2.3
438.275	2.53
438.481	2.79
438.687	2.72
438.894	2.67
439.1	2.7
439.307	2.77
439.513	2.59
439.719	2.59
439.926	2.76
440.132	2.69
440.338	2.44
440.544	2.54
440.751	2.52
440.957	2.58
441.163	2.55
441.369	2.7
441.575	2.49
441.782	2.49
441.988	2.35
442.194	2.4
442.4	2.34
442.606	2.67
442.812	2.81
443.018	2.88
443.224	2.92
443.431	3.08
443.637	2.88
443.843	2.74
444.049	2.79
444.255	2.68
444.461	2.72
444.667	2.66
444.873	2.83
445.079	2.78
445.284	2.95
445.49	2.59
445.696	2.48
445.902	2.37
446.108	2.24
446.314	2.15
446.52	2.27
446.726	2.51
446.931	2.44
447.137	2.56
447.343	2.49
447.549	2.43
447.755	2.3
447.96	2.38
448.166	2.38
448.372	2.38
448.578	2.47
448.783	2.51
448.989	2.61
449.195	2.76
449.4	2.84
449.606	2.83
449.812	2.72
450.017	2.67
450.223	2.53
450.428	2.44
450.634	2.62
450.84	2.79
451.045	2.72
451.251	2.67
451.456	2.96
451.662	2.95
451.867	2.94
452.073	3.01
452.278	3.13
452.483	3.13
452.689	2.95
452.894	2.97
453.1	2.96
453.305	2.92
453.51	2.77
453.716	2.84
453.921	2.83
454.127	2.79
454.332	2.66
454.537	2.57
454.742	2.47
454.948	2.42
455.153	2.4
455.358	2.51
455.563	2.74
455.769	2.96
455.974	2.92
456.179	2.79
456.384	2.78
456.589	2.65
456.795	2.37
457	2.33
457.205	2.61
457.41	2.54
457.615	2.49
457.82	2.67
458.025	2.74
458.23	2.56
458.435	2.65
458.64	2.6
458.845	2.69
459.05	2.68
459.255	2.74
459.46	2.66
459.665	2.71
459.87	2.59
