Data from Ofra_2a_PS_2GT31_Reflection_2.txt Node
Date: Tue Jul 20 09:41:32 EDT 2021
User: Adam
Spectrometer: FLMT01687
Trigger mode: 0
Integration Time (sec): 9.450000E-1
Scans to average: 3
Electric dark correction enabled: true
Nonlinearity correction enabled: false
Boxcar width: 3
XAxis mode: Wavelengths
Number of Pixels in Spectrum: 3648
>>>>>Begin Spectral Data<<<<<
179.494	880.47
179.716	572.27
179.937	577.47
180.158	2049.61
180.38	-848.55
180.601	-57.16
180.823	25.27
181.044	145.52
181.265	173.33
181.486	88.84
181.708	-694.57
181.929	-85.47
182.15	-1338.07
182.372	188.72
182.593	171.83
182.814	62.43
183.035	90.19
183.257	102.39
183.478	71.24
183.699	83.38
183.92	72.62
184.141	63.17
184.363	48.78
184.584	39.68
184.805	31.13
185.026	14.3
185.247	-1.88
185.468	-7.19
185.689	-2.97
185.91	-13.21
186.132	-14.25
186.353	-31.26
186.574	-17.76
186.795	-27.18
187.016	-29.5
187.237	-24.71
187.458	-21.52
187.679	-17.55
187.9	8.31
188.121	15.54
188.342	40.01
188.563	42.18
188.784	42.17
189.005	53.98
189.226	58.67
189.447	54.93
189.667	58.1
189.888	56.37
190.109	62.54
190.33	53.36
190.551	41.1
190.772	23.47
190.993	35.29
191.214	30.08
191.434	22.24
191.655	22.14
191.876	35.8
192.097	30.5
192.318	42.53
192.538	40.2
192.759	42
192.98	40.56
193.201	50.58
193.421	38.35
193.642	43.73
193.863	42.06
194.083	35.34
194.304	24.72
194.525	33.96
194.745	2.8
194.966	10.94
195.187	11.68
195.407	-1.76
195.628	-2.13
195.848	8.24
196.069	-1.87
196.29	-2.7
196.51	-2.6
196.731	6.07
196.951	20.09
197.172	26.28
197.392	22.5
197.613	19.78
197.833	36.21
198.054	29.72
198.274	16.68
198.495	20.32
198.715	15.68
198.936	-5.21
199.156	16.36
199.377	6.35
199.597	-4.77
199.817	4.08
200.038	0.09
200.258	-1.16
200.479	8.97
200.699	7.8
200.919	-5.34
201.14	13.5
201.36	25.54
201.58	36
201.801	26.36
202.021	32.67
202.241	27.46
202.461	38.7
202.682	35.77
202.902	25.24
203.122	18.88
203.342	39.7
203.563	27.68
203.783	32.41
204.003	33.11
204.223	37.42
204.443	37.56
204.663	42.79
204.884	39.47
205.104	50.88
205.324	51
205.544	50.05
205.764	47.26
205.984	58.48
206.204	61.08
206.424	46.51
206.644	32.47
206.864	32.15
207.084	45.23
207.304	43.68
207.525	28.82
207.745	26.13
207.964	39.83
208.184	47.1
208.404	40.24
208.624	26.8
208.844	16.28
209.064	35.24
209.284	47.5
209.504	33.16
209.724	18.53
209.944	9.52
210.164	9.28
210.384	22.89
210.604	-8.51
210.823	-26.8
211.043	-24.12
211.263	-0.89
211.483	13.95
211.703	19.21
211.922	11.62
212.142	23.89
212.362	29.35
212.582	34.1
212.801	20.8
213.021	16.85
213.241	13.09
213.461	18.49
213.68	9.71
213.9	7.12
214.12	-5.09
214.339	11
214.559	15.55
214.779	14.9
214.998	18.42
215.218	30.74
215.438	39.89
215.657	46.22
215.877	44.04
216.096	40.72
216.316	28.03
216.535	30.55
216.755	10.06
216.974	0.68
217.194	1
217.413	21.04
217.633	10.69
217.852	15.1
218.072	1.96
218.291	30.29
218.511	24.67
218.73	31.39
218.95	12.41
219.169	19.32
219.389	31.24
219.608	39.93
219.827	25.46
220.047	41.21
220.266	21.64
220.485	28.75
220.705	23.7
220.924	21.67
221.143	12.65
221.363	5.66
221.582	-1.91
221.801	15.56
222.021	17.77
222.24	28.97
222.459	28.43
222.678	23.67
222.897	28.18
223.117	38.86
223.336	21.78
223.555	3.2
223.774	-1.95
223.993	0.32
224.213	6.68
224.432	5.81
224.651	-8.19
224.87	2.6
225.089	27.06
225.308	31.54
225.527	29.13
225.746	32.41
225.965	26.95
226.184	26.61
226.404	8.78
226.623	5.99
226.842	1.69
227.061	14.86
227.28	48.05
227.499	57.24
227.718	50.4
227.936	48.5
228.155	41.79
228.374	50.67
228.593	41.08
228.812	22.16
229.031	14.63
229.25	31.92
229.469	45.9
229.688	55.57
229.907	40.62
230.125	47.46
230.344	50.94
230.563	45.21
230.782	36.12
231.001	29.52
231.22	17.24
231.438	27.94
231.657	25.82
231.876	22.69
232.095	25.32
232.313	31.18
232.532	35.12
232.751	44.36
232.969	47.32
233.188	43.4
233.407	37.44
233.625	32.56
233.844	26.49
234.063	33.08
234.281	26.81
234.5	24.59
234.719	31.74
234.937	35.87
235.156	45.29
235.374	49.45
235.593	39.23
235.811	29.26
236.03	15.83
236.249	11.58
236.467	14.17
236.686	15.65
236.904	14.64
237.123	19.17
237.341	25.48
237.559	27.31
237.778	29.46
237.996	26.75
238.215	14.78
238.433	28.1
238.652	25.29
238.87	23.43
239.088	21.84
239.307	17.4
239.525	18.68
239.743	19.3
239.962	9.58
240.18	24.46
240.398	31.16
240.617	36.46
240.835	40.8
241.053	46.61
241.271	56.71
241.49	53.34
241.708	39.71
241.926	22.01
242.144	21.15
242.363	23.41
242.581	14.47
242.799	6.84
243.017	9.83
243.235	10.78
243.453	30.56
243.672	26.32
243.89	28
244.108	36.39
244.326	33.93
244.544	40.29
244.762	32.44
244.98	28.05
245.198	21.26
245.416	18.4
245.634	15.92
245.852	15.56
246.07	13.39
246.288	11.17
246.506	10.27
246.724	28.98
246.942	27.75
247.16	19.19
247.378	10.45
247.596	13.57
247.814	9.87
248.032	7.75
248.25	-1.88
248.468	-0.12
248.685	14.39
248.903	14.75
249.121	17.91
249.339	24.72
249.557	28.01
249.775	13.25
249.992	7.04
250.21	-10.29
250.428	-6.17
250.646	-7.87
250.863	-11.71
251.081	-10.92
251.299	13.26
251.517	35.56
251.734	35.07
251.952	39.9
252.17	39.54
252.387	35.61
252.605	35.75
252.823	29.41
253.04	40.11
253.258	54.9
253.475	44.9
253.693	37.1
253.911	38.44
254.128	31.23
254.346	24.45
254.563	13.76
254.781	15.84
254.998	16.71
255.216	20.42
255.433	29.64
255.651	25.97
255.868	35.79
256.086	31.03
256.303	27.03
256.521	22.94
256.738	18.13
256.956	-4.02
257.173	9.34
257.39	15.63
257.608	15.77
257.825	12.73
258.043	20.2
258.26	21.61
258.477	31.58
258.695	35.44
258.912	24.14
259.129	23.36
259.346	23.59
259.564	27.67
259.781	34.29
259.998	36.39
260.216	31.54
260.433	39.81
260.65	43.89
260.867	37.71
261.084	35.61
261.302	30.96
261.519	22.4
261.736	23.75
261.953	19.15
262.17	18.8
262.387	24.51
262.604	6.8
262.822	19.69
263.039	25.24
263.256	17.06
263.473	16.61
263.69	11.52
263.907	11.36
264.124	15.35
264.341	3.37
264.558	10.72
264.775	15.48
264.992	21.25
265.209	28.77
265.426	26.88
265.643	34.54
265.86	34.83
266.077	31.15
266.294	35.96
266.51	31.69
266.727	18.05
266.944	19.06
267.161	16.03
267.378	17.37
267.595	8.41
267.812	11.07
268.028	14.34
268.245	27.05
268.462	22
268.679	6.97
268.896	0.97
269.112	16.93
269.329	13.77
269.546	9.43
269.763	17.28
269.979	22.44
270.196	31.58
270.413	34.89
270.629	28.36
270.846	29.6
271.063	33.05
271.279	26.98
271.496	22.03
271.712	20.15
271.929	23.97
272.146	22.11
272.362	5.84
272.579	-3.46
272.795	-11
273.012	-3.03
273.228	-4.31
273.445	-3.78
273.661	-1.53
273.878	7.11
274.094	15.93
274.311	24.77
274.527	25.61
274.744	26.78
274.96	28.2
275.177	33.38
275.393	29
275.609	26.6
275.826	16.34
276.042	32.5
276.259	38.02
276.475	25.49
276.691	29.17
276.908	32.37
277.124	29.14
277.34	29.21
277.557	21.76
277.773	18.68
277.989	13.31
278.205	0.15
278.422	15.32
278.638	23.72
278.854	30.9
279.07	14.5
279.286	17.31
279.503	21.09
279.719	35.92
279.935	14.64
280.151	22.96
280.367	20.35
280.583	28.83
280.799	32.72
281.016	42.51
281.232	33.52
281.448	37.53
281.664	20.35
281.88	17.45
282.096	24.43
282.312	14.32
282.528	10.9
282.744	14.35
282.96	19
283.176	25.61
283.392	34.15
283.608	31.51
283.824	27.81
284.04	34.09
284.256	38.73
284.471	44.03
284.687	48.21
284.903	46.05
285.119	29.12
285.335	31
285.551	28.51
285.767	23.5
285.982	16.47
286.198	6.57
286.414	16.26
286.63	31.99
286.846	31.89
287.061	41.58
287.277	39.78
287.493	45.12
287.709	41.46
287.924	48.21
288.14	44.28
288.356	56.27
288.571	41.09
288.787	45.01
289.003	39.87
289.218	39.54
289.434	27.24
289.65	32.55
289.865	35.72
290.081	29.84
290.296	32.77
290.512	39.46
290.727	50.98
290.943	53.95
291.159	47.01
291.374	39.92
291.59	43.2
291.805	42.64
292.021	30.74
292.236	22.38
292.451	16.92
292.667	22.15
292.882	13.81
293.098	12.79
293.313	5.52
293.529	11.98
293.744	13.99
293.959	23.92
294.175	25.14
294.39	27.8
294.605	25.92
294.821	30.53
295.036	35.71
295.251	28.71
295.467	20.73
295.682	24.92
295.897	32.82
296.112	38.14
296.328	35.05
296.543	19.88
296.758	23.33
296.973	21.3
297.188	12.05
297.404	9.75
297.619	12.98
297.834	23.49
298.049	25.05
298.264	18.31
298.479	13.06
298.694	16.77
298.909	10.77
299.125	8.77
299.34	4.15
299.555	9.19
299.77	9.68
299.985	9.21
300.2	13.07
300.415	15.26
300.63	9.59
300.845	9.41
301.06	10.86
301.275	18.7
301.49	25.51
301.704	18.9
301.919	13.85
302.134	12.59
302.349	8.62
302.564	6.91
302.779	0.25
302.994	-6.47
303.209	-11.39
303.423	10.54
303.638	22.22
303.853	19.03
304.068	19.93
304.283	18.4
304.497	18.26
304.712	26.49
304.927	12.57
305.142	13.78
305.356	14.24
305.571	15.42
305.786	17.09
306	23.47
306.215	22.73
306.43	41.88
306.644	41.87
306.859	40.62
307.074	40.88
307.288	39.85
307.503	36.96
307.717	33.55
307.932	22.2
308.147	18.71
308.361	23.57
308.576	23.55
308.79	24.15
309.005	26.83
309.219	31.97
309.434	32.79
309.648	34.09
309.863	33.55
310.077	31.72
310.292	26.09
310.506	32.38
310.72	29.59
310.935	27.57
311.149	29.04
311.364	33.35
311.578	34.8
311.792	37.39
312.007	27.22
312.221	32.12
312.435	38.04
312.649	52.46
312.864	36.06
313.078	30.3
313.292	37.86
313.507	44.53
313.721	47.94
313.935	52.26
314.149	39.35
314.363	44.97
314.578	67.06
314.792	69.83
315.006	68.8
315.22	63.71
315.434	52.22
315.648	52.59
315.862	52.16
316.077	34.27
316.291	28.55
316.505	31.87
316.719	17.56
316.933	20.35
317.147	14.17
317.361	18.74
317.575	20.44
317.789	17.98
318.003	17.98
318.217	28.48
318.431	33.05
318.645	37.2
318.859	28.84
319.073	31.18
319.287	35.76
319.5	29.86
319.714	26.75
319.928	27.26
320.142	24.83
320.356	29
320.57	21.32
320.784	15.86
320.997	23.18
321.211	25.82
321.425	13.53
321.639	19.33
321.853	13.28
322.066	18.41
322.28	16.04
322.494	10.94
322.707	11
322.921	16.72
323.135	16.37
323.349	15.44
323.562	15.25
323.776	17.75
323.989	15.04
324.203	17.01
324.417	11.23
324.63	4
324.844	7.13
325.057	3.27
325.271	-6.09
325.485	2.94
325.698	-12.31
325.912	7.66
326.125	11.34
326.339	9.77
326.552	20.95
326.766	37.33
326.979	40.29
327.193	46.75
327.406	38.5
327.619	27.45
327.833	30.42
328.046	18.67
328.26	9.91
328.473	2.68
328.686	5.68
328.9	1.03
329.113	19.97
329.326	26.84
329.54	17.87
329.753	23.51
329.966	23
330.179	27.54
330.393	30.34
330.606	24.17
330.819	25.73
331.032	37.04
331.246	33.67
331.459	33.4
331.672	30.27
331.885	28.07
332.098	40.05
332.311	33.59
332.525	32.64
332.738	31.43
332.951	33.6
333.164	35.35
333.377	31.29
333.59	25.19
333.803	26.69
334.016	19.9
334.229	25.49
334.442	30.7
334.655	31.73
334.868	37.19
335.081	36.19
335.294	31.65
335.507	41.38
335.72	28.75
335.933	30.23
336.146	31.03
336.359	29.01
336.572	24.64
336.785	30.25
336.997	25.65
337.21	35.7
337.423	26.75
337.636	23.26
337.849	23.62
338.062	25.84
338.274	19.61
338.487	11.28
338.7	8.26
338.913	8.15
339.125	6.51
339.338	17.44
339.551	24.29
339.763	24.75
339.976	24.31
340.189	16.84
340.402	13.55
340.614	16.92
340.827	4.53
341.039	-2.58
341.252	0.3
341.465	-2.02
341.677	1.57
341.89	6.44
342.102	5.92
342.315	21.06
342.527	19.43
342.74	16.56
342.952	21.71
343.165	33.68
343.377	40.55
343.59	45.53
343.802	39.52
344.015	41.72
344.227	42.17
344.44	43.36
344.652	32.35
344.864	36.77
345.077	31.95
345.289	29.55
345.502	33.68
345.714	27.83
345.926	20.94
346.139	25.74
346.351	5.83
346.563	14.64
346.775	12.93
346.988	6.61
347.2	17.75
347.412	20.34
347.624	22.03
347.837	28.78
348.049	20.41
348.261	18.74
348.473	13.12
348.685	12.56
348.897	18.86
349.11	18.13
349.322	12.37
349.534	18.38
349.746	24.68
349.958	33.3
350.17	30.74
350.382	17.78
350.594	8.29
350.806	18.07
351.018	20.2
351.23	20.38
351.442	20.99
351.654	27.56
351.866	33.33
352.078	38.44
352.29	38.84
352.502	37.67
352.714	40.09
352.926	37.14
353.138	34.18
353.35	31.11
353.561	28.66
353.773	23.94
353.985	24.55
354.197	19.82
354.409	22.08
354.621	18.41
354.832	16.09
355.044	25.07
355.256	21.71
355.468	14.06
355.679	14.18
355.891	13.41
356.103	5.43
356.314	5.18
356.526	-5.02
356.738	-5.92
356.949	0.05
357.161	-0.35
357.373	-1.82
357.584	9.92
357.796	12.41
358.008	22.71
358.219	30.46
358.431	37.05
358.642	41.2
358.854	43.95
359.065	38.74
359.277	35
359.488	26.9
359.7	19.95
359.911	7.63
360.123	7.77
360.334	-0.14
360.546	-6.7
360.757	10.67
360.969	21.55
361.18	16.48
361.391	25.2
361.603	31.18
361.814	39.97
362.025	44.08
362.237	34.19
362.448	27.84
362.659	26.92
362.871	30.04
363.082	22.27
363.293	24.49
363.504	28.03
363.716	26.5
363.927	28.4
364.138	37.24
364.349	36.48
364.56	33.1
364.772	32.24
364.983	26.39
365.194	29.6
365.405	24.4
365.616	9.29
365.827	4.84
366.038	21.42
366.25	21.78
366.461	25.08
366.672	21.97
366.883	29.91
367.094	38.15
367.305	38.72
367.516	31.49
367.727	27.68
367.938	27.34
368.149	31.42
368.36	23.93
368.571	24.47
368.781	23.93
368.992	18.92
369.203	17.06
369.414	17.5
369.625	13.9
369.836	17.3
370.047	15.98
370.258	7.2
370.468	14.8
370.679	10.53
370.89	17.48
371.101	19.53
371.312	18.99
371.522	15.82
371.733	17.48
371.944	13.12
372.155	9.1
372.365	4.8
372.576	1.67
372.787	-0.08
372.997	2.58
373.208	13.6
373.419	10.48
373.629	21.01
373.84	15.52
374.05	19.6
374.261	13.53
374.472	10.35
374.682	-5.74
374.893	-3.9
375.103	-1.28
375.314	-1.44
375.524	-0.3
375.735	3.91
375.945	6.87
376.156	19.82
376.366	21.33
376.577	18.6
376.787	21.29
376.997	20.68
377.208	20.79
377.418	21.79
377.629	17.84
377.839	21.95
378.049	25.29
378.26	24.86
378.47	24.86
378.68	24.29
378.89	16.81
379.101	13.57
379.311	11.5
379.521	7.09
379.732	1.67
379.942	0.39
380.152	3.36
380.362	11.35
380.572	15.62
380.783	15.4
380.993	16.19
381.203	20.74
381.413	26.04
381.623	24.79
381.833	22.74
382.043	14.8
382.253	13.11
382.463	12.68
382.674	14.82
382.884	10.61
383.094	9.99
383.304	6.13
383.514	14.5
383.724	15.95
383.934	14.97
384.144	14.03
384.353	10.4
384.563	11.47
384.773	16.26
384.983	13.1
385.193	13.27
385.403	13.82
385.613	12.05
385.823	14.25
386.033	14.63
386.242	12.63
386.452	13.19
386.662	12.74
386.872	12.64
387.082	9.95
387.291	10.15
387.501	8.84
387.711	8.67
387.921	7.54
388.13	7.78
388.34	8.54
388.55	11.14
388.759	10.26
388.969	8.48
389.179	13.07
389.388	12.57
389.598	10.33
389.807	8.91
390.017	8.75
390.227	8.5
390.436	9.08
390.646	5.73
390.855	7.11
391.065	9.02
391.274	8.55
391.484	9.14
391.693	9.36
391.903	9.05
392.112	9.42
392.322	10.66
392.531	9.75
392.74	8.81
392.95	8.85
393.159	8.87
393.369	9.5
393.578	9.94
393.787	9.27
393.997	10.22
394.206	11.57
394.415	11.15
394.625	9.9
394.834	8.75
395.043	8.95
395.252	8.56
395.462	8.16
395.671	7.94
395.88	7.63
396.089	8.32
396.298	8.57
396.508	7.79
396.717	7.56
396.926	7.15
397.135	6.95
397.344	7.31
397.553	7.63
397.762	7.75
397.971	7.76
398.181	7.53
398.39	7.82
398.599	7.79
398.808	7.59
399.017	7.63
399.226	7.76
399.435	8.01
399.644	7.9
399.853	7.75
400.062	7.67
400.27	7.78
400.479	7.62
400.688	7.59
400.897	7.71
401.106	7.99
401.315	7.91
401.524	7.87
401.733	8
401.941	7.94
402.15	7.76
402.359	7.5
402.568	7.32
402.777	7.42
402.985	7.42
403.194	7.22
403.403	7.02
403.612	7.06
403.82	7.17
404.029	7.15
404.238	7.12
404.446	7.11
404.655	6.93
404.864	7.05
405.072	7.05
405.281	6.91
405.489	6.95
405.698	6.94
405.906	6.94
406.115	7.09
406.324	7.03
406.532	7.04
406.741	7.08
406.949	6.96
407.158	7
407.366	7.07
407.574	7.02
407.783	6.9
407.991	6.77
408.2	6.74
408.408	6.76
408.617	6.67
408.825	6.54
409.033	6.43
409.242	6.52
409.45	6.55
409.658	6.54
409.867	6.51
410.075	6.48
410.283	6.45
410.491	6.46
410.7	6.49
410.908	6.48
411.116	6.46
411.324	6.51
411.533	6.43
411.741	6.42
411.949	6.43
412.157	6.38
412.365	6.35
412.573	6.26
412.781	6.25
412.99	6.36
413.198	6.35
413.406	6.33
413.614	6.28
413.822	6.31
414.03	6.27
414.238	6.26
414.446	6.08
414.654	6.08
414.862	6.03
415.07	6.04
415.278	5.87
415.486	5.98
415.694	5.85
415.902	5.89
416.109	5.96
416.317	5.96
416.525	6.02
416.733	6.15
416.941	5.98
417.149	6.18
417.357	6.16
417.564	6.06
417.772	6.05
417.98	5.96
418.188	5.79
418.395	5.89
418.603	5.69
418.811	5.58
419.019	5.56
419.226	5.59
419.434	5.51
419.642	5.58
419.849	5.57
420.057	5.6
420.265	5.69
420.472	5.67
420.68	5.59
420.887	5.62
421.095	5.57
421.302	5.49
421.51	5.55
421.717	5.57
421.925	5.49
422.132	5.41
422.34	5.39
422.547	5.38
422.755	5.38
422.962	5.24
423.17	5.15
423.377	5.26
423.585	5.35
423.792	5.3
423.999	5.32
424.207	5.28
424.414	5.35
424.621	5.48
424.829	5.42
425.036	5.35
425.243	5.49
425.451	5.52
425.658	5.58
425.865	5.53
426.072	5.46
426.28	5.39
426.487	5.38
426.694	5.3
426.901	5.28
427.108	5.32
427.315	5.37
427.523	5.39
427.73	5.46
427.937	5.5
428.144	5.5
428.351	5.58
428.558	5.54
428.765	5.41
428.972	5.34
429.179	5.34
429.386	5.38
429.593	5.42
429.8	5.4
430.007	5.51
430.214	5.59
430.421	5.67
430.628	5.56
430.835	5.52
431.042	5.53
431.249	5.49
431.456	5.49
431.662	5.54
431.869	5.6
432.076	5.74
432.283	5.78
432.49	5.74
432.697	5.79
432.903	5.83
433.11	5.81
433.317	5.88
433.524	5.82
433.73	5.88
433.937	5.87
434.144	5.89
434.35	5.9
434.557	5.9
434.764	5.86
434.97	5.93
435.177	5.9
435.384	5.93
435.59	5.91
435.797	5.9
436.003	5.93
436.21	5.83
436.416	5.75
436.623	5.76
436.829	5.79
437.036	5.83
437.242	5.88
437.449	5.89
437.655	6.03
437.862	6.16
438.068	6.29
438.275	6.31
438.481	6.39
438.687	6.42
438.894	6.44
439.1	6.43
439.307	6.38
439.513	6.31
439.719	6.42
439.926	6.43
440.132	6.45
440.338	6.47
440.544	6.44
440.751	6.47
440.957	6.46
441.163	6.45
441.369	6.44
441.575	6.41
441.782	6.42
441.988	6.48
442.194	6.56
442.4	6.63
442.606	6.65
442.812	6.7
443.018	6.75
443.224	6.75
443.431	6.75
443.637	6.71
443.843	6.73
444.049	6.72
444.255	6.68
444.461	6.67
444.667	6.72
444.873	6.8
445.079	6.84
445.284	6.82
445.49	6.85
445.696	6.95
445.902	7
446.108	7
446.314	7.07
446.52	7.07
446.726	7.13
446.931	7.12
447.137	7.03
447.343	7.07
447.549	7.08
447.755	6.98
447.96	6.99
448.166	7
448.372	6.98
448.578	7.06
448.783	6.99
448.989	7.04
449.195	7.07
449.4	7.1
449.606	7.07
449.812	7.18
450.017	7.17
450.223	7.23
450.428	7.22
450.634	7.26
450.84	7.24
451.045	7.29
451.251	7.29
451.456	7.24
451.662	7.27
451.867	7.3
452.073	7.29
452.278	7.33
452.483	7.36
452.689	7.37
452.894	7.42
453.1	7.37
453.305	7.41
453.51	7.47
453.716	7.48
453.921	7.46
454.127	7.47
454.332	7.5
454.537	7.63
454.742	7.61
454.948	7.56
455.153	7.56
455.358	7.63
455.563	7.6
455.769	7.63
455.974	7.56
456.179	7.55
456.384	7.67
456.589	7.68
456.795	7.63
457	7.66
457.205	7.59
457.41	7.63
457.615	7.69
457.82	7.71
458.025	7.77
458.23	7.84
458.435	7.82
458.64	7.88
458.845	7.86
459.05	7.85
459.255	7.81
459.46	7.79
459.665	7.77
459.87	7.8
460.075	7.81
460.28	7.86
460.485	7.9
460.69	7.9
460.895	8.01
461.099	8.02
461.304	8.05
461.509	8.01
461.714	8.02
461.919	8.01
462.123	8.06
462.328	7.97
462.533	7.97
462.738	7.99
462.942	8.08
463.147	8.06
463.352	8.11
463.556	8.11
463.761	8.15
463.966	8.24
464.17	8.29
464.375	8.25
464.58	8.32
464.784	8.3
464.989	8.33
465.193	8.35
465.398	8.37
465.602	8.37
465.807	8.43
466.011	8.47
466.216	8.54
466.42	8.61
466.625	8.63
466.829	8.64
467.034	8.7
467.238	8.77
467.443	8.81
467.647	8.85
467.851	8.86
468.056	8.89
468.26	8.87
468.464	8.86
468.669	8.85
468.873	8.82
469.077	8.84
469.282	8.84
469.486	8.89
469.69	8.96
