Data from Ofra_2a_PS_2CX12_Reflection_2.txt Node
Date: Tue Jul 20 09:38:08 EDT 2021
User: Adam
Spectrometer: FLMT01687
Trigger mode: 0
Integration Time (sec): 9.450000E-1
Scans to average: 3
Electric dark correction enabled: true
Nonlinearity correction enabled: false
Boxcar width: 3
XAxis mode: Wavelengths
Number of Pixels in Spectrum: 3648
>>>>>Begin Spectral Data<<<<<
179.494	325.44
179.716	76.76
179.937	169.23
180.158	362.5
180.38	-39.53
180.601	47.58
180.823	76.16
181.044	162.15
181.265	72.73
181.486	139.95
181.708	1013.04
181.929	134.88
182.15	420.45
182.372	54.51
182.593	-14.04
182.814	179.04
183.035	71.49
183.257	64.26
183.478	68.93
183.699	68.05
183.92	61.36
184.141	52.84
184.363	37.98
184.584	34.32
184.805	43.54
185.026	32.88
185.247	38.49
185.468	34.78
185.689	44.11
185.91	51.36
186.132	72.43
186.353	51.32
186.574	41.91
186.795	20.8
187.016	25.91
187.237	15.93
187.458	-10.79
187.679	-65.14
187.9	-32.18
188.121	-18.54
188.342	12.3
188.563	18.88
188.784	33.25
189.005	42.6
189.226	48.7
189.447	43.39
189.667	27.49
189.888	40.07
190.109	33.55
190.33	15.25
190.551	14.5
190.772	13.8
190.993	25.91
191.214	38.43
191.434	35.07
191.655	41
191.876	46.31
192.097	39.39
192.318	41.2
192.538	39.21
192.759	32.58
192.98	15.67
193.201	22.92
193.421	28.41
193.642	38.16
193.863	28.62
194.083	10.39
194.304	27.91
194.525	51.62
194.745	27.87
194.966	31.32
195.187	41.94
195.407	42.41
195.628	42.99
195.848	35.31
196.069	23.01
196.29	27.85
196.51	14.35
196.731	11.48
196.951	21.72
197.172	20.87
197.392	24.33
197.613	25.11
197.833	16.87
198.054	13.87
198.274	1.95
198.495	2.71
198.715	6.15
198.936	9.83
199.156	2.6
199.377	32.74
199.597	45.07
199.817	39.97
200.038	41.84
200.258	43.67
200.479	43.35
200.699	54.09
200.919	21.32
201.14	33.22
201.36	53.96
201.58	48.9
201.801	46.2
202.021	50.75
202.241	49.57
202.461	56.33
202.682	51.42
202.902	35.81
203.122	30.26
203.342	37.48
203.563	28.63
203.783	31.85
204.003	35.86
204.223	32.03
204.443	35.49
204.663	36.38
204.884	29.61
205.104	34.67
205.324	42.23
205.544	37.7
205.764	39.71
205.984	44.55
206.204	44.19
206.424	35.57
206.644	29.71
206.864	18.53
207.084	38.49
207.304	41.47
207.525	28.7
207.745	36.19
207.964	39.82
208.184	30.13
208.404	23.78
208.624	1.08
208.844	-12.48
209.064	7.06
209.284	7.56
209.504	12.76
209.724	-5.52
209.944	9.03
210.164	6.59
210.384	19.04
210.604	9.79
210.823	3.18
211.043	-4.31
211.263	22.07
211.483	17.68
211.703	28.97
211.922	26.93
212.142	26.94
212.362	23.76
212.582	30.42
212.801	24.38
213.021	27.94
213.241	22.97
213.461	14.34
213.68	14.57
213.9	17.77
214.12	9.34
214.339	10.39
214.559	23.38
214.779	26.72
214.998	29.57
215.218	37.18
215.438	54.72
215.657	55.65
215.877	61.57
216.096	52.01
216.316	43.98
216.535	51.1
216.755	39.67
216.974	33.43
217.194	28.58
217.413	46.39
217.633	46.05
217.852	53.83
218.072	51.2
218.291	57.2
218.511	48.07
218.73	54.92
218.95	36.03
219.169	27.81
219.389	23.59
219.608	30.65
219.827	15.42
220.047	19.6
220.266	22.93
220.485	23.33
220.705	16.89
220.924	21.86
221.143	14.45
221.363	23.71
221.582	10.73
221.801	0.88
222.021	8.47
222.24	8.06
222.459	2.57
222.678	6.17
222.897	5.73
223.117	15.75
223.336	31.59
223.555	24.07
223.774	46.07
223.993	42.24
224.213	33.08
224.432	39.3
224.651	36.36
224.87	26.34
225.089	40.27
225.308	28.44
225.527	35.86
225.746	38.84
225.965	27.3
226.184	34.48
226.404	40.81
226.623	40.81
226.842	29.82
227.061	35.67
227.28	41.42
227.499	45.53
227.718	40.74
227.936	35.73
228.155	29.19
228.374	40.74
228.593	37.67
228.812	33.1
229.031	27.28
229.25	35.58
229.469	45.8
229.688	48.82
229.907	32.35
230.125	28.74
230.344	29.4
230.563	38.57
230.782	24.46
231.001	19.72
231.22	18.56
231.438	37.68
231.657	43.61
231.876	44.09
232.095	32.78
232.313	50.97
232.532	50.39
232.751	49.46
232.969	50.24
233.188	41.97
233.407	41.46
233.625	49.28
233.844	33.72
234.063	29.02
234.281	20.43
234.5	22.37
234.719	21.2
234.937	29.16
235.156	24.67
235.374	25.49
235.593	23.22
235.811	22.5
236.03	8.53
236.249	21.94
236.467	28.35
236.686	35.84
236.904	30.59
237.123	38.93
237.341	48.03
237.559	48.15
237.778	54.06
237.996	52.54
238.215	43.04
238.433	49.3
238.652	45.78
238.87	39.36
239.088	33.68
239.307	29.91
239.525	19.21
239.743	20.17
239.962	17.76
240.18	26.27
240.398	35.75
240.617	43.75
240.835	41.14
241.053	40.44
241.271	46.49
241.49	40.1
241.708	28.54
241.926	14.44
242.144	9.96
242.363	2.46
242.581	15.69
242.799	4.27
243.017	10.62
243.235	10.77
243.453	13.54
243.672	17.23
243.89	31.03
244.108	28.58
244.326	29.27
244.544	33.92
244.762	32.16
244.98	39.12
245.198	26.86
245.416	27.87
245.634	35.74
245.852	48.37
246.07	44.23
246.288	45.11
246.506	48.38
246.724	62.21
246.942	59.81
247.16	43.25
247.378	25.39
247.596	32.82
247.814	23.36
248.032	19.6
248.25	6.45
248.468	0.26
248.685	7.06
248.903	8.09
249.121	4.11
249.339	16.95
249.557	18.78
249.775	15.13
249.992	15.64
250.21	2.93
250.428	0.23
250.646	5.95
250.863	11.2
251.081	12.43
251.299	40.87
251.517	44.26
251.734	54.63
251.952	72.52
252.17	61.07
252.387	52.34
252.605	58.57
252.823	27.53
253.04	30.8
253.258	21.25
253.475	14.43
253.693	26.01
253.911	24.08
254.128	12.27
254.346	21.43
254.563	15.16
254.781	21.24
254.998	15.32
255.216	16.36
255.433	10.95
255.651	16.43
255.868	19.39
256.086	34.5
256.303	32.77
256.521	37.76
256.738	23.46
256.956	13.48
257.173	19.05
257.39	19.1
257.608	10.07
257.825	8.56
258.043	22.16
258.26	22.39
258.477	33.24
258.695	41.88
258.912	48.68
259.129	52.05
259.346	52.03
259.564	40.85
259.781	52.25
259.998	59.3
260.216	52.52
260.433	45.56
260.65	50.64
260.867	50.03
261.084	58.63
261.302	48.26
261.519	40.93
261.736	24.41
261.953	25.61
262.17	22.46
262.387	20.51
262.604	1.33
262.822	13.97
263.039	18.03
263.256	21.86
263.473	11.76
263.69	13.45
263.907	9.21
264.124	13.39
264.341	0.65
264.558	6.27
264.775	3.77
264.992	7.52
265.209	12.21
265.426	17.98
265.643	21.13
265.86	23.07
266.077	23.64
266.294	25.26
266.51	29.64
266.727	17.12
266.944	-23.64
267.161	-37.9
267.378	-31.57
267.595	-36.88
267.812	-45.68
268.028	-51.98
268.245	-37.07
268.462	1.79
268.679	1.51
268.896	-2.66
269.112	8.8
269.329	28.11
269.546	32.02
269.763	37.25
269.979	31.03
270.196	43.97
270.413	45.26
270.629	38.24
270.846	35.41
271.063	37.72
271.279	27.96
271.496	24.96
271.712	13.67
271.929	21.24
272.146	25.97
272.362	3.28
272.579	-0.68
272.795	11.63
273.012	15.29
273.228	19.83
273.445	20.58
273.661	15.66
273.878	32.07
274.094	42.46
274.311	33.8
274.527	40
274.744	38.46
274.96	30.45
275.177	30.07
275.393	30.57
275.609	28.55
275.826	28.44
276.042	34.34
276.259	42.26
276.475	42.22
276.691	52.75
276.908	38.61
277.124	28.05
277.34	25.72
277.557	21.83
277.773	15.88
277.989	12.03
278.205	-4.54
278.422	9.51
278.638	25.64
278.854	30.26
279.07	25.06
279.286	19.91
279.503	21.79
279.719	34.78
279.935	11.09
280.151	4.46
280.367	3.81
280.583	-0.47
280.799	9.72
281.016	15.8
281.232	5.3
281.448	16.22
281.664	16.47
281.88	21.06
282.096	28.45
282.312	20.5
282.528	6.95
282.744	8.05
282.96	13.35
283.176	15.59
283.392	24.69
283.608	23.98
283.824	20.66
284.04	29.03
284.256	30.26
284.471	37.74
284.687	32.32
284.903	27.27
285.119	20.16
285.335	23.22
285.551	32.96
285.767	27.76
285.982	20.59
286.198	32.33
286.414	37.61
286.63	42.02
286.846	44.03
287.061	37.34
287.277	42.67
287.493	44.48
287.709	40.32
287.924	37.76
288.14	38.19
288.356	35.6
288.571	30.1
288.787	32.72
289.003	29.7
289.218	24.94
289.434	18.93
289.65	17.2
289.865	23.72
290.081	28.38
290.296	23.65
290.512	30.98
290.727	49.3
290.943	51.06
291.159	50.7
291.374	50.7
291.59	41.32
291.805	48.12
292.021	32.85
292.236	17.19
292.451	13.18
292.667	19.18
292.882	17.36
293.098	18
293.313	18.43
293.529	28.41
293.744	27.91
293.959	27.39
294.175	31.25
294.39	42.79
294.605	47.63
294.821	36.38
295.036	34.77
295.251	28.21
295.467	28.51
295.682	26.84
295.897	22.03
296.112	27.48
296.328	35.35
296.543	33.23
296.758	31.19
296.973	28.06
297.188	23.12
297.404	19.7
297.619	11.42
297.834	14.33
298.049	9.84
298.264	6.87
298.479	-3.1
298.694	-0.78
298.909	-7.14
299.125	0.82
299.34	-6.49
299.555	1.2
299.77	3.55
299.985	9.68
300.2	15.78
300.415	24.12
300.63	20.88
300.845	29.52
301.06	31.86
301.275	35.66
301.49	44.53
301.704	36.2
301.919	28.72
302.134	22.45
302.349	14.52
302.564	3.79
302.779	0.6
302.994	-13.48
303.209	-21.81
303.423	-11.49
303.638	-1.46
303.853	6.59
304.068	15.97
304.283	16.2
304.497	21.42
304.712	29.52
304.927	25.96
305.142	20.75
305.356	12.49
305.571	19.42
305.786	18.31
306	20.62
306.215	18.09
306.43	23.18
306.644	31.67
306.859	41.94
307.074	32.61
307.288	32.37
307.503	28.81
307.717	28.34
307.932	27.49
308.147	30.94
308.361	29.23
308.576	28.84
308.79	29.11
309.005	27.34
309.219	31.69
309.434	26.29
309.648	12.11
309.863	13.36
310.077	14.45
310.292	17
310.506	32.53
310.72	34.35
310.935	42.02
311.149	40.92
311.364	39.67
311.578	36.66
311.792	33.41
312.007	19.02
312.221	14.62
312.435	13.77
312.649	32.99
312.864	23.49
313.078	36.08
313.292	39.66
313.507	48.89
313.721	56.35
313.935	61.95
314.149	39.13
314.363	42.07
314.578	37.27
314.792	38.95
315.006	33.6
315.22	39.39
315.434	24.05
315.648	22.4
315.862	22.89
316.077	24.36
316.291	23.36
316.505	26.27
316.719	10.87
316.933	29.62
317.147	29.79
317.361	36.81
317.575	46.07
317.789	48.57
318.003	49.87
318.217	48.34
318.431	48.76
318.645	53.72
318.859	40.03
319.073	33.4
319.287	31.05
319.5	34.12
319.714	37.85
319.928	36.19
320.142	32.94
320.356	44.6
320.57	36.67
320.784	33.91
320.997	28.76
321.211	24.95
321.425	21.07
321.639	21.36
321.853	16.19
322.066	24.6
322.28	31.48
322.494	34.8
322.707	36.95
322.921	32.64
323.135	40.01
323.349	44.86
323.562	47
323.776	38.31
323.989	35.58
324.203	34.38
324.417	34.68
324.63	23.03
324.844	12.36
325.057	13.04
325.271	4.75
325.485	9.22
325.698	9.38
325.912	22.28
326.125	30.12
326.339	35.76
326.552	30.01
326.766	41.8
326.979	40.07
327.193	39.26
327.406	36.74
327.619	20.26
327.833	19.73
328.046	19.09
328.26	14.35
328.473	11.06
328.686	2.86
328.9	-7.49
329.113	3.21
329.326	3.52
329.54	7.67
329.753	6.35
329.966	14.67
330.179	23.83
330.393	26.22
330.606	27.09
330.819	30.96
331.032	27.64
331.246	27.67
331.459	22.58
331.672	22.07
331.885	19.52
332.098	27.39
332.311	11.91
332.525	17.89
332.738	19
332.951	21.13
333.164	18.4
333.377	12.44
333.59	12.21
333.803	22.34
334.016	14.3
334.229	22.05
334.442	21.25
334.655	25.3
334.868	37.26
335.081	33.19
335.294	36.58
335.507	46.72
335.72	39.27
335.933	39.72
336.146	43.25
336.359	37.47
336.572	36.55
336.785	40.49
336.997	32.06
337.21	34.31
337.423	28.15
337.636	29.29
337.849	31.51
338.062	32.33
338.274	28.9
338.487	26.4
338.7	24.12
338.913	30.69
339.125	23.82
339.338	25.78
339.551	26.75
339.763	26.06
339.976	29.06
340.189	28.85
340.402	24.75
340.614	32.31
340.827	23.31
341.039	21.25
341.252	21.08
341.465	20.86
341.677	20.83
341.89	20.84
342.102	19.12
342.315	32.69
342.527	26.27
342.74	15.35
342.952	17.47
343.165	20.33
343.377	22.18
343.59	20.13
343.802	17.4
344.015	25.17
344.227	31.62
344.44	27.56
344.652	26.78
344.864	35.65
345.077	35.58
345.289	28.04
345.502	31.67
345.714	24.58
345.926	30.72
346.139	27.09
346.351	4.55
346.563	10.86
346.775	2.25
346.988	-1.08
347.2	10.8
347.412	5.92
347.624	5.77
347.837	17.07
348.049	10.05
348.261	16.11
348.473	14.78
348.685	16.22
348.897	15
349.11	11.77
349.322	4.26
349.534	3.04
349.746	16.5
349.958	19.02
350.17	15.53
350.382	20.28
350.594	28.34
350.806	36.71
351.018	43.53
351.23	34.93
351.442	30.83
351.654	33.64
351.866	27.11
352.078	16.83
352.29	15.04
352.502	12.07
352.714	9.95
352.926	12.87
353.138	0.83
353.35	5.21
353.561	9.43
353.773	15.13
353.985	20.52
354.197	21.85
354.409	20.02
354.621	29.56
354.832	28.69
355.044	40.83
355.256	29.55
355.468	19.02
355.679	22.07
355.891	23.95
356.103	21.45
356.314	25.88
356.526	13.33
356.738	16.73
356.949	19.03
357.161	14.57
357.373	7.48
357.584	15.71
357.796	9.03
358.008	14.12
358.219	18.66
358.431	19.23
358.642	20.01
358.854	26.45
359.065	21.09
359.277	15.8
359.488	15.33
359.7	12.52
359.911	8.73
360.123	14.53
360.334	14.52
360.546	3.09
360.757	15.57
360.969	28.93
361.18	28.71
361.391	32.71
361.603	32.34
361.814	30.34
362.025	34.27
362.237	35.41
362.448	26.9
362.659	13.64
362.871	6.9
363.082	9.28
363.293	14.94
363.504	18.58
363.716	18.31
363.927	13.33
364.138	25.84
364.349	32.2
364.56	23.78
364.772	24.23
364.983	20.06
365.194	20.31
365.405	22.87
365.616	10.38
365.827	1.35
366.038	18.8
366.25	16.6
366.461	23.13
366.672	21.16
366.883	28.97
367.094	38.73
367.305	38.02
367.516	30.05
367.727	27.74
367.938	27.91
368.149	29.7
368.36	28.61
368.571	26.32
368.781	27.93
368.992	30.1
369.203	33.91
369.414	28.82
369.625	24.85
369.836	20.98
370.047	22.67
370.258	19.68
370.468	19.41
370.679	5.94
370.89	19.24
371.101	14.39
371.312	10.98
371.522	10.9
371.733	11.05
371.944	10.05
372.155	14.14
372.365	2.29
372.576	6.28
372.787	4.32
372.997	-1.38
373.208	8.24
373.419	12.73
373.629	20.76
373.84	20.58
374.05	23.45
374.261	22.4
374.472	26.73
374.682	15.94
374.893	10.61
375.103	15.3
375.314	15.68
375.524	14.28
375.735	18.18
375.945	18.33
376.156	26.37
376.366	29.74
376.577	21.28
376.787	25.33
376.997	27.37
377.208	28.38
377.418	28.22
377.629	23.73
377.839	19.93
378.049	24.41
378.26	21.73
378.47	21.9
378.68	23
378.89	19.99
379.101	13.51
379.311	12.56
379.521	10.53
379.732	10.85
379.942	8.06
380.152	11.01
380.362	13.28
380.572	19.58
380.783	19.41
380.993	18.92
381.203	15.04
381.413	18.79
381.623	17.93
381.833	18.2
382.043	12.97
382.253	13.41
382.463	18.95
382.674	22.02
382.884	18.28
383.094	12.27
383.304	10.98
383.514	15.03
383.724	14.59
383.934	10.35
384.144	10.55
384.353	10.24
384.563	7.55
384.773	7.19
384.983	8.13
385.193	11.31
385.403	11.28
385.613	6.25
385.823	6.28
386.033	10.12
386.242	9.18
386.452	8.58
386.662	5.32
386.872	2.55
387.082	4.13
387.291	4.46
387.501	5.61
387.711	7.17
387.921	5.93
388.13	4.83
388.34	5.14
388.55	8.69
388.759	8.34
388.969	3.71
389.179	7.67
389.388	7.37
389.598	7.08
389.807	7.24
390.017	5.15
390.227	3.46
390.436	5.2
390.646	4.29
390.855	4.19
391.065	5.12
391.274	3.37
391.484	3.81
391.693	6.16
391.903	7.12
392.112	3.87
392.322	5.95
392.531	6.56
392.74	6.24
392.95	6.64
393.159	6.01
393.369	4.87
393.578	6.02
393.787	5.35
393.997	5.46
394.206	7.01
394.415	6.84
394.625	5.79
394.834	5.81
395.043	6
395.252	5.48
395.462	4.69
395.671	4.98
395.88	4.33
396.089	4.48
396.298	4.77
396.508	4.67
396.717	4.15
396.926	4.14
397.135	3.27
397.344	3.32
397.553	3.7
397.762	3.5
397.971	3.06
398.181	3.12
398.39	3.16
398.599	3.62
398.808	3.81
399.017	3.83
399.226	4.02
399.435	4.31
399.644	4.42
399.853	4.54
400.062	4.2
400.27	4.13
400.479	3.96
400.688	3.96
400.897	3.97
401.106	4.09
401.315	3.83
401.524	4.13
401.733	4.13
401.941	4.17
402.15	3.96
402.359	3.89
402.568	3.8
402.777	3.92
402.985	3.68
403.194	3.68
403.403	3.5
403.612	3.49
403.82	3.47
404.029	3.34
404.238	3.39
404.446	3.36
404.655	3.3
404.864	3.35
405.072	3.38
405.281	3.23
405.489	3.37
405.698	3.29
405.906	3.26
406.115	3.35
406.324	3.23
406.532	3.25
406.741	3.42
406.949	3.39
407.158	3.46
407.366	3.53
407.574	3.46
407.783	3.53
407.991	3.45
408.2	3.26
408.408	3.21
408.617	3.08
408.825	3.01
409.033	2.98
409.242	2.97
409.45	2.99
409.658	3.08
409.867	3.11
410.075	3.11
410.283	3.09
410.491	3.11
410.7	3.08
410.908	3.11
411.116	3.06
411.324	3.01
411.533	2.96
411.741	2.93
411.949	2.94
412.157	3.03
412.365	2.95
412.573	3.04
412.781	3.1
412.99	3.22
413.198	3.27
413.406	3.15
413.614	3.11
413.822	3.1
414.03	3
414.238	2.96
414.446	2.83
414.654	2.8
414.862	2.86
415.07	2.9
415.278	2.89
415.486	3.01
415.694	2.93
415.902	2.93
416.109	2.96
416.317	2.93
416.525	2.95
416.733	3.02
416.941	2.9
417.149	3.01
417.357	3.07
417.564	3
417.772	3
417.98	2.93
418.188	2.8
418.395	2.8
418.603	2.69
418.811	2.53
419.019	2.54
419.226	2.54
419.434	2.47
419.642	2.56
419.849	2.53
420.057	2.56
420.265	2.77
420.472	2.68
420.68	2.63
420.887	2.69
421.095	2.62
421.302	2.72
421.51	2.74
421.717	2.69
421.925	2.69
422.132	2.67
422.34	2.7
422.547	2.63
422.755	2.52
422.962	2.38
423.17	2.29
423.377	2.46
423.585	2.56
423.792	2.49
423.999	2.55
424.207	2.49
424.414	2.6
424.621	2.75
424.829	2.62
425.036	2.54
425.243	2.59
425.451	2.57
425.658	2.69
425.865	2.6
426.072	2.54
426.28	2.56
426.487	2.58
426.694	2.49
426.901	2.46
427.108	2.46
427.315	2.53
427.523	2.52
427.73	2.54
427.937	2.59
428.144	2.69
428.351	2.77
428.558	2.73
428.765	2.63
428.972	2.52
429.179	2.49
429.386	2.47
429.593	2.39
429.8	2.39
430.007	2.46
430.214	2.58
430.421	2.64
430.628	2.55
430.835	2.53
431.042	2.56
431.249	2.55
431.456	2.51
431.662	2.43
431.869	2.47
432.076	2.52
432.283	2.49
432.49	2.49
432.697	2.44
432.903	2.46
433.11	2.55
433.317	2.51
433.524	2.5
433.73	2.55
433.937	2.53
434.144	2.63
434.35	2.6
434.557	2.55
434.764	2.57
434.97	2.59
435.177	2.53
435.384	2.59
435.59	2.54
435.797	2.58
436.003	2.56
436.21	2.52
436.416	2.54
436.623	2.59
436.829	2.54
437.036	2.58
437.242	2.59
437.449	2.68
437.655	2.71
437.862	2.71
438.068	2.75
438.275	2.75
438.481	2.76
438.687	2.81
438.894	2.75
439.1	2.81
439.307	2.81
439.513	2.8
439.719	2.89
439.926	2.88
440.132	2.82
440.338	2.87
440.544	2.89
440.751	2.89
440.957	2.84
441.163	2.84
441.369	2.81
441.575	2.81
441.782	2.77
441.988	2.75
442.194	2.81
442.4	2.85
442.606	2.85
442.812	2.88
443.018	2.9
443.224	2.92
443.431	2.96
443.637	2.89
443.843	2.91
444.049	2.85
444.255	2.85
444.461	2.83
444.667	2.81
444.873	2.79
445.079	2.79
445.284	2.78
445.49	2.75
445.696	2.74
445.902	2.79
446.108	2.81
446.314	2.85
446.52	2.93
446.726	2.99
446.931	3.03
447.137	3.04
447.343	3.04
447.549	3.02
447.755	2.95
447.96	2.92
448.166	2.88
448.372	2.92
448.578	2.94
448.783	2.91
448.989	2.95
449.195	2.98
449.4	2.97
449.606	2.93
449.812	2.9
450.017	2.9
450.223	2.92
450.428	2.92
450.634	2.97
450.84	2.97
451.045	2.99
451.251	3.05
451.456	3.04
451.662	3.02
451.867	3
452.073	2.95
452.278	3.01
452.483	3.03
452.689	3.01
452.894	3.01
453.1	3.02
453.305	3.06
453.51	3.07
453.716	3.01
453.921	2.98
454.127	3
454.332	3.02
454.537	3.09
454.742	3.04
454.948	3.02
455.153	3.04
455.358	3.07
455.563	3.09
455.769	3.06
455.974	2.97
456.179	2.95
456.384	2.96
456.589	3
456.795	2.97
457	2.96
457.205	2.93
457.41	2.95
457.615	2.99
457.82	3.05
458.025	3
458.23	3.05
458.435	3.01
458.64	3.11
458.845	3.11
459.05	3.12
459.255	3.1
459.46	3.09
459.665	3.12
459.87	3.15
460.075	3.06
460.28	3.08
460.485	3.09
460.69	3.04
460.895	3.1
461.099	3.1
461.304	3.13
461.509	3.13
461.714	3.15
461.919	3.12
462.123	3.2
462.328	3.15
462.533	3.15
462.738	3.1
462.942	3.19
463.147	3.19
463.352	3.27
463.556	3.29
463.761	3.26
463.966	3.3
464.17	3.36
464.375	3.32
464.58	3.32
464.784	3.29
464.989	3.27
465.193	3.36
465.398	3.34
465.602	3.33
465.807	3.36
466.011	3.36
466.216	3.35
466.42	3.37
466.625	3.35
466.829	3.39
467.034	3.4
467.238	3.42
467.443	3.48
467.647	3.5
467.851	3.48
468.056	3.52
468.26	3.47
468.464	3.47
468.669	3.5
468.873	3.44
469.077	3.43
469.282	3.48
469.486	3.47
