Data from Ofra_PS_T2_1A_9CX06_Reflection_1.txt Node
Date: Wed Jul 21 18:18:36 EDT 2021
User: Adam
Spectrometer: FLMT01687
Trigger mode: 0
Integration Time (sec): 1.100000E0
Scans to average: 2
Electric dark correction enabled: true
Nonlinearity correction enabled: false
Boxcar width: 2
XAxis mode: Wavelengths
Number of Pixels in Spectrum: 3648
>>>>>Begin Spectral Data<<<<<
179.494	553.4
179.716	639.06
179.937	606.6
180.158	596.94
180.38	1025.47
180.601	503.73
180.823	149.55
181.044	34
181.265	116.73
181.486	28.89
181.708	53.29
181.929	189.29
182.15	-134.86
182.372	65.96
182.593	42.94
182.814	-10.8
183.035	16.74
183.257	3.96
183.478	-18.46
183.699	-35.77
183.92	-9.54
184.141	-26.75
184.363	-77.71
184.584	-34.88
184.805	2.18
185.026	48.56
185.247	60.07
185.468	32.88
185.689	29.31
185.91	16.91
186.132	-17.07
186.353	-23.89
186.574	35.44
186.795	34.94
187.016	14
187.237	-8.67
187.458	-46.78
187.679	-54.64
187.9	-63.3
188.121	-53.08
188.342	-31.18
188.563	2.8
188.784	11.72
189.005	25.71
189.226	49.26
189.447	13.46
189.667	-91.63
189.888	-316.13
190.109	-1172.4
190.33	-565
190.551	-889.16
190.772	-241.1
190.993	-214.02
191.214	-188.59
191.434	-146.76
191.655	-59.6
191.876	-83.08
192.097	-105.9
192.318	-192.37
192.538	-237.46
192.759	-183.91
192.98	-71.95
193.201	-27.76
193.421	3.58
193.642	-2.03
193.863	-7.47
194.083	-23.2
194.304	-15.33
194.525	-5.07
194.745	2.95
194.966	-11.4
195.187	-23.56
195.407	-60.19
195.628	-129.36
195.848	-147.17
196.069	-145.7
196.29	-117.39
196.51	-104.09
196.731	-98.27
196.951	-73.05
197.172	-72.59
197.392	-118.73
197.613	-144.68
197.833	-161.71
198.054	-155.32
198.274	-103.41
198.495	-97.62
198.715	-48.53
198.936	-61.47
199.156	-44.82
199.377	-126.26
199.597	-117.73
199.817	-123.56
200.038	-68.99
200.258	-119.97
200.479	-47.02
200.699	-60.91
200.919	3.51
201.14	5.23
201.36	-18.96
201.58	15.96
201.801	41.08
202.021	11.22
202.241	-4.19
202.461	0.02
202.682	-80.92
202.902	-154.36
203.122	-117.97
203.342	-95.57
203.563	-32.71
203.783	-20.53
204.003	-52.9
204.223	-40.27
204.443	21.1
204.663	-19.21
204.884	7.79
205.104	42.32
205.324	48.66
205.544	22.84
205.764	42.18
205.984	47.1
206.204	46.97
206.424	27.14
206.644	3.5
206.864	7.68
207.084	-64.06
207.304	-58.06
207.525	-148.05
207.745	-74.81
207.964	-38.91
208.184	-67.02
208.404	-100.36
208.624	-89.67
208.844	-86.69
209.064	-361.46
209.284	-306.15
209.504	-143.48
209.724	-43.85
209.944	-29.26
210.164	7.07
210.384	0.98
210.604	-23.49
210.823	-52.24
211.043	-63.32
211.263	-59.12
211.483	-60.79
211.703	-87.49
211.922	-85.49
212.142	-26.51
212.362	-10.83
212.582	-7.58
212.801	-10.08
213.021	-6.4
213.241	-32.54
213.461	-71.43
213.68	-71.27
213.9	-55.77
214.12	-49.89
214.339	-102.97
214.559	-80.66
214.779	-42.46
214.998	-40.82
215.218	-81.06
215.438	-54.66
215.657	-46.28
215.877	-50.3
216.096	-9.9
216.316	6.07
216.535	8.93
216.755	-2.03
216.974	-51.34
217.194	-111.68
217.413	-129.09
217.633	-115.16
217.852	-195.15
218.072	-95.01
218.291	-52.29
218.511	-2.68
218.73	-35.46
218.95	-27.66
219.169	-30.15
219.389	-66.42
219.608	-47.83
219.827	-24.09
220.047	-10.25
220.266	-0.76
220.485	14.23
220.705	23.23
220.924	-3.85
221.143	21.47
221.363	-5.16
221.582	0.18
221.801	-10.64
222.021	-1.86
222.24	-77.9
222.459	7.27
222.678	-16.8
222.897	-57.87
223.117	-45.95
223.336	-64.04
223.555	-49.85
223.774	-28.83
223.993	-40.1
224.213	-2.59
224.432	-1.49
224.651	9.45
224.87	3.43
225.089	24.26
225.308	13.33
225.527	30.04
225.746	30.48
225.965	17.61
226.184	-5.38
226.404	6.79
226.623	-12.99
226.842	-14.35
227.061	11.34
227.28	6.22
227.499	-5.19
227.718	5.77
227.936	-2.57
228.155	15.72
228.374	12.25
228.593	12.2
228.812	12.88
229.031	-4.58
229.25	-60.75
229.469	-75.25
229.688	-70.02
229.907	-31.28
230.125	-5.51
230.344	-1.83
230.563	22.71
230.782	26.41
231.001	-48.32
231.22	-49.9
231.438	-35.12
231.657	-30.45
231.876	-38.59
232.095	5.59
232.313	4.56
232.532	-22.97
232.751	-47.7
232.969	-52.71
233.188	-97.12
233.407	-19.51
233.625	-7.23
233.844	10.32
234.063	-4.75
234.281	0.2
234.5	-19.75
234.719	-2.44
234.937	-5.17
235.156	4.63
235.374	10.76
235.593	-7.16
235.811	-32.05
236.03	-46.13
236.249	-83.61
236.467	-90.5
236.686	-25.55
236.904	1.97
237.123	-8.67
237.341	-0.87
237.559	8.03
237.778	-9.29
237.996	-30.03
238.215	4.41
238.433	8.78
238.652	12.55
238.87	-7.59
239.088	-14.85
239.307	-26.82
239.525	-33.72
239.743	-65.1
239.962	-16.53
240.18	-25.06
240.398	-55.1
240.617	-65.24
240.835	-51.34
241.053	-71.19
241.271	-3.59
241.49	15.46
241.708	-4.33
241.926	16.98
242.144	19.02
242.363	-34.11
242.581	-28.28
242.799	-3.22
243.017	0.02
243.235	-20.71
243.453	-19.77
243.672	-20.21
243.89	-27.59
244.108	-35.72
244.326	-16.45
244.544	-13.15
244.762	-28.18
244.98	-20.08
245.198	-11.82
245.416	-35.51
245.634	-39.59
245.852	-51.34
246.07	-61.35
246.288	-68.55
246.506	-76.3
246.724	-59.59
246.942	-15.76
247.16	20.78
247.378	29.6
247.596	56.72
247.814	37.49
248.032	-6.25
248.25	-15.08
248.468	-6.86
248.685	-11.47
248.903	29.67
249.121	29.11
249.339	0.19
249.557	-16.13
249.775	-13.57
249.992	-87.09
250.21	-65.39
250.428	-44.74
250.646	-78.89
250.863	-102.59
251.081	-66.76
251.299	-74.98
251.517	-83.2
251.734	-50.82
251.952	-37.32
252.17	-31.5
252.387	-28.25
252.605	-36.26
252.823	-19.5
253.04	-9.27
253.258	10.78
253.475	16.48
253.693	30
253.911	18.68
254.128	17.86
254.346	-3.21
254.563	-17.98
254.781	-28.96
254.998	-38.15
255.216	-72.55
255.433	-34.6
255.651	2.26
255.868	20.96
256.086	30.46
256.303	25.79
256.521	8.38
256.738	-11.95
256.956	-46.43
257.173	-67.51
257.39	-59.72
257.608	-87.91
257.825	-3.39
258.043	41.54
258.26	45.2
258.477	80.71
258.695	76.67
258.912	4.17
259.129	10.95
259.346	-28.57
259.564	-82.24
259.781	-97.19
259.998	-14.56
260.216	-9.62
260.433	31.37
260.65	33.12
260.867	42.32
261.084	-3.17
261.302	-11.18
261.519	-23.81
261.736	-48.99
261.953	-60.35
262.17	-28.36
262.387	-42.42
262.604	-80.41
262.822	-71.47
263.039	-43.31
263.256	-66.4
263.473	-32.69
263.69	-3.28
263.907	29.19
264.124	30.23
264.341	27.08
264.558	2.91
264.775	12.95
264.992	-1.2
265.209	1.2
265.426	13.08
265.643	25.59
265.86	30.7
266.077	34.7
266.294	-4.29
266.51	-37.25
266.727	-53.4
266.944	-56.22
267.161	-55.6
267.378	-36.12
267.595	-7.8
267.812	-9.25
268.028	-13.14
268.245	-1.79
268.462	-21.97
268.679	-25
268.896	3.82
269.112	2.11
269.329	-7.56
269.546	5.28
269.763	5.16
269.979	-8.46
270.196	0.36
270.413	-24.21
270.629	-32.28
270.846	-54.32
271.063	-56.78
271.279	-72.78
271.496	-44.46
271.712	-16.93
271.929	9.59
272.146	4.81
272.362	-0.52
272.579	-4.47
272.795	3.18
273.012	12.8
273.228	1.83
273.445	-17.64
273.661	-36.06
273.878	-72.7
274.094	-59.28
274.311	-60.74
274.527	-4.42
274.744	0.97
274.96	-7.74
275.177	-1.8
275.393	1.09
275.609	-2.59
275.826	20.5
276.042	18.69
276.259	0.41
276.475	16.48
276.691	-0.46
276.908	-24.53
277.124	-6.38
277.34	-14.95
277.557	-25.33
277.773	-17.06
277.989	-19.05
278.205	-20.72
278.422	-3.27
278.638	-6.39
278.854	5.67
279.07	17.57
279.286	9.5
279.503	-21.04
279.719	-26.59
279.935	-66.77
280.151	-84.4
280.367	-57.76
280.583	-75.99
280.799	-57.35
281.016	-75.62
281.232	-40.36
281.448	-43.58
281.664	-5.83
281.88	-43.81
282.096	-4.48
282.312	7.02
282.528	17.52
282.744	4.66
282.96	10
283.176	0.85
283.392	-12.28
283.608	-16.86
283.824	-22.27
284.04	-10.63
284.256	-7.1
284.471	-10.94
284.687	-24.19
284.903	-1.69
285.119	7.77
285.335	-14.93
285.551	6.68
285.767	-0.81
285.982	-28.14
286.198	-62.07
286.414	-10.9
286.63	-11.97
286.846	6.69
287.061	3.83
287.277	34.81
287.493	10.84
287.709	12.67
287.924	-1.49
288.14	25.4
288.356	19.96
288.571	44.53
288.787	30.97
289.003	33.6
289.218	15.11
289.434	-15.81
289.65	-22.6
289.865	-35.24
290.081	-13.95
290.296	-19.09
290.512	3.87
290.727	-18.12
290.943	-15.37
291.159	-40.73
291.374	-33.7
291.59	-69.99
291.805	-63.38
292.021	-43.07
292.236	-30.93
292.451	-24.42
292.667	-9.62
292.882	13.56
293.098	-9
293.313	-36.44
293.529	-56.67
293.744	-59.18
293.959	-75.5
294.175	-52.81
294.39	-6.39
294.605	16.86
294.821	40.49
295.036	56.01
295.251	55.02
295.467	11.41
295.682	-0.54
295.897	-63.17
296.112	-73.6
296.328	-66.97
296.543	-64.56
296.758	-80.14
296.973	-16.99
297.188	0.71
297.404	-19.33
297.619	-20.39
297.834	-22.02
298.049	-32.57
298.264	-44.2
298.479	-3.75
298.694	0.01
298.909	15.12
299.125	13.61
299.34	15.47
299.555	-6.47
299.77	-0.37
299.985	-16.04
300.2	-77.9
300.415	-84.16
300.63	-57.3
300.845	-56.08
301.06	-55.27
301.275	-22.44
301.49	2.2
301.704	-6.15
301.919	-13.89
302.134	-32.63
302.349	-22.69
302.564	-73.8
302.779	-98.62
302.994	-87.42
303.209	-39.13
303.423	-9.98
303.638	15.02
303.853	0.59
304.068	-4.43
304.283	-14.54
304.497	-16.88
304.712	-29.49
304.927	-15.42
305.142	-20.91
305.356	-8.66
305.571	-16.66
305.786	-18.6
306	-34.7
306.215	-17.29
306.43	-38.65
306.644	-49.43
306.859	-12.56
307.074	-4.18
307.288	-32.6
307.503	-50.79
307.717	-45.74
307.932	-56.22
308.147	-64.3
308.361	-52.54
308.576	-43.57
308.79	-62.94
309.005	-51.5
309.219	-43.72
309.434	-56.22
309.648	-55.72
309.863	-40.42
310.077	-30.81
310.292	-27.03
310.506	-20.55
310.72	-3.51
310.935	12.86
311.149	9.33
311.364	24.36
311.578	38.59
311.792	25.09
312.007	22.75
312.221	-1.69
312.435	-4.56
312.649	-21.74
312.864	-16.77
313.078	-26.41
313.292	30.27
313.507	0.03
313.721	24.05
313.935	39.03
314.149	32.6
314.363	15.85
314.578	21.34
314.792	16.27
315.006	-10.64
315.22	-2.37
315.434	3.99
315.648	17.16
315.862	8.71
316.077	22.85
316.291	21.87
316.505	19.89
316.719	8.48
316.933	3.9
317.147	5.73
317.361	-33.25
317.575	-64.48
317.789	-116.89
318.003	-160.1
318.217	-148.48
318.431	-54.18
318.645	3.51
318.859	9.45
319.073	25.1
319.287	10.9
319.5	-8.38
319.714	-58.31
319.928	-77.03
320.142	-92.21
320.356	-37.34
320.57	-29.61
320.784	-38.83
320.997	-11.89
321.211	-3.32
321.425	-63.01
321.639	-79.31
321.853	-26.72
322.066	-15.03
322.28	-21.97
322.494	-8.85
322.707	10.8
322.921	0.36
323.135	-8.32
323.349	-7.23
323.562	-18.01
323.776	-25.93
323.989	-15.34
324.203	-28.91
324.417	-32.05
324.63	-58.27
324.844	-63.83
325.057	-82.26
325.271	-54.48
325.485	-20.63
325.698	12.69
325.912	26.52
326.125	6.23
326.339	0.92
326.552	-28.18
326.766	-25.39
326.979	-14.11
327.193	38.33
327.406	23.56
327.619	21.71
327.833	21.36
328.046	-5.85
328.26	-48.96
328.473	-5.89
328.686	-16.8
328.9	-25.1
329.113	-9.19
329.326	-27.55
329.54	-32.5
329.753	-29.69
329.966	-39.72
330.179	-47.3
330.393	-28.07
330.606	-35.3
330.819	-19.31
331.032	3.76
331.246	15.41
331.459	38.56
331.672	30.1
331.885	14.6
332.098	-14.74
332.311	-36.7
332.525	-76.01
332.738	-61.48
332.951	-26.8
333.164	-3.32
333.377	1.12
333.59	17.2
333.803	15.57
334.016	3.29
334.229	4.52
334.442	8.76
334.655	25.89
334.868	32.28
335.081	32.93
335.294	9.82
335.507	11.16
335.72	-5
335.933	-12.96
336.146	-25.29
336.359	-28.4
336.572	-42.08
336.785	-69.49
336.997	-69.2
337.21	-34.51
337.423	-24.56
337.636	-10.01
337.849	-3.66
338.062	-14.52
338.274	-29.6
338.487	-35.28
338.7	-42.67
338.913	-71.18
339.125	-74.6
339.338	-97.46
339.551	-78.58
339.763	-64.57
339.976	-33.27
340.189	-20.96
340.402	-9.86
340.614	-12.26
340.827	-21.88
341.039	-33.72
341.252	-19.47
341.465	-9.71
341.677	-8.09
341.89	-25.16
342.102	14.61
342.315	1.51
342.527	-13.43
342.74	-28.37
342.952	-1.21
343.165	-24.49
343.377	-1.54
343.59	3.41
343.802	39.12
344.015	34.6
344.227	43.71
344.44	32.05
344.652	32.41
344.864	1.24
345.077	30.34
345.289	27.2
345.502	33.42
345.714	20.29
345.926	23.83
346.139	11.83
346.351	14.54
346.563	14.79
346.775	14.76
346.988	1.67
347.2	-18.95
347.412	-55.62
347.624	-75.7
347.837	-67.82
348.049	-32.31
348.261	-4.9
348.473	9.15
348.685	6.57
348.897	4.55
349.11	-17.12
349.322	-43.1
349.534	-25.23
349.746	-21.66
349.958	-32.01
350.17	-14.15
350.382	4
350.594	-8.14
350.806	-4.91
351.018	-7.51
351.23	-38.32
351.442	-93.26
351.654	-98.99
351.866	-83.89
352.078	-63.36
352.29	-25.65
352.502	-4.4
352.714	12.95
352.926	-2.3
353.138	3.61
353.35	-7.66
353.561	-1.97
353.773	-31.79
353.985	-14.64
354.197	-21.09
354.409	-17.62
354.621	-18.44
354.832	-7.51
355.044	-9.9
355.256	-20.69
355.468	-8.7
355.679	-6.82
355.891	7.83
356.103	-14.33
356.314	4.1
356.526	3.82
356.738	-6.67
356.949	-25.52
357.161	12.63
357.373	4.52
357.584	-9.54
357.796	2.22
358.008	-3.58
358.219	-0.39
358.431	1.9
358.642	13.97
358.854	9.17
359.065	0.49
359.277	-23.34
359.488	-38.7
359.7	-69.11
359.911	-73.29
360.123	-37.8
360.334	-50.67
360.546	-62.17
360.757	-53.21
360.969	-36.87
361.18	-51.82
361.391	-27.55
361.603	-28.01
361.814	-22.2
362.025	-33.97
362.237	-29.99
362.448	-15.72
362.659	6.05
362.871	7.83
363.082	4.43
363.293	3.97
363.504	-21.01
363.716	-42.25
363.927	-57.47
364.138	-65.18
364.349	-75.77
364.56	-60.81
364.772	-47.65
364.983	-25.77
365.194	-25.52
365.405	-5.04
365.616	10.53
365.827	-1.09
366.038	-17.99
366.25	-23.9
366.461	-69.83
366.672	-54.97
366.883	-14.22
367.094	-6.47
367.305	-0.59
367.516	14.6
367.727	-9.02
367.938	-28.85
368.149	-24.89
368.36	-21.7
368.571	-22.99
368.781	-22.35
368.992	-35.66
369.203	-48.04
369.414	-60.79
369.625	-55.57
369.836	-47.12
370.047	-66.38
370.258	-54.16
370.468	-54.78
370.679	-73.25
370.89	-69.9
371.101	-45.17
371.312	-52.35
371.522	-42.16
371.733	-21.51
371.944	-17.13
372.155	-10.39
372.365	-14.1
372.576	-14.32
372.787	-19.97
372.997	-43.44
373.208	-50.3
373.419	-22.67
373.629	-48.19
373.84	-60.6
374.05	-51.71
374.261	-44.27
374.472	-56.17
374.682	-15.45
374.893	-6.08
375.103	20.1
375.314	19.68
375.524	12.25
375.735	13.35
375.945	19.33
376.156	-2.49
376.366	-6.98
376.577	4.23
376.787	-4.87
376.997	-6.66
377.208	-12.7
377.418	-20.5
377.629	-16.43
377.839	-16.64
378.049	-15.41
378.26	2.85
378.47	13.22
378.68	3.79
378.89	-1.62
379.101	-7.87
379.311	-34.99
379.521	-56.89
379.732	-46.54
379.942	-40.09
380.152	-59.69
380.362	-21.82
380.572	-11.77
380.783	-1.63
380.993	6.21
381.203	29.12
381.413	32.82
381.623	30.92
381.833	16.65
382.043	6.27
382.253	-11.99
382.463	-16.06
382.674	-26.31
382.884	-46.29
383.094	-37.32
383.304	-17.62
383.514	-13.8
383.724	-6.51
383.934	-5.16
384.144	-14.82
384.353	-26.11
384.563	-26.37
384.773	-18.45
384.983	-14.99
385.193	-7.35
385.403	6
385.613	10.93
385.823	-2.59
386.033	0.59
386.242	-0.28
386.452	-10.87
386.662	-24.51
386.872	-9.07
387.082	-6.93
387.291	-12.4
387.501	-14.33
387.711	-5.48
387.921	-13.74
388.13	-19.43
388.34	-6.41
388.55	-7.14
388.759	-3.79
388.969	0.71
389.179	3.72
389.388	0.81
389.598	7.99
389.807	-2.31
390.017	-4.04
390.227	-6.2
390.436	-7.68
390.646	-8.65
390.855	-2.86
391.065	-3.89
391.274	-3.71
391.484	-4.45
391.693	-3.65
391.903	-4.88
392.112	0.98
392.322	0.78
392.531	4.31
392.74	5.01
392.95	1.79
393.159	-0.92
393.369	0.27
393.578	-0.35
393.787	-2.02
393.997	-0.09
394.206	-1.52
394.415	-1.36
394.625	-2.88
394.834	-3.58
395.043	-2.77
395.252	-0.69
395.462	0.77
395.671	2.58
395.88	3.09
396.089	3.4
396.298	1.29
396.508	0.82
396.717	0.18
396.926	0.98
397.135	0.39
397.344	1.12
397.553	1.49
397.762	2.45
397.971	2.23
398.181	2.93
398.39	2.68
398.599	2.15
398.808	1.76
399.017	2
399.226	2.5
399.435	3.85
399.644	4.27
399.853	3.47
400.062	3.15
400.27	2.9
400.479	2.09
400.688	1.29
400.897	1.76
401.106	1.88
401.315	1.71
401.524	1.74
401.733	2.61
401.941	2.67
402.15	2.61
402.359	2.5
402.568	2.84
402.777	2.65
402.985	2.44
403.194	2.32
403.403	2.24
403.612	1.75
403.82	1.43
404.029	1.6
404.238	1.57
404.446	1.8
404.655	1.74
404.864	1.84
405.072	1.71
405.281	1.94
405.489	1.63
405.698	1.66
405.906	1.68
406.115	1.67
406.324	1.57
406.532	1.8
406.741	2.08
406.949	2
407.158	2.02
407.366	1.96
407.574	1.8
407.783	1.79
407.991	1.76
408.2	1.9
408.408	1.88
408.617	1.93
408.825	1.7
409.033	1.78
409.242	1.71
409.45	1.77
409.658	1.65
409.867	1.81
410.075	1.73
410.283	1.57
410.491	1.53
410.7	1.52
410.908	1.53
411.116	1.72
411.324	1.78
411.533	1.79
411.741	1.98
411.949	1.91
412.157	1.65
412.365	1.65
412.573	1.66
412.781	1.66
412.99	1.61
413.198	1.79
413.406	1.83
413.614	1.88
413.822	1.77
414.03	1.71
414.238	1.55
414.446	1.69
414.654	1.45
414.862	1.51
415.07	1.67
415.278	1.9
415.486	1.67
415.694	1.91
415.902	1.87
416.109	1.82
416.317	1.72
416.525	1.6
416.733	1.49
416.941	1.58
417.149	1.46
417.357	1.47
417.564	1.74
417.772	1.93
417.98	1.79
418.188	1.79
418.395	1.86
418.603	1.89
418.811	1.54
419.019	1.58
419.226	1.79
419.434	1.82
419.642	1.61
419.849	1.81
420.057	1.79
420.265	1.71
420.472	1.53
420.68	1.56
420.887	1.39
421.095	1.34
421.302	1.35
421.51	1.53
421.717	1.72
421.925	1.9
422.132	1.77
422.34	1.47
422.547	1.49
422.755	1.24
422.962	1.13
423.17	1.17
423.377	1.43
423.585	1.36
423.792	1.37
423.999	1.35
424.207	1.52
424.414	1.47
424.621	1.42
424.829	1.52
425.036	1.6
425.243	1.58
425.451	1.46
425.658	1.3
425.865	1.28
426.072	1.26
426.28	1.35
426.487	1.39
426.694	1.59
426.901	1.52
427.108	1.57
427.315	1.44
427.523	1.68
427.73	1.63
427.937	1.61
428.144	1.43
428.351	1.45
428.558	1.48
428.765	1.36
428.972	1.26
429.179	1.52
429.386	1.76
429.593	1.53
429.8	1.41
430.007	1.59
430.214	1.57
430.421	1.22
430.628	1.11
430.835	1.13
431.042	1.23
431.249	1.22
431.456	1.3
431.662	1.44
431.869	1.64
432.076	1.54
432.283	1.48
432.49	1.5
432.697	1.52
432.903	1.31
433.11	1.3
433.317	1.39
433.524	1.64
433.73	1.49
433.937	1.81
434.144	1.72
434.35	1.67
434.557	1.4
434.764	1.53
434.97	1.39
435.177	1.56
435.384	1.46
435.59	1.55
435.797	1.68
436.003	1.69
436.21	1.6
436.416	1.81
436.623	1.81
436.829	1.86
437.036	1.96
437.242	1.97
437.449	1.73
437.655	1.73
437.862	1.63
438.068	1.58
438.275	1.68
438.481	1.96
438.687	2.01
438.894	2.04
439.1	2.04
439.307	2.14
439.513	1.97
439.719	1.94
439.926	1.94
440.132	1.85
440.338	1.74
440.544	1.86
440.751	1.82
440.957	1.88
441.163	1.9
441.369	1.91
441.575	1.71
441.782	1.64
441.988	1.49
442.194	1.5
442.4	1.51
442.606	1.79
442.812	1.94
443.018	2.05
443.224	2.18
443.431	2.26
443.637	2
443.843	1.92
444.049	1.95
444.255	1.79
444.461	1.79
444.667	1.85
444.873	1.91
445.079	1.9
445.284	2.02
445.49	1.82
445.696	1.72
445.902	1.68
446.108	1.6
446.314	1.53
446.52	1.64
446.726	1.86
446.931	1.87
447.137	1.91
447.343	2.04
447.549	1.98
447.755	1.83
447.96	1.91
448.166	1.86
448.372	1.68
448.578	1.71
448.783	1.72
448.989	1.76
449.195	1.88
449.4	1.93
449.606	1.9
449.812	1.84
450.017	1.84
450.223	1.75
450.428	1.7
450.634	1.79
450.84	2
451.045	1.9
451.251	1.83
451.456	2.06
451.662	2.09
451.867	2.03
452.073	2.02
452.278	2.2
452.483	2.23
452.689	2.16
452.894	2.15
453.1	2.18
453.305	2.06
453.51	1.95
453.716	1.83
453.921	1.89
454.127	1.77
454.332	1.69
454.537	1.64
454.742	1.75
454.948	1.63
455.153	1.75
455.358	1.96
455.563	2.04
455.769	2.15
455.974	2.16
456.179	2.07
456.384	1.99
456.589	2.04
456.795	1.79
457	1.82
457.205	2
457.41	1.96
457.615	1.84
457.82	1.98
458.025	1.97
458.23	1.86
458.435	1.91
458.64	1.9
458.845	2.01
459.05	1.98
459.255	1.98
459.46	1.99
459.665	2.02
459.87	2
460.075	2
460.28	2.02
460.485	2.04
460.69	2.04
460.895	1.87
461.099	1.8
461.304	1.9
461.509	1.92
