Data from Ofra_PS_T2_2A_6EV18_Reflection_3.txt Node
Date: Wed Jul 21 17:17:00 EDT 2021
User: Adam
Spectrometer: FLMT01687
Trigger mode: 0
Integration Time (sec): 1.100000E0
Scans to average: 2
Electric dark correction enabled: true
Nonlinearity correction enabled: false
Boxcar width: 2
XAxis mode: Wavelengths
Number of Pixels in Spectrum: 3648
>>>>>Begin Spectral Data<<<<<
179.494	538.2
179.716	621.88
179.937	624.34
180.158	596.44
180.38	900.47
180.601	320.3
180.823	89.19
181.044	-150.36
181.265	150.55
181.486	119.24
181.708	178.23
181.929	1140.31
182.15	-748.94
182.372	132.52
182.593	46.78
182.814	52.02
183.035	84.39
183.257	39.51
183.478	-104.2
183.699	2.98
183.92	-43.65
184.141	-47.45
184.363	-33.04
184.584	23.31
184.805	16.25
185.026	65.74
185.247	75.66
185.468	44.82
185.689	54.69
185.91	51.35
186.132	36.33
186.353	8.55
186.574	38.73
186.795	25.54
187.016	-25.43
187.237	-25.02
187.458	-55.46
187.679	-26.72
187.9	-12.23
188.121	5.77
188.342	20.57
188.563	67.86
188.784	64.95
189.005	69.88
189.226	85.18
189.447	52.6
189.667	-166.38
189.888	-400.86
190.109	-1356.82
190.33	-660.48
190.551	-1152.88
190.772	-222.46
190.993	-153.4
191.214	-117.41
191.434	-92.49
191.655	22.73
191.876	-2.26
192.097	-36.84
192.318	-61.63
192.538	-81.16
192.759	-104.13
192.98	-3.01
193.201	30.84
193.421	37.41
193.642	42.3
193.863	38.66
194.083	-1.02
194.304	-5.29
194.525	-14.08
194.745	-23.16
194.966	-37.05
195.187	-29.14
195.407	-53.05
195.628	-84.75
195.848	-112.92
196.069	-92.15
196.29	-44.74
196.51	-73.16
196.731	-82.44
196.951	-92.54
197.172	-111.22
197.392	-122.5
197.613	-96.44
197.833	-109.02
198.054	-74.33
198.274	-47.71
198.495	-66.7
198.715	-35.32
198.936	-57.42
199.156	-55.58
199.377	-126.77
199.597	-123.27
199.817	-145.43
200.038	-48.55
200.258	-112.95
200.479	-45.54
200.699	-49.43
200.919	20.39
201.14	-35.08
201.36	-53.94
201.58	4.93
201.801	37.86
202.021	2.8
202.241	24.42
202.461	25.98
202.682	-60.09
202.902	-122.97
203.122	-34.91
203.342	-44.86
203.563	0.18
203.783	26.66
204.003	-2.49
204.223	-27.27
204.443	20.79
204.663	-8.56
204.884	20.17
205.104	67.03
205.324	86.76
205.544	79.75
205.764	85.15
205.984	69.83
206.204	53.41
206.424	16
206.644	-27.1
206.864	-13.8
207.084	-51.74
207.304	-37.69
207.525	-33.05
207.745	4.92
207.964	33.65
208.184	-32.82
208.404	-85.29
208.624	-82.73
208.844	-88.07
209.064	-425.29
209.284	-395.79
209.504	-180.82
209.724	-55.01
209.944	-33.9
210.164	-1.38
210.384	4.18
210.604	8.36
210.823	-35.34
211.043	-61.13
211.263	-42.94
211.483	-46.05
211.703	-105.54
211.922	-77.61
212.142	11.81
212.362	27.66
212.582	32.88
212.801	43.48
213.021	-0.27
213.241	-59.85
213.461	-97.66
213.68	-143.23
213.9	-107.82
214.12	-48.43
214.339	-79.34
214.559	-53.58
214.779	18.4
214.998	9.82
215.218	-20.87
215.438	10.22
215.657	6.03
215.877	-7.34
216.096	9.2
216.316	-0.27
216.535	-26.54
216.755	-12.57
216.974	-115.49
217.194	-186.96
217.413	-137.34
217.633	-114.48
217.852	-194.77
218.072	-79.02
218.291	-17.8
218.511	-0.05
218.73	-15.99
218.95	-13.56
219.169	-17.75
219.389	-61.19
219.608	-43.68
219.827	-52.43
220.047	-41.57
220.266	-25.5
220.485	-12.48
220.705	4.54
220.924	-2.37
221.143	16.41
221.363	-19.75
221.582	-3.79
221.801	-8.62
222.021	3.71
222.24	-81.81
222.459	29.3
222.678	-60.82
222.897	-121.16
223.117	-135.05
223.336	-94.58
223.555	-90.88
223.774	4.19
223.993	34.87
224.213	83.67
224.432	56.34
224.651	82.53
224.87	27.04
225.089	36.06
225.308	16.95
225.527	42.48
225.746	25.8
225.965	29.84
226.184	17.11
226.404	45.5
226.623	17.55
226.842	21.08
227.061	49.76
227.28	42.35
227.499	27.36
227.718	45.56
227.936	37.22
228.155	35.18
228.374	10.21
228.593	22.14
228.812	11.72
229.031	6.22
229.25	-43.66
229.469	-18.95
229.688	-33.74
229.907	-0.74
230.125	33.84
230.344	39.73
230.563	40.48
230.782	64.83
231.001	-7.12
231.22	-9.86
231.438	22.41
231.657	17.63
231.876	-7.37
232.095	46.61
232.313	47.62
232.532	8.34
232.751	-5.04
232.969	-18.55
233.188	-84.77
233.407	-32.88
233.625	-6.4
233.844	-31.23
234.063	-15.07
234.281	-7.33
234.5	-23.25
234.719	-4.78
234.937	25.88
235.156	23.73
235.374	39.94
235.593	38.91
235.811	31.77
236.03	8.97
236.249	-9.77
236.467	-37.79
236.686	-4.25
236.904	-5.92
237.123	-16.91
237.341	-21.28
237.559	0.37
237.778	-24.21
237.996	-20.92
238.215	15.04
238.433	30.66
238.652	22.93
238.87	2.29
239.088	18.08
239.307	21.2
239.525	19.59
239.743	-15.68
239.962	27.61
240.18	-7.61
240.398	-61.29
240.617	-60.43
240.835	-23.42
241.053	-38.68
241.271	12.89
241.49	23.01
241.708	-13.45
241.926	-57.86
242.144	-29.32
242.363	-104.47
242.581	-118.5
242.799	-61.74
243.017	-25.12
243.235	-52.75
243.453	-14.7
243.672	-19.39
243.89	-16.2
244.108	-17.83
244.326	10.93
244.544	8.43
244.762	1.77
244.98	-1.55
245.198	6.18
245.416	-15.8
245.634	-24.65
245.852	-17.58
246.07	-24.5
246.288	-24.87
246.506	-43.56
246.724	-19.85
246.942	-22.12
247.16	2.15
247.378	11.06
247.596	26.63
247.814	20.66
248.032	-5.21
248.25	-3.21
248.468	-9.33
248.685	-13.84
248.903	20.65
249.121	38.91
249.339	22.15
249.557	24.27
249.775	38.47
249.992	-46.31
250.21	-60.17
250.428	-40.2
250.646	-59.64
250.863	-90.81
251.081	-44.43
251.299	-31.69
251.517	-26.78
251.734	-22.04
251.952	-21.82
252.17	-13.55
252.387	3.5
252.605	-12.21
252.823	-5.28
253.04	16.89
253.258	34.91
253.475	16.85
253.693	44.92
253.911	37.99
254.128	24.42
254.346	28.54
254.563	18.68
254.781	-5.68
254.998	-24.04
255.216	-37.53
255.433	-37.77
255.651	-8.18
255.868	11.69
256.086	44.68
256.303	40.66
256.521	19.06
256.738	-0.04
256.956	-38.37
257.173	-58.01
257.39	-63.89
257.608	-79.2
257.825	-0.28
258.043	48.18
258.26	43.9
258.477	82.34
258.695	64.71
258.912	1.79
259.129	12.33
259.346	-28.04
259.564	-79.39
259.781	-84.59
259.998	-43.8
260.216	-31.5
260.433	18.73
260.65	18.51
260.867	28.39
261.084	-10.46
261.302	-42.82
261.519	-67.59
261.736	-70.95
261.953	-79.01
262.17	-30.6
262.387	-74.8
262.604	-98.34
262.822	-119.51
263.039	-108.4
263.256	-169.44
263.473	-88.98
263.69	-68.55
263.907	-4.98
264.124	12.75
264.341	14.2
264.558	7.73
264.775	34.02
264.992	7.88
265.209	1.65
265.426	36.18
265.643	23.61
265.86	14.46
266.077	27.26
266.294	30.59
266.51	-25.87
266.727	-24.72
266.944	-21.74
267.161	-35.61
267.378	-41.53
267.595	-8.47
267.812	-25.97
268.028	-20.18
268.245	4.85
268.462	-9.3
268.679	-22.08
268.896	25.36
269.112	11.72
269.329	-4.37
269.546	-12.58
269.763	-18.12
269.979	-36.6
270.196	-26.12
270.413	-43.78
270.629	-47.55
270.846	-49.27
271.063	-40.45
271.279	-51.9
271.496	-51.37
271.712	-14.35
271.929	17.6
272.146	-14.97
272.362	-13.7
272.579	31.39
272.795	44.9
273.012	34.17
273.228	47.26
273.445	26.55
273.661	-2.69
273.878	-62.28
274.094	-50.21
274.311	-89.05
274.527	-7.76
274.744	-2.52
274.96	6.91
275.177	-1.2
275.393	26.62
275.609	4.43
275.826	26.01
276.042	18.46
276.259	6.43
276.475	12.43
276.691	13.18
276.908	-12.39
277.124	-5.06
277.34	2.73
277.557	-13.39
277.773	-30.23
277.989	-23.33
278.205	-16.66
278.422	-2.73
278.638	-2.51
278.854	24.97
279.07	17.31
279.286	3.05
279.503	-30.45
279.719	-36.22
279.935	-68.84
280.151	-80.81
280.367	-58.67
280.583	-77.74
280.799	-52.95
281.016	-73.77
281.232	-39.78
281.448	-34.26
281.664	5.63
281.88	-23.92
282.096	-7.62
282.312	22.99
282.528	48.99
282.744	46.88
282.96	59.45
283.176	58.95
283.392	37.46
283.608	13.92
283.824	9.93
284.04	17.11
284.256	12.62
284.471	10.41
284.687	9.46
284.903	27.43
285.119	41.53
285.335	21.94
285.551	33
285.767	28.22
285.982	-3.29
286.198	-45.84
286.414	16.93
286.63	20.27
286.846	40.62
287.061	22
287.277	55.93
287.493	26.53
287.709	35.01
287.924	-4.38
288.14	39.42
288.356	30.13
288.571	37.81
288.787	16.25
289.003	40.95
289.218	13.88
289.434	-33.85
289.65	-28.81
289.865	-35.51
290.081	-30.06
290.296	-8.64
290.512	19.44
290.727	-6.29
290.943	3.59
291.159	-11.64
291.374	-10.81
291.59	-31.38
291.805	-24.65
292.021	-24.82
292.236	-31.5
292.451	-11.24
292.667	0.11
292.882	28.64
293.098	24.92
293.313	20.38
293.529	-31.08
293.744	-40.94
293.959	-58.57
294.175	-57.99
294.39	-24.34
294.605	3.65
294.821	25.33
295.036	32.2
295.251	52.33
295.467	45.84
295.682	27.06
295.897	-15.12
296.112	-45.9
296.328	-54.35
296.543	-77.74
296.758	-64.98
296.973	-8.45
297.188	41.15
297.404	17.8
297.619	6.23
297.834	6.46
298.049	-13.42
298.264	-52.94
298.479	1.77
298.694	8.41
298.909	27.06
299.125	21.3
299.34	32.43
299.555	10.65
299.77	29.18
299.985	-21.98
300.2	-71.84
300.415	-99.92
300.63	-78.55
300.845	-87.47
301.06	-96.22
301.275	-51.06
301.49	-34.68
301.704	-28.42
301.919	-51.36
302.134	-55.63
302.349	-78.1
302.564	-122.38
302.779	-163.66
302.994	-100.27
303.209	-43.32
303.423	51.01
303.638	77.73
303.853	41.98
304.068	25.15
304.283	19.8
304.497	-3.39
304.712	-26.16
304.927	-14.45
305.142	-21.92
305.356	-16.61
305.571	-12.51
305.786	-26.97
306	-45.81
306.215	-34.67
306.43	-53.03
306.644	-43.9
306.859	4.22
307.074	13.78
307.288	-1.16
307.503	8.11
307.717	-6.88
307.932	-20.8
308.147	-20.55
308.361	-9.26
308.576	-21.18
308.79	-68.22
309.005	-59.19
309.219	-54.89
309.434	-53.09
309.648	-69.57
309.863	-37.32
310.077	-44.79
310.292	-34.84
310.506	-41.52
310.72	5.54
310.935	27.58
311.149	34.77
311.364	47.99
311.578	56.88
311.792	39.22
312.007	38.22
312.221	18.38
312.435	8.97
312.649	-16.75
312.864	-44.1
313.078	-42.07
313.292	12.58
313.507	-39.67
313.721	-5.8
313.935	33
314.149	8.58
314.363	1.69
314.578	10.31
314.792	13.03
315.006	3.71
315.22	21
315.434	25.97
315.648	42.51
315.862	40.27
316.077	52.24
316.291	44.06
316.505	49.13
316.719	47.37
316.933	19.06
317.147	-5.78
317.361	-47.23
317.575	-60.85
317.789	-116.14
318.003	-178.95
318.217	-128.7
318.431	-50.74
318.645	-19.44
318.859	-11.64
319.073	10.43
319.287	-5.92
319.5	-17.15
319.714	-51.44
319.928	-66.39
320.142	-82.97
320.356	-12.61
320.57	11.11
320.784	11.74
320.997	4.34
321.211	30.96
321.425	-49.03
321.639	-97.79
321.853	-48.31
322.066	-22.96
322.28	-40.39
322.494	-28.63
322.707	-1.64
322.921	-20.13
323.135	-12.94
323.349	9.01
323.562	-4.62
323.776	-18.09
323.989	-10.44
324.203	-28.19
324.417	-40.04
324.63	-63.56
324.844	-47.48
325.057	-46.95
325.271	-13.82
325.485	4.69
325.698	34.52
325.912	38.16
326.125	21.31
326.339	8.44
326.552	-27.45
326.766	-40.11
326.979	-25.4
327.193	14.56
327.406	6.36
327.619	10.45
327.833	34.96
328.046	7.53
328.26	-27.08
328.473	-8.5
328.686	-33.05
328.9	-41.92
329.113	-24.07
329.326	-31.35
329.54	-6.93
329.753	-8.34
329.966	-5.88
330.179	-15.57
330.393	-7.85
330.606	-19.78
330.819	-1.77
331.032	-1.97
331.246	10.97
331.459	41.73
331.672	28.26
331.885	29
332.098	22.92
332.311	10.23
332.525	-54.1
332.738	-32.09
332.951	-8.12
333.164	21.55
333.377	32.83
333.59	51.67
333.803	50.81
334.016	39.62
334.229	17.6
334.442	22.68
334.655	29.67
334.868	34.88
335.081	39.33
335.294	37.55
335.507	16.37
335.72	1.57
335.933	-17.8
336.146	-28.77
336.359	-17.86
336.572	-39.71
336.785	-69.14
336.997	-44.15
337.21	-17.13
337.423	-30.2
337.636	-27.12
337.849	6.64
338.062	-7.03
338.274	-18.27
338.487	-25.2
338.7	-21.8
338.913	-71.03
339.125	-74.25
339.338	-116.71
339.551	-86.88
339.763	-44.78
339.976	-7.52
340.189	0.95
340.402	13.43
340.614	-4.19
340.827	-13.15
341.039	-36.04
341.252	-31.9
341.465	-13.53
341.677	-4.7
341.89	-34.04
342.102	9.34
342.315	-1.92
342.527	-34.28
342.74	-43.14
342.952	7.83
343.165	-22.86
343.377	2.75
343.59	3.08
343.802	16.85
344.015	6.94
344.227	39.95
344.44	33.57
344.652	40.34
344.864	38.73
345.077	44.45
345.289	37.31
345.502	35.39
345.714	26
345.926	24.13
346.139	13.49
346.351	16.71
346.563	24.68
346.775	33.96
346.988	27.92
347.2	14.19
347.412	-26.56
347.624	-57.35
347.837	-74.66
348.049	-51.88
348.261	-8.66
348.473	0.89
348.685	11.13
348.897	11.48
349.11	-7.92
349.322	-36.95
349.534	-20.49
349.746	-20.64
349.958	-19.4
350.17	-15.14
350.382	5.32
350.594	-7.67
350.806	-2.15
351.018	6.63
351.23	-7.11
351.442	-70.75
351.654	-64.1
351.866	-65.78
352.078	-57.25
352.29	-26.82
352.502	9.35
352.714	17.26
352.926	18.61
353.138	11.78
353.35	0.33
353.561	-5.72
353.773	-29.72
353.985	-30.86
354.197	-38.42
354.409	-36.28
354.621	-36.08
354.832	-18.26
355.044	-18.01
355.256	-16.04
355.468	-13.41
355.679	-20.14
355.891	-20.02
356.103	-29.03
356.314	-18.81
356.526	-19.26
356.738	-3.3
356.949	-12.19
357.161	15.06
357.373	-1.33
357.584	5.13
357.796	12.95
358.008	13.65
358.219	20.38
358.431	26.66
358.642	29.39
358.854	15.47
359.065	-3.52
359.277	-47.09
359.488	-56.52
359.7	-87.13
359.911	-93.7
360.123	-59.48
360.334	-69.69
360.546	-103.16
360.757	-103.87
360.969	-89.13
361.18	-85.68
361.391	-46.13
361.603	-27.17
361.814	-8.86
362.025	-4.68
362.237	-1.75
362.448	13.3
362.659	24.69
362.871	26.45
363.082	21.48
363.293	20.45
363.504	-2.36
363.716	-33.23
363.927	-34.82
364.138	-55.61
364.349	-70.13
364.56	-63.88
364.772	-50.34
364.983	-31.04
365.194	-28.03
365.405	-7.78
365.616	1.98
365.827	0.93
366.038	-29.16
366.25	-33.23
366.461	-83.37
366.672	-43.92
366.883	-16.81
367.094	-7.68
367.305	-21.32
367.516	-9.29
367.727	-41.09
367.938	-66.93
368.149	-62.81
368.36	-22.71
368.571	-16.4
368.781	-20.04
368.992	-20.7
369.203	-37.6
369.414	-72.06
369.625	-84.86
369.836	-79.95
370.047	-115.63
370.258	-86.02
370.468	-76.41
370.679	-90.32
370.89	-73.15
371.101	-30.06
371.312	-44.19
371.522	-38.47
371.733	-16.48
371.944	-17.71
372.155	-16.97
372.365	-13.23
372.576	-14.1
372.787	-22.85
372.997	-31.89
373.208	-37.3
373.419	-12.15
373.629	-39.91
373.84	-36.92
374.05	-60.59
374.261	-38.07
374.472	-61.43
374.682	-4.07
374.893	-3.95
375.103	35.56
375.314	22.27
375.524	22.48
375.735	10.79
375.945	24.36
376.156	-1.94
376.366	-5.87
376.577	-3.57
376.787	-14.32
376.997	-14
377.208	-8.81
377.418	-17.02
377.629	5.53
377.839	11.27
378.049	3.47
378.26	17.04
378.47	19.53
378.68	-0.02
378.89	-9.34
379.101	-9.65
379.311	-39.76
379.521	-57.23
379.732	-45.65
379.942	-36.62
380.152	-61.84
380.362	-22.36
380.572	-14.14
380.783	-9.54
380.993	6.83
381.203	23
381.413	32.27
381.623	36.01
381.833	37.62
382.043	21.59
382.253	15.52
382.463	3.3
382.674	-12.28
382.884	-35.13
383.094	-34.98
383.304	-21.26
383.514	-27.64
383.724	-7.74
383.934	-11.75
384.144	-18.71
384.353	-29.97
384.563	-20.64
384.773	-20.71
384.983	-22.02
385.193	-6.4
385.403	-7.09
385.613	-7.61
385.823	-15.81
386.033	-8.57
386.242	-15.66
386.452	-14.52
386.662	-21.84
386.872	-11.69
387.082	-13.82
387.291	-26.03
387.501	-27.4
387.711	-17.05
387.921	-30.47
388.13	-26.12
388.34	-7.81
388.55	-12.01
388.759	-12.52
388.969	0.29
389.179	0.04
389.388	-0.11
389.598	6.25
389.807	-1.55
390.017	-10.5
390.227	-9.1
390.436	-12.71
390.646	-11.51
390.855	-4.87
391.065	-0.88
391.274	-2.43
391.484	-4.94
391.693	0.06
391.903	-0.17
392.112	6.12
392.322	9.64
392.531	14.68
392.74	9.61
392.95	5.56
393.159	0.19
393.369	-1.4
393.578	-2.32
393.787	-2.74
393.997	-1.18
394.206	-2.31
394.415	-1.87
394.625	-1.14
394.834	-2.2
395.043	-1.7
395.252	1.44
395.462	2.36
395.671	3.33
395.88	4.65
396.089	4.87
396.298	2.25
396.508	2.44
396.717	1.09
396.926	1.1
397.135	1.1
397.344	1.59
397.553	2.4
397.762	4.2
397.971	4.02
398.181	4.34
398.39	3.52
398.599	2.3
398.808	1.82
399.017	3.03
399.226	3.78
399.435	5.28
399.644	5.74
399.853	4.76
400.062	4.01
400.27	3.38
400.479	2.61
400.688	1.88
400.897	2.29
401.106	2.5
401.315	2.29
401.524	2.46
401.733	3.4
401.941	3.52
402.15	3.52
402.359	3.42
402.568	3.88
402.777	3.65
402.985	3.63
403.194	3.69
403.403	3.8
403.612	3.56
403.82	3.21
404.029	3.21
404.238	2.8
404.446	3.14
404.655	3.09
404.864	3.3
405.072	3.08
405.281	3.52
405.489	3.2
405.698	3.07
405.906	2.94
406.115	3.17
406.324	3.03
406.532	3.27
406.741	3.57
406.949	3.53
407.158	3.43
407.366	3.42
407.574	3.37
407.783	3.2
407.991	3.18
408.2	3.33
408.408	3.27
408.617	3.13
408.825	2.99
409.033	2.94
409.242	3.03
409.45	3.17
409.658	3.06
409.867	3.18
410.075	3.16
410.283	2.9
410.491	2.73
410.7	2.76
410.908	2.71
411.116	3.04
411.324	2.99
411.533	2.97
411.741	3.14
411.949	3.23
412.157	2.85
412.365	2.88
412.573	2.93
412.781	2.92
412.99	2.76
413.198	3.07
413.406	3.11
413.614	3.08
413.822	2.98
414.03	2.93
414.238	2.58
414.446	2.63
414.654	2.41
414.862	2.5
415.07	2.55
415.278	2.89
415.486	2.69
415.694	2.98
415.902	2.83
416.109	2.77
416.317	2.62
416.525	2.54
416.733	2.46
416.941	2.57
417.149	2.57
417.357	2.63
417.564	2.95
417.772	3.16
417.98	2.99
418.188	2.96
418.395	2.96
418.603	2.98
418.811	2.62
419.019	2.53
419.226	2.81
419.434	2.82
419.642	2.51
419.849	2.69
420.057	2.86
420.265	2.69
420.472	2.52
420.68	2.68
420.887	2.58
421.095	2.66
421.302	2.59
421.51	2.82
421.717	2.93
421.925	3.03
422.132	2.7
422.34	2.48
422.547	2.44
422.755	2.27
422.962	2.08
423.17	2.23
423.377	2.38
423.585	2.36
423.792	2.3
423.999	2.35
424.207	2.25
424.414	2.4
424.621	2.36
424.829	2.21
425.036	2.29
425.243	2.46
425.451	2.31
425.658	2.12
425.865	2.56
426.072	2.59
426.28	2.89
426.487	2.87
426.694	2.95
426.901	2.69
427.108	2.66
427.315	2.31
427.523	2.58
427.73	2.5
427.937	2.5
428.144	2.25
428.351	2.26
428.558	2.34
428.765	2.34
428.972	2.17
429.179	2.44
429.386	2.69
429.593	2.44
429.8	2.39
430.007	2.57
430.214	2.62
430.421	2.37
430.628	2.16
430.835	2.12
431.042	2.18
431.249	2.13
431.456	2.17
431.662	2.39
431.869	2.65
432.076	2.7
432.283	2.85
432.49	2.94
432.697	2.94
432.903	2.62
433.11	2.5
433.317	2.42
433.524	2.53
433.73	2.44
433.937	2.81
434.144	2.7
434.35	2.67
434.557	2.35
434.764	2.37
434.97	2.22
435.177	2.36
435.384	2.27
435.59	2.47
435.797	2.77
436.003	2.88
436.21	2.92
436.416	3.02
436.623	2.99
436.829	2.98
437.036	3.11
437.242	3.02
437.449	3
437.655	3.04
437.862	2.93
438.068	2.71
438.275	2.9
438.481	3.05
438.687	3.06
438.894	2.99
439.1	3.08
439.307	3.18
439.513	3.08
439.719	3.1
439.926	3.18
440.132	3.19
440.338	3.02
440.544	3.14
440.751	3
440.957	3.09
441.163	2.91
441.369	3.04
441.575	2.79
441.782	2.92
441.988	2.8
442.194	2.93
442.4	2.86
442.606	3.16
442.812	3.13
443.018	3.18
443.224	3.17
443.431	3.3
443.637	3.09
443.843	2.99
444.049	2.97
444.255	2.97
444.461	2.97
444.667	3
444.873	3.21
445.079	3.19
445.284	3.25
445.49	2.98
445.696	2.84
445.902	2.69
446.108	2.68
446.314	2.61
446.52	2.72
446.726	3.04
446.931	3.1
447.137	3.15
447.343	3.22
447.549	3.16
447.755	2.88
447.96	2.85
448.166	2.77
448.372	2.64
448.578	2.69
448.783	2.74
448.989	2.89
449.195	3.18
449.4	3.26
449.606	3.29
449.812	3.2
450.017	3.21
450.223	2.95
450.428	2.85
450.634	2.92
450.84	3.1
451.045	2.93
451.251	2.89
451.456	3.23
451.662	3.35
451.867	3.39
452.073	3.43
452.278	3.52
452.483	3.48
452.689	3.31
452.894	3.34
453.1	3.39
453.305	3.33
453.51	3.19
453.716	3.1
453.921	3.03
454.127	2.99
454.332	2.96
454.537	2.84
454.742	2.89
454.948	2.92
455.153	2.91
455.358	3.03
455.563	3.26
455.769	3.34
455.974	3.28
456.179	3.14
456.384	3.14
456.589	3.02
456.795	2.85
457	2.8
457.205	3.11
457.41	3.07
457.615	3.06
457.82	3.24
458.025	3.27
458.23	3.12
458.435	3.16
458.64	3.12
458.845	3.29
459.05	3.28
459.255	3.29
459.46	3.27
459.665	3.24
459.87	3.1
460.075	3.14
460.28	3.16
460.485	3.26
460.69	3.31
460.895	3.17
