Data from Ofra_PS_T2_2A_2HS09_Reflection_1.txt Node
Date: Wed Jul 21 17:10:07 EDT 2021
User: Adam
Spectrometer: FLMT01687
Trigger mode: 0
Integration Time (sec): 1.100000E0
Scans to average: 2
Electric dark correction enabled: true
Nonlinearity correction enabled: false
Boxcar width: 2
XAxis mode: Wavelengths
Number of Pixels in Spectrum: 3648
>>>>>Begin Spectral Data<<<<<
179.494	626.2
179.716	688
179.937	615.47
180.158	570.44
180.38	852.34
180.601	320.86
180.823	99.42
181.044	59.12
181.265	213.05
181.486	59.18
181.708	44.75
181.929	34.18
182.15	-82.75
182.372	113.94
182.593	33.89
182.814	6.41
183.035	68.57
183.257	73.33
183.478	27.07
183.699	42.78
183.92	35.89
184.141	10.64
184.363	1.56
184.584	54.25
184.805	72.51
185.026	85.12
185.247	77.99
185.468	47.49
185.689	47.22
185.91	29.9
186.132	8.94
186.353	14.3
186.574	60.75
186.795	39.42
187.016	2.41
187.237	14.7
187.458	-29.55
187.679	-37.84
187.9	-21.62
188.121	-14.62
188.342	3.01
188.563	50.02
188.784	54.6
189.005	55.99
189.226	90.13
189.447	32.79
189.667	-193.08
189.888	-336.33
190.109	-1342.53
190.33	-682.42
190.551	-1167.04
190.772	-205.99
190.993	-102.8
191.214	-80.29
191.434	-88.99
191.655	-2.42
191.876	-50.4
192.097	-154.5
192.318	-209.99
192.538	-238.05
192.759	-177.49
192.98	-103.26
193.201	-34.19
193.421	-14.37
193.642	14.24
193.863	34.04
194.083	30.71
194.304	19.51
194.525	14.73
194.745	-8.64
194.966	-70.22
195.187	-70.91
195.407	-106.86
195.628	-131.87
195.848	-141.06
196.069	-122.55
196.29	-95.54
196.51	-94.63
196.731	-84.94
196.951	-79.14
197.172	-56.33
197.392	-80.6
197.613	-68.99
197.833	-109.14
198.054	-105.32
198.274	-82.5
198.495	-91.92
198.715	-58.99
198.936	-83.98
199.156	-78.89
199.377	-156.48
199.597	-135.27
199.817	-143.12
200.038	-55.2
200.258	-96.39
200.479	-29.19
200.699	-50.66
200.919	-14.53
201.14	-41.08
201.36	-50.6
201.58	-5.9
201.801	27.97
202.021	5.21
202.241	5.5
202.461	18.4
202.682	-42.81
202.902	-91.99
203.122	-38.47
203.342	-35.35
203.563	-7.02
203.783	17.14
204.003	-7.74
204.223	-35.69
204.443	24.42
204.663	-16.17
204.884	1.22
205.104	30.85
205.324	50.34
205.544	23.89
205.764	54.68
205.984	35.34
206.204	40.17
206.424	28.02
206.644	19.38
206.864	12.52
207.084	-18.51
207.304	-52.88
207.525	-146.8
207.745	-79.13
207.964	-14.31
208.184	-37.92
208.404	-61.16
208.624	-68.77
208.844	-81.8
209.064	-408.24
209.284	-427.91
209.504	-228.85
209.724	-66.5
209.944	-30.38
210.164	4.94
210.384	30.81
210.604	31.15
210.823	10.3
211.043	-24.22
211.263	-26.77
211.483	-45.68
211.703	-92.28
211.922	-73.03
212.142	2.66
212.362	20.33
212.582	26.46
212.801	27.04
213.021	-1.62
213.241	-28.71
213.461	-46.95
213.68	-54.63
213.9	-30.52
214.12	-11.47
214.339	-59.76
214.559	-40.64
214.779	-1.91
214.998	2.79
215.218	-33.14
215.438	4.12
215.657	-4.88
215.877	-11.91
216.096	12.22
216.316	31.65
216.535	19.55
216.755	29.44
216.974	-28.56
217.194	-94.18
217.413	-110.79
217.633	-109.74
217.852	-208.21
218.072	-87.76
218.291	-22.19
218.511	10.24
218.73	-15
218.95	-11.23
219.169	-15.25
219.389	-77.36
219.608	-57.64
219.827	-49.59
220.047	-48.85
220.266	-34.12
220.485	-23.4
220.705	-19.62
220.924	-28.95
221.143	23.33
221.363	7.25
221.582	28.83
221.801	45
222.021	59.42
222.24	-13.65
222.459	23.45
222.678	-33.94
222.897	-90.47
223.117	-142.38
223.336	-54.87
223.555	-41.12
223.774	3.71
223.993	4.14
224.213	51.83
224.432	-7.46
224.651	30.69
224.87	18.23
225.089	33.42
225.308	25.66
225.527	40.35
225.746	23.52
225.965	8.59
226.184	-15.11
226.404	5.49
226.623	-13.89
226.842	6.49
227.061	26.75
227.28	17.57
227.499	8.4
227.718	26.18
227.936	-0.79
228.155	9.75
228.374	5.55
228.593	-2.64
228.812	-18.01
229.031	-16.63
229.25	-65.42
229.469	-32.8
229.688	10.95
229.907	48.08
230.125	63.28
230.344	60.17
230.563	52.83
230.782	46.26
231.001	-41.7
231.22	-45.16
231.438	-18.37
231.657	-6.88
231.876	-14.07
232.095	27.28
232.313	47.18
232.532	55.35
232.751	10.98
232.969	-3.15
233.188	-25.33
233.407	7.12
233.625	4.62
233.844	7.5
234.063	-8.72
234.281	10.53
234.5	-6.98
234.719	-7.3
234.937	17.53
235.156	46.94
235.374	41.47
235.593	29
235.811	30
236.03	9.39
236.249	-45.08
236.467	-33.53
236.686	-0.77
236.904	4.12
237.123	-21.06
237.341	-11.36
237.559	-10.23
237.778	-19.44
237.996	-38.89
238.215	-2.59
238.433	7.54
238.652	13.46
238.87	-12.4
239.088	-1.92
239.307	-4.02
239.525	-17.7
239.743	-49.84
239.962	-37.13
240.18	-58.1
240.398	-105.2
240.617	-118.29
240.835	-92.97
241.053	-60.51
241.271	-15.85
241.49	15.1
241.708	-1.11
241.926	14.02
242.144	21.23
242.363	-38.6
242.581	-70.63
242.799	-17.2
243.017	-13.95
243.235	-44.92
243.453	-24.27
243.672	-20.15
243.89	-23.42
244.108	-29.02
244.326	0.71
244.544	6.93
244.762	7.17
244.98	16.98
245.198	24.58
245.416	-30.04
245.634	-28.06
245.852	-33.98
246.07	-44.27
246.288	-47.93
246.506	-53.36
246.724	-45.14
246.942	-8.81
247.16	17.77
247.378	11.21
247.596	29.9
247.814	26.1
248.032	0.54
248.25	-10.95
248.468	-0.62
248.685	24.95
248.903	53.52
249.121	56.32
249.339	29.03
249.557	32.57
249.775	19.33
249.992	-63.24
250.21	-62.19
250.428	-28.35
250.646	-59.71
250.863	-70.57
251.081	-28.07
251.299	-3.03
251.517	-11.69
251.734	12.92
251.952	2.65
252.17	4.91
252.387	6.84
252.605	-2
252.823	-0.38
253.04	17.89
253.258	39.99
253.475	23.22
253.693	49.92
253.911	46.1
254.128	45.88
254.346	51.29
254.563	44.32
254.781	19.06
254.998	-4.3
255.216	-11.42
255.433	-29.07
255.651	-14.7
255.868	23.35
256.086	52.67
256.303	32.99
256.521	37.19
256.738	24.16
256.956	-5.21
257.173	-33.56
257.39	-12.85
257.608	-41.01
257.825	26.02
258.043	53.14
258.26	62.81
258.477	73.81
258.695	61.52
258.912	-15.58
259.129	-6.56
259.346	-40.22
259.564	-76.79
259.781	-88.44
259.998	-16.26
260.216	9.05
260.433	57.61
260.65	64.37
260.867	88.19
261.084	65.74
261.302	49.79
261.519	33.47
261.736	-7.2
261.953	-37.52
262.17	3.99
262.387	-17.5
262.604	-54.2
262.822	-71.1
263.039	-61.29
263.256	-122.95
263.473	-93.55
263.69	-59.54
263.907	-6.42
264.124	7.01
264.341	8.26
264.558	9.66
264.775	22.67
264.992	14.12
265.209	15.62
265.426	43.56
265.643	47.38
265.86	54.01
266.077	50.12
266.294	31.94
266.51	-17.62
266.727	-52.84
266.944	-48.27
267.161	-62.97
267.378	-75.66
267.595	-29.8
267.812	-56.16
268.028	-76.39
268.245	-31.96
268.462	-19.23
268.679	-46.53
268.896	20.29
269.112	10.7
269.329	9.34
269.546	7.5
269.763	7.86
269.979	-10.1
270.196	-6.75
270.413	-60.59
270.629	-88.79
270.846	-85.42
271.063	-78.66
271.279	-97.05
271.496	-60.85
271.712	1.11
271.929	24.63
272.146	19.54
272.362	50.57
272.579	60.75
272.795	33.53
273.012	10.49
273.228	14.13
273.445	-17.56
273.661	-49.93
273.878	-78.69
274.094	-66.7
274.311	-92.16
274.527	-10.91
274.744	5.22
274.96	21.37
275.177	32.93
275.393	48.17
275.609	32.13
275.826	39.93
276.042	38.28
276.259	31.28
276.475	46.1
276.691	41.49
276.908	27.74
277.124	38.9
277.34	38.14
277.557	13.04
277.773	10.5
277.989	10.19
278.205	-0.59
278.422	2.6
278.638	16.35
278.854	34.85
279.07	29.93
279.286	24.27
279.503	9.42
279.719	-17.19
279.935	-49.83
280.151	-62.05
280.367	-47.64
280.583	-53.99
280.799	-37.42
281.016	-49.63
281.232	-3.73
281.448	-1.39
281.664	15.37
281.88	3.51
282.096	25.67
282.312	29.01
282.528	38.06
282.744	53.5
282.96	36.49
283.176	19.51
283.392	6.84
283.608	5.3
283.824	-7.55
284.04	-1.12
284.256	1.98
284.471	-13.54
284.687	-15.17
284.903	10.31
285.119	45.35
285.335	12.91
285.551	40.72
285.767	8.96
285.982	-5.59
286.198	-45.92
286.414	13.43
286.63	17.55
286.846	50.88
287.061	24.45
287.277	39.19
287.493	15.8
287.709	9.33
287.924	-22.48
288.14	9.73
288.356	13.84
288.571	35.73
288.787	27.64
289.003	36.21
289.218	9.83
289.434	-29.41
289.65	-34.67
289.865	-43.12
290.081	-43.65
290.296	-32.55
290.512	-11.89
290.727	-36.98
290.943	-40.54
291.159	-33.29
291.374	-18.67
291.59	-38.78
291.805	-25.19
292.021	-9.56
292.236	-11.62
292.451	6.13
292.667	16.07
292.882	36.23
293.098	39.69
293.313	18.21
293.529	-17.17
293.744	-30.21
293.959	-46.18
294.175	-51.32
294.39	-5.7
294.605	8
294.821	29.13
295.036	37.25
295.251	53.46
295.467	32.03
295.682	19.01
295.897	-31.39
296.112	-63.61
296.328	-66.9
296.543	-99.98
296.758	-87.09
296.973	-23.18
297.188	24.13
297.404	4.57
297.619	-0.31
297.834	-19.97
298.049	-50.47
298.264	-74.81
298.479	-10.92
298.694	1.72
298.909	35.49
299.125	43.34
299.34	53.29
299.555	19
299.77	22.73
299.985	-25.61
300.2	-72.1
300.415	-87.03
300.63	-49.29
300.845	-47.17
301.06	-48.78
301.275	-10.52
301.49	7.47
301.704	-1.55
301.919	-15.37
302.134	-20.75
302.349	-29.38
302.564	-101.4
302.779	-115.01
302.994	-70.81
303.209	-35.68
303.423	10.85
303.638	60.73
303.853	13.38
304.068	-0.29
304.283	3.87
304.497	-13.48
304.712	-19.6
304.927	-4.02
305.142	-9.03
305.356	-0.25
305.571	8.49
305.786	-11.57
306	-21.06
306.215	-9.01
306.43	-51.93
306.644	-60.88
306.859	-16.15
307.074	-9.53
307.288	-43.55
307.503	-43.04
307.717	-51.57
307.932	-43.39
308.147	-50.04
308.361	-14.55
308.576	-13.64
308.79	-46.2
309.005	-52.19
309.219	-17.16
309.434	-39.34
309.648	-26.41
309.863	0.38
310.077	3.07
310.292	-8.76
310.506	1.97
310.72	10.33
310.935	19.66
311.149	15.35
311.364	25.33
311.578	33.96
311.792	21.6
312.007	30.15
312.221	15.6
312.435	19.46
312.649	-2.93
312.864	29.74
313.078	41.66
313.292	112.58
313.507	71.92
313.721	113.74
313.935	51.42
314.149	40.72
314.363	22.02
314.578	35.51
314.792	42.72
315.006	26.26
315.22	28.6
315.434	30.19
315.648	27.9
315.862	19.06
316.077	18.54
316.291	-6.04
316.505	-3.29
316.719	-1.16
316.933	-35.1
317.147	-20.29
317.361	-62.77
317.575	-81.45
317.789	-115.12
318.003	-159.59
318.217	-123.84
318.431	-22.58
318.645	24.32
318.859	2.85
319.073	31.46
319.287	13.89
319.5	-18.01
319.714	-64.63
319.928	-70.35
320.142	-99
320.356	-45.53
320.57	-18.09
320.784	-30.96
320.997	-34.25
321.211	-27.26
321.425	-88.62
321.639	-112.85
321.853	-45.04
322.066	-24.94
322.28	-38.31
322.494	-22.9
322.707	-0.1
322.921	-23.85
323.135	-18.18
323.349	7.97
323.562	-10.48
323.776	-27.16
323.989	-19.08
324.203	-35.39
324.417	-37.67
324.63	-51.72
324.844	-46.15
325.057	-51.62
325.271	-32.5
325.485	-14.13
325.698	18.32
325.912	31.84
326.125	12.97
326.339	8.54
326.552	-23.94
326.766	-35.1
326.979	-17.92
327.193	35.95
327.406	29.33
327.619	30.64
327.833	41.3
328.046	12.42
328.26	-35.56
328.473	-3.13
328.686	-26.87
328.9	-20.13
329.113	-6.72
329.326	-14.55
329.54	-8.38
329.753	-11.59
329.966	-50.65
330.179	-37.15
330.393	-14.16
330.606	-18.62
330.819	18.37
331.032	28.63
331.246	32.35
331.459	53.28
331.672	52.78
331.885	30.59
332.098	9.79
332.311	5.79
332.525	-54.64
332.738	-52.75
332.951	-2.96
333.164	29.39
333.377	30.56
333.59	53.3
333.803	43.58
334.016	29.73
334.229	19.79
334.442	25.15
334.655	22.54
334.868	28.65
335.081	17.58
335.294	23.68
335.507	3.4
335.72	3.65
335.933	-0.95
336.146	-4.49
336.359	-21.73
336.572	-55.64
336.785	-73.81
336.997	-76.45
337.21	-51.53
337.423	-41.24
337.636	-22.26
337.849	-7.78
338.062	-13.33
338.274	-2.38
338.487	-8.75
338.7	-8.37
338.913	-56.55
339.125	-66.12
339.338	-138.85
339.551	-116.66
339.763	-62.36
339.976	-6.31
340.189	10.67
340.402	29.89
340.614	24.44
340.827	7.42
341.039	-18.01
341.252	-8.73
341.465	3.2
341.677	-6.66
341.89	-40.82
342.102	-0.8
342.315	-21.8
342.527	-56.55
342.74	-52.4
342.952	-12.52
343.165	-24.44
343.377	-4.9
343.59	-1.07
343.802	11.17
344.015	17.87
344.227	30.95
344.44	31.16
344.652	43.16
344.864	37.6
345.077	38.07
345.289	30.68
345.502	30.19
345.714	15.82
345.926	17.36
346.139	8.33
346.351	14.73
346.563	20.06
346.775	18.78
346.988	8.5
347.2	-11.95
347.412	-64.33
347.624	-88.32
347.837	-79.7
348.049	-38.89
348.261	8.49
348.473	27.1
348.685	28.04
348.897	10.55
349.11	-12.61
349.322	-53.63
349.534	-40.07
349.746	-24.65
349.958	-15.25
350.17	-16.36
350.382	17.21
350.594	7.01
350.806	21.53
351.018	24.19
351.23	20.86
351.442	-24.19
351.654	7.11
351.866	-11.02
352.078	5.34
352.29	21.86
352.502	35.8
352.714	36.18
352.926	13.67
353.138	2.29
353.35	-14.55
353.561	-17.92
353.773	-43.94
353.985	-18.73
354.197	-25.53
354.409	-20.93
354.621	-26.03
354.832	-18.92
355.044	-23.07
355.256	-29.47
355.468	-23.39
355.679	-27.9
355.891	-22.53
356.103	-35.7
356.314	-27.79
356.526	-18.78
356.738	-12.75
356.949	-10.17
357.161	6.12
357.373	-1.71
357.584	-22.64
357.796	-19.01
358.008	-23.73
358.219	-19.28
358.431	-9.79
358.642	6.9
358.854	-0.93
359.065	-26.06
359.277	-59.42
359.488	-68.81
359.7	-97.69
359.911	-103.19
360.123	-57.82
360.334	-46.53
360.546	-56.43
360.757	-58.04
360.969	-27.39
361.18	-26.89
361.391	-19.39
361.603	-17.89
361.814	0.99
362.025	-4.91
362.237	-15.78
362.448	-15.49
362.659	8.25
362.871	-0.35
363.082	7.19
363.293	9.39
363.504	8.33
363.716	-14.96
363.927	-15.89
364.138	-54.22
364.349	-64.67
364.56	-61.55
364.772	-52.47
364.983	-26.33
365.194	-18.95
365.405	2.29
365.616	23.94
365.827	28.27
366.038	-6.35
366.25	-9.53
366.461	-43.82
366.672	-39.03
366.883	-9.22
367.094	15.73
367.305	7.43
367.516	14.06
367.727	-7.88
367.938	-28.95
368.149	-31.03
368.36	-4.07
368.571	-0.6
368.781	-14.72
368.992	-29.43
369.203	-49.35
369.414	-79.83
369.625	-90.84
369.836	-64.24
370.047	-79.04
370.258	-61.72
370.468	-63.06
370.679	-75.42
370.89	-73.34
371.101	-54.95
371.312	-54.14
371.522	-40.39
371.733	-22.28
371.944	-11.06
372.155	-3.41
372.365	-11.85
372.576	-17.04
372.787	-16.82
372.997	-46.17
373.208	-46.34
373.419	-14.46
373.629	-37.08
373.84	-34.09
374.05	-26.38
374.261	-19.87
374.472	-34.44
374.682	9.47
374.893	8.62
375.103	44.54
375.314	44.41
375.524	34.68
375.735	27.49
375.945	35.87
376.156	1.12
376.366	-3.96
376.577	-7.38
376.787	-1.23
376.997	-6.99
377.208	-0.88
377.418	-14.04
377.629	10.22
377.839	-0.3
378.049	-2.32
378.26	13.22
378.47	25.04
378.68	6.38
378.89	0.81
379.101	0.14
379.311	-36.4
379.521	-67.59
379.732	-56.12
379.942	-51.3
380.152	-73.44
380.362	-37.74
380.572	-23.63
380.783	-18.98
380.993	-10.8
381.203	12.19
381.413	21.21
381.623	22.11
381.833	19.18
382.043	11.11
382.253	-5.49
382.463	-6.43
382.674	-16.23
382.884	-28.17
383.094	-28.2
383.304	-21.11
383.514	-15.67
383.724	-7.68
383.934	-10.95
384.144	-19
384.353	-20.17
384.563	-25.26
384.773	-20.42
384.983	-25.64
385.193	-5.45
385.403	-2.81
385.613	-5.58
385.823	-14.27
386.033	-4.46
386.242	-14.41
386.452	-18.24
386.662	-23.98
386.872	-14.04
387.082	-14.2
387.291	-21.74
387.501	-24.45
387.711	-15.84
387.921	-23.87
388.13	-26.08
388.34	-8.81
388.55	-12.79
388.759	-11.26
388.969	-2.56
389.179	-1.56
389.388	-7.42
389.598	1.98
389.807	-6.87
390.017	-10.38
390.227	-9.88
390.436	-7.51
390.646	-8.92
390.855	-3.47
391.065	-3.04
391.274	-6.33
391.484	-11.16
391.693	-6.73
391.903	-4.97
392.112	1.6
392.322	4.74
392.531	9.93
392.74	7.42
392.95	1.65
393.159	-2.78
393.369	-2.11
393.578	-3.55
393.787	-4.16
393.997	-0.96
394.206	-2.62
394.415	-3.29
394.625	-3.6
394.834	-3.82
395.043	-3.94
395.252	-0.95
395.462	1.39
395.671	2.6
395.88	3.39
396.089	4.14
396.298	2.57
396.508	1.8
396.717	0.71
396.926	1.24
397.135	0.74
397.344	0.85
397.553	2.07
397.762	3.85
397.971	3.7
398.181	4.06
398.39	3.82
398.599	2.64
398.808	2.57
399.017	3.2
399.226	4.76
399.435	5.78
399.644	6.24
399.853	4.83
400.062	4.24
400.27	3.1
400.479	2.32
400.688	1.12
400.897	1.72
401.106	1.74
401.315	1.75
401.524	1.95
401.733	2.97
401.941	3.42
402.15	3.62
402.359	3.44
402.568	3.81
402.777	3.91
402.985	3.53
403.194	3.39
403.403	3.35
403.612	2.84
403.82	2.42
404.029	2.6
404.238	2.52
404.446	2.81
404.655	2.66
404.864	2.79
405.072	2.51
405.281	2.66
405.489	2.38
405.698	2.63
405.906	2.55
406.115	2.68
406.324	2.62
406.532	2.86
406.741	3.11
406.949	3.11
407.158	2.95
407.366	2.8
407.574	2.83
407.783	2.69
407.991	2.51
408.2	2.8
408.408	2.87
408.617	2.62
408.825	2.4
409.033	2.64
409.242	2.5
409.45	2.63
409.658	2.6
409.867	2.75
410.075	2.63
410.283	2.49
410.491	2.31
410.7	2.32
410.908	2.27
411.116	2.54
411.324	2.63
411.533	2.66
411.741	2.82
411.949	2.8
412.157	2.5
412.365	2.56
412.573	2.57
412.781	2.57
412.99	2.58
413.198	2.81
413.406	2.74
413.614	2.79
413.822	2.58
414.03	2.5
414.238	2.24
414.446	2.24
414.654	2.05
414.862	2.19
415.07	2.3
415.278	2.49
415.486	2.29
415.694	2.38
415.902	2.18
416.109	2
416.317	1.97
416.525	1.88
416.733	1.86
416.941	2.07
417.149	2.16
417.357	2.09
417.564	2.31
417.772	2.62
417.98	2.46
418.188	2.42
418.395	2.53
418.603	2.63
418.811	2.11
419.019	2.15
419.226	2.39
419.434	2.38
419.642	2.19
419.849	2.43
420.057	2.55
420.265	2.41
420.472	2.14
420.68	2.2
420.887	2.14
421.095	2.08
421.302	1.9
421.51	2.16
421.717	2.23
421.925	2.3
422.132	2.26
422.34	2.22
422.547	2.36
422.755	2.22
422.962	2.15
423.17	2.06
423.377	2.24
423.585	2.14
423.792	2.06
423.999	2
424.207	1.91
424.414	1.99
424.621	1.98
424.829	2.06
425.036	2.18
425.243	2.43
425.451	2.25
425.658	1.99
425.865	2.21
426.072	2.24
426.28	2.39
426.487	2.36
426.694	2.44
426.901	2.05
427.108	1.92
427.315	1.7
427.523	1.98
427.73	1.9
427.937	2.01
428.144	1.95
428.351	1.88
428.558	1.88
428.765	1.97
428.972	2.05
429.179	2.22
429.386	2.46
429.593	2.21
429.8	2.12
430.007	2.08
430.214	2.18
430.421	2.06
430.628	1.9
430.835	1.77
431.042	1.89
431.249	1.87
431.456	1.81
431.662	2.05
431.869	2.33
432.076	2.4
432.283	2.47
432.49	2.52
432.697	2.55
432.903	2.24
433.11	2.08
433.317	2.12
433.524	2.19
433.73	2.01
433.937	2.32
434.144	2.21
434.35	2.15
434.557	2.06
434.764	2.16
434.97	2.06
435.177	2.32
435.384	2.21
435.59	2.2
435.797	2.37
436.003	2.46
436.21	2.36
436.416	2.47
436.623	2.58
436.829	2.61
437.036	2.72
437.242	2.76
437.449	2.65
437.655	2.64
437.862	2.63
438.068	2.51
438.275	2.58
438.481	2.74
438.687	2.81
438.894	2.78
439.1	2.8
439.307	3.01
439.513	2.98
439.719	2.94
439.926	2.94
440.132	2.99
440.338	2.7
440.544	2.82
440.751	2.74
440.957	2.78
441.163	2.79
441.369	2.92
441.575	2.69
441.782	2.71
441.988	2.58
442.194	2.43
442.4	2.37
442.606	2.6
442.812	2.71
443.018	2.83
443.224	2.98
443.431	3.18
443.637	3.03
443.843	2.89
444.049	2.96
444.255	2.82
444.461	2.76
444.667	2.72
444.873	2.95
445.079	2.85
445.284	3
445.49	2.79
445.696	2.68
445.902	2.52
446.108	2.5
446.314	2.41
446.52	2.49
446.726	2.76
446.931	2.81
447.137	2.83
447.343	2.98
447.549	2.91
447.755	2.73
447.96	2.74
448.166	2.76
448.372	2.63
448.578	2.75
448.783	2.74
448.989	2.78
449.195	2.93
449.4	2.95
449.606	2.87
449.812	2.86
450.017	2.91
450.223	2.74
450.428	2.75
450.634	2.91
450.84	3.09
451.045	3
451.251	2.95
451.456	3.12
451.662	3.1
451.867	3.18
452.073	3.15
452.278	3.34
452.483	3.5
452.689	3.4
452.894	3.31
453.1	3.27
453.305	3.15
453.51	2.92
453.716	2.88
453.921	2.94
454.127	2.95
454.332	2.93
454.537	2.9
454.742	2.98
454.948	2.83
455.153	2.9
455.358	3.01
455.563	3.15
455.769	3.29
455.974	3.3
456.179	3.17
456.384	3.13
456.589	3.08
456.795	2.82
457	2.85
457.205	3.15
457.41	3.15
457.615	3.04
457.82	3.18
458.025	3.22
458.23	3.07
458.435	3.09
458.64	3.17
458.845	3.28
459.05	3.22
459.255	3.29
459.46	3.23
459.665	3.2
459.87	3.07
460.075	3.13
460.28	3.1
460.485	3.24
460.69	3.19
460.895	3.08
461.099	3.02
461.304	3.06
461.509	3.05
461.714	2.99
461.919	3.2
