Data from Ofra_2a_PS_OCX4_Reflection_3.txt Node
Date: Tue Jul 20 09:23:09 EDT 2021
User: Adam
Spectrometer: FLMT01687
Trigger mode: 0
Integration Time (sec): 9.450000E-1
Scans to average: 3
Electric dark correction enabled: true
Nonlinearity correction enabled: false
Boxcar width: 3
XAxis mode: Wavelengths
Number of Pixels in Spectrum: 3648
>>>>>Begin Spectral Data<<<<<
179.494	-150.3
179.716	-36.8
179.937	-7.69
180.158	-727.34
180.38	771.51
180.601	307.99
180.823	221.23
181.044	124.5
181.265	56.22
181.486	69.51
181.708	-741.3
181.929	-58.37
182.15	-1567.05
182.372	280.32
182.593	180.65
182.814	-21.26
183.035	111.78
183.257	79.08
183.478	39.52
183.699	63.28
183.92	51.78
184.141	58.93
184.363	45.86
184.584	35.53
184.805	44.77
185.026	64.12
185.247	49.42
185.468	34.87
185.689	28.34
185.91	41.15
186.132	39.06
186.353	15.92
186.574	12.65
186.795	6.57
187.016	26.2
187.237	29.06
187.458	16.95
187.679	2
187.9	18.04
188.121	23.12
188.342	46.1
188.563	42.54
188.784	35.19
189.005	40.91
189.226	47.24
189.447	49.16
189.667	53.97
189.888	49.92
190.109	44.16
190.33	48.1
190.551	45.26
190.772	50.16
190.993	56.45
191.214	48.62
191.434	41.85
191.655	48.94
191.876	51.47
192.097	50.28
192.318	44.79
192.538	34.25
192.759	50.72
192.98	44.65
193.201	47.97
193.421	44.04
193.642	43.13
193.863	36.17
194.083	31.04
194.304	10.66
194.525	33.67
194.745	13.51
194.966	22.44
195.187	34.08
195.407	35.13
195.628	34.24
195.848	30.09
196.069	18.78
196.29	14.19
196.51	8.86
196.731	10.33
196.951	18.51
197.172	16.73
197.392	23.3
197.613	32.46
197.833	40.43
198.054	34.04
198.274	20.1
198.495	5.4
198.715	18.77
198.936	21.7
199.156	16.92
199.377	27.27
199.597	20.48
199.817	32.25
200.038	32.71
200.258	33.99
200.479	33.66
200.699	34.92
200.919	24.39
201.14	28.77
201.36	28.3
201.58	33.51
201.801	8.05
202.021	7.52
202.241	7.04
202.461	9.53
202.682	13.5
202.902	14.6
203.122	9.57
203.342	30.6
203.563	34.03
203.783	31.99
204.003	36.88
204.223	38.58
204.443	32.89
204.663	30.34
204.884	19.62
205.104	12.25
205.324	17.55
205.544	11.07
205.764	10.81
205.984	24.46
206.204	44.62
206.424	44.11
206.644	49.37
206.864	49.32
207.084	67.27
207.304	66.77
207.525	60.73
207.745	66.08
207.964	86.73
208.184	85.57
208.404	76.24
208.624	46.81
208.844	25.84
209.064	33.29
209.284	23.67
209.504	6.66
209.724	-19.7
209.944	-27.54
210.164	-3.68
210.384	5.19
210.604	4.52
210.823	8.99
211.043	6.63
211.263	17
211.483	26.65
211.703	28.51
211.922	37.33
212.142	37.46
212.362	53.92
212.582	66.55
212.801	60.87
213.021	60
213.241	57.02
213.461	60.22
213.68	56.01
213.9	30.42
214.12	21.04
214.339	26.38
214.559	30.68
214.779	35.4
214.998	30.87
215.218	34.95
215.438	40.32
215.657	40.12
215.877	39.18
216.096	32.75
216.316	19.25
216.535	0.83
216.755	-17.31
216.974	-19.37
217.194	-25.12
217.413	-2.99
217.633	1.16
217.852	10.28
218.072	18.9
218.291	36.01
218.511	37.73
218.73	41.31
218.95	31.5
219.169	46.32
219.389	47.63
219.608	53.62
219.827	49.8
220.047	41.58
220.266	29.38
220.485	26.35
220.705	8.01
220.924	8.66
221.143	12.21
221.363	12.09
221.582	12.57
221.801	14.79
222.021	12.37
222.24	25.87
222.459	18.48
222.678	5.37
222.897	3.66
223.117	21.82
223.336	27.88
223.555	35.19
223.774	41.01
223.993	50.81
224.213	43.33
224.432	57.1
224.651	58.01
224.87	51.87
225.089	52.2
225.308	42.25
225.527	43.46
225.746	54
225.965	44.67
226.184	18.19
226.404	11.08
226.623	15.34
226.842	17.23
227.061	24.1
227.28	28.12
227.499	34.93
227.718	36.28
227.936	37.56
228.155	43.29
228.374	48.38
228.593	43.06
228.812	39.85
229.031	36.97
229.25	57.01
229.469	68.81
229.688	61.99
229.907	53.37
230.125	51.57
230.344	53.6
230.563	63.63
230.782	50.9
231.001	53.48
231.22	42.07
231.438	43.4
231.657	40.69
231.876	29.64
232.095	17.26
232.313	18.38
232.532	9.98
232.751	11.05
232.969	14.63
233.188	13.01
233.407	22.44
233.625	35.06
233.844	43.4
234.063	40.1
234.281	38.42
234.5	34.52
234.719	34.59
234.937	31.41
235.156	21.03
235.374	8.75
235.593	17.76
235.811	20.75
236.03	17.03
236.249	26.33
236.467	46.96
236.686	58.12
236.904	51.39
237.123	49.84
237.341	47.21
237.559	56.07
237.778	56.05
237.996	50.97
238.215	39.26
238.433	44.89
238.652	43.91
238.87	47.76
239.088	34.45
239.307	29.14
239.525	18.23
239.743	19.84
239.962	19.72
240.18	28.32
240.398	32.64
240.617	47.63
240.835	60.26
241.053	77.45
241.271	74.5
241.49	61
241.708	53.32
241.926	42.06
242.144	41.28
242.363	22.06
242.581	13.94
242.799	8.73
243.017	28.7
243.235	25.09
243.453	29.95
243.672	23.84
243.89	29.56
244.108	21.07
244.326	23.66
244.544	22.98
244.762	25.5
244.98	31.21
245.198	29.45
245.416	29.1
245.634	36.98
245.852	40.86
246.07	37.34
246.288	34.75
246.506	26.69
246.724	46.26
246.942	38.34
247.16	33.2
247.378	18.94
247.596	30.72
247.814	28.95
248.032	37.54
248.25	19.67
248.468	29.31
248.685	30.96
248.903	41.17
249.121	41.9
249.339	33.59
249.557	33.06
249.775	28.19
249.992	24.13
250.21	14.45
250.428	11.63
250.646	5.28
250.863	17.13
251.081	15.42
251.299	41.02
251.517	53.4
251.734	72.05
251.952	75.38
252.17	69.18
252.387	66.46
252.605	67
252.823	29.83
253.04	18.5
253.258	19.55
253.475	11.85
253.693	19.18
253.911	2.22
254.128	0.98
254.346	9.61
254.563	9.73
254.781	8.15
254.998	3.69
255.216	7.04
255.433	11.53
255.651	8.37
255.868	8.5
256.086	20.81
256.303	21.85
256.521	30.5
256.738	26.69
256.956	28.28
257.173	38.35
257.39	50.19
257.608	43.55
257.825	43.81
258.043	44.32
258.26	45.57
258.477	46.21
258.695	49.82
258.912	50.22
259.129	42.37
259.346	44.81
259.564	42.12
259.781	46.85
259.998	48.13
260.216	45.15
260.433	39.76
260.65	49.56
260.867	39.51
261.084	43.33
261.302	39.26
261.519	27.66
261.736	29.51
261.953	44.18
262.17	32.2
262.387	42.81
262.604	43.95
262.822	42.04
263.039	48
263.256	35.43
263.473	10.57
263.69	13.11
263.907	5.8
264.124	2.94
264.341	16.21
264.558	21.78
264.775	25.97
264.992	38.66
265.209	41.68
265.426	42.78
265.643	49.34
265.86	35.58
266.077	39.42
266.294	41.03
266.51	42.06
266.727	28.01
266.944	20.61
267.161	-0.52
267.378	0.75
267.595	-11.27
267.812	-20.5
268.028	-11.43
268.245	3.09
268.462	13.85
268.679	27.28
268.896	24.01
269.112	25.87
269.329	38.32
269.546	25.28
269.763	23.37
269.979	20.74
270.196	20.18
270.413	19.92
270.629	18.71
270.846	22.53
271.063	30.67
271.279	31.49
271.496	21.91
271.712	14.05
271.929	14.22
272.146	15.4
272.362	-10.58
272.579	-13.56
272.795	-25.26
273.012	-4.46
273.228	-1.92
273.445	1.65
273.661	15.38
273.878	30.71
274.094	33.73
274.311	40.56
274.527	31.71
274.744	35.93
274.96	31.65
275.177	23.44
275.393	21.05
275.609	20.94
275.826	22.22
276.042	24.71
276.259	27.27
276.475	24.56
276.691	23.44
276.908	19.18
277.124	14.16
277.34	8.93
277.557	9.72
277.773	7.74
277.989	8.5
278.205	3.53
278.422	13.22
278.638	21.11
278.854	25.53
279.07	17.18
279.286	16.25
279.503	21.13
279.719	30.5
279.935	25.3
280.151	33.57
280.367	33.89
280.583	36.05
280.799	35.97
281.016	42.66
281.232	40.61
281.448	34.87
281.664	24.35
281.88	23.08
282.096	34.5
282.312	35.39
282.528	16.58
282.744	21.64
282.96	29.05
283.176	28.58
283.392	34.95
283.608	30.12
283.824	26.83
284.04	32.44
284.256	31.88
284.471	31.18
284.687	25.29
284.903	25.89
285.119	17.82
285.335	24.52
285.551	37.99
285.767	30.67
285.982	26.01
286.198	31.39
286.414	31.53
286.63	44.02
286.846	47.54
287.061	40.78
287.277	43.39
287.493	41.99
287.709	36.81
287.924	33.16
288.14	27.47
288.356	17.21
288.571	14.07
288.787	18.17
289.003	26.92
289.218	34.85
289.434	37.84
289.65	45.3
289.865	53.18
290.081	46.56
290.296	38.7
290.512	44.92
290.727	47.22
290.943	42.44
291.159	32.77
291.374	27.4
291.59	34.1
291.805	40.52
292.021	17.42
292.236	21.61
292.451	24.16
292.667	22.75
292.882	20.22
293.098	16.98
293.313	13.55
293.529	29.47
293.744	28.38
293.959	35.92
294.175	35.7
294.39	47.74
294.605	47.4
294.821	51.01
295.036	41.05
295.251	37.87
295.467	28.75
295.682	38.47
295.897	30.82
296.112	30.83
296.328	39.03
296.543	33.86
296.758	31.07
296.973	25.45
297.188	17.44
297.404	16.69
297.619	14.38
297.834	10.7
298.049	20.15
298.264	12.58
298.479	10.94
298.694	21.73
298.909	29.33
299.125	27.02
299.34	26.15
299.555	21.77
299.77	30.74
299.985	32.12
300.2	25.91
300.415	24.81
300.63	29.02
300.845	30.57
301.06	31.58
301.275	33.62
301.49	38.38
301.704	40.62
301.919	32.69
302.134	21.11
302.349	16.03
302.564	11.89
302.779	-0.35
302.994	-6.43
303.209	-20.9
303.423	-1.48
303.638	13.5
303.853	18.66
304.068	26.86
304.283	34.85
304.497	30
304.712	41.42
304.927	31.14
305.142	23.93
305.356	22.1
305.571	25.45
305.786	21.99
306	32.79
306.215	20.33
306.43	32.29
306.644	38.19
306.859	38.69
307.074	40.55
307.288	46.57
307.503	48.51
307.717	48.98
307.932	49.13
308.147	50.34
308.361	48.98
308.576	39.12
308.79	37.33
309.005	28.22
309.219	30.64
309.434	25.7
309.648	16.22
309.863	13.92
310.077	6.75
310.292	1.48
310.506	17.63
310.72	16.32
310.935	15.37
311.149	17.8
311.364	18.52
311.578	24.31
311.792	21.98
312.007	12.66
312.221	20.23
312.435	16.78
312.649	34.52
312.864	32.57
313.078	29.92
313.292	38.65
313.507	43.53
313.721	34.46
313.935	55.25
314.149	40.81
314.363	50.36
314.578	59.22
314.792	58.94
315.006	56.48
315.22	64.18
315.434	51.36
315.648	50.65
315.862	48.37
316.077	49.22
316.291	49.83
316.505	46.85
316.719	34.73
316.933	35.03
317.147	28.79
317.361	20.99
317.575	20.11
317.789	17.77
318.003	21.72
318.217	24.93
318.431	24.13
318.645	25.74
318.859	23.28
319.073	23.82
319.287	33.25
319.5	33.21
319.714	25.04
319.928	28.49
320.142	31.71
320.356	43.15
320.57	35.41
320.784	26.41
320.997	30.9
321.211	36.74
321.425	32.57
321.639	30.94
321.853	18.56
322.066	25.5
322.28	19.31
322.494	16.78
322.707	14.54
322.921	17.09
323.135	22.81
323.349	27.82
323.562	22.34
323.776	33.75
323.989	32.02
324.203	37.59
324.417	34.13
324.63	30.8
324.844	30.45
325.057	37.6
325.271	26.1
325.485	29.32
325.698	18.66
325.912	24.45
326.125	12.54
326.339	27.95
326.552	21.83
326.766	25.67
326.979	27.73
327.193	36.29
327.406	33.44
327.619	25.57
327.833	4.6
328.046	3.63
328.26	5.22
328.473	0.85
328.686	0.84
328.9	-0.34
329.113	19.27
329.326	19.77
329.54	24.05
329.753	22.05
329.966	18.25
330.179	22.09
330.393	19.8
330.606	18.71
330.819	23.07
331.032	23.24
331.246	32.31
331.459	35.52
331.672	33.67
331.885	33.49
332.098	32.16
332.311	25.4
332.525	35.98
332.738	35.76
332.951	34.87
333.164	29.29
333.377	29.06
333.59	25.89
333.803	37.61
334.016	19.62
334.229	3.24
334.442	6.49
334.655	12.68
334.868	16.21
335.081	25.46
335.294	9.97
335.507	15.86
335.72	13.74
335.933	14.14
336.146	20.43
336.359	26.98
336.572	22.51
336.785	31.96
336.997	34.84
337.21	35.59
337.423	35.68
337.636	27.73
337.849	17.79
338.062	18.19
338.274	18.68
338.487	18.52
338.7	24.5
338.913	25.86
339.125	25.45
339.338	34.93
339.551	34.85
339.763	25.73
339.976	28.73
340.189	23.54
340.402	21.82
340.614	28.55
340.827	17.57
341.039	20.79
341.252	24.18
341.465	16.97
341.677	15.91
341.89	19.33
342.102	20.9
342.315	28.85
342.527	23.83
342.74	20.08
342.952	28.69
343.165	44.82
343.377	38.44
343.59	37.96
343.802	41.97
344.015	40.94
344.227	45.85
344.44	36.55
344.652	28.44
344.864	29.86
345.077	18.14
345.289	13.01
345.502	8.69
345.714	3.26
345.926	14.17
346.139	8.95
346.351	-0.17
346.563	10.2
346.775	10.95
346.988	13.84
347.2	17.44
347.412	12.61
347.624	17.57
347.837	16.5
348.049	20.26
348.261	18.77
348.473	14.24
348.685	23.97
348.897	26.59
349.11	25.52
349.322	31
349.534	26
349.746	33.85
349.958	29.55
350.17	20.58
350.382	21.41
350.594	24.35
350.806	32.44
351.018	33.7
351.23	38.29
351.442	39.58
351.654	41.61
351.866	42.43
352.078	35.97
352.29	34.08
352.502	27.53
352.714	23.42
352.926	28.69
353.138	21.62
353.35	23.64
353.561	24.75
353.773	27.44
353.985	30.55
354.197	23.24
354.409	28.19
354.621	29.4
354.832	23.46
355.044	29.89
355.256	20.9
355.468	17.47
355.679	20.8
355.891	15.82
356.103	17.85
356.314	18.99
356.526	11.36
356.738	10.32
356.949	17.92
357.161	14.54
357.373	19.43
357.584	23.53
357.796	26.52
358.008	32.19
358.219	38.45
358.431	33.51
358.642	35.03
358.854	35.86
359.065	31.88
359.277	27.18
359.488	21.93
359.7	21.39
359.911	17.8
360.123	28.16
360.334	18.81
360.546	18.74
360.757	24.91
360.969	29.49
361.18	28.55
361.391	34.45
361.603	24.32
361.814	34.07
362.025	33.08
362.237	31.5
362.448	30.84
362.659	17.78
362.871	20.66
363.082	26.67
363.293	28.05
363.504	28.17
363.716	23.86
363.927	21.26
364.138	30.81
364.349	30.57
364.56	32.11
364.772	25.77
364.983	18.49
365.194	21.53
365.405	23.6
365.616	16.83
365.827	12.41
366.038	15.79
366.25	26.77
366.461	34.1
366.672	35.17
366.883	37.03
367.094	43.48
367.305	40.91
367.516	34.92
367.727	22.89
367.938	26.92
368.149	24.69
368.36	21.17
368.571	17.94
368.781	21.57
368.992	22.16
369.203	29.04
369.414	22.79
369.625	19.31
369.836	21.13
370.047	22.88
370.258	19.13
370.468	18.08
370.679	12.92
370.89	17.72
371.101	26.17
371.312	22.94
371.522	26.52
371.733	18.97
371.944	17.36
372.155	15.9
372.365	9.2
372.576	3.43
372.787	1.42
372.997	-0.36
373.208	10.95
373.419	14.82
373.629	23.07
373.84	24.62
374.05	28.99
374.261	26.28
374.472	27.35
374.682	23.31
374.893	14.46
375.103	14.7
375.314	19.4
375.524	17.71
375.735	18.26
375.945	18.07
376.156	24.33
376.366	28.71
376.577	26.94
376.787	26.55
376.997	29.27
377.208	31.56
377.418	22.4
377.629	13.36
377.839	20.57
378.049	21.43
378.26	20
378.47	20.5
378.68	20.2
378.89	20.42
379.101	18.99
379.311	10.87
379.521	12.23
379.732	10.76
379.942	13.62
380.152	18.74
380.362	22.99
380.572	26.14
380.783	23.49
380.993	19.52
381.203	22.78
381.413	22.52
381.623	21.01
381.833	17.78
382.043	15.6
382.253	19.8
382.463	18.33
382.674	18.77
382.884	9.62
383.094	8.07
383.304	13.02
383.514	17.89
383.724	19.24
383.934	19.48
384.144	17.79
384.353	21.26
384.563	16.1
384.773	14.3
384.983	8.69
385.193	9.37
385.403	13.2
385.613	11.51
385.823	9.33
386.033	15.03
386.242	15.11
386.452	15.6
386.662	13.99
386.872	7.68
387.082	9.48
387.291	11.6
387.501	10.62
387.711	8.32
387.921	10.79
388.13	9.3
388.34	8.8
388.55	8.44
388.759	7.88
388.969	7.52
389.179	12.26
389.388	11.02
389.598	11.42
389.807	12.28
390.017	11.86
390.227	10.74
390.436	9.44
390.646	8.37
390.855	8.11
391.065	9.23
391.274	8.87
391.484	9.06
391.693	10.64
391.903	8.88
392.112	7.93
392.322	10.37
392.531	9.64
392.74	8.77
392.95	8.76
393.159	8.11
393.369	10.33
393.578	10.38
393.787	9.49
393.997	10.26
394.206	10.24
394.415	9.84
394.625	8.11
394.834	6.46
395.043	6.33
395.252	5.05
395.462	3.84
395.671	3.91
395.88	4.04
396.089	5.09
396.298	5.84
396.508	5.76
396.717	6.41
396.926	6.38
397.135	6.19
397.344	5.72
397.553	5.37
397.762	5.23
397.971	4.91
398.181	4.56
398.39	4.66
398.599	5.16
398.808	5.24
399.017	5.02
399.226	5.02
399.435	5.06
399.644	4.84
399.853	4.78
400.062	4.36
400.27	4.42
400.479	4.75
400.688	4.62
400.897	4.69
401.106	4.87
401.315	4.74
401.524	4.92
401.733	4.99
401.941	4.76
402.15	4.58
402.359	4.58
402.568	4.59
402.777	4.7
402.985	4.62
403.194	4.42
403.403	4.5
403.612	4.6
403.82	4.49
404.029	4.49
404.238	4.43
404.446	4.52
404.655	4.53
404.864	4.49
405.072	4.57
405.281	4.54
405.489	4.59
405.698	4.46
405.906	4.35
406.115	4.47
406.324	4.35
406.532	4.32
406.741	4.31
406.949	4.19
407.158	4.34
407.366	4.33
407.574	4.26
407.783	4.27
407.991	4.13
408.2	4.18
408.408	4.17
408.617	4.11
408.825	4.09
409.033	4.04
409.242	4.06
409.45	4.04
409.658	4.04
409.867	4.06
410.075	4.02
410.283	4.01
410.491	4.04
410.7	4.06
410.908	4.18
411.116	4.04
411.324	4.07
411.533	3.99
411.741	4.04
411.949	4.03
412.157	4.06
412.365	4.06
412.573	4.06
412.781	3.97
412.99	4.11
413.198	4.05
413.406	4.03
413.614	3.97
413.822	3.92
414.03	3.87
414.238	3.89
414.446	3.8
414.654	3.75
414.862	3.66
415.07	3.72
415.278	3.74
415.486	3.92
415.694	3.88
415.902	3.86
416.109	3.87
416.317	3.91
416.525	3.94
416.733	3.91
416.941	3.8
417.149	3.87
417.357	3.93
417.564	3.9
417.772	3.93
417.98	3.85
418.188	3.76
418.395	3.75
418.603	3.63
418.811	3.47
419.019	3.48
419.226	3.5
419.434	3.42
419.642	3.5
419.849	3.49
420.057	3.51
420.265	3.59
420.472	3.52
420.68	3.47
420.887	3.48
421.095	3.44
421.302	3.45
421.51	3.42
421.717	3.46
421.925	3.48
422.132	3.38
422.34	3.38
422.547	3.24
422.755	3.23
422.962	3.15
423.17	3.05
423.377	3.05
423.585	3.15
423.792	3.05
423.999	3.14
424.207	3.07
424.414	3.31
424.621	3.5
424.829	3.52
425.036	3.46
425.243	3.64
425.451	3.63
425.658	3.79
425.865	3.54
426.072	3.4
426.28	3.42
426.487	3.45
426.694	3.3
426.901	3.22
427.108	3.12
427.315	3.22
427.523	3.23
427.73	3.23
427.937	3.25
428.144	3.32
428.351	3.49
428.558	3.44
428.765	3.43
428.972	3.47
429.179	3.33
429.386	3.44
429.593	3.5
429.8	3.49
430.007	3.55
430.214	3.61
430.421	3.59
430.628	3.6
430.835	3.52
431.042	3.47
431.249	3.39
431.456	3.44
431.662	3.39
431.869	3.43
432.076	3.49
432.283	3.43
432.49	3.42
432.697	3.52
432.903	3.49
433.11	3.52
433.317	3.5
433.524	3.51
433.73	3.52
433.937	3.54
434.144	3.52
434.35	3.5
434.557	3.48
434.764	3.44
434.97	3.53
435.177	3.55
435.384	3.63
435.59	3.59
435.797	3.64
436.003	3.69
436.21	3.74
436.416	3.67
436.623	3.72
436.829	3.67
437.036	3.67
437.242	3.6
437.449	3.64
437.655	3.63
437.862	3.67
438.068	3.74
438.275	3.74
438.481	3.81
438.687	3.92
438.894	3.9
439.1	3.94
439.307	3.94
439.513	3.88
439.719	3.94
439.926	3.91
440.132	3.86
440.338	3.95
440.544	3.94
440.751	3.94
440.957	3.95
441.163	3.98
441.369	4.07
441.575	4.09
441.782	4.05
441.988	4.07
442.194	4.14
442.4	4.18
442.606	4.21
442.812	4.21
443.018	4.18
443.224	4.21
443.431	4.2
443.637	4.2
443.843	4.22
444.049	4.16
444.255	4.1
444.461	4.15
444.667	4.16
444.873	4.17
445.079	4.17
445.284	4.13
445.49	4.17
445.696	4.24
445.902	4.3
446.108	4.26
446.314	4.31
446.52	4.33
446.726	4.39
446.931	4.35
447.137	4.34
447.343	4.32
447.549	4.33
447.755	4.26
447.96	4.27
448.166	4.29
448.372	4.33
448.578	4.33
448.783	4.31
448.989	4.39
449.195	4.48
449.4	4.54
449.606	4.5
449.812	4.49
450.017	4.54
450.223	4.58
450.428	4.56
450.634	4.51
450.84	4.46
451.045	4.52
451.251	4.55
451.456	4.46
451.662	4.43
451.867	4.42
452.073	4.39
452.278	4.43
452.483	4.38
452.689	4.37
452.894	4.43
453.1	4.42
453.305	4.44
453.51	4.47
453.716	4.46
453.921	4.47
454.127	4.49
454.332	4.48
454.537	4.59
454.742	4.56
454.948	4.61
455.153	4.6
455.358	4.65
455.563	4.68
455.769	4.7
455.974	4.63
456.179	4.61
456.384	4.6
456.589	4.61
456.795	4.51
457	4.53
457.205	4.53
457.41	4.58
457.615	4.62
457.82	4.66
458.025	4.67
458.23	4.72
458.435	4.69
458.64	4.67
458.845	4.66
459.05	4.63
459.255	4.57
459.46	4.53
459.665	4.59
459.87	4.61
460.075	4.65
460.28	4.67
460.485	4.75
460.69	4.75
460.895	4.8
461.099	4.83
461.304	4.81
461.509	4.78
461.714	4.79
461.919	4.77
462.123	4.81
462.328	4.8
462.533	4.74
462.738	4.75
462.942	4.79
463.147	4.77
463.352	4.82
463.556	4.82
463.761	4.87
463.966	4.93
464.17	4.92
464.375	4.92
464.58	4.97
464.784	4.99
464.989	4.99
465.193	4.99
465.398	4.95
465.602	5
465.807	4.98
466.011	4.96
466.216	4.92
466.42	5.01
466.625	5.04
466.829	5.08
467.034	5.16
467.238	5.25
467.443	5.32
467.647	5.36
467.851	5.28
468.056	5.29
468.26	5.31
468.464	5.3
468.669	5.31
468.873	5.29
