Data from Ofra_PS_T2_2A_1GT37_Reflection_3.txt Node
Date: Wed Jul 21 16:54:43 EDT 2021
User: Adam
Spectrometer: FLMT01687
Trigger mode: 0
Integration Time (sec): 1.100000E0
Scans to average: 2
Electric dark correction enabled: true
Nonlinearity correction enabled: false
Boxcar width: 2
XAxis mode: Wavelengths
Number of Pixels in Spectrum: 3648
>>>>>Begin Spectral Data<<<<<
179.494	478
179.716	548.94
179.937	573.29
180.158	548.12
180.38	970.94
180.601	419.06
180.823	100.38
181.044	-62.8
181.265	-64.34
181.486	-47.59
181.708	-36.14
181.929	-301.02
182.15	372.54
182.372	23.48
182.593	-94.95
182.814	-75.82
183.035	-43.22
183.257	-25.62
183.478	-33.09
183.699	6.83
183.92	-0.36
184.141	10.54
184.363	5.11
184.584	30.37
184.805	45.94
185.026	76.55
185.247	70.46
185.468	51.44
185.689	61.93
185.91	75.29
186.132	57.67
186.353	54.26
186.574	96.42
186.795	56.16
187.016	16.96
187.237	5.65
187.458	-39.42
187.679	-56.04
187.9	-14.98
188.121	-9.68
188.342	-19.39
188.563	43.02
188.784	28.2
189.005	14.21
189.226	35.29
189.447	42.73
189.667	-146.84
189.888	-166.75
190.109	-521.43
190.33	-417.74
190.551	-857.08
190.772	-175.67
190.993	-131.62
191.214	-132.86
191.434	-74.47
191.655	-27.55
191.876	-68.12
192.097	-128.93
192.318	-162.81
192.538	-247.07
192.759	-113.56
192.98	-42.69
193.201	13.94
193.421	32.06
193.642	43.57
193.863	42.94
194.083	31.83
194.304	12.66
194.525	7.36
194.745	-25.62
194.966	-14.98
195.187	-19.15
195.407	-27.15
195.628	-78.36
195.848	-71.3
196.069	-94.11
196.29	-40.15
196.51	-50
196.731	-28.81
196.951	-19.67
197.172	-25.98
197.392	-65.71
197.613	-53.97
197.833	-87.59
198.054	-87.57
198.274	-50.72
198.495	-54.39
198.715	-14.39
198.936	-26.7
199.156	-11.43
199.377	-90.2
199.597	-93.27
199.817	-117.32
200.038	-53.85
200.258	-76.62
200.479	-53.02
200.699	-67.76
200.919	-11.15
201.14	-16.57
201.36	-19.28
201.58	38.31
201.801	51.56
202.021	9.91
202.241	-8.59
202.461	-15.39
202.682	-104.67
202.902	-179.45
203.122	-86.56
203.342	-46.54
203.563	-4.47
203.783	2.91
204.003	-5.7
204.223	13.49
204.443	41.97
204.663	-3.86
204.884	34.43
205.104	49.39
205.324	67.95
205.544	63.41
205.764	74.82
205.984	63.16
206.204	69.14
206.424	42.7
206.644	25.2
206.864	11.4
207.084	-9.72
207.304	23.12
207.525	-9.22
207.745	-20.17
207.964	45.67
208.184	-12.11
208.404	-68.24
208.624	-73.34
208.844	-73.59
209.064	-294.35
209.284	-276.55
209.504	-107.97
209.724	-11.97
209.944	-17.96
210.164	-14.95
210.384	2.14
210.604	-2.34
210.823	-43.6
211.043	-42.53
211.263	-22.92
211.483	-31.82
211.703	-52.05
211.922	-33.23
212.142	51.94
212.362	77.24
212.582	62.63
212.801	52.49
213.021	28.26
213.241	-8.23
213.461	-31.58
213.68	-44.15
213.9	-42.89
214.12	-19
214.339	-86.74
214.559	-71.49
214.779	-17.31
214.998	-11.41
215.218	-37.67
215.438	-2.72
215.657	-17.14
215.877	-35.18
216.096	-9.66
216.316	13.44
216.535	23.95
216.755	40.98
216.974	15.75
217.194	-8.59
217.413	-28.16
217.633	-51.22
217.852	-143.28
218.072	-67.58
218.291	-43.63
218.511	-17.37
218.73	-25.25
218.95	-19.38
219.169	-23.59
219.389	-54.59
219.608	-34.08
219.827	-23.17
220.047	-2.59
220.266	31.12
220.485	46.61
220.705	47.77
220.924	10.1
221.143	26.92
221.363	3.87
221.582	2.58
221.801	-4.35
222.021	16.12
222.24	-45.18
222.459	10.93
222.678	6.28
222.897	-45.02
223.117	-69.93
223.336	-39.79
223.555	-27.57
223.774	-7.42
223.993	-9.87
224.213	32.77
224.432	32.81
224.651	41.68
224.87	29.69
225.089	59.17
225.308	55.93
225.527	60.53
225.746	56.71
225.965	50.73
226.184	14.27
226.404	15.94
226.623	-13.93
226.842	-18.06
227.061	-8.03
227.28	7.85
227.499	-19.05
227.718	-1.75
227.936	-8.42
228.155	9.9
228.374	-0.18
228.593	27.96
228.812	22.27
229.031	22.18
229.25	-24.36
229.469	-36.92
229.688	-42.64
229.907	2.55
230.125	16.41
230.344	20.75
230.563	43.47
230.782	41.81
231.001	-19.29
231.22	-15.82
231.438	0.93
231.657	-12.01
231.876	-39.95
232.095	1.89
232.313	0.03
232.532	-18.74
232.751	-45.51
232.969	-16.63
233.188	-89.07
233.407	-34.48
233.625	-17.17
233.844	-16.33
234.063	-10.92
234.281	20.19
234.5	5.08
234.719	18.57
234.937	25.78
235.156	32.87
235.374	21.52
235.593	14.8
235.811	-0.44
236.03	-0.71
236.249	-43.54
236.467	-25.77
236.686	7.43
236.904	12.91
237.123	-10.29
237.341	6.62
237.559	18.32
237.778	0.21
237.996	-3.93
238.215	31.54
238.433	28.45
238.652	18.21
238.87	-14.01
239.088	-1.96
239.307	-4.44
239.525	-22.38
239.743	-35.56
239.962	1.08
240.18	-23.09
240.398	-54.5
240.617	-36.33
240.835	-20.96
241.053	-10.25
241.271	44.07
241.49	42.68
241.708	33.63
241.926	32.03
242.144	30.2
242.363	-30.35
242.581	-36.19
242.799	-12.94
243.017	3.04
243.235	1.41
243.453	17.53
243.672	17.26
243.89	14.21
244.108	-1.97
244.326	6.16
244.544	14.81
244.762	20.59
244.98	23.77
245.198	32.21
245.416	23.43
245.634	0.03
245.852	-20.36
246.07	-26.76
246.288	-8.21
246.506	-43.43
246.724	-19.08
246.942	-9.78
247.16	13.07
247.378	5.15
247.596	34.02
247.814	24.28
248.032	6.08
248.25	-11.46
248.468	-4.44
248.685	-16.05
248.903	12.25
249.121	25.73
249.339	13.21
249.557	13.99
249.775	13.44
249.992	-32.38
250.21	-35.61
250.428	-8.48
250.646	-26.47
250.863	-28.1
251.081	5.79
251.299	9.19
251.517	7.08
251.734	14.01
251.952	11.34
252.17	3.03
252.387	8.64
252.605	-1.89
252.823	2.5
253.04	20.54
253.258	27.36
253.475	43.4
253.693	54.93
253.911	50.15
254.128	45.28
254.346	59.99
254.563	27.2
254.781	3.16
254.998	-23.69
255.216	-21.18
255.433	-30.32
255.651	1.16
255.868	29.02
256.086	53.77
256.303	30.18
256.521	16.77
256.738	-6.54
256.956	-47.55
257.173	-51.45
257.39	-59.92
257.608	-58.92
257.825	-6.1
258.043	28.84
258.26	19.22
258.477	49.87
258.695	39.04
258.912	-21.18
259.129	-3.2
259.346	-12.08
259.564	-61.96
259.781	-59.38
259.998	16.83
260.216	27.12
260.433	26.8
260.65	38.11
260.867	47.78
261.084	10.66
261.302	-4.44
261.519	8.78
261.736	-5.43
261.953	-35.26
262.17	-0.4
262.387	-34.39
262.604	-58.66
262.822	-58.55
263.039	-24.72
263.256	-43.07
263.473	-1.35
263.69	2.92
263.907	29.05
264.124	30.24
264.341	18.72
264.558	20.58
264.775	33.76
264.992	15.69
265.209	14.39
265.426	31.79
265.643	23.84
265.86	27.74
266.077	40.7
266.294	29.25
266.51	-11.69
266.727	9.47
266.944	4.81
267.161	-8.65
267.378	2.82
267.595	46.16
267.812	17.31
268.028	19.16
268.245	26.68
268.462	-0.17
268.679	-23.49
268.896	10.74
269.112	1.96
269.329	7.45
269.546	14.12
269.763	9.22
269.979	6.25
270.196	-2.19
270.413	-24.2
270.629	-30.15
270.846	-31.34
271.063	-30.31
271.279	-30.39
271.496	-28.19
271.712	-11.2
271.929	18.19
272.146	-12.2
272.362	-10.05
272.579	20.26
272.795	36.18
273.012	29.06
273.228	35.36
273.445	21.7
273.661	-13.92
273.878	-55.81
274.094	-51.29
274.311	-51.89
274.527	12.76
274.744	22.48
274.96	30.07
275.177	37.18
275.393	47.98
275.609	31.89
275.826	38.78
276.042	38.92
276.259	19.26
276.475	25.28
276.691	27.75
276.908	16.75
277.124	24.54
277.34	10.44
277.557	-4.35
277.773	-12.93
277.989	-26.97
278.205	-27.13
278.422	-15.36
278.638	-15.54
278.854	5.17
279.07	26.76
279.286	15.32
279.503	10.02
279.719	25.51
279.935	5.36
280.151	-0.94
280.367	9.04
280.583	9.09
280.799	-2.01
281.016	-42.82
281.232	-5.51
281.448	-5.86
281.664	14.81
281.88	-13.6
282.096	18.66
282.312	11.11
282.528	2.51
282.744	-0.21
282.96	6.48
283.176	6.73
283.392	-0.6
283.608	5.84
283.824	6.53
284.04	10.52
284.256	17.2
284.471	12.64
284.687	12.94
284.903	9.32
285.119	32.09
285.335	18.49
285.551	22.53
285.767	-0.38
285.982	-7.66
286.198	-45.25
286.414	-15.13
286.63	-5.63
286.846	20.64
287.061	12.95
287.277	47.63
287.493	36.55
287.709	41.56
287.924	30.26
288.14	63.56
288.356	40.62
288.571	52.22
288.787	41.39
289.003	48.98
289.218	21.93
289.434	-2.77
289.65	-5.58
289.865	-10.36
290.081	-16.45
290.296	7.34
290.512	23.38
290.727	-6.6
290.943	-9.82
291.159	-8.68
291.374	-12.3
291.59	-34.24
291.805	-18.55
292.021	8.86
292.236	3.47
292.451	5.63
292.667	18.59
292.882	29.66
293.098	7.92
293.313	6.54
293.529	0.27
293.744	5.91
293.959	-3.18
294.175	-5.9
294.39	13.58
294.605	28.98
294.821	39.22
295.036	44.61
295.251	49.76
295.467	38.65
295.682	33.82
295.897	-5.36
296.112	-27.3
296.328	-22.64
296.543	-60.72
296.758	-54.8
296.973	-22.64
297.188	15.47
297.404	-9.98
297.619	-6.44
297.834	-23.63
298.049	-30.88
298.264	-44.82
298.479	-8.7
298.694	2.79
298.909	15.52
299.125	19.48
299.34	18.13
299.555	8.97
299.77	7.58
299.985	-22.09
300.2	-61.87
300.415	-63.34
300.63	-37.8
300.845	-35.07
301.06	-27.22
301.275	2.9
301.49	12.3
301.704	0.35
301.919	-11.81
302.134	-13.56
302.349	-22.68
302.564	-74.96
302.779	-58.25
302.994	-21.55
303.209	-11.02
303.423	30.09
303.638	50.18
303.853	9.09
304.068	12.82
304.283	20.04
304.497	12.84
304.712	1.89
304.927	13.86
305.142	9.52
305.356	-4.47
305.571	-7.1
305.786	-14.27
306	-31.58
306.215	-47.89
306.43	-40.98
306.644	-51.48
306.859	-5.17
307.074	21.54
307.288	-5.03
307.503	-0.72
307.717	-3.96
307.932	-4.23
308.147	-15.92
308.361	12.85
308.576	9.27
308.79	-13.52
309.005	-15.22
309.219	-6.64
309.434	-16.58
309.648	-20.02
309.863	0.03
310.077	-7.9
310.292	-8.26
310.506	-6.88
310.72	-0.12
310.935	1.79
311.149	-5.51
311.364	11.73
311.578	26.62
311.792	15.75
312.007	25.17
312.221	23.92
312.435	26.77
312.649	9.27
312.864	1.13
313.078	-14.65
313.292	23.42
313.507	-38.25
313.721	-30.05
313.935	29.34
314.149	26.29
314.363	16.96
314.578	21.2
314.792	18.78
315.006	4.63
315.22	18.93
315.434	17.79
315.648	35.09
315.862	36.71
316.077	36.08
316.291	24.54
316.505	19.91
316.719	-11.32
316.933	-25.46
317.147	-29.6
317.361	-59.43
317.575	-68.41
317.789	-74.81
318.003	-122.99
318.217	-68.56
318.431	-5
318.645	28.54
318.859	15.95
319.073	38.66
319.287	14
319.5	-3.68
319.714	-28.95
319.928	-41.68
320.142	-66.93
320.356	-11.43
320.57	1.34
320.784	5.03
320.997	3.8
321.211	-6.03
321.425	-71.37
321.639	-91.64
321.853	-55.95
322.066	-34.43
322.28	-25.23
322.494	-12.09
322.707	12.4
322.921	7.89
323.135	15.76
323.349	34.26
323.562	17.59
323.776	9.05
323.989	1.18
324.203	-8.88
324.417	-28.59
324.63	-26.5
324.844	-24.18
325.057	-22.78
325.271	-21.11
325.485	2.89
325.698	11.95
325.912	22.26
326.125	13.89
326.339	14.1
326.552	-9.7
326.766	-1.53
326.979	17.84
327.193	41.08
327.406	27.03
327.619	22.16
327.833	24.42
328.046	-14.33
328.26	-49.65
328.473	-20.24
328.686	-28
328.9	-31.21
329.113	0.03
329.326	1.78
329.54	-12.1
329.753	-20.17
329.966	-8.95
330.179	-36.94
330.393	-6.4
330.606	7.99
330.819	21.65
331.032	26.3
331.246	38.69
331.459	55.32
331.672	53
331.885	45
332.098	25.42
332.311	5.55
332.525	-42.79
332.738	-20.54
332.951	6.58
333.164	45.67
333.377	67.36
333.59	70.31
333.803	58.05
334.016	47.74
334.229	31.76
334.442	13.63
334.655	22.06
334.868	39.49
335.081	24.95
335.294	15.65
335.507	21.73
335.72	12.74
335.933	-3.9
336.146	0.98
336.359	-4.37
336.572	-32.71
336.785	-53.14
336.997	-47.03
337.21	-28.93
337.423	-17.4
337.636	-4.19
337.849	1.36
338.062	-12.24
338.274	-6.98
338.487	-20.06
338.7	-23.93
338.913	-38.25
339.125	-44.61
339.338	-84.67
339.551	-59.33
339.763	-27.88
339.976	15.4
340.189	41.18
340.402	48.83
340.614	33.55
340.827	24.48
341.039	9.08
341.252	8.84
341.465	19.16
341.677	24.01
341.89	-5
342.102	-3.97
342.315	-11.75
342.527	-40.79
342.74	-12.63
342.952	21.2
343.165	22
343.377	27.79
343.59	19.3
343.802	19.1
344.015	14.87
344.227	26.69
344.44	24.21
344.652	33.63
344.864	16.42
345.077	27.4
345.289	22.84
345.502	17.09
345.714	12.86
345.926	16.34
346.139	5.54
346.351	13.58
346.563	20.42
346.775	21.06
346.988	10.95
347.2	1.61
347.412	-34.69
347.624	-48.87
347.837	-53.61
348.049	-24.68
348.261	2.49
348.473	5.25
348.685	18.16
348.897	21.86
349.11	-3.4
349.322	-28.09
349.534	-12.82
349.746	-20.77
349.958	-33.1
350.17	-15.04
350.382	14.74
350.594	17.37
350.806	31.51
351.018	26.54
351.23	13.95
351.442	-26.44
351.654	-30.63
351.866	-33.57
352.078	-22.12
352.29	16.83
352.502	31.07
352.714	36.78
352.926	20.98
353.138	14.31
353.35	-1.32
353.561	-2.09
353.773	-20.52
353.985	9.35
354.197	20.98
354.409	13.18
354.621	2.91
354.832	11.72
355.044	-5.4
355.256	-11.02
355.468	3.95
355.679	9
355.891	21.16
356.103	5.23
356.314	16.68
356.526	16.16
356.738	16.1
356.949	5.06
357.161	26.87
357.373	9.53
357.584	16
357.796	24.21
358.008	18.76
358.219	22.33
358.431	26.04
358.642	17.68
358.854	6.93
359.065	-8.21
359.277	-30.31
359.488	-25.78
359.7	-38.92
359.911	-57.44
360.123	-25.18
360.334	-20.74
360.546	-40.28
360.757	-42.48
360.969	-14.88
361.18	-20.36
361.391	-13.66
361.603	-22.78
361.814	-6.76
362.025	-8.72
362.237	-2.53
362.448	0.2
362.659	22.3
362.871	11.28
363.082	-7.81
363.293	-21.03
363.504	-25.64
363.716	-52.15
363.927	-53.55
364.138	-40.65
364.349	-33.63
364.56	-28.56
364.772	-20.96
364.983	5.25
365.194	14.21
365.405	21.01
365.616	38.57
365.827	53.14
366.038	28.52
366.25	9.79
366.461	-8.13
366.672	-0.48
366.883	5.57
367.094	17.78
367.305	13.69
367.516	12.06
367.727	-14.07
367.938	-21.73
368.149	-22.67
368.36	-0.53
368.571	20.03
368.781	12.84
368.992	1.08
369.203	-8.64
369.414	-33.62
369.625	-57.35
369.836	-52.19
370.047	-76.09
370.258	-71.37
370.468	-58.04
370.679	-58.88
370.89	-50.63
371.101	-22.22
371.312	-8.18
371.522	-7.44
371.733	-3.81
371.944	12.48
372.155	13.09
372.365	-0.88
372.576	5.67
372.787	1.78
372.997	-22.55
373.208	-25.21
373.419	-16.74
373.629	-41.66
373.84	-41.02
374.05	-44.91
374.261	-44.76
374.472	-43.67
374.682	-4.55
374.893	0.31
375.103	23.54
375.314	29.83
375.524	28.59
375.735	22.67
375.945	32.19
376.156	20.27
376.366	14.46
376.577	20.57
376.787	18.73
376.997	13.86
377.208	6.83
377.418	-0.23
377.629	1.44
377.839	0.25
378.049	1.15
378.26	10.26
378.47	16.83
378.68	12.78
378.89	13.55
379.101	13.72
379.311	2.68
379.521	-8.58
379.732	-6.6
379.942	-3.49
380.152	-23.68
380.362	-6.72
380.572	-1.09
380.783	6.8
380.993	7.21
381.203	18.81
381.413	25.06
381.623	30.93
381.833	22.48
382.043	12.76
382.253	3.25
382.463	-1.83
382.674	-13.44
382.884	-28.09
383.094	-12.62
383.304	0.46
383.514	8.3
383.724	15.01
383.934	16.41
384.144	-5.78
384.353	-20.74
384.563	-29.7
384.773	-22.82
384.983	-26.83
385.193	-2.93
385.403	6.39
385.613	10.33
385.823	2.92
386.033	6.03
386.242	-2.59
386.452	-3.33
386.662	-5.59
386.872	2.81
387.082	-2.63
387.291	-11.36
387.501	-18.91
387.711	-12.2
387.921	-19.73
388.13	-14.84
388.34	-0.57
388.55	0.21
388.759	-3.22
388.969	3.25
389.179	3.13
389.388	0.11
389.598	2.97
389.807	-1.58
390.017	-7.94
390.227	-6.62
390.436	-5.87
390.646	-4.93
390.855	-0.29
391.065	0.77
391.274	1.44
391.484	-0.17
391.693	-1.94
391.903	-2.17
392.112	5.81
392.322	5.07
392.531	7.01
392.74	8.03
392.95	3.73
393.159	-2.44
393.369	-1.03
393.578	-0.5
393.787	-0.36
393.997	2.73
394.206	3.18
394.415	3.57
394.625	1.34
394.834	0.63
395.043	1.53
395.252	3.3
395.462	4.08
395.671	5.8
395.88	6.83
396.089	6.54
396.298	4.42
396.508	3.97
396.717	2.82
396.926	2.65
397.135	2.06
397.344	2.77
397.553	2.65
397.762	3.63
397.971	4.1
398.181	4.04
398.39	3.56
398.599	3.7
398.808	3.73
399.017	3.91
399.226	5.27
399.435	6.23
399.644	6.53
399.853	6.01
400.062	5.47
400.27	4.59
400.479	4.14
400.688	3.44
400.897	3.31
401.106	3.43
401.315	3.44
401.524	3.41
401.733	4.08
401.941	4.27
402.15	4.36
402.359	4.19
402.568	4.71
402.777	4.59
402.985	4.62
403.194	4.57
403.403	4.77
403.612	4.32
403.82	4.12
404.029	4.28
404.238	4.11
404.446	4.32
404.655	4.07
404.864	3.98
405.072	3.66
405.281	3.86
405.489	3.5
405.698	3.65
405.906	3.77
406.115	3.92
406.324	3.8
406.532	4.04
406.741	4.22
406.949	4.17
407.158	4.15
407.366	4.29
407.574	4.15
407.783	4.18
407.991	4.12
408.2	4.23
408.408	4.13
408.617	4.21
408.825	3.97
409.033	4.04
409.242	3.96
409.45	4.06
409.658	3.85
409.867	4
410.075	3.87
410.283	3.82
410.491	3.72
410.7	3.74
410.908	3.79
411.116	3.97
411.324	3.94
411.533	3.86
411.741	4.06
411.949	3.92
412.157	3.78
412.365	3.82
412.573	3.81
412.781	3.79
412.99	3.73
413.198	3.87
413.406	3.87
413.614	3.89
413.822	3.67
414.03	3.68
414.238	3.43
414.446	3.47
414.654	3.35
414.862	3.59
415.07	3.61
415.278	3.8
415.486	3.61
415.694	3.75
415.902	3.54
416.109	3.47
416.317	3.31
416.525	3.18
416.733	3.07
416.941	3.21
417.149	3.24
417.357	3.33
417.564	3.5
417.772	3.73
417.98	3.59
418.188	3.56
418.395	3.58
418.603	3.78
418.811	3.41
419.019	3.47
419.226	3.54
419.434	3.53
419.642	3.2
419.849	3.31
420.057	3.27
420.265	3.34
420.472	3.21
420.68	3.2
420.887	3.15
421.095	3.16
421.302	3.06
421.51	3.18
421.717	3.38
421.925	3.53
422.132	3.4
422.34	3.24
422.547	3.19
422.755	2.94
422.962	2.86
423.17	2.85
423.377	2.91
423.585	3.04
423.792	3.14
423.999	3.09
424.207	3.06
424.414	3.11
424.621	2.93
424.829	2.84
425.036	2.89
425.243	3.05
425.451	2.94
425.658	2.79
425.865	2.98
426.072	2.97
426.28	3.2
426.487	3.23
426.694	3.33
426.901	3.21
427.108	3.2
427.315	2.86
427.523	3.13
427.73	3.18
427.937	3.24
428.144	3.1
428.351	3.09
428.558	3.02
428.765	3.02
428.972	2.89
429.179	3.04
429.386	3.33
429.593	3.11
429.8	3.07
430.007	3.31
430.214	3.42
430.421	3.23
430.628	3.14
430.835	3.13
431.042	3.15
431.249	3.17
431.456	3.15
431.662	3.37
431.869	3.5
432.076	3.54
432.283	3.54
432.49	3.59
432.697	3.67
432.903	3.48
433.11	3.49
433.317	3.5
433.524	3.73
433.73	3.62
433.937	3.86
434.144	3.74
434.35	3.71
434.557	3.43
434.764	3.53
434.97	3.41
435.177	3.58
435.384	3.56
435.59	3.69
435.797	3.76
436.003	3.75
436.21	3.75
436.416	3.78
436.623	3.79
436.829	3.83
437.036	4
437.242	3.97
437.449	4.01
437.655	4.09
437.862	4.06
438.068	4.03
438.275	4.13
438.481	4.27
438.687	4.13
438.894	4.16
439.1	4.14
439.307	4.26
439.513	4.11
439.719	4.13
439.926	4.18
440.132	4.12
440.338	3.95
440.544	4.07
440.751	4.1
440.957	4.17
441.163	4.25
441.369	4.42
441.575	4.28
441.782	4.4
441.988	4.28
442.194	4.18
442.4	4.14
442.606	4.41
442.812	4.42
443.018	4.47
443.224	4.61
443.431	4.67
443.637	4.47
443.843	4.49
444.049	4.57
444.255	4.47
444.461	4.44
444.667	4.5
444.873	4.63
445.079	4.59
445.284	4.76
445.49	4.61
445.696	4.46
445.902	4.3
446.108	4.29
446.314	4.25
446.52	4.3
446.726	4.63
446.931	4.72
447.137	4.81
447.343	4.83
447.549	4.86
447.755	4.68
447.96	4.66
448.166	4.54
448.372	4.62
448.578	4.72
448.783	4.79
448.989	4.89
449.195	5.06
449.4	5.01
449.606	4.94
449.812	4.88
450.017	4.88
450.223	4.79
450.428	4.8
450.634	4.99
450.84	5.11
451.045	5.1
451.251	5.09
451.456	5.19
451.662	5.14
451.867	5.17
452.073	5.1
452.278	5.27
452.483	5.37
452.689	5.26
452.894	5.26
453.1	5.26
453.305	5.16
453.51	5.03
453.716	5.01
453.921	5.02
454.127	5
454.332	4.86
454.537	4.78
454.742	4.77
454.948	4.66
455.153	4.76
455.358	4.95
455.563	5.11
455.769	5.21
455.974	5.24
456.179	5.11
456.384	5.06
456.589	4.97
456.795	4.9
457	4.94
457.205	5.14
457.41	5.14
457.615	5.13
457.82	5.21
458.025	5.14
458.23	5.02
458.435	5.05
458.64	5.05
458.845	5.13
459.05	5.11
459.255	5.19
459.46	5.17
459.665	5.23
459.87	5.19
460.075	5.21
460.28	5.19
460.485	5.2
460.69	5.21
460.895	5.16
461.099	5.24
461.304	5.37
461.509	5.38
461.714	5.34
461.919	5.47
462.123	5.39
462.328	5.32
462.533	5.36
462.738	5.47
462.942	5.29
463.147	5.34
463.352	5.33
463.556	5.4
463.761	5.34
463.966	5.48
464.17	5.57
