Data from Ofra_PS_T2_2A_0CX05_Reflection_2.txt Node
Date: Wed Jul 21 16:49:55 EDT 2021
User: Adam
Spectrometer: FLMT01687
Trigger mode: 0
Integration Time (sec): 1.100000E0
Scans to average: 2
Electric dark correction enabled: true
Nonlinearity correction enabled: false
Boxcar width: 2
XAxis mode: Wavelengths
Number of Pixels in Spectrum: 3648
>>>>>Begin Spectral Data<<<<<
179.494	380.4
179.716	381.18
179.937	353.53
180.158	325.12
180.38	535.31
180.601	307.46
180.823	179.92
181.044	132.94
181.265	197.43
181.486	78.42
181.708	56.47
181.929	-186.73
182.15	196.48
182.372	147.47
182.593	120.73
182.814	58.09
183.035	71.74
183.257	23.29
183.478	-9.89
183.699	73.44
183.92	81.2
184.141	50.26
184.363	29.04
184.584	30.5
184.805	16.79
185.026	23.99
185.247	46.42
185.468	63.52
185.689	58.19
185.91	55.01
186.132	56.11
186.353	36.28
186.574	40.69
186.795	51.59
187.016	21.29
187.237	7.99
187.458	14.04
187.679	-1.6
187.9	1.76
188.121	-6.26
188.342	20.88
188.563	29.25
188.784	44.76
189.005	41.13
189.226	85.5
189.447	68.29
189.667	-25.49
189.888	-204.68
190.109	-637.01
190.33	-262.26
190.551	-630.53
190.772	-127.48
190.993	-70.53
191.214	-57.97
191.434	-75.23
191.655	-23.01
191.876	-0.8
192.097	-40.65
192.318	-83.3
192.538	-111.29
192.759	-62.36
192.98	-27.59
193.201	18.01
193.421	39.25
193.642	41.06
193.863	40.99
194.083	31.89
194.304	12.73
194.525	-13.53
194.745	-28.76
194.966	-39.83
195.187	-33.04
195.407	-70.19
195.628	-75.55
195.848	-84.25
196.069	-77.34
196.29	-60.12
196.51	-22.86
196.731	-5.26
196.951	2.38
197.172	10.45
197.392	2.38
197.613	0.57
197.833	-26.59
198.054	-19.16
198.274	8.26
198.495	-22.09
198.715	-1.72
198.936	-15.03
199.156	-0.93
199.377	-64.29
199.597	-38.18
199.817	-58.86
200.038	-15.54
200.258	-60.2
200.479	-43.63
200.699	-76.06
200.919	-14.11
201.14	-10.22
201.36	6.39
201.58	37.77
201.801	58.27
202.021	55.16
202.241	41.21
202.461	25.16
202.682	3.73
202.902	-17.35
203.122	13.34
203.342	25.7
203.563	64.62
203.783	60.1
204.003	31.6
204.223	7.52
204.443	52.7
204.663	43.86
204.884	47.27
205.104	74.01
205.324	105.32
205.544	127.51
205.764	89.31
205.984	74
206.204	73.07
206.424	43.25
206.644	10.84
206.864	14.13
207.084	8.68
207.304	-1.75
207.525	14.53
207.745	-19.98
207.964	22.06
208.184	-14.81
208.404	-30.5
208.624	-38.38
208.844	-31.08
209.064	-178
209.284	-139.51
209.504	-38.56
209.724	31.37
209.944	29.88
210.164	35.38
210.384	34.09
210.604	29.65
210.823	-1.44
211.043	-5.95
211.263	1.41
211.483	7.52
211.703	-27.33
211.922	-22.69
212.142	6.87
212.362	5.28
212.582	6.21
212.801	31.4
213.021	31.75
213.241	7.61
213.461	-10.58
213.68	-13.26
213.9	-5.33
214.12	14.02
214.339	-0.43
214.559	17.05
214.779	18.57
214.998	0.56
215.218	-25.99
215.438	8.15
215.657	4.85
215.877	15.8
216.096	42.87
216.316	59.33
216.535	38.55
216.755	15.58
216.974	-21.99
217.194	-88.84
217.413	-96.46
217.633	-113.77
217.852	-141.36
218.072	-48.41
218.291	-8.98
218.511	2.59
218.73	-10.3
218.95	-9.46
219.169	-15.56
219.389	-43.1
219.608	-23.52
219.827	-11.69
220.047	-6.01
220.266	5.15
220.485	8.78
220.705	10.84
220.924	18.87
221.143	52.74
221.363	46.02
221.582	54.03
221.801	42.31
222.021	46.9
222.24	-29.54
222.459	-6.97
222.678	16.17
222.897	14.48
223.117	-43.19
223.336	-15.43
223.555	-8.79
223.774	16.92
223.993	24.44
224.213	49.24
224.432	61.12
224.651	68.67
224.87	41.29
225.089	40.14
225.308	50.55
225.527	46.16
225.746	48.46
225.965	45.68
226.184	36.67
226.404	40.55
226.623	30.52
226.842	32.87
227.061	37.5
227.28	40.2
227.499	26.62
227.718	33.13
227.936	19.75
228.155	35.94
228.374	24.58
228.593	27.34
228.812	25.18
229.031	17.24
229.25	-18.19
229.469	9.85
229.688	24.8
229.907	44.67
230.125	42.77
230.344	50.96
230.563	51.29
230.782	50.67
231.001	-8.23
231.22	-14.35
231.438	-0.11
231.657	1.22
231.876	-26.16
232.095	15.8
232.313	34.14
232.532	26.5
232.751	-6.04
232.969	28.15
233.188	-2.25
233.407	12.03
233.625	-6.68
233.844	-29.71
234.063	-44.92
234.281	-6.63
234.5	-25.52
234.719	-9.93
234.937	16.68
235.156	29.33
235.374	21.23
235.593	24.3
235.811	30.27
236.03	40.51
236.249	29.22
236.467	33.51
236.686	41.45
236.904	39.16
237.123	20.22
237.341	22.92
237.559	11.29
237.778	-6.18
237.996	-20.24
238.215	6.78
238.433	5.12
238.652	15.77
238.87	4.78
239.088	4.98
239.307	-5.68
239.525	-7.97
239.743	-20.95
239.962	-0.65
240.18	2.56
240.398	-22.2
240.617	-21.28
240.835	-12.69
241.053	-21.88
241.271	-15.23
241.49	9.68
241.708	-12.9
241.926	-18.68
242.144	-10.4
242.363	-53.2
242.581	-57.48
242.799	-35.84
243.017	-19.15
243.235	-15.89
243.453	14.17
243.672	17.67
243.89	19.75
244.108	25.18
244.326	32.03
244.544	29.12
244.762	31.93
244.98	42.02
245.198	42.25
245.416	30.02
245.634	19.91
245.852	-2.52
246.07	-16.24
246.288	-16.68
246.506	-48.02
246.724	-66.47
246.942	-43.35
247.16	-14.69
247.378	-20.57
247.596	0.31
247.814	17.08
248.032	12.43
248.25	18.6
248.468	20.54
248.685	33.32
248.903	54.18
249.121	46.79
249.339	25.23
249.557	26.21
249.775	20.54
249.992	-24.32
250.21	-8.32
250.428	8.59
250.646	-19.83
250.863	-24.65
251.081	8.53
251.299	7.97
251.517	-1.27
251.734	11.56
251.952	13.76
252.17	-10.09
252.387	1.77
252.605	1.3
252.823	15.07
253.04	23.44
253.258	49.94
253.475	39.03
253.693	57.43
253.911	58.56
254.128	55.09
254.346	50.38
254.563	46.91
254.781	22.83
254.998	-2.57
255.216	1.18
255.433	8.89
255.651	27.26
255.868	44.89
256.086	54.07
256.303	33.93
256.521	15.74
256.738	3.62
256.956	-21.99
257.173	-17.5
257.39	-22.32
257.608	-14.09
257.825	21.72
258.043	38.28
258.26	17.64
258.477	48.24
258.695	34.23
258.912	-9.34
259.129	19.1
259.346	14.2
259.564	-3.05
259.781	9.37
259.998	38.99
260.216	18.71
260.433	30.66
260.65	13.68
260.867	10.62
261.084	-14.13
261.302	-8.17
261.519	6.49
261.736	18.58
261.953	4.76
262.17	22.2
262.387	-3.34
262.604	-69.44
262.822	-75.56
263.039	-38.82
263.256	-63.43
263.473	-26.42
263.69	13.93
263.907	28.33
264.124	32.97
264.341	34.45
264.558	30.69
264.775	24.97
264.992	22.27
265.209	2.11
265.426	8.39
265.643	14.14
265.86	31.15
266.077	25.81
266.294	56.38
266.51	41.05
266.727	18.49
266.944	7.51
267.161	-3.82
267.378	-31.85
267.595	-10.13
267.812	-37.61
268.028	-53.02
268.245	-19.53
268.462	-3.39
268.679	-1.6
268.896	41.73
269.112	33.11
269.329	26.52
269.546	36.94
269.763	20.18
269.979	15.17
270.196	32.98
270.413	-1.48
270.629	-23.12
270.846	-7.28
271.063	-12.2
271.279	-32.57
271.496	2.25
271.712	28.49
271.929	24.9
272.146	21.16
272.362	24.41
272.579	28.33
272.795	18.41
273.012	30
273.228	37.02
273.445	34.26
273.661	20.51
273.878	13.69
274.094	12.77
274.311	-8.95
274.527	32.29
274.744	29.77
274.96	16.01
275.177	17.25
275.393	49.87
275.609	32.14
275.826	40.26
276.042	45.66
276.259	46.99
276.475	24.05
276.691	35.29
276.908	26.34
277.124	38.91
277.34	32.46
277.557	32.69
277.773	12.41
277.989	7.68
278.205	-9.3
278.422	5.3
278.638	1.96
278.854	2.14
279.07	15.51
279.286	23.52
279.503	0.76
279.719	-2.39
279.935	-2.11
280.151	-17.01
280.367	-3.45
280.583	-7.51
280.799	-6.59
281.016	-23.89
281.232	-11.32
281.448	-7.27
281.664	14.18
281.88	13.76
282.096	27.32
282.312	31.29
282.528	37.1
282.744	26.7
282.96	22.36
283.176	16.17
283.392	15.05
283.608	7.63
283.824	9.06
284.04	15
284.256	25.4
284.471	32.11
284.687	29.14
284.903	50.88
285.119	53.11
285.335	35.43
285.551	36.15
285.767	23.62
285.982	7.6
286.198	-22.04
286.414	13.24
286.63	13.24
286.846	29.7
287.061	15.21
287.277	38.03
287.493	16.67
287.709	22
287.924	4.59
288.14	19.9
288.356	6.09
288.571	28.49
288.787	19.29
289.003	22.98
289.218	10.29
289.434	3.18
289.65	-10.59
289.865	-10.29
290.081	5.15
290.296	23.73
290.512	26.08
290.727	15.9
290.943	24.45
291.159	11.96
291.374	1.8
291.59	3.39
291.805	18.5
292.021	25.17
292.236	29.66
292.451	38.67
292.667	25.15
292.882	29.87
293.098	11.92
293.313	-3.13
293.529	-17.85
293.744	-16.8
293.959	-24.45
294.175	-19.13
294.39	4.54
294.605	14.66
294.821	24.84
295.036	28.27
295.251	24.72
295.467	20.2
295.682	21.63
295.897	-1.46
296.112	-6.28
296.328	5.1
296.543	-25.62
296.758	-21.21
296.973	13.19
297.188	32.63
297.404	16.26
297.619	20.9
297.834	9.12
298.049	-12.85
298.264	-42
298.479	-4.74
298.694	4.36
298.909	12.83
299.125	17.78
299.34	22.55
299.555	15.51
299.77	12.48
299.985	-13.11
300.2	-31.54
300.415	-28.35
300.63	-20.71
300.845	-27.8
301.06	-9.05
301.275	6.92
301.49	17.4
301.704	16.62
301.919	9.18
302.134	-1.5
302.349	-3.1
302.564	-45.07
302.779	-71.7
302.994	-59.95
303.209	-28.26
303.423	-17.09
303.638	27.11
303.853	5.3
304.068	14.55
304.283	9.18
304.497	8.96
304.712	2.29
304.927	14.49
305.142	2.55
305.356	10.76
305.571	7.69
305.786	4.9
306	0.29
306.215	12.98
306.43	7.62
306.644	11.99
306.859	13.97
307.074	25.08
307.288	8.71
307.503	-2.94
307.717	-6.17
307.932	-1.86
308.147	-1.49
308.361	23.75
308.576	10.81
308.79	-10.53
309.005	-1.77
309.219	-9.36
309.434	-19.11
309.648	2.85
309.863	9.83
310.077	-4.32
310.292	-5.14
310.506	-14.43
310.72	-7.11
310.935	-1.2
311.149	-5.17
311.364	16.03
311.578	25.7
311.792	17.93
312.007	25.48
312.221	34.81
312.435	26.26
312.649	13.53
312.864	39.79
313.078	50.94
313.292	77.41
313.507	69.37
313.721	90.57
313.935	44.34
314.149	35.75
314.363	24.86
314.578	21.72
314.792	23.69
315.006	8.57
315.22	23.23
315.434	18.69
315.648	30.49
315.862	43.43
316.077	45.44
316.291	32.16
316.505	46.89
316.719	49.24
316.933	6.52
317.147	1.22
317.361	-18.73
317.575	-45.1
317.789	-62.38
318.003	-82.74
318.217	-78.73
318.431	-3.91
318.645	22.01
318.859	20.49
319.073	28.55
319.287	35.38
319.5	1.86
319.714	-18.5
319.928	-21.77
320.142	-33.24
320.356	-2
320.57	13.39
320.784	13.21
320.997	-20.26
321.211	-26.93
321.425	-71.28
321.639	-81.04
321.853	-51.71
322.066	-14.26
322.28	-14.19
322.494	-6.06
322.707	19.18
322.921	35.01
323.135	34.06
323.349	39.74
323.562	31.08
323.776	21.35
323.989	9.33
324.203	-11
324.417	-7.61
324.63	-24.76
324.844	-24.32
325.057	-18.11
325.271	-5.33
325.485	15.98
325.698	42.18
325.912	50.1
326.125	32.74
326.339	32.47
326.552	13.2
326.766	5.37
326.979	22.74
327.193	60.75
327.406	52.54
327.619	38.23
327.833	41.46
328.046	7.18
328.26	-19.92
328.473	-17.31
328.686	-23.62
328.9	-19.91
329.113	10.71
329.326	0.62
329.54	32.86
329.753	34.7
329.966	6.53
330.179	-8.02
330.393	6.53
330.606	8.05
330.819	21.55
331.032	42.45
331.246	39.66
331.459	49.96
331.672	44.04
331.885	44.78
332.098	27.9
332.311	33.96
332.525	4.47
332.738	16.48
332.951	24.75
333.164	29.4
333.377	33.91
333.59	48
333.803	37.91
334.016	30.94
334.229	38.39
334.442	29.63
334.655	25.55
334.868	32.16
335.081	22.92
335.294	31.14
335.507	42.31
335.72	49.13
335.933	37.48
336.146	37.57
336.359	22.72
336.572	-11.08
336.785	-43.65
336.997	-23.43
337.21	2.69
337.423	8.45
337.636	27.52
337.849	34.99
338.062	16.33
338.274	8.67
338.487	1.78
338.7	-0.5
338.913	-20.04
339.125	-27.5
339.338	-59.33
339.551	-53.86
339.763	-53.59
339.976	-21.87
340.189	-0.5
340.402	13.58
340.614	14.08
340.827	16.7
341.039	9.14
341.252	26.14
341.465	36.62
341.677	34.76
341.89	32.41
342.102	35.18
342.315	-1.4
342.527	-38.59
342.74	-29.92
342.952	-26.15
343.165	-25.44
343.377	10.32
343.59	18.78
343.802	30.81
344.015	34.07
344.227	46.99
344.44	35.89
344.652	33.98
344.864	20.15
345.077	42.04
345.289	35.05
345.502	28.3
345.714	26.19
345.926	19.14
346.139	1.64
346.351	0.35
346.563	9.74
346.775	6.73
346.988	12.52
347.2	10.04
347.412	-8.49
347.624	-4.2
347.837	-4.4
348.049	19.61
348.261	17.94
348.473	17.24
348.685	25.55
348.897	20.17
349.11	11.91
349.322	31.71
349.534	47.86
349.746	25.51
349.958	37.25
350.17	31.65
350.382	27.44
350.594	17.25
350.806	21.37
351.018	25.91
351.23	19.47
351.442	-10.32
351.654	-2.83
351.866	10.74
352.078	9.89
352.29	24.46
352.502	29.32
352.714	52.2
352.926	39.13
353.138	29.02
353.35	18.44
353.561	26.89
353.773	-7.09
353.985	5.49
354.197	9.32
354.409	11.54
354.621	16.65
354.832	26.06
355.044	24.78
355.256	20.35
355.468	22.4
355.679	0.57
355.891	3.84
356.103	-8.59
356.314	8.4
356.526	8.61
356.738	28.09
356.949	21.04
357.161	43.99
357.373	21.19
357.584	22.31
357.796	29.92
358.008	32.62
358.219	41.03
358.431	44.29
358.642	44.14
358.854	29.66
359.065	24.3
359.277	-12.87
359.488	-24.72
359.7	-28.93
359.911	-21.2
360.123	-14.24
360.334	-8.75
360.546	5.77
360.757	-0.28
360.969	4.81
361.18	4.36
361.391	10.7
361.603	-8.17
361.814	-5.6
362.025	-5.58
362.237	-12.36
362.448	-8.12
362.659	1.08
362.871	0.07
363.082	-6.34
363.293	-3.04
363.504	-9.79
363.716	-11.47
363.927	-17.12
364.138	-14.62
364.349	-15.36
364.56	-18.03
364.772	-8.41
364.983	7.78
365.194	2.04
365.405	17.68
365.616	21.94
365.827	19.2
366.038	1.64
366.25	-2.36
366.461	-27.67
366.672	10.16
366.883	11.46
367.094	18.21
367.305	24.37
367.516	26.92
367.727	-0.48
367.938	1.85
368.149	-1.55
368.36	-0.48
368.571	7.08
368.781	6.34
368.992	-0.86
369.203	-7.22
369.414	-15.16
369.625	-23.94
369.836	-8.5
370.047	-27.77
370.258	-16.98
370.468	-7.97
370.679	-18.28
370.89	-27.98
371.101	-15.22
371.312	-19.46
371.522	-22.95
371.733	-19.8
371.944	-7.03
372.155	-1.93
372.365	0.97
372.576	1.91
372.787	-0.47
372.997	-18.32
373.208	-16.6
373.419	-1.34
373.629	-21.15
373.84	-10.98
374.05	-10.09
374.261	-4.31
374.472	-15.17
374.682	18.49
374.893	25.59
375.103	39.98
375.314	37.5
375.524	23.93
375.735	15.79
375.945	20.21
376.156	6.01
376.366	6.47
376.577	17.87
376.787	16.79
376.997	2.71
377.208	9.99
377.418	14.91
377.629	17.21
377.839	14.97
378.049	24.62
378.26	32.47
378.47	27.6
378.68	14.57
378.89	17.04
379.101	5.49
379.311	-26.34
379.521	-46.8
379.732	-31.01
379.942	-36.8
380.152	-32.93
380.362	-5.93
380.572	4.72
380.783	11.21
380.993	12.23
381.203	17.7
381.413	21.97
381.623	23.66
381.833	16.79
382.043	18.53
382.253	13.51
382.463	16.95
382.674	2.26
382.884	-6.41
383.094	-2.12
383.304	4.01
383.514	-1.51
383.724	8.1
383.934	10.86
384.144	-3.2
384.353	-11.6
384.563	-13.55
384.773	-1.55
384.983	-3.01
385.193	11.74
385.403	17.48
385.613	20.45
385.823	4.68
386.033	5.83
386.242	1.09
386.452	-1.81
386.662	-6.15
386.872	5.09
387.082	4.97
387.291	-0.26
387.501	-6.4
387.711	0.48
387.921	-2.78
388.13	-2.67
388.34	6.79
388.55	6.97
388.759	1.26
388.969	6.55
389.179	6.76
389.388	3.77
389.598	10.88
389.807	10.57
390.017	1.84
390.227	1.72
390.436	2.25
390.646	-2.83
390.855	-2.69
391.065	-1.51
391.274	-2.71
391.484	-5.88
391.693	-3.21
391.903	0.52
392.112	6.57
392.322	8.03
392.531	12.13
392.74	11.31
392.95	5.85
393.159	3.57
393.369	2.45
393.578	2.17
393.787	1.97
393.997	4.25
394.206	2.52
394.415	3.98
394.625	2.24
394.834	1.65
395.043	2.56
395.252	4.82
395.462	4.76
395.671	5.17
395.88	4.81
396.089	5.14
396.298	3.19
396.508	2.54
396.717	2.15
396.926	2.48
397.135	1.49
397.344	1.75
397.553	2.71
397.762	3.8
397.971	4.01
398.181	4.39
398.39	3.93
398.599	4.04
398.808	3.87
399.017	4.31
399.226	5.1
399.435	5.89
399.644	5.72
399.853	4.84
400.062	4.44
400.27	3.93
400.479	3.5
400.688	2.93
400.897	3.3
401.106	3.48
401.315	3.74
401.524	3.9
401.733	4.37
401.941	4.42
402.15	4.29
402.359	3.82
402.568	3.69
402.777	3.55
402.985	3.21
403.194	3.16
403.403	3.24
403.612	3.19
403.82	2.95
404.029	3.26
404.238	3.36
404.446	3.47
404.655	3.22
404.864	3.3
405.072	3.2
405.281	3.17
405.489	3.18
405.698	3.38
405.906	3.39
406.115	3.24
406.324	3.19
406.532	3.28
406.741	3.44
406.949	3.51
407.158	3.62
407.366	3.63
407.574	3.52
407.783	3.44
407.991	3.3
408.2	3.34
408.408	3.35
408.617	3.35
408.825	3.31
409.033	3.42
409.242	3.42
409.45	3.48
409.658	3.45
409.867	3.62
410.075	3.54
410.283	3.47
410.491	3.27
410.7	3.17
410.908	2.97
411.116	3.17
411.324	3.18
411.533	3.14
411.741	3.28
411.949	3.27
412.157	2.93
412.365	2.93
412.573	3
412.781	2.99
412.99	2.95
413.198	3.14
413.406	3.22
413.614	3.13
413.822	3
414.03	2.9
414.238	2.7
414.446	2.64
414.654	2.73
414.862	2.9
415.07	2.95
415.278	3.2
415.486	3.12
415.694	3.16
415.902	2.92
416.109	3.02
416.317	2.86
416.525	2.8
416.733	2.79
416.941	2.93
417.149	2.89
417.357	2.98
417.564	3.01
417.772	3.11
417.98	3.03
418.188	3.01
418.395	2.99
418.603	3.21
418.811	2.85
419.019	2.84
419.226	2.92
419.434	2.95
419.642	2.79
419.849	2.98
420.057	2.95
420.265	2.86
420.472	2.73
420.68	2.68
420.887	2.74
421.095	2.77
421.302	2.94
421.51	3.03
421.717	3.12
421.925	2.95
422.132	2.88
422.34	2.61
422.547	2.62
422.755	2.54
422.962	2.54
423.17	2.53
423.377	2.66
423.585	2.7
423.792	2.65
423.999	2.72
424.207	2.74
424.414	2.7
424.621	2.45
424.829	2.45
425.036	2.42
425.243	2.6
425.451	2.52
425.658	2.6
425.865	2.65
426.072	2.72
426.28	2.64
426.487	2.58
426.694	2.58
426.901	2.54
427.108	2.49
427.315	2.4
427.523	2.62
427.73	2.62
427.937	2.57
428.144	2.43
428.351	2.44
428.558	2.54
428.765	2.34
428.972	2.38
429.179	2.57
429.386	2.83
429.593	2.62
429.8	2.74
430.007	2.85
430.214	2.87
430.421	2.64
430.628	2.55
430.835	2.47
431.042	2.45
431.249	2.5
431.456	2.52
431.662	2.63
431.869	2.79
432.076	2.8
432.283	2.82
432.49	2.86
432.697	2.88
432.903	2.7
433.11	2.62
433.317	2.64
433.524	2.66
433.73	2.68
433.937	2.94
434.144	2.98
434.35	2.84
434.557	2.69
434.764	2.67
434.97	2.52
435.177	2.55
435.384	2.67
435.59	2.83
435.797	2.91
436.003	2.96
436.21	3
436.416	3.06
436.623	3.07
436.829	3.19
437.036	3.36
437.242	3.4
437.449	3.38
437.655	3.43
437.862	3.29
438.068	3.2
438.275	3.35
438.481	3.5
438.687	3.43
438.894	3.44
439.1	3.5
439.307	3.45
439.513	3.29
439.719	3.3
439.926	3.42
440.132	3.35
440.338	3.24
440.544	3.43
440.751	3.45
440.957	3.44
441.163	3.37
441.369	3.52
441.575	3.28
441.782	3.31
441.988	3.28
442.194	3.39
442.4	3.31
442.606	3.53
442.812	3.55
443.018	3.57
443.224	3.62
443.431	3.63
443.637	3.49
443.843	3.41
444.049	3.4
444.255	3.38
444.461	3.44
444.667	3.46
444.873	3.62
445.079	3.7
445.284	3.85
445.49	3.72
445.696	3.65
445.902	3.54
446.108	3.56
446.314	3.38
446.52	3.46
446.726	3.71
446.931	3.75
447.137	3.71
447.343	3.77
447.549	3.73
447.755	3.59
447.96	3.54
448.166	3.49
448.372	3.41
448.578	3.47
448.783	3.48
448.989	3.63
449.195	3.66
449.4	3.74
449.606	3.69
449.812	3.66
450.017	3.59
450.223	3.71
450.428	3.66
450.634	3.82
450.84	3.81
451.045	3.83
451.251	3.74
451.456	4.01
451.662	3.98
451.867	4.1
452.073	4.11
452.278	4.07
452.483	3.95
452.689	3.89
452.894	3.86
453.1	3.87
453.305	3.92
453.51	3.93
453.716	3.96
453.921	3.97
454.127	3.87
454.332	3.89
454.537	3.83
454.742	3.78
454.948	3.7
455.153	3.85
455.358	3.86
455.563	4.02
455.769	4.12
455.974	4.13
456.179	4.07
456.384	3.99
456.589	3.88
456.795	3.75
457	3.8
457.205	3.86
457.41	3.97
457.615	3.95
457.82	4
458.025	3.87
458.23	3.86
458.435	3.76
458.64	3.75
458.845	3.86
459.05	4.04
459.255	4.09
459.46	4.13
459.665	4.18
459.87	4.18
460.075	4.17
460.28	4.21
460.485	4.24
460.69	4.26
460.895	4.19
461.099	4.18
461.304	4.13
461.509	4.16
461.714	4.05
461.919	4.13
462.123	3.99
462.328	4.01
462.533	3.99
462.738	4.09
462.942	4.06
463.147	4.2
463.352	4.23
463.556	4.22
463.761	4.21
463.966	4.19
464.17	4.27
464.375	4.2
464.58	4.23
464.784	4.21
464.989	4.29
465.193	4.19
465.398	4.27
465.602	4.31
465.807	4.33
466.011	4.41
466.216	4.41
466.42	4.43
466.625	4.49
466.829	4.57
