Data from Ofra_1a_PS_4HS13_Reflection_1.txt Node
Date: Tue Jul 20 10:56:22 EDT 2021
User: Adam
Spectrometer: FLMT01687
Trigger mode: 0
Integration Time (sec): 1.004000E0
Scans to average: 2
Electric dark correction enabled: true
Nonlinearity correction enabled: false
Boxcar width: 2
XAxis mode: Wavelengths
Number of Pixels in Spectrum: 3648
>>>>>Begin Spectral Data<<<<<
179.494	-558.38
179.716	-601.53
179.937	1088.96
180.158	-1347.77
180.38	141.7
180.601	-67.48
180.823	-167.53
181.044	-273.03
181.265	-368.5
181.486	219.12
181.708	-13.46
181.929	14109.09
182.15	-205.36
182.372	817.73
182.593	372.14
182.814	-186.08
183.035	-25.87
183.257	14.68
183.478	22.05
183.699	-0.39
183.92	-52.84
184.141	-33.68
184.363	-28.75
184.584	-26.98
184.805	23.89
185.026	78.5
185.247	71.62
185.468	55.3
185.689	48.8
185.91	16.2
186.132	-0.38
186.353	4.11
186.574	12.99
186.795	14.99
187.016	33.03
187.237	41.99
187.458	36.87
187.679	33.43
187.9	49.16
188.121	59.73
188.342	61.14
188.563	75.71
188.784	85.17
189.005	59.14
189.226	63.69
189.447	47.73
189.667	33.39
189.888	0.75
190.109	1.47
190.33	-20.78
190.551	-10.44
190.772	3.28
190.993	5.47
191.214	-5.46
191.434	-10.88
191.655	52.63
191.876	30.19
192.097	61.31
192.318	77.87
192.538	49.89
192.759	25.27
192.98	38.31
193.201	27.05
193.421	23.54
193.642	40.16
193.863	42.68
194.083	32.61
194.304	29.9
194.525	17.38
194.745	-6.8
194.966	1.03
195.187	-2.7
195.407	-9.06
195.628	-9.54
195.848	12.33
196.069	-17.68
196.29	-11.9
196.51	-3.24
196.731	-6.39
196.951	-35.35
197.172	-8.7
197.392	-19.15
197.613	4.66
197.833	-21.4
198.054	-3.92
198.274	0.36
198.495	15.83
198.715	-11.42
198.936	26.81
199.156	38.7
199.377	29.9
199.597	33.53
199.817	40.51
200.038	34.47
200.258	37.12
200.479	57.5
200.699	40.75
200.919	30.39
201.14	39.71
201.36	27.25
201.58	-10.91
201.801	-21.42
202.021	5.66
202.241	-26.94
202.461	-34.77
202.682	0.69
202.902	18.38
203.122	24.71
203.342	35.68
203.563	20.78
203.783	6.43
204.003	-16.62
204.223	-18.89
204.443	-11.08
204.663	-26.89
204.884	-4.76
205.104	15.9
205.324	38.35
205.544	4.09
205.764	48.83
205.984	41.04
206.204	55.45
206.424	33.79
206.644	41.19
206.864	-10.33
207.084	1.65
207.304	-5.45
207.525	6.02
207.745	13.81
207.964	42.78
208.184	43.63
208.404	27.51
208.624	31.87
208.844	35.61
209.064	40.64
209.284	28.53
209.504	13.06
209.724	-4.72
209.944	-17.55
210.164	-37.15
210.384	-27.48
210.604	-47.77
210.823	-49.73
211.043	-31.68
211.263	-86.56
211.483	-44.91
211.703	1.45
211.922	10.22
212.142	27.68
212.362	46.48
212.582	51.07
212.801	53.62
213.021	50.84
213.241	21.58
213.461	19.78
213.68	10.98
213.9	-1.75
214.12	-1.16
214.339	13.89
214.559	29.82
214.779	45.45
214.998	57.15
215.218	48.32
215.438	53.82
215.657	50.57
215.877	46.22
216.096	61.11
216.316	52.4
216.535	44.72
216.755	31.35
216.974	13.78
217.194	-11.95
217.413	3.18
217.633	0.58
217.852	0.87
218.072	8.38
218.291	4.07
218.511	-9.87
218.73	-24.21
218.95	-48.37
219.169	-39.49
219.389	-18.33
219.608	0.44
219.827	13.53
220.047	35.78
220.266	39.53
220.485	15.84
220.705	33.53
220.924	6.69
221.143	13.58
221.363	-2.04
221.582	13.85
221.801	16.84
222.021	35.78
222.24	37.7
222.459	67.63
222.678	50.6
222.897	35.41
223.117	47.29
223.336	50.24
223.555	51.09
223.774	111.18
223.993	109.57
224.213	94.77
224.432	62.41
224.651	32.3
224.87	12.3
225.089	2.69
225.308	1.93
225.527	9.7
225.746	14.12
225.965	-1.7
226.184	-3.23
226.404	-1.29
226.623	15.03
226.842	22.89
227.061	42.72
227.28	52.15
227.499	59.59
227.718	51.95
227.936	44.53
228.155	38.89
228.374	33.12
228.593	27.39
228.812	32.61
229.031	36.03
229.25	25.06
229.469	28.98
229.688	38.09
229.907	23.56
230.125	24.31
230.344	27.09
230.563	43.23
230.782	46.93
231.001	61.9
231.22	61.1
231.438	90.62
231.657	59.17
231.876	42.09
232.095	42.7
232.313	33.08
232.532	14.32
232.751	-7.18
232.969	-8.64
233.188	-13.24
233.407	-6.92
233.625	-4.96
233.844	17.42
234.063	18.93
234.281	22.73
234.5	28.71
234.719	21.81
234.937	6.14
235.156	5.13
235.374	10.51
235.593	34.18
235.811	49.52
236.03	38.85
236.249	46.87
236.467	47.15
236.686	32.83
236.904	32.69
237.123	46.09
237.341	29.18
237.559	18.1
237.778	29.48
237.996	-28.95
238.215	-81.66
238.433	-87.86
238.652	-30.22
238.87	-49.8
239.088	-15.41
239.307	3.37
239.525	10.42
239.743	5.39
239.962	4.71
240.18	19.54
240.398	27.52
240.617	23.8
240.835	32.08
241.053	28.53
241.271	30.17
241.49	41.6
241.708	38.19
241.926	32.96
242.144	51.23
242.363	49.76
242.581	19.46
242.799	29.46
243.017	22.37
243.235	12.79
243.453	7.13
243.672	31.55
243.89	21.82
244.108	37.39
244.326	43.57
244.544	38.02
244.762	22.23
244.98	25.02
245.198	12.42
245.416	-5.85
245.634	0.89
245.852	-5.68
246.07	13.94
246.288	16.72
246.506	30.55
246.724	28.45
246.942	32.81
247.16	21.14
247.378	15.12
247.596	33.99
247.814	2.73
248.032	12.05
248.25	40.83
248.468	45.61
248.685	41.6
248.903	52.24
249.121	45.35
249.339	32.08
249.557	30.77
249.775	20.01
249.992	17.61
250.21	18.08
250.428	27.03
250.646	22.36
250.863	6.99
251.081	16.93
251.299	20.36
251.517	25.74
251.734	22.8
251.952	35.36
252.17	20.82
252.387	9.28
252.605	-5.79
252.823	-19.09
253.04	-4.04
253.258	12.03
253.475	19.45
253.693	33.06
253.911	46.03
254.128	30.65
254.346	23.96
254.563	35.39
254.781	31.17
254.998	14.85
255.216	14.49
255.433	-5.83
255.651	-24.89
255.868	-30.37
256.086	-5.15
256.303	-0.55
256.521	13.89
256.738	10.12
256.956	2.46
257.173	-12.81
257.39	-6.91
257.608	-10.05
257.825	0.1
258.043	11.59
258.26	10.65
258.477	13.04
258.695	15.58
258.912	6.48
259.129	-8.21
259.346	-25.66
259.564	-32.85
259.781	-36.01
259.998	-22.93
260.216	2.6
260.433	12.28
260.65	6.51
260.867	1.85
261.084	5.4
261.302	-19.8
261.519	-26.75
261.736	-29.43
261.953	-21.47
262.17	3.45
262.387	7.88
262.604	10.33
262.822	18.59
263.039	28.21
263.256	15.98
263.473	12.88
263.69	23.51
263.907	29.55
264.124	15.85
264.341	29.07
264.558	23.08
264.775	18.93
264.992	16.11
265.209	20.58
265.426	-5.6
265.643	18.28
265.86	-3.29
266.077	-19.17
266.294	-18.03
266.51	13.89
266.727	-0.45
266.944	19.86
267.161	26.51
267.378	38.07
267.595	18.42
267.812	21.34
268.028	2.43
268.245	7.05
268.462	-6.94
268.679	26.46
268.896	32.39
269.112	32.52
269.329	22.8
269.546	35.39
269.763	9.05
269.979	-6.37
270.196	15.35
270.413	16.46
270.629	-0.54
270.846	-0.62
271.063	22.7
271.279	12.25
271.496	11.18
271.712	21.99
271.929	28.61
272.146	34.92
272.362	43.46
272.579	37.32
272.795	50.6
273.012	51.57
273.228	42.72
273.445	27.39
273.661	28.13
273.878	9.16
274.094	2.59
274.311	-6.36
274.527	-30.75
274.744	-15.51
274.96	-8.36
275.177	9.26
275.393	29.26
275.609	38.01
275.826	30.33
276.042	30.86
276.259	21.29
276.475	-4.74
276.691	-11.01
276.908	-0.23
277.124	8.44
277.34	-6.58
277.557	-12.67
277.773	-12.09
277.989	-26
278.205	-25.06
278.422	-13.7
278.638	0.46
278.854	2.95
279.07	20.53
279.286	14.98
279.503	28.02
279.719	34.85
279.935	34.73
280.151	20.21
280.367	24.7
280.583	16.74
280.799	5.71
281.016	-13.12
281.232	0.75
281.448	11.18
281.664	0.11
281.88	8.65
282.096	21.22
282.312	22.41
282.528	26.87
282.744	34.56
282.96	10.74
283.176	-6
283.392	-31.16
283.608	-41.4
283.824	-44.21
284.04	-60.41
284.256	-24.43
284.471	-9.01
284.687	2.87
284.903	12.1
285.119	39.62
285.335	54.63
285.551	50.31
285.767	34.94
285.982	32.08
286.198	14.27
286.414	-30.26
286.63	12.32
286.846	31.74
287.061	32.17
287.277	24.79
287.493	35.47
287.709	26.29
287.924	31.88
288.14	41.63
288.356	46.3
288.571	41.29
288.787	27.21
289.003	33.1
289.218	4.39
289.434	0.32
289.65	24.74
289.865	30.43
290.081	29.17
290.296	38.88
290.512	31.96
290.727	20.3
290.943	25.49
291.159	28.17
291.374	13.57
291.59	33.13
291.805	13.43
292.021	5.95
292.236	-1.54
292.451	11.42
292.667	14.55
292.882	39
293.098	57.66
293.313	38.67
293.529	41.53
293.744	13.69
293.959	12.28
294.175	6.68
294.39	15.57
294.605	21.86
294.821	28.79
295.036	35.01
295.251	38
295.467	27.41
295.682	21.06
295.897	10.5
296.112	-3.78
296.328	-5.1
296.543	-5.63
296.758	-6.87
296.973	5.09
297.188	4.56
297.404	-33.71
297.619	-47.68
297.834	-55.21
298.049	-38.48
298.264	-35.79
298.479	-12.49
298.694	14.6
298.909	24.04
299.125	21.62
299.34	39.11
299.555	41.21
299.77	47.34
299.985	41.13
300.2	47.37
300.415	29.92
300.63	34.35
300.845	27.47
301.06	27.33
301.275	13.44
301.49	20.68
301.704	16.57
301.919	0.42
302.134	-0.94
302.349	3.79
302.564	13.13
302.779	10.15
302.994	28.44
303.209	33.96
303.423	34.06
303.638	36.38
303.853	24.12
304.068	-2.8
304.283	0.35
304.497	-15.04
304.712	-8.02
304.927	11.48
305.142	23.45
305.356	34.81
305.571	50.45
305.786	46.76
306	67.62
306.215	63.79
306.43	26.53
306.644	12.83
306.859	2.55
307.074	-7.26
307.288	3.06
307.503	17.62
307.717	11.23
307.932	27.32
308.147	17.43
308.361	22.39
308.576	6.67
308.79	11.78
309.005	-11.11
309.219	3.76
309.434	3.17
309.648	14.49
309.863	15.26
310.077	3.95
310.292	5.55
310.506	-14.58
310.72	-7.17
310.935	3.73
311.149	26.02
311.364	24.94
311.578	37.89
311.792	46.26
312.007	54.74
312.221	37.6
312.435	26.14
312.649	27.8
312.864	-19.45
313.078	-17.31
313.292	-25.32
313.507	-27.32
313.721	-29.88
313.935	8.84
314.149	6.78
314.363	23.62
314.578	32.3
314.792	31.06
315.006	-1.97
315.22	8.28
315.434	15.3
315.648	4.26
315.862	6.04
316.077	23.42
316.291	16.66
316.505	-10.36
316.719	-2.18
316.933	-2.11
317.147	-3.44
317.361	-5.07
317.575	6.46
317.789	13.91
318.003	17.42
318.217	27.81
318.431	30.66
318.645	28.44
318.859	22.99
319.073	26.66
319.287	25.55
319.5	27.83
319.714	17.63
319.928	12.88
320.142	12.54
320.356	8.08
320.57	-6.61
320.784	10.11
320.997	-9.14
321.211	-5.82
321.425	-27.59
321.639	-0.06
321.853	-0.5
322.066	3.66
322.28	-4.71
322.494	6.85
322.707	-4.75
322.921	-2.82
323.135	7.27
323.349	5.21
323.562	7.03
323.776	9.4
323.989	21.43
324.203	12.09
324.417	20.92
324.63	21.67
324.844	7.29
325.057	-13.7
325.271	5.74
325.485	12.18
325.698	15.44
325.912	38.38
326.125	24.53
326.339	26.72
326.552	20.85
326.766	23.22
326.979	8.41
327.193	17.61
327.406	-0.82
327.619	8.51
327.833	2.75
328.046	10.56
328.26	12.89
328.473	17.5
328.686	14.36
328.9	17.58
329.113	19.71
329.326	27.41
329.54	22.39
329.753	20.3
329.966	23.6
330.179	24.74
330.393	15.51
330.606	23.29
330.819	29.5
331.032	25.94
331.246	32.82
331.459	59.31
331.672	55.66
331.885	39.63
332.098	58.06
332.311	30.81
332.525	16.84
332.738	21.6
332.951	23.95
333.164	19.21
333.377	25.45
333.59	12.25
333.803	32.82
334.016	39.38
334.229	34.52
334.442	35.06
334.655	41.66
334.868	19.19
335.081	14.74
335.294	1.99
335.507	13.52
335.72	24.07
335.933	27.85
336.146	30.77
336.359	43.17
336.572	38.74
336.785	12.8
336.997	19.22
337.21	20.23
337.423	3.54
337.636	-11.18
337.849	6.07
338.062	8.03
338.274	18.24
338.487	7.2
338.7	9.02
338.913	21.02
339.125	11.79
339.338	-4.42
339.551	-1.37
339.763	-6.68
339.976	7.38
340.189	7.05
340.402	25.92
340.614	43.64
340.827	45.87
341.039	22
341.252	22.17
341.465	19.88
341.677	24.36
341.89	23.59
342.102	31.82
342.315	43.19
342.527	40.92
342.74	13.27
342.952	31.71
343.165	23.29
343.377	29.64
343.59	27.92
343.802	43.17
344.015	37.2
344.227	41.07
344.44	31.2
344.652	27.52
344.864	22.65
345.077	30.89
345.289	34.34
345.502	44.44
345.714	45.81
345.926	54.67
346.139	29.65
346.351	23.66
346.563	22.7
346.775	31.62
346.988	32.09
347.2	40.27
347.412	40.17
347.624	27.29
347.837	22.98
348.049	14.91
348.261	2.13
348.473	-5.45
348.685	-11.2
348.897	-17.09
349.11	-21.07
349.322	-12.71
349.534	-17.56
349.746	-16.64
349.958	-20.08
350.17	-26.92
350.382	-15.7
350.594	8.77
350.806	37.93
351.018	32.42
351.23	38.7
351.442	51.48
351.654	41.54
351.866	27.02
352.078	39
352.29	43.32
352.502	23.58
352.714	35.04
352.926	23.56
353.138	15.18
353.35	5.25
353.561	22.44
353.773	15.94
353.985	26.89
354.197	21.78
354.409	34.31
354.621	10.51
354.832	4.96
355.044	-4.79
355.256	10.4
355.468	-21.46
355.679	16.69
355.891	26.22
356.103	24.6
356.314	19.72
356.526	31.58
356.738	13.45
356.949	6.97
357.161	16.24
357.373	17.37
357.584	16.74
357.796	20.83
358.008	27.74
358.219	33.65
358.431	27.03
358.642	36.24
358.854	35.69
359.065	18.79
359.277	8.98
359.488	5.91
359.7	-0.54
359.911	-11.47
360.123	1.88
360.334	-5.06
360.546	-0.44
360.757	-6.88
360.969	-3.17
361.18	-6.78
361.391	9.76
361.603	13.21
361.814	25.85
362.025	30.5
362.237	31.08
362.448	18.24
362.659	18.31
362.871	3.96
363.082	4.26
363.293	-0.96
363.504	-11.82
363.716	-11.78
363.927	11.97
364.138	-1.75
364.349	-4.85
364.56	-0.65
364.772	4.22
364.983	5.81
365.194	13.23
365.405	22.85
365.616	33.66
365.827	16.03
366.038	18.45
366.25	23.34
366.461	14.19
366.672	14.98
366.883	24.86
367.094	7.66
367.305	-4.09
367.516	4.79
367.727	-2.91
367.938	0.39
368.149	11.56
368.36	3.52
368.571	-14.87
368.781	-23.41
368.992	-26.21
369.203	-18.59
369.414	-2.4
369.625	10.59
369.836	33.93
370.047	39.53
370.258	42.04
370.468	30.48
370.679	21.96
370.89	3.08
371.101	1.77
371.312	-15.27
371.522	-8.4
371.733	0.09
371.944	-3.38
372.155	-5.59
372.365	-4.81
372.576	-12.45
372.787	-19.85
372.997	-16.86
373.208	-10.79
373.419	-11.19
373.629	-13.66
373.84	-16.42
374.05	-7.11
374.261	-20.7
374.472	-3.4
374.682	3.59
374.893	3.42
375.103	7.99
375.314	13.22
375.524	4.9
375.735	14.37
375.945	25.55
376.156	16.51
376.366	20.18
376.577	23.97
376.787	17.5
376.997	15.7
377.208	19.38
377.418	16.25
377.629	16.72
377.839	16.68
378.049	13.73
378.26	-2
378.47	-2.63
378.68	6.86
378.89	12.23
379.101	12.02
379.311	16.06
379.521	9.84
379.732	7.87
379.942	-5.5
380.152	-12.04
380.362	-9.1
380.572	3.54
380.783	2.5
380.993	9.88
381.203	12.75
381.413	15.31
381.623	4.12
381.833	2.77
382.043	4.26
382.253	14.06
382.463	19.08
382.674	31.28
382.884	36.1
383.094	39.21
383.304	33.83
383.514	32.99
383.724	25.15
383.934	14.07
384.144	9.59
384.353	9.45
384.563	8.89
384.773	14.11
384.983	11.81
385.193	2.52
385.403	2.63
385.613	-0.24
385.823	-6.51
386.033	-0.17
386.242	3.67
386.452	-3.64
386.662	-0.74
386.872	8.95
387.082	5.47
387.291	3.87
387.501	7.26
387.711	9.02
387.921	6.17
388.13	8.9
388.34	12.86
388.55	13.9
388.759	9.9
388.969	4.09
389.179	2.48
389.388	3.48
389.598	0.72
389.807	-2.91
390.017	-0.54
390.227	-1.25
390.436	-1.67
390.646	0.22
390.855	3.73
391.065	4.42
391.274	4.18
391.484	3.34
391.693	2.66
391.903	3.55
392.112	4.4
392.322	1.69
392.531	1.57
392.74	0.36
392.95	-0.39
393.159	0.27
393.369	1.64
393.578	2.61
393.787	2.81
393.997	3.45
394.206	1.66
394.415	2.29
394.625	0.99
394.834	1.27
395.043	0.84
395.252	2.56
395.462	3.49
395.671	4.33
395.88	4.73
396.089	5.44
396.298	4.67
396.508	4.53
396.717	3.86
396.926	3.03
397.135	2.58
397.344	2.18
397.553	1.5
397.762	2.18
397.971	2.82
398.181	3.13
398.39	3.11
398.599	3.31
398.808	3.22
399.017	4.34
399.226	4.06
399.435	4.46
399.644	5.02
399.853	5.19
400.062	4.32
400.27	3.83
400.479	3.51
400.688	3.08
400.897	2.81
401.106	2.87
401.315	3.11
401.524	3.39
401.733	3.23
401.941	3.54
402.15	3.53
402.359	3.61
402.568	3.43
402.777	3.56
402.985	2.94
403.194	2.99
403.403	3.22
403.612	3.15
403.82	2.98
404.029	3.14
404.238	3.08
404.446	3.03
404.655	3.24
404.864	3.55
405.072	3.59
405.281	3.61
405.489	3.39
405.698	3.25
405.906	3.05
406.115	3.03
406.324	2.98
406.532	3.07
406.741	3.12
406.949	3.2
407.158	3.36
407.366	3.37
407.574	3.55
407.783	3.51
407.991	3.39
408.2	3.45
408.408	3.4
408.617	3.09
408.825	3.01
409.033	3.1
409.242	2.94
409.45	2.85
409.658	2.93
409.867	2.97
410.075	2.92
410.283	2.85
410.491	2.77
410.7	2.77
410.908	2.83
411.116	2.91
411.324	2.82
411.533	2.87
411.741	2.94
411.949	2.91
412.157	2.75
412.365	2.93
412.573	3.02
412.781	2.88
412.99	2.82
413.198	2.88
413.406	2.94
413.614	2.98
413.822	3.16
414.03	3.21
414.238	3.18
414.446	3.21
414.654	3.09
414.862	2.99
415.07	2.89
415.278	2.88
415.486	2.59
415.694	2.61
415.902	2.49
416.109	2.51
416.317	2.58
416.525	2.59
416.733	2.5
416.941	2.62
417.149	2.57
417.357	2.6
417.564	2.7
417.772	2.77
417.98	2.71
418.188	2.81
418.395	2.44
418.603	2.34
418.811	2.25
419.019	2.33
419.226	2.36
419.434	2.71
419.642	2.69
419.849	2.77
420.057	2.57
420.265	2.46
420.472	2.29
420.68	2.26
420.887	2.28
421.095	2.48
421.302	2.42
421.51	2.39
421.717	2.45
421.925	2.48
422.132	2.39
422.34	2.32
422.547	2.3
422.755	2.31
422.962	2.35
423.17	2.29
423.377	2.35
423.585	2.49
423.792	2.59
423.999	2.42
424.207	2.31
424.414	2.32
424.621	2.27
424.829	2.22
425.036	2.25
425.243	2.4
425.451	2.51
425.658	2.53
425.865	2.62
426.072	2.61
426.28	2.61
426.487	2.49
426.694	2.45
426.901	2.32
427.108	2.2
427.315	2.12
427.523	2.05
427.73	2.1
427.937	1.88
428.144	1.95
428.351	2.05
428.558	2.2
428.765	2.07
428.972	2.34
429.179	2.21
429.386	2.2
429.593	2.05
429.8	2.06
430.007	2.01
430.214	2.22
430.421	2.26
430.628	2.36
430.835	2.33
431.042	2.28
431.249	2.19
431.456	2.15
431.662	2.22
431.869	2.39
432.076	2.33
432.283	2.47
432.49	2.41
432.697	2.35
432.903	2.22
433.11	2.36
433.317	2.4
433.524	2.44
433.73	2.42
433.937	2.53
434.144	2.28
434.35	2.04
434.557	2
434.764	2.05
434.97	1.91
435.177	2.17
435.384	2.31
435.59	2.27
435.797	2.28
436.003	2.51
436.21	2.42
436.416	2.43
436.623	2.49
436.829	2.47
437.036	2.21
437.242	2.22
437.449	2.06
437.655	2.12
437.862	2.09
438.068	2.17
438.275	2.24
438.481	2.39
438.687	2.28
438.894	2.42
439.1	2.39
439.307	2.51
439.513	2.54
439.719	2.68
439.926	2.58
440.132	2.69
440.338	2.53
440.544	2.5
440.751	2.41
440.957	2.54
441.163	2.39
441.369	2.41
441.575	2.34
441.782	2.4
441.988	2.25
442.194	2.31
442.4	2.28
442.606	2.45
442.812	2.35
443.018	2.37
443.224	2.45
443.431	2.49
443.637	2.41
443.843	2.51
444.049	2.64
444.255	2.6
444.461	2.54
444.667	2.52
444.873	2.49
445.079	2.37
445.284	2.37
445.49	2.42
445.696	2.41
445.902	2.41
446.108	2.44
446.314	2.39
446.52	2.52
446.726	2.57
446.931	2.47
447.137	2.46
447.343	2.53
447.549	2.46
447.755	2.39
447.96	2.42
448.166	2.41
448.372	2.37
448.578	2.27
448.783	2.39
448.989	2.42
449.195	2.52
449.4	2.62
449.606	2.65
449.812	2.52
450.017	2.59
450.223	2.46
450.428	2.37
450.634	2.41
450.84	2.46
451.045	2.43
451.251	2.47
451.456	2.51
451.662	2.49
451.867	2.49
452.073	2.46
452.278	2.43
452.483	2.38
452.689	2.41
452.894	2.48
453.1	2.5
453.305	2.45
453.51	2.53
453.716	2.48
453.921	2.48
454.127	2.45
454.332	2.56
454.537	2.5
454.742	2.5
454.948	2.45
455.153	2.46
455.358	2.41
455.563	2.46
455.769	2.41
455.974	2.47
456.179	2.45
456.384	2.42
456.589	2.39
456.795	2.5
457	2.36
457.205	2.32
457.41	2.34
457.615	2.31
457.82	2.31
458.025	2.33
458.23	2.37
458.435	2.38
458.64	2.4
458.845	2.31
459.05	2.35
459.255	2.35
459.46	2.36
459.665	2.35
459.87	2.34
460.075	2.38
460.28	2.42
460.485	2.46
460.69	2.44
460.895	2.51
461.099	2.36
461.304	2.22
461.509	2.14
461.714	2.15
461.919	2.1
462.123	2.18
462.328	2.24
462.533	2.2
462.738	2.2
462.942	2.22
463.147	2.21
463.352	2.31
463.556	2.41
463.761	2.38
463.966	2.37
464.17	2.45
464.375	2.47
464.58	2.4
464.784	2.41
464.989	2.42
465.193	2.41
465.398	2.39
465.602	2.53
465.807	2.56
466.011	2.5
466.216	2.41
466.42	2.39
466.625	2.36
466.829	2.3
467.034	2.44
467.238	2.57
467.443	2.62
467.647	2.61
467.851	2.72
468.056	2.66
