Data from Ofra_PS_T2_1A_4HS13_Reflection_1.txt Node
Date: Wed Jul 21 18:06:11 EDT 2021
User: Adam
Spectrometer: FLMT01687
Trigger mode: 0
Integration Time (sec): 1.100000E0
Scans to average: 2
Electric dark correction enabled: true
Nonlinearity correction enabled: false
Boxcar width: 2
XAxis mode: Wavelengths
Number of Pixels in Spectrum: 3648
>>>>>Begin Spectral Data<<<<<
179.494	466
179.716	539.76
179.937	501.92
180.158	542.87
180.38	929.69
180.601	415.75
180.823	168.67
181.044	110.66
181.265	98.9
181.486	19.17
181.708	49.77
181.929	-43.88
182.15	102.11
182.372	166.39
182.593	81.71
182.814	52.24
183.035	87.74
183.257	89.33
183.478	3.94
183.699	21.37
183.92	-18.21
184.141	-20.89
184.363	-110.59
184.584	-34.08
184.805	13.6
185.026	51.6
185.247	58.88
185.468	42.17
185.689	45.63
185.91	13.95
186.132	5.56
186.353	-6.07
186.574	57.26
186.795	36.25
187.016	-1.25
187.237	-15.65
187.458	-38.6
187.679	-66.33
187.9	-38.97
188.121	-30.82
188.342	-31.96
188.563	11.41
188.784	39.16
189.005	42.49
189.226	93
189.447	64.78
189.667	-130.83
189.888	-386.95
190.109	-1631.82
190.33	-982.9
190.551	-1462.39
190.772	-283.17
190.993	-210.38
191.214	-172.16
191.434	-94.13
191.655	-47.06
191.876	-107.55
192.097	-135.23
192.318	-152.97
192.538	-224.19
192.759	-107.78
192.98	-3.59
193.201	5.15
193.421	15.93
193.642	37.59
193.863	44.77
194.083	19.15
194.304	8.58
194.525	10.2
194.745	-19.77
194.966	-44.44
195.187	-69.06
195.407	-75.76
195.628	-123.56
195.848	-113.51
196.069	-128.62
196.29	-69.91
196.51	-78.03
196.731	-79.01
196.951	-93.48
197.172	-114
197.392	-146.47
197.613	-157.12
197.833	-175.61
198.054	-161.24
198.274	-92.14
198.495	-93.21
198.715	-62.48
198.936	-91.22
199.156	-45.33
199.377	-148.99
199.597	-114.99
199.817	-114.56
200.038	-43.87
200.258	-131.06
200.479	-47.79
200.699	-103.8
200.919	-32.8
201.14	-51.56
201.36	-51.73
201.58	-12.52
201.801	23.49
202.021	-10.41
202.241	-20.02
202.461	-23.88
202.682	-136.27
202.902	-224.93
203.122	-129.55
203.342	-91.63
203.563	-49.76
203.783	-8.6
204.003	-43.5
204.223	-44.08
204.443	10.69
204.663	3.32
204.884	26.39
205.104	61.23
205.324	54.05
205.544	24.76
205.764	44.64
205.984	33.39
206.204	32.03
206.424	14.91
206.644	-16.28
206.864	-7.61
207.084	-75.15
207.304	-58.01
207.525	-175.16
207.745	-74.2
207.964	-56.67
208.184	-88.83
208.404	-117.85
208.624	-99.2
208.844	-112.49
209.064	-421.54
209.284	-391.58
209.504	-212.66
209.724	-52.28
209.944	-19.88
210.164	17.45
210.384	32.11
210.604	31.52
210.823	-24.26
211.043	-53.67
211.263	-27.04
211.483	-36.54
211.703	-91.06
211.922	-42.03
212.142	24.94
212.362	22.36
212.582	17.53
212.801	32.04
213.021	-17.07
213.241	-54.94
213.461	-74.15
213.68	-98.05
213.9	-77.07
214.12	-30.06
214.339	-73.14
214.559	-68.44
214.779	-20.2
214.998	-17.69
215.218	-92.03
215.438	-61.91
215.657	-57.62
215.877	-70.13
216.096	-28.84
216.316	1.77
216.535	-0.66
216.755	-4.97
216.974	-43.47
217.194	-111.16
217.413	-98.13
217.633	-87.86
217.852	-187.62
218.072	-92.01
218.291	-41.13
218.511	-3.28
218.73	-32.26
218.95	-17.63
219.169	-25.98
219.389	-76.39
219.608	-65.6
219.827	-69.21
220.047	-65.29
220.266	-45.43
220.485	-34.11
220.705	-32.15
220.924	-16.61
221.143	8.66
221.363	-10.33
221.582	2.24
221.801	0.03
222.021	7.14
222.24	-60.27
222.459	-41.22
222.678	-58.86
222.897	-109.57
223.117	-164.99
223.336	-109.1
223.555	-48.39
223.774	-5.64
223.993	7.62
224.213	80.86
224.432	58.59
224.651	64.23
224.87	30.76
225.089	42.32
225.308	25.09
225.527	39.27
225.746	25.51
225.965	16.87
226.184	-6.09
226.404	6.97
226.623	-23.31
226.842	-3.69
227.061	31.19
227.28	28.85
227.499	10.61
227.718	27.03
227.936	14.35
228.155	16.34
228.374	12.71
228.593	26.27
228.812	30.34
229.031	16.33
229.25	-31.36
229.469	-24.78
229.688	-40.53
229.907	-23.5
230.125	-7.34
230.344	-1.61
230.563	-3.46
230.782	28.99
231.001	-31.58
231.22	-37.52
231.438	-7.75
231.657	-9.18
231.876	-34.69
232.095	8.14
232.313	11.19
232.532	-18.46
232.751	-18.85
232.969	-39.87
233.188	-110.6
233.407	-34.83
233.625	-25.32
233.844	-51.19
234.063	-23.31
234.281	2.46
234.5	-11.87
234.719	2.68
234.937	22.84
235.156	20.38
235.374	28.39
235.593	24.23
235.811	-4.06
236.03	-6.23
236.249	-32.56
236.467	-27.8
236.686	-1.82
236.904	17.54
237.123	-12.09
237.341	-8.18
237.559	-13.74
237.778	-40.6
237.996	-66.76
238.215	-23.84
238.433	-6.15
238.652	-4.77
238.87	-16.35
239.088	4.56
239.307	5.81
239.525	-13.83
239.743	-48.37
239.962	-24.78
240.18	-59.13
240.398	-100.34
240.617	-87.66
240.835	-51.31
241.053	-47.71
241.271	22.66
241.49	34.41
241.708	10.62
241.926	-17.65
242.144	-6.28
242.363	-78.54
242.581	-99.71
242.799	-47.84
243.017	-14
243.235	-27.01
243.453	-13.28
243.672	-8.24
243.89	-7.75
244.108	-31.55
244.326	-8.36
244.544	-17.64
244.762	-24.53
244.98	-17.71
245.198	9.38
245.416	-26.5
245.634	-18.94
245.852	-24.68
246.07	-48.51
246.288	-73.42
246.506	-105.37
246.724	-64.03
246.942	-52.68
247.16	-27.8
247.378	-12.64
247.596	11.71
247.814	-13.19
248.032	-35.34
248.25	-47.97
248.468	-26.62
248.685	-27.54
248.903	3.29
249.121	15.71
249.339	-5.35
249.557	-32.06
249.775	-16.99
249.992	-76.26
250.21	-79.28
250.428	-61.57
250.646	-86.27
250.863	-103.42
251.081	-69.62
251.299	-64.76
251.517	-38.19
251.734	-6.6
251.952	-11.27
252.17	-12.31
252.387	-3.23
252.605	-14.21
252.823	-18.47
253.04	-10.01
253.258	5.49
253.475	-2.19
253.693	25.35
253.911	35.22
254.128	50.25
254.346	45.47
254.563	18.76
254.781	-11.22
254.998	-43.03
255.216	-63.62
255.433	-34.35
255.651	6.76
255.868	27.87
256.086	51.69
256.303	32.94
256.521	6.22
256.738	-19.01
256.956	-39.24
257.173	-68.16
257.39	-65.31
257.608	-75.73
257.825	-12.24
258.043	7
258.26	18.4
258.477	54.95
258.695	47.82
258.912	-1.58
259.129	12.58
259.346	-15.45
259.564	-50
259.781	-60.82
259.998	-3.72
260.216	19.09
260.433	44.37
260.65	42.51
260.867	49.36
261.084	2.37
261.302	-33.32
261.519	-27.23
261.736	-64.48
261.953	-88.2
262.17	-46.32
262.387	-92.57
262.604	-117.89
262.822	-102.57
263.039	-62.38
263.256	-78.65
263.473	-18.41
263.69	-0.38
263.907	25.04
264.124	32.2
264.341	27.45
264.558	21.8
264.775	20.17
264.992	22.81
265.209	10
265.426	33.42
265.643	32.63
265.86	49.69
266.077	30.53
266.294	27.33
266.51	-31.23
266.727	-31.63
266.944	-36.89
267.161	-19.4
267.378	-19.42
267.595	16.08
267.812	-22.93
268.028	-55.59
268.245	-63.06
268.462	-63.25
268.679	-71.81
268.896	-0.49
269.112	18.39
269.329	12.86
269.546	20.78
269.763	11.25
269.979	-14.29
270.196	-24.52
270.413	-46.85
270.629	-78.08
270.846	-72.15
271.063	-59.43
271.279	-70.96
271.496	-62.4
271.712	-15.28
271.929	-8.3
272.146	-39.62
272.362	-25.32
272.579	-5.2
272.795	8.17
273.012	4.8
273.228	-0.19
273.445	-21.62
273.661	-35.74
273.878	-86.77
274.094	-66.29
274.311	-64.24
274.527	1.19
274.744	-2.06
274.96	7.19
275.177	14.56
275.393	33.73
275.609	19.41
275.826	40.05
276.042	33.78
276.259	4.74
276.475	21.28
276.691	24.4
276.908	3
277.124	18.91
277.34	28.82
277.557	5.18
277.773	-6.45
277.989	-7.73
278.205	-15.44
278.422	3.16
278.638	6.28
278.854	28.98
279.07	31.63
279.286	22.48
279.503	-4.31
279.719	-24.75
279.935	-62.98
280.151	-73.61
280.367	-53.14
280.583	-87.65
280.799	-64.39
281.016	-102.82
281.232	-50.47
281.448	-50.37
281.664	-3.58
281.88	-34.29
282.096	15.18
282.312	17.66
282.528	21.49
282.744	25.58
282.96	47.68
283.176	30.53
283.392	26.65
283.608	19.95
283.824	10.68
284.04	7.27
284.256	7.49
284.471	-9.1
284.687	-22.56
284.903	-12.29
285.119	31.21
285.335	8.47
285.551	21.16
285.767	11.59
285.982	-5.44
286.198	-74.23
286.414	-9.06
286.63	-4.63
286.846	21.52
287.061	-5.12
287.277	32.93
287.493	-9.36
287.709	1.72
287.924	-16.84
288.14	27.54
288.356	24.74
288.571	52.95
288.787	28.19
289.003	25.64
289.218	0.02
289.434	-50.39
289.65	-43.03
289.865	-49.69
290.081	-19.2
290.296	-21.22
290.512	14.04
290.727	-25.13
290.943	-6.37
291.159	-32.6
291.374	-27.6
291.59	-55.5
291.805	-35.5
292.021	-32.17
292.236	-17.68
292.451	-2.77
292.667	9.23
292.882	19.62
293.098	11.86
293.313	1.43
293.529	-18.16
293.744	-39.43
293.959	-54.15
294.175	-52.32
294.39	-26.08
294.605	-4.73
294.821	24.8
295.036	34.53
295.251	40.95
295.467	14.08
295.682	-8.14
295.897	-62.03
296.112	-80.2
296.328	-69.04
296.543	-75.5
296.758	-56.91
296.973	-23.03
297.188	33.97
297.404	5.2
297.619	-2.32
297.834	-27.24
298.049	-49.9
298.264	-102.57
298.479	-29.31
298.694	-20.32
298.909	18.13
299.125	26.47
299.34	36.71
299.555	-9.08
299.77	1.77
299.985	-55.08
300.2	-101.62
300.415	-122.99
300.63	-80.36
300.845	-68.04
301.06	-65.77
301.275	-28.53
301.49	-8.21
301.704	-11
301.919	-30.69
302.134	-32.09
302.349	-42.9
302.564	-110.92
302.779	-117.3
302.994	-124.53
303.209	-77.52
303.423	-24.8
303.638	38.18
303.853	-0.55
304.068	16.71
304.283	17.06
304.497	5.12
304.712	-3.02
304.927	3.81
305.142	2.5
305.356	1.26
305.571	-2.08
305.786	-19.09
306	-24.01
306.215	-23.48
306.43	-33.71
306.644	-8.84
306.859	43.96
307.074	32.66
307.288	-8.78
307.503	-4.04
307.717	-22.94
307.932	-44.15
308.147	-40.98
308.361	-31.58
308.576	-33.82
308.79	-77.52
309.005	-51.49
309.219	-48.89
309.434	-44
309.648	-44.67
309.863	-14.92
310.077	-18.64
310.292	-5.92
310.506	-3.6
310.72	4.43
310.935	-4.63
311.149	-9.73
311.364	3.75
311.578	19.79
311.792	15.61
312.007	35.06
312.221	21.57
312.435	19.28
312.649	2.88
312.864	27.07
313.078	31.21
313.292	101.24
313.507	83.74
313.721	123.81
313.935	46.89
314.149	36.07
314.363	27.94
314.578	31.86
314.792	27.26
315.006	22.48
315.22	36.58
315.434	31.86
315.648	30.45
315.862	24.96
316.077	26.16
316.291	-5.28
316.505	-6.5
316.719	-31.15
316.933	-65.94
317.147	-58.43
317.361	-93.49
317.575	-110.42
317.789	-148.27
318.003	-173.82
318.217	-141.82
318.431	-43.32
318.645	-5.2
318.859	7.45
319.073	23.73
319.287	6.2
319.5	-17.72
319.714	-51
319.928	-68.12
320.142	-85.81
320.356	-34.65
320.57	-19.19
320.784	-42.23
320.997	-51.7
321.211	-52.59
321.425	-103.29
321.639	-120.27
321.853	-43.42
322.066	-10.99
322.28	-8.99
322.494	-6.85
322.707	1.09
322.921	-17.61
323.135	-18.69
323.349	-4.25
323.562	-16.17
323.776	-27.04
323.989	-34.48
324.203	-80.02
324.417	-88.06
324.63	-98.78
324.844	-86.02
325.057	-70.73
325.271	-38.95
325.485	-17.75
325.698	9.98
325.912	27.81
326.125	1.94
326.339	14.25
326.552	0.23
326.766	-7.98
326.979	0.61
327.193	46.86
327.406	18.55
327.619	13.13
327.833	31.24
328.046	3.11
328.26	-41.57
328.473	-9.71
328.686	-28.65
328.9	-37.54
329.113	-23.58
329.326	-54.59
329.54	-48.05
329.753	-55.97
329.966	-85.83
330.179	-65.23
330.393	-24.15
330.606	-25.59
330.819	-13.24
331.032	3.65
331.246	4.88
331.459	23.31
331.672	22.27
331.885	21.15
332.098	1.85
332.311	-10.81
332.525	-49.2
332.738	-31.06
332.951	-6.72
333.164	13.72
333.377	18.93
333.59	42.36
333.803	26.5
334.016	19.26
334.229	7.54
334.442	14.41
334.655	-1.67
334.868	10.72
335.081	1.93
335.294	3.3
335.507	-8.18
335.72	-7.85
335.933	-18.75
336.146	-28.31
336.359	-30.59
336.572	-56.71
336.785	-79.73
336.997	-70.76
337.21	-44.89
337.423	-52.44
337.636	-49.91
337.849	-23.19
338.062	-32.06
338.274	-25.55
338.487	-26.44
338.7	-15.27
338.913	-55.71
339.125	-69.63
339.338	-133.7
339.551	-92.7
339.763	-53.43
339.976	-34.1
340.189	-17.94
340.402	10.28
340.614	2.79
340.827	-16.76
341.039	-17.87
341.252	-18.89
341.465	-7.5
341.677	-14.29
341.89	-43.39
342.102	-9.7
342.315	-15.31
342.527	-50.71
342.74	-56.13
342.952	-22.01
343.165	-49.66
343.377	-13.93
343.59	-20.52
343.802	2.22
344.015	4.33
344.227	15.72
344.44	10.24
344.652	25.79
344.864	9.53
345.077	29.22
345.289	23.96
345.502	15.72
345.714	6.89
345.926	13.36
346.139	-7.2
346.351	-1.91
346.563	8.39
346.775	16.44
346.988	-3.71
347.2	-14.83
347.412	-54.29
347.624	-82.23
347.837	-101.16
348.049	-58.68
348.261	-14.11
348.473	-9.66
348.685	-14.04
348.897	-10.1
349.11	-36.12
349.322	-67.76
349.534	-32.33
349.746	-9.82
349.958	-4.19
350.17	19
350.382	14.4
350.594	-6.73
350.806	-7
351.018	-7.67
351.23	-28.01
351.442	-62.39
351.654	-58.34
351.866	-42.42
352.078	-30.7
352.29	-4.22
352.502	18.65
352.714	32.56
352.926	21.12
353.138	31.21
353.35	17.79
353.561	21.3
353.773	4.13
353.985	-0.81
354.197	-28.15
354.409	-28.52
354.621	-32.7
354.832	-21.91
355.044	-17.16
355.256	-14.05
355.468	2.84
355.679	-10.86
355.891	-6.64
356.103	-30.7
356.314	-18.44
356.526	-31.33
356.738	-15.86
356.949	-42.25
357.161	-12.94
357.373	-17.53
357.584	-18.14
357.796	-14.35
358.008	-6.89
358.219	9.49
358.431	15.39
358.642	14.39
358.854	19.75
359.065	12.85
359.277	-20.09
359.488	-31.31
359.7	-45.8
359.911	-69.88
360.123	-47.74
360.334	-58.17
360.546	-84.64
360.757	-81.6
360.969	-50.98
361.18	-41.82
361.391	-17.51
361.603	-10.75
361.814	-1.44
362.025	-19.02
362.237	-39.18
362.448	-11.43
362.659	9.94
362.871	8.81
363.082	20.26
363.293	29.27
363.504	7.27
363.716	-18.63
363.927	-21.44
364.138	-53.54
364.349	-51.29
364.56	-52.22
364.772	-42.5
364.983	-17.33
365.194	-11.45
365.405	-2.56
365.616	11.14
365.827	15.85
366.038	-16.1
366.25	-24.05
366.461	-58.58
366.672	-34.46
366.883	-28.13
367.094	-11.77
367.305	-12.08
367.516	-6.23
367.727	-33.23
367.938	-32.83
368.149	-35.04
368.36	-13.86
368.571	-2.32
368.781	-8.48
368.992	-31.04
369.203	-42.55
369.414	-72.69
369.625	-85.15
369.836	-77.42
370.047	-82.82
370.258	-73.52
370.468	-64.59
370.679	-76.64
370.89	-80.07
371.101	-69.31
371.312	-65.78
371.522	-61.9
371.733	-47.4
371.944	-33.46
372.155	-5.85
372.365	-14.99
372.576	-19.17
372.787	-20.5
372.997	-38.94
373.208	-31.88
373.419	-5.75
373.629	-31.35
373.84	-22.42
374.05	-24.05
374.261	-35.63
374.472	-51.65
374.682	-10.2
374.893	-6.79
375.103	31.04
375.314	16.12
375.524	11.89
375.735	11.6
375.945	9.56
376.156	-16.18
376.366	-10.29
376.577	-6.49
376.787	-8.11
376.997	-6.77
377.208	-14.54
377.418	-22.88
377.629	-14.88
377.839	-16.75
378.049	-12.63
378.26	11.68
378.47	26.96
378.68	16.83
378.89	13.26
379.101	6.43
379.311	-22.51
379.521	-50.72
379.732	-44.16
379.942	-33.89
380.152	-46.32
380.362	-19.69
380.572	-22.43
380.783	-8.51
380.993	2.23
381.203	13.31
381.413	21.81
381.623	22.6
381.833	14.06
382.043	-1.24
382.253	-16.46
382.463	-15.32
382.674	-15.35
382.884	-30.46
383.094	-23.09
383.304	-4.39
383.514	0.1
383.724	5.67
383.934	14.2
384.144	2.12
384.353	-13.46
384.563	-27.81
384.773	-21.87
384.983	-40.39
385.193	-20.84
385.403	-12.05
385.613	-2.42
385.823	-16.17
386.033	-3.61
386.242	-12.95
386.452	-13.14
386.662	-23.12
386.872	-4.77
387.082	-7.78
387.291	-12.25
387.501	-14.56
387.711	-7.88
387.921	-17.82
388.13	-17.23
388.34	-5.3
388.55	-13.21
388.759	-14.81
388.969	-8.9
389.179	-11.18
389.388	-12.28
389.598	-1.43
389.807	-7.22
390.017	-11.61
390.227	-8.92
390.436	-11.63
390.646	-11.81
390.855	-5.49
391.065	-5.78
391.274	-7.63
391.484	-8.9
391.693	-7.23
391.903	-8.03
392.112	-1.06
392.322	2.32
392.531	7.01
392.74	8.21
392.95	6.65
393.159	1.02
393.369	0.12
393.578	-2.27
393.787	-5.89
393.997	-4.48
394.206	-3.2
394.415	-3.26
394.625	-3.26
394.834	-3.35
395.043	-1.91
395.252	-0.66
395.462	1.41
395.671	2.87
395.88	3.3
396.089	3.26
396.298	1.55
396.508	0.48
396.717	-0.78
396.926	-0.15
397.135	-0.87
397.344	-0.66
397.553	0.06
397.762	1.85
397.971	2.02
398.181	2.08
398.39	2.08
398.599	1.76
398.808	1.87
399.017	2.33
399.226	3.66
399.435	4.79
399.644	4.84
399.853	3.84
400.062	3.74
400.27	2.87
400.479	2.16
400.688	1.56
400.897	1.91
401.106	1.8
401.315	1.63
401.524	1.7
401.733	2.41
401.941	2.56
402.15	2.85
402.359	2.83
402.568	3.25
402.777	3.32
402.985	3.06
403.194	2.73
403.403	2.74
403.612	2.34
403.82	1.99
404.029	2.16
404.238	2.05
404.446	2.26
404.655	2.05
404.864	2.11
405.072	1.98
405.281	2.27
405.489	2.1
405.698	2.21
405.906	2.19
406.115	2.12
406.324	1.91
406.532	2.15
406.741	2.42
406.949	2.44
407.158	2.47
407.366	2.59
407.574	2.41
407.783	2.32
407.991	2.17
408.2	2.3
408.408	2.29
408.617	2.26
408.825	2.06
409.033	2.11
409.242	2.17
409.45	2.24
409.658	2.13
409.867	2.38
410.075	2.27
410.283	2.12
410.491	1.94
410.7	1.9
410.908	1.89
411.116	2.17
411.324	2.25
411.533	2.22
411.741	2.5
411.949	2.49
412.157	2.21
412.365	2.18
412.573	2.27
412.781	2.3
412.99	2.14
413.198	2.38
413.406	2.44
413.614	2.54
413.822	2.38
414.03	2.27
414.238	2.13
414.446	2.09
414.654	1.81
414.862	1.86
415.07	2.12
415.278	2.32
415.486	2.15
415.694	2.31
415.902	2.2
416.109	2.01
416.317	1.85
416.525	1.71
416.733	1.76
416.941	1.92
417.149	1.83
417.357	1.87
417.564	2.26
417.772	2.44
417.98	2.42
418.188	2.49
418.395	2.54
418.603	2.57
418.811	2.1
419.019	2.04
419.226	2.25
419.434	2.46
419.642	2.15
419.849	2.47
420.057	2.42
420.265	2.28
420.472	1.82
420.68	1.83
420.887	1.51
421.095	1.57
421.302	1.6
421.51	1.89
421.717	2.04
421.925	2.32
422.132	2.18
422.34	1.96
422.547	2.04
422.755	1.87
422.962	1.75
423.17	1.81
423.377	2.02
423.585	1.87
423.792	1.81
423.999	1.85
424.207	1.89
424.414	1.92
424.621	1.94
424.829	2.06
425.036	1.99
425.243	1.96
425.451	1.8
425.658	1.61
425.865	1.72
426.072	1.82
426.28	2
426.487	2.02
426.694	2.11
426.901	1.91
427.108	1.76
427.315	1.6
427.523	1.96
427.73	1.95
427.937	1.94
428.144	1.92
428.351	1.88
428.558	1.77
428.765	1.65
428.972	1.63
429.179	1.79
429.386	2.11
429.593	1.82
429.8	1.76
430.007	1.87
430.214	1.82
430.421	1.43
430.628	1.37
430.835	1.38
431.042	1.62
431.249	1.65
431.456	1.7
431.662	1.85
431.869	2
432.076	1.91
432.283	2.1
432.49	2.06
432.697	2.07
432.903	1.87
433.11	1.71
433.317	1.61
433.524	1.86
433.73	1.74
433.937	2.06
434.144	2.11
434.35	2.05
434.557	1.73
434.764	1.79
434.97	1.71
435.177	1.85
435.384	1.8
435.59	1.98
435.797	2.18
436.003	2.14
436.21	2.02
436.416	2.18
436.623	2.3
436.829	2.32
437.036	2.46
437.242	2.44
437.449	2.18
437.655	2.08
437.862	2.02
438.068	1.84
438.275	2.03
438.481	2.38
438.687	2.38
438.894	2.35
439.1	2.43
439.307	2.5
439.513	2.26
439.719	2.21
439.926	2.3
440.132	2.17
440.338	1.93
440.544	2.1
440.751	2.15
440.957	2.09
441.163	2.12
441.369	2.26
441.575	2
441.782	2.01
441.988	1.95
442.194	1.92
442.4	1.88
442.606	2.25
442.812	2.36
443.018	2.47
443.224	2.57
443.431	2.57
443.637	2.31
443.843	2.15
444.049	2.11
444.255	1.97
444.461	2.03
444.667	2.02
444.873	2.15
445.079	2.17
445.284	2.36
445.49	2.12
445.696	2.05
445.902	1.86
446.108	1.79
446.314	1.72
446.52	1.79
446.726	1.98
446.931	2.12
447.137	2.12
447.343	2.07
447.549	2.04
447.755	1.89
447.96	1.89
448.166	1.83
448.372	1.81
448.578	1.85
448.783	1.85
448.989	1.89
449.195	2.16
449.4	2.15
449.606	2.15
449.812	2.12
450.017	2.09
450.223	1.86
450.428	1.87
450.634	2.04
450.84	2.23
451.045	2.18
451.251	2.08
451.456	2.3
451.662	2.33
451.867	2.36
452.073	2.33
452.278	2.58
452.483	2.67
452.689	2.48
452.894	2.47
453.1	2.55
453.305	2.46
453.51	2.26
453.716	2.18
453.921	2.15
454.127	2.02
454.332	1.96
454.537	1.91
454.742	2.04
454.948	2.02
455.153	2.08
455.358	2.17
455.563	2.39
455.769	2.49
455.974	2.47
456.179	2.39
456.384	2.33
456.589	2.14
456.795	1.9
457	1.85
457.205	2.05
457.41	2.04
457.615	2.03
457.82	2.08
458.025	2.08
458.23	1.9
458.435	1.9
458.64	1.79
458.845	1.97
459.05	2
459.255	2.06
459.46	2.09
459.665	2.16
459.87	2.08
460.075	1.99
