Data from Ofra_2a_PS_OGT5C_Reflection_3.txt Node
Date: Tue Jul 20 09:30:54 EDT 2021
User: Adam
Spectrometer: FLMT01687
Trigger mode: 0
Integration Time (sec): 9.450000E-1
Scans to average: 3
Electric dark correction enabled: true
Nonlinearity correction enabled: false
Boxcar width: 3
XAxis mode: Wavelengths
Number of Pixels in Spectrum: 3648
>>>>>Begin Spectral Data<<<<<
179.494	362.13
179.716	189.35
179.937	198.35
180.158	730.08
180.38	-424.71
180.601	-25.37
180.823	-40.89
181.044	-132.37
181.265	-265.19
181.486	-95.85
181.708	-2318.48
181.929	-88.95
182.15	-318.75
182.372	-107.49
182.593	-170.8
182.814	672.31
183.035	491.22
183.257	208.42
183.478	101.17
183.699	109.23
183.92	74.86
184.141	70.7
184.363	58.64
184.584	48.02
184.805	59.3
185.026	81.52
185.247	49.25
185.468	37.39
185.689	39.21
185.91	39.71
186.132	43.07
186.353	15.36
186.574	18.29
186.795	4.79
187.016	4.37
187.237	-9.21
187.458	-32.99
187.679	-55
187.9	-19.63
188.121	-11.88
188.342	10.08
188.563	28.13
188.784	37.21
189.005	44.3
189.226	54.14
189.447	38.91
189.667	39.36
189.888	60.76
190.109	52.9
190.33	34.5
190.551	32.72
190.772	23.76
190.993	42.35
191.214	37.24
191.434	25.01
191.655	29.78
191.876	42.64
192.097	40.8
192.318	41.75
192.538	36.32
192.759	54.19
192.98	50.39
193.201	62.89
193.421	58.27
193.642	58.66
193.863	67.76
194.083	60.51
194.304	33.09
194.525	48.97
194.745	33.2
194.966	44.15
195.187	53.6
195.407	45.84
195.628	46.56
195.848	53.76
196.069	43.92
196.29	32.91
196.51	35.67
196.731	45.18
196.951	50.43
197.172	44.42
197.392	36.14
197.613	27.78
197.833	29.32
198.054	16.08
198.274	-14.44
198.495	-6.8
198.715	-2.38
198.936	1.91
199.156	18.93
199.377	24.43
199.597	30.97
199.817	53
200.038	41.17
200.258	35
200.479	22.04
200.699	26.57
200.919	9.29
201.14	16.66
201.36	9.27
201.58	7.03
201.801	11.73
202.021	21.41
202.241	11.7
202.461	30.63
202.682	30.26
202.902	24.64
203.122	23.56
203.342	32.82
203.563	37.19
203.783	41.13
204.003	38.75
204.223	36.98
204.443	35.29
204.663	38.99
204.884	28.14
205.104	16.96
205.324	18.35
205.544	13.78
205.764	10.3
205.984	20.85
206.204	11.84
206.424	22.34
206.644	25.03
206.864	21.53
207.084	33.07
207.304	38.56
207.525	35.9
207.745	53.07
207.964	64.22
208.184	50.58
208.404	46.08
208.624	30.81
208.844	17.42
209.064	22.21
209.284	20.21
209.504	14.49
209.724	0.47
209.944	-5.06
210.164	-0.35
210.384	16.73
210.604	3.15
210.823	-5.57
211.043	-20.33
211.263	12.86
211.483	30.7
211.703	38.8
211.922	29.91
212.142	43.84
212.362	47.34
212.582	55.28
212.801	45.92
213.021	42.92
213.241	38.3
213.461	47.92
213.68	43.61
213.9	48.69
214.12	44.87
214.339	52.05
214.559	53.13
214.779	52.66
214.998	39.24
215.218	42.9
215.438	48.53
215.657	50.61
215.877	43.36
216.096	43.09
216.316	46.19
216.535	46.8
216.755	22.84
216.974	13.98
217.194	16.41
217.413	23.42
217.633	22.39
217.852	14.91
218.072	19.22
218.291	43.44
218.511	38.56
218.73	36.43
218.95	31.62
219.169	41.1
219.389	43.99
219.608	49.44
219.827	36.28
220.047	38.29
220.266	44.66
220.485	48.35
220.705	31.65
220.924	37.33
221.143	34.42
221.363	42.64
221.582	42.02
221.801	31.5
222.021	33.43
222.24	34.09
222.459	22.29
222.678	13.34
222.897	20.59
223.117	21.47
223.336	20.13
223.555	5.13
223.774	13.1
223.993	13.26
224.213	16.83
224.432	13.22
224.651	1.91
224.87	16.24
225.089	22.9
225.308	26.48
225.527	28.84
225.746	41.38
225.965	34.53
226.184	39.88
226.404	25.5
226.623	35.52
226.842	24.73
227.061	27.83
227.28	28.88
227.499	36.77
227.718	32.34
227.936	33.76
228.155	26.6
228.374	34.14
228.593	25.07
228.812	17.75
229.031	7.12
229.25	23.82
229.469	34.05
229.688	38.61
229.907	36.03
230.125	48.08
230.344	50.57
230.563	54.67
230.782	44.25
231.001	39.86
231.22	32.54
231.438	33.02
231.657	34.72
231.876	28.83
232.095	22.16
232.313	24.9
232.532	21.57
232.751	35.23
232.969	30.16
233.188	32.93
233.407	30.49
233.625	36.96
233.844	45.9
234.063	43.05
234.281	29.53
234.5	27.75
234.719	22.29
234.937	26.24
235.156	18.42
235.374	6.7
235.593	3.39
235.811	1.96
236.03	-4.39
236.249	0.03
236.467	7.4
236.686	18.33
236.904	12.3
237.123	35.4
237.341	31.51
237.559	35.93
237.778	39.41
237.996	41.4
238.215	35.53
238.433	46.42
238.652	34.58
238.87	35.79
239.088	28.68
239.307	30.15
239.525	24.85
239.743	16.91
239.962	13.71
240.18	18.59
240.398	30.57
240.617	43.48
240.835	35.92
241.053	46.57
241.271	56.99
241.49	41.57
241.708	46.5
241.926	36.9
242.144	28.72
242.363	33.34
242.581	29.48
242.799	22.98
243.017	32.75
243.235	21.91
243.453	21.96
243.672	15.67
243.89	19.4
244.108	10.2
244.326	1.84
244.544	2.72
244.762	5.37
244.98	9.74
245.198	7.73
245.416	7.77
245.634	24.04
245.852	38.01
246.07	41.28
246.288	54.81
246.506	51.19
246.724	63.38
246.942	58.34
247.16	43.9
247.378	27.77
247.596	28.09
247.814	17.13
248.032	14.51
248.25	14.33
248.468	19.3
248.685	31.39
248.903	38.12
249.121	38.59
249.339	42.72
249.557	45.87
249.775	36.21
249.992	20.32
250.21	1.67
250.428	6.77
250.646	4.04
250.863	-0.53
251.081	-6.57
251.299	2.91
251.517	18.82
251.734	27.06
251.952	27.95
252.17	17.03
252.387	24.18
252.605	27.54
252.823	21.74
253.04	8.57
253.258	23.72
253.475	13.18
253.693	29.33
253.911	31.59
254.128	23.72
254.346	20.91
254.563	21.35
254.781	17.72
254.998	21.95
255.216	18.86
255.433	19.95
255.651	30.1
255.868	40.62
256.086	49.31
256.303	44.78
256.521	39.72
256.738	46.61
256.956	38.01
257.173	39.16
257.39	39.19
257.608	36.38
257.825	37.32
258.043	40.87
258.26	26.62
258.477	29.29
258.695	23.78
258.912	24.28
259.129	18.54
259.346	17.46
259.564	19.81
259.781	41.87
259.998	42.24
260.216	42.71
260.433	33.93
260.65	37.18
260.867	33.09
261.084	38.57
261.302	16.45
261.519	12.35
261.736	13.93
261.953	27.35
262.17	27.88
262.387	27.41
262.604	4.24
262.822	21.4
263.039	22.55
263.256	18.09
263.473	-1.3
263.69	-2.89
263.907	4.13
264.124	13.52
264.341	-2.01
264.558	1.5
264.775	8.85
264.992	19.18
265.209	28.59
265.426	23.33
265.643	22.53
265.86	22.25
266.077	23.01
266.294	18.89
266.51	13.9
266.727	-3.93
266.944	-50.19
267.161	-56.93
267.378	-52.77
267.595	-53.01
267.812	-57.73
268.028	-51.08
268.245	-43.53
268.462	12.31
268.679	7.35
268.896	1.17
269.112	16.81
269.329	25.16
269.546	27.39
269.763	29.98
269.979	22.98
270.196	36.36
270.413	39.33
270.629	25.31
270.846	23.28
271.063	19.4
271.279	19.6
271.496	10.49
271.712	5.57
271.929	10.74
272.146	13.43
272.362	-19.28
272.579	-12.53
272.795	-16.93
273.012	1.57
273.228	-0.4
273.445	-2.6
273.661	1.85
273.878	28.88
274.094	34.8
274.311	30.95
274.527	20.7
274.744	19.96
274.96	17.85
275.177	19.55
275.393	5.46
275.609	2.32
275.826	6.53
276.042	17.95
276.259	15.9
276.475	13.78
276.691	14.69
276.908	23.86
277.124	25.62
277.34	26.07
277.557	20.27
277.773	20.08
277.989	26.28
278.205	11.56
278.422	20.47
278.638	15.66
278.854	8.08
279.07	-4.11
279.286	-9.65
279.503	-16.99
279.719	7.51
279.935	-13.91
280.151	-1.66
280.367	0.02
280.583	11.41
280.799	27.56
281.016	33.16
281.232	23.13
281.448	36.39
281.664	29.53
281.88	41.26
282.096	37.25
282.312	20.66
282.528	8.93
282.744	8.84
282.96	10.22
283.176	9.86
283.392	17.11
283.608	16.6
283.824	18.3
284.04	29.77
284.256	34.57
284.471	31.9
284.687	33.75
284.903	25.66
285.119	27.12
285.335	30.64
285.551	34.7
285.767	30.77
285.982	22.7
286.198	21.27
286.414	29.2
286.63	31.12
286.846	27.4
287.061	29.08
287.277	38.21
287.493	43.18
287.709	37.62
287.924	30.35
288.14	33.06
288.356	34.32
288.571	18.12
288.787	16.66
289.003	13.18
289.218	20.26
289.434	22.12
289.65	21.6
289.865	27.87
290.081	27.72
290.296	29.17
290.512	36.65
290.727	37.41
290.943	33.34
291.159	27.65
291.374	26.31
291.59	23.26
291.805	14.15
292.021	3.63
292.236	7.43
292.451	16.33
292.667	17.21
292.882	9.29
293.098	18.84
293.313	16.63
293.529	21.98
293.744	24.82
293.959	28.24
294.175	31.03
294.39	41.29
294.605	38.19
294.821	39.03
295.036	44.41
295.251	34.64
295.467	18.19
295.682	20.88
295.897	20.63
296.112	21.56
296.328	23.94
296.543	9.93
296.758	3.91
296.973	1.73
297.188	-3.43
297.404	-0.24
297.619	-7.74
297.834	-4
298.049	5.12
298.264	10.09
298.479	12.18
298.694	12.25
298.909	7.21
299.125	12.23
299.34	11.14
299.555	13.92
299.77	15.83
299.985	12.04
300.2	17.68
300.415	19.18
300.63	16.41
300.845	16.27
301.06	18.3
301.275	20.04
301.49	30.51
301.704	22.64
301.919	16.25
302.134	19.54
302.349	17.66
302.564	11.98
302.779	11.97
302.994	-3.95
303.209	-2.31
303.423	11.58
303.638	10.11
303.853	8.1
304.068	16.2
304.283	16.25
304.497	20.98
304.712	27.6
304.927	25.12
305.142	22.59
305.356	26.86
305.571	28.14
305.786	26.01
306	34.72
306.215	33.9
306.43	36.41
306.644	36.01
306.859	34.08
307.074	34.12
307.288	42.59
307.503	35.98
307.717	34.6
307.932	27.19
308.147	23.01
308.361	29.92
308.576	22.67
308.79	11.04
309.005	11.84
309.219	18.15
309.434	24.03
309.648	17.15
309.863	11.23
310.077	9.96
310.292	14.55
310.506	20.46
310.72	15.66
310.935	8.23
311.149	23.31
311.364	26.64
311.578	34.42
311.792	34.93
312.007	36.45
312.221	31.88
312.435	34.04
312.649	48.62
312.864	40.23
313.078	30.56
313.292	35.25
313.507	30.53
313.721	34.59
313.935	47.36
314.149	39.17
314.363	54.46
314.578	55.7
314.792	50.07
315.006	44.28
315.22	45.89
315.434	36.73
315.648	21.05
315.862	8.45
316.077	7.23
316.291	9.16
316.505	13.71
316.719	-1.9
316.933	4.18
317.147	19.26
317.361	27.82
317.575	29.43
317.789	30.7
318.003	29.37
318.217	35.53
318.431	31.79
318.645	28.3
318.859	16.26
319.073	13.1
319.287	10.37
319.5	13.09
319.714	11.52
319.928	19.74
320.142	15.41
320.356	27.36
320.57	25.43
320.784	27.7
320.997	20.65
321.211	25.42
321.425	16.4
321.639	20.97
321.853	16.95
322.066	22.48
322.28	19.73
322.494	16.14
322.707	19.01
322.921	23.42
323.135	43.19
323.349	41.86
323.562	32.77
323.776	35.49
323.989	44.5
324.203	41.2
324.417	36.48
324.63	18.46
324.844	17.07
325.057	30.64
325.271	29.05
325.485	31.33
325.698	26.07
325.912	37.69
326.125	33.72
326.339	40.06
326.552	36.59
326.766	37.43
326.979	40.11
327.193	44.86
327.406	42.97
327.619	37.64
327.833	31.33
328.046	33.36
328.26	37.31
328.473	27.62
328.686	24.88
328.9	14.86
329.113	19.69
329.326	28.81
329.54	20.34
329.753	23.47
329.966	19.34
330.179	25.73
330.393	28.39
330.606	31.99
330.819	31.72
331.032	41.38
331.246	39.78
331.459	49.47
331.672	41.36
331.885	41.06
332.098	37.22
332.311	24.79
332.525	24.74
332.738	20.49
332.951	12.97
333.164	9.34
333.377	-2.77
333.59	7.3
333.803	13.53
334.016	4.77
334.229	19.49
334.442	32.41
334.655	38.66
334.868	47.93
335.081	46.84
335.294	34.24
335.507	36.06
335.72	22.75
335.933	17.9
336.146	20.86
336.359	15.84
336.572	13.88
336.785	26.1
336.997	21.46
337.21	31.29
337.423	27.38
337.636	24.24
337.849	23.14
338.062	27.65
338.274	27.41
338.487	23.89
338.7	25.26
338.913	27.07
339.125	26.62
339.338	37.41
339.551	30.89
339.763	30
339.976	30
340.189	22.54
340.402	18.92
340.614	16.21
340.827	-3.36
341.039	-1.57
341.252	-3.06
341.465	-0.95
341.677	-3.61
341.89	5
342.102	15.03
342.315	31.31
342.527	18.38
342.74	21.22
342.952	23.61
343.165	39.89
343.377	41.55
343.59	36.29
343.802	39.71
344.015	51.87
344.227	40.27
344.44	34.72
344.652	23.63
344.864	18.9
345.077	20.91
345.289	15.6
345.502	14.04
345.714	19.31
345.926	16.1
346.139	20.6
346.351	17.23
346.563	20.66
346.775	17.17
346.988	14.9
347.2	15.95
347.412	20.01
347.624	16.27
347.837	18.42
348.049	14.38
348.261	12.37
348.473	4.89
348.685	3.21
348.897	3.35
349.11	6.84
349.322	7.09
349.534	6.75
349.746	20.42
349.958	33.64
350.17	37.03
350.382	27.35
350.594	25.87
350.806	28.3
351.018	27.04
351.23	24.74
351.442	17.4
351.654	21.92
351.866	26.42
352.078	28.06
352.29	25.43
352.502	25.2
352.714	21.42
352.926	22.98
353.138	21.7
353.35	18.06
353.561	15.51
353.773	18.96
353.985	20.61
354.197	16.51
354.409	17.02
354.621	21.95
354.832	13.2
355.044	15.58
355.256	12.3
355.468	5.51
355.679	9.51
355.891	7.61
356.103	7.35
356.314	15.72
356.526	18.91
356.738	13.24
356.949	24.72
357.161	26.42
357.373	37.76
357.584	41.05
357.796	44.87
358.008	40.04
358.219	52.93
358.431	47.15
358.642	43.08
358.854	35.27
359.065	27.81
359.277	22.65
359.488	15.51
359.7	10.61
359.911	6.08
360.123	10.45
360.334	6.47
360.546	-4.02
360.757	6.17
360.969	18.62
361.18	11.16
361.391	17.49
361.603	17.15
361.814	19.39
362.025	28.88
362.237	24.85
362.448	18.35
362.659	8.55
362.871	11.51
363.082	12
363.293	16.39
363.504	17.57
363.716	12.97
363.927	15.14
364.138	29.12
364.349	25.34
364.56	24.03
364.772	22.81
364.983	19.36
365.194	18.84
365.405	18.54
365.616	1.19
365.827	3.66
366.038	11.41
366.25	12.63
366.461	18.14
366.672	17.74
366.883	19.63
367.094	27.18
367.305	19.64
367.516	18.93
367.727	17.49
367.938	14.65
368.149	22.12
368.36	21.49
368.571	21.07
368.781	24.69
368.992	24.57
369.203	23.98
369.414	20.19
369.625	17.93
369.836	15.8
370.047	14.29
370.258	13.09
370.468	9.89
370.679	15.34
370.89	31.4
371.101	31.9
371.312	31.19
371.522	35.79
371.733	30.85
371.944	31.08
372.155	24.4
372.365	9.97
372.576	2.18
372.787	-0.41
372.997	-3.45
373.208	3.42
373.419	-2.24
373.629	4.51
373.84	-0.92
374.05	11.24
374.261	11.79
374.472	9.41
374.682	2.08
374.893	-1
375.103	0.02
375.314	3.88
375.524	-2.2
375.735	-1.41
375.945	2.5
376.156	10.38
376.366	19.46
376.577	19.34
376.787	22.57
376.997	28.37
377.208	29.03
377.418	29.44
377.629	37.34
377.839	35.93
378.049	36.11
378.26	34.27
378.47	34.61
378.68	33.42
378.89	32.89
379.101	17.1
379.311	10.88
379.521	17.56
379.732	15.69
379.942	14.32
380.152	19.82
380.362	16.62
380.572	20.77
380.783	21.9
380.993	13.9
381.203	10.83
381.413	10.46
381.623	10.42
381.833	11.56
382.043	11.38
382.253	17.6
382.463	19.73
382.674	20.01
382.884	18.63
383.094	19.14
383.304	15.48
383.514	19.45
383.724	16.77
383.934	13.1
384.144	18.34
384.353	20.91
384.563	14.88
384.773	16.53
384.983	14.77
385.193	14.83
385.403	17.82
385.613	11.68
385.823	10.32
386.033	11.58
386.242	11.56
386.452	10.84
386.662	7.53
386.872	5.19
387.082	9.23
387.291	8.14
387.501	8.31
387.711	9.52
387.921	6.7
388.13	5.11
388.34	6.23
388.55	5.37
388.759	4.15
388.969	1.69
389.179	1.87
389.388	4.12
389.598	5.8
389.807	5.43
390.017	3.17
390.227	3.21
390.436	4.37
390.646	3.46
390.855	2.41
391.065	2.79
391.274	1.74
391.484	3.49
391.693	3.53
391.903	2.19
392.112	2.3
392.322	4.37
392.531	3.87
392.74	3.55
392.95	3.4
393.159	3.7
393.369	5.03
393.578	5.27
393.787	4.03
393.997	4.76
394.206	5.2
394.415	5.31
394.625	4.36
394.834	3.39
395.043	3.41
395.252	4.78
395.462	4.14
395.671	3.95
395.88	3.89
396.089	4.12
396.298	4.42
396.508	3.88
396.717	2.51
396.926	2.67
397.135	2.57
397.344	2.3
397.553	2.53
397.762	2.28
397.971	1.98
398.181	2.09
398.39	1.84
398.599	2.09
398.808	2.01
399.017	2.01
399.226	2.46
399.435	2.78
399.644	2.75
399.853	2.83
400.062	2.64
400.27	2.84
400.479	2.82
400.688	2.67
400.897	2.61
401.106	2.8
401.315	2.74
401.524	2.86
401.733	2.83
401.941	2.7
402.15	2.51
402.359	2.5
402.568	2.34
402.777	2.28
402.985	2.21
403.194	2.16
403.403	1.99
403.612	1.99
403.82	2.09
404.029	2.18
404.238	2.2
404.446	2.13
404.655	2.06
404.864	2.16
405.072	2.23
405.281	2.09
405.489	2.02
405.698	1.97
405.906	1.96
406.115	2.02
406.324	1.96
406.532	2.01
406.741	2.15
406.949	2.1
407.158	2.15
407.366	2.17
407.574	2.13
407.783	2.11
407.991	2.03
408.2	1.89
408.408	1.92
408.617	1.85
408.825	1.85
409.033	1.83
409.242	1.8
409.45	1.74
409.658	1.79
409.867	1.76
410.075	1.74
410.283	1.67
410.491	1.64
410.7	1.69
410.908	1.72
411.116	1.63
411.324	1.66
411.533	1.63
411.741	1.67
411.949	1.68
412.157	1.76
412.365	1.72
412.573	1.82
412.781	1.84
412.99	1.94
413.198	1.95
413.406	1.96
413.614	1.9
413.822	1.89
414.03	1.79
414.238	1.79
414.446	1.7
414.654	1.73
414.862	1.69
415.07	1.75
415.278	1.8
415.486	1.9
415.694	1.8
415.902	1.82
416.109	1.76
416.317	1.8
416.525	1.76
416.733	1.79
416.941	1.65
417.149	1.77
417.357	1.81
417.564	1.81
417.772	1.78
417.98	1.69
418.188	1.57
418.395	1.65
418.603	1.55
418.811	1.48
419.019	1.49
419.226	1.54
419.434	1.6
419.642	1.64
419.849	1.63
420.057	1.65
420.265	1.72
420.472	1.71
420.68	1.62
420.887	1.61
421.095	1.66
421.302	1.69
421.51	1.74
421.717	1.74
421.925	1.67
422.132	1.68
422.34	1.65
422.547	1.57
422.755	1.55
422.962	1.47
423.17	1.43
423.377	1.54
423.585	1.49
423.792	1.5
423.999	1.51
424.207	1.43
424.414	1.48
424.621	1.46
424.829	1.35
425.036	1.42
425.243	1.52
425.451	1.52
425.658	1.54
425.865	1.5
426.072	1.49
426.28	1.53
426.487	1.48
426.694	1.4
426.901	1.37
427.108	1.53
427.315	1.53
427.523	1.6
427.73	1.66
427.937	1.71
428.144	1.71
428.351	1.82
428.558	1.65
428.765	1.54
428.972	1.5
429.179	1.42
429.386	1.41
429.593	1.41
429.8	1.38
430.007	1.45
430.214	1.6
430.421	1.62
430.628	1.59
430.835	1.59
431.042	1.62
431.249	1.59
431.456	1.61
431.662	1.57
431.869	1.59
432.076	1.6
432.283	1.53
432.49	1.46
432.697	1.42
432.903	1.42
433.11	1.43
433.317	1.42
433.524	1.41
433.73	1.47
433.937	1.47
434.144	1.59
434.35	1.53
434.557	1.48
434.764	1.51
434.97	1.57
435.177	1.61
435.384	1.67
435.59	1.58
435.797	1.63
436.003	1.71
436.21	1.67
436.416	1.68
436.623	1.72
436.829	1.7
437.036	1.75
437.242	1.74
437.449	1.71
437.655	1.71
437.862	1.72
438.068	1.74
438.275	1.73
438.481	1.79
438.687	1.86
438.894	1.89
439.1	1.92
439.307	1.89
439.513	1.84
439.719	1.93
439.926	1.94
440.132	1.87
440.338	1.93
440.544	1.91
440.751	1.91
440.957	1.89
441.163	1.86
441.369	1.83
441.575	1.82
441.782	1.75
441.988	1.75
442.194	1.85
442.4	1.89
442.606	1.91
442.812	1.92
443.018	1.96
443.224	1.99
443.431	2
443.637	1.91
443.843	1.91
444.049	1.85
444.255	1.8
444.461	1.78
444.667	1.79
444.873	1.8
445.079	1.86
445.284	1.83
445.49	1.87
445.696	1.93
445.902	2.01
446.108	2
446.314	2.01
446.52	2
446.726	2.03
446.931	2.04
447.137	1.99
447.343	1.94
447.549	1.9
447.755	1.88
447.96	1.83
448.166	1.86
448.372	1.81
448.578	1.87
448.783	1.83
448.989	1.9
449.195	1.96
449.4	2.01
449.606	1.99
449.812	2.03
450.017	1.99
450.223	2.01
450.428	2.01
450.634	2
450.84	2.01
451.045	2.01
451.251	2.05
451.456	2.02
451.662	1.99
451.867	1.95
452.073	1.9
452.278	1.91
452.483	1.9
452.689	1.83
452.894	1.84
453.1	1.82
453.305	1.85
453.51	1.88
453.716	1.88
453.921	1.9
454.127	1.97
454.332	1.99
454.537	2.07
454.742	2.01
454.948	2.03
455.153	1.99
455.358	2.01
455.563	2.02
455.769	2.01
455.974	2
456.179	2.04
456.384	2.02
456.589	2.11
456.795	2.04
457	2.02
457.205	1.98
457.41	2.01
457.615	2.04
457.82	2.1
458.025	2.05
458.23	2.1
458.435	2.07
458.64	2.18
458.845	2.11
459.05	2.08
459.255	1.99
459.46	1.98
459.665	2.03
459.87	2.08
460.075	2.06
460.28	2.13
460.485	2.19
460.69	2.2
460.895	2.25
461.099	2.21
461.304	2.24
461.509	2.12
461.714	2.14
461.919	2.09
462.123	2.16
462.328	2.14
462.533	2.12
462.738	2.11
462.942	2.18
463.147	2.14
463.352	2.17
463.556	2.21
463.761	2.2
463.966	2.27
464.17	2.27
464.375	2.32
464.58	2.3
464.784	2.3
464.989	2.24
465.193	2.3
465.398	2.27
465.602	2.27
465.807	2.28
466.011	2.33
466.216	2.29
466.42	2.3
466.625	2.27
466.829	2.31
467.034	2.31
467.238	2.28
467.443	2.29
467.647	2.34
467.851	2.36
468.056	2.34
468.26	2.32
468.464	2.35
468.669	2.38
468.873	2.38
469.077	2.4
469.282	2.42
469.486	2.45
