Data from Ofra_2a_PS_6GT17_Reflection_1.txt Node
Date: Tue Jul 20 09:53:52 EDT 2021
User: Adam
Spectrometer: FLMT01687
Trigger mode: 0
Integration Time (sec): 9.450000E-1
Scans to average: 3
Electric dark correction enabled: true
Nonlinearity correction enabled: false
Boxcar width: 3
XAxis mode: Wavelengths
Number of Pixels in Spectrum: 3648
>>>>>Begin Spectral Data<<<<<
179.494	892.31
179.716	490.23
179.937	501.65
180.158	1818.36
180.38	-1028.78
180.601	-170.54
180.823	-50.89
181.044	64.64
181.265	-14.23
181.486	77.86
181.708	27.17
181.929	36.4
182.15	116.48
182.372	34.57
182.593	42.04
182.814	310.93
183.035	141.43
183.257	108.19
183.478	101.38
183.699	94.1
183.92	73.39
184.141	82.43
184.363	69.55
184.584	52.58
184.805	50.97
185.026	33.78
185.247	6.07
185.468	5.91
185.689	-6.74
185.91	-5.39
186.132	8.87
186.353	1.86
186.574	9.14
186.795	4.3
187.016	9.17
187.237	30.1
187.458	27.18
187.679	12.99
187.9	-4.44
188.121	5.6
188.342	40.35
188.563	34.26
188.784	11.93
189.005	15.04
189.226	19.41
189.447	24.58
189.667	24.1
189.888	16.53
190.109	18.2
190.33	16.08
190.551	6.85
190.772	9.08
190.993	28.03
191.214	25.2
191.434	14.74
191.655	24.87
191.876	26.53
192.097	26.29
192.318	25.32
192.538	10.38
192.759	10.97
192.98	15.61
193.201	18.35
193.421	25.14
193.642	21.41
193.863	9.47
194.083	17.78
194.304	22
194.525	31.17
194.745	9.04
194.966	19.8
195.187	29.57
195.407	27.02
195.628	23.59
195.848	25.02
196.069	26.49
196.29	23.13
196.51	9.56
196.731	19.8
196.951	16.56
197.172	7.44
197.392	2.92
197.613	-23.94
197.833	-13.31
198.054	-10.16
198.274	-39.16
198.495	-44.49
198.715	-61.8
198.936	-80.86
199.156	-39.58
199.377	-58.67
199.597	-63.7
199.817	-44.57
200.038	-36.6
200.258	-13.6
200.479	3.01
200.699	10.1
200.919	10.9
201.14	16.64
201.36	26.59
201.58	53.26
201.801	38.56
202.021	29.1
202.241	25.12
202.461	39.11
202.682	35.6
202.902	39.22
203.122	28.18
203.342	31.46
203.563	25.23
203.783	27.78
204.003	22.48
204.223	30.05
204.443	20.08
204.663	20.17
204.884	14.54
205.104	12.34
205.324	31.59
205.544	40.33
205.764	40.94
205.984	47.43
206.204	51.72
206.424	54.41
206.644	57.32
206.864	35.99
207.084	42.48
207.304	37.78
207.525	28.08
207.745	28.31
207.964	30.69
208.184	21.22
208.404	22.69
208.624	-5.33
208.844	-9.62
209.064	5.55
209.284	14.87
209.504	9.14
209.724	17.86
209.944	17.06
210.164	25.66
210.384	34.86
210.604	23.34
210.823	-3.91
211.043	-0.81
211.263	6.24
211.483	6.08
211.703	17.82
211.922	14.04
212.142	22.18
212.362	34.05
212.582	25.62
212.801	11.18
213.021	14.6
213.241	-14.66
213.461	-9.13
213.68	-5.55
213.9	-6.34
214.12	-8.29
214.339	11.33
214.559	14.12
214.779	32.38
214.998	26.63
215.218	26.11
215.438	31.82
215.657	40.3
215.877	33.95
216.096	46.93
216.316	35.85
216.535	38.79
216.755	27.21
216.974	23.19
217.194	19.22
217.413	33.7
217.633	8.68
217.852	-0.76
218.072	-18.55
218.291	13.72
218.511	14.4
218.73	1.11
218.95	-14.11
219.169	-2.21
219.389	9.41
219.608	24.22
219.827	11.97
220.047	4.36
220.266	24.16
220.485	27.51
220.705	13.8
220.924	20.43
221.143	7.15
221.363	11.78
221.582	14.92
221.801	17.53
222.021	15.03
222.24	18.11
222.459	2.62
222.678	12.3
222.897	0.51
223.117	-3.64
223.336	-10.73
223.555	-12.42
223.774	6.03
223.993	29.66
224.213	28.72
224.432	31.41
224.651	30.14
224.87	44.66
225.089	49.86
225.308	37.76
225.527	30.31
225.746	33.44
225.965	32.48
226.184	28.59
226.404	-1.11
226.623	1.71
226.842	15
227.061	17.34
227.28	27.74
227.499	39.37
227.718	50.1
227.936	47.85
228.155	41.08
228.374	41.49
228.593	34.38
228.812	21.38
229.031	10.47
229.25	14.32
229.469	37.29
229.688	39.59
229.907	35.83
230.125	33.1
230.344	40.12
230.563	41.24
230.782	21.88
231.001	14.39
231.22	6.68
231.438	9.03
231.657	23.94
231.876	19.13
232.095	25.17
232.313	41.29
232.532	41.66
232.751	48.44
232.969	54.28
233.188	41.63
233.407	37.28
233.625	27.02
233.844	23.68
234.063	14.53
234.281	13.59
234.5	11.97
234.719	20.27
234.937	22.83
235.156	27.81
235.374	23.67
235.593	26.73
235.811	28.58
236.03	18.45
236.249	24.09
236.467	34.99
236.686	39.57
236.904	35.85
237.123	42.75
237.341	39.13
237.559	41
237.778	32.49
237.996	26.07
238.215	13.48
238.433	17.78
238.652	15.98
238.87	15.38
239.088	9.8
239.307	11.44
239.525	10.67
239.743	7.72
239.962	13.28
240.18	14.84
240.398	20.64
240.617	34.45
240.835	35.22
241.053	42.19
241.271	56.42
241.49	47.59
241.708	41.9
241.926	31.72
242.144	27.71
242.363	18.56
242.581	21.98
242.799	2.88
243.017	9.86
243.235	10.62
243.453	17.58
243.672	11.41
243.89	23.95
244.108	19.31
244.326	29.01
244.544	24.48
244.762	28.76
244.98	35.1
245.198	24.01
245.416	20.98
245.634	18.84
245.852	21.77
246.07	16.89
246.288	6.73
246.506	5.05
246.724	28.46
246.942	25.27
247.16	23.68
247.378	16.31
247.596	30.71
247.814	22.75
248.032	11.38
248.25	3.4
248.468	14.75
248.685	24.7
248.903	25.65
249.121	19.5
249.339	27.66
249.557	37.35
249.775	15.69
249.992	5.61
250.21	-4.95
250.428	-3.92
250.646	-6.24
250.863	-12.42
251.081	-20.21
251.299	4.75
251.517	12.33
251.734	23.74
251.952	32.87
252.17	31.15
252.387	37.15
252.605	37.96
252.823	34.06
253.04	21.04
253.258	12.48
253.475	7.9
253.693	22.69
253.911	12.06
254.128	9.17
254.346	9.96
254.563	11.48
254.781	7.53
254.998	7.78
255.216	1.6
255.433	14.56
255.651	11.54
255.868	14.21
256.086	20.89
256.303	23.73
256.521	16.42
256.738	21.04
256.956	1.75
257.173	11.42
257.39	13.42
257.608	10.55
257.825	6.02
258.043	14.23
258.26	9.72
258.477	21.87
258.695	22.41
258.912	29.31
259.129	17.24
259.346	26.12
259.564	20.5
259.781	25.42
259.998	19.98
260.216	24.7
260.433	20.19
260.65	32.01
260.867	16.28
261.084	29.47
261.302	9.65
261.519	0.34
261.736	-10.64
261.953	-7.02
262.17	-8.37
262.387	2.29
262.604	-15.81
262.822	4.78
263.039	14.01
263.256	17.45
263.473	7.75
263.69	24.36
263.907	19.14
264.124	20.26
264.341	13.57
264.558	16.74
264.775	15.42
264.992	17.3
265.209	19.44
265.426	25.97
265.643	31.63
265.86	26.08
266.077	25.99
266.294	35.03
266.51	26.61
266.727	10.51
266.944	5.63
267.161	-4.22
267.378	4.36
267.595	-4.21
267.812	-16.36
268.028	3.65
268.245	15.45
268.462	13.02
268.679	3.67
268.896	5.35
269.112	14.75
269.329	24.99
269.546	18.9
269.763	19.74
269.979	25.14
270.196	30.85
270.413	31.64
270.629	22.22
270.846	13.94
271.063	18.29
271.279	11.97
271.496	-5.23
271.712	-4.53
271.929	3.41
272.146	10.62
272.362	-3.87
272.579	3.08
272.795	2.46
273.012	19.55
273.228	15.23
273.445	13.91
273.661	7.73
273.878	21.45
274.094	18.91
274.311	20.17
274.527	12.57
274.744	15.35
274.96	10.24
275.177	26.9
275.393	20.87
275.609	14.98
275.826	11.11
276.042	26.64
276.259	27.69
276.475	30.59
276.691	20.83
276.908	16.16
277.124	17.63
277.34	17.61
277.557	10.25
277.773	4.55
277.989	8.1
278.205	3.77
278.422	18.75
278.638	34.26
278.854	36.95
279.07	26.25
279.286	25.41
279.503	17.02
279.719	31.71
279.935	18.69
280.151	23.15
280.367	24.45
280.583	33.05
280.799	45.64
281.016	47.15
281.232	37.9
281.448	31.33
281.664	16.33
281.88	14.04
282.096	16.82
282.312	-1.27
282.528	-21.28
282.744	-17.52
282.96	5.38
283.176	9.85
283.392	25.3
283.608	31.92
283.824	31.37
284.04	48.26
284.256	51.32
284.471	49.08
284.687	40.8
284.903	36.29
285.119	21.05
285.335	23.25
285.551	16.77
285.767	18.9
285.982	17.4
286.198	15.45
286.414	23.95
286.63	29.15
286.846	25.65
287.061	32.01
287.277	30.2
287.493	32.4
287.709	33.32
287.924	31.75
288.14	44.06
288.356	63.07
288.571	53.92
288.787	51.98
289.003	54.85
289.218	53.67
289.434	44.12
289.65	30.28
289.865	17.99
290.081	18.92
290.296	14.14
290.512	15.97
290.727	21.61
290.943	19.77
291.159	12.69
291.374	18.55
291.59	13.25
291.805	15.6
292.021	6.37
292.236	-0.8
292.451	9.3
292.667	13.75
292.882	0.09
293.098	6.19
293.313	9.24
293.529	18.4
293.744	25.82
293.959	17.23
294.175	27.06
294.39	48.05
294.605	46.92
294.821	38.27
295.036	34.34
295.251	32.86
295.467	30.37
295.682	29.12
295.897	23.29
296.112	20.25
296.328	25.4
296.543	20
296.758	18.89
296.973	26.04
297.188	21.7
297.404	23.66
297.619	27.37
297.834	34.38
298.049	34.2
298.264	29.46
298.479	12.93
298.694	24.01
298.909	17.02
299.125	18.42
299.34	5.29
299.555	7.66
299.77	3.17
299.985	5.61
300.2	-9.03
300.415	-0.11
300.63	-11.17
300.845	-0.06
301.06	-3.27
301.275	6.26
301.49	19.83
301.704	20.16
301.919	12.95
302.134	9.94
302.349	3.25
302.564	1.65
302.779	-6.78
302.994	-16.38
303.209	-8.06
303.423	7.98
303.638	21.92
303.853	25.59
304.068	31.82
304.283	37.56
304.497	27.72
304.712	25.5
304.927	12.93
305.142	12.47
305.356	7.76
305.571	6.69
305.786	-0.78
306	9.45
306.215	11.87
306.43	21.19
306.644	20.62
306.859	27.98
307.074	21.52
307.288	31.76
307.503	31.66
307.717	28.17
307.932	30.48
308.147	36.81
308.361	31.05
308.576	35.2
308.79	28.23
309.005	24.96
309.219	25.13
309.434	17.46
309.648	8.84
309.863	18.77
310.077	12.22
310.292	11.42
310.506	28.04
310.72	22.25
310.935	25.71
311.149	28.86
311.364	27.66
311.578	29.08
311.792	26.49
312.007	13.16
312.221	20.7
312.435	18.61
312.649	4.32
312.864	-19.29
313.078	-12.84
313.292	-5.31
313.507	2.82
313.721	8.08
313.935	28.58
314.149	44.75
314.363	50.06
314.578	76.62
314.792	68.13
315.006	65.62
315.22	63.45
315.434	46.75
315.648	38.52
315.862	39.71
316.077	20.83
316.291	32.69
316.505	31.99
316.719	12.37
316.933	24.28
317.147	20.36
317.361	26.61
317.575	23.33
317.789	16.43
318.003	18.62
318.217	29.21
318.431	34.64
318.645	39.3
318.859	25.18
319.073	23.57
319.287	29.89
319.5	25.39
319.714	23.02
319.928	25.82
320.142	24.01
320.356	40.96
320.57	40.16
320.784	38.21
320.997	43.51
321.211	52.56
321.425	32.56
321.639	36.37
321.853	26.66
322.066	25.5
322.28	19.51
322.494	17.56
322.707	3.99
322.921	7.83
323.135	6.13
323.349	12.69
323.562	10.03
323.776	14.05
323.989	9.97
324.203	17.95
324.417	14.62
324.63	3.2
324.844	-4.4
325.057	10.43
325.271	3.13
325.485	2.54
325.698	0.01
325.912	12.51
326.125	24.28
326.339	32.05
326.552	28.35
326.766	37.42
326.979	41.23
327.193	40.29
327.406	39.45
327.619	24.7
327.833	15.18
328.046	7.84
328.26	7.2
328.473	1.03
328.686	10.5
328.9	1.85
329.113	13.04
329.326	11.89
329.54	17.9
329.753	18.74
329.966	25.41
330.179	21.79
330.393	35.62
330.606	40.81
330.819	44.35
331.032	47.57
331.246	46.46
331.459	47.89
331.672	46.91
331.885	31.32
332.098	24.39
332.311	16.1
332.525	14.55
332.738	9.1
332.951	8.27
333.164	4.12
333.377	-3.66
333.59	-0.57
333.803	10.51
334.016	-1.99
334.229	-8.87
334.442	4.54
334.655	18.45
334.868	46.39
335.081	52.44
335.294	49.04
335.507	48.8
335.72	48.02
335.933	46.01
336.146	38.7
336.359	18.03
336.572	13.03
336.785	19.71
336.997	17.3
337.21	27.71
337.423	21.29
337.636	18.92
337.849	19.4
338.062	16.63
338.274	9.94
338.487	7.92
338.7	7.25
338.913	0.5
339.125	-4.56
339.338	6.37
339.551	14.63
339.763	9.78
339.976	12.23
340.189	10.07
340.402	12.15
340.614	20.04
340.827	8.6
341.039	4.82
341.252	13.94
341.465	12.9
341.677	6.93
341.89	9.63
342.102	2.17
342.315	14.94
342.527	13.63
342.74	11.21
342.952	13.84
343.165	23.68
343.377	24.79
343.59	38.23
343.802	29.52
344.015	31.43
344.227	28.13
344.44	28.08
344.652	27.08
344.864	28.81
345.077	18.68
345.289	26.16
345.502	27.04
345.714	27.28
345.926	23.33
346.139	21.94
346.351	23.8
346.563	34.52
346.775	22.24
346.988	20.55
347.2	13.35
347.412	16.79
347.624	14.57
347.837	11.36
348.049	4.95
348.261	10.24
348.473	-2.05
348.685	6.06
348.897	2.67
349.11	8.66
349.322	1.6
349.534	3.16
349.746	12.4
349.958	18.9
350.17	18.55
350.382	14.21
350.594	22.92
350.806	35.18
351.018	36.26
351.23	37.78
351.442	39.83
351.654	39.75
351.866	51.57
352.078	37.18
352.29	42.42
352.502	38.55
352.714	30.83
352.926	33.69
353.138	28.44
353.35	21.72
353.561	21.73
353.773	12.04
353.985	10.72
354.197	12.3
354.409	12.77
354.621	15.23
354.832	8.97
355.044	18.39
355.256	14.44
355.468	17.02
355.679	19.27
355.891	16.76
356.103	23.88
356.314	19.24
356.526	16.1
356.738	16.01
356.949	21.09
357.161	16.97
357.373	23.1
357.584	21.3
357.796	29.21
358.008	31.65
358.219	48.33
358.431	47.76
358.642	48.79
358.854	43.05
359.065	38.62
359.277	35.64
359.488	27.49
359.7	18.42
359.911	20.48
360.123	20.88
360.334	19.68
360.546	13.18
360.757	20.43
360.969	28.84
361.18	25.23
361.391	17.88
361.603	19.41
361.814	23.45
362.025	30.45
362.237	21.76
362.448	20.62
362.659	15.94
362.871	22.94
363.082	26.17
363.293	24.63
363.504	22.49
363.716	25.97
363.927	25.32
364.138	31.06
364.349	26.09
364.56	19.63
364.772	25.47
364.983	18.49
365.194	21.33
365.405	18.87
365.616	13.77
365.827	20.17
366.038	24.42
366.25	14.73
366.461	27.91
366.672	23.69
366.883	25.78
367.094	21.93
367.305	17.02
367.516	20.15
367.727	16.62
367.938	11.08
368.149	16.64
368.36	12.96
368.571	23.1
368.781	19.73
368.992	11.24
369.203	13.38
369.414	12.51
369.625	7.63
369.836	5.84
370.047	-0.88
370.258	-1.62
370.468	-2.01
370.679	-1.86
370.89	9.75
371.101	2.54
371.312	0.71
371.522	3.63
371.733	1.9
371.944	5.21
372.155	-3.38
372.365	-11.37
372.576	-3.35
372.787	-4.22
372.997	-4.95
373.208	3.29
373.419	3.35
373.629	13.18
373.84	10.46
374.05	18.53
374.261	16.51
374.472	11.28
374.682	4.58
374.893	2.87
375.103	4.94
375.314	3.63
375.524	-2.78
375.735	1.37
375.945	7.76
376.156	16.76
376.366	20.4
376.577	17.96
376.787	27.12
376.997	26.43
377.208	26.18
377.418	20.33
377.629	17.4
377.839	20.62
378.049	27.34
378.26	24.51
378.47	31.02
378.68	33.01
378.89	28.21
379.101	19.21
379.311	10.16
379.521	6.72
379.732	-3.13
379.942	-8.95
380.152	-7.98
380.362	5
380.572	8.6
380.783	13.15
380.993	13.84
381.203	20.8
381.413	26.31
381.623	29.66
381.833	21.11
382.043	21.45
382.253	25.07
382.463	26.59
382.674	23.08
382.884	13.82
383.094	8.02
383.304	6.78
383.514	15.53
383.724	5.91
383.934	2.96
384.144	6.67
384.353	7.43
384.563	5.89
384.773	8.93
384.983	6.72
385.193	13.39
385.403	14.22
385.613	7.83
385.823	9.64
386.033	14.02
386.242	14.42
386.452	9.48
386.662	10.7
386.872	6.97
387.082	5.37
387.291	6.03
387.501	3.37
387.711	3.41
387.921	4.52
388.13	2.32
388.34	4.57
388.55	10.76
388.759	10.79
388.969	8.84
389.179	8.59
389.388	6.48
389.598	5.56
389.807	4.03
390.017	3.46
390.227	1.87
390.436	4.26
390.646	5.28
390.855	6.1
391.065	6.6
391.274	5.47
391.484	5.66
391.693	6.46
391.903	4.75
392.112	3.81
392.322	5.43
392.531	6.02
392.74	5.31
392.95	4.42
393.159	4.7
393.369	4.89
393.578	5.72
393.787	5.12
393.997	5.65
394.206	6.86
394.415	7
394.625	5.64
394.834	5.9
395.043	5.47
395.252	5.92
395.462	5.02
395.671	5.99
395.88	5.81
396.089	5.97
396.298	6.46
396.508	6.01
396.717	5.62
396.926	5.7
397.135	4.73
397.344	4.67
397.553	5.44
397.762	5.2
397.971	5.54
398.181	5.27
398.39	5.41
398.599	5.87
398.808	5.83
399.017	5.86
399.226	5.99
399.435	5.79
399.644	5.67
399.853	5.52
400.062	5.13
400.27	5.22
400.479	4.9
400.688	4.8
400.897	4.98
401.106	5.25
401.315	5.18
401.524	5.39
401.733	5.56
401.941	5.48
402.15	5.34
402.359	5.22
402.568	5.14
402.777	5.06
402.985	4.92
403.194	4.73
403.403	4.68
403.612	4.66
403.82	4.63
404.029	4.62
404.238	4.78
404.446	4.71
404.655	4.6
404.864	4.62
405.072	4.72
405.281	4.6
405.489	4.57
405.698	4.47
405.906	4.54
406.115	4.58
406.324	4.64
406.532	4.62
406.741	4.71
406.949	4.65
407.158	4.73
407.366	4.81
407.574	4.86
407.783	4.77
407.991	4.67
408.2	4.61
408.408	4.64
408.617	4.57
408.825	4.49
409.033	4.38
409.242	4.36
409.45	4.35
409.658	4.39
409.867	4.35
410.075	4.26
410.283	4.16
410.491	4.19
410.7	4.25
410.908	4.25
411.116	4.17
411.324	4.2
411.533	4.16
411.741	4.15
411.949	4.16
412.157	4.16
412.365	4.15
412.573	4.23
412.781	4.23
412.99	4.34
413.198	4.42
413.406	4.37
413.614	4.35
413.822	4.33
414.03	4.27
414.238	4.29
414.446	4.19
414.654	4.21
414.862	4.22
415.07	4.15
415.278	4.12
415.486	4.16
415.694	4.06
415.902	3.99
416.109	3.93
416.317	3.81
416.525	3.89
416.733	3.95
416.941	3.83
417.149	3.94
417.357	3.97
417.564	3.95
417.772	4.05
417.98	3.97
418.188	3.85
418.395	3.91
418.603	3.77
418.811	3.71
419.019	3.74
419.226	3.75
419.434	3.67
419.642	3.7
419.849	3.63
420.057	3.74
420.265	3.73
420.472	3.66
420.68	3.62
420.887	3.74
421.095	3.84
421.302	4
421.51	4.04
421.717	4.14
421.925	4.06
422.132	3.93
422.34	3.96
422.547	3.82
422.755	3.7
422.962	3.62
423.17	3.56
423.377	3.68
423.585	3.75
423.792	3.74
423.999	3.72
424.207	3.65
424.414	3.69
424.621	3.72
424.829	3.65
425.036	3.64
425.243	3.67
425.451	3.73
425.658	3.82
425.865	3.72
426.072	3.8
426.28	3.79
426.487	3.86
426.694	3.79
426.901	3.69
427.108	3.66
427.315	3.66
427.523	3.62
427.73	3.74
427.937	3.75
428.144	3.77
428.351	3.92
428.558	3.85
428.765	3.86
428.972	3.83
429.179	3.73
429.386	3.73
429.593	3.66
429.8	3.68
430.007	3.87
430.214	3.87
430.421	3.91
430.628	3.78
430.835	3.8
431.042	3.92
431.249	3.91
431.456	3.87
431.662	3.94
431.869	4.04
432.076	4.21
432.283	4.15
432.49	4.05
432.697	4.03
432.903	4.01
433.11	4.05
433.317	3.99
433.524	3.89
433.73	3.96
433.937	3.98
434.144	4.04
434.35	3.97
434.557	3.89
434.764	3.86
434.97	3.97
435.177	3.93
435.384	3.99
435.59	3.97
435.797	4.06
436.003	4.1
436.21	4.12
436.416	4.07
436.623	4.18
436.829	4.22
437.036	4.22
437.242	4.19
437.449	4.19
437.655	4.23
437.862	4.29
438.068	4.3
438.275	4.25
438.481	4.28
438.687	4.35
438.894	4.37
439.1	4.43
439.307	4.42
439.513	4.35
439.719	4.42
439.926	4.42
440.132	4.38
440.338	4.41
440.544	4.33
440.751	4.31
440.957	4.28
441.163	4.31
441.369	4.31
441.575	4.31
441.782	4.31
441.988	4.31
442.194	4.4
442.4	4.47
442.606	4.46
442.812	4.51
443.018	4.51
443.224	4.49
443.431	4.53
443.637	4.45
443.843	4.52
444.049	4.55
444.255	4.46
444.461	4.49
444.667	4.53
444.873	4.51
445.079	4.56
445.284	4.45
445.49	4.39
445.696	4.47
445.902	4.55
446.108	4.55
446.314	4.59
446.52	4.58
446.726	4.65
446.931	4.67
447.137	4.65
447.343	4.58
447.549	4.57
447.755	4.56
447.96	4.53
448.166	4.53
448.372	4.59
448.578	4.61
448.783	4.61
448.989	4.63
449.195	4.62
449.4	4.69
449.606	4.67
449.812	4.65
450.017	4.58
450.223	4.61
450.428	4.64
450.634	4.67
450.84	4.64
451.045	4.58
451.251	4.65
451.456	4.66
451.662	4.66
451.867	4.63
452.073	4.64
452.278	4.63
452.483	4.74
452.689	4.69
452.894	4.72
453.1	4.71
453.305	4.72
453.51	4.72
453.716	4.72
453.921	4.7
454.127	4.69
454.332	4.69
454.537	4.74
454.742	4.74
454.948	4.73
455.153	4.74
455.358	4.77
455.563	4.78
455.769	4.81
455.974	4.75
456.179	4.67
456.384	4.65
456.589	4.7
456.795	4.62
457	4.61
457.205	4.57
457.41	4.62
457.615	4.69
457.82	4.73
458.025	4.71
458.23	4.8
458.435	4.74
458.64	4.79
458.845	4.77
459.05	4.8
459.255	4.77
459.46	4.78
459.665	4.8
459.87	4.83
460.075	4.8
460.28	4.8
460.485	4.82
460.69	4.76
460.895	4.77
461.099	4.72
461.304	4.73
461.509	4.67
461.714	4.71
461.919	4.66
462.123	4.71
462.328	4.69
462.533	4.7
462.738	4.71
462.942	4.79
463.147	4.75
463.352	4.82
463.556	4.84
463.761	4.86
463.966	4.9
464.17	4.91
464.375	4.86
464.58	4.83
464.784	4.82
464.989	4.82
465.193	4.86
465.398	4.83
465.602	4.89
465.807	4.95
466.011	5
466.216	5.02
466.42	5.06
466.625	5.04
466.829	5.1
467.034	5.06
467.238	5.08
467.443	5.07
467.647	5.04
467.851	5.02
468.056	5.01
468.26	4.97
468.464	5
468.669	5.02
468.873	5.01
469.077	5.05
469.282	5.06
469.486	5.08
469.69	5.07
469.894	5.08
