Data from Ofra_2a_PS_OCX5J_Reflection_2.txt Node
Date: Tue Jul 20 09:26:56 EDT 2021
User: Adam
Spectrometer: FLMT01687
Trigger mode: 0
Integration Time (sec): 9.450000E-1
Scans to average: 3
Electric dark correction enabled: true
Nonlinearity correction enabled: false
Boxcar width: 3
XAxis mode: Wavelengths
Number of Pixels in Spectrum: 3648
>>>>>Begin Spectral Data<<<<<
179.494	305.92
179.716	206.69
179.937	230.77
180.158	723.44
180.38	274.42
180.601	149.07
180.823	65.48
181.044	125.1
181.265	-57.89
181.486	21.5
181.708	21.74
181.929	-135.81
182.15	-1059.09
182.372	144.4
182.593	83.56
182.814	191.62
183.035	118.6
183.257	48.75
183.478	18.51
183.699	17.23
183.92	28.06
184.141	11.99
184.363	-2.74
184.584	-4.75
184.805	1.48
185.026	-12.4
185.247	-5.02
185.468	-7.39
185.689	7.87
185.91	22.1
186.132	21.66
186.353	-1.04
186.574	-0.99
186.795	-22.55
187.016	-7.79
187.237	-8.1
187.458	-24.78
187.679	-30.73
187.9	-20.67
188.121	-6.8
188.342	25.79
188.563	12.27
188.784	11.87
189.005	22.56
189.226	28.67
189.447	32.38
189.667	19.25
189.888	29.13
190.109	28.09
190.33	9.03
190.551	3.07
190.772	-12.72
190.993	-0.72
191.214	2.16
191.434	-14.3
191.655	-9.72
191.876	5.27
192.097	11.33
192.318	20.18
192.538	22.32
192.759	22.44
192.98	9.15
193.201	19.97
193.421	12.53
193.642	9.17
193.863	-13.32
194.083	-22.34
194.304	-20.58
194.525	14.46
194.745	-8.81
194.966	-1.71
195.187	-1.81
195.407	12.03
195.628	8.86
195.848	2.55
196.069	-5.68
196.29	-3.06
196.51	4.8
196.731	11.88
196.951	-3.48
197.172	-5.79
197.392	11.71
197.613	6.28
197.833	12.93
198.054	0.18
198.274	-16.88
198.495	-17.35
198.715	-18.34
198.936	-42.57
199.156	-22.42
199.377	-35.87
199.597	-52.11
199.817	-44.92
200.038	-32.73
200.258	-35.76
200.479	-26.68
200.699	-40.65
200.919	-51.91
201.14	-33.43
201.36	-36
201.58	-26.4
201.801	-10.48
202.021	-4.15
202.241	-1.38
202.461	11.07
202.682	21.98
202.902	27.05
203.122	20.71
203.342	22.96
203.563	23.18
203.783	21.62
204.003	20.23
204.223	23.43
204.443	19.14
204.663	25.9
204.884	12.78
205.104	-2.33
205.324	12.1
205.544	8.78
205.764	1.13
205.984	18.97
206.204	14.06
206.424	27.53
206.644	34.26
206.864	25.57
207.084	44.6
207.304	39.37
207.525	29.15
207.745	34.53
207.964	27.82
208.184	33.07
208.404	23.33
208.624	-14.94
208.844	-19.17
209.064	3.62
209.284	4.63
209.504	8.49
209.724	-22.22
209.944	-9.93
210.164	7.1
210.384	23.14
210.604	16.36
210.823	12.56
211.043	7.11
211.263	26.59
211.483	12.32
211.703	22.76
211.922	13.91
212.142	10.62
212.362	8.3
212.582	6.87
212.801	1.48
213.021	1.38
213.241	-8.15
213.461	-0.77
213.68	2.98
213.9	-2.65
214.12	-7.04
214.339	-6.55
214.559	3.4
214.779	3.17
214.998	-4.35
215.218	-6.48
215.438	9.82
215.657	6.2
215.877	17.19
216.096	25.17
216.316	25.87
216.535	31.96
216.755	13.56
216.974	8.24
217.194	20.46
217.413	26.94
217.633	19.13
217.852	15.86
218.072	3.79
218.291	29.05
218.511	18.83
218.73	24.8
218.95	12.4
219.169	17.87
219.389	14.3
219.608	14.11
219.827	2.5
220.047	18.55
220.266	11.33
220.485	6.12
220.705	3.1
220.924	15.48
221.143	23.02
221.363	16.71
221.582	9.5
221.801	9.34
222.021	16.47
222.24	9.29
222.459	-6.77
222.678	-21.59
222.897	-21.35
223.117	-25.49
223.336	-16.37
223.555	-27.38
223.774	-17.08
223.993	-4.06
224.213	-3.13
224.432	11.75
224.651	15.27
224.87	6.81
225.089	8.62
225.308	-3.34
225.527	-6.9
225.746	3.43
225.965	-11.26
226.184	-10.34
226.404	-28.45
226.623	-12.35
226.842	-9.14
227.061	-6.55
227.28	-8.03
227.499	16.03
227.718	12.92
227.936	18.79
228.155	11.25
228.374	14.71
228.593	8.48
228.812	6.91
229.031	-5.76
229.25	3.73
229.469	11.12
229.688	23.99
229.907	21.22
230.125	27.33
230.344	17.56
230.563	15.05
230.782	7.66
231.001	7.04
231.22	3.69
231.438	13.72
231.657	11.54
231.876	19.59
232.095	27.71
232.313	37.59
232.532	25.62
232.751	20.25
232.969	14.33
233.188	14.1
233.407	20.76
233.625	23.3
233.844	17.27
234.063	24.33
234.281	25.54
234.5	24.35
234.719	19.51
234.937	13.8
235.156	7.25
235.374	1.64
235.593	-11.25
235.811	-19.2
236.03	-23.06
236.249	-6.83
236.467	0.19
236.686	9.7
236.904	8.87
237.123	26.04
237.341	29.99
237.559	29.4
237.778	31.48
237.996	24.51
238.215	17.68
238.433	25.69
238.652	23.3
238.87	13.58
239.088	10.36
239.307	7.17
239.525	5.11
239.743	-3.11
239.962	-6.46
240.18	-4.22
240.398	2.04
240.617	11.58
240.835	13.43
241.053	20.59
241.271	33.05
241.49	21.67
241.708	17.05
241.926	1.17
242.144	-2.41
242.363	-12
242.581	-10.93
242.799	-29.35
243.017	-10.85
243.235	-12.9
243.453	-4.12
243.672	-3.36
243.89	5.19
244.108	11.99
244.326	11.69
244.544	4.92
244.762	0.15
244.98	4.03
245.198	-6.42
245.416	-14.35
245.634	-17.17
245.852	2.18
246.07	-0.3
246.288	-2.39
246.506	9.35
246.724	21.08
246.942	22.91
247.16	5.22
247.378	-18.66
247.596	-6.1
247.814	2.65
248.032	-6.84
248.25	-17.74
248.468	-10.25
248.685	-1.31
248.903	8.72
249.121	5.46
249.339	4.72
249.557	3.1
249.775	-5.54
249.992	-4.01
250.21	-3.94
250.428	0.65
250.646	-9.04
250.863	-9.97
251.081	-6.42
251.299	14.39
251.517	24.47
251.734	44.23
251.952	50.77
252.17	45.11
252.387	35.49
252.605	36.5
252.823	12.43
253.04	-1.83
253.258	-17.56
253.475	-26.55
253.693	-1.66
253.911	3.56
254.128	-1.87
254.346	11.75
254.563	3.12
254.781	4.76
254.998	11.92
255.216	7.22
255.433	-8.43
255.651	-1.62
255.868	-4.15
256.086	3.36
256.303	1.5
256.521	-26.61
256.738	-14.09
256.956	-5.87
257.173	-4.4
257.39	-2.26
257.608	0.87
257.825	-5.88
258.043	14.13
258.26	6.92
258.477	17.05
258.695	22.37
258.912	27.31
259.129	18.22
259.346	21
259.564	21.17
259.781	25.02
259.998	23.07
260.216	22.94
260.433	12.45
260.65	24.65
260.867	12.72
261.084	18.32
261.302	-3.97
261.519	-23.35
261.736	-37.27
261.953	-26.8
262.17	-27.7
262.387	-15.72
262.604	-49.43
262.822	-19.96
263.039	-8.56
263.256	-10
263.473	-11.55
263.69	-8.67
263.907	-5.44
264.124	1.11
264.341	3.36
264.558	7.31
264.775	18.96
264.992	17.75
265.209	24.66
265.426	16.58
265.643	26.07
265.86	17.46
266.077	12.01
266.294	9.72
266.51	8.69
266.727	-8.94
266.944	-14.5
267.161	-27.05
267.378	-24.93
267.595	-16.69
267.812	-25.94
268.028	-14.19
268.245	-1.43
268.462	6.98
268.679	5.94
268.896	0.88
269.112	15.34
269.329	21.97
269.546	18.62
269.763	15.47
269.979	16.88
270.196	24.97
270.413	27.27
270.629	16.6
270.846	18.58
271.063	20.19
271.279	23.13
271.496	17.35
271.712	6.28
271.929	10.09
272.146	8.86
272.362	-15.55
272.579	-17.14
272.795	-27.27
273.012	-16.13
273.228	-13.32
273.445	-13.77
273.661	-13.57
273.878	2.62
274.094	6.25
274.311	10.53
274.527	5.91
274.744	12.67
274.96	12.23
275.177	21.7
275.393	26.8
275.609	22.77
275.826	27.19
276.042	33.46
276.259	25.62
276.475	22.59
276.691	17.34
276.908	16.85
277.124	11.65
277.34	5.94
277.557	5.93
277.773	8.99
277.989	7.59
278.205	-0.2
278.422	5.68
278.638	14.57
278.854	9.44
279.07	0.14
279.286	-4.07
279.503	-4.48
279.719	4.36
279.935	-6.39
280.151	-2.35
280.367	1.57
280.583	7.39
280.799	11.96
281.016	19.64
281.232	17.76
281.448	18.07
281.664	10.76
281.88	18.74
282.096	14.81
282.312	7.73
282.528	-21.22
282.744	-22.39
282.96	-17.51
283.176	-5.55
283.392	-2.51
283.608	2.35
283.824	12.68
284.04	25.82
284.256	31.68
284.471	31.69
284.687	21.03
284.903	8.57
285.119	-6.84
285.335	-7.17
285.551	-3.24
285.767	2.75
285.982	-0.21
286.198	-1.21
286.414	14.08
286.63	29.94
286.846	27.13
287.061	27.45
287.277	13.7
287.493	5.83
287.709	14.93
287.924	9.09
288.14	7.95
288.356	7.72
288.571	-9.76
288.787	-0.03
289.003	15.86
289.218	15.48
289.434	14.21
289.65	26.07
289.865	20.17
290.081	26.23
290.296	23.78
290.512	21.84
290.727	20.93
290.943	10.93
291.159	-8.51
291.374	-2.13
291.59	1.68
291.805	5.75
292.021	-7.78
292.236	-10.56
292.451	-3.04
292.667	8.33
292.882	9.66
293.098	2.97
293.313	-4.34
293.529	7.55
293.744	16.02
293.959	21.16
294.175	17.32
294.39	13.09
294.605	19.24
294.821	15.94
295.036	9.37
295.251	-5.92
295.467	-6.28
295.682	-1.95
295.897	10.46
296.112	7.31
296.328	21.34
296.543	28.53
296.758	34.58
296.973	33.03
297.188	37.73
297.404	29.74
297.619	32.28
297.834	29.47
298.049	24.88
298.264	10.27
298.479	2.36
298.694	-7.24
298.909	-4.66
299.125	-1.9
299.34	-14.41
299.555	-6.91
299.77	0.73
299.985	2.78
300.2	7.75
300.415	3.57
300.63	-4.14
300.845	3.4
301.06	1.03
301.275	5.3
301.49	14.35
301.704	10.74
301.919	2.84
302.134	-4.61
302.349	-9.84
302.564	-20.92
302.779	-21.94
302.994	-34.04
303.209	-27.65
303.423	-0.03
303.638	22.75
303.853	30.82
304.068	33.25
304.283	30.07
304.497	39.14
304.712	32.76
304.927	14.6
305.142	15.19
305.356	9.2
305.571	14.52
305.786	15.08
306	15.02
306.215	15.33
306.43	27.06
306.644	22.05
306.859	18.16
307.074	18.05
307.288	24.11
307.503	16.48
307.717	12.27
307.932	13.12
308.147	13.64
308.361	13.1
308.576	8.47
308.79	-0.15
309.005	7.58
309.219	13.15
309.434	4.16
309.648	-9.48
309.863	-2.64
310.077	-5.25
310.292	-5.13
310.506	4.5
310.72	8
310.935	8.02
311.149	21.41
311.364	23.57
311.578	23.44
311.792	21.68
312.007	8.89
312.221	3.31
312.435	10.09
312.649	16.58
312.864	3.96
313.078	6.6
313.292	-2.06
313.507	3.09
313.721	10.88
313.935	21.68
314.149	19.62
314.363	20.8
314.578	26.46
314.792	37.06
315.006	35.01
315.22	34.74
315.434	22.71
315.648	14.9
315.862	15.4
316.077	16.65
316.291	13.92
316.505	10.33
316.719	-3.05
316.933	4.13
317.147	7.43
317.361	6.79
317.575	-1.32
317.789	4.31
318.003	7.16
318.217	12.4
318.431	10.43
318.645	11.33
318.859	10.62
319.073	11.51
319.287	12.04
319.5	13.75
319.714	13.05
319.928	14.44
320.142	8.73
320.356	16.86
320.57	5.62
320.784	3.57
320.997	11.02
321.211	15.22
321.425	13.86
321.639	15.68
321.853	11.72
322.066	23.72
322.28	29.76
322.494	12.51
322.707	7.21
322.921	7.39
323.135	14.3
323.349	17.93
323.562	7.85
323.776	0.44
323.989	8.79
324.203	7.75
324.417	-0.9
324.63	-13.19
324.844	-24.64
325.057	-5.24
325.271	-7.47
325.485	-4.83
325.698	-1.16
325.912	9.7
326.125	19.99
326.339	24.4
326.552	16.8
326.766	21.16
326.979	14.4
327.193	3.68
327.406	-2.03
327.619	-14.87
327.833	-17.59
328.046	-17.63
328.26	-29.18
328.473	-19.24
328.686	-9.77
328.9	-16.45
329.113	-9.5
329.326	-1.8
329.54	-2.8
329.753	1.47
329.966	-4.66
330.179	-0.4
330.393	11.33
330.606	14.16
330.819	7.97
331.032	5.85
331.246	5.98
331.459	12.51
331.672	7.29
331.885	5.93
332.098	3.62
332.311	1.74
332.525	15.99
332.738	11.29
332.951	12.45
333.164	11.72
333.377	5.29
333.59	3.86
333.803	11.61
334.016	-0.98
334.229	4.1
334.442	-0.22
334.655	-0.49
334.868	6.93
335.081	16.2
335.294	0.99
335.507	9.55
335.72	3.32
335.933	12.05
336.146	15.67
336.359	12.91
336.572	4.64
336.785	18.98
336.997	11.87
337.21	16.52
337.423	9.32
337.636	15.18
337.849	15.49
338.062	26.72
338.274	14.19
338.487	14.6
338.7	15.43
338.913	16.74
339.125	11.65
339.338	12.7
339.551	12.85
339.763	14.67
339.976	25.57
340.189	30.05
340.402	23.62
340.614	22.37
340.827	12.57
341.039	7.29
341.252	11.22
341.465	0.05
341.677	-8.86
341.89	-4.66
342.102	-0.23
342.315	13.88
342.527	6.17
342.74	-4.42
342.952	-9.13
343.165	-2.11
343.377	-2.53
343.59	-1.56
343.802	-5.15
344.015	-0.02
344.227	2.05
344.44	0.54
344.652	-0.9
344.864	2.61
345.077	-0.5
345.289	-7.11
345.502	-5.12
345.714	-1.44
345.926	-0.99
346.139	-3.54
346.351	-19.07
346.563	-17.33
346.775	-14.38
346.988	-11.11
347.2	-3.77
347.412	4.04
347.624	4.01
347.837	8.82
348.049	8.1
348.261	11.25
348.473	7.09
348.685	9.83
348.897	10.78
349.11	7.79
349.322	14.83
349.534	7.81
349.746	10.13
349.958	6.14
350.17	-1
350.382	-10.31
350.594	-5.06
350.806	-5.43
351.018	6.71
351.23	5.63
351.442	12.32
351.654	17.47
351.866	25.67
352.078	23.04
352.29	15.56
352.502	10.41
352.714	14.45
352.926	11.49
353.138	-0.09
353.35	-3.28
353.561	-6.26
353.773	-0.57
353.985	4.06
354.197	-1.75
354.409	-0.02
354.621	8.44
354.832	2.12
355.044	13.97
355.256	9
355.468	1.63
355.679	0.56
355.891	6.25
356.103	-0.09
356.314	3.44
356.526	-6.03
356.738	-4.7
356.949	0.61
357.161	0.18
357.373	-8.97
357.584	1.76
357.796	-1.97
358.008	8.63
358.219	13.62
358.431	7.1
358.642	8.63
358.854	13.12
359.065	12.2
359.277	10.3
359.488	1.33
359.7	3.42
359.911	4.32
360.123	7.76
360.334	5.31
360.546	-6.24
360.757	8.16
360.969	14.99
361.18	9.28
361.391	15.46
361.603	11.89
361.814	15.34
362.025	16.84
362.237	10.46
362.448	12.42
362.659	6.62
362.871	4.81
363.082	7.72
363.293	9.05
363.504	18.58
363.716	17.93
363.927	11.38
364.138	23.89
364.349	26.12
364.56	23.1
364.772	17.73
364.983	2.68
365.194	3.6
365.405	3.03
365.616	-12.62
365.827	-20.76
366.038	-7.84
366.25	-1.63
366.461	5.51
366.672	0.78
366.883	9.75
367.094	14.25
367.305	15.98
367.516	3.38
367.727	-3.52
367.938	-2.76
368.149	-3.03
368.36	-11.07
368.571	-6.69
368.781	-5.3
368.992	2.11
369.203	2.83
369.414	3.69
369.625	5.91
369.836	7.84
370.047	5.79
370.258	0.69
370.468	-3.86
370.679	-8.15
370.89	2.8
371.101	1.1
371.312	-0.37
371.522	-3.21
371.733	-5.1
371.944	-1.81
372.155	-0.64
372.365	-3.17
372.576	-5.24
372.787	0.41
372.997	-2
373.208	5.93
373.419	9.12
373.629	19.03
373.84	9.81
374.05	15.43
374.261	16.8
374.472	15.14
374.682	13.62
374.893	7.81
375.103	4.6
375.314	3.37
375.524	-1.83
375.735	-5.82
375.945	-0.54
376.156	-0.3
376.366	-3.03
376.577	-3.47
376.787	-1.27
376.997	4.69
377.208	7.39
377.418	7.48
377.629	5.35
377.839	12.81
378.049	12.42
378.26	15.26
378.47	15.66
378.68	11.42
378.89	10.6
379.101	6.49
379.311	2.16
379.521	6.2
379.732	-0.52
379.942	-0.78
380.152	2.96
380.362	7.57
380.572	14.76
380.783	16.17
380.993	15.05
381.203	18.4
381.413	19.2
381.623	21.96
381.833	15.77
382.043	9.48
382.253	9.77
382.463	8.7
382.674	9.74
382.884	6.59
383.094	4.55
383.304	6.27
383.514	8.64
383.724	7.01
383.934	7.24
384.144	7.98
384.353	3.56
384.563	0.14
384.773	0.24
384.983	1.77
385.193	4.08
385.403	3.86
385.613	0.02
385.823	3.57
386.033	6.33
386.242	1.08
386.452	0.56
386.662	-0.97
386.872	-1.79
387.082	0.83
387.291	0.02
387.501	1.07
387.711	6.73
387.921	4.7
388.13	3.27
388.34	2.84
388.55	3.98
388.759	2.72
388.969	-1.71
389.179	-1.33
389.388	0.21
389.598	0.37
389.807	1.35
390.017	0.65
390.227	3.48
390.436	4.73
390.646	4.67
390.855	3.36
391.065	3.74
391.274	2.9
391.484	2.35
391.693	2.29
391.903	1.89
392.112	0.47
392.322	2.1
392.531	2.17
392.74	1.61
392.95	3.33
393.159	2.45
393.369	2.89
393.578	4.05
393.787	3.41
393.997	4.62
394.206	5.18
394.415	4.8
394.625	4.58
394.834	4.29
395.043	3.85
395.252	4.48
395.462	3.61
395.671	3.97
395.88	3.43
396.089	3.99
396.298	4.48
396.508	4.42
396.717	3.71
396.926	3.65
397.135	3.19
397.344	2.9
397.553	2.94
397.762	2.76
397.971	2.42
398.181	2.45
398.39	2.73
398.599	2.87
398.808	3.32
399.017	3.37
399.226	3.49
399.435	3.69
399.644	3.45
399.853	3.39
400.062	3.28
400.27	3.1
400.479	2.96
400.688	3.08
400.897	3.19
401.106	3.6
401.315	3.49
401.524	3.65
401.733	3.87
401.941	3.81
402.15	3.63
402.359	3.58
402.568	3.46
402.777	3.43
402.985	3.41
403.194	3.24
403.403	3.24
403.612	3.22
403.82	3.26
404.029	3.27
404.238	3.4
404.446	3.3
404.655	3.19
404.864	3.06
405.072	3.04
405.281	2.93
405.489	3.02
405.698	2.92
405.906	2.86
406.115	3.06
406.324	3.15
406.532	3.17
406.741	3.25
406.949	3.03
407.158	3.07
407.366	3.19
407.574	3.13
407.783	3.05
407.991	2.96
408.2	2.92
408.408	3.07
408.617	3.09
408.825	3
409.033	2.91
409.242	2.96
409.45	3.04
409.658	3.01
409.867	2.95
410.075	2.89
410.283	2.88
410.491	2.94
410.7	2.89
410.908	2.93
411.116	2.98
411.324	3
411.533	2.93
411.741	2.92
411.949	2.88
412.157	2.97
412.365	2.91
412.573	2.88
412.781	2.78
412.99	2.93
413.198	2.99
413.406	2.98
413.614	2.96
413.822	2.98
414.03	2.9
414.238	3.04
414.446	2.92
414.654	2.93
414.862	2.92
415.07	2.88
415.278	2.78
415.486	2.88
415.694	2.75
415.902	2.72
416.109	2.7
416.317	2.69
416.525	2.71
416.733	2.83
416.941	2.7
417.149	2.83
417.357	2.92
417.564	2.85
417.772	2.78
417.98	2.75
418.188	2.65
418.395	2.66
418.603	2.49
418.811	2.32
419.019	2.34
419.226	2.38
419.434	2.3
419.642	2.31
419.849	2.29
420.057	2.34
420.265	2.43
420.472	2.4
420.68	2.35
420.887	2.43
421.095	2.47
421.302	2.57
421.51	2.62
421.717	2.65
421.925	2.65
422.132	2.68
422.34	2.65
422.547	2.53
422.755	2.47
422.962	2.38
423.17	2.28
423.377	2.43
423.585	2.45
423.792	2.47
423.999	2.56
424.207	2.49
424.414	2.57
424.621	2.64
424.829	2.43
425.036	2.34
425.243	2.31
425.451	2.28
425.658	2.4
425.865	2.35
426.072	2.37
426.28	2.39
426.487	2.47
426.694	2.5
426.901	2.39
427.108	2.36
427.315	2.38
427.523	2.42
427.73	2.5
427.937	2.47
428.144	2.49
428.351	2.72
428.558	2.69
428.765	2.62
428.972	2.49
429.179	2.44
429.386	2.44
429.593	2.39
429.8	2.34
430.007	2.39
430.214	2.51
430.421	2.56
430.628	2.47
430.835	2.49
431.042	2.53
431.249	2.44
431.456	2.41
431.662	2.35
431.869	2.4
432.076	2.51
432.283	2.46
432.49	2.4
432.697	2.49
432.903	2.52
433.11	2.52
433.317	2.53
433.524	2.49
433.73	2.58
433.937	2.58
434.144	2.59
434.35	2.53
434.557	2.52
434.764	2.45
434.97	2.56
435.177	2.54
435.384	2.59
435.59	2.56
435.797	2.61
436.003	2.63
436.21	2.63
436.416	2.54
436.623	2.55
436.829	2.5
437.036	2.5
437.242	2.47
437.449	2.54
437.655	2.54
437.862	2.57
438.068	2.61
438.275	2.61
438.481	2.67
438.687	2.74
438.894	2.71
439.1	2.81
439.307	2.79
439.513	2.72
439.719	2.8
439.926	2.78
440.132	2.72
440.338	2.73
440.544	2.71
440.751	2.75
440.957	2.76
441.163	2.75
441.369	2.7
441.575	2.67
441.782	2.64
441.988	2.64
442.194	2.65
442.4	2.71
442.606	2.69
442.812	2.73
443.018	2.79
443.224	2.82
443.431	2.82
443.637	2.81
443.843	2.76
444.049	2.76
444.255	2.74
444.461	2.78
444.667	2.77
444.873	2.78
445.079	2.85
445.284	2.88
445.49	2.85
445.696	2.87
445.902	2.88
446.108	2.87
446.314	2.91
446.52	2.91
446.726	2.96
446.931	2.97
447.137	2.97
447.343	2.94
447.549	2.91
447.755	2.85
447.96	2.82
448.166	2.84
448.372	2.91
448.578	2.95
448.783	2.94
448.989	3.06
449.195	3.1
449.4	3.12
449.606	3.09
449.812	3.1
450.017	3.05
450.223	3.06
450.428	2.99
450.634	2.99
450.84	2.97
451.045	2.96
451.251	2.91
451.456	2.88
451.662	2.89
451.867	2.93
452.073	2.91
452.278	2.88
452.483	2.87
452.689	2.88
452.894	2.86
453.1	2.83
453.305	2.8
453.51	2.83
453.716	2.81
453.921	2.81
454.127	2.81
454.332	2.9
454.537	2.93
454.742	2.93
454.948	2.9
455.153	2.95
455.358	3
455.563	3.01
455.769	2.95
455.974	2.95
456.179	2.94
456.384	2.97
456.589	2.96
456.795	2.9
457	2.91
457.205	2.92
457.41	2.98
457.615	2.99
457.82	3.01
458.025	3.01
458.23	3.03
458.435	2.98
458.64	3.05
458.845	3.04
459.05	3.03
459.255	3
459.46	3.02
459.665	3.07
459.87	3.1
460.075	3.06
460.28	3.03
460.485	3.15
460.69	3.11
460.895	3.12
461.099	3.13
461.304	3.17
461.509	3.15
461.714	3.19
461.919	3.1
462.123	3.19
462.328	3.17
462.533	3.12
462.738	3.14
462.942	3.23
463.147	3.21
463.352	3.24
463.556	3.24
463.761	3.26
463.966	3.3
464.17	3.3
464.375	3.26
464.58	3.26
464.784	3.3
464.989	3.26
465.193	3.32
465.398	3.38
465.602	3.4
465.807	3.42
466.011	3.45
466.216	3.41
466.42	3.45
466.625	3.38
466.829	3.39
467.034	3.41
467.238	3.48
467.443	3.52
467.647	3.53
467.851	3.57
468.056	3.57
468.26	3.55
468.464	3.52
468.669	3.5
468.873	3.5
469.077	3.54
469.282	3.53
469.486	3.6
469.69	3.64
469.894	3.7
470.099	3.71
470.303	3.7
470.507	3.69
470.711	3.7
