Data from Ofra_2a_PS_2CX13O_Reflection_3.txt Node
Date: Tue Jul 20 10:02:33 EDT 2021
User: Adam
Spectrometer: FLMT01687
Trigger mode: 0
Integration Time (sec): 9.450000E-1
Scans to average: 3
Electric dark correction enabled: true
Nonlinearity correction enabled: false
Boxcar width: 3
XAxis mode: Wavelengths
Number of Pixels in Spectrum: 3648
>>>>>Begin Spectral Data<<<<<
179.494	1217.16
179.716	726.06
179.937	764.84
180.158	3026.56
180.38	-1429.07
180.601	-248.33
180.823	-42.47
181.044	75.7
181.265	57.89
181.486	125.7
181.708	565.22
181.929	29.77
182.15	-522.73
182.372	62.45
182.593	69.52
182.814	173.05
183.035	28.93
183.257	47.65
183.478	54.58
183.699	83.95
183.92	59.15
184.141	66.56
184.363	41.06
184.584	36.06
184.805	51.93
185.026	53.64
185.247	22.46
185.468	23.65
185.689	9.88
185.91	33.66
186.132	30.35
186.353	8.7
186.574	12.35
186.795	0.64
187.016	12.95
187.237	13.37
187.458	-10.2
187.679	-21.76
187.9	-14.98
188.121	-10.9
188.342	27.61
188.563	20.63
188.784	23.44
189.005	27.12
189.226	28.24
189.447	24.74
189.667	31.13
189.888	41.97
190.109	31.2
190.33	15.72
190.551	18.68
190.772	25.51
190.993	38.21
191.214	33.07
191.434	14.53
191.655	24.99
191.876	36.41
192.097	30.8
192.318	29.55
192.538	26.94
192.759	32.73
192.98	31.24
193.201	25.04
193.421	33.34
193.642	37.7
193.863	28.42
194.083	10.65
194.304	0.63
194.525	19.64
194.745	6.65
194.966	-0.2
195.187	7.61
195.407	3.89
195.628	12.87
195.848	7.89
196.069	-13.69
196.29	-8.79
196.51	-20.05
196.731	-19.61
196.951	-4.13
197.172	1.07
197.392	8.23
197.613	17.13
197.833	13.47
198.054	19.51
198.274	-3.45
198.495	4.7
198.715	-21.56
198.936	-15.2
199.156	-11.21
199.377	-4.82
199.597	-2.82
199.817	5.93
200.038	16.33
200.258	27.89
200.479	44.81
200.699	36.13
200.919	34.35
201.14	23.76
201.36	47.94
201.58	26.27
201.801	35.37
202.021	18.23
202.241	33.41
202.461	42.12
202.682	49.41
202.902	39.24
203.122	39.87
203.342	39.85
203.563	45.8
203.783	37.85
204.003	38.41
204.223	40.04
204.443	50.17
204.663	46.6
204.884	32.74
205.104	25.33
205.324	32.18
205.544	26.72
205.764	22.52
205.984	6.15
206.204	15.59
206.424	33.55
206.644	23.33
206.864	13.74
207.084	28.23
207.304	26.14
207.525	29.78
207.745	36.39
207.964	31.47
208.184	49.06
208.404	64.12
208.624	54.99
208.844	52.74
209.064	64.47
209.284	58.95
209.504	58.36
209.724	37.76
209.944	25.39
210.164	20.71
210.384	20.05
210.604	-23.96
210.823	-26.3
211.043	-22.52
211.263	3.22
211.483	3.88
211.703	17.64
211.922	20.11
212.142	31.89
212.362	30.51
212.582	32
212.801	20
213.021	21.92
213.241	-1.87
213.461	-17.38
213.68	-22.68
213.9	-8.36
214.12	-10.53
214.339	1.24
214.559	6.4
214.779	22.71
214.998	36.73
215.218	48.56
215.438	48.63
215.657	47.03
215.877	44.62
216.096	39.52
216.316	35.88
216.535	42.25
216.755	24.06
216.974	12.46
217.194	10.61
217.413	21.11
217.633	15.1
217.852	9.28
218.072	-16.37
218.291	22.1
218.511	22.71
218.73	13.4
218.95	-0.07
219.169	9.98
219.389	1.1
219.608	19.56
219.827	11.16
220.047	21.95
220.266	28.69
220.485	33.38
220.705	26.14
220.924	43.72
221.143	27.09
221.363	19.31
221.582	13.24
221.801	22.34
222.021	23.46
222.24	38.59
222.459	24.04
222.678	42.27
222.897	41.79
223.117	43.64
223.336	39.44
223.555	32.48
223.774	31.94
223.993	42.68
224.213	34.74
224.432	48.72
224.651	38.2
224.87	51.31
225.089	61.32
225.308	51.44
225.527	49.66
225.746	55.39
225.965	40.15
226.184	53.82
226.404	36.57
226.623	30.82
226.842	33.35
227.061	31.56
227.28	31.02
227.499	43.41
227.718	31.39
227.936	26.52
228.155	24.12
228.374	18.93
228.593	20.37
228.812	19.14
229.031	6.22
229.25	22.58
229.469	37.5
229.688	44.11
229.907	53.39
230.125	52.08
230.344	54.52
230.563	48.94
230.782	37.28
231.001	31.19
231.22	24.44
231.438	17.04
231.657	12.23
231.876	8.65
232.095	14.17
232.313	20
232.532	28.57
232.751	39.7
232.969	44.95
233.188	51.99
233.407	46.22
233.625	39.04
233.844	45.48
234.063	44.07
234.281	38.68
234.5	34.31
234.719	25.68
234.937	42.7
235.156	37.57
235.374	34.78
235.593	27.36
235.811	25.47
236.03	18.48
236.249	29.56
236.467	16.69
236.686	36.87
236.904	25.24
237.123	29.21
237.341	24.93
237.559	30.16
237.778	37.21
237.996	32.54
238.215	21.23
238.433	33.9
238.652	24.62
238.87	24.18
239.088	15.53
239.307	10.38
239.525	-0.92
239.743	-7.32
239.962	-9.74
240.18	9.04
240.398	15.62
240.617	28.11
240.835	34.12
241.053	62.07
241.271	80.33
241.49	63.95
241.708	53.58
241.926	38.38
242.144	44.66
242.363	38.73
242.581	24.57
242.799	1.47
243.017	14.37
243.235	10.64
243.453	27.08
243.672	14.17
243.89	14.19
244.108	23.72
244.326	25.6
244.544	31.08
244.762	28.42
244.98	26.49
245.198	30.07
245.416	30.21
245.634	32.91
245.852	41.89
246.07	38.73
246.288	44.62
246.506	53.83
246.724	54.5
246.942	55.38
247.16	42.13
247.378	26.52
247.596	32.01
247.814	23.24
248.032	11.7
248.25	11.05
248.468	4.37
248.685	9.15
248.903	10.06
249.121	5.74
249.339	18.95
249.557	24.12
249.775	10.2
249.992	10.34
250.21	-1.71
250.428	-5.01
250.646	-1.31
250.863	-6.32
251.081	-12.33
251.299	10.54
251.517	14.72
251.734	9.58
251.952	16.52
252.17	-14.36
252.387	-3.29
252.605	-4.31
252.823	-23.28
253.04	-22.39
253.258	-1.22
253.475	12.31
253.693	41.28
253.911	43.28
254.128	40.12
254.346	35.21
254.563	36.61
254.781	32.16
254.998	23.69
255.216	15.61
255.433	11.24
255.651	10.31
255.868	18.77
256.086	11.48
256.303	22.77
256.521	25.23
256.738	19.84
256.956	21.43
257.173	20.62
257.39	27.6
257.608	35.94
257.825	37.65
258.043	42.85
258.26	46.68
258.477	42.3
258.695	47.54
258.912	43.98
259.129	22.95
259.346	22.3
259.564	17.79
259.781	29.71
259.998	29.51
260.216	37.29
260.433	28.71
260.65	43.38
260.867	16.52
261.084	18.2
261.302	5.25
261.519	-2.85
261.736	-19.25
261.953	-12.12
262.17	-5.05
262.387	12.68
262.604	1.18
262.822	4.91
263.039	14.34
263.256	16.67
263.473	13.75
263.69	17.11
263.907	16.83
264.124	17.84
264.341	15.29
264.558	18.76
264.775	23.81
264.992	28.36
265.209	34.35
265.426	30.97
265.643	34.97
265.86	31.57
266.077	28.53
266.294	27.34
266.51	30.64
266.727	11.46
266.944	5.86
267.161	3.62
267.378	17.8
267.595	7.22
267.812	-0.86
268.028	-0.28
268.245	11.85
268.462	19.24
268.679	15.45
268.896	8.33
269.112	27.93
269.329	38.57
269.546	34.1
269.763	33.29
269.979	34.26
270.196	36.58
270.413	35.14
270.629	33.05
270.846	34.17
271.063	36.59
271.279	30.66
271.496	24.06
271.712	21.29
271.929	22.4
272.146	16.56
272.362	-3.85
272.579	-10.1
272.795	2.58
273.012	11.91
273.228	13.24
273.445	22.11
273.661	14.68
273.878	25.36
274.094	26.64
274.311	19.47
274.527	14.92
274.744	18.33
274.96	14.99
275.177	25.31
275.393	28
275.609	33.54
275.826	34.09
276.042	46.53
276.259	41.3
276.475	30.69
276.691	23.15
276.908	23.72
277.124	16.13
277.34	15.07
277.557	5.15
277.773	7.22
277.989	7.8
278.205	-3.15
278.422	0.54
278.638	14.79
278.854	13.02
279.07	8.86
279.286	12.31
279.503	14.01
279.719	36.8
279.935	23.22
280.151	24.53
280.367	32.86
280.583	37.71
280.799	40.68
281.016	41.31
281.232	30.27
281.448	40.44
281.664	33.59
281.88	31.1
282.096	32.71
282.312	21.95
282.528	14.8
282.744	31.53
282.96	22.88
283.176	23.94
283.392	32.87
283.608	25.75
283.824	25.92
284.04	31.99
284.256	26.83
284.471	32.61
284.687	28.44
284.903	19.2
285.119	10.68
285.335	10.42
285.551	27.13
285.767	23.83
285.982	13.83
286.198	15.38
286.414	29.69
286.63	43.21
286.846	48.98
287.061	34.52
287.277	40.74
287.493	51.11
287.709	52.91
287.924	52.57
288.14	53.29
288.356	59.98
288.571	53.75
288.787	40.43
289.003	45.05
289.218	33.7
289.434	32.35
289.65	30.39
289.865	27.64
290.081	28.49
290.296	30.83
290.512	24.27
290.727	36.76
290.943	34.97
291.159	27.49
291.374	25.98
291.59	26.59
291.805	26.81
292.021	15.95
292.236	16.63
292.451	25.45
292.667	28.31
292.882	13.03
293.098	14.26
293.313	18.14
293.529	26.08
293.744	30.94
293.959	15.23
294.175	6.14
294.39	22.65
294.605	32.56
294.821	28.36
295.036	20.78
295.251	5.13
295.467	2.53
295.682	16.46
295.897	11.67
296.112	10.59
296.328	7.38
296.543	10.95
296.758	16.92
296.973	29.23
297.188	21.82
297.404	25.69
297.619	20.31
297.834	29.61
298.049	32.74
298.264	31.45
298.479	16.88
298.694	25.7
298.909	19.04
299.125	26.71
299.34	24.35
299.555	26.99
299.77	25.87
299.985	24.89
300.2	16.03
300.415	15.71
300.63	1.79
300.845	8.94
301.06	2.86
301.275	6.84
301.49	14.27
301.704	17.08
301.919	29.48
302.134	24.41
302.349	7.26
302.564	13.2
302.779	3.65
302.994	5.15
303.209	-1.13
303.423	-8.34
303.638	18.12
303.853	28.62
304.068	21.91
304.283	22.05
304.497	22.54
304.712	30.64
304.927	24.39
305.142	17.84
305.356	22.32
305.571	27.73
305.786	28.09
306	34.26
306.215	29.28
306.43	40.84
306.644	43.52
306.859	43.6
307.074	38.95
307.288	43.31
307.503	36.8
307.717	38.25
307.932	34.35
308.147	29.21
308.361	27.77
308.576	26.46
308.79	22.71
309.005	16.53
309.219	21.41
309.434	22.64
309.648	8.71
309.863	10.12
310.077	1.63
310.292	2.62
310.506	16.67
310.72	18.01
310.935	12.18
311.149	25.72
311.364	34.07
311.578	35.81
311.792	37.77
312.007	28.41
312.221	22.29
312.435	23.51
312.649	24.54
312.864	9.86
313.078	29.84
313.292	27.28
313.507	39.59
313.721	43.58
313.935	60.54
314.149	48.49
314.363	47.99
314.578	61.71
314.792	62.02
315.006	57.51
315.22	61.65
315.434	50.56
315.648	54.29
315.862	49.89
316.077	34.53
316.291	35.45
316.505	39.1
316.719	17.44
316.933	28.63
317.147	31.29
317.361	38.4
317.575	35.16
317.789	33.95
318.003	39.03
318.217	51.12
318.431	40.88
318.645	35.76
318.859	21.58
319.073	19.24
319.287	20.85
319.5	12.57
319.714	10.54
319.928	13.4
320.142	18.02
320.356	28.46
320.57	27.13
320.784	30.02
320.997	37.28
321.211	37.77
321.425	27.52
321.639	27.31
321.853	27.65
322.066	28.14
322.28	26.29
322.494	21.88
322.707	19.01
322.921	23.77
323.135	23.6
323.349	22.77
323.562	25.72
323.776	25.84
323.989	27.42
324.203	28.21
324.417	24.87
324.63	18.99
324.844	9.51
325.057	22.87
325.271	17.3
325.485	7.62
325.698	10.31
325.912	22.83
326.125	30.33
326.339	39.92
326.552	33.06
326.766	43.59
326.979	50.25
327.193	49.81
327.406	42.73
327.619	34.3
327.833	32.87
328.046	25.46
328.26	11.48
328.473	12.06
328.686	15.31
328.9	13.29
329.113	2.94
329.326	7.2
329.54	7.2
329.753	8.76
329.966	13.56
330.179	17.88
330.393	25.49
330.606	44.58
330.819	47.9
331.032	47.65
331.246	51.57
331.459	49.1
331.672	43.93
331.885	42.12
332.098	41.73
332.311	33.11
332.525	28.19
332.738	31.74
332.951	31.23
333.164	34
333.377	25.58
333.59	25.99
333.803	28.16
334.016	33.77
334.229	33.51
334.442	34.18
334.655	36
334.868	42.05
335.081	44
335.294	38
335.507	43.99
335.72	32.93
335.933	31.82
336.146	28.57
336.359	27.13
336.572	18.55
336.785	26.49
336.997	18.65
337.21	27.73
337.423	27.31
337.636	27.74
337.849	20.37
338.062	21.45
338.274	14.81
338.487	13.87
338.7	13.06
338.913	14.11
339.125	9.3
339.338	16.28
339.551	20.04
339.763	19.87
339.976	21.58
340.189	20.15
340.402	18.21
340.614	22.07
340.827	14.82
341.039	13.98
341.252	17.1
341.465	11.88
341.677	3.19
341.89	5.22
342.102	8.06
342.315	18.71
342.527	15.32
342.74	14.41
342.952	19.53
343.165	35.96
343.377	36.83
343.59	37.48
343.802	39.27
344.015	44.31
344.227	42.07
344.44	37.62
344.652	35.72
344.864	35.42
345.077	24.87
345.289	21.02
345.502	19.3
345.714	15.49
345.926	24.49
346.139	18.93
346.351	-3.17
346.563	15.31
346.775	7.64
346.988	-1.51
347.2	7.92
347.412	3.47
347.624	8.15
347.837	25.47
348.049	17.03
348.261	18.83
348.473	12.58
348.685	11.47
348.897	6.61
349.11	8.37
349.322	0.26
349.534	4.46
349.746	19.57
349.958	31.34
350.17	33.17
350.382	35.79
350.594	25.37
350.806	25.72
351.018	28.29
351.23	24.87
351.442	22.21
351.654	26.52
351.866	29.3
352.078	32.63
352.29	38.94
352.502	36.31
352.714	40.48
352.926	44.64
353.138	35.14
353.35	30.94
353.561	21.94
353.773	19.63
353.985	23.28
354.197	18
354.409	21.59
354.621	24.52
354.832	25.94
355.044	35.95
355.256	32.92
355.468	35.32
355.679	38.34
355.891	35.66
356.103	38.29
356.314	38.94
356.526	33.81
356.738	24.57
356.949	17.93
357.161	11.51
357.373	10.85
357.584	17.98
357.796	15.6
358.008	19.8
358.219	33.3
358.431	30.78
358.642	33
358.854	30.99
359.065	21.74
359.277	23.69
359.488	20.16
359.7	16.55
359.911	20.63
360.123	25.33
360.334	23.08
360.546	20.68
360.757	26.71
360.969	34.17
361.18	31.24
361.391	32.81
361.603	33.24
361.814	37.29
362.025	39.09
362.237	30.71
362.448	25.83
362.659	23.35
362.871	22.5
363.082	17.94
363.293	18.57
363.504	21.52
363.716	26.47
363.927	26.6
364.138	28.97
364.349	27.46
364.56	25.88
364.772	26.47
364.983	21.08
365.194	21.01
365.405	19.1
365.616	20.52
365.827	18.01
366.038	23.77
366.25	15.26
366.461	18.72
366.672	13.7
366.883	22.85
367.094	17.96
367.305	22.82
367.516	20.98
367.727	25.27
367.938	24.58
368.149	27.59
368.36	23.16
368.571	28.97
368.781	23.02
368.992	22.39
369.203	22.16
369.414	24.47
369.625	20.77
369.836	19.18
370.047	14.18
370.258	14.52
370.468	12.18
370.679	9.33
370.89	15.9
371.101	17.26
371.312	17.98
371.522	19.53
371.733	15.8
371.944	20.32
372.155	13.02
372.365	5.35
372.576	4.16
372.787	4.36
372.997	2.13
373.208	7.74
373.419	6.66
373.629	19.84
373.84	14.8
374.05	20.22
374.261	12.93
374.472	21.33
374.682	20.49
374.893	13.77
375.103	12.24
375.314	17.44
375.524	14.2
375.735	15.43
375.945	11.77
376.156	15.99
376.366	21.08
376.577	18.3
376.787	18.76
376.997	21.8
377.208	22.99
377.418	25.19
377.629	16.95
377.839	19.18
378.049	24.12
378.26	26.27
378.47	22.38
378.68	24.76
378.89	17.46
379.101	17.33
379.311	14.72
379.521	10.29
379.732	-3.01
379.942	0.66
380.152	7.89
380.362	19.17
380.572	22.23
380.783	22.48
380.993	22.47
381.203	30.8
381.413	34.59
381.623	28.27
381.833	18.34
382.043	11.97
382.253	13.96
382.463	18.54
382.674	18.49
382.884	12.12
383.094	12.79
383.304	10.52
383.514	17.28
383.724	8.55
383.934	6.12
384.144	7.62
384.353	9.51
384.563	4.33
384.773	9.22
384.983	10.02
385.193	16.96
385.403	16.73
385.613	12.07
385.823	11.87
386.033	16.44
386.242	17.03
386.452	15.74
386.662	16.52
386.872	16.13
387.082	13.47
387.291	13.19
387.501	12.28
387.711	9.69
387.921	8.57
388.13	6.75
388.34	5.63
388.55	10.06
388.759	9.44
388.969	5.25
389.179	8
389.388	10.74
389.598	8.49
389.807	7.44
390.017	6.33
390.227	4.28
390.436	6.91
390.646	6.71
390.855	5.09
391.065	4.83
391.274	4.69
391.484	5.92
391.693	7.41
391.903	7.35
392.112	6.01
392.322	6.71
392.531	7.35
392.74	7.45
392.95	7.49
393.159	7.35
393.369	7.13
393.578	7.73
393.787	7.73
393.997	9.17
394.206	9.61
394.415	8.42
394.625	6.78
394.834	5.6
395.043	6.19
395.252	5.74
395.462	5.27
395.671	5.52
395.88	5.7
396.089	6.08
396.298	6.39
396.508	5.55
396.717	5.24
396.926	4.7
397.135	4.16
397.344	4.02
397.553	4.57
397.762	4.77
397.971	4.92
398.181	4.61
398.39	4.73
398.599	5.11
398.808	5.43
399.017	5.62
399.226	5.76
399.435	5.73
399.644	5.94
399.853	5.9
400.062	5.68
400.27	5.57
400.479	5.37
400.688	5.27
400.897	5.41
401.106	5.59
401.315	5.57
401.524	5.64
401.733	5.72
401.941	5.48
402.15	5.31
402.359	5.27
402.568	5.14
402.777	5.01
402.985	4.86
403.194	4.69
403.403	4.59
403.612	4.61
403.82	4.55
404.029	4.4
404.238	4.49
404.446	4.51
404.655	4.48
404.864	4.45
405.072	4.44
405.281	4.31
405.489	4.43
405.698	4.29
405.906	4.29
406.115	4.32
406.324	4.39
406.532	4.49
406.741	4.52
406.949	4.37
407.158	4.51
407.366	4.58
407.574	4.56
407.783	4.45
407.991	4.28
408.2	4.3
408.408	4.4
408.617	4.28
408.825	4.2
409.033	4.16
409.242	4.18
409.45	4.25
409.658	4.24
409.867	4.18
410.075	4.14
410.283	4.01
410.491	4.03
410.7	4.15
410.908	4.13
411.116	4.03
411.324	4.06
411.533	3.96
411.741	4
411.949	3.99
412.157	3.94
412.365	3.91
412.573	3.98
412.781	3.92
412.99	4.03
413.198	4.08
413.406	4.03
413.614	4.04
413.822	3.99
414.03	3.88
414.238	4.01
414.446	3.98
414.654	3.96
414.862	3.94
415.07	3.94
415.278	3.92
415.486	4.08
415.694	3.9
415.902	3.86
416.109	3.85
416.317	3.8
416.525	3.86
416.733	3.94
416.941	3.76
417.149	3.88
417.357	3.95
417.564	3.95
417.772	4.02
417.98	3.88
418.188	3.76
418.395	3.8
418.603	3.65
418.811	3.57
419.019	3.59
419.226	3.6
419.434	3.51
419.642	3.59
419.849	3.58
420.057	3.64
420.265	3.69
420.472	3.63
420.68	3.56
420.887	3.63
421.095	3.65
421.302	3.78
421.51	3.9
421.717	3.92
421.925	3.82
422.132	3.85
422.34	3.81
422.547	3.69
422.755	3.57
422.962	3.32
423.17	3.23
423.377	3.39
423.585	3.3
423.792	3.39
423.999	3.4
424.207	3.26
424.414	3.4
424.621	3.46
424.829	3.33
425.036	3.37
425.243	3.36
425.451	3.38
425.658	3.55
425.865	3.47
426.072	3.5
426.28	3.56
426.487	3.56
426.694	3.45
426.901	3.48
427.108	3.46
427.315	3.45
427.523	3.41
427.73	3.48
427.937	3.45
428.144	3.5
428.351	3.58
428.558	3.46
428.765	3.5
428.972	3.48
429.179	3.36
429.386	3.42
429.593	3.46
429.8	3.52
430.007	3.6
430.214	3.66
430.421	3.68
430.628	3.59
430.835	3.58
431.042	3.6
431.249	3.52
431.456	3.56
431.662	3.57
431.869	3.59
432.076	3.73
432.283	3.69
432.49	3.65
432.697	3.57
432.903	3.56
433.11	3.58
433.317	3.6
433.524	3.53
433.73	3.64
433.937	3.67
434.144	3.87
434.35	3.83
434.557	3.74
434.764	3.69
434.97	3.84
435.177	3.77
435.384	3.84
435.59	3.73
435.797	3.79
436.003	3.84
436.21	3.84
436.416	3.76
436.623	3.82
436.829	3.8
437.036	3.8
437.242	3.85
437.449	3.88
437.655	3.89
437.862	3.93
438.068	3.98
438.275	3.91
438.481	3.98
438.687	3.95
438.894	3.93
439.1	3.99
439.307	3.98
439.513	3.96
439.719	4.09
439.926	4.09
440.132	4.12
440.338	4.21
440.544	4.17
440.751	4.2
440.957	4.16
441.163	4.16
441.369	4.09
441.575	4.06
441.782	4.01
441.988	4.05
442.194	4.1
442.4	4.18
442.606	4.19
442.812	4.25
443.018	4.26
443.224	4.33
443.431	4.33
443.637	4.26
443.843	4.27
444.049	4.2
444.255	4.17
444.461	4.2
444.667	4.14
444.873	4.15
445.079	4.22
445.284	4.15
445.49	4.18
445.696	4.25
445.902	4.26
446.108	4.29
446.314	4.35
446.52	4.35
446.726	4.42
446.931	4.46
447.137	4.46
447.343	4.47
447.549	4.5
447.755	4.42
447.96	4.4
448.166	4.43
448.372	4.38
448.578	4.38
448.783	4.35
448.989	4.39
449.195	4.44
449.4	4.44
449.606	4.41
449.812	4.49
450.017	4.51
450.223	4.56
450.428	4.5
450.634	4.53
450.84	4.47
451.045	4.48
451.251	4.5
451.456	4.42
451.662	4.43
451.867	4.46
452.073	4.45
452.278	4.55
452.483	4.58
452.689	4.57
452.894	4.63
453.1	4.57
453.305	4.55
453.51	4.6
453.716	4.54
453.921	4.52
454.127	4.44
454.332	4.46
454.537	4.54
454.742	4.58
454.948	4.54
455.153	4.58
455.358	4.62
455.563	4.66
455.769	4.65
455.974	4.59
456.179	4.52
456.384	4.51
456.589	4.54
456.795	4.46
457	4.51
457.205	4.45
457.41	4.49
457.615	4.58
457.82	4.61
458.025	4.52
458.23	4.57
458.435	4.51
458.64	4.6
458.845	4.55
459.05	4.53
459.255	4.51
459.46	4.56
459.665	4.61
459.87	4.66
460.075	4.65
460.28	4.68
460.485	4.74
460.69	4.71
460.895	4.75
461.099	4.75
461.304	4.77
461.509	4.68
461.714	4.68
461.919	4.62
462.123	4.69
462.328	4.69
462.533	4.66
462.738	4.63
462.942	4.76
463.147	4.72
463.352	4.75
463.556	4.74
463.761	4.71
463.966	4.76
464.17	4.82
464.375	4.8
464.58	4.86
464.784	4.86
464.989	4.86
465.193	4.86
465.398	4.86
465.602	4.83
465.807	4.86
466.011	4.89
466.216	4.94
466.42	4.97
466.625	5.09
466.829	5.08
467.034	5.16
467.238	5.21
467.443	5.21
467.647	5.26
467.851	5.28
468.056	5.26
468.26	5.27
468.464	5.28
468.669	5.29
468.873	5.29
