Data from Ofra_PS_T2_1A_6GT17_Reflection_2.txt Node
Date: Wed Jul 21 18:13:37 EDT 2021
User: Adam
Spectrometer: FLMT01687
Trigger mode: 0
Integration Time (sec): 1.100000E0
Scans to average: 2
Electric dark correction enabled: true
Nonlinearity correction enabled: false
Boxcar width: 2
XAxis mode: Wavelengths
Number of Pixels in Spectrum: 3648
>>>>>Begin Spectral Data<<<<<
179.494	430.2
179.716	509.65
179.937	500.35
180.158	479.44
180.38	832.97
180.601	366.71
180.823	63.11
181.044	-119.08
181.265	-19.3
181.486	-37.6
181.708	64.61
181.929	760.71
182.15	-541.9
182.372	14.95
182.593	-74.48
182.814	30.85
183.035	75
183.257	66.51
183.478	26.65
183.699	61.12
183.92	34.72
184.141	23.97
184.363	10.4
184.584	58.98
184.805	44.89
185.026	57.52
185.247	56.13
185.468	34.5
185.689	24.89
185.91	39.67
186.132	34.12
186.353	39.13
186.574	110.58
186.795	90.71
187.016	46.4
187.237	35.26
187.458	29.61
187.679	4.88
187.9	10.47
188.121	19.39
188.342	36.39
188.563	59.82
188.784	71.89
189.005	50.53
189.226	97.91
189.447	92.85
189.667	-64.44
189.888	-241.26
190.109	-971.1
190.33	-643.06
190.551	-998.89
190.772	-181.05
190.993	-106.15
191.214	-95.14
191.434	-60.94
191.655	-24.02
191.876	-60.88
192.097	-156.95
192.318	-136.63
192.538	-196.41
192.759	-143.14
192.98	-53.81
193.201	-13.11
193.421	-1.72
193.642	19.93
193.863	26.61
194.083	-3.36
194.304	-8.01
194.525	-10.63
194.745	-22.83
194.966	-38.25
195.187	-34.07
195.407	-36.73
195.628	-117.98
195.848	-117.4
196.069	-92.58
196.29	-16.19
196.51	-45.13
196.731	-17.21
196.951	-25.67
197.172	-59.87
197.392	-111.54
197.613	-114.2
197.833	-155.96
198.054	-140.57
198.274	-99.18
198.495	-110.88
198.715	-65.55
198.936	-82.24
199.156	-70
199.377	-156.35
199.597	-161.28
199.817	-181.67
200.038	-88.47
200.258	-139.57
200.479	-67.26
200.699	-51.02
200.919	26.19
201.14	-29.19
201.36	-48.07
201.58	1.15
201.801	38.33
202.021	-7.64
202.241	-18.1
202.461	-15.86
202.682	-98.08
202.902	-182.01
203.122	-96.73
203.342	-56.29
203.563	-16.42
203.783	0.36
204.003	-32.13
204.223	-32.7
204.443	39.09
204.663	45.57
204.884	58.71
205.104	76.62
205.324	93.71
205.544	55.04
205.764	51.65
205.984	45.34
206.204	58.51
206.424	38
206.644	10.64
206.864	9.71
207.084	-42.84
207.304	-62.23
207.525	-150.23
207.745	-46.29
207.964	-20.86
208.184	-46.54
208.404	-69.82
208.624	-57.99
208.844	-64.8
209.064	-266.3
209.284	-235.69
209.504	-84.57
209.724	-2.68
209.944	-2.22
210.164	7.22
210.384	22.23
210.604	-1.99
210.823	-45.01
211.043	-46.94
211.263	-21.93
211.483	-33.49
211.703	-49.85
211.922	-29.77
212.142	25.08
212.362	52.69
212.582	42
212.801	26.4
213.021	11.28
213.241	-15.81
213.461	-74.75
213.68	-111.29
213.9	-70.62
214.12	-74.42
214.339	-121.29
214.559	-90.73
214.779	-22.29
214.998	-19.13
215.218	-29.78
215.438	8.47
215.657	11.85
215.877	16.99
216.096	36.09
216.316	55.06
216.535	31.11
216.755	41.11
216.974	-21.44
217.194	-94.02
217.413	-113.76
217.633	-115.71
217.852	-268.47
218.072	-106.43
218.291	-61.47
218.511	-16.83
218.73	-26.61
218.95	-17.06
219.169	-34.35
219.389	-57.73
219.608	-51.28
219.827	-49.35
220.047	-32.61
220.266	-10.15
220.485	-12.29
220.705	-9.47
220.924	-13.98
221.143	23.1
221.363	10.98
221.582	27.35
221.801	43.82
222.021	56.77
222.24	18.75
222.459	94.36
222.678	28.69
222.897	-55.66
223.117	-122.79
223.336	-68.95
223.555	-62.53
223.774	-15.41
223.993	14.21
224.213	64.04
224.432	37.54
224.651	42.96
224.87	8.05
225.089	19.73
225.308	13.97
225.527	30.29
225.746	25.06
225.965	27.57
226.184	-8.65
226.404	10.28
226.623	-29.89
226.842	-21.34
227.061	5.33
227.28	5.06
227.499	-21.37
227.718	1.14
227.936	-11.26
228.155	-15.35
228.374	1.47
228.593	10.62
228.812	-9.43
229.031	-10.92
229.25	-51.34
229.469	-58.07
229.688	-49.37
229.907	15.71
230.125	30.61
230.344	36.45
230.563	35.05
230.782	41
231.001	-37.96
231.22	-46.95
231.438	-16.51
231.657	-2.49
231.876	-10.34
232.095	35.96
232.313	55
232.532	45.91
232.751	30.91
232.969	15.71
233.188	-30.68
233.407	5.49
233.625	16.47
233.844	6.01
234.063	12.81
234.281	31.32
234.5	17.3
234.719	5.25
234.937	27.26
235.156	22.53
235.374	13.34
235.593	-1.9
235.811	-16.7
236.03	-33.17
236.249	-39.48
236.467	3.41
236.686	16.1
236.904	24.77
237.123	2.25
237.341	-6.04
237.559	-20.74
237.778	-37.63
237.996	-55.44
238.215	-5.01
238.433	11
238.652	12.9
238.87	0.73
239.088	5.57
239.307	-6.94
239.525	-7.92
239.743	-20.03
239.962	-26.44
240.18	-46.81
240.398	-62.45
240.617	-76.68
240.835	-72.45
241.053	-24.95
241.271	13.49
241.49	17.78
241.708	-19.04
241.926	-45.54
242.144	-39.57
242.363	-90.7
242.581	-107.11
242.799	-42.81
243.017	-0.65
243.235	-17.02
243.453	1.28
243.672	1.01
243.89	-1.11
244.108	-10.18
244.326	16.42
244.544	29.7
244.762	25.24
244.98	37.15
245.198	45.83
245.416	12.76
245.634	9.54
245.852	-4.86
246.07	-25.1
246.288	-34.97
246.506	-58.26
246.724	-57.15
246.942	-27.78
247.16	5.91
247.378	15.07
247.596	23.51
247.814	29.26
248.032	9.35
248.25	11.89
248.468	2.19
248.685	19.38
248.903	41.02
249.121	36.81
249.339	-0.39
249.557	-4.04
249.775	3.74
249.992	-58.41
250.21	-49.79
250.428	-16.72
250.646	-25.74
250.863	-29.88
251.081	-6.22
251.299	2.03
251.517	-2.6
251.734	-6.24
251.952	-29.71
252.17	-21.22
252.387	-6.54
252.605	-0.58
252.823	5.5
253.04	27.52
253.258	42.7
253.475	29.52
253.693	20.81
253.911	32.12
254.128	25.52
254.346	11.47
254.563	5.83
254.781	-15.9
254.998	-46.55
255.216	-68.19
255.433	-55.79
255.651	-9.3
255.868	36.64
256.086	58.28
256.303	63.9
256.521	40.16
256.738	8.89
256.956	-31.77
257.173	-53.32
257.39	-69.72
257.608	-86.7
257.825	-0.51
258.043	33.54
258.26	31.93
258.477	64.09
258.695	64.13
258.912	1.33
259.129	13.76
259.346	-10.18
259.564	-44.24
259.781	-43.34
259.998	5.25
260.216	36.9
260.433	59.27
260.65	53.91
260.867	61.04
261.084	35.43
261.302	1.51
261.519	-1.13
261.736	-10.54
261.953	-32.57
262.17	-16.08
262.387	-46.77
262.604	-63.94
262.822	-85.02
263.039	-75.39
263.256	-110.57
263.473	-70.81
263.69	-47.3
263.907	7.37
264.124	29.81
264.341	27.55
264.558	15.95
264.775	27.31
264.992	2.8
265.209	0.8
265.426	34.4
265.643	41.68
265.86	46.08
266.077	44.8
266.294	28.19
266.51	-25.87
266.727	-47.2
266.944	-67.26
267.161	-48.23
267.378	-41.99
267.595	-2.66
267.812	-9.11
268.028	-10.99
268.245	-6.79
268.462	-24.91
268.679	-35.76
268.896	6.35
269.112	17.36
269.329	18.36
269.546	23.97
269.763	17.57
269.979	0.71
270.196	-4.3
270.413	-35.31
270.629	-40.8
270.846	-49.47
271.063	-31.43
271.279	-47.61
271.496	-44.53
271.712	-19.25
271.929	-19.19
272.146	-32.01
272.362	-22.16
272.579	19.9
272.795	33.15
273.012	37.42
273.228	56.55
273.445	46.8
273.661	8.95
273.878	-54.54
274.094	-35.21
274.311	-84.77
274.527	-13.35
274.744	-5.18
274.96	8.31
275.177	5.24
275.393	24.32
275.609	7.78
275.826	34.26
276.042	30.11
276.259	23.69
276.475	35.6
276.691	31.35
276.908	-1.6
277.124	11.99
277.34	14.93
277.557	-11.29
277.773	-16.16
277.989	-6.45
278.205	-15.51
278.422	-4.82
278.638	-1.05
278.854	15.55
279.07	21.21
279.286	20.08
279.503	-5.92
279.719	-0.06
279.935	-26.02
280.151	-48.02
280.367	-11.78
280.583	-9.59
280.799	-15.08
281.016	-39.27
281.232	-13.5
281.448	-39.96
281.664	-11.22
281.88	-36.1
282.096	-11.72
282.312	25.47
282.528	64.28
282.744	47.91
282.96	47.59
283.176	47.56
283.392	34.78
283.608	23.67
283.824	13.11
284.04	11.93
284.256	6.89
284.471	-17.13
284.687	-23.18
284.903	4.69
285.119	26.38
285.335	16.31
285.551	45.62
285.767	25.74
285.982	1.77
286.198	-30.74
286.414	15.31
286.63	1.79
286.846	29.3
287.061	6.72
287.277	31.36
287.493	-5.67
287.709	19.72
287.924	-15.24
288.14	34.18
288.356	39.13
288.571	55.79
288.787	28.13
289.003	43.09
289.218	28.38
289.434	-15.86
289.65	-9.64
289.865	-7.18
290.081	-2.81
290.296	-18.09
290.512	9.9
290.727	-17.21
290.943	-19.92
291.159	-29.47
291.374	-21.58
291.59	-48.43
291.805	-30.68
292.021	-19.29
292.236	-19.81
292.451	-7.82
292.667	11.3
292.882	15.25
293.098	15.35
293.313	-0.06
293.529	-10.56
293.744	-36
293.959	-42.53
294.175	-53.51
294.39	-20.5
294.605	-12.25
294.821	13
295.036	13.8
295.251	25.78
295.467	-5.37
295.682	-30.31
295.897	-82.81
296.112	-89.11
296.328	-72.24
296.543	-77.5
296.758	-46.46
296.973	-6.11
297.188	32.25
297.404	-4.71
297.619	2.89
297.834	-23.52
298.049	-24.7
298.264	-74.31
298.479	-5.3
298.694	3.7
298.909	21.46
299.125	19.3
299.34	33.99
299.555	-3.2
299.77	6.73
299.985	-24.48
300.2	-69.66
300.415	-93.44
300.63	-54.9
300.845	-67.62
301.06	-70.13
301.275	-41.54
301.49	-16.52
301.704	-30.2
301.919	-43.46
302.134	-46.28
302.349	-38.72
302.564	-92.33
302.779	-98.38
302.994	-56.54
303.209	-44.8
303.423	-24.6
303.638	38.09
303.853	12.68
304.068	6.07
304.283	1.45
304.497	-12.27
304.712	-31.76
304.927	-27.42
305.142	-28.8
305.356	-14.44
305.571	-3.28
305.786	-11.68
306	-18.08
306.215	-12.04
306.43	-34.28
306.644	-29.69
306.859	-17.27
307.074	16.74
307.288	-10.86
307.503	3
307.717	-14.1
307.932	-8.38
308.147	-25.45
308.361	7.54
308.576	-4.17
308.79	-41.75
309.005	-32.59
309.219	-25.25
309.434	-46.08
309.648	-45.48
309.863	-17.19
310.077	-15.19
310.292	-10.86
310.506	-15.42
310.72	-0.92
310.935	7.99
311.149	-14.02
311.364	-5.22
311.578	17.22
311.792	11.87
312.007	12.41
312.221	12.51
312.435	15.76
312.649	-6.01
312.864	29.38
313.078	43.32
313.292	113.77
313.507	98.1
313.721	140.33
313.935	55.02
314.149	41.74
314.363	13.45
314.578	5.76
314.792	6.36
315.006	-16.88
315.22	0.72
315.434	-0.6
315.648	12.86
315.862	18.96
316.077	18.44
316.291	6.48
316.505	20.78
316.719	28.52
316.933	-6.17
317.147	-4.96
317.361	-76.83
317.575	-101.13
317.789	-149.23
318.003	-232.45
318.217	-182.4
318.431	-56.79
318.645	-2.18
318.859	0.43
319.073	25.05
319.287	16.44
319.5	-13.6
319.714	-49.8
319.928	-63.2
320.142	-67.76
320.356	14.08
320.57	51.67
320.784	45
320.997	40.78
321.211	20.31
321.425	-69.05
321.639	-105.67
321.853	-47.27
322.066	-5.12
322.28	-5.13
322.494	11.17
322.707	22.05
322.921	4.67
323.135	-12.47
323.349	7.04
323.562	-10.58
323.776	-22.27
323.989	-13.75
324.203	-42.26
324.417	-59.32
324.63	-60.85
324.844	-61.29
325.057	-59.51
325.271	-22.93
325.485	1.83
325.698	19.13
325.912	34.74
326.125	7.93
326.339	9.35
326.552	-19.31
326.766	-24.28
326.979	-17.66
327.193	36.76
327.406	12.77
327.619	13.07
327.833	23.63
328.046	3.36
328.26	-48.84
328.473	-1.8
328.686	-12.56
328.9	-13.12
329.113	5.95
329.326	1.43
329.54	-27.77
329.753	-45.35
329.966	-72.9
330.179	-52.02
330.393	-22.09
330.606	-10.08
330.819	19.43
331.032	31.58
331.246	26.25
331.459	53.43
331.672	50.25
331.885	32.54
332.098	16.99
332.311	13.84
332.525	-47
332.738	-67.87
332.951	-21.42
333.164	-11.28
333.377	3.45
333.59	9.47
333.803	21.05
334.016	8.91
334.229	5.77
334.442	-4.32
334.655	24.11
334.868	38.58
335.081	34
335.294	15.39
335.507	2.3
335.72	-8.28
335.933	-33.68
336.146	-46.66
336.359	-19.26
336.572	-31.37
336.785	-58.25
336.997	-50.68
337.21	-29.38
337.423	-47.81
337.636	-41.72
337.849	-13.57
338.062	-8.73
338.274	-7.4
338.487	-13.75
338.7	-16.16
338.913	-63.86
339.125	-68.42
339.338	-117.58
339.551	-91.97
339.763	-58.02
339.976	-33.77
340.189	-24.82
340.402	-10.49
340.614	-15.94
340.827	-20.34
341.039	-36.98
341.252	-33.59
341.465	-12.43
341.677	-17.29
341.89	-43.69
342.102	-5.95
342.315	-12.58
342.527	-57.89
342.74	-44.16
342.952	-11.06
343.165	-1.06
343.377	11.75
343.59	14.84
343.802	30.43
344.015	29.21
344.227	19.87
344.44	17.55
344.652	20.61
344.864	-0.19
345.077	27.36
345.289	22.9
345.502	22.43
345.714	15.86
345.926	26.33
346.139	-0.03
346.351	17.95
346.563	24.42
346.775	32.16
346.988	18.65
347.2	9.29
347.412	-35.52
347.624	-65.13
347.837	-95.4
348.049	-57.59
348.261	-0.05
348.473	16.72
348.685	20.58
348.897	31.56
349.11	8.52
349.322	-21.73
349.534	-15.9
349.746	-7.06
349.958	-16.73
350.17	-38.44
350.382	-20.3
350.594	-14.44
350.806	-12.88
351.018	3.89
351.23	3.58
351.442	-40.14
351.654	-64.37
351.866	-50.61
352.078	-51.29
352.29	-22.75
352.502	0.24
352.714	17.9
352.926	9.22
353.138	9.79
353.35	-0.15
353.561	10.94
353.773	-8.25
353.985	5.29
354.197	-7.93
354.409	-6.47
354.621	-17.77
354.832	-2.86
355.044	-21.57
355.256	-14.11
355.468	8.93
355.679	9.83
355.891	14.01
356.103	12.88
356.314	27.81
356.526	16.63
356.738	29.21
356.949	6.65
357.161	22.7
357.373	10.11
357.584	-10.53
357.796	-22.01
358.008	-15.84
358.219	-3.68
358.431	-7.18
358.642	12.28
358.854	16.17
359.065	0.28
359.277	-24.93
359.488	-42.44
359.7	-59.05
359.911	-65.06
360.123	-37.38
360.334	-49.58
360.546	-62.24
360.757	-70.58
360.969	-65.19
361.18	-68.25
361.391	-47.09
361.603	-41.36
361.814	-43.38
362.025	-36.94
362.237	-44.87
362.448	-39.55
362.659	-21.31
362.871	-11.56
363.082	-11.15
363.293	-1.59
363.504	-2.65
363.716	-8.46
363.927	-9.27
364.138	-22.93
364.349	-25.25
364.56	-28.79
364.772	-30.47
364.983	-14.05
365.194	-12.61
365.405	-4.18
365.616	8.37
365.827	7.12
366.038	-6.15
366.25	-11.43
366.461	-39.06
366.672	-29.24
366.883	-7.68
367.094	3.47
367.305	-8.14
367.516	-2
367.727	-20.15
367.938	-25.64
368.149	-28.92
368.36	-7.04
368.571	-5.36
368.781	-25.93
368.992	-45.84
369.203	-77.13
369.414	-102.56
369.625	-90.96
369.836	-62.95
370.047	-83.84
370.258	-49.9
370.468	-38.45
370.679	-63.97
370.89	-54.31
371.101	-25.01
371.312	-21.26
371.522	-11.4
371.733	1.06
371.944	13.09
372.155	6.37
372.365	-10.64
372.576	-21.86
372.787	-32.57
372.997	-70.55
373.208	-53.98
373.419	-23.99
373.629	-50.52
373.84	-44.62
374.05	-34.47
374.261	-35.37
374.472	-55.53
374.682	7.36
374.893	11.56
375.103	35.18
375.314	38.36
375.524	38.06
375.735	23.25
375.945	27.78
376.156	-4.79
376.366	-8.62
376.577	-4.14
376.787	-15.25
376.997	-12.36
377.208	-2.8
377.418	-17.27
377.629	-10.44
377.839	-1.43
378.049	-1.98
378.26	8.79
378.47	20.23
378.68	13.63
378.89	4.97
379.101	1.92
379.311	-20.62
379.521	-42.03
379.732	-47.54
379.942	-52.24
380.152	-66.34
380.362	-41.69
380.572	-36.49
380.783	-12.05
380.993	0.86
381.203	7.53
381.413	19.13
381.623	22.67
381.833	10.16
382.043	8.33
382.253	6.02
382.463	-2.06
382.674	-10.87
382.884	-33.95
383.094	-34.19
383.304	-30.87
383.514	-20.13
383.724	-10.31
383.934	-6.66
384.144	-21.34
384.353	-27.24
384.563	-27.12
384.773	-23.18
384.983	-25.79
385.193	-6.97
385.403	0.44
385.613	-6.55
385.823	-18.41
386.033	-6.9
386.242	-13.61
386.452	-18.22
386.662	-26.28
386.872	-4.86
387.082	-13.17
387.291	-17.56
387.501	-21.85
387.711	-9.67
387.921	-20.18
388.13	-19.89
388.34	-6.02
388.55	-6.5
388.759	-11.19
388.969	-7.15
389.179	-6.84
389.388	-10.03
389.598	-4.03
389.807	-6.95
390.017	-7.32
390.227	-3.79
390.436	-7.1
390.646	-8.27
390.855	-2.13
391.065	-5.47
391.274	-8.98
391.484	-7.82
391.693	-6.52
391.903	-7.23
392.112	0.34
392.322	4.29
392.531	7.38
392.74	8.2
392.95	5.68
393.159	1.57
393.369	-0.32
393.578	-0.68
393.787	-4.36
393.997	-3.67
394.206	-3.93
394.415	-3.76
394.625	-4.78
394.834	-5.31
395.043	-4.33
395.252	-2.56
395.462	-0.8
395.671	0.25
395.88	2.29
396.089	2.61
396.298	0.7
396.508	-0.83
396.717	-1.98
396.926	-1.44
397.135	-1.52
397.344	-1.02
397.553	0.34
397.762	1.46
397.971	1.39
398.181	1.63
398.39	0.93
398.599	0.22
398.808	0.15
399.017	0.69
399.226	1.72
399.435	3.06
399.644	3.61
399.853	3.01
400.062	2.9
400.27	2.17
400.479	1.72
400.688	1.13
400.897	1.11
401.106	0.9
401.315	0.98
401.524	0.98
401.733	1.53
401.941	2.29
402.15	2.21
402.359	1.76
402.568	1.94
402.777	1.91
402.985	1.49
403.194	1.63
403.403	1.98
403.612	1.71
403.82	1.54
404.029	1.9
404.238	1.76
404.446	1.83
404.655	1.84
404.864	1.55
405.072	1.12
405.281	1.15
405.489	0.88
405.698	0.95
405.906	1.16
406.115	1.35
406.324	1.4
406.532	1.71
406.741	1.89
406.949	1.97
407.158	1.79
407.366	1.78
407.574	1.68
407.783	1.77
407.991	1.6
408.2	1.85
408.408	1.77
408.617	1.65
408.825	1.33
409.033	1.43
409.242	1.54
409.45	1.63
409.658	1.58
409.867	1.77
410.075	1.65
410.283	1.42
410.491	1.37
410.7	1.37
410.908	1.45
411.116	1.68
411.324	1.62
411.533	1.54
411.741	1.68
411.949	1.53
412.157	1.3
412.365	1.33
412.573	1.37
412.781	1.42
412.99	1.35
413.198	1.54
413.406	1.7
413.614	1.79
413.822	1.58
414.03	1.58
414.238	1.34
414.446	1.28
414.654	1
414.862	1.17
415.07	1.23
415.278	1.46
415.486	1.32
415.694	1.52
415.902	1.43
416.109	1.25
416.317	1.17
416.525	1.08
416.733	1
416.941	1.12
417.149	1.22
417.357	1.28
417.564	1.59
417.772	1.81
417.98	1.77
418.188	1.71
418.395	1.76
418.603	1.77
418.811	1.47
419.019	1.28
419.226	1.45
419.434	1.49
419.642	1.23
419.849	1.38
420.057	1.56
420.265	1.54
420.472	1.3
420.68	1.5
420.887	1.45
421.095	1.38
421.302	1.33
421.51	1.52
421.717	1.51
421.925	1.62
422.132	1.49
422.34	1.39
422.547	1.35
422.755	1.19
422.962	0.99
423.17	1.01
423.377	1.09
423.585	1.07
423.792	0.98
423.999	1.15
424.207	1.12
424.414	1.21
424.621	1.25
424.829	1.37
425.036	1.36
425.243	1.47
425.451	1.25
425.658	1.08
425.865	1.29
426.072	1.23
426.28	1.61
426.487	1.78
426.694	1.95
426.901	1.59
427.108	1.58
427.315	1.22
427.523	1.41
427.73	1.22
427.937	1.33
428.144	1.21
428.351	1.23
428.558	1.16
428.765	1.21
428.972	1.18
429.179	1.4
429.386	1.58
429.593	1.43
429.8	1.36
430.007	1.49
430.214	1.52
430.421	1.37
430.628	1.18
430.835	1.12
431.042	1.33
431.249	1.28
431.456	1.21
431.662	1.33
431.869	1.51
432.076	1.35
432.283	1.4
432.49	1.44
432.697	1.48
432.903	1.34
433.11	1.33
433.317	1.32
433.524	1.49
433.73	1.47
433.937	1.74
434.144	1.57
434.35	1.6
434.557	1.44
434.764	1.54
434.97	1.34
435.177	1.64
435.384	1.55
435.59	1.6
435.797	1.72
436.003	1.84
436.21	1.74
436.416	1.86
436.623	1.89
436.829	1.91
437.036	1.94
437.242	1.86
437.449	1.8
437.655	1.84
437.862	1.75
438.068	1.59
438.275	1.68
438.481	1.84
438.687	1.77
438.894	1.77
439.1	1.85
439.307	2.04
439.513	1.86
439.719	1.91
439.926	1.93
440.132	1.95
440.338	1.68
440.544	1.87
440.751	1.82
440.957	1.83
441.163	1.77
441.369	1.97
441.575	1.81
441.782	1.84
441.988	1.79
442.194	1.84
442.4	1.78
442.606	1.99
442.812	2
443.018	2.06
443.224	2.1
443.431	2.23
443.637	2.02
443.843	1.92
444.049	1.94
444.255	1.85
444.461	1.82
444.667	1.78
444.873	2.02
445.079	2.09
445.284	2.24
445.49	2.05
445.696	1.93
445.902	1.79
446.108	1.64
446.314	1.56
446.52	1.55
446.726	1.87
446.931	1.87
447.137	1.92
447.343	1.95
447.549	1.94
447.755	1.78
447.96	1.82
448.166	1.8
448.372	1.7
448.578	1.74
448.783	1.75
448.989	1.7
449.195	1.81
449.4	1.88
449.606	1.89
449.812	1.92
450.017	2.03
450.223	2
450.428	1.93
450.634	2.07
450.84	2.15
451.045	2.12
451.251	2
451.456	2.3
451.662	2.36
451.867	2.4
452.073	2.3
452.278	2.48
452.483	2.45
452.689	2.28
452.894	2.29
453.1	2.45
453.305	2.35
453.51	2.25
453.716	2.28
453.921	2.3
454.127	2.17
454.332	2.17
454.537	2.11
454.742	2.08
454.948	1.98
455.153	2.06
455.358	2.16
455.563	2.31
455.769	2.47
455.974	2.51
456.179	2.35
456.384	2.3
456.589	2.3
456.795	2.04
457	2
457.205	2.26
457.41	2.2
457.615	2.13
457.82	2.22
458.025	2.26
458.23	2.08
458.435	2.12
458.64	2.08
458.845	2.24
459.05	2.25
459.255	2.27
459.46	2.3
459.665	2.31
459.87	2.29
460.075	2.28
460.28	2.31
460.485	2.32
460.69	2.36
460.895	2.19
461.099	2.15
461.304	2.28
461.509	2.25
461.714	2.15
461.919	2.34
