Data from Ofra_1a_PS_OGT5_Reflection_1.txt Node
Date: Tue Jul 20 10:43:51 EDT 2021
User: Adam
Spectrometer: FLMT01687
Trigger mode: 0
Integration Time (sec): 1.004000E0
Scans to average: 2
Electric dark correction enabled: true
Nonlinearity correction enabled: false
Boxcar width: 2
XAxis mode: Wavelengths
Number of Pixels in Spectrum: 3648
>>>>>Begin Spectral Data<<<<<
179.494	222.34
179.716	251.91
179.937	-339.13
180.158	225.48
180.38	77.58
180.601	42.72
180.823	-7
181.044	-102.83
181.265	-287.83
181.486	285.51
181.708	134.74
181.929	818.18
182.15	-212.41
182.372	611.82
182.593	452.92
182.814	-231.24
183.035	-30.43
183.257	40.88
183.478	13.62
183.699	-22.49
183.92	-49.13
184.141	-54.22
184.363	-40.74
184.584	-68.82
184.805	-18.73
185.026	34.82
185.247	29.26
185.468	8.51
185.689	25.42
185.91	10.61
186.132	-6.62
186.353	0.81
186.574	7.38
186.795	31.27
187.016	67.42
187.237	68.2
187.458	74.63
187.679	72.29
187.9	53.1
188.121	44.38
188.342	51.7
188.563	73.85
188.784	68.47
189.005	57.58
189.226	40.42
189.447	44.75
189.667	17.96
189.888	18.47
190.109	-0.91
190.33	12.59
190.551	-6.34
190.772	20.59
190.993	12.84
191.214	21.52
191.434	7.39
191.655	-20.05
191.876	-4.06
192.097	22.36
192.318	25.78
192.538	5
192.759	9.42
192.98	11.01
193.201	14.42
193.421	16.12
193.642	28.51
193.863	38.38
194.083	55.88
194.304	47.96
194.525	35.31
194.745	35.38
194.966	32.94
195.187	16.11
195.407	15.58
195.628	34.97
195.848	30.89
196.069	24.08
196.29	34.35
196.51	25.12
196.731	13.78
196.951	-6.75
197.172	-8.25
197.392	-11.98
197.613	1.72
197.833	-5.33
198.054	11.15
198.274	19.5
198.495	23.2
198.715	4.41
198.936	25.69
199.156	18.26
199.377	14.53
199.597	17.99
199.817	39.56
200.038	13.85
200.258	27.68
200.479	63.84
200.699	44.95
200.919	32.86
201.14	36.66
201.36	44.27
201.58	16.1
201.801	34.63
202.021	33.81
202.241	26.03
202.461	26.15
202.682	42.09
202.902	41.4
203.122	57.36
203.342	57.48
203.563	50.5
203.783	37.77
204.003	19.93
204.223	31.47
204.443	43.89
204.663	32.36
204.884	29.06
205.104	20.42
205.324	-21.69
205.544	-66.07
205.764	-24.46
205.984	-39.45
206.204	-19.91
206.424	-44.11
206.644	-35.24
206.864	-80.79
207.084	-31.07
207.304	-49.72
207.525	-16.7
207.745	7.45
207.964	19.69
208.184	40.66
208.404	30.48
208.624	23.81
208.844	4.46
209.064	-0.53
209.284	-11.08
209.504	-18.66
209.724	-18.71
209.944	-26.21
210.164	-19.36
210.384	-31.24
210.604	-66.19
210.823	-74.98
211.043	-33.05
211.263	-65.05
211.483	-46.4
211.703	-19.82
211.922	1.17
212.142	23.8
212.362	23.4
212.582	26.74
212.801	37.15
213.021	10.64
213.241	-22.84
213.461	-6.89
213.68	3.71
213.9	6.68
214.12	1.01
214.339	0.68
214.559	-6.49
214.779	0.12
214.998	-17.12
215.218	10.55
215.438	18.42
215.657	12.39
215.877	-3.39
216.096	19.58
216.316	14.68
216.535	16.79
216.755	25.4
216.974	21.75
217.194	1.78
217.413	-1.63
217.633	-21.63
217.852	-25.97
218.072	-17.25
218.291	-20.73
218.511	-24.52
218.73	-15.92
218.95	-29.28
219.169	-26.11
219.389	-0.62
219.608	11.91
219.827	14.33
220.047	22.54
220.266	6.78
220.485	-10.27
220.705	-11.86
220.924	-2.61
221.143	11.25
221.363	30.3
221.582	30.02
221.801	21.94
222.021	20.47
222.24	19.44
222.459	29.68
222.678	31.81
222.897	26.8
223.117	29.06
223.336	34.08
223.555	32.04
223.774	35.31
223.993	70.78
224.213	70.01
224.432	64.73
224.651	62.36
224.87	57.28
225.089	45.51
225.308	53.15
225.527	48
225.746	36.66
225.965	28.11
226.184	16.14
226.404	4.6
226.623	13
226.842	15.67
227.061	9.59
227.28	19.64
227.499	26.1
227.718	23.3
227.936	29.32
228.155	40.15
228.374	30.88
228.593	33.57
228.812	28.3
229.031	24.25
229.25	14.83
229.469	20.31
229.688	18.9
229.907	11.15
230.125	23.12
230.344	32.56
230.563	35.34
230.782	32.32
231.001	44.51
231.22	38.18
231.438	38.48
231.657	32.69
231.876	28.07
232.095	31.78
232.313	12.06
232.532	14.63
232.751	8.56
232.969	10.62
233.188	-5.52
233.407	4.61
233.625	-1.84
233.844	-4.12
234.063	6.47
234.281	23.01
234.5	16.07
234.719	11.7
234.937	11.28
235.156	3.36
235.374	-12.59
235.593	4.57
235.811	33.16
236.03	35.71
236.249	25.94
236.467	31.58
236.686	33.47
236.904	9.95
237.123	-1.36
237.341	8.4
237.559	-10.84
237.778	15.28
237.996	-10.06
238.215	-6.22
238.433	-36.07
238.652	25.34
238.87	-1.86
239.088	17.26
239.307	14.04
239.525	13.43
239.743	-2.37
239.962	-15.9
240.18	9.55
240.398	17.12
240.617	15.34
240.835	28.87
241.053	25.61
241.271	7.71
241.49	12.24
241.708	-0.59
241.926	-9.23
242.144	-10.48
242.363	-2.6
242.581	-40.87
242.799	-45.69
243.017	-46.48
243.235	-17.74
243.453	-23.01
243.672	9.91
243.89	31.26
244.108	61.89
244.326	60.58
244.544	62.39
244.762	46.39
244.98	46.73
245.198	34.83
245.416	30.17
245.634	25.08
245.852	11.16
246.07	22
246.288	21.79
246.506	19.29
246.724	1.02
246.942	19.7
247.16	26.75
247.378	-7.09
247.596	3.27
247.814	2.31
248.032	-4.56
248.25	-2.43
248.468	32.95
248.685	25.59
248.903	31.87
249.121	33.1
249.339	26.07
249.557	24.91
249.775	31.14
249.992	27.32
250.21	24.05
250.428	34.74
250.646	29.85
250.863	14.16
251.081	18.79
251.299	31.88
251.517	26.29
251.734	33.94
251.952	34.39
252.17	31.84
252.387	-12.42
252.605	-22.8
252.823	-46.21
253.04	-5.21
253.258	-13.51
253.475	30.28
253.693	47.13
253.911	40.15
254.128	19.19
254.346	44.39
254.563	45.93
254.781	30.59
254.998	31.75
255.216	22.26
255.433	1.7
255.651	6.14
255.868	9.63
256.086	5.18
256.303	23.17
256.521	30.84
256.738	16.63
256.956	24.23
257.173	18.53
257.39	15.71
257.608	6.48
257.825	23.75
258.043	19.46
258.26	33.54
258.477	29.73
258.695	37.28
258.912	18.67
259.129	21.19
259.346	4.22
259.564	-0.43
259.781	-22.84
259.998	3.41
260.216	12.68
260.433	1.41
260.65	14.92
260.867	4.07
261.084	3.19
261.302	-18.67
261.519	18.94
261.736	10.57
261.953	36.59
262.17	46.32
262.387	46.32
262.604	35.6
262.822	41.63
263.039	33.53
263.256	12.47
263.473	18.11
263.69	21.92
263.907	-1.69
264.124	10.22
264.341	27.1
264.558	26.36
264.775	25
264.992	30.49
265.209	18.26
265.426	18.87
265.643	15.01
265.86	25.52
266.077	49.65
266.294	44.71
266.51	52.26
266.727	63.32
266.944	59.95
267.161	47.21
267.378	41.54
267.595	25.71
267.812	11.31
268.028	-12.39
268.245	4.71
268.462	21.71
268.679	37.91
268.896	46.99
269.112	40.77
269.329	27.02
269.546	34.94
269.763	11.38
269.979	-4.24
270.196	10.19
270.413	19.55
270.629	4.81
270.846	5.28
271.063	18.19
271.279	19.87
271.496	0.31
271.712	10.02
271.929	20.93
272.146	11.63
272.362	9.14
272.579	12.38
272.795	6.09
273.012	26.7
273.228	39.45
273.445	38.41
273.661	44.09
273.878	39.22
274.094	22.18
274.311	17.62
274.527	2.62
274.744	25.23
274.96	24.66
275.177	28.86
275.393	32.75
275.609	41.47
275.826	18.8
276.042	8.63
276.259	4.76
276.475	-8.78
276.691	-22.17
276.908	3.3
277.124	17.46
277.34	11.87
277.557	11.69
277.773	20.46
277.989	18.13
278.205	12.21
278.422	19.22
278.638	32.03
278.854	23.34
279.07	29.49
279.286	20.65
279.503	23.66
279.719	16.55
279.935	22.27
280.151	-11.97
280.367	2.19
280.583	-13.39
280.799	-6.89
281.016	-39.25
281.232	-5.84
281.448	-16.87
281.664	-6.55
281.88	-0.08
282.096	23.52
282.312	18.17
282.528	13.46
282.744	20.05
282.96	2.61
283.176	-18.89
283.392	-22.35
283.608	-6.36
283.824	-36.19
284.04	-47.12
284.256	-16.12
284.471	-6
284.687	1.22
284.903	8.97
285.119	26.68
285.335	21.93
285.551	19.33
285.767	13.69
285.982	28.55
286.198	-10.84
286.414	-5.74
286.63	27.42
286.846	24.23
287.061	11.67
287.277	31.78
287.493	13.45
287.709	3.39
287.924	20.22
288.14	28.35
288.356	37.73
288.571	48.15
288.787	50.32
289.003	42.39
289.218	15.11
289.434	-3.58
289.65	11.76
289.865	13.13
290.081	14.74
290.296	32
290.512	29.24
290.727	13.36
290.943	10.63
291.159	7.74
291.374	-20.04
291.59	-10.13
291.805	-16.03
292.021	-10.89
292.236	-0.46
292.451	22.54
292.667	23.15
292.882	46.06
293.098	47.82
293.313	31.35
293.529	32
293.744	28.09
293.959	23.68
294.175	23.74
294.39	10.91
294.605	13.96
294.821	8.27
295.036	10.96
295.251	10.08
295.467	7.2
295.682	8.07
295.897	17.29
296.112	3.96
296.328	14.82
296.543	21.88
296.758	16.3
296.973	3.57
297.188	11.57
297.404	-14.38
297.619	-16.23
297.834	-23.59
298.049	13.06
298.264	-15.21
298.479	3.53
298.694	24.14
298.909	30.94
299.125	19.54
299.34	35.94
299.555	31.79
299.77	35.62
299.985	37.48
300.2	39.7
300.415	45.61
300.63	34.8
300.845	15.56
301.06	18.96
301.275	24.25
301.49	9.33
301.704	22.42
301.919	31.77
302.134	13.99
302.349	12.06
302.564	7.96
302.779	-16.66
302.994	-0.08
303.209	12.11
303.423	13.84
303.638	20.51
303.853	25.1
304.068	18.97
304.283	13.79
304.497	-1.12
304.712	8.42
304.927	22.29
305.142	17.42
305.356	20.9
305.571	23.89
305.786	17.8
306	21.87
306.215	15.92
306.43	5.74
306.644	1.01
306.859	-22.55
307.074	-14.69
307.288	3.58
307.503	10.93
307.717	17.91
307.932	25.84
308.147	19.69
308.361	25.31
308.576	12.59
308.79	8.18
309.005	14.76
309.219	21.58
309.434	14.16
309.648	28.51
309.863	28.64
310.077	31.66
310.292	22.49
310.506	-4.07
310.72	0.1
310.935	-2.06
311.149	-6.96
311.364	12.68
311.578	33.58
311.792	28.21
312.007	45.04
312.221	36.79
312.435	22.25
312.649	32.9
312.864	35.16
313.078	37.33
313.292	20.74
313.507	16.1
313.721	19.14
313.935	8.07
314.149	-9.49
314.363	20.2
314.578	20.52
314.792	-18.97
315.006	-30.61
315.22	15.24
315.434	26.44
315.648	-1.53
315.862	6.02
316.077	16.66
316.291	-2.55
316.505	-38.18
316.719	-16.98
316.933	-4.19
317.147	-12.43
317.361	-9.21
317.575	-1.67
317.789	13.09
318.003	9.75
318.217	21.37
318.431	14.98
318.645	15.4
318.859	27.48
319.073	30.94
319.287	27.91
319.5	32.07
319.714	30.33
319.928	21.89
320.142	23.37
320.356	34.18
320.57	18.4
320.784	17.41
320.997	-7.07
321.211	-7.59
321.425	-36.57
321.639	-4.37
321.853	7.13
322.066	14.76
322.28	15.03
322.494	19.47
322.707	15.58
322.921	13.48
323.135	25.49
323.349	11.01
323.562	13.05
323.776	14.25
323.989	24.09
324.203	3.48
324.417	8.26
324.63	11.35
324.844	1.52
325.057	-18.08
325.271	10.52
325.485	17.17
325.698	18.65
325.912	30.54
326.125	24.66
326.339	20.62
326.552	26.63
326.766	14.05
326.979	17.77
327.193	25.41
327.406	21.45
327.619	14.41
327.833	16.28
328.046	14.46
328.26	7.52
328.473	14.76
328.686	14.63
328.9	30.33
329.113	25.26
329.326	29.51
329.54	19.42
329.753	25.62
329.966	21.41
330.179	20.51
330.393	22.18
330.606	35.13
330.819	32.31
331.032	24.39
331.246	38.31
331.459	52.17
331.672	51.59
331.885	53.69
332.098	67
332.311	30.45
332.525	27.9
332.738	20.64
332.951	9.67
333.164	4.56
333.377	18.59
333.59	5.31
333.803	13.81
334.016	27.09
334.229	25.78
334.442	19.59
334.655	18.6
334.868	6.16
335.081	8.11
335.294	-1.18
335.507	17.23
335.72	17.07
335.933	16.69
336.146	2.05
336.359	29.2
336.572	20.66
336.785	25.27
336.997	29.65
337.21	23.03
337.423	-25.77
337.636	-28.99
337.849	-25
338.062	-4.32
338.274	18.71
338.487	24.09
338.7	11.26
338.913	17.13
339.125	-8.12
339.338	-28.56
339.551	-28.44
339.763	-18.85
339.976	-8.53
340.189	-4.65
340.402	20.88
340.614	33.12
340.827	36.69
341.039	34.99
341.252	49.19
341.465	31.91
341.677	20.87
341.89	17.98
342.102	10.23
342.315	8.44
342.527	7.36
342.74	-3.7
342.952	-10.56
343.165	-5.38
343.377	-4.73
343.59	3.78
343.802	12.25
344.015	28.87
344.227	24.33
344.44	17.83
344.652	13.5
344.864	21.16
345.077	17.45
345.289	21.75
345.502	37.48
345.714	41.42
345.926	38.72
346.139	27.9
346.351	29.28
346.563	22.48
346.775	12.98
346.988	21.28
347.2	20.17
347.412	20.27
347.624	19.71
347.837	31.94
348.049	24.76
348.261	16.1
348.473	10.87
348.685	2.7
348.897	-16.21
349.11	0.88
349.322	8.32
349.534	2.19
349.746	8.6
349.958	1.3
350.17	-14.41
350.382	-11.32
350.594	-2.63
350.806	12.99
351.018	25.88
351.23	29.9
351.442	40.29
351.654	46.73
351.866	33.48
352.078	41.49
352.29	45.78
352.502	37.86
352.714	17.36
352.926	30.21
353.138	21.19
353.35	17.22
353.561	24.35
353.773	25.79
353.985	30.09
354.197	28.06
354.409	22.74
354.621	14.83
354.832	20.26
355.044	0.74
355.256	-3.21
355.468	-8.13
355.679	6.52
355.891	14.2
356.103	13.68
356.314	18.4
356.526	15.38
356.738	18.89
356.949	13.8
357.161	26.03
357.373	24.53
357.584	28.3
357.796	24.47
358.008	29.08
358.219	25.3
358.431	20.14
358.642	26.81
358.854	24.9
359.065	12.4
359.277	17.2
359.488	20.69
359.7	22.97
359.911	6.48
360.123	21.7
360.334	14.36
360.546	2.71
360.757	-12.21
360.969	0.61
361.18	-14.51
361.391	-1.54
361.603	4.19
361.814	15.59
362.025	18.48
362.237	22.15
362.448	21.23
362.659	11.75
362.871	0.5
363.082	-7.92
363.293	-21.03
363.504	-49.79
363.716	-41.31
363.927	-24.4
364.138	-43.24
364.349	-35.12
364.56	-34.39
364.772	-24.33
364.983	-9.85
365.194	5.91
365.405	-2.45
365.616	11.4
365.827	-1.9
366.038	6.3
366.25	7.19
366.461	9.13
366.672	4.03
366.883	17.38
367.094	10.76
367.305	-3.65
367.516	7.79
367.727	2.46
367.938	-5.68
368.149	-10.03
368.36	2.03
368.571	-11.39
368.781	0.64
368.992	7.78
369.203	8.43
369.414	4.15
369.625	-1.12
369.836	14.11
370.047	21.62
370.258	24.59
370.468	18.16
370.679	39.06
370.89	40.08
371.101	50.27
371.312	41.21
371.522	57.73
371.733	34.33
371.944	15.27
372.155	-7.2
372.365	13.57
372.576	-2.83
372.787	19.44
372.997	18.8
373.208	17.98
373.419	-0.51
373.629	-3.64
373.84	-19.42
374.05	-11.43
374.261	-13.63
374.472	-4.64
374.682	4.77
374.893	-2.76
375.103	-7.97
375.314	-3.82
375.524	-4.62
375.735	-1.18
375.945	1.53
376.156	5.34
376.366	-2.74
376.577	5.36
376.787	10.71
376.997	21.14
377.208	25.87
377.418	23.89
377.629	19.87
377.839	20.39
378.049	19.46
378.26	-0.57
378.47	-2.65
378.68	1.5
378.89	-8.56
379.101	-14.15
379.311	-1.87
379.521	-6.5
379.732	-4.84
379.942	4.38
380.152	1.58
380.362	3.36
380.572	21.5
380.783	26.51
380.993	21.97
381.203	24.1
381.413	31.46
381.623	29.7
381.833	28.61
382.043	31.37
382.253	33.42
382.463	28.61
382.674	23.93
382.884	24.9
383.094	23.76
383.304	23.2
383.514	23.87
383.724	18.78
383.934	8.37
384.144	13.83
384.353	16.56
384.563	14.12
384.773	26
384.983	25.41
385.193	19.48
385.403	16.7
385.613	20.74
385.823	14.56
386.033	15.24
386.242	14.46
386.452	7.35
386.662	4.02
386.872	7
387.082	7.18
387.291	7.68
387.501	8.09
387.711	6.98
387.921	2.67
388.13	4.56
388.34	4.87
388.55	4.51
388.759	3.65
388.969	3.5
389.179	4.15
389.388	1.65
389.598	4.41
389.807	0.86
390.017	0.42
390.227	-4.61
390.436	-2.15
390.646	-6.09
390.855	-2.61
391.065	-1.11
391.274	2.05
391.484	2.38
391.693	2.63
391.903	-0.16
392.112	-2.22
392.322	-4.85
392.531	-7.89
392.74	-6.19
392.95	-2.71
393.159	-1.36
393.369	0.15
393.578	1.56
393.787	2.33
393.997	1.65
394.206	0.73
394.415	0.72
394.625	1.7
394.834	1.16
395.043	1.08
395.252	4.44
395.462	5.66
395.671	5.13
395.88	5.46
396.089	4.89
396.298	3.12
396.508	2.32
396.717	2.13
396.926	2.34
397.135	2.38
397.344	1.95
397.553	2.07
397.762	3.24
397.971	2.23
398.181	2.01
398.39	1.98
398.599	1.78
398.808	1.52
399.017	3.01
399.226	3.98
399.435	4.05
399.644	4.63
399.853	4.7
400.062	3.96
400.27	2.97
400.479	3.04
400.688	3.08
400.897	2.67
401.106	2.62
401.315	3.12
401.524	3.28
401.733	2.78
401.941	2.97
402.15	2.95
402.359	2.88
402.568	2.82
402.777	3.3
402.985	3.07
403.194	3.24
403.403	3.21
403.612	3.01
403.82	2.53
404.029	2.69
404.238	2.66
404.446	2.75
404.655	2.9
404.864	3.03
405.072	3.01
405.281	2.76
405.489	2.51
405.698	2.51
405.906	2.55
406.115	2.4
406.324	2.51
406.532	2.68
406.741	2.53
406.949	2.58
407.158	2.71
407.366	2.63
407.574	2.72
407.783	2.85
407.991	2.77
408.2	2.9
408.408	2.93
408.617	2.83
408.825	2.66
409.033	2.61
409.242	2.45
409.45	2.54
409.658	2.43
409.867	2.45
410.075	2.48
410.283	2.35
410.491	2.14
410.7	2.12
410.908	2.24
411.116	2.34
411.324	2.48
411.533	2.49
411.741	2.5
411.949	2.43
412.157	2.24
412.365	2.23
412.573	2.37
412.781	2.4
412.99	2.4
413.198	2.57
413.406	2.68
413.614	2.71
413.822	2.75
414.03	2.73
414.238	2.76
414.446	2.61
414.654	2.45
414.862	2.36
415.07	2.35
415.278	2.25
415.486	2.07
415.694	2.23
415.902	2.22
416.109	2.18
416.317	2.13
416.525	2.34
416.733	2.23
416.941	2.42
417.149	2.43
417.357	2.49
417.564	2.4
417.772	2.36
417.98	2.29
418.188	2.28
418.395	2.08
418.603	2.09
418.811	2.07
419.019	2.02
419.226	2.14
419.434	2.29
419.642	2.23
419.849	2.25
420.057	2.23
420.265	2.11
420.472	2.14
420.68	2.23
420.887	2.26
421.095	2.33
421.302	2.48
421.51	2.2
421.717	2.08
421.925	2.22
422.132	2.1
422.34	1.8
422.547	1.96
422.755	1.99
422.962	1.98
423.17	1.83
423.377	1.91
423.585	2.01
423.792	2.06
423.999	1.95
424.207	1.97
424.414	1.94
424.621	2.02
424.829	1.92
425.036	1.96
425.243	2.14
425.451	2.29
425.658	2.08
425.865	2.28
426.072	2.22
426.28	2.2
426.487	2.15
426.694	2.22
426.901	2.18
427.108	2.13
427.315	2.02
427.523	1.97
427.73	1.93
427.937	1.68
428.144	1.67
428.351	1.79
428.558	1.8
428.765	1.76
428.972	2
429.179	1.97
429.386	1.88
429.593	1.83
429.8	1.95
430.007	1.9
430.214	1.92
430.421	2.13
430.628	2.16
430.835	2.06
431.042	2.01
431.249	2.12
431.456	1.93
431.662	2.1
431.869	2.24
432.076	2.26
432.283	2.32
432.49	2.28
432.697	2.11
432.903	2.04
433.11	2.15
433.317	2.08
433.524	2.24
433.73	2.24
433.937	2.25
434.144	2.09
434.35	1.96
434.557	1.92
434.764	2.03
434.97	1.92
435.177	2.06
435.384	2.2
435.59	2.17
435.797	2.17
436.003	2.34
436.21	2.33
436.416	2.38
436.623	2.47
436.829	2.37
437.036	2.33
437.242	2.33
437.449	2.28
437.655	2.3
437.862	2.38
438.068	2.32
438.275	2.32
438.481	2.39
438.687	2.31
438.894	2.4
439.1	2.41
439.307	2.48
439.513	2.5
439.719	2.53
439.926	2.47
440.132	2.57
440.338	2.5
440.544	2.46
440.751	2.41
440.957	2.44
441.163	2.27
441.369	2.23
441.575	2.22
441.782	2.3
441.988	2.31
442.194	2.43
442.4	2.42
442.606	2.52
442.812	2.45
443.018	2.36
443.224	2.43
443.431	2.53
443.637	2.46
443.843	2.5
444.049	2.64
444.255	2.59
444.461	2.52
444.667	2.51
444.873	2.54
445.079	2.47
445.284	2.51
445.49	2.51
445.696	2.51
445.902	2.47
446.108	2.46
446.314	2.41
446.52	2.45
446.726	2.46
446.931	2.4
447.137	2.45
447.343	2.51
447.549	2.58
447.755	2.57
447.96	2.76
448.166	2.77
448.372	2.68
448.578	2.6
448.783	2.68
448.989	2.62
449.195	2.62
449.4	2.68
449.606	2.65
449.812	2.58
450.017	2.57
450.223	2.51
450.428	2.56
450.634	2.62
450.84	2.63
451.045	2.61
451.251	2.69
451.456	2.62
451.662	2.71
451.867	2.83
452.073	2.91
452.278	2.91
452.483	2.96
452.689	2.86
452.894	2.84
453.1	2.75
453.305	2.8
453.51	2.78
453.716	2.8
453.921	2.81
454.127	2.81
454.332	2.74
454.537	2.75
454.742	2.74
454.948	2.73
455.153	2.79
455.358	2.81
455.563	2.89
455.769	3.01
455.974	2.94
456.179	2.92
456.384	2.92
456.589	2.79
456.795	2.72
457	2.79
457.205	2.77
457.41	2.78
457.615	2.8
457.82	2.87
458.025	2.83
458.23	2.87
458.435	2.9
458.64	2.93
458.845	2.9
459.05	2.95
459.255	2.89
459.46	2.9
459.665	2.95
459.87	2.9
460.075	2.93
460.28	3.06
460.485	3.17
460.69	3.14
460.895	3.22
461.099	3.09
461.304	2.96
461.509	2.92
461.714	3.05
461.919	3.09
462.123	3.2
462.328	3.26
462.533	3.19
462.738	3.09
462.942	2.99
463.147	2.99
463.352	3.13
463.556	3.18
463.761	3.25
463.966	3.24
464.17	3.38
464.375	3.38
464.58	3.33
464.784	3.35
464.989	3.41
465.193	3.34
465.398	3.3
465.602	3.48
465.807	3.49
466.011	3.53
466.216	3.5
466.42	3.51
466.625	3.48
466.829	3.49
467.034	3.53
467.238	3.65
467.443	3.72
467.647	3.7
467.851	3.75
468.056	3.78
468.26	3.73
