Data from Ofra_2a_PS_OGT5C_Reflection_2.txt Node
Date: Tue Jul 20 09:30:43 EDT 2021
User: Adam
Spectrometer: FLMT01687
Trigger mode: 0
Integration Time (sec): 9.450000E-1
Scans to average: 3
Electric dark correction enabled: true
Nonlinearity correction enabled: false
Boxcar width: 3
XAxis mode: Wavelengths
Number of Pixels in Spectrum: 3648
>>>>>Begin Spectral Data<<<<<
179.494	553.85
179.716	392.17
179.937	382.97
180.158	1480.08
180.38	-815.41
180.601	-194.89
180.823	-169.11
181.044	-175.4
181.265	-166.15
181.486	-67.82
181.708	-1940.22
181.929	-70.81
182.15	-386.93
182.372	-113.99
182.593	-67.04
182.814	284.28
183.035	16.43
183.257	17.99
183.478	19.67
183.699	17.81
183.92	3.35
184.141	3.19
184.363	-6.78
184.584	19.89
184.805	20.41
185.026	-0.76
185.247	-4.36
185.468	-17.29
185.689	-5.39
185.91	-4.05
186.132	-13.94
186.353	-34.31
186.574	-25.14
186.795	-38.56
187.016	-33.43
187.237	-54.48
187.458	-66.5
187.679	-86.84
187.9	-57.69
188.121	-56.91
188.342	-8.29
188.563	-3.57
188.784	4.63
189.005	8.16
189.226	10.62
189.447	11.18
189.667	14.16
189.888	16.32
190.109	18.34
190.33	18.69
190.551	19.67
190.772	30.27
190.993	31.4
191.214	35.36
191.434	27.72
191.655	36.46
191.876	44.69
192.097	40.96
192.318	39.93
192.538	49.72
192.759	54.74
192.98	53.74
193.201	57.4
193.421	50.09
193.642	54.27
193.863	53.57
194.083	37.13
194.304	13.58
194.525	23.37
194.745	0.98
194.966	10.28
195.187	19.9
195.407	17
195.628	14.27
195.848	18.73
196.069	13.15
196.29	13.97
196.51	5.17
196.731	7.49
196.951	7.64
197.172	2.74
197.392	12.85
197.613	11.02
197.833	8.94
198.054	16.72
198.274	-8.7
198.495	-1.42
198.715	-10.99
198.936	-35.23
199.156	-20
199.377	-12.74
199.597	-25.99
199.817	-17.03
200.038	-17.48
200.258	-5.71
200.479	6.41
200.699	4.54
200.919	-2.14
201.14	-5.25
201.36	-6.22
201.58	-2.79
201.801	-19.24
202.021	-11.18
202.241	-10
202.461	0.12
202.682	4.98
202.902	12.79
203.122	8.51
203.342	29.26
203.563	29.45
203.783	30.17
204.003	21.7
204.223	31.68
204.443	32.23
204.663	33.47
204.884	26.23
205.104	23.34
205.324	20.04
205.544	29.89
205.764	12.38
205.984	15.31
206.204	7.62
206.424	17.55
206.644	4
206.864	0.98
207.084	3.52
207.304	0.98
207.525	-10.67
207.745	8.79
207.964	5.37
208.184	18.29
208.404	20.56
208.624	11.14
208.844	4.18
209.064	11.23
209.284	2.52
209.504	3.23
209.724	-13.93
209.944	-16.85
210.164	-0.61
210.384	3.61
210.604	-10.15
210.823	-0.25
211.043	-11.8
211.263	-0.21
211.483	3.06
211.703	-2.62
211.922	11.76
212.142	17.39
212.362	8.35
212.582	12.74
212.801	12.99
213.021	15.7
213.241	10.76
213.461	-3.87
213.68	-3.33
213.9	12.39
214.12	5.74
214.339	8.95
214.559	12.66
214.779	22.51
214.998	20.08
215.218	14.81
215.438	14.27
215.657	16.82
215.877	16.52
216.096	5.82
216.316	4.25
216.535	-1.09
216.755	-1.62
216.974	-7.3
217.194	-7.7
217.413	-1.24
217.633	-1
217.852	-6.38
218.072	-16.99
218.291	3.12
218.511	8.04
218.73	-0.17
218.95	-4.68
219.169	4.35
219.389	4.85
219.608	20.95
219.827	6.92
220.047	1.09
220.266	13.64
220.485	8.31
220.705	3.7
220.924	7.58
221.143	11.46
221.363	18.08
221.582	18.9
221.801	20.6
222.021	26.52
222.24	18.57
222.459	4.59
222.678	-12.54
222.897	-1.6
223.117	2.39
223.336	6.99
223.555	2.52
223.774	20.91
223.993	41.37
224.213	43.04
224.432	59.91
224.651	53.38
224.87	42.62
225.089	47.1
225.308	41.19
225.527	25.18
225.746	20.21
225.965	-9.16
226.184	-15.84
226.404	-11.16
226.623	-5.07
226.842	6.3
227.061	9.34
227.28	25.39
227.499	39.82
227.718	39.34
227.936	26.82
228.155	24.11
228.374	17.64
228.593	26.93
228.812	11.84
229.031	-13.72
229.25	-0.42
229.469	8.95
229.688	14.96
229.907	5.59
230.125	3.85
230.344	16.29
230.563	28.96
230.782	18.73
231.001	18.58
231.22	6.89
231.438	21.83
231.657	23.23
231.876	15.4
232.095	13.27
232.313	16.07
232.532	10.15
232.751	16
232.969	13.21
233.188	6.09
233.407	9.99
233.625	4.56
233.844	1.23
234.063	9.03
234.281	4.63
234.5	10.23
234.719	7.9
234.937	8.76
235.156	10.73
235.374	8.76
235.593	4
235.811	-8.05
236.03	-28.41
236.249	-13.55
236.467	-13.83
236.686	-4.72
236.904	-12.9
237.123	-7.34
237.341	10.95
237.559	12.72
237.778	18.7
237.996	25.72
238.215	22.97
238.433	39.43
238.652	37.69
238.87	27.57
239.088	22.1
239.307	19.73
239.525	10.07
239.743	2.44
239.962	-9.16
240.18	-2.71
240.398	15.43
240.617	30.22
240.835	25.31
241.053	35.1
241.271	41.35
241.49	39.23
241.708	30.84
241.926	14.87
242.144	8.04
242.363	8.3
242.581	7.79
242.799	-5.71
243.017	-7.72
243.235	-4.02
243.453	-2.49
243.672	-13.1
243.89	-8.53
244.108	-9.54
244.326	-12.61
244.544	1.32
244.762	-8.32
244.98	-3.02
245.198	-2.34
245.416	-7.27
245.634	-2.76
245.852	13.67
246.07	13.35
246.288	13.69
246.506	11.13
246.724	19.59
246.942	21.55
247.16	18.45
247.378	6.82
247.596	3.94
247.814	6.49
248.032	2.75
248.25	-6.77
248.468	4.94
248.685	5.11
248.903	10.68
249.121	15.37
249.339	23.6
249.557	27.07
249.775	23.63
249.992	9.6
250.21	3.59
250.428	-1.94
250.646	-2.83
250.863	-4.85
251.081	-13.7
251.299	0.64
251.517	16.33
251.734	22.9
251.952	40.4
252.17	13.92
252.387	16.23
252.605	21.23
252.823	11.38
253.04	7.04
253.258	8.1
253.475	5.62
253.693	25.46
253.911	27.81
254.128	29.59
254.346	25.67
254.563	19.25
254.781	19.02
254.998	15.43
255.216	11.91
255.433	3.99
255.651	6.96
255.868	13.55
256.086	17.15
256.303	12.34
256.521	2.46
256.738	1.36
256.956	-1.1
257.173	3.32
257.39	7.97
257.608	5.03
257.825	8.6
258.043	8.89
258.26	17.47
258.477	23.99
258.695	15.89
258.912	18.5
259.129	24.69
259.346	26.55
259.564	37.87
259.781	42.78
259.998	30.26
260.216	34.57
260.433	18.97
260.65	14.1
260.867	-1.32
261.084	9.28
261.302	-11.48
261.519	-10.3
261.736	-18.48
261.953	-12.13
262.17	1.72
262.387	1.64
262.604	-12.38
262.822	-5.27
263.039	1.55
263.256	5.18
263.473	-0.15
263.69	-4.83
263.907	-0.35
264.124	-8.93
264.341	-19.14
264.558	-6.57
264.775	-11.06
264.992	-5.83
265.209	-0.41
265.426	7.26
265.643	19.93
265.86	25.23
266.077	21.95
266.294	16.17
266.51	20.23
266.727	13.72
266.944	-40.35
267.161	-48.47
267.378	-56.88
267.595	-77.31
267.812	-53.92
268.028	-52.02
268.245	-47.81
268.462	-5.98
268.679	-10.97
268.896	-6.8
269.112	13.03
269.329	15
269.546	9.22
269.763	16.61
269.979	19.23
270.196	20.6
270.413	19.28
270.629	17.57
270.846	16.65
271.063	18.72
271.279	12.61
271.496	6.21
271.712	1.37
271.929	6.23
272.146	5.04
272.362	-6.13
272.579	-10.3
272.795	-11.14
273.012	-3.16
273.228	-3.34
273.445	-3.74
273.661	-5.24
273.878	3.4
274.094	7.28
274.311	1.61
274.527	-8.1
274.744	-4.58
274.96	-8.98
275.177	-14.95
275.393	-17.69
275.609	-13.25
275.826	0.35
276.042	13.56
276.259	15.73
276.475	17.48
276.691	18.76
276.908	15.67
277.124	13.22
277.34	3.97
277.557	1.55
277.773	-2.33
277.989	-6.33
278.205	-13.61
278.422	-11.06
278.638	-0.22
278.854	-4.29
279.07	-2.54
279.286	-3.68
279.503	12.31
279.719	23.4
279.935	18.14
280.151	18.12
280.367	25.83
280.583	25.79
280.799	33.17
281.016	26.06
281.232	25.68
281.448	26.71
281.664	20.86
281.88	31.7
282.096	36.57
282.312	29.01
282.528	18.05
282.744	18.92
282.96	19.68
283.176	24.36
283.392	25.8
283.608	23.36
283.824	14.87
284.04	22.04
284.256	16.31
284.471	13.45
284.687	9.78
284.903	-8.11
285.119	-23.07
285.335	-9.02
285.551	-4.79
285.767	-6.65
285.982	-3.47
286.198	-7.35
286.414	16.38
286.63	30.29
286.846	29.74
287.061	30.67
287.277	40.81
287.493	40.65
287.709	32.85
287.924	24.47
288.14	14.9
288.356	15.52
288.571	-2.58
288.787	-1.85
289.003	8.05
289.218	11.3
289.434	12.86
289.65	21
289.865	22.34
290.081	29.18
290.296	29.38
290.512	27.17
290.727	39.88
290.943	36.59
291.159	28.74
291.374	21.68
291.59	13.69
291.805	-0.37
292.021	-11.54
292.236	-17.65
292.451	-24.48
292.667	-16.77
292.882	-13.81
293.098	-13.14
293.313	-12.55
293.529	-11.3
293.744	-5.5
293.959	16.52
294.175	14.13
294.39	12.63
294.605	14.88
294.821	18.51
295.036	23.75
295.251	19.05
295.467	-2.09
295.682	5.61
295.897	10.36
296.112	8.09
296.328	11.55
296.543	10.02
296.758	6.89
296.973	12.95
297.188	6.92
297.404	5.7
297.619	7.4
297.834	16.35
298.049	19.66
298.264	23.26
298.479	12.41
298.694	13.08
298.909	15.76
299.125	21.66
299.34	13.85
299.555	17.46
299.77	17.96
299.985	23.04
300.2	16.35
300.415	17.44
300.63	12.3
300.845	15.77
301.06	13.92
301.275	16.6
301.49	20.75
301.704	30
301.919	24.47
302.134	16.53
302.349	8.73
302.564	1.24
302.779	-11.47
302.994	-19.49
303.209	-39.37
303.423	-31.66
303.638	-15.42
303.853	-11.26
304.068	-4.94
304.283	6.6
304.497	9.53
304.712	23.96
304.927	15.99
305.142	9.06
305.356	11.62
305.571	17.25
305.786	16.56
306	16.91
306.215	12.86
306.43	29.58
306.644	27.26
306.859	28.14
307.074	25.34
307.288	22.59
307.503	25.95
307.717	23.86
307.932	17.9
308.147	17.25
308.361	19.09
308.576	20.06
308.79	19.93
309.005	14.9
309.219	10.81
309.434	6.02
309.648	0.48
309.863	0.39
310.077	-8.74
310.292	-12
310.506	0.42
310.72	-4.58
310.935	-2.36
311.149	9.84
311.364	10.68
311.578	11.58
311.792	12.15
312.007	5.91
312.221	18.4
312.435	21.1
312.649	26.53
312.864	14.87
313.078	17.51
313.292	27.06
313.507	36.46
313.721	32.09
313.935	37.87
314.149	29.56
314.363	38.69
314.578	35.51
314.792	28.07
315.006	18.95
315.22	24.33
315.434	13.54
315.648	7.69
315.862	7.87
316.077	5.77
316.291	7.71
316.505	-0.15
316.719	-17.56
316.933	-6.74
317.147	-0.22
317.361	0.28
317.575	13.21
317.789	14.27
318.003	30.07
318.217	38.83
318.431	38.21
318.645	38.31
318.859	29.29
319.073	26.37
319.287	27.14
319.5	24.87
319.714	21.23
319.928	17.46
320.142	15.41
320.356	33.53
320.57	30.53
320.784	22.55
320.997	21.77
321.211	21.79
321.425	20.37
321.639	23.06
321.853	11.69
322.066	12.8
322.28	14.22
322.494	2.81
322.707	4.82
322.921	9.75
323.135	9.64
323.349	12.98
323.562	12.86
323.776	17.79
323.989	21.04
324.203	23.19
324.417	17.48
324.63	6.34
324.844	-2.72
325.057	-0.62
325.271	-8.52
325.485	-5.47
325.698	-12.18
325.912	3.78
326.125	19.73
326.339	23.62
326.552	22.38
326.766	30.15
326.979	29.63
327.193	28.58
327.406	15.23
327.619	-14.14
327.833	-16.87
328.046	-14.29
328.26	-18.81
328.473	-17.78
328.686	-12.62
328.9	-11.22
329.113	4.96
329.326	13.29
329.54	19.73
329.753	11.82
329.966	13.7
330.179	20.69
330.393	20.94
330.606	19.48
330.819	19.99
331.032	11.3
331.246	14.53
331.459	17.1
331.672	12.75
331.885	14.73
332.098	21.61
332.311	6.57
332.525	20.67
332.738	21.47
332.951	21.92
333.164	15.36
333.377	0.2
333.59	7.63
333.803	16
334.016	-3.35
334.229	-3.91
334.442	-1.64
334.655	6.81
334.868	26.61
335.081	27.7
335.294	23.69
335.507	34.02
335.72	24.79
335.933	26.88
336.146	30.09
336.359	23.82
336.572	9.42
336.785	15.47
336.997	6.67
337.21	6.8
337.423	5.36
337.636	3.73
337.849	-2.76
338.062	8.29
338.274	6.4
338.487	8.28
338.7	13.61
338.913	9.88
339.125	11.33
339.338	19.74
339.551	13.27
339.763	14.11
339.976	17.3
340.189	16.37
340.402	12.58
340.614	12.3
340.827	7.57
341.039	8.67
341.252	7.36
341.465	-5.5
341.677	-5.79
341.89	-4.41
342.102	-4.66
342.315	5.9
342.527	1.62
342.74	-3.09
342.952	8.69
343.165	19.76
343.377	25.98
343.59	28.2
343.802	29.16
344.015	31.17
344.227	30
344.44	24.99
344.652	17.19
344.864	15.36
345.077	4.77
345.289	-3.14
345.502	-5.99
345.714	-11.37
345.926	-16.93
346.139	-11.79
346.351	-27.16
346.563	-18.16
346.775	-24.13
346.988	-22.78
347.2	-7.61
347.412	3.95
347.624	2.81
347.837	11.9
348.049	14.73
348.261	18.2
348.473	9.05
348.685	8.67
348.897	11.86
349.11	8.37
349.322	0.26
349.534	-0.4
349.746	4.07
349.958	19.3
350.17	15.32
350.382	0.19
350.594	6.65
350.806	10.91
351.018	11.9
351.23	7.04
351.442	4.07
351.654	4.91
351.866	11.96
352.078	7.68
352.29	15.79
352.502	12.64
352.714	13.46
352.926	18.42
353.138	15.73
353.35	1.64
353.561	-3.72
353.773	-5.3
353.985	-0.46
354.197	-0.48
354.409	-1.5
354.621	11.17
354.832	11.45
355.044	21.43
355.256	11.54
355.468	7.55
355.679	16.53
355.891	13.32
356.103	2.94
356.314	11.94
356.526	14.11
356.738	11.82
356.949	12.4
357.161	7.08
357.373	8.89
357.584	21.61
357.796	16.34
358.008	13.69
358.219	23.86
358.431	28.59
358.642	23.46
358.854	21.41
359.065	12.24
359.277	11.37
359.488	12.08
359.7	16.88
359.911	16.77
360.123	24.12
360.334	25.27
360.546	24.18
360.757	28.32
360.969	33.75
361.18	22.57
361.391	15.04
361.603	9.23
361.814	11.18
362.025	11.91
362.237	9.94
362.448	9.47
362.659	5.2
362.871	5.5
363.082	5.14
363.293	7.26
363.504	13.17
363.716	13.19
363.927	7.12
364.138	15.52
364.349	19.21
364.56	21.33
364.772	21.77
364.983	15.73
365.194	15.09
365.405	12.23
365.616	3.38
365.827	-3.38
366.038	0.69
366.25	0.16
366.461	10.8
366.672	8.18
366.883	17.16
367.094	17.56
367.305	17.48
367.516	9.68
367.727	6.28
367.938	0.65
368.149	2.35
368.36	2.11
368.571	5.35
368.781	6.79
368.992	10.6
369.203	12.88
369.414	7.32
369.625	6.49
369.836	7.69
370.047	8.31
370.258	4.83
370.468	4.96
370.679	-4.33
370.89	8.21
371.101	7.04
371.312	2.88
371.522	1.79
371.733	-0.41
371.944	-0.97
372.155	-4.11
372.365	-20.03
372.576	-23.74
372.787	-25.74
372.997	-24.87
373.208	-13.54
373.419	-16.79
373.629	-1.72
373.84	0.7
374.05	13.54
374.261	10.85
374.472	4.29
374.682	-0.56
374.893	-7.88
375.103	-6.82
375.314	-0.64
375.524	-2.2
375.735	2.4
375.945	5.57
376.156	10.55
376.366	19.35
376.577	14.74
376.787	9.07
376.997	9.91
377.208	6.56
377.418	5.86
377.629	1.57
377.839	6.74
378.049	9.6
378.26	11.68
378.47	9.4
378.68	7.29
378.89	6.89
379.101	-1.21
379.311	-9.96
379.521	-8.82
379.732	-10.68
379.942	-9.12
380.152	-2.24
380.362	4.95
380.572	11.57
380.783	11.51
380.993	10.85
381.203	10.88
381.413	14.41
381.623	12.07
381.833	5.89
382.043	0.65
382.253	4.32
382.463	7.33
382.674	11.15
382.884	3.61
383.094	4.77
383.304	8.6
383.514	13.01
383.724	10.79
383.934	5.73
384.144	4.3
384.353	8.91
384.563	3.62
384.773	3.52
384.983	3.12
385.193	4.48
385.403	7.15
385.613	5.53
385.823	2.68
386.033	8.86
386.242	10.5
386.452	11.48
386.662	13.68
386.872	10.88
387.082	10.62
387.291	11.72
387.501	9.11
387.711	8.32
387.921	5.54
388.13	2.3
388.34	1.03
388.55	1.55
388.759	-0.23
388.969	-1.39
389.179	1.35
389.388	3.05
389.598	3.47
389.807	5.55
390.017	4.08
390.227	3.32
390.436	3.97
390.646	1.84
390.855	3.35
391.065	3.22
391.274	3.15
391.484	4.18
391.693	6.52
391.903	5.42
392.112	4.82
392.322	4.37
392.531	5.14
392.74	3.03
392.95	4.92
393.159	4.03
393.369	4.92
393.578	4.01
393.787	3.35
393.997	4.67
394.206	5.62
394.415	4.72
394.625	4.35
394.834	3.42
395.043	4.32
395.252	4.74
395.462	3.95
395.671	4.58
395.88	4.74
396.089	4.95
396.298	5.42
396.508	5.12
396.717	4.53
396.926	3.96
397.135	3.37
397.344	2.67
397.553	2.63
397.762	2.55
397.971	2.51
398.181	2.35
398.39	2.74
398.599	3.16
398.808	3.68
399.017	4.17
399.226	4.3
399.435	4.38
399.644	4.5
399.853	4.37
400.062	4.33
400.27	4.04
400.479	3.89
400.688	3.76
400.897	4.05
401.106	4.14
401.315	4.06
401.524	3.85
401.733	3.99
401.941	3.77
402.15	3.67
402.359	3.64
402.568	3.69
402.777	3.62
402.985	3.7
403.194	3.68
403.403	3.49
403.612	3.54
403.82	3.45
404.029	3.46
404.238	3.45
404.446	3.45
404.655	3.34
404.864	3.48
405.072	3.52
405.281	3.49
405.489	3.54
405.698	3.56
405.906	3.47
406.115	3.56
406.324	3.55
406.532	3.52
406.741	3.57
406.949	3.42
407.158	3.45
407.366	3.52
407.574	3.56
407.783	3.52
407.991	3.41
408.2	3.24
408.408	3.21
408.617	3.23
408.825	3.24
409.033	3.12
409.242	3.06
409.45	3.12
409.658	3.19
409.867	3.24
410.075	3.14
410.283	3.04
410.491	3.03
410.7	3.05
410.908	3.03
411.116	2.94
411.324	2.99
411.533	2.88
411.741	2.83
411.949	2.86
412.157	2.93
412.365	2.96
412.573	3.01
412.781	2.94
412.99	3.13
413.198	3.24
413.406	3.21
413.614	3.16
413.822	3.11
414.03	3.09
414.238	3.17
414.446	3.06
414.654	2.99
414.862	3
415.07	3.03
415.278	3
415.486	3.1
415.694	2.97
415.902	2.93
416.109	2.94
416.317	2.88
416.525	2.91
416.733	2.96
416.941	2.84
417.149	2.98
417.357	3.04
417.564	2.97
417.772	3.07
417.98	2.97
418.188	2.94
418.395	3
418.603	2.82
418.811	2.78
419.019	2.85
419.226	2.8
419.434	2.77
419.642	2.67
419.849	2.62
420.057	2.67
420.265	2.68
420.472	2.63
420.68	2.6
420.887	2.59
421.095	2.65
421.302	2.61
421.51	2.65
421.717	2.68
421.925	2.59
422.132	2.58
422.34	2.6
422.547	2.57
422.755	2.59
422.962	2.53
423.17	2.39
423.377	2.53
423.585	2.58
423.792	2.53
423.999	2.56
424.207	2.49
424.414	2.62
424.621	2.67
424.829	2.65
425.036	2.6
425.243	2.66
425.451	2.73
425.658	2.86
425.865	2.7
426.072	2.78
426.28	2.81
426.487	2.77
426.694	2.72
426.901	2.56
427.108	2.54
427.315	2.53
427.523	2.47
427.73	2.49
427.937	2.53
428.144	2.53
428.351	2.72
428.558	2.59
428.765	2.56
428.972	2.54
429.179	2.4
429.386	2.42
429.593	2.46
429.8	2.47
430.007	2.56
430.214	2.67
430.421	2.73
430.628	2.67
430.835	2.64
431.042	2.59
431.249	2.5
431.456	2.51
431.662	2.58
431.869	2.63
432.076	2.72
432.283	2.69
432.49	2.76
432.697	2.76
432.903	2.74
433.11	2.72
433.317	2.72
433.524	2.67
433.73	2.72
433.937	2.68
434.144	2.78
434.35	2.77
434.557	2.67
434.764	2.68
434.97	2.8
435.177	2.76
435.384	2.79
435.59	2.72
435.797	2.78
436.003	2.83
436.21	2.75
436.416	2.68
436.623	2.75
436.829	2.73
437.036	2.76
437.242	2.71
437.449	2.72
437.655	2.73
437.862	2.74
438.068	2.72
438.275	2.71
438.481	2.71
438.687	2.81
438.894	2.85
439.1	2.89
439.307	2.94
439.513	2.97
439.719	3.03
439.926	3.04
440.132	2.96
440.338	2.94
440.544	2.91
440.751	2.9
440.957	2.83
441.163	2.87
441.369	2.86
441.575	2.88
441.782	2.84
441.988	2.88
442.194	2.96
442.4	3.08
442.606	3.07
442.812	3.06
443.018	3.04
443.224	3.1
443.431	3.12
443.637	3.07
443.843	3.04
444.049	2.99
444.255	3.02
444.461	3.07
444.667	3.06
444.873	3.06
445.079	3.09
445.284	3.09
445.49	3.07
445.696	3.11
445.902	3.16
446.108	3.2
446.314	3.23
446.52	3.21
446.726	3.25
446.931	3.29
447.137	3.28
447.343	3.26
447.549	3.19
447.755	3.18
447.96	3.18
448.166	3.2
448.372	3.2
448.578	3.23
448.783	3.18
448.989	3.26
449.195	3.24
449.4	3.27
449.606	3.23
449.812	3.29
450.017	3.26
450.223	3.3
450.428	3.29
450.634	3.35
450.84	3.38
451.045	3.39
451.251	3.37
451.456	3.39
451.662	3.37
451.867	3.41
452.073	3.35
452.278	3.34
452.483	3.38
452.689	3.36
452.894	3.35
453.1	3.35
453.305	3.33
453.51	3.36
453.716	3.3
453.921	3.28
454.127	3.27
454.332	3.28
454.537	3.35
454.742	3.32
454.948	3.29
455.153	3.34
455.358	3.35
455.563	3.39
455.769	3.39
455.974	3.33
456.179	3.3
456.384	3.32
456.589	3.39
456.795	3.35
457	3.37
457.205	3.36
457.41	3.41
457.615	3.49
457.82	3.54
458.025	3.5
458.23	3.48
458.435	3.38
458.64	3.39
458.845	3.35
459.05	3.33
459.255	3.3
459.46	3.3
459.665	3.39
459.87	3.47
460.075	3.46
460.28	3.56
460.485	3.61
460.69	3.59
460.895	3.6
461.099	3.6
461.304	3.59
461.509	3.57
461.714	3.54
461.919	3.49
462.123	3.53
462.328	3.52
462.533	3.51
462.738	3.52
462.942	3.61
463.147	3.59
463.352	3.71
463.556	3.8
463.761	3.8
463.966	3.86
464.17	3.89
464.375	3.84
464.58	3.83
464.784	3.8
464.989	3.69
465.193	3.74
465.398	3.76
465.602	3.72
465.807	3.77
466.011	3.83
466.216	3.83
466.42	3.93
466.625	3.91
466.829	3.93
467.034	3.98
467.238	4.04
467.443	4.1
467.647	4.1
467.851	4.07
468.056	4.05
468.26	3.98
468.464	3.98
468.669	3.93
468.873	3.86
469.077	3.91
469.282	3.97
469.486	4.01
469.69	4.09
469.894	4.12
470.099	4.17
470.303	4.22
