Data from Ofra_PS_T2_1A_2CX12_Reflection_2.txt Node
Date: Wed Jul 21 17:52:48 EDT 2021
User: Adam
Spectrometer: FLMT01687
Trigger mode: 0
Integration Time (sec): 1.100000E0
Scans to average: 2
Electric dark correction enabled: true
Nonlinearity correction enabled: false
Boxcar width: 2
XAxis mode: Wavelengths
Number of Pixels in Spectrum: 3648
>>>>>Begin Spectral Data<<<<<
179.494	519.8
179.716	598.82
179.937	555.19
180.158	555.69
180.38	926.09
180.601	404.28
180.823	100.45
181.044	-42.77
181.265	152.02
181.486	49.8
181.708	78.23
181.929	477.04
182.15	-185.56
182.372	198.73
182.593	74.3
182.814	52.19
183.035	112.74
183.257	51.85
183.478	-89.31
183.699	-30.06
183.92	-43.94
184.141	-56.24
184.363	-70.85
184.584	13.08
184.805	34.83
185.026	47.19
185.247	49.7
185.468	26.56
185.689	30.07
185.91	18.15
186.132	33.66
186.353	35.61
186.574	90.61
186.795	74.5
187.016	32.2
187.237	19.09
187.458	-29.27
187.679	-34.76
187.9	-20.12
188.121	18.65
188.342	21.11
188.563	74.61
188.784	120.25
189.005	107.97
189.226	128.18
189.447	113.14
189.667	-33.37
189.888	-319.09
190.109	-1390.58
190.33	-777.9
190.551	-1308.63
190.772	-283.23
190.993	-251.25
191.214	-178.77
191.434	-123.44
191.655	-38.62
191.876	-101.2
192.097	-122.16
192.318	-184.99
192.538	-251.54
192.759	-201.24
192.98	-96.44
193.201	-33.72
193.421	12.59
193.642	26.14
193.863	51.32
194.083	39.42
194.304	18.28
194.525	-4.46
194.745	-17.2
194.966	-56.49
195.187	-60.31
195.407	-79.05
195.628	-139.11
195.848	-118.03
196.069	-130.79
196.29	-68.73
196.51	-78.39
196.731	-64.3
196.951	-111.05
197.172	-86.16
197.392	-126.77
197.613	-127.68
197.833	-154
198.054	-105.72
198.274	-70.37
198.495	-83.46
198.715	-53.34
198.936	-59.54
199.156	-70.44
199.377	-169.12
199.597	-145.9
199.817	-157.74
200.038	-76.69
200.258	-117.58
200.479	-41.39
200.699	-41.83
200.919	5.44
201.14	-18.68
201.36	-44.85
201.58	4
201.801	38.39
202.021	-2.45
202.241	-13.62
202.461	-2.1
202.682	-102.93
202.902	-205.02
203.122	-106.35
203.342	-70.62
203.563	-28.44
203.783	0.63
204.003	-28.1
204.223	-28.12
204.443	22.03
204.663	-9.76
204.884	17.21
205.104	66.85
205.324	112.76
205.544	82.71
205.764	91.66
205.984	88.27
206.204	79.85
206.424	54.09
206.644	39.9
206.864	57.06
207.084	12.05
207.304	4.05
207.525	-95.55
207.745	-2.77
207.964	-10.72
208.184	-62.97
208.404	-107.08
208.624	-108.22
208.844	-118.25
209.064	-461
209.284	-421.96
209.504	-201.45
209.724	-49.05
209.944	-40.06
210.164	10.6
210.384	23.45
210.604	8.86
210.823	-50.15
211.043	-72.45
211.263	-73.84
211.483	-69.99
211.703	-125.98
211.922	-106.39
212.142	-23.72
212.362	0.93
212.582	-25.57
212.801	1.94
213.021	-4.04
213.241	-28
213.461	-68.44
213.68	-75.26
213.9	-68.62
214.12	-49.64
214.339	-124.37
214.559	-109.5
214.779	-34.01
214.998	-16.81
215.218	-42.75
215.438	3.28
215.657	23.59
215.877	10.37
216.096	29.34
216.316	39.14
216.535	34.71
216.755	16.62
216.974	-58.74
217.194	-134.31
217.413	-155.77
217.633	-156.68
217.852	-250.43
218.072	-108.71
218.291	-59.12
218.511	0.43
218.73	-17.19
218.95	-14.14
219.169	-11.32
219.389	-56.84
219.608	-54.14
219.827	-55.82
220.047	-41.5
220.266	-32.04
220.485	-4.52
220.705	-3.92
220.924	-14.5
221.143	24.12
221.363	-6.67
221.582	-2.2
221.801	11.93
222.021	29.68
222.24	-38.09
222.459	94.54
222.678	83.79
222.897	26.15
223.117	-35.73
223.336	-45.53
223.555	-85.74
223.774	-52.7
223.993	-73.08
224.213	-0.95
224.432	-16.05
224.651	22.11
224.87	-8.52
225.089	18.75
225.308	19.64
225.527	37.92
225.746	31.22
225.965	28.58
226.184	-0.22
226.404	6.62
226.623	-20.46
226.842	-10.3
227.061	6.13
227.28	23.5
227.499	4.18
227.718	34.1
227.936	12.78
228.155	28.61
228.374	8.98
228.593	26.93
228.812	15.93
229.031	26.13
229.25	-37.93
229.469	-44.49
229.688	-46.87
229.907	-20.32
230.125	-7.59
230.344	7.4
230.563	30.85
230.782	46.93
231.001	-18.53
231.22	-23.54
231.438	8.69
231.657	-2.43
231.876	-31.74
232.095	28.92
232.313	36.33
232.532	32.83
232.751	8.7
232.969	-3.25
233.188	-97.62
233.407	-50.2
233.625	-42.09
233.844	-72.6
234.063	-50.5
234.281	-24.07
234.5	-25.81
234.719	-20.79
234.937	19.54
235.156	17.97
235.374	18.86
235.593	-1.62
235.811	-11.07
236.03	-38.36
236.249	-77.48
236.467	-69.9
236.686	-22.02
236.904	-7.98
237.123	-39.29
237.341	-29.43
237.559	-26.97
237.778	-43.66
237.996	-67.78
238.215	-3.23
238.433	13.33
238.652	17.78
238.87	-18.12
239.088	4
239.307	-1.1
239.525	-17.32
239.743	-37.97
239.962	9.85
240.18	-40.89
240.398	-103.26
240.617	-113.99
240.835	-104.16
241.053	-99.79
241.271	-27.71
241.49	9.81
241.708	-3.08
241.926	-27.7
242.144	-30.43
242.363	-115.85
242.581	-159.12
242.799	-110.62
243.017	-60.14
243.235	-85.44
243.453	-52.3
243.672	-31.81
243.89	-11.43
244.108	-16.94
244.326	11.47
244.544	23.09
244.762	16.21
244.98	5.58
245.198	13.72
245.416	-28.54
245.634	-37.09
245.852	-42.22
246.07	-56.28
246.288	-63.34
246.506	-71.3
246.724	-45.56
246.942	-42.58
247.16	5.98
247.378	25.37
247.596	56.93
247.814	43
248.032	11.88
248.25	-6.97
248.468	-15.11
248.685	-8.13
248.903	15.66
249.121	19.25
249.339	-13.86
249.557	-29.49
249.775	-22.68
249.992	-94
250.21	-65.19
250.428	-37.59
250.646	-58.54
250.863	-90.32
251.081	-53
251.299	-82.3
251.517	-86.29
251.734	-57.46
251.952	-49.48
252.17	-32.34
252.387	-13.41
252.605	-30.23
252.823	-24.75
253.04	-10.02
253.258	2.66
253.475	-8.65
253.693	43.77
253.911	50.13
254.128	48.94
254.346	53.29
254.563	26.09
254.781	-7.07
254.998	-56.75
255.216	-72.29
255.433	-57.61
255.651	2.54
255.868	33.29
256.086	79.57
256.303	58.68
256.521	27.3
256.738	-0.66
256.956	-39.63
257.173	-62.61
257.39	-53.47
257.608	-69.03
257.825	-23.86
258.043	30.26
258.26	25.19
258.477	69.23
258.695	75.5
258.912	38.76
259.129	24.76
259.346	8.95
259.564	-36.35
259.781	-50.17
259.998	10.4
260.216	19.3
260.433	55.14
260.65	63.73
260.867	74.97
261.084	38.05
261.302	16.36
261.519	9.55
261.736	-35.54
261.953	-70.57
262.17	-22.29
262.387	-31.47
262.604	-78.86
262.822	-64.74
263.039	-50.02
263.256	-119.6
263.473	-73.79
263.69	-49.3
263.907	1.4
264.124	25.78
264.341	24.58
264.558	7.47
264.775	32.6
264.992	6.93
265.209	7.28
265.426	44.1
265.643	55.95
265.86	59.9
266.077	71.18
266.294	62.75
266.51	-1.02
266.727	-23.67
266.944	-35.72
267.161	-42.78
267.378	-33.34
267.595	7.84
267.812	-17.89
268.028	-32.76
268.245	-8.25
268.462	-36.56
268.679	-52.16
268.896	5.2
269.112	15.8
269.329	-2.62
269.546	-6.96
269.763	-19.78
269.979	-42.01
270.196	-47.54
270.413	-61.64
270.629	-77.25
270.846	-73.6
271.063	-49.81
271.279	-63.77
271.496	-59.85
271.712	-14.48
271.929	16.21
272.146	-19.41
272.362	-15.25
272.579	21.73
272.795	26.9
273.012	11.28
273.228	9.98
273.445	-7.75
273.661	-33.44
273.878	-85.41
274.094	-60.92
274.311	-80.15
274.527	8.5
274.744	-4.74
274.96	12.55
275.177	9.09
275.393	33.41
275.609	14.74
275.826	35.43
276.042	24
276.259	26.31
276.475	37.57
276.691	24.87
276.908	1.58
277.124	23.16
277.34	20.19
277.557	5.16
277.773	-5.84
277.989	-1.34
278.205	-18.58
278.422	-14.32
278.638	-17.73
278.854	12.35
279.07	-4.67
279.286	5.05
279.503	-20.82
279.719	-36.83
279.935	-69.66
280.151	-60.66
280.367	-57.97
280.583	-60.27
280.799	-42.13
281.016	-74.13
281.232	-31.17
281.448	-18.56
281.664	9.47
281.88	-18.49
282.096	12.5
282.312	22.61
282.528	31.08
282.744	20.4
282.96	44.33
283.176	26.49
283.392	14.98
283.608	-3.19
283.824	0.98
284.04	-2.5
284.256	4.7
284.471	-15.75
284.687	-0.52
284.903	21.81
285.119	41.59
285.335	14.79
285.551	30.32
285.767	-11.54
285.982	-37.46
286.198	-94.22
286.414	-15.35
286.63	-4.31
286.846	32.39
287.061	8.53
287.277	44.33
287.493	-3.31
287.709	22.56
287.924	1.85
288.14	32.93
288.356	29.66
288.571	60.33
288.787	30.67
289.003	33.31
289.218	11.7
289.434	-17.52
289.65	-18.62
289.865	-29.33
290.081	-8.68
290.296	0.02
290.512	-7.09
290.727	-41.34
290.943	-40.42
291.159	-57.55
291.374	-62.73
291.59	-83
291.805	-50.99
292.021	-31.86
292.236	-32.13
292.451	-3.57
292.667	3.84
292.882	5.91
293.098	-7.68
293.313	-27.84
293.529	-67.87
293.744	-76.33
293.959	-81.54
294.175	-67.7
294.39	-14.57
294.605	2.38
294.821	32.81
295.036	39.49
295.251	51.94
295.467	0.75
295.682	-10.19
295.897	-76.22
296.112	-82.2
296.328	-97.35
296.543	-96.49
296.758	-91.62
296.973	-33.79
297.188	8.22
297.404	-16.33
297.619	-20.59
297.834	-32.68
298.049	-46.78
298.264	-77.2
298.479	-14.88
298.694	1.53
298.909	22.81
299.125	23.96
299.34	33.57
299.555	8.08
299.77	22.27
299.985	-14.08
300.2	-57.73
300.415	-72.19
300.63	-25.71
300.845	-51.65
301.06	-43.98
301.275	-18.13
301.49	-5.2
301.704	-23.99
301.919	-33.8
302.134	-43.04
302.349	-50.55
302.564	-110.94
302.779	-157.3
302.994	-147.14
303.209	-82.36
303.423	-16.54
303.638	41.37
303.853	18.53
304.068	20.58
304.283	15.23
304.497	-4.36
304.712	-20.85
304.927	-2.17
305.142	-2.47
305.356	1.87
305.571	-0.31
305.786	-6.8
306	-31.01
306.215	-31.27
306.43	-70.06
306.644	-60.09
306.859	1.87
307.074	12.87
307.288	-31.5
307.503	-21.43
307.717	-21.44
307.932	-37.42
308.147	-36.08
308.361	-2.69
308.576	-13.53
308.79	-69.61
309.005	-61.73
309.219	-56.13
309.434	-54.22
309.648	-53.69
309.863	-8.95
310.077	-1.75
310.292	2.9
310.506	-7.24
310.72	18.06
310.935	25.39
311.149	17.92
311.364	34.33
311.578	41.94
311.792	22.4
312.007	18.6
312.221	-6.65
312.435	-19.67
312.649	-36.28
312.864	-29.41
313.078	-14.66
313.292	61.62
313.507	37.69
313.721	64.35
313.935	25.78
314.149	18.42
314.363	-1.08
314.578	6.44
314.792	13.63
315.006	10.23
315.22	23.8
315.434	21.04
315.648	35.21
315.862	24.37
316.077	25.55
316.291	-3.05
316.505	7.77
316.719	-28.58
316.933	-19.39
317.147	-24.18
317.361	-80.94
317.575	-103.03
317.789	-137.36
318.003	-248.38
318.217	-196.55
318.431	-74.1
318.645	-18.02
318.859	-12.67
319.073	36.03
319.287	13.84
319.5	-14.35
319.714	-62.86
319.928	-80.22
320.142	-111.59
320.356	-48.29
320.57	-29.87
320.784	-31.37
320.997	-36.41
321.211	-53.22
321.425	-106.29
321.639	-123.97
321.853	-59.31
322.066	-41.27
322.28	-41.32
322.494	-24.23
322.707	-2.11
322.921	-12.38
323.135	-7.7
323.349	23.71
323.562	3.68
323.776	-6.59
323.989	-8.24
324.203	-40.8
324.417	-57.22
324.63	-74.56
324.844	-80.64
325.057	-82.68
325.271	-38.77
325.485	-19.34
325.698	6.2
325.912	22.67
326.125	0.81
326.339	-6.65
326.552	-39.3
326.766	-50.41
326.979	-37.73
327.193	9.9
327.406	-6.39
327.619	1.76
327.833	19.76
328.046	-11.57
328.26	-43.52
328.473	-5.89
328.686	-42.9
328.9	-28.37
329.113	4.42
329.326	-30.28
329.54	-35.25
329.753	-19.95
329.966	-66.71
330.179	-72.6
330.393	-23.98
330.606	-19.03
330.819	-4.46
331.032	16.24
331.246	18.3
331.459	44.75
331.672	42.19
331.885	30.54
332.098	-0.9
332.311	-10.64
332.525	-78.76
332.738	-73.17
332.951	-23.75
333.164	10.2
333.377	28.76
333.59	43.33
333.803	37.4
334.016	25.36
334.229	24.05
334.442	11.09
334.655	31.45
334.868	40.7
335.081	24.37
335.294	6.01
335.507	10.37
335.72	-5
335.933	-26.45
336.146	-26.24
336.359	-10.59
336.572	-48.19
336.785	-69.28
336.997	-48.83
337.21	-30.24
337.423	-48.45
337.636	-46.76
337.849	-29.89
338.062	-46.99
338.274	-46.95
338.487	-57.99
338.7	-35.82
338.913	-73.19
339.125	-81.51
339.338	-132.28
339.551	-77.73
339.763	-49.66
339.976	-16.41
340.189	6.01
340.402	31.34
340.614	-2.58
340.827	-23.32
341.039	-56.52
341.252	-65.38
341.465	-45.78
341.677	-39.15
341.89	-77.4
342.102	-33.69
342.315	-36.27
342.527	-70.08
342.74	-62.07
342.952	-13.1
343.165	-22.8
343.377	-4.33
343.59	-13.03
343.802	9.62
344.015	0.75
344.227	17.39
344.44	9.28
344.652	24.42
344.864	0.01
345.077	25.36
345.289	20.6
345.502	23.3
345.714	2.94
345.926	17.55
346.139	-1.17
346.351	8.59
346.563	14.79
346.775	30.66
346.988	10.8
347.2	-2.04
347.412	-39
347.624	-56.87
347.837	-82.7
348.049	-36.83
348.261	3.71
348.473	2.25
348.685	2.72
348.897	-5.22
349.11	-27.74
349.322	-49.79
349.534	-17.43
349.746	-9.18
349.958	9.8
350.17	14.19
350.382	26.15
350.594	0.53
350.806	-5.79
351.018	-1.87
351.23	-26.82
351.442	-90.1
351.654	-73.97
351.866	-58.36
352.078	-45.02
352.29	-16.42
352.502	10.36
352.714	26.01
352.926	9.68
353.138	3.24
353.35	-6.81
353.561	-16.77
353.773	-44.64
353.985	-30.11
354.197	-31.43
354.409	-29.79
354.621	-32.42
354.832	-20.07
355.044	-26.16
355.256	-36.14
355.468	-15.95
355.679	-20.6
355.891	-21.85
356.103	-43.63
356.314	-20.72
356.526	-40.77
356.738	-28.34
356.949	-40.39
357.161	-1.23
357.373	-15.61
357.584	-21.44
357.796	-14.64
358.008	-18.32
358.219	-8.51
358.431	-15.9
358.642	-6.01
358.854	-2.38
359.065	-12.18
359.277	-54.36
359.488	-54.79
359.7	-76.37
359.911	-93.83
360.123	-49.16
360.334	-50.34
360.546	-66.42
360.757	-72.96
360.969	-58.65
361.18	-70.31
361.391	-27.94
361.603	-23.16
361.814	-0.17
362.025	-10.11
362.237	-20.95
362.448	-20.51
362.659	6.62
362.871	6.74
363.082	10.13
363.293	18.81
363.504	3.35
363.716	-29.71
363.927	-38.66
364.138	-64.09
364.349	-80.18
364.56	-71.77
364.772	-53.9
364.983	-34.56
365.194	-25.03
365.405	-4.82
365.616	15.38
365.827	20.65
366.038	-3.74
366.25	-3.08
366.461	-50.02
366.672	-33.96
366.883	-11.82
367.094	9.86
367.305	-2.17
367.516	21.2
367.727	-3.55
367.938	-22.78
368.149	-33.73
368.36	-14.01
368.571	-16.1
368.781	-26.8
368.992	-40.4
369.203	-52.75
369.414	-74.63
369.625	-82.11
369.836	-69.03
370.047	-72.18
370.258	-49.68
370.468	-35.72
370.679	-50.9
370.89	-39.62
371.101	-24.56
371.312	-39.61
371.522	-36.86
371.733	-24.93
371.944	-14.19
372.155	-1.72
372.365	-5.3
372.576	-11.69
372.787	-13.63
372.997	-50.24
373.208	-54.36
373.419	-18.73
373.629	-52.13
373.84	-41.68
374.05	-38.65
374.261	-36.49
374.472	-59.29
374.682	-4.43
374.893	-16.95
375.103	21.49
375.314	16.35
375.524	19.18
375.735	15.74
375.945	21.1
376.156	-8.09
376.366	-3.31
376.577	-5.36
376.787	-13.58
376.997	-6.28
377.208	1.86
377.418	-8.92
377.629	-2.95
377.839	-4.77
378.049	-4
378.26	8.73
378.47	15.15
378.68	1.42
378.89	-7.38
379.101	-17
379.311	-56.67
379.521	-99.18
379.732	-87.73
379.942	-73.02
380.152	-94.94
380.362	-57
380.572	-32.56
380.783	-17.7
380.993	-4.31
381.203	16.63
381.413	29.56
381.623	34.64
381.833	20.39
382.043	7.42
382.253	-3.96
382.463	-10.34
382.674	-27.41
382.884	-44.36
383.094	-36.33
383.304	-27.14
383.514	-14.84
383.724	2.75
383.934	2.38
384.144	-13.86
384.353	-27.3
384.563	-37.27
384.773	-36.76
384.983	-45.07
385.193	-24.78
385.403	-14.9
385.613	-14.49
385.823	-28.99
386.033	-17.75
386.242	-22.68
386.452	-27.29
386.662	-32.44
386.872	-9.62
387.082	-11.08
387.291	-18.94
387.501	-13.12
387.711	-7.52
387.921	-19.59
388.13	-16.66
388.34	1.1
388.55	-5.41
388.759	-6.92
388.969	-2.88
389.179	-9.99
389.388	-15.93
389.598	-7.31
389.807	-14.06
390.017	-15.93
390.227	-12.66
390.436	-13.36
390.646	-16.05
390.855	-9.2
391.065	-8.51
391.274	-9.6
391.484	-11.24
391.693	-7.23
391.903	-6.87
392.112	-0.78
392.322	3.58
392.531	6.53
392.74	5.86
392.95	1.59
393.159	-4.14
393.369	-6.07
393.578	-6.7
393.787	-7.79
393.997	-5.18
394.206	-5.23
394.415	-3.71
394.625	-4.81
394.834	-5.58
395.043	-4.86
395.252	-1.82
395.462	0.04
395.671	1.71
395.88	2.47
396.089	2.47
396.298	0.06
396.508	-0.74
396.717	-1.62
396.926	-0.77
397.135	-0.86
397.344	-0.46
397.553	0.2
397.762	2.03
397.971	1.82
398.181	1.87
398.39	1.38
398.599	0.55
398.808	-0.26
399.017	0.88
399.226	2.29
399.435	3.3
399.644	3.7
399.853	3.41
400.062	2.54
400.27	1.66
400.479	1.32
400.688	0.25
400.897	0.73
401.106	0.75
401.315	0.52
401.524	0.48
401.733	1.8
401.941	2.17
402.15	2.61
402.359	2.61
402.568	3.14
402.777	3.32
402.985	2.93
403.194	2.57
403.403	2.61
403.612	2.02
403.82	1.48
404.029	1.71
404.238	1.5
404.446	2.03
404.655	1.86
404.864	1.73
405.072	1.42
405.281	1.82
405.489	1.29
405.698	1.53
405.906	1.7
406.115	1.8
406.324	1.62
406.532	1.82
406.741	2.11
406.949	2.07
407.158	1.98
407.366	2.1
407.574	2
407.783	1.8
407.991	1.64
408.2	1.85
408.408	1.75
408.617	1.83
408.825	1.76
409.033	1.88
409.242	1.97
409.45	2.02
409.658	1.86
409.867	2.03
410.075	1.95
410.283	1.66
410.491	1.58
410.7	1.55
410.908	1.5
411.116	1.85
411.324	1.9
411.533	1.99
411.741	2.23
411.949	2.2
412.157	1.86
412.365	1.92
412.573	1.89
412.781	1.89
412.99	1.88
413.198	2.11
413.406	2.06
413.614	2.02
413.822	1.89
414.03	1.75
414.238	1.49
414.446	1.62
414.654	1.53
414.862	1.67
415.07	1.81
415.278	2.06
415.486	1.76
415.694	1.89
415.902	1.71
416.109	1.54
416.317	1.51
416.525	1.51
416.733	1.47
416.941	1.64
417.149	1.59
417.357	1.62
417.564	1.84
417.772	2.01
417.98	1.86
418.188	2.05
418.395	1.93
418.603	1.93
418.811	1.58
419.019	1.57
419.226	1.8
419.434	1.94
419.642	1.76
419.849	1.98
420.057	2.04
420.265	1.95
420.472	1.76
420.68	1.82
420.887	1.59
421.095	1.62
421.302	1.6
421.51	1.85
421.717	1.89
421.925	2.02
422.132	1.83
422.34	1.46
422.547	1.32
422.755	1.23
422.962	1.21
423.17	1.25
423.377	1.47
423.585	1.51
423.792	1.42
423.999	1.39
424.207	1.42
424.414	1.57
424.621	1.57
424.829	1.64
425.036	1.7
425.243	1.77
425.451	1.54
425.658	1.32
425.865	1.54
426.072	1.52
426.28	1.74
426.487	1.84
426.694	1.98
426.901	1.72
427.108	1.77
427.315	1.52
427.523	1.71
427.73	1.81
427.937	1.79
428.144	1.57
428.351	1.62
428.558	1.59
428.765	1.42
428.972	1.43
429.179	1.75
429.386	1.93
429.593	1.7
429.8	1.59
430.007	1.8
430.214	1.78
430.421	1.5
430.628	1.36
430.835	1.26
431.042	1.32
431.249	1.37
431.456	1.4
431.662	1.62
431.869	1.9
432.076	1.82
432.283	1.82
432.49	1.89
432.697	1.87
432.903	1.63
433.11	1.6
433.317	1.67
433.524	1.84
433.73	1.81
433.937	2.05
434.144	1.88
434.35	1.7
434.557	1.57
434.764	1.56
434.97	1.41
435.177	1.66
435.384	1.61
435.59	1.62
435.797	1.89
436.003	2.01
436.21	1.94
436.416	2.03
436.623	2
436.829	1.86
437.036	1.9
437.242	1.87
437.449	1.75
437.655	1.74
437.862	1.76
438.068	1.64
438.275	1.71
438.481	1.91
438.687	1.88
438.894	1.79
439.1	1.81
439.307	1.91
439.513	1.84
439.719	1.81
439.926	1.93
440.132	1.9
440.338	1.74
440.544	1.89
440.751	1.89
440.957	1.91
441.163	1.88
441.369	1.98
441.575	1.76
441.782	1.77
441.988	1.65
442.194	1.6
442.4	1.59
442.606	1.8
442.812	1.9
443.018	2.03
443.224	2.11
443.431	2.2
443.637	2.04
443.843	1.88
444.049	1.79
444.255	1.75
444.461	1.74
444.667	1.73
444.873	1.88
445.079	1.81
445.284	1.83
445.49	1.58
445.696	1.43
445.902	1.25
446.108	1.25
446.314	1.26
446.52	1.34
446.726	1.56
446.931	1.65
447.137	1.76
447.343	1.77
447.549	1.67
447.755	1.56
447.96	1.61
448.166	1.51
448.372	1.42
448.578	1.49
448.783	1.49
448.989	1.54
449.195	1.75
449.4	1.85
449.606	1.83
449.812	1.77
450.017	1.76
450.223	1.56
450.428	1.45
450.634	1.59
450.84	1.7
451.045	1.57
451.251	1.52
451.456	1.87
451.662	1.91
451.867	2.01
452.073	1.99
452.278	2.1
452.483	2.09
452.689	1.89
452.894	1.89
453.1	1.9
453.305	1.81
453.51	1.68
453.716	1.65
453.921	1.59
454.127	1.59
454.332	1.6
454.537	1.47
454.742	1.55
454.948	1.55
455.153	1.58
455.358	1.72
455.563	1.89
455.769	1.96
455.974	1.91
456.179	1.76
456.384	1.69
456.589	1.69
456.795	1.52
457	1.53
457.205	1.85
457.41	1.74
457.615	1.65
457.82	1.75
458.025	1.76
458.23	1.56
458.435	1.75
458.64	1.61
458.845	1.77
459.05	1.8
459.255	1.75
459.46	1.64
459.665	1.72
459.87	1.62
460.075	1.57
460.28	1.63
460.485	1.71
