Data from Ofra_1a_PS_OCX5_Reflection_1.txt Node
Date: Tue Jul 20 10:39:46 EDT 2021
User: Adam
Spectrometer: FLMT01687
Trigger mode: 0
Integration Time (sec): 1.004000E0
Scans to average: 2
Electric dark correction enabled: true
Nonlinearity correction enabled: false
Boxcar width: 2
XAxis mode: Wavelengths
Number of Pixels in Spectrum: 3648
>>>>>Begin Spectral Data<<<<<
179.494	-12.69
179.716	125.19
179.937	-223.08
180.158	1212.1
180.38	-71.23
180.601	-50.48
180.823	-81.35
181.044	-153.06
181.265	-33.17
181.486	110.48
181.708	99.5
181.929	2445.45
182.15	-56.56
182.372	203.45
182.593	359.05
182.814	-220.88
183.035	-17.54
183.257	9.99
183.478	-5.81
183.699	-19.82
183.92	-69.64
184.141	-58.08
184.363	-57.13
184.584	-74.76
184.805	3.66
185.026	38.16
185.247	28.2
185.468	9.34
185.689	21.51
185.91	-29.97
186.132	-16.73
186.353	-20.33
186.574	-14.14
186.795	-4.88
187.016	17.45
187.237	6.66
187.458	19.49
187.679	18.85
187.9	19.79
188.121	17.54
188.342	28.93
188.563	40.05
188.784	57.17
189.005	46.76
189.226	34.62
189.447	35.58
189.667	23.68
189.888	15.83
190.109	-2.71
190.33	14.96
190.551	6.12
190.772	13.62
190.993	2.04
191.214	9.81
191.434	-18.57
191.655	-82.39
191.876	-36.92
192.097	-23.78
192.318	2.8
192.538	-18.11
192.759	-1.72
192.98	-5.94
193.201	-7.84
193.421	-0.44
193.642	13.85
193.863	26.87
194.083	23.21
194.304	29.34
194.525	-13.77
194.745	-18.65
194.966	-12.6
195.187	-10.98
195.407	-45.27
195.628	-20.47
195.848	-29.28
196.069	-64.15
196.29	-61.17
196.51	-44.99
196.731	-53.9
196.951	-47.49
197.172	-26.7
197.392	-39.27
197.613	-2.43
197.833	8.28
198.054	10.21
198.274	13.85
198.495	17.99
198.715	-11.44
198.936	3.35
199.156	4.61
199.377	-5.13
199.597	-0.88
199.817	-3.5
200.038	-43.25
200.258	-11.69
200.479	-13.33
200.699	-4.09
200.919	16.77
201.14	7.87
201.36	0.37
201.58	-14.02
201.801	-43.07
202.021	-50.12
202.241	-26.32
202.461	-34.79
202.682	-2.44
202.902	20.87
203.122	21.27
203.342	14.47
203.563	9.02
203.783	-12.42
204.003	-16.18
204.223	-5.57
204.443	-7.51
204.663	-27.59
204.884	-11.43
205.104	-16.47
205.324	-43.16
205.544	-80.21
205.764	-15.35
205.984	-27.35
206.204	-28.29
206.424	-26.44
206.644	-23.43
206.864	-77.94
207.084	-11.92
207.304	-19.95
207.525	-6.44
207.745	13.18
207.964	34.4
208.184	36.68
208.404	26.18
208.624	38.6
208.844	26.05
209.064	20.58
209.284	5.41
209.504	-2.68
209.724	-26.51
209.944	-25.75
210.164	-30.82
210.384	-50.1
210.604	-76.7
210.823	-86.57
211.043	-42.23
211.263	-69.53
211.483	-19.5
211.703	-7.78
211.922	-2.8
212.142	-31.43
212.362	-19.71
212.582	-26.72
212.801	-53.84
213.021	-27.33
213.241	5.11
213.461	-1.97
213.68	0.11
213.9	0.1
214.12	-17.29
214.339	-30.7
214.559	-22.35
214.779	-35.74
214.998	-17.1
215.218	3.75
215.438	8.63
215.657	18.01
215.877	26.45
216.096	31.02
216.316	31.16
216.535	24.08
216.755	11.59
216.974	-4.63
217.194	-16.96
217.413	-14.84
217.633	-12.48
217.852	-12.37
218.072	-1.6
218.291	4.41
218.511	-6.43
218.73	3.33
218.95	-4.4
219.169	-32.95
219.389	-30.6
219.608	-6.13
219.827	-19.54
220.047	-10.83
220.266	-9.68
220.485	-10.86
220.705	-23.54
220.924	-20.64
221.143	5.86
221.363	25.51
221.582	31.18
221.801	19.18
222.021	6.15
222.24	0.35
222.459	14.7
222.678	8.57
222.897	12.98
223.117	47.46
223.336	45.49
223.555	34.87
223.774	42.37
223.993	35.2
224.213	29.7
224.432	39.28
224.651	20.53
224.87	13.21
225.089	12.01
225.308	8.41
225.527	-10.2
225.746	-3.1
225.965	-17.46
226.184	-30.04
226.404	-39.55
226.623	-27.71
226.842	-20.9
227.061	-13.1
227.28	10.44
227.499	17.85
227.718	16.81
227.936	18.36
228.155	18.91
228.374	8.94
228.593	11.86
228.812	11.53
229.031	10.03
229.25	10.47
229.469	1.21
229.688	-4.25
229.907	2.85
230.125	7.61
230.344	6.55
230.563	11.48
230.782	8.33
231.001	4.86
231.22	-0.44
231.438	15.67
231.657	24.55
231.876	26.06
232.095	38.14
232.313	39.33
232.532	26.83
232.751	24.53
232.969	24.09
233.188	-3.18
233.407	5.46
233.625	9.21
233.844	18.92
234.063	22.95
234.281	33.11
234.5	21.47
234.719	16.37
234.937	-21.61
235.156	-28.72
235.374	-24.09
235.593	-6.9
235.811	14.23
236.03	31.62
236.249	25.95
236.467	25.15
236.686	4.72
236.904	-4.19
237.123	-8.56
237.341	-10.75
237.559	-34.59
237.778	-2.31
237.996	-49.67
238.215	-99.71
238.433	-168.06
238.652	-45.04
238.87	-48.39
239.088	-22.64
239.307	-2.91
239.525	24.59
239.743	-6.75
239.962	-12.77
240.18	-4.22
240.398	-16.32
240.617	-45.52
240.835	-35.46
241.053	-37.73
241.271	-38.35
241.49	-14.31
241.708	-2.59
241.926	-1.57
242.144	4.24
242.363	-10.8
242.581	-51.11
242.799	-80.41
243.017	-75.66
243.235	-48.63
243.453	-70.49
243.672	-34.83
243.89	-26.51
244.108	-5.8
244.326	-7.39
244.544	9.06
244.762	-16.25
244.98	-12.05
245.198	-18.62
245.416	-16.36
245.634	-16.26
245.852	-18.17
246.07	-4.29
246.288	1.58
246.506	-2.43
246.724	-4.34
246.942	5.26
247.16	-4.34
247.378	-18.66
247.596	4.99
247.814	-11.89
248.032	-1.49
248.25	23.16
248.468	18.2
248.685	1.76
248.903	8.16
249.121	16.97
249.339	10.09
249.557	12.26
249.775	16.27
249.992	12.96
250.21	1.98
250.428	13.63
250.646	13.27
250.863	3.61
251.081	11.57
251.299	21.77
251.517	7.76
251.734	-0.77
251.952	11.01
252.17	4.84
252.387	-21.55
252.605	-4.47
252.823	8.48
253.04	17.34
253.258	2.92
253.475	11.18
253.693	-17.46
253.911	-14.97
254.128	-26.32
254.346	-7.9
254.563	10.5
254.781	29.68
254.998	14.43
255.216	-6.88
255.433	-46.57
255.651	-50.22
255.868	-68.26
256.086	-46.01
256.303	-7.38
256.521	12.87
256.738	-5.35
256.956	4.25
257.173	-0.93
257.39	-2.46
257.608	6.81
257.825	2.72
258.043	21.27
258.26	23.53
258.477	9.13
258.695	0.65
258.912	8.3
259.129	-18.87
259.346	-36.93
259.564	1.31
259.781	-17.64
259.998	-2.29
260.216	13.75
260.433	6.92
260.65	-4.75
260.867	1.83
261.084	7.03
261.302	-20.74
261.519	-0.09
261.736	-2.34
261.953	2.34
262.17	17.46
262.387	25.34
262.604	26.4
262.822	36.45
263.039	39.44
263.256	27.66
263.473	31.41
263.69	34.85
263.907	31.6
264.124	25.24
264.341	37.79
264.558	18.44
264.775	19.1
264.992	12.93
265.209	1.64
265.426	-16.36
265.643	-1.1
265.86	-51.19
266.077	-51.63
266.294	-4.33
266.51	10.61
266.727	12.95
266.944	40.34
267.161	50.85
267.378	46.78
267.595	46.11
267.812	31.33
268.028	11.99
268.245	6.57
268.462	-4.6
268.679	-15.13
268.896	14.56
269.112	8.55
269.329	-15.47
269.546	15.58
269.763	14.31
269.979	7.9
270.196	21.92
270.413	32.8
270.629	9.88
270.846	22.14
271.063	27.34
271.279	22.87
271.496	20.36
271.712	39.07
271.929	37.87
272.146	45.44
272.362	39.54
272.579	19.19
272.795	6.49
273.012	-7.56
273.228	7.01
273.445	21.85
273.661	36.91
273.878	26.72
274.094	38.56
274.311	20.78
274.527	3.39
274.744	16.72
274.96	12.22
275.177	1.76
275.393	11.72
275.609	15.55
275.826	3.87
276.042	-2.24
276.259	-0.2
276.475	-17.29
276.691	-30.72
276.908	-23.46
277.124	-6.55
277.34	-7.86
277.557	-22.44
277.773	-10.39
277.989	-24.48
278.205	-21.67
278.422	-20.03
278.638	1.32
278.854	-2.76
279.07	20.97
279.286	16.23
279.503	30.47
279.719	25.29
279.935	29.55
280.151	15.5
280.367	13.38
280.583	-2.13
280.799	0.54
281.016	-24.98
281.232	-11.35
281.448	1.75
281.664	0.59
281.88	2.78
282.096	21.98
282.312	18.43
282.528	22.57
282.744	24.89
282.96	10.15
283.176	-24.01
283.392	-29.49
283.608	-51.05
283.824	-48.27
284.04	-69.6
284.256	-19.35
284.471	-12.91
284.687	-8.18
284.903	4.18
285.119	13.25
285.335	21.81
285.551	15.2
285.767	4.76
285.982	-4.06
286.198	3.83
286.414	-2.43
286.63	3.34
286.846	23.24
287.061	26.39
287.277	13.96
287.493	-4.3
287.709	-10.4
287.924	-7.55
288.14	-12.44
288.356	6.26
288.571	10.35
288.787	7.04
289.003	13.4
289.218	18.57
289.434	-2.99
289.65	16.89
289.865	22.29
290.081	22.85
290.296	21.24
290.512	19.48
290.727	-5.64
290.943	-4.56
291.159	-1.31
291.374	-23.44
291.59	-20.18
291.805	-22.43
292.021	-22.71
292.236	-32.85
292.451	-9.05
292.667	-4.47
292.882	17.57
293.098	11.99
293.313	14.54
293.529	6.04
293.744	8.93
293.959	10.81
294.175	20.48
294.39	-0.66
294.605	21.69
294.821	14.72
295.036	-9.41
295.251	-10.6
295.467	-10.01
295.682	-20.88
295.897	-28.47
296.112	-15.6
296.328	-0.76
296.543	-7.77
296.758	-14.07
296.973	-17.01
297.188	-12.36
297.404	-43.41
297.619	-45.14
297.834	-65.8
298.049	-48.51
298.264	-36.35
298.479	-39.02
298.694	11.15
298.909	20.12
299.125	29.36
299.34	16.68
299.555	32.64
299.77	28.69
299.985	30.11
300.2	39.01
300.415	49.03
300.63	38.46
300.845	30.16
301.06	17.95
301.275	-2.24
301.49	-3.73
301.704	8.17
301.919	-0.86
302.134	0.81
302.349	-4.52
302.564	-4.09
302.779	-29.94
302.994	-10.05
303.209	-11.07
303.423	-6.18
303.638	-10
303.853	-11.87
304.068	-33.72
304.283	-22.9
304.497	-38.75
304.712	-25.26
304.927	-3.95
305.142	2.48
305.356	12.02
305.571	18.3
305.786	29.48
306	22.97
306.215	32.53
306.43	15.22
306.644	15.94
306.859	-11.79
307.074	8.79
307.288	7.08
307.503	16.83
307.717	14.87
307.932	27.79
308.147	15
308.361	14.11
308.576	9.34
308.79	19.86
309.005	-8.32
309.219	18.5
309.434	25.96
309.648	18.82
309.863	10.45
310.077	12.7
310.292	10.62
310.506	-8.23
310.72	-9.35
310.935	18.05
311.149	30.01
311.364	18.72
311.578	31.55
311.792	30.62
312.007	-1.31
312.221	-1.39
312.435	6.28
312.649	1.3
312.864	4.79
313.078	2.24
313.292	4.13
313.507	6.41
313.721	8.24
313.935	15.13
314.149	24.71
314.363	27.55
314.578	26.68
314.792	-7.44
315.006	-20.66
315.22	-13.48
315.434	-11.94
315.648	-21.29
315.862	9.08
316.077	15.53
316.291	14.36
316.505	-12.34
316.719	1.81
316.933	-1.75
317.147	-4.98
317.361	-10.09
317.575	12.65
317.789	17.39
318.003	14.13
318.217	21.04
318.431	22.82
318.645	0.1
318.859	2.35
319.073	7.33
319.287	8.88
319.5	12.85
319.714	18.44
319.928	11.9
320.142	8.82
320.356	5.45
320.57	-23.93
320.784	-20.4
320.997	-48.81
321.211	-28.17
321.425	-37
321.639	9.19
321.853	4.14
322.066	0.8
322.28	-5.72
322.494	1.99
322.707	-15.57
322.921	-5.61
323.135	6.61
323.349	-1.34
323.562	1.12
323.776	3.08
323.989	2.76
324.203	-3.21
324.417	-4.92
324.63	-26.21
324.844	-36.48
325.057	-65.36
325.271	-37.95
325.485	-32.91
325.698	-7.57
325.912	13.06
326.125	18.14
326.339	9.78
326.552	5.74
326.766	-17.31
326.979	-23.83
327.193	-16.65
327.406	-17.66
327.619	-1.22
327.833	6.54
328.046	20.87
328.26	15.55
328.473	19.81
328.686	20.89
328.9	25.49
329.113	8.99
329.326	13.29
329.54	15.93
329.753	17.68
329.966	15.15
330.179	16.68
330.393	8.42
330.606	-0.84
330.819	-16.03
331.032	-13.98
331.246	-5.83
331.459	9.66
331.672	8.35
331.885	0.27
332.098	7.02
332.311	16.87
332.525	5.49
332.738	13.05
332.951	18.74
333.164	16.57
333.377	3.1
333.59	-2.83
333.803	-15.49
334.016	-19.32
334.229	-39.47
334.442	-24.94
334.655	-19.49
334.868	-14.96
335.081	-1.87
335.294	18.58
335.507	11.98
335.72	14.05
335.933	23.48
336.146	16.86
336.359	11.87
336.572	13.48
336.785	15.36
336.997	-8.47
337.21	-12.97
337.423	-23.16
337.636	-17.64
337.849	-9.27
338.062	16.23
338.274	31.63
338.487	11.57
338.7	-8.01
338.913	4.39
339.125	-20.92
339.338	-32.75
339.551	-19.41
339.763	-5.74
339.976	-24.9
340.189	-23.42
340.402	-9.39
340.614	4.47
340.827	2.81
341.039	10.77
341.252	7.18
341.465	4.26
341.677	2.08
341.89	2.89
342.102	16.18
342.315	23.4
342.527	14.17
342.74	7.66
342.952	3.79
343.165	-5.55
343.377	-1.83
343.59	8.45
343.802	2.52
344.015	16.31
344.227	6.44
344.44	-5.53
344.652	-12.92
344.864	-0.19
345.077	0.39
345.289	7.74
345.502	28.59
345.714	38.28
345.926	51.08
346.139	28.87
346.351	32.31
346.563	21.93
346.775	26.7
346.988	18.14
347.2	8.74
347.412	10.19
347.624	4.75
347.837	-3.46
348.049	-10.87
348.261	-9.57
348.473	-5.76
348.685	-5.31
348.897	-6.78
349.11	-2.61
349.322	7.74
349.534	-2.17
349.746	4.28
349.958	-2.36
350.17	-16.94
350.382	-29.14
350.594	-32.15
350.806	-8.92
351.018	10
351.23	18.36
351.442	35.31
351.654	35.6
351.866	17.99
352.078	16.72
352.29	6.57
352.502	-0.84
352.714	-0.46
352.926	6.45
353.138	1.45
353.35	2.73
353.561	7.18
353.773	4.3
353.985	13.77
354.197	10.64
354.409	10.75
354.621	-5.99
354.832	-1.88
355.044	-25.23
355.256	-35.12
355.468	-28.89
355.679	1.53
355.891	9.92
356.103	11.56
356.314	11.13
356.526	-9.1
356.738	-26.92
356.949	-37.81
357.161	-24.75
357.373	-7.9
357.584	9.56
357.796	15.28
358.008	19.57
358.219	18.91
358.431	7.72
358.642	12.17
358.854	12.03
359.065	0.89
359.277	-2.72
359.488	-2.48
359.7	-7.27
359.911	-21.09
360.123	-15.8
360.334	-14.05
360.546	-31.36
360.757	-22.71
360.969	-18.4
361.18	-10.89
361.391	-10.02
361.603	23.56
361.814	31.71
362.025	37.16
362.237	33.32
362.448	33.39
362.659	23.23
362.871	-3.07
363.082	-14.06
363.293	-38.16
363.504	-56.98
363.716	-60.33
363.927	-14.01
364.138	-29.9
364.349	-28.16
364.56	-40
364.772	-10.41
364.983	-18.63
365.194	-10.72
365.405	7.67
365.616	19.59
365.827	2.06
366.038	6.16
366.25	19.43
366.461	13.3
366.672	7.88
366.883	5
367.094	1.27
367.305	-25.72
367.516	-20.94
367.727	-28.16
367.938	-26.75
368.149	-35.96
368.36	-20.84
368.571	-35.26
368.781	-17.23
368.992	-6.74
369.203	0.39
369.414	-5.08
369.625	-4.11
369.836	10.16
370.047	2.48
370.258	1.12
370.468	2.43
370.679	13.03
370.89	-4.2
371.101	7.91
371.312	13.85
371.522	16.02
371.733	-2.29
371.944	-21.48
372.155	-23.96
372.365	-21.81
372.576	-27.17
372.787	-9.03
372.997	7.9
373.208	-2.64
373.419	-18.15
373.629	-9.68
373.84	-15.83
374.05	-9.89
374.261	-10.87
374.472	6.02
374.682	5.54
374.893	-17.73
375.103	-23.28
375.314	-6.36
375.524	-12.55
375.735	-9.49
375.945	14.67
376.156	14.2
376.366	13.59
376.577	6.81
376.787	11.94
376.997	12.8
377.208	14.52
377.418	10.9
377.629	12.27
377.839	14.49
378.049	13.63
378.26	12.88
378.47	14.14
378.68	24.76
378.89	15.64
379.101	12.76
379.311	13.71
379.521	7.42
379.732	-2.5
379.942	2.95
380.152	-3.43
380.362	-9
380.572	3.44
380.783	9.98
380.993	1.89
381.203	0.93
381.413	4.98
381.623	5.7
381.833	2.77
382.043	3.23
382.253	6.75
382.463	19.68
382.674	17.97
382.884	16.59
383.094	15.89
383.304	18.77
383.514	7.44
383.724	2.43
383.934	-4.73
384.144	-2.34
384.353	0.27
384.563	-1.52
384.773	-3.75
384.983	-0.4
385.193	2.99
385.403	2.55
385.613	1.25
385.823	-0.33
386.033	7.57
386.242	5.62
386.452	2.94
386.662	9.66
386.872	17.15
387.082	8.77
387.291	4.87
387.501	3.2
387.711	-0.02
387.921	-0.87
388.13	2.95
388.34	5.13
388.55	1.97
388.759	-1.6
388.969	-4.34
389.179	-2.82
389.388	-4.17
389.598	-6.03
389.807	-7.41
390.017	-6.17
390.227	-9.46
390.436	-5.43
390.646	-2.65
390.855	-1.02
391.065	-2.27
391.274	0.51
391.484	0.02
391.693	1.06
391.903	1.65
392.112	2.39
392.322	1.3
392.531	-1.95
392.74	-3
392.95	-1.01
393.159	-2.47
393.369	-3.03
393.578	-0.9
393.787	-0.9
393.997	-0.39
394.206	0.96
394.415	1.91
394.625	0.42
394.834	0.62
395.043	-1.29
395.252	1.96
395.462	2.63
395.671	4.3
395.88	5.4
396.089	6.14
396.298	5.43
396.508	5.39
396.717	4.61
396.926	3.29
397.135	3.42
397.344	1.96
397.553	1.47
397.762	2.45
397.971	2.49
398.181	2.18
398.39	2.06
398.599	2.13
398.808	1.25
399.017	2.84
399.226	2.99
399.435	3.17
399.644	3.61
399.853	4.23
400.062	3.59
400.27	3.45
400.479	3.48
400.688	3.16
400.897	2.74
401.106	2.89
401.315	2.81
401.524	2.99
401.733	2.91
401.941	3.17
402.15	2.69
402.359	2.99
402.568	2.91
402.777	3.1
402.985	2.72
403.194	2.8
403.403	2.74
403.612	2.69
403.82	2.22
404.029	2.36
404.238	2.45
404.446	2.55
404.655	2.56
404.864	2.82
405.072	2.94
405.281	2.88
405.489	2.6
405.698	2.72
405.906	2.74
406.115	2.55
406.324	2.52
406.532	2.79
406.741	2.68
406.949	2.77
407.158	2.88
407.366	2.9
407.574	2.83
407.783	2.77
407.991	2.69
408.2	2.81
408.408	2.7
408.617	2.58
408.825	2.53
409.033	2.49
409.242	2.6
409.45	2.67
409.658	2.72
409.867	2.8
410.075	2.93
410.283	2.63
410.491	2.48
410.7	2.33
410.908	2.37
411.116	2.42
411.324	2.47
411.533	2.51
411.741	2.6
411.949	2.51
412.157	2.23
412.365	2.2
412.573	2.36
412.781	2.47
412.99	2.36
413.198	2.41
413.406	2.48
413.614	2.43
413.822	2.35
414.03	2.42
414.238	2.55
414.446	2.58
414.654	2.47
414.862	2.43
415.07	2.38
415.278	2.31
415.486	2.11
415.694	2.18
415.902	2.18
416.109	2.23
416.317	2.24
416.525	2.36
416.733	2.34
416.941	2.38
417.149	2.3
417.357	2.28
417.564	2.16
417.772	2.18
417.98	2.05
418.188	2.16
418.395	1.99
418.603	1.99
418.811	1.94
419.019	1.93
419.226	1.9
419.434	1.97
419.642	2.02
419.849	1.95
420.057	2.07
420.265	2
420.472	2.04
420.68	2.07
420.887	2.1
421.095	2.18
421.302	2.29
421.51	2.3
421.717	2.3
421.925	2.35
422.132	2.24
422.34	2.06
422.547	2.06
422.755	2.07
422.962	2.09
423.17	1.95
423.377	1.94
423.585	2.07
423.792	1.98
423.999	1.99
424.207	1.98
424.414	2.05
424.621	2.03
424.829	2.1
425.036	2.08
425.243	2.24
425.451	2.18
425.658	2.13
425.865	2.17
426.072	2.1
426.28	2.06
426.487	2.12
426.694	1.96
426.901	1.96
427.108	1.91
427.315	1.91
427.523	1.92
427.73	2.03
427.937	1.95
428.144	2.11
428.351	2.04
428.558	2.1
428.765	2.12
428.972	2.13
429.179	1.83
429.386	1.93
429.593	1.86
429.8	1.77
430.007	1.9
430.214	2.06
430.421	2.11
430.628	2.18
430.835	2.25
431.042	2.06
431.249	2.12
431.456	1.98
431.662	1.95
431.869	1.98
432.076	2.08
432.283	2.18
432.49	2.25
432.697	2.22
432.903	2.23
433.11	2.22
433.317	2.22
433.524	2.19
433.73	2.17
433.937	2.23
434.144	2.14
434.35	1.98
434.557	2.03
434.764	2.11
434.97	1.94
435.177	2.01
435.384	2.16
435.59	2.21
435.797	2.21
436.003	2.26
436.21	2.33
436.416	2.28
436.623	2.32
436.829	2.22
437.036	2.28
437.242	2.3
437.449	2.34
437.655	2.34
437.862	2.49
438.068	2.42
438.275	2.41
438.481	2.37
438.687	2.27
438.894	2.26
439.1	2.33
439.307	2.4
439.513	2.48
439.719	2.56
439.926	2.56
440.132	2.58
440.338	2.49
440.544	2.47
440.751	2.37
440.957	2.34
441.163	2.27
441.369	2.28
441.575	2.19
441.782	2.33
441.988	2.39
442.194	2.35
442.4	2.31
442.606	2.48
442.812	2.45
443.018	2.43
443.224	2.56
443.431	2.56
443.637	2.5
443.843	2.47
444.049	2.53
444.255	2.56
444.461	2.61
444.667	2.57
444.873	2.55
445.079	2.53
445.284	2.47
445.49	2.53
445.696	2.48
445.902	2.48
446.108	2.49
446.314	2.51
446.52	2.56
446.726	2.58
446.931	2.55
447.137	2.48
447.343	2.54
447.549	2.49
447.755	2.48
447.96	2.53
448.166	2.56
448.372	2.48
448.578	2.45
448.783	2.6
448.989	2.62
449.195	2.6
449.4	2.69
449.606	2.7
449.812	2.59
450.017	2.62
450.223	2.7
450.428	2.63
450.634	2.59
450.84	2.6
451.045	2.66
451.251	2.64
451.456	2.63
451.662	2.7
451.867	2.8
452.073	2.7
452.278	2.72
452.483	2.75
452.689	2.8
452.894	2.83
453.1	2.82
453.305	2.81
453.51	2.88
453.716	2.8
453.921	2.77
454.127	2.74
454.332	2.68
454.537	2.59
454.742	2.58
454.948	2.55
455.153	2.63
455.358	2.69
455.563	2.79
455.769	2.82
455.974	2.81
456.179	2.79
456.384	2.73
456.589	2.6
456.795	2.64
457	2.61
457.205	2.55
457.41	2.64
457.615	2.66
457.82	2.67
458.025	2.66
458.23	2.73
458.435	2.76
458.64	2.78
458.845	2.75
459.05	2.79
459.255	2.76
459.46	2.75
459.665	2.77
459.87	2.74
460.075	2.82
460.28	2.89
460.485	2.88
460.69	2.94
460.895	3.03
461.099	2.85
461.304	2.84
461.509	2.85
461.714	2.87
461.919	2.74
462.123	2.91
462.328	2.75
462.533	2.63
462.738	2.53
462.942	2.55
463.147	2.48
463.352	2.6
463.556	2.7
463.761	2.75
463.966	2.82
464.17	2.83
464.375	2.91
464.58	2.85
464.784	2.85
464.989	2.89
465.193	2.91
465.398	2.87
465.602	3.06
465.807	3.13
466.011	3.09
466.216	3
466.42	2.98
466.625	2.95
