Data from Ofra_2a_PS_9GT47_Reflection_3.txt Node
Date: Tue Jul 20 10:01:28 EDT 2021
User: Adam
Spectrometer: FLMT01687
Trigger mode: 0
Integration Time (sec): 9.450000E-1
Scans to average: 3
Electric dark correction enabled: true
Nonlinearity correction enabled: false
Boxcar width: 3
XAxis mode: Wavelengths
Number of Pixels in Spectrum: 3648
>>>>>Begin Spectral Data<<<<<
179.494	1482.25
179.716	877.82
179.937	887.91
180.158	3351.56
180.38	-1845.35
180.601	-292.19
180.823	-61.64
181.044	-60.96
181.265	-146.41
181.486	-38.55
181.708	-2282.61
181.929	32.09
182.15	-211.36
182.372	45.49
182.593	-41.1
182.814	494.01
183.035	334.71
183.257	123.67
183.478	69.27
183.699	71.01
183.92	50.31
184.141	47.59
184.363	38.88
184.584	30.93
184.805	45.33
185.026	21.63
185.247	9.73
185.468	28.05
185.689	40.78
185.91	31.9
186.132	36.8
186.353	30.23
186.574	45.35
186.795	34.54
187.016	28.3
187.237	27.72
187.458	20.17
187.679	-4.13
187.9	9.1
188.121	-26.56
188.342	10.62
188.563	22.08
188.784	7.03
189.005	31
189.226	41.73
189.447	33.05
189.667	50.88
189.888	57.2
190.109	56.87
190.33	70.11
190.551	42.75
190.772	42.57
190.993	46.86
191.214	39.93
191.434	33.23
191.655	29.95
191.876	32.1
192.097	34.08
192.318	39.66
192.538	40.32
192.759	54.45
192.98	47.1
193.201	57.08
193.421	65.75
193.642	64.41
193.863	69.85
194.083	53.77
194.304	32.77
194.525	46.45
194.745	18.61
194.966	7.03
195.187	20.34
195.407	20.16
195.628	25.34
195.848	22.43
196.069	18.76
196.29	23.12
196.51	9.69
196.731	25.49
196.951	18.94
197.172	2.36
197.392	19.3
197.613	11.43
197.833	24.66
198.054	24.82
198.274	-5.49
198.495	3.78
198.715	3.78
198.936	-12.17
199.156	12.92
199.377	2.86
199.597	10.48
199.817	19.57
200.038	23.63
200.258	35.22
200.479	32.26
200.699	27.6
200.919	10.75
201.14	5.16
201.36	11.65
201.58	10.49
201.801	3.79
202.021	11.21
202.241	5.17
202.461	14.46
202.682	25.18
202.902	22.61
203.122	11.96
203.342	22.31
203.563	23.69
203.783	29.78
204.003	35.27
204.223	35.91
204.443	39.81
204.663	40.33
204.884	40.07
205.104	43.59
205.324	52.6
205.544	50.55
205.764	52.75
205.984	46.28
206.204	46.4
206.424	44.28
206.644	46.42
206.864	30.46
207.084	46.24
207.304	33.57
207.525	35.43
207.745	48.9
207.964	37.35
208.184	31.7
208.404	35.95
208.624	21.5
208.844	17.92
209.064	12.87
209.284	16.38
209.504	22.99
209.724	7.92
209.944	6.05
210.164	8.29
210.384	26.77
210.604	26.96
210.823	-1.68
211.043	-3.3
211.263	7.7
211.483	10.12
211.703	14.04
211.922	15.77
212.142	27.76
212.362	36.52
212.582	34.66
212.801	30.66
213.021	41.58
213.241	24.44
213.461	17.3
213.68	-1.85
213.9	3.18
214.12	-4.64
214.339	6.31
214.559	9.8
214.779	24.81
214.998	17.99
215.218	34.34
215.438	37.38
215.657	50.96
215.877	47.3
216.096	51.95
216.316	49.08
216.535	66.12
216.755	47.82
216.974	47.42
217.194	44.61
217.413	54.42
217.633	35.48
217.852	32.83
218.072	5.37
218.291	26.92
218.511	18.13
218.73	13.36
218.95	8.96
219.169	0.26
219.389	-5.05
219.608	18.73
219.827	8.94
220.047	16.65
220.266	22.73
220.485	29.84
220.705	32.36
220.924	39.07
221.143	31.25
221.363	33.38
221.582	31.24
221.801	44.31
222.021	35.19
222.24	30.91
222.459	25.52
222.678	21.83
222.897	13.54
223.117	10.96
223.336	9.14
223.555	3.73
223.774	28.69
223.993	39.69
224.213	37.41
224.432	54.75
224.651	56.86
224.87	45.11
225.089	48.74
225.308	37.97
225.527	37.04
225.746	37.02
225.965	15.52
226.184	9.93
226.404	11.75
226.623	10.48
226.842	21.63
227.061	31.52
227.28	51.08
227.499	59.35
227.718	57.89
227.936	48
228.155	47.45
228.374	42.85
228.593	33.23
228.812	23.27
229.031	19.21
229.25	38.12
229.469	47.6
229.688	49.48
229.907	45.93
230.125	40.74
230.344	37.32
230.563	41.38
230.782	18.31
231.001	18.47
231.22	16.02
231.438	22.13
231.657	27.52
231.876	29.46
232.095	27.03
232.313	37
232.532	27.98
232.751	29.12
232.969	34.82
233.188	34.13
233.407	34.3
233.625	17.38
233.844	25.74
234.063	26.39
234.281	19.12
234.5	19.81
234.719	15.44
234.937	26.22
235.156	37.87
235.374	30.14
235.593	29.98
235.811	32.54
236.03	11.43
236.249	18.4
236.467	13.97
236.686	7.72
236.904	14.99
237.123	21.23
237.341	24.38
237.559	28.03
237.778	34.61
237.996	26.6
238.215	26.11
238.433	26.37
238.652	21.49
238.87	26.07
239.088	23.32
239.307	22.87
239.525	18.9
239.743	16.3
239.962	16.03
240.18	25.49
240.398	27.4
240.617	23.69
240.835	25.89
241.053	45.35
241.271	50.76
241.49	43.56
241.708	36.48
241.926	22.59
242.144	35.32
242.363	25.63
242.581	16.2
242.799	8.92
243.017	18.21
243.235	20.85
243.453	28.82
243.672	32.6
243.89	35.15
244.108	41.68
244.326	41.73
244.544	39.45
244.762	30.93
244.98	23.59
245.198	11.82
245.416	12.49
245.634	5.88
245.852	17.61
246.07	13.42
246.288	9.3
246.506	26.9
246.724	42.9
246.942	48.98
247.16	41.6
247.378	29.4
247.596	40.97
247.814	39.48
248.032	36.75
248.25	20.38
248.468	16.48
248.685	26.17
248.903	22.58
249.121	22.7
249.339	25.52
249.557	16.57
249.775	6.81
249.992	-3.25
250.21	-18.01
250.428	-13.75
250.646	-10.8
250.863	-8.56
251.081	-5.34
251.299	23.18
251.517	43.05
251.734	50.63
251.952	56.75
252.17	51.38
252.387	39.71
252.605	35.45
252.823	14.47
253.04	6.37
253.258	-2.9
253.475	10.08
253.693	17.1
253.911	19.6
254.128	20.17
254.346	24.11
254.563	14.9
254.781	17.64
254.998	15.06
255.216	11.52
255.433	16.04
255.651	14.96
255.868	12.52
256.086	15.48
256.303	16
256.521	2.75
256.738	-1.03
256.956	-7.47
257.173	-3.12
257.39	3.73
257.608	10.25
257.825	9.87
258.043	16.76
258.26	8.92
258.477	8.43
258.695	9.08
258.912	22.77
259.129	10.45
259.346	13.1
259.564	-2.64
259.781	14.34
259.998	25.01
260.216	27.04
260.433	8.41
260.65	27.68
260.867	8.91
261.084	19.05
261.302	15.34
261.519	-0
261.736	-1.79
261.953	13.83
262.17	14.87
262.387	27.1
262.604	24.01
262.822	30.09
263.039	35.2
263.256	37.38
263.473	19
263.69	8.93
263.907	24.73
264.124	24.32
264.341	16.53
264.558	22.29
264.775	16.81
264.992	32.31
265.209	49.22
265.426	38.85
265.643	40.22
265.86	35.57
266.077	33.23
266.294	36.45
266.51	27.83
266.727	-3.28
266.944	-12.76
267.161	-22.35
267.378	-14.5
267.595	-22.47
267.812	-21.42
268.028	-8.33
268.245	15.54
268.462	18.57
268.679	17.21
268.896	6.74
269.112	21.12
269.329	23.88
269.546	17.68
269.763	19.66
269.979	20.94
270.196	27.33
270.413	33.48
270.629	26.73
270.846	19.75
271.063	18.15
271.279	5.18
271.496	-1.59
271.712	-1.26
271.929	3.74
272.146	10.2
272.362	3.12
272.579	15.62
272.795	16.95
273.012	22.81
273.228	22.38
273.445	13.99
273.661	1.43
273.878	10.35
274.094	1.36
274.311	10.84
274.527	12.92
274.744	7.63
274.96	20.24
275.177	24.35
275.393	21.22
275.609	22.97
275.826	24.38
276.042	21.8
276.259	22.16
276.475	14.32
276.691	16.21
276.908	18.31
277.124	22.12
277.34	17.76
277.557	18.95
277.773	15.52
277.989	15.15
278.205	3.26
278.422	10.22
278.638	24.22
278.854	28.65
279.07	24.02
279.286	36.76
279.503	37.5
279.719	57.81
279.935	50.09
280.151	51.66
280.367	50.33
280.583	48.03
280.799	42.97
281.016	41.68
281.232	27.24
281.448	27.62
281.664	11.71
281.88	14.98
282.096	21.88
282.312	18.28
282.528	10.25
282.744	23.41
282.96	27.85
283.176	32.8
283.392	29.21
283.608	30.87
283.824	36.37
284.04	42.82
284.256	38.59
284.471	40.04
284.687	37.3
284.903	38.89
285.119	23.77
285.335	20.78
285.551	24.16
285.767	22.14
285.982	23.21
286.198	18.89
286.414	33.53
286.63	44.69
286.846	36.96
287.061	35.33
287.277	37.81
287.493	33.66
287.709	28.71
287.924	23.54
288.14	24
288.356	42.31
288.571	38.8
288.787	39.25
289.003	37.5
289.218	34.42
289.434	20.36
289.65	20.81
289.865	15.78
290.081	24.87
290.296	17.77
290.512	24.05
290.727	35.35
290.943	35.24
291.159	30.74
291.374	31.69
291.59	14.44
291.805	21.09
292.021	8.38
292.236	-0.36
292.451	5.65
292.667	7.15
292.882	-2.65
293.098	3.8
293.313	0.35
293.529	8.34
293.744	9.26
293.959	13.99
294.175	18.78
294.39	37.93
294.605	38.73
294.821	43.19
295.036	44.11
295.251	50.02
295.467	48.24
295.682	35.71
295.897	21.41
296.112	28.48
296.328	31.59
296.543	29.9
296.758	34.28
296.973	32.71
297.188	40.48
297.404	43.38
297.619	38.91
297.834	43.77
298.049	39.29
298.264	33.85
298.479	19.77
298.694	26.58
298.909	25.89
299.125	21.58
299.34	12.37
299.555	21.43
299.77	14.78
299.985	18.11
300.2	11.56
300.415	13.6
300.63	14.7
300.845	16.45
301.06	6.12
301.275	19.72
301.49	23.64
301.704	18.24
301.919	13.94
302.134	7.4
302.349	3.54
302.564	3.9
302.779	-4.89
302.994	-5.78
303.209	2.34
303.423	11.26
303.638	26.95
303.853	33.97
304.068	44.59
304.283	33.34
304.497	31.69
304.712	32.78
304.927	30.45
305.142	27
305.356	29.85
305.571	23.51
305.786	34.01
306	39.53
306.215	45.59
306.43	53.62
306.644	48.45
306.859	42.46
307.074	40.68
307.288	34.53
307.503	37.25
307.717	27.83
307.932	19.54
308.147	19.08
308.361	18.93
308.576	19.13
308.79	21.98
309.005	18.91
309.219	23.02
309.434	24.57
309.648	28.04
309.863	35.88
310.077	38.56
310.292	36.66
310.506	42.74
310.72	33.87
310.935	28.33
311.149	26.31
311.364	26.76
311.578	27.07
311.792	24.94
312.007	14.16
312.221	24.44
312.435	25.11
312.649	31.98
312.864	20.33
313.078	36.54
313.292	45.97
313.507	54.75
313.721	52.07
313.935	70.94
314.149	58.94
314.363	59.57
314.578	73.24
314.792	63.25
315.006	62.25
315.22	61.99
315.434	43.7
315.648	38.1
315.862	42.45
316.077	25.99
316.291	41.98
316.505	34.9
316.719	18.78
316.933	31.98
317.147	25.33
317.361	21.83
317.575	20.28
317.789	5.75
318.003	17.22
318.217	28.29
318.431	30.06
318.645	38.15
318.859	34.59
319.073	21.08
319.287	26.59
319.5	27.43
319.714	30.99
319.928	34.69
320.142	33.46
320.356	42.18
320.57	53.27
320.784	48.04
320.997	46.92
321.211	45.73
321.425	29.72
321.639	27.53
321.853	19.52
322.066	15.2
322.28	18.75
322.494	11.61
322.707	7.43
322.921	11.02
323.135	23.08
323.349	23.35
323.562	27.91
323.776	25.89
323.989	26.38
324.203	35.04
324.417	24.04
324.63	6.25
324.844	1.58
325.057	-0.32
325.271	0.92
325.485	7.41
325.698	-1.05
325.912	19.69
326.125	33.7
326.339	36.45
326.552	39.95
326.766	40.49
326.979	37
327.193	37.82
327.406	31.67
327.619	13.88
327.833	14.6
328.046	6.99
328.26	-1.14
328.473	2.05
328.686	12.06
328.9	7.55
329.113	15.78
329.326	28.4
329.54	37.35
329.753	39.66
329.966	37.85
330.179	34.45
330.393	44.34
330.606	44.35
330.819	38.52
331.032	42.61
331.246	39.62
331.459	42.59
331.672	43.54
331.885	33.55
332.098	37.12
332.311	28.83
332.525	24.44
332.738	21.17
332.951	19.98
333.164	14.38
333.377	14.3
333.59	13.97
333.803	18.91
334.016	12.33
334.229	21.88
334.442	32.2
334.655	46.07
334.868	55.63
335.081	56.89
335.294	56.02
335.507	61.27
335.72	52.52
335.933	47.62
336.146	44.45
336.359	40.66
336.572	36.92
336.785	37.87
336.997	28.65
337.21	36.89
337.423	39.45
337.636	35.57
337.849	29.34
338.062	31.91
338.274	38.46
338.487	34.68
338.7	29.94
338.913	19.23
339.125	17.18
339.338	25.31
339.551	26.39
339.763	20.45
339.976	25.23
340.189	30.64
340.402	34.72
340.614	35.37
340.827	24.25
341.039	20.54
341.252	20.72
341.465	18.68
341.677	4.88
341.89	2.74
342.102	8.87
342.315	21.72
342.527	16.76
342.74	18.4
342.952	19.07
343.165	38.17
343.377	39.61
343.59	35.15
343.802	33.76
344.015	41.6
344.227	39.57
344.44	32.52
344.652	29.99
344.864	29.99
345.077	29.28
345.289	28.98
345.502	27.95
345.714	18.13
345.926	20.53
346.139	16.51
346.351	-5.13
346.563	-6.32
346.775	-18.99
346.988	-24.99
347.2	-12.8
347.412	-4.3
347.624	0.72
347.837	18.76
348.049	14.19
348.261	19.5
348.473	19.93
348.685	22.03
348.897	23.03
349.11	17.23
349.322	5.88
349.534	9.8
349.746	13.08
349.958	14.73
350.17	15.29
350.382	-0.25
350.594	7.72
350.806	23.58
351.018	27.85
351.23	29.99
351.442	31.35
351.654	39.75
351.866	46.54
352.078	41.55
352.29	40.67
352.502	35.69
352.714	34.84
352.926	40.2
353.138	26.45
353.35	22.14
353.561	16.08
353.773	13.75
353.985	21.42
354.197	13.04
354.409	14.16
354.621	15.04
354.832	12.21
355.044	26.93
355.256	21.38
355.468	12.64
355.679	14.99
355.891	11.73
356.103	18.1
356.314	22.18
356.526	10.42
356.738	9.97
356.949	14.99
357.161	20.27
357.373	23.45
357.584	24.71
357.796	26.8
358.008	33.85
358.219	41.63
358.431	42.2
358.642	39.65
358.854	39.94
359.065	37.15
359.277	33.36
359.488	23.56
359.7	21.38
359.911	17.44
360.123	23.6
360.334	17.05
360.546	10.72
360.757	16.96
360.969	23.51
361.18	22.55
361.391	21.12
361.603	17.62
361.814	21.6
362.025	20
362.237	18.73
362.448	16.93
362.659	4.74
362.871	9.34
363.082	12.17
363.293	14.73
363.504	16.05
363.716	17.18
363.927	21.08
364.138	29.1
364.349	31.76
364.56	25.02
364.772	28.54
364.983	26.77
365.194	32.51
365.405	30.24
365.616	29.8
365.827	20.98
366.038	34.68
366.25	28.58
366.461	38.18
366.672	35.82
366.883	34.95
367.094	30.7
367.305	33.59
367.516	23.95
367.727	26.24
367.938	26.47
368.149	21.43
368.36	25.73
368.571	27.44
368.781	22.34
368.992	19.97
369.203	15.26
369.414	12.07
369.625	11.19
369.836	7.49
370.047	5.27
370.258	8.71
370.468	15.6
370.679	14.08
370.89	21.59
371.101	16.95
371.312	12.05
371.522	25.34
371.733	20
371.944	11.51
372.155	3.02
372.365	1.41
372.576	3.96
372.787	5.26
372.997	-3.59
373.208	3.04
373.419	12.11
373.629	26.23
373.84	19.54
374.05	28.21
374.261	26.33
374.472	25.85
374.682	23.36
374.893	18.34
375.103	17.79
375.314	14.81
375.524	7.43
375.735	6.94
375.945	2.89
376.156	6.28
376.366	9.19
376.577	6.02
376.787	10.99
376.997	15.56
377.208	12.84
377.418	18.67
377.629	16.01
377.839	23.03
378.049	29.96
378.26	30.71
378.47	30.32
378.68	30.04
378.89	23.95
379.101	17.7
379.311	3.19
379.521	0.72
379.732	-9.35
379.942	-11.8
380.152	-8.1
380.362	-1.73
380.572	6.53
380.783	11.6
380.993	15.17
381.203	19.82
381.413	21.7
381.623	19.84
381.833	20.66
382.043	16.53
382.253	21.53
382.463	18.52
382.674	21.79
382.884	18.52
383.094	26.85
383.304	26.17
383.514	27.82
383.724	22.99
383.934	19.32
384.144	19.85
384.353	23.52
384.563	18.18
384.773	19.21
384.983	17.72
385.193	20.97
385.403	24.32
385.613	19.05
385.823	17.31
386.033	15.33
386.242	12.68
386.452	10.73
386.662	7.42
386.872	2.86
387.082	2.65
387.291	0.64
387.501	5.53
387.711	7.76
387.921	9.58
388.13	6.95
388.34	9.14
388.55	12.16
388.759	14.77
388.969	10.26
389.179	12.14
389.388	13.4
389.598	13.43
389.807	12.21
390.017	10.52
390.227	7.08
390.436	6.31
390.646	4.9
390.855	4.03
391.065	4.42
391.274	1.98
391.484	2.59
391.693	4.8
391.903	5.65
392.112	5.04
392.322	5.25
392.531	5.94
392.74	5.9
392.95	6.83
393.159	6.4
393.369	6.78
393.578	7.13
393.787	6.59
393.997	6.9
394.206	7.8
394.415	7.24
394.625	6.23
394.834	5.52
395.043	5.37
395.252	5.63
395.462	5.52
395.671	5.67
395.88	5.52
396.089	5.66
396.298	6.13
396.508	5.84
396.717	5.13
396.926	4.33
397.135	3.52
397.344	3.05
397.553	3.35
397.762	3.14
397.971	2.8
398.181	2.6
398.39	2.99
398.599	3.69
398.808	3.83
399.017	3.74
399.226	3.7
399.435	3.54
399.644	3.71
399.853	3.85
400.062	3.51
400.27	3.41
400.479	3.36
400.688	3.34
400.897	3.68
401.106	3.77
401.315	3.46
401.524	3.64
401.733	3.69
401.941	3.51
402.15	3.27
402.359	3.11
402.568	3.07
402.777	3.05
402.985	2.8
403.194	2.81
403.403	2.63
403.612	2.74
403.82	2.78
404.029	2.72
404.238	2.83
404.446	2.81
404.655	2.62
404.864	2.74
405.072	2.78
405.281	2.61
405.489	2.61
405.698	2.45
405.906	2.52
406.115	2.64
406.324	2.62
406.532	2.6
406.741	2.68
406.949	2.59
407.158	2.77
407.366	2.85
407.574	2.81
407.783	2.77
407.991	2.69
408.2	2.7
408.408	2.72
408.617	2.59
408.825	2.48
409.033	2.48
409.242	2.49
409.45	2.52
409.658	2.51
409.867	2.49
410.075	2.54
410.283	2.49
410.491	2.4
410.7	2.52
410.908	2.55
411.116	2.5
411.324	2.55
411.533	2.36
411.741	2.36
411.949	2.5
412.157	2.43
412.365	2.39
412.573	2.44
412.781	2.45
412.99	2.65
413.198	2.73
413.406	2.66
413.614	2.61
413.822	2.58
414.03	2.5
414.238	2.56
414.446	2.41
414.654	2.41
414.862	2.38
415.07	2.49
415.278	2.46
415.486	2.56
415.694	2.4
415.902	2.39
416.109	2.32
416.317	2.3
416.525	2.32
416.733	2.36
416.941	2.23
417.149	2.36
417.357	2.42
417.564	2.44
417.772	2.43
417.98	2.36
418.188	2.27
418.395	2.38
418.603	2.23
418.811	2.14
419.019	2.15
419.226	2.24
419.434	2.1
419.642	2.1
419.849	2.02
420.057	2.14
420.265	2.16
420.472	2.13
420.68	2
420.887	2.16
421.095	2.22
421.302	2.28
421.51	2.24
421.717	2.34
421.925	2.28
422.132	2.23
422.34	2.11
422.547	2.06
422.755	1.97
422.962	1.87
423.17	1.83
423.377	1.96
423.585	2.06
423.792	2.02
423.999	2.02
424.207	2
424.414	2.12
424.621	2.08
424.829	1.93
425.036	1.84
425.243	1.84
425.451	1.82
425.658	1.94
425.865	1.79
426.072	1.83
426.28	1.94
426.487	1.92
426.694	1.98
426.901	1.94
427.108	1.9
427.315	1.95
427.523	1.99
427.73	1.96
427.937	2.04
428.144	2.04
428.351	2.25
428.558	2.13
428.765	2.1
428.972	2.06
429.179	2.05
429.386	2.05
429.593	2.01
429.8	1.92
430.007	2.03
430.214	2.07
430.421	2.05
430.628	1.95
430.835	1.96
431.042	1.97
431.249	1.95
431.456	1.96
431.662	2
431.869	2.09
432.076	2.18
432.283	2.12
432.49	2.12
432.697	2.07
432.903	2.04
433.11	2.03
433.317	2.01
433.524	1.93
433.73	2.01
433.937	2
434.144	2.15
434.35	2.11
434.557	2.02
434.764	2
434.97	2.14
435.177	2.1
435.384	2.19
435.59	2.13
435.797	2.15
436.003	2.16
436.21	2.13
436.416	2.06
436.623	2.11
436.829	2.06
437.036	2.03
437.242	2.1
437.449	2.15
437.655	2.16
437.862	2.16
438.068	2.22
438.275	2.19
438.481	2.28
438.687	2.31
438.894	2.35
439.1	2.41
439.307	2.37
439.513	2.29
439.719	2.33
439.926	2.3
440.132	2.25
440.338	2.22
440.544	2.14
440.751	2.21
440.957	2.17
441.163	2.23
441.369	2.21
441.575	2.23
441.782	2.19
441.988	2.21
442.194	2.25
442.4	2.31
442.606	2.28
442.812	2.28
443.018	2.25
443.224	2.3
443.431	2.36
443.637	2.28
443.843	2.3
444.049	2.29
444.255	2.2
444.461	2.25
444.667	2.22
444.873	2.2
445.079	2.25
445.284	2.21
445.49	2.15
445.696	2.28
445.902	2.31
446.108	2.32
446.314	2.37
446.52	2.41
446.726	2.43
446.931	2.51
447.137	2.52
447.343	2.52
447.549	2.45
447.755	2.4
447.96	2.35
448.166	2.42
448.372	2.45
448.578	2.39
448.783	2.33
448.989	2.42
449.195	2.44
449.4	2.46
449.606	2.41
449.812	2.41
450.017	2.41
450.223	2.46
450.428	2.46
450.634	2.51
450.84	2.52
451.045	2.52
451.251	2.52
451.456	2.48
451.662	2.43
451.867	2.42
452.073	2.35
452.278	2.34
452.483	2.32
452.689	2.28
452.894	2.31
453.1	2.3
453.305	2.29
453.51	2.36
453.716	2.38
453.921	2.37
454.127	2.4
454.332	2.43
454.537	2.57
454.742	2.58
454.948	2.55
455.153	2.56
455.358	2.68
455.563	2.69
455.769	2.72
455.974	2.58
456.179	2.56
456.384	2.58
456.589	2.56
456.795	2.43
457	2.44
457.205	2.4
457.41	2.46
457.615	2.52
457.82	2.55
458.025	2.56
458.23	2.61
458.435	2.53
458.64	2.59
458.845	2.58
459.05	2.51
459.255	2.48
459.46	2.47
459.665	2.52
459.87	2.56
460.075	2.51
460.28	2.53
460.485	2.61
460.69	2.56
460.895	2.57
461.099	2.55
461.304	2.55
461.509	2.51
461.714	2.52
461.919	2.44
462.123	2.54
462.328	2.51
462.533	2.5
462.738	2.5
462.942	2.59
463.147	2.61
463.352	2.66
463.556	2.66
463.761	2.7
463.966	2.73
464.17	2.77
464.375	2.7
464.58	2.68
464.784	2.65
464.989	2.59
465.193	2.61
465.398	2.62
465.602	2.62
465.807	2.65
466.011	2.67
466.216	2.71
466.42	2.77
466.625	2.78
466.829	2.79
467.034	2.86
467.238	2.88
467.443	2.9
467.647	2.93
467.851	2.89
468.056	2.87
468.26	2.85
468.464	2.78
468.669	2.8
468.873	2.8
469.077	2.76
469.282	2.83
469.486	2.9
