Data from Ofra_1a_PS_9GT30_Reflection_1.txt Node
Date: Tue Jul 20 11:06:16 EDT 2021
User: Adam
Spectrometer: FLMT01687
Trigger mode: 0
Integration Time (sec): 1.004000E0
Scans to average: 2
Electric dark correction enabled: true
Nonlinearity correction enabled: false
Boxcar width: 2
XAxis mode: Wavelengths
Number of Pixels in Spectrum: 3648
>>>>>Begin Spectral Data<<<<<
179.494	-291.37
179.716	-552.67
179.937	1276.92
180.158	-1759.24
180.38	175.52
180.601	97.88
180.823	-31.03
181.044	-201.79
181.265	-326.01
181.486	174.92
181.708	129.02
181.929	1436.36
182.15	-167.84
182.372	793.1
182.593	578.83
182.814	-440.41
183.035	-55.37
183.257	-4.31
183.478	-22.2
183.699	-52.39
183.92	-108.93
184.141	-108.15
184.363	-96.15
184.584	-115.32
184.805	-40.74
185.026	22.21
185.247	-0.68
185.468	-5.72
185.689	14.45
185.91	-32.04
186.132	-8.78
186.353	22.98
186.574	36.03
186.795	43.42
187.016	76.05
187.237	92.02
187.458	72.77
187.679	76.83
187.9	68.35
188.121	85.97
188.342	76.86
188.563	87.84
188.784	70.04
189.005	44.64
189.226	17.4
189.447	-5.73
189.667	-17.71
189.888	-39.42
190.109	-27.05
190.33	21.6
190.551	24.84
190.772	43.21
190.993	48.85
191.214	3.5
191.434	-49.55
191.655	-49.76
191.876	-41.08
192.097	-6.24
192.318	40.39
192.538	14.81
192.759	-4.46
192.98	15.92
193.201	21.9
193.421	16.9
193.642	25.2
193.863	41.97
194.083	30.96
194.304	36.97
194.525	1.73
194.745	-3.98
194.966	-18.72
195.187	-21.35
195.407	-52.12
195.628	-21.67
195.848	-28.83
196.069	-40.62
196.29	-17.77
196.51	-21.88
196.731	-22.61
196.951	-6.66
197.172	9.07
197.392	-10.35
197.613	21.75
197.833	12.52
198.054	6.43
198.274	-2.43
198.495	-3.96
198.715	-23.46
198.936	-6.27
199.156	-1.26
199.377	14.38
199.597	14.68
199.817	7.22
200.038	-25.18
200.258	6.96
200.479	17.11
200.699	28.33
200.919	33.45
201.14	35.01
201.36	20.99
201.58	-0.04
201.801	10.6
202.021	-8.06
202.241	4.42
202.461	1.69
202.682	32.85
202.902	31.2
203.122	57.43
203.342	62.48
203.563	55.02
203.783	29.11
204.003	26.53
204.223	27.02
204.443	45.17
204.663	58.23
204.884	84.64
205.104	78.36
205.324	66.33
205.544	17.17
205.764	36.58
205.984	14.61
206.204	18.11
206.424	-16.57
206.644	-24.48
206.864	-75.74
207.084	-32.72
207.304	-44
207.525	-1.99
207.745	22.21
207.964	48.33
208.184	62.08
208.404	33.55
208.624	32.26
208.844	43.11
209.064	25.7
209.284	25.53
209.504	23.9
209.724	32.31
209.944	0.63
210.164	20.86
210.384	11.12
210.604	-4.36
210.823	-54.7
211.043	-11.24
211.263	-114.61
211.483	-64.56
211.703	-28.17
211.922	-19.05
212.142	0.9
212.362	15.4
212.582	16.23
212.801	33.67
213.021	22.86
213.241	2.04
213.461	15.85
213.68	13.11
213.9	2.51
214.12	-4.79
214.339	-12.82
214.559	-5.6
214.779	-10.44
214.998	-2.54
215.218	15.95
215.438	31.45
215.657	35.52
215.877	35.76
216.096	36.1
216.316	44.62
216.535	34.15
216.755	30.31
216.974	31.34
217.194	24.9
217.413	6.9
217.633	13
217.852	14.49
218.072	27.42
218.291	38.92
218.511	31.5
218.73	24.53
218.95	-11.47
219.169	-38.55
219.389	-34.53
219.608	-26.22
219.827	-7.98
220.047	12.8
220.266	4.21
220.485	-16.92
220.705	-21.37
220.924	-42.22
221.143	-17.71
221.363	10.46
221.582	11.38
221.801	22.23
222.021	27.7
222.24	29.51
222.459	16.42
222.678	31.36
222.897	21.21
223.117	11.9
223.336	15.45
223.555	18.74
223.774	-2.19
223.993	11.63
224.213	21.25
224.432	11.75
224.651	1.82
224.87	5.5
225.089	2.17
225.308	11.34
225.527	10.28
225.746	24.69
225.965	13.67
226.184	1.44
226.404	-14.55
226.623	-13.85
226.842	-14.57
227.061	-5.13
227.28	16.85
227.499	24.49
227.718	25.15
227.936	22.76
228.155	18.09
228.374	9.29
228.593	7.49
228.812	1.58
229.031	2.46
229.25	-18.34
229.469	-17.67
229.688	-20.06
229.907	-13.43
230.125	-11.04
230.344	7.71
230.563	12.05
230.782	18.24
231.001	27.02
231.22	29.27
231.438	42.59
231.657	38.9
231.876	40.09
232.095	44.36
232.313	27.41
232.532	18.07
232.751	-0.61
232.969	-12.31
233.188	-22.7
233.407	2.99
233.625	0.67
233.844	20.47
234.063	28.37
234.281	30.7
234.5	17.82
234.719	27.41
234.937	6.59
235.156	-1.77
235.374	-4.51
235.593	25.49
235.811	15.89
236.03	25.01
236.249	28.53
236.467	25.74
236.686	2.95
236.904	11.48
237.123	8.15
237.341	-8.53
237.559	-24.28
237.778	-11.77
237.996	-54.85
238.215	-100.89
238.433	-102.4
238.652	-16.21
238.87	-11.76
239.088	10.46
239.307	8.05
239.525	12.13
239.743	-8.29
239.962	-12.09
240.18	0.64
240.398	15.23
240.617	6.28
240.835	43.05
241.053	35.97
241.271	28.15
241.49	20.63
241.708	14.57
241.926	-5.44
242.144	-12.81
242.363	-19.22
242.581	-54.73
242.799	-39.11
243.017	-8.19
243.235	-5.64
243.453	-25.66
243.672	10.65
243.89	20.08
244.108	28.56
244.326	35.16
244.544	47.16
244.762	28.08
244.98	22.38
245.198	25.04
245.416	16.74
245.634	5
245.852	-9.69
246.07	2
246.288	0.14
246.506	-7.64
246.724	6.26
246.942	17.18
247.16	17.92
247.378	5.11
247.596	48.8
247.814	25.2
248.032	11.43
248.25	27.06
248.468	29.65
248.685	27.88
248.903	36.9
249.121	35.91
249.339	22.51
249.557	23.14
249.775	30.55
249.992	33.05
250.21	35.46
250.428	51.75
250.646	48.48
250.863	23.1
251.081	20.88
251.299	42.42
251.517	40.5
251.734	27.02
251.952	14.48
252.17	10.14
252.387	-25.08
252.605	-29.8
252.823	-40.14
253.04	28.12
253.258	32.78
253.475	57.7
253.693	50.26
253.911	45
254.128	27.29
254.346	25.06
254.563	24.03
254.781	13.09
254.998	-1.65
255.216	-32.59
255.433	-43.12
255.651	-47.15
255.868	-40.07
256.086	-12.43
256.303	1.13
256.521	10.73
256.738	-4.03
256.956	4.65
257.173	-6.06
257.39	-0.19
257.608	-8.77
257.825	16.35
258.043	31
258.26	38.24
258.477	31.73
258.695	31.51
258.912	14.38
259.129	-13.18
259.346	-45.05
259.564	-53.6
259.781	-41.7
259.998	-13.88
260.216	-3.22
260.433	3.24
260.65	8.41
260.867	6.9
261.084	0.15
261.302	-4.45
261.519	18.57
261.736	19.47
261.953	14.31
262.17	24.84
262.387	24.94
262.604	24.39
262.822	33.31
263.039	33.02
263.256	22.63
263.473	23.88
263.69	20.63
263.907	18.38
264.124	17.69
264.341	29.1
264.558	30.71
264.775	41
264.992	37.22
265.209	32.66
265.426	15.1
265.643	18.32
265.86	-22.94
266.077	-20.45
266.294	1.8
266.51	26.78
266.727	13.97
266.944	25.45
267.161	24.98
267.378	20.65
267.595	15.89
267.812	-0.56
268.028	-14.41
268.245	-9.46
268.462	-1.21
268.679	11.65
268.896	34.18
269.112	35.31
269.329	13.93
269.546	32.74
269.763	15.63
269.979	15.75
270.196	13.13
270.413	19.6
270.629	-8.18
270.846	-15.21
271.063	-5.81
271.279	8.36
271.496	7.53
271.712	18.9
271.929	40.52
272.146	45.29
272.362	40.62
272.579	18.09
272.795	24.14
273.012	15.13
273.228	8.28
273.445	3.53
273.661	28.96
273.878	8.97
274.094	-2.49
274.311	-4.95
274.527	-9.77
274.744	9.64
274.96	19.07
275.177	18.94
275.393	30.41
275.609	34.79
275.826	17.57
276.042	5.64
276.259	7.8
276.475	-9.39
276.691	-20.23
276.908	-15.45
277.124	8.29
277.34	-2.35
277.557	-4.3
277.773	-0.78
277.989	2.38
278.205	0.54
278.422	27.92
278.638	35.04
278.854	38.58
279.07	35.64
279.286	28.77
279.503	8.66
279.719	14.66
279.935	2.07
280.151	-1.35
280.367	7.19
280.583	14.08
280.799	6.94
281.016	-5.05
281.232	20.66
281.448	5.49
281.664	-1.69
281.88	7.84
282.096	24.33
282.312	17.1
282.528	16.1
282.744	24.77
282.96	7.69
283.176	-2.87
283.392	-31.11
283.608	-14.64
283.824	-44.49
284.04	-59.59
284.256	-8.85
284.471	6.05
284.687	6.95
284.903	14.24
285.119	37.87
285.335	35.28
285.551	34.19
285.767	33.48
285.982	32.59
286.198	1.92
286.414	-4.97
286.63	-14.07
286.846	24.34
287.061	14.36
287.277	-8.83
287.493	-27.44
287.709	-9.09
287.924	-4.39
288.14	10.75
288.356	41.58
288.571	49.81
288.787	31.87
289.003	30.19
289.218	12.13
289.434	1.32
289.65	17.41
289.865	37.27
290.081	36.6
290.296	47.96
290.512	38.92
290.727	27.63
290.943	9.01
291.159	-1.15
291.374	-12.72
291.59	7.33
291.805	4.08
292.021	20.04
292.236	18.3
292.451	15.94
292.667	15.81
292.882	24.22
293.098	24.68
293.313	25.37
293.529	16.95
293.744	-9.53
293.959	-7.83
294.175	3.77
294.39	-6.21
294.605	14.32
294.821	20.18
295.036	9.05
295.251	16.26
295.467	15.72
295.682	20.39
295.897	9.06
296.112	1.27
296.328	-8.31
296.543	-16.75
296.758	-30.04
296.973	-4.01
297.188	13.85
297.404	-1.47
297.619	18.27
297.834	-17.54
298.049	7.69
298.264	-21.2
298.479	-4.18
298.694	9.99
298.909	33.4
299.125	11.69
299.34	23.29
299.555	18.43
299.77	22.95
299.985	13.37
300.2	15.63
300.415	16.42
300.63	14.58
300.845	6.74
301.06	12.71
301.275	20.97
301.49	20.54
301.704	18.65
301.919	12.49
302.134	1.03
302.349	-1.72
302.564	-6.46
302.779	-4.46
302.994	15.91
303.209	28.83
303.423	27.98
303.638	35.08
303.853	29.43
304.068	15.19
304.283	27.35
304.497	25.64
304.712	24.22
304.927	15.95
305.142	19.2
305.356	17.89
305.571	24.36
305.786	13.91
306	38.08
306.215	28.09
306.43	5.43
306.644	5.31
306.859	22.63
307.074	7.57
307.288	12.63
307.503	27.1
307.717	16.13
307.932	7.24
308.147	3.47
308.361	16.66
308.576	-4.45
308.79	4.83
309.005	-0.03
309.219	24.01
309.434	20.88
309.648	25.22
309.863	40
310.077	47.41
310.292	17.12
310.506	1.16
310.72	9.24
310.935	13.81
311.149	15.33
311.364	26.06
311.578	20.65
311.792	20.55
312.007	7.69
312.221	-6.71
312.435	-10.44
312.649	-0.2
312.864	-22.42
313.078	-30.38
313.292	-21.95
313.507	-14.51
313.721	-17.05
313.935	13.88
314.149	16.04
314.363	17.82
314.578	18.23
314.792	-3.18
315.006	-23.68
315.22	7.93
315.434	-6.83
315.648	-19.99
315.862	3.02
316.077	4.24
316.291	-13.58
316.505	-34.17
316.719	-25.14
316.933	-24.42
317.147	-16.27
317.361	-14.16
317.575	9.67
317.789	17.27
318.003	13.7
318.217	28.52
318.431	28.59
318.645	19.08
318.859	17.74
319.073	23.33
319.287	8.55
319.5	2.17
319.714	0.33
319.928	-1.48
320.142	-7.31
320.356	1.28
320.57	-7.93
320.784	-4.19
320.997	-25.77
321.211	-2.82
321.425	-17.26
321.639	3.06
321.853	22.79
322.066	30.22
322.28	18.57
322.494	13.39
322.707	9.26
322.921	-4.65
323.135	-8.98
323.349	5.37
323.562	10.15
323.776	16.35
323.989	30.85
324.203	20.46
324.417	12.34
324.63	6.83
324.844	5.88
325.057	-38.04
325.271	-23.48
325.485	-24.98
325.698	-0.2
325.912	19.82
326.125	26.07
326.339	34.41
326.552	44.67
326.766	37.38
326.979	6.97
327.193	27.83
327.406	16.41
327.619	1.95
327.833	4.93
328.046	7.1
328.26	-15.91
328.473	-5.6
328.686	1.16
328.9	4.7
329.113	10.98
329.326	23.64
329.54	21.43
329.753	21
329.966	17.23
330.179	16.71
330.393	18.06
330.606	8.84
330.819	-3.9
331.032	9.91
331.246	20.13
331.459	35.53
331.672	46.77
331.885	51.68
332.098	54.54
332.311	29.16
332.525	19.11
332.738	25.94
332.951	21.44
333.164	12.85
333.377	15.35
333.59	8.9
333.803	-2.4
334.016	12.39
334.229	14.61
334.442	13.95
334.655	15.18
334.868	14.61
335.081	13.98
335.294	6.4
335.507	26.28
335.72	19.4
335.933	23.03
336.146	20.82
336.359	29.92
336.572	27.34
336.785	26.62
336.997	27.4
337.21	26.16
337.423	7.21
337.636	-6.48
337.849	-2.71
338.062	5.5
338.274	25.3
338.487	17.65
338.7	10.18
338.913	18.96
339.125	16.03
339.338	-1.48
339.551	7.51
339.763	14.8
339.976	12.13
340.189	1.83
340.402	8.93
340.614	11.86
340.827	24.71
341.039	24.74
341.252	34.59
341.465	17.9
341.677	19.61
341.89	0.3
342.102	24.81
342.315	27.14
342.527	33.83
342.74	26.12
342.952	26.32
343.165	-6.78
343.377	-3.56
343.59	-9.83
343.802	-5.96
344.015	17.56
344.227	26.77
344.44	18.79
344.652	17.26
344.864	22
345.077	16.13
345.289	11.25
345.502	31.19
345.714	40.72
345.926	41.29
346.139	35.39
346.351	27.46
346.563	11.72
346.775	14.89
346.988	30.45
347.2	29.23
347.412	34.9
347.624	22.91
347.837	23.54
348.049	13.73
348.261	3.92
348.473	-10.22
348.685	-21.34
348.897	-31
349.11	-23.43
349.322	-0.47
349.534	6.62
349.746	22.61
349.958	15.11
350.17	-13.76
350.382	-15.46
350.594	-4.95
350.806	8.83
351.018	14.24
351.23	35.36
351.442	37.4
351.654	34.51
351.866	22.72
352.078	25.38
352.29	22.21
352.502	11.64
352.714	15.72
352.926	11.7
353.138	13.7
353.35	2.91
353.561	4.37
353.773	-8.83
353.985	7.01
354.197	10.78
354.409	16.88
354.621	3.16
354.832	0.73
355.044	-27.64
355.256	-47.36
355.468	-64.43
355.679	-16.88
355.891	3.14
356.103	3.77
356.314	-3.79
356.526	-10.08
356.738	-29.76
356.949	-47.6
357.161	-23.44
357.373	-19.17
357.584	-5.92
357.796	-4.5
358.008	7.46
358.219	2.4
358.431	12.93
358.642	24.17
358.854	30.99
359.065	18.95
359.277	21.03
359.488	22.43
359.7	10.69
359.911	6.66
360.123	16.11
360.334	1.3
360.546	-7.29
360.757	1.12
360.969	-8.04
361.18	-7.57
361.391	2.61
361.603	13.69
361.814	15.18
362.025	29.55
362.237	27.04
362.448	29.87
362.659	24.98
362.871	9.86
363.082	12.9
363.293	10.44
363.504	8.62
363.716	-0.45
363.927	18.22
364.138	-6.22
364.349	-27.46
364.56	-47.12
364.772	-34.43
364.983	-28.85
365.194	-1.34
365.405	31.72
365.616	46.46
365.827	42.31
366.038	33.1
366.25	18.66
366.461	9.68
366.672	0.7
366.883	-0.27
367.094	2.2
367.305	-12.47
367.516	-0.48
367.727	-5.11
367.938	-4.15
368.149	-16.46
368.36	-3.27
368.571	-31.69
368.781	-20.28
368.992	-22.59
369.203	-9.14
369.414	-12.25
369.625	1.32
369.836	10.45
370.047	8.43
370.258	16.07
370.468	7.99
370.679	7.5
370.89	-2.51
371.101	22.63
371.312	4.81
371.522	13.48
371.733	1.09
371.944	-9.57
372.155	-7.46
372.365	3.94
372.576	17.74
372.787	35.58
372.997	45.99
373.208	35.07
373.419	36.15
373.629	10.43
373.84	3.69
374.05	3.72
374.261	-16.32
374.472	-15.24
374.682	-0.03
374.893	-14.54
375.103	-10.65
375.314	11.5
375.524	9.87
375.735	13.15
375.945	24.33
376.156	10.78
376.366	11.18
376.577	13.59
376.787	14.19
376.997	16.79
377.208	24.64
377.418	15.86
377.629	18.7
377.839	21.51
378.049	20.34
378.26	18.8
378.47	18.74
378.68	18.33
378.89	8.93
379.101	11.71
379.311	7.55
379.521	3.91
379.732	5.99
379.942	10.29
380.152	-3.95
380.362	2.54
380.572	16.12
380.783	16.52
380.993	15.4
381.203	21.66
381.413	20.81
381.623	18.43
381.833	16.35
382.043	22.81
382.253	30
382.463	36.7
382.674	42.06
382.884	43.69
383.094	40.36
383.304	32.2
383.514	25.92
383.724	15.79
383.934	2.95
384.144	4.46
384.353	3.85
384.563	7.11
384.773	12.86
384.983	13
385.193	9.63
385.403	8.84
385.613	0.7
385.823	-0.23
386.033	-0.3
386.242	-3.01
386.452	-5.3
386.662	-3.22
386.872	-5.19
387.082	-4.11
387.291	-5.66
387.501	0.65
387.711	4.78
387.921	5.73
388.13	10.04
388.34	11.94
388.55	7.59
388.759	-1.64
388.969	-2.33
389.179	-1.89
389.388	-1.27
389.598	-2.62
389.807	-0.01
390.017	-0.75
390.227	-5.96
390.436	-5.7
390.646	-2.38
390.855	-0.33
391.065	2.53
391.274	4.94
391.484	4.14
391.693	4.33
391.903	4.57
392.112	4.79
392.322	3.99
392.531	5.77
392.74	6.3
392.95	5.21
393.159	4.64
393.369	5.37
393.578	5.5
393.787	3
393.997	4.57
394.206	2.57
394.415	4.51
394.625	4.18
394.834	4.76
395.043	5.62
395.252	9.07
395.462	8.84
395.671	8.46
395.88	9.9
396.089	9.26
396.298	8.21
396.508	7.05
396.717	7.15
396.926	5.76
397.135	5.41
397.344	3.92
397.553	4.46
397.762	5.4
397.971	5.64
398.181	5.79
398.39	6.28
398.599	5.8
398.808	5.08
399.017	5.18
399.226	5.35
399.435	5.51
399.644	5.69
399.853	5.98
400.062	5.84
400.27	5.43
400.479	5.3
400.688	5.2
400.897	5.15
401.106	5.2
401.315	5.25
401.524	5.34
401.733	5.07
401.941	4.44
402.15	4.43
402.359	4.39
402.568	4.43
402.777	4.8
402.985	4.88
403.194	4.88
403.403	4.89
403.612	4.98
403.82	4.63
404.029	4.84
404.238	4.87
404.446	5.06
404.655	4.89
404.864	5.2
405.072	5.2
405.281	5.15
405.489	5.01
405.698	5
405.906	4.98
406.115	5.05
406.324	4.88
406.532	4.91
406.741	4.94
406.949	4.88
407.158	4.78
407.366	4.89
407.574	4.9
407.783	4.84
407.991	4.73
408.2	4.85
408.408	4.86
408.617	4.71
408.825	4.54
409.033	4.65
409.242	4.48
409.45	4.48
409.658	4.42
409.867	4.47
410.075	4.45
410.283	4.41
410.491	4.31
410.7	4.31
410.908	4.5
411.116	4.61
411.324	4.61
411.533	4.74
411.741	4.64
411.949	4.47
412.157	4.26
412.365	4.44
412.573	4.33
412.781	4.44
412.99	4.44
413.198	4.5
413.406	4.46
413.614	4.58
413.822	4.73
414.03	4.77
414.238	4.82
414.446	4.77
414.654	4.63
414.862	4.5
415.07	4.44
415.278	4.53
415.486	4.36
415.694	4.4
415.902	4.38
416.109	4.28
416.317	4.12
416.525	4.11
416.733	4.05
416.941	4.03
417.149	4.14
417.357	4.21
417.564	4.31
417.772	4.33
417.98	4.3
418.188	4.19
418.395	3.99
418.603	3.97
418.811	3.93
419.019	3.98
419.226	4.13
419.434	4.21
419.642	4.16
419.849	4.24
420.057	4.22
420.265	4.2
420.472	4.14
420.68	4.15
420.887	4.06
421.095	4.1
421.302	4.13
421.51	3.95
421.717	3.89
421.925	3.86
422.132	3.93
422.34	3.6
422.547	3.72
422.755	3.88
422.962	3.93
423.17	3.63
423.377	3.8
423.585	3.9
423.792	3.77
423.999	3.73
424.207	3.86
424.414	3.95
424.621	3.89
424.829	3.94
425.036	3.93
425.243	3.9
425.451	3.75
425.658	3.78
425.865	3.81
426.072	3.88
426.28	3.93
426.487	3.92
426.694	3.87
426.901	3.95
427.108	3.86
427.315	3.87
427.523	3.96
427.73	4.09
427.937	3.85
428.144	3.9
428.351	3.85
428.558	3.87
428.765	3.76
428.972	3.85
429.179	3.87
429.386	3.95
429.593	3.81
429.8	3.76
430.007	3.85
430.214	3.76
430.421	3.75
430.628	3.82
430.835	3.97
431.042	3.87
431.249	3.85
431.456	3.79
431.662	3.99
431.869	4.01
432.076	4.06
432.283	4.28
432.49	4.36
432.697	4.27
432.903	4.22
433.11	4.35
433.317	4.28
433.524	4.28
433.73	4.25
433.937	4.34
434.144	4.09
434.35	4.08
434.557	4.25
434.764	4.29
434.97	4.18
435.177	4.47
435.384	4.49
435.59	4.39
435.797	4.49
436.003	4.66
436.21	4.52
436.416	4.6
436.623	4.65
436.829	4.59
437.036	4.48
437.242	4.6
437.449	4.38
437.655	4.47
437.862	4.51
438.068	4.61
438.275	4.6
438.481	4.77
438.687	4.64
438.894	4.72
439.1	4.66
439.307	4.75
439.513	4.75
439.719	4.79
439.926	4.77
440.132	4.82
440.338	4.71
440.544	4.66
440.751	4.63
440.957	4.66
441.163	4.52
441.369	4.53
441.575	4.61
441.782	4.67
441.988	4.67
442.194	4.72
442.4	4.78
442.606	4.94
442.812	4.96
443.018	4.9
443.224	5.07
443.431	5.15
443.637	5.02
443.843	5.01
444.049	5.07
444.255	5.12
444.461	5.01
444.667	5.03
444.873	4.99
445.079	4.97
445.284	4.87
445.49	4.86
445.696	4.84
445.902	4.95
446.108	4.95
446.314	4.99
446.52	5.19
446.726	5.24
446.931	5.15
447.137	5.18
447.343	5.2
447.549	5.04
447.755	5.05
447.96	5.13
448.166	5.19
448.372	5.12
448.578	5.12
448.783	5.15
448.989	5.25
449.195	5.15
449.4	5.17
449.606	5.18
449.812	5.13
450.017	5.1
450.223	5.21
450.428	5.25
450.634	5.27
450.84	5.21
451.045	5.19
451.251	5.24
451.456	5.27
451.662	5.35
451.867	5.46
452.073	5.52
452.278	5.42
452.483	5.46
452.689	5.47
452.894	5.53
453.1	5.45
453.305	5.5
453.51	5.48
453.716	5.41
453.921	5.37
454.127	5.38
454.332	5.36
454.537	5.36
454.742	5.42
454.948	5.42
455.153	5.42
455.358	5.47
455.563	5.5
455.769	5.48
455.974	5.38
456.179	5.31
456.384	5.28
456.589	5.23
456.795	5.21
457	5.28
457.205	5.31
457.41	5.33
457.615	5.36
457.82	5.39
458.025	5.37
458.23	5.41
458.435	5.4
458.64	5.32
458.845	5.28
459.05	5.35
459.255	5.36
459.46	5.34
459.665	5.41
459.87	5.36
460.075	5.37
460.28	5.4
460.485	5.45
460.69	5.45
460.895	5.58
461.099	5.56
461.304	5.45
461.509	5.46
461.714	5.53
461.919	5.49
462.123	5.47
462.328	5.41
462.533	5.31
462.738	5.22
462.942	5.16
463.147	5.2
463.352	5.37
463.556	5.44
463.761	5.54
463.966	5.62
464.17	5.74
464.375	5.78
464.58	5.78
464.784	5.74
464.989	5.8
465.193	5.69
465.398	5.69
465.602	5.92
465.807	5.96
466.011	5.91
466.216	5.87
466.42	5.92
466.625	5.84
466.829	5.88
467.034	5.93
467.238	6.08
467.443	6.07
467.647	6
467.851	5.99
468.056	6.11
468.26	6.06
