Data from Ofra_PS_T2_1A_2GT07_Reflection_3.txt Node
Date: Wed Jul 21 18:00:52 EDT 2021
User: Adam
Spectrometer: FLMT01687
Trigger mode: 0
Integration Time (sec): 1.100000E0
Scans to average: 2
Electric dark correction enabled: true
Nonlinearity correction enabled: false
Boxcar width: 2
XAxis mode: Wavelengths
Number of Pixels in Spectrum: 3648
>>>>>Begin Spectral Data<<<<<
179.494	445.2
179.716	503.29
179.937	492.04
180.158	495.37
180.38	726.56
180.601	257.73
180.823	77.11
181.044	-131.52
181.265	-135.66
181.486	-30.97
181.708	48.15
181.929	596.94
182.15	-285.21
182.372	38.01
182.593	-97.74
182.814	-36.4
183.035	37.83
183.257	11.97
183.478	-45
183.699	28.81
183.92	26.78
184.141	6.79
184.363	-40.47
184.584	-19.37
184.805	-4.77
185.026	27.29
185.247	37.5
185.468	24.96
185.689	63.03
185.91	63.45
186.132	66.31
186.353	45.18
186.574	93.81
186.795	45.13
187.016	-5.36
187.237	-12.76
187.458	-33.58
187.679	-33.91
187.9	19.35
188.121	26.27
188.342	47.64
188.563	81.1
188.784	132.1
189.005	85.42
189.226	139.82
189.447	128.19
189.667	76.46
189.888	-183.99
190.109	-757.79
190.33	-419.03
190.551	-728.76
190.772	-106.42
190.993	-24.7
191.214	59.28
191.434	34.53
191.655	101.41
191.876	108.97
192.097	26.49
192.318	-59.94
192.538	-73.46
192.759	-102.33
192.98	-26.13
193.201	11.48
193.421	25.97
193.642	33.21
193.863	30.58
194.083	24.67
194.304	8.84
194.525	11.49
194.745	4.39
194.966	-25.4
195.187	-47.58
195.407	-44.44
195.628	-92.39
195.848	-104.05
196.069	-70.53
196.29	-0.2
196.51	-29.53
196.731	-27.2
196.951	-24.67
197.172	-58.5
197.392	-84.96
197.613	-67.82
197.833	-93.34
198.054	-96.98
198.274	-32.68
198.495	-71.4
198.715	-45.69
198.936	-71.55
199.156	-67.66
199.377	-156.07
199.597	-111.82
199.817	-138.26
200.038	-49.19
200.258	-79.67
200.479	-34.79
200.699	-38.96
200.919	33.44
201.14	-0.17
201.36	-13.29
201.58	33.59
201.801	52.4
202.021	28.96
202.241	33.19
202.461	36.15
202.682	-72.25
202.902	-151.8
203.122	-89.59
203.342	-76.5
203.563	-26.44
203.783	22.29
204.003	24.95
204.223	4.96
204.443	52.7
204.663	4.08
204.884	31.19
205.104	55.4
205.324	102.79
205.544	99.63
205.764	114.16
205.984	77.16
206.204	75.35
206.424	49.2
206.644	-1.47
206.864	9.11
207.084	0.22
207.304	9.27
207.525	-6.09
207.745	50.38
207.964	55.81
208.184	8.26
208.404	-34.29
208.624	-33.32
208.844	-51.49
209.064	-336.98
209.284	-326.04
209.504	-166.89
209.724	-62.89
209.944	-16.68
210.164	26.56
210.384	36.01
210.604	27.93
210.823	-1.18
211.043	-35.09
211.263	-37.15
211.483	-44.32
211.703	-93.54
211.922	-54.31
212.142	30.61
212.362	48.99
212.582	18.88
212.801	44.15
213.021	5.24
213.241	-14.81
213.461	-43.69
213.68	-29.23
213.9	3.14
214.12	23.28
214.339	-42.09
214.559	4.85
214.779	23.91
214.998	2.36
215.218	-28.37
215.438	-1.38
215.657	-25.37
215.877	-24.74
216.096	-9.15
216.316	8.75
216.535	-7.62
216.755	-9.67
216.974	-85.12
217.194	-106.66
217.413	-114.63
217.633	-119.06
217.852	-220.25
218.072	-85.95
218.291	-44.92
218.511	-11.08
218.73	-23.26
218.95	-7.4
219.169	-20.98
219.389	-39.23
219.608	-27.07
219.827	-14.23
220.047	0.98
220.266	22.25
220.485	11.35
220.705	17.63
220.924	-2.81
221.143	18.04
221.363	-8.1
221.582	-0.94
221.801	-8.04
222.021	15.98
222.24	-68.09
222.459	-20.4
222.678	-23.71
222.897	-57.2
223.117	-106.05
223.336	-55.78
223.555	-57.24
223.774	-34.03
223.993	6.95
224.213	55.78
224.432	43.23
224.651	66.83
224.87	43.21
225.089	56.99
225.308	51.43
225.527	57.31
225.746	58.43
225.965	58.17
226.184	3.56
226.404	17.69
226.623	-2.01
226.842	-1.94
227.061	28.11
227.28	39.08
227.499	24.54
227.718	40.06
227.936	37.52
228.155	35.34
228.374	44.25
228.593	46.98
228.812	38.92
229.031	34.16
229.25	-23.61
229.469	-26.3
229.688	-24.8
229.907	3.77
230.125	12.57
230.344	51.37
230.563	34.62
230.782	50.12
231.001	-15.55
231.22	4.55
231.438	-1
231.657	5.55
231.876	-10.17
232.095	42.34
232.313	33.39
232.532	21.45
232.751	1.39
232.969	-40.67
233.188	-114.94
233.407	-55.99
233.625	-20.72
233.844	-31.56
234.063	16.56
234.281	26.04
234.5	18.46
234.719	34.14
234.937	48.3
235.156	35.66
235.374	37.61
235.593	29.63
235.811	7.6
236.03	-13.92
236.249	-42.14
236.467	-35.83
236.686	3.28
236.904	9.04
237.123	-10.07
237.341	-11.65
237.559	-3.54
237.778	-33.2
237.996	-51.28
238.215	6.59
238.433	21.85
238.652	2.82
238.87	3.41
239.088	11.69
239.307	7.17
239.525	10.29
239.743	8.57
239.962	23.92
240.18	-10.59
240.398	-79.93
240.617	-79.84
240.835	-74.56
241.053	-53.62
241.271	4.97
241.49	35.35
241.708	0.78
241.926	-18.68
242.144	1.96
242.363	-52.06
242.581	-66.46
242.799	-18.26
243.017	2.51
243.235	-32.07
243.453	-20.26
243.672	-14.68
243.89	-8.62
244.108	-18.86
244.326	9.12
244.544	18.84
244.762	4.64
244.98	1.6
245.198	1.35
245.416	-38.34
245.634	-57.23
245.852	-48.6
246.07	-70.46
246.288	-62.6
246.506	-80.24
246.724	-20.24
246.942	-4.32
247.16	20.66
247.378	37.25
247.596	49.93
247.814	34.72
248.032	-3.25
248.25	16.34
248.468	14.7
248.685	29.98
248.903	47.99
249.121	57.46
249.339	22.63
249.557	4.88
249.775	13.84
249.992	-57.6
250.21	-59.24
250.428	-48.75
250.646	-65.65
250.863	-89.39
251.081	-39.55
251.299	-12.15
251.517	9.14
251.734	19.58
251.952	10.56
252.17	4.42
252.387	7.28
252.605	-10.74
252.823	7.21
253.04	34.52
253.258	42.66
253.475	26.58
253.693	57.83
253.911	36.52
254.128	32.46
254.346	45.08
254.563	31.67
254.781	19.7
254.998	2.57
255.216	1.18
255.433	-11.74
255.651	31.73
255.868	53.78
256.086	72.98
256.303	36.92
256.521	29.38
256.738	6.65
256.956	-40.12
257.173	-67.42
257.39	-55.75
257.608	-77.46
257.825	-22.63
258.043	35.88
258.26	30.02
258.477	65.17
258.695	68.56
258.912	23.64
259.129	7.8
259.346	-13.4
259.564	-57.73
259.781	-73.13
259.998	-6.74
260.216	23.76
260.433	56.82
260.65	41.04
260.867	45.9
261.084	9.45
261.302	-7.28
261.519	-12.05
261.736	-19.49
261.953	-20.55
262.17	21.55
262.387	-7.87
262.604	-51.08
262.822	-57.34
263.039	-37.02
263.256	-100.26
263.473	-58.85
263.69	-24.66
263.907	20.77
264.124	17.86
264.341	27.15
264.558	17.74
264.775	30.54
264.992	13.32
265.209	10.06
265.426	27.39
265.643	22.94
265.86	22.97
266.077	28.01
266.294	15.92
266.51	-16.29
266.727	-11.24
266.944	3.93
267.161	7.34
267.378	22.82
267.595	56.45
267.812	33.6
268.028	19
268.245	32.97
268.462	3.18
268.679	-30.68
268.896	17.02
269.112	17.64
269.329	14.46
269.546	20.06
269.763	25.95
269.979	11.02
270.196	-1.11
270.413	-37.13
270.629	-61.75
270.846	-71.87
271.063	-72.9
271.279	-73.59
271.496	-65.75
271.712	-7.45
271.929	12.63
272.146	-2
272.362	6.68
272.579	42.8
272.795	29.71
273.012	26.32
273.228	33.85
273.445	9.3
273.661	-35.35
273.878	-57.1
274.094	-47.7
274.311	-70.46
274.527	-6.07
274.744	3.14
274.96	-2.88
275.177	4.38
275.393	24.9
275.609	2.14
275.826	21.68
276.042	14.99
276.259	14.62
276.475	26.93
276.691	36.88
276.908	19.62
277.124	46.98
277.34	30.83
277.557	12.29
277.773	10.51
277.989	14.09
278.205	-8.64
278.422	17.1
278.638	36.57
278.854	44.29
279.07	48.67
279.286	49.26
279.503	26.37
279.719	-3.98
279.935	-21.86
280.151	-30.95
280.367	-13.5
280.583	-30.14
280.799	-17.73
281.016	-35.04
281.232	-3.88
281.448	3.22
281.664	10.74
281.88	-21.55
282.096	-6.24
282.312	-1.24
282.528	-6.53
282.744	26.7
282.96	38.38
283.176	26.73
283.392	24.5
283.608	22.76
283.824	8.1
284.04	18.69
284.256	28.87
284.471	6.39
284.687	1.52
284.903	27.57
285.119	37.43
285.335	18.2
285.551	38.22
285.767	14.55
285.982	-3.75
286.198	-34.46
286.414	26.18
286.63	23.56
286.846	52.49
287.061	28.43
287.277	58.72
287.493	38.33
287.709	53.04
287.924	31.65
288.14	74.59
288.356	58.15
288.571	56.62
288.787	35.87
289.003	37.78
289.218	5.55
289.434	-32.96
289.65	-23.79
289.865	-21.71
290.081	6.53
290.296	37.04
290.512	55.11
290.727	13.17
290.943	6.83
291.159	-11.82
291.374	-18.5
291.59	-31.06
291.805	3.18
292.021	12.86
292.236	17.45
292.451	24.82
292.667	36.77
292.882	45.17
293.098	46.46
293.313	31.7
293.529	22.51
293.744	12.57
293.959	-8.97
294.175	-8.88
294.39	10.81
294.605	10.62
294.821	25.88
295.036	22.76
295.251	21.05
295.467	0.67
295.682	4.55
295.897	-45.31
296.112	-44.64
296.328	-43.17
296.543	-47.54
296.758	-36.21
296.973	13
297.188	41.4
297.404	20.26
297.619	11.28
297.834	-0.81
298.049	-6.58
298.264	-40.51
298.479	11.06
298.694	23.73
298.909	41.1
299.125	44.97
299.34	51.59
299.555	20.24
299.77	40.74
299.985	-14.71
300.2	-78.81
300.415	-88.98
300.63	-47.95
300.845	-60.28
301.06	-54.22
301.275	-5.12
301.49	12.7
301.704	1.22
301.919	-13.3
302.134	-12.79
302.349	-21.56
302.564	-93.81
302.779	-98.84
302.994	-84.4
303.209	-54.86
303.423	-24.68
303.638	35.68
303.853	-8
304.068	-9.17
304.283	-6.04
304.497	-15.22
304.712	-15.18
304.927	2.55
305.142	1.86
305.356	8.44
305.571	13.68
305.786	-6.23
306	-16.58
306.215	-13.2
306.43	-40.43
306.644	-35.98
306.859	-0.15
307.074	0.62
307.288	-22.37
307.503	-6
307.717	-19.08
307.932	-18.18
308.147	-29.88
308.361	-4.43
308.576	-16.1
308.79	-51.81
309.005	-41.2
309.219	-14.36
309.434	-22.52
309.648	-29.15
309.863	11.25
310.077	17.53
310.292	1.17
310.506	14.26
310.72	23.69
310.935	17.59
311.149	9.1
311.364	41.97
311.578	43.19
311.792	31.53
312.007	36.58
312.221	26.97
312.435	28.89
312.649	12.57
312.864	5.78
313.078	17.96
313.292	65.58
313.507	2.41
313.721	22.18
313.935	43.96
314.149	37.09
314.363	24.23
314.578	33.01
314.792	31.61
315.006	26.56
315.22	23.85
315.434	18.97
315.648	31.78
315.862	29.8
316.077	40.49
316.291	28.28
316.505	50.77
316.719	29.09
316.933	21.49
317.147	5.3
317.361	-26.07
317.575	-52.51
317.789	-77.24
318.003	-152.29
318.217	-114.53
318.431	-24.58
318.645	14.06
318.859	22.81
319.073	55.03
319.287	41.27
319.5	5.73
319.714	-39.82
319.928	-56.19
320.142	-108.05
320.356	-43.37
320.57	11.57
320.784	11.04
320.997	3.92
321.211	15.06
321.425	-67.76
321.639	-123.86
321.853	-50.24
322.066	-36.65
322.28	-26
322.494	-3.53
322.707	24.84
322.921	10.91
323.135	13.77
323.349	22.46
323.562	-15.5
323.776	-26.99
323.989	-26.17
324.203	-57.17
324.417	-71.55
324.63	-74.69
324.844	-66.54
325.057	-67.93
325.271	-39.46
325.485	-9.25
325.698	12.3
325.912	30.57
326.125	-4.54
326.339	2.8
326.552	-9.23
326.766	20.03
326.979	22.94
327.193	71.84
327.406	68.81
327.619	53.67
327.833	53.22
328.046	28.02
328.26	-7.46
328.473	6.46
328.686	-14.56
328.9	-10.11
329.113	12.91
329.326	-4.35
329.54	13.17
329.753	13.03
329.966	-2.47
330.179	-3.4
330.393	19.8
330.606	0.95
330.819	23.57
331.032	27.92
331.246	27.15
331.459	46.18
331.672	44.94
331.885	34.42
332.098	15.59
332.311	-2.38
332.525	-67.9
332.738	-41.74
332.951	-17.33
333.164	15.01
333.377	38.51
333.59	66.02
333.803	54.06
334.016	37.2
334.229	31.63
334.442	22.64
334.655	30.9
334.868	31.54
335.081	23.11
335.294	7.9
335.507	14.76
335.72	-3.49
335.933	-8.79
336.146	-0.29
336.359	16.51
336.572	-26.95
336.785	-50.77
336.997	-46.37
337.21	-32.21
337.423	-38.61
337.636	-23.48
337.849	4.59
338.062	3.87
338.274	7.27
338.487	-1.6
338.7	-0.7
338.913	-52.05
339.125	-71.5
339.338	-130.42
339.551	-102.78
339.763	-73.7
339.976	-26.35
340.189	-6.49
340.402	13.77
340.614	3.2
340.827	3.6
341.039	-4.99
341.252	6.46
341.465	18.27
341.677	23.89
341.89	-5.35
342.102	11.9
342.315	-17.49
342.527	-42.84
342.74	-36.45
342.952	6.73
343.165	0.59
343.377	33.12
343.59	17.22
343.802	33.83
344.015	33.47
344.227	54.42
344.44	39.82
344.652	51.76
344.864	34.7
345.077	43.4
345.289	39.11
345.502	40.53
345.714	34.3
345.926	38.99
346.139	29.34
346.351	39.64
346.563	42.83
346.775	46.37
346.988	34.8
347.2	16.04
347.412	-34.26
347.624	-55.35
347.837	-72.92
348.049	-41.96
348.261	6.25
348.473	14.63
348.685	19.57
348.897	6.37
349.11	-23.22
349.322	-51.31
349.534	-34.09
349.746	-24.64
349.958	5.67
350.17	11.77
350.382	21.55
350.594	7.54
350.806	9.94
351.018	5.39
351.23	-8.98
351.442	-68.62
351.654	-73.05
351.866	-71.4
352.078	-62.79
352.29	-16.71
352.502	3.38
352.714	13.9
352.926	2.25
353.138	0.43
353.35	-20.99
353.561	-19.63
353.773	-40.61
353.985	-22.03
354.197	-27.97
354.409	-23.44
354.621	-36.4
354.832	-23.22
355.044	-36.94
355.256	-39.54
355.468	-22.28
355.679	-4.49
355.891	8.61
356.103	3.23
356.314	22.17
356.526	27.1
356.738	34.77
356.949	34.02
357.161	35.28
357.373	25.05
357.584	22.31
357.796	18.31
358.008	10.96
358.219	27.65
358.431	24.2
358.642	17.18
358.854	9.37
359.065	-5.94
359.277	-39.97
359.488	-55.22
359.7	-64.64
359.911	-82.63
360.123	-45.36
360.334	-52.07
360.546	-68.16
360.757	-67.81
360.969	-42.48
361.18	-57.47
361.391	-27.47
361.603	-14.82
361.814	-5.78
362.025	-12.61
362.237	-17.81
362.448	-12.4
362.659	9.85
362.871	8.44
363.082	8.05
363.293	14.2
363.504	8.63
363.716	-27.33
363.927	-36.64
364.138	-54.93
364.349	-55.09
364.56	-49.31
364.772	-35.64
364.983	-19.54
365.194	-17.58
365.405	-6.23
365.616	6.8
365.827	3.78
366.038	-14.17
366.25	-12.12
366.461	-49.73
366.672	-24.5
366.883	1.72
367.094	8.88
367.305	-2.24
367.516	21.94
367.727	-4.31
367.938	-19.31
368.149	-7.74
368.36	12.02
368.571	-1.49
368.781	-3.2
368.992	-13.76
369.203	-34.44
369.414	-56.51
369.625	-52.63
369.836	-52.31
370.047	-61.63
370.258	-41.5
370.468	-47.12
370.679	-65.64
370.89	-58.67
371.101	-38.15
371.312	-47.19
371.522	-22.17
371.733	-12.68
371.944	2.48
372.155	11.67
372.365	3.82
372.576	-7.16
372.787	-8.71
372.997	-35.49
373.208	-36.47
373.419	1.9
373.629	-21.3
373.84	-12.75
374.05	-25.52
374.261	-20.2
374.472	-47.6
374.682	8.14
374.893	5.58
375.103	47.73
375.314	40.96
375.524	40.75
375.735	37.31
375.945	49.9
376.156	19.71
376.366	25.04
376.577	32.15
376.787	15.51
376.997	1.95
377.208	4.45
377.418	-17.68
377.629	-11.53
377.839	-3.2
378.049	2.21
378.26	18.82
378.47	30.77
378.68	20.91
378.89	6.96
379.101	3.55
379.311	-28.76
379.521	-57.69
379.732	-51.53
379.942	-51.43
380.152	-62.63
380.362	-30.87
380.572	-28.73
380.783	-17.33
380.993	0.17
381.203	11.86
381.413	19.22
381.623	38.03
381.833	35.41
382.043	25.64
382.253	21.54
382.463	23.41
382.674	12.4
382.884	-14.48
383.094	-9.63
383.304	-3.92
383.514	-6.95
383.724	2.61
383.934	6.44
384.144	-7.15
384.353	-24.53
384.563	-21.29
384.773	-15.24
384.983	-21.51
385.193	-0.12
385.403	3.11
385.613	-5.58
385.823	-25.18
386.033	-11.63
386.242	-20.11
386.452	-16.03
386.662	-22.73
386.872	1.74
387.082	-8.11
387.291	-12.08
387.501	-11.07
387.711	-4.64
387.921	-15.68
388.13	-12.11
388.34	2.86
388.55	-2.63
388.759	-0.49
388.969	3.92
389.179	2.2
389.388	-2.35
389.598	4.09
389.807	-1.9
390.017	-10.83
390.227	-7.67
390.436	-10.56
390.646	-11.29
390.855	-6.33
391.065	-3.77
391.274	-7.65
391.484	-7.86
391.693	-4.49
391.903	-0.58
392.112	4.64
392.322	9.72
392.531	15.07
392.74	13.82
392.95	8.88
393.159	5.44
393.369	3.53
393.578	0.56
393.787	-0.78
393.997	0.35
394.206	-0.31
394.415	0.64
394.625	-0.44
394.834	-1.04
395.043	-0.37
395.252	2.06
395.462	3.16
395.671	5.52
395.88	6.58
396.089	6.33
396.298	5.06
396.508	4.77
396.717	3.86
396.926	4.15
397.135	4.16
397.344	4.04
397.553	5.19
397.762	6.2
397.971	5.43
398.181	5.68
398.39	5.42
398.599	4.37
398.808	3.9
399.017	4.89
399.226	6.06
399.435	6.98
399.644	6.83
399.853	6.2
400.062	5.71
400.27	4.97
400.479	4.78
400.688	4.35
400.897	4.46
401.106	4.17
401.315	3.95
401.524	3.66
401.733	4.73
401.941	5.18
402.15	5.66
402.359	5.64
402.568	6.01
402.777	5.8
402.985	5.63
403.194	5.35
403.403	5.15
403.612	4.88
403.82	4.66
404.029	4.74
404.238	4.76
404.446	5.17
404.655	4.98
404.864	4.88
405.072	4.55
405.281	4.68
405.489	4.37
405.698	4.29
405.906	4.24
406.115	4.39
406.324	4.19
406.532	4.25
406.741	4.76
406.949	4.9
407.158	4.92
407.366	4.96
407.574	4.94
407.783	4.69
407.991	4.44
408.2	4.46
408.408	4.53
408.617	4.51
408.825	4.44
409.033	4.49
409.242	4.53
409.45	4.53
409.658	4.38
409.867	4.43
410.075	4.31
410.283	4.18
410.491	4.01
410.7	3.94
410.908	3.97
411.116	4.33
411.324	4.33
411.533	4.33
411.741	4.62
411.949	4.66
412.157	4.4
412.365	4.54
412.573	4.63
412.781	4.62
412.99	4.44
413.198	4.68
413.406	4.58
413.614	4.58
413.822	4.3
414.03	4.29
414.238	4.01
414.446	4.17
414.654	3.92
414.862	4.15
415.07	4.21
415.278	4.39
415.486	4.04
415.694	4.27
415.902	4.1
416.109	3.94
416.317	3.87
416.525	3.79
416.733	3.78
416.941	3.83
417.149	3.85
417.357	3.81
417.564	4.02
417.772	4.09
417.98	4.1
418.188	4.09
418.395	4.14
418.603	4.22
418.811	3.89
419.019	3.83
419.226	4.07
419.434	4.08
419.642	3.83
419.849	4.11
420.057	4.11
420.265	3.87
420.472	3.59
420.68	3.67
420.887	3.54
421.095	3.61
421.302	3.55
421.51	3.79
421.717	3.78
421.925	3.79
422.132	3.68
422.34	3.63
422.547	3.62
422.755	3.56
422.962	3.43
423.17	3.43
423.377	3.47
423.585	3.45
423.792	3.44
423.999	3.55
424.207	3.62
424.414	3.85
424.621	3.7
424.829	3.7
425.036	3.51
425.243	3.52
425.451	3.35
425.658	3.29
425.865	3.51
426.072	3.7
426.28	3.89
426.487	3.85
426.694	4.05
426.901	3.81
427.108	3.79
427.315	3.68
427.523	3.91
427.73	3.83
427.937	3.76
428.144	3.53
428.351	3.46
428.558	3.44
428.765	3.39
428.972	3.49
429.179	3.74
429.386	4.05
429.593	3.86
429.8	3.89
430.007	4.05
430.214	4.14
430.421	3.9
430.628	3.84
430.835	3.65
431.042	3.9
431.249	3.96
431.456	3.96
431.662	4.16
431.869	4.38
432.076	4.19
432.283	4.27
432.49	4.33
432.697	4.41
432.903	4.23
433.11	4.2
433.317	4.2
433.524	4.35
433.73	4.08
433.937	4.43
434.144	4.29
434.35	4.19
434.557	4.02
434.764	4.15
434.97	3.92
435.177	4.15
435.384	4.1
435.59	4.19
435.797	4.49
436.003	4.67
436.21	4.54
436.416	4.75
436.623	4.77
436.829	4.61
437.036	4.71
437.242	4.76
437.449	4.62
437.655	4.69
437.862	4.66
438.068	4.51
438.275	4.56
438.481	4.75
438.687	4.61
438.894	4.65
439.1	4.7
439.307	5
439.513	4.94
439.719	4.97
439.926	5.09
440.132	5.12
440.338	4.79
440.544	4.88
440.751	4.9
440.957	4.87
441.163	4.82
441.369	5.01
441.575	4.77
441.782	4.76
441.988	4.63
442.194	4.63
442.4	4.63
442.606	4.94
442.812	5.04
443.018	5.23
443.224	5.32
443.431	5.36
443.637	5.22
443.843	5.15
444.049	5.1
444.255	5.1
444.461	5.06
444.667	4.92
444.873	5.19
445.079	5.14
445.284	5.2
445.49	5.06
445.696	5.09
445.902	4.89
446.108	4.8
446.314	4.71
446.52	4.76
446.726	4.96
446.931	5
447.137	5.13
447.343	5.14
447.549	5.13
447.755	5.05
447.96	5.15
448.166	5.09
448.372	5.08
448.578	5.14
448.783	5.05
448.989	5.03
449.195	5.24
449.4	5.26
449.606	5.2
449.812	5.2
450.017	5.23
450.223	5.1
450.428	5.08
450.634	5.29
450.84	5.42
451.045	5.33
451.251	5.23
451.456	5.45
451.662	5.45
451.867	5.46
452.073	5.49
452.278	5.63
452.483	5.69
452.689	5.58
452.894	5.55
453.1	5.55
453.305	5.5
453.51	5.42
453.716	5.42
453.921	5.42
454.127	5.35
454.332	5.29
454.537	5.09
454.742	5.07
454.948	5.1
455.153	5.18
455.358	5.28
455.563	5.53
455.769	5.69
455.974	5.62
456.179	5.52
456.384	5.53
456.589	5.4
456.795	5.17
457	5.18
457.205	5.45
457.41	5.42
457.615	5.39
457.82	5.48
458.025	5.44
458.23	5.3
458.435	5.4
458.64	5.39
458.845	5.52
459.05	5.58
459.255	5.54
459.46	5.49
459.665	5.48
459.87	5.47
460.075	5.43
460.28	5.52
460.485	5.53
460.69	5.61
460.895	5.44
461.099	5.44
461.304	5.53
461.509	5.57
461.714	5.55
461.919	5.69
462.123	5.68
462.328	5.72
462.533	5.67
462.738	5.83
462.942	5.77
463.147	5.85
463.352	5.81
463.556	5.83
463.761	5.76
463.966	5.87
