Data from Ofra_PS_T2_2A_2CX08_Reflection_2.txt Node
Date: Wed Jul 21 16:59:29 EDT 2021
User: Adam
Spectrometer: FLMT01687
Trigger mode: 0
Integration Time (sec): 1.100000E0
Scans to average: 2
Electric dark correction enabled: true
Nonlinearity correction enabled: false
Boxcar width: 2
XAxis mode: Wavelengths
Number of Pixels in Spectrum: 3648
>>>>>Begin Spectral Data<<<<<
179.494	379.8
179.716	449.65
179.937	466.48
180.158	433.69
180.38	761.72
180.601	348.48
180.823	93.03
181.044	-181.64
181.265	22.61
181.486	23.53
181.708	56.29
181.929	301.53
182.15	-419.37
182.372	23.06
182.593	-20.12
182.814	-12.01
183.035	36.91
183.257	27.76
183.478	-0.16
183.699	12.85
183.92	12.08
184.141	15.04
184.363	-23.44
184.584	18.7
184.805	38.12
185.026	52.86
185.247	48.17
185.468	39.76
185.689	49.09
185.91	54.57
186.132	64.45
186.353	38.3
186.574	80.62
186.795	70.54
187.016	11.62
187.237	-3.43
187.458	-13.13
187.679	-20.68
187.9	-37.18
188.121	-0.9
188.342	5.98
188.563	45.4
188.784	56.18
189.005	61.32
189.226	94.94
189.447	60.74
189.667	-83.37
189.888	-334.36
190.109	-1197.08
190.33	-656.61
190.551	-1078.54
190.772	-239.89
190.993	-144.09
191.214	-92.52
191.434	-72.83
191.655	3.96
191.876	16.92
192.097	-25.83
192.318	-73.31
192.538	-123.39
192.759	-117.62
192.98	-58.92
193.201	-14.53
193.421	1.84
193.642	29.15
193.863	49.62
194.083	24.53
194.304	4.03
194.525	13.37
194.745	-7.88
194.966	-54.18
195.187	-42.3
195.407	-34.92
195.628	-97.16
195.848	-79.3
196.069	-46.56
196.29	-8.55
196.51	-38.13
196.731	-33.44
196.951	-43.21
197.172	-48.5
197.392	-63.67
197.613	-40.52
197.833	-77.11
198.054	-63.34
198.274	-29.75
198.495	-57.67
198.715	-27.31
198.936	-25.44
199.156	-33.7
199.377	-112.36
199.597	-76.1
199.817	-97.09
200.038	-42.85
200.258	-94.67
200.479	-41.52
200.699	-59.5
200.919	-0.48
201.14	-47.2
201.36	-50.49
201.58	-8.82
201.801	26.76
202.021	-16.38
202.241	2.16
202.461	7.86
202.682	-34.88
202.902	-112.2
203.122	-38.05
203.342	-31.34
203.563	2.79
203.783	20.09
204.003	-24.87
204.223	-25.35
204.443	18.47
204.663	-8.89
204.884	-2.84
205.104	39.97
205.324	60.55
205.544	63.91
205.764	77.39
205.984	71.09
206.204	73.46
206.424	48.08
206.644	31.24
206.864	18.95
207.084	-2.34
207.304	5.88
207.525	-20.86
207.745	-19.28
207.964	34.02
208.184	-13.18
208.404	-60.48
208.624	-45.34
208.844	-59.38
209.064	-296.72
209.284	-236.46
209.504	-107.65
209.724	-43.31
209.944	-25.02
210.164	-10.42
210.384	-13.49
210.604	-21.84
210.823	-56.77
211.043	-63.41
211.263	-53.77
211.483	-45.83
211.703	-66.27
211.922	-36.37
212.142	12.74
212.362	14.4
212.582	23.5
212.801	14.37
213.021	-4.33
213.241	-11.54
213.461	-40.64
213.68	-80.49
213.9	-57.5
214.12	-44.58
214.339	-95.25
214.559	-59.4
214.779	-4.5
214.998	14.75
215.218	3.79
215.438	45.34
215.657	50.39
215.877	28.45
216.096	17.8
216.316	20.48
216.535	-5.21
216.755	1.76
216.974	-81.53
217.194	-123.39
217.413	-101.77
217.633	-106.34
217.852	-198.22
218.072	-50.72
218.291	-12.11
218.511	21.5
218.73	-5.36
218.95	-5.45
219.169	-20.94
219.389	-56.71
219.608	-50.31
219.827	-33.58
220.047	-7.7
220.266	6.75
220.485	17.71
220.705	19
220.924	-3.92
221.143	15.43
221.363	-6.72
221.582	-7.02
221.801	1.2
222.021	36.3
222.24	-18.12
222.459	27.75
222.678	22.05
222.897	-31.92
223.117	-88.03
223.336	-29.55
223.555	-4.75
223.774	25.92
223.993	51.16
224.213	95.12
224.432	66.96
224.651	86.91
224.87	59.9
225.089	45.34
225.308	37.63
225.527	36.53
225.746	20.82
225.965	17.92
226.184	-5.21
226.404	3.17
226.623	-13.25
226.842	-5.11
227.061	12.49
227.28	25.82
227.499	10.36
227.718	24.46
227.936	15.14
228.155	13.64
228.374	-2.68
228.593	8.59
228.812	1.91
229.031	-7.16
229.25	-48.4
229.469	-58.61
229.688	-41.56
229.907	-11.71
230.125	1.56
230.344	32.55
230.563	52.5
230.782	43.57
231.001	-20.19
231.22	-11.26
231.438	-11.17
231.657	-23.93
231.876	-40.5
232.095	5.54
232.313	-2.7
232.532	-22.5
232.751	-32.93
232.969	-37.61
233.188	-101.29
233.407	-17.18
233.625	-20.21
233.844	-9.04
234.063	5.42
234.281	24.97
234.5	-6.51
234.719	11.11
234.937	13.09
235.156	8.34
235.374	-3.57
235.593	-15.84
235.811	-23.69
236.03	-16.87
236.249	-33.02
236.467	-15.74
236.686	18.96
236.904	13.28
237.123	-15.27
237.341	-8.97
237.559	-0.7
237.778	-13.65
237.996	-29.86
238.215	10.07
238.433	8.89
238.652	-4.23
238.87	-25.41
239.088	-9.29
239.307	-6.38
239.525	-3.76
239.743	-19.16
239.962	5.37
240.18	-19.78
240.398	-61.29
240.617	-78.74
240.835	-49.39
241.053	-38.68
241.271	6.56
241.49	27.36
241.708	25.1
241.926	-3.56
242.144	-6.71
242.363	-52.84
242.581	-77.76
242.799	-25.77
243.017	-5.26
243.235	-25.9
243.453	-17.17
243.672	-11.12
243.89	-17.73
244.108	-14.67
244.326	6.09
244.544	6.63
244.762	2.68
244.98	14.7
245.198	1.82
245.416	-35.59
245.634	-20.07
245.852	-27.42
246.07	-47.44
246.288	-30.99
246.506	-36.99
246.724	-29.73
246.942	-16.76
247.16	10.77
247.378	17.74
247.596	50.61
247.814	50.64
248.032	22.33
248.25	25.86
248.468	15.26
248.685	14.36
248.903	27.99
249.121	34.07
249.339	10.88
249.557	6.93
249.775	10.79
249.992	-37.66
250.21	-26.09
250.428	-10.08
250.646	-33.54
250.863	-43
251.081	-19.16
251.299	-38.74
251.517	-38.87
251.734	-14.03
251.952	-22.88
252.17	-7.55
252.387	12.54
252.605	-4.55
252.823	0.55
253.04	5.65
253.258	9.07
253.475	-8.73
253.693	5.01
253.911	9.55
254.128	19.08
254.346	14.47
254.563	14.27
254.781	8.91
254.998	-15.72
255.216	-17.36
255.433	-18.32
255.651	-5.66
255.868	10.25
256.086	38.45
256.303	28.7
256.521	12.69
256.738	-11.33
256.956	-31.95
257.173	-54.88
257.39	-71.23
257.608	-67.56
257.825	-13.48
258.043	4.26
258.26	22.44
258.477	72.37
258.695	58.66
258.912	10.78
259.129	19.32
259.346	-20.7
259.564	-82.81
259.781	-85.17
259.998	2.6
260.216	16.01
260.433	59.07
260.65	48.93
260.867	40.68
261.084	1.86
261.302	-4.53
261.519	-44.02
261.736	-43.37
261.953	-45.57
262.17	-13.27
262.387	-39.03
262.604	-36.01
262.822	-49.98
263.039	-24.83
263.256	-70.59
263.473	-45.64
263.69	-34.71
263.907	8.14
264.124	4.75
264.341	10.28
264.558	-1.1
264.775	14.04
264.992	12.36
265.209	23.45
265.426	39.45
265.643	54.62
265.86	57.42
266.077	56.16
266.294	51.18
266.51	30.95
266.727	23.15
266.944	35.44
267.161	15.25
267.378	11.29
267.595	31.83
267.812	4.16
268.028	-15.71
268.245	23.47
268.462	8.58
268.679	-21.65
268.896	23.11
269.112	23.16
269.329	12.95
269.546	12.2
269.763	16.95
269.979	-11.73
270.196	-3.11
270.413	-34.52
270.629	-54.94
270.846	-67.31
271.063	-53.37
271.279	-80.3
271.496	-67.62
271.712	-30.48
271.929	10
272.146	-8.32
272.362	-9.34
272.579	12.42
272.795	30.21
273.012	4.28
273.228	17.15
273.445	11.72
273.661	-8.51
273.878	-37.67
274.094	-20.45
274.311	-49.22
274.527	-3.33
274.744	11.37
274.96	1.74
275.177	13.5
275.393	28.46
275.609	23.06
275.826	32.2
276.042	32.17
276.259	25.07
276.475	37.84
276.691	38.99
276.908	12.62
277.124	39.71
277.34	34.94
277.557	21.11
277.773	17.03
277.989	19.19
278.205	2.59
278.422	21.91
278.638	23.23
278.854	40.22
279.07	58.47
279.286	73.69
279.503	37.5
279.719	44.07
279.935	1.05
280.151	-10.34
280.367	-27.9
280.583	-65.11
280.799	-51.66
281.016	-59.62
281.232	-33.28
281.448	-41.43
281.664	10.79
281.88	-3.47
282.096	26.96
282.312	51.9
282.528	80.05
282.744	81.71
282.96	50.92
283.176	34.32
283.392	20.44
283.608	10.58
283.824	-5.71
284.04	8.98
284.256	2.38
284.471	-8.34
284.687	-11.52
284.903	10.75
285.119	38.53
285.335	26.33
285.551	37.13
285.767	18.31
285.982	-3.09
286.198	-42.67
286.414	19.96
286.63	29.93
286.846	45.99
287.061	25.09
287.277	45.46
287.493	9.06
287.709	14.01
287.924	7.98
288.14	57.44
288.356	45.49
288.571	55.35
288.787	39.72
289.003	35.97
289.218	18.46
289.434	-11.98
289.65	-8.55
289.865	-5.55
290.081	3.15
290.296	3.17
290.512	21.46
290.727	3.27
290.943	-14.04
291.159	-15.41
291.374	-20.8
291.59	-39.63
291.805	-32.96
292.021	-15.66
292.236	-21.36
292.451	-4.08
292.667	10.59
292.882	21.31
293.098	11.4
293.313	3.66
293.529	-10.32
293.744	-21.91
293.959	-28.93
294.175	-23.41
294.39	4.57
294.605	14.45
294.821	27.54
295.036	37.84
295.251	41.48
295.467	22.9
295.682	13.69
295.897	-10.85
296.112	-24.74
296.328	-26.47
296.543	-42
296.758	-40.37
296.973	-16.86
297.188	5.25
297.404	-7.71
297.619	-13.78
297.834	-11.79
298.049	-4.86
298.264	-19.94
298.479	16.51
298.694	20.31
298.909	35.14
299.125	31.03
299.34	36.33
299.555	2.23
299.77	9.63
299.985	-16.99
300.2	-66.1
300.415	-62.44
300.63	-16.13
300.845	-22.51
301.06	-24.38
301.275	6.06
301.49	3.66
301.704	-12.53
301.919	-19.61
302.134	-31.81
302.349	-34.46
302.564	-83.58
302.779	-100.95
302.994	-112.97
303.209	-53.66
303.423	-29.09
303.638	26.09
303.853	5.16
304.068	7.37
304.283	1.78
304.497	-2.51
304.712	-8.18
304.927	0.11
305.142	-3.06
305.356	1.51
305.571	-3.44
305.786	-17.49
306	-29.33
306.215	-30.01
306.43	-44.59
306.644	-20.21
306.859	15.89
307.074	18.47
307.288	4.13
307.503	-27.38
307.717	-43.34
307.932	-42.98
308.147	-44.38
308.361	-22.8
308.576	-4.33
308.79	-28.82
309.005	-31.48
309.219	-23.76
309.434	-32.07
309.648	-31.32
309.863	-5.86
310.077	5.95
310.292	16.9
310.506	10.15
310.72	24.76
310.935	31.12
311.149	20.5
311.364	28.04
311.578	37.95
311.792	21.93
312.007	26.32
312.221	12.64
312.435	1.77
312.649	-4.52
312.864	22.62
313.078	45.58
313.292	98.92
313.507	86.51
313.721	88.23
313.935	31.69
314.149	3.4
314.363	-5.53
314.578	0.74
314.792	6.08
315.006	-6.08
315.22	8.73
315.434	10.34
315.648	15.18
315.862	10.98
316.077	18.89
316.291	1.38
316.505	15.45
316.719	19.42
316.933	4.37
317.147	-14.21
317.361	-52.99
317.575	-85.32
317.789	-109.7
318.003	-173.98
318.217	-100.52
318.431	-13.93
318.645	43.39
318.859	28.26
319.073	52.6
319.287	42.48
319.5	18.36
319.714	-19.18
319.928	-8.95
320.142	-33.18
320.356	-21.95
320.57	7.21
320.784	-17.8
320.997	-39.25
321.211	-23.81
321.425	-44.97
321.639	-82.82
321.853	-29.3
322.066	-14.39
322.28	-22.18
322.494	-13.98
322.707	19.23
322.921	9.39
323.135	10.66
323.349	14.28
323.562	-5.23
323.776	-32.1
323.989	-34.55
324.203	-61.28
324.417	-67.64
324.63	-62.73
324.844	-47.88
325.057	-53.02
325.271	-30.11
325.485	10
325.698	28.79
325.912	29.04
326.125	11.91
326.339	10.25
326.552	-0.05
326.766	-9.43
326.979	18.92
327.193	48.47
327.406	51.02
327.619	31.27
327.833	46.29
328.046	28.99
328.26	0.66
328.473	21.5
328.686	9.44
328.9	2.2
329.113	13.96
329.326	10.62
329.54	-1.43
329.753	5.3
329.966	-28.22
330.179	-31.35
330.393	-15.26
330.606	-24.8
330.819	-8.25
331.032	10.26
331.246	9.93
331.459	34.04
331.672	36.23
331.885	33.09
332.098	28.09
332.311	35.15
332.525	-14.71
332.738	7.66
332.951	31.12
333.164	34.71
333.377	28.23
333.59	48.45
333.803	45.28
334.016	34.41
334.229	44.82
334.442	57.08
334.655	79.06
334.868	75.36
335.081	55.5
335.294	38.45
335.507	29.66
335.72	15.53
335.933	5.59
336.146	2.62
336.359	-11.86
336.572	-49.47
336.785	-79.19
336.997	-68.67
337.21	-36.25
337.423	-39.79
337.636	-31.7
337.849	-16.75
338.062	-21
338.274	-27.03
338.487	-31.4
338.7	-22.4
338.913	-52.44
339.125	-79.64
339.338	-124.54
339.551	-84.9
339.763	-56.37
339.976	-23.95
340.189	-1.45
340.402	15.33
340.614	11.88
340.827	6.35
341.039	-7.96
341.252	-12.41
341.465	-9.13
341.677	-15.91
341.89	-37.81
342.102	-7.34
342.315	-21.93
342.527	-39
342.74	-40.28
342.952	-17.89
343.165	-31.65
343.377	3.68
343.59	1.1
343.802	18.08
344.015	21.64
344.227	39.78
344.44	18.34
344.652	32.06
344.864	14.82
345.077	34.03
345.289	27.67
345.502	35.29
345.714	14.73
345.926	26.11
346.139	9.16
346.351	21.28
346.563	30.57
346.775	36.91
346.988	8.41
347.2	3.28
347.412	-43.92
347.624	-71.06
347.837	-80.75
348.049	-28.82
348.261	-16.46
348.473	7.59
348.685	9.21
348.897	11.83
349.11	-18.03
349.322	-31.65
349.534	-22.32
349.746	-24.14
349.958	-17.4
350.17	-8.28
350.382	3.77
350.594	-7.67
350.806	13.14
351.018	18.94
351.23	11.05
351.442	-31.15
351.654	-39.08
351.866	-51.37
352.078	-42.71
352.29	-5.95
352.502	23.56
352.714	35.58
352.926	13.17
353.138	13.76
353.35	1.55
353.561	-3.47
353.773	-20.97
353.985	-2.98
354.197	-17.59
354.409	-17.25
354.621	-31.61
354.832	-18.63
355.044	-19.86
355.256	-17.7
355.468	-6.54
355.679	-6.23
355.891	2.71
356.103	-0.2
356.314	-2.76
356.526	-4.4
356.738	25.78
356.949	20.25
357.161	19.86
357.373	22.35
357.584	12.33
357.796	0.52
358.008	-8.14
358.219	-1.52
358.431	0.64
358.642	8.45
358.854	12.79
359.065	13.1
359.277	-11.63
359.488	-29.87
359.7	-49.89
359.911	-58.65
360.123	-44.23
360.334	-40.42
360.546	-40.77
360.757	-47.07
360.969	-48.12
361.18	-47.86
361.391	-21.64
361.603	-23.94
361.814	-11.06
362.025	-5.88
362.237	-15.38
362.448	-16.12
362.659	5.43
362.871	2.98
363.082	3.81
363.293	4.63
363.504	-3.23
363.716	-14.57
363.927	-15.66
364.138	-39.45
364.349	-30.95
364.56	-27.2
364.772	-18.65
364.983	-2.64
365.194	6.63
365.405	17.26
365.616	30.72
365.827	23.36
366.038	9.98
366.25	7.44
366.461	-28.85
366.672	-22.58
366.883	-5.28
367.094	0.49
367.305	-3.18
367.516	2.29
367.727	-17.69
367.938	-22.09
368.149	-21.84
368.36	-3.47
368.571	7.63
368.781	-6.96
368.992	-28.73
369.203	-48.54
369.414	-79.07
369.625	-82.89
369.836	-67.51
370.047	-75.23
370.258	-56.7
370.468	-56.91
370.679	-69.6
370.89	-64.22
371.101	-40.57
371.312	-33.15
371.522	-16.69
371.733	3.12
371.944	16.84
372.155	21.18
372.365	10.97
372.576	9.56
372.787	-4.08
372.997	-34.99
373.208	-41.22
373.419	-23.29
373.629	-46.88
373.84	-46.22
374.05	-44.81
374.261	-46.69
374.472	-53.8
374.682	-3.4
374.893	0.25
375.103	31.37
375.314	30.26
375.524	24.7
375.735	9.66
375.945	14.82
376.156	-7.29
376.366	2.72
376.577	10.25
376.787	8.34
376.997	12.8
377.208	13.26
377.418	3.87
377.629	6
377.839	0.09
378.049	-7.53
378.26	9.93
378.47	14.24
378.68	5.35
378.89	6.98
379.101	3.67
379.311	-31.16
379.521	-50.49
379.732	-51.96
379.942	-36.2
380.152	-39.94
380.362	-9.26
380.572	-8.92
380.783	2.71
380.993	2.96
381.203	13.26
381.413	13.87
381.623	21.26
381.833	14.64
382.043	11.36
382.253	-0.76
382.463	-1.87
382.674	-2.84
382.884	-7.35
383.094	-18.69
383.304	-6.37
383.514	2.57
383.724	6.15
383.934	8.51
384.144	4.45
384.353	-5.39
384.563	-11.73
384.773	-14.5
384.983	-27.95
385.193	-8.12
385.403	2.67
385.613	4.31
385.823	-0.65
386.033	4.62
386.242	-5.16
386.452	-13.03
386.662	-18.2
386.872	-2.82
387.082	0.91
387.291	-4.7
387.501	-4.45
387.711	-4.62
387.921	-12.99
388.13	-10.84
388.34	2.24
388.55	-4.4
388.759	-3.24
388.969	1.96
389.179	-4.27
389.388	-7.65
389.598	-0.2
389.807	-4.49
390.017	-12.68
390.227	-9.78
390.436	-11.81
390.646	-10.72
390.855	-7.36
391.065	-3.9
391.274	-4.07
391.484	-4.94
391.693	-2.97
391.903	-1.11
392.112	3.34
392.322	5.03
392.531	6.6
392.74	5.75
392.95	0.75
393.159	-1.61
393.369	-1.92
393.578	-0.79
393.787	-1.5
393.997	0.97
394.206	0.09
394.415	-0.74
394.625	-2.22
394.834	-3.42
395.043	-1.26
395.252	0.75
395.462	2.73
395.671	4.58
395.88	4.85
396.089	4.51
396.298	2.85
396.508	2.55
396.717	1.29
396.926	2.3
397.135	0.64
397.344	0.56
397.553	1.15
397.762	2.56
397.971	1.82
398.181	2.74
398.39	2.41
398.599	1.38
398.808	1.74
399.017	2.62
399.226	3.6
399.435	4.91
399.644	4.97
399.853	3.84
400.062	3.96
400.27	3.6
400.479	3.02
400.688	2.7
400.897	3.46
401.106	3.46
401.315	3.31
401.524	3.51
401.733	4.31
401.941	4.65
402.15	4.41
402.359	4.18
402.568	4.57
402.777	4.62
402.985	4
403.194	3.97
403.403	4.16
403.612	3.54
403.82	3.1
404.029	3.37
404.238	3.3
404.446	3.45
404.655	3.3
404.864	3.5
405.072	3.36
405.281	3.56
405.489	3.24
405.698	3.24
405.906	3.17
406.115	3.19
406.324	3.03
406.532	3.22
406.741	3.47
406.949	3.44
407.158	3.37
407.366	3.48
407.574	3.55
407.783	3.52
407.991	3.35
408.2	3.33
408.408	3.33
408.617	3.18
408.825	3.02
409.033	3.24
409.242	3.45
409.45	3.37
409.658	3.31
409.867	3.47
410.075	3.31
410.283	3.11
410.491	3.16
410.7	3.08
410.908	3.05
411.116	3.3
411.324	3.23
411.533	3.13
411.741	3.41
411.949	3.45
412.157	3.16
412.365	3.21
412.573	3.16
412.781	3.07
412.99	2.96
413.198	3.13
413.406	3.1
413.614	3.21
413.822	3.09
414.03	3.04
414.238	2.77
414.446	2.88
414.654	2.71
414.862	2.83
415.07	2.99
415.278	3.23
415.486	3.02
415.694	3.15
415.902	3.01
416.109	2.83
416.317	2.79
416.525	2.69
416.733	2.7
416.941	2.87
417.149	2.91
417.357	2.9
417.564	3.15
417.772	3.27
417.98	3.03
418.188	3
418.395	2.97
418.603	3.06
418.811	2.72
419.019	2.75
419.226	2.98
419.434	3.11
419.642	2.83
419.849	3.02
420.057	3.06
420.265	3.01
420.472	2.84
420.68	2.99
420.887	2.81
421.095	2.85
421.302	2.84
421.51	2.96
421.717	2.87
421.925	3.06
422.132	2.94
422.34	2.59
422.547	2.54
422.755	2.63
422.962	2.46
423.17	2.35
423.377	2.53
423.585	2.59
423.792	2.5
423.999	2.64
424.207	2.66
424.414	2.73
424.621	2.63
424.829	2.59
425.036	2.62
425.243	2.76
425.451	2.66
425.658	2.53
425.865	2.68
426.072	2.62
426.28	2.75
426.487	2.67
426.694	2.82
426.901	2.69
427.108	2.56
427.315	2.44
427.523	2.75
427.73	2.66
427.937	2.55
428.144	2.44
428.351	2.37
428.558	2.46
428.765	2.36
428.972	2.49
429.179	2.8
429.386	3.03
429.593	2.81
429.8	2.82
430.007	2.8
430.214	2.78
430.421	2.62
430.628	2.46
430.835	2.5
431.042	2.71
431.249	2.76
431.456	2.78
431.662	2.98
431.869	3.12
432.076	3.01
432.283	3.08
432.49	3.01
432.697	2.99
432.903	2.79
433.11	2.67
433.317	2.65
433.524	2.8
433.73	2.7
433.937	2.86
434.144	2.85
434.35	2.74
434.557	2.56
434.764	2.58
434.97	2.52
435.177	2.65
435.384	2.56
435.59	2.74
435.797	2.93
436.003	2.98
436.21	3.03
436.416	3.09
436.623	2.97
436.829	2.86
437.036	2.91
437.242	2.92
437.449	2.83
437.655	2.85
437.862	2.84
438.068	2.75
438.275	2.78
438.481	3.07
438.687	3.02
438.894	3.08
439.1	3.07
439.307	3.09
439.513	2.96
439.719	3.1
439.926	3.15
440.132	3.17
440.338	3.08
440.544	3.17
440.751	3.06
440.957	3.03
441.163	2.97
441.369	2.95
441.575	2.73
441.782	2.73
441.988	2.61
442.194	2.65
442.4	2.67
442.606	2.97
442.812	3.05
443.018	3.17
443.224	3.17
443.431	3.21
443.637	2.89
443.843	2.76
444.049	2.68
444.255	2.63
444.461	2.68
444.667	2.79
444.873	2.95
445.079	2.99
445.284	3.18
445.49	2.93
445.696	2.77
445.902	2.75
446.108	2.73
446.314	2.63
446.52	2.76
446.726	3.02
446.931	2.99
447.137	3.01
447.343	3.03
447.549	2.96
447.755	2.89
447.96	2.93
448.166	2.86
448.372	2.79
448.578	2.91
448.783	2.83
448.989	2.85
449.195	2.97
449.4	3.02
449.606	2.9
449.812	2.89
450.017	2.96
450.223	2.93
450.428	2.9
450.634	3.01
450.84	3.18
451.045	3.05
451.251	2.98
451.456	3.21
451.662	3.29
451.867	3.29
452.073	3.33
452.278	3.48
452.483	3.44
452.689	3.32
452.894	3.33
453.1	3.3
453.305	3.21
453.51	3.18
453.716	3.13
453.921	3.09
454.127	3.12
454.332	3.07
454.537	2.95
454.742	3
454.948	3.03
455.153	3.15
455.358	3.27
455.563	3.5
455.769	3.58
455.974	3.54
456.179	3.33
456.384	3.25
456.589	3.07
456.795	2.9
457	2.96
457.205	3.28
457.41	3.36
457.615	3.32
457.82	3.43
458.025	3.4
458.23	3.14
458.435	3.17
458.64	3.2
458.845	3.37
459.05	3.35
459.255	3.43
459.46	3.39
459.665	3.45
459.87	3.35
460.075	3.37
460.28	3.45
460.485	3.6
460.69	3.6
460.895	3.57
461.099	3.59
461.304	3.66
461.509	3.54
461.714	3.49
461.919	3.59
462.123	3.53
462.328	3.53
462.533	3.57
462.738	3.75
462.942	3.67
463.147	3.79
463.352	3.86
463.556	3.92
