Data from Ofra_PS_T2_1A_2HS09_Reflection_1.txt Node
Date: Wed Jul 21 18:03:39 EDT 2021
User: Adam
Spectrometer: FLMT01687
Trigger mode: 0
Integration Time (sec): 1.100000E0
Scans to average: 2
Electric dark correction enabled: true
Nonlinearity correction enabled: false
Boxcar width: 2
XAxis mode: Wavelengths
Number of Pixels in Spectrum: 3648
>>>>>Begin Spectral Data<<<<<
179.494	565.6
179.716	660.47
179.937	632.86
180.158	589.75
180.38	992.5
180.601	511.05
180.823	172.12
181.044	178.2
181.265	452.94
181.486	95.98
181.708	102.77
181.929	448.98
182.15	49.3
182.372	200.34
182.593	77
182.814	73.67
183.035	84.87
183.257	118.29
183.478	44.47
183.699	79.76
183.92	44.7
184.141	60.41
184.363	-15.24
184.584	58.57
184.805	58.73
185.026	67.37
185.247	65.03
185.468	49.23
185.689	33.53
185.91	15.56
186.132	42.37
186.353	43.28
186.574	112.26
186.795	97.41
187.016	77.25
187.237	31.03
187.458	6.38
187.679	-27.81
187.9	-24.41
188.121	-7.04
188.342	-13.92
188.563	41.5
188.784	65.65
189.005	107.44
189.226	156.01
189.447	170.93
189.667	223.79
189.888	20.2
190.109	-772.73
190.33	-488.39
190.551	-927.43
190.772	-170.22
190.993	-152.74
191.214	-95.2
191.434	-81.55
191.655	7.24
191.876	-80.64
192.097	-97.73
192.318	-148.98
192.538	-178.89
192.759	-149.44
192.98	-37.39
193.201	5.86
193.421	19.13
193.642	34.43
193.863	37.19
194.083	27.05
194.304	18.59
194.525	13.76
194.745	1.52
194.966	-16.33
195.187	-17.92
195.407	-29.87
195.628	-76.81
195.848	-79.33
196.069	-57.67
196.29	-44.77
196.51	-72.19
196.731	-56.91
196.951	-61.14
197.172	-72.37
197.392	-87.45
197.613	-97.23
197.833	-145.72
198.054	-143.56
198.274	-99.68
198.495	-119.45
198.715	-60.53
198.936	-65.44
199.156	-47.86
199.377	-115.04
199.597	-113.8
199.817	-118.53
200.038	-63.97
200.258	-124.11
200.479	-54.02
200.699	-11.84
200.919	16.88
201.14	15.47
201.36	14.04
201.58	37.21
201.801	59.41
202.021	31.84
202.241	17.78
202.461	9.38
202.682	-84.97
202.902	-207.98
203.122	-136.3
203.342	-97.19
203.563	-23.32
203.783	6.51
204.003	11.09
204.223	33.16
204.443	64.09
204.663	29.57
204.884	42.61
205.104	83.36
205.324	90.84
205.544	84.48
205.764	84.02
205.984	59.89
206.204	51.29
206.424	29.05
206.644	5
206.864	4.67
207.084	6.53
207.304	-30.72
207.525	-95.94
207.745	-71.67
207.964	-23.86
208.184	-83.99
208.404	-92.9
208.624	-79.1
208.844	-75.03
209.064	-356.22
209.284	-300.26
209.504	-112.2
209.724	-31.64
209.944	-7.28
210.164	29.02
210.384	25.29
210.604	17.61
210.823	-24.39
211.043	-48.73
211.263	-27.8
211.483	-22.51
211.703	-64.5
211.922	-42.44
212.142	20.17
212.362	12.86
212.582	2.7
212.801	10.02
213.021	-21.03
213.241	-39.59
213.461	-63.82
213.68	-80.23
213.9	-36.74
214.12	13.81
214.339	-57.09
214.559	-24.21
214.779	6.38
214.998	-9.95
215.218	-88.61
215.438	-44.98
215.657	-63.31
215.877	-55.17
216.096	-21.01
216.316	15.49
216.535	11.17
216.755	12.43
216.974	-29.75
217.194	-108.51
217.413	-147.81
217.633	-137.72
217.852	-270.83
218.072	-116.29
218.291	-56.71
218.511	0.35
218.73	-9.63
218.95	-4.67
219.169	-13.62
219.389	-60.39
219.608	-39.82
219.827	-51.9
220.047	-21.92
220.266	-11.14
220.485	1.71
220.705	2.99
220.924	-13.81
221.143	9.85
221.363	-7.41
221.582	5.56
221.801	0.97
222.021	31.69
222.24	-13.55
222.459	22.03
222.678	-12.56
222.897	-62.34
223.117	-89.1
223.336	-85.13
223.555	-48.21
223.774	-5.46
223.993	4.64
224.213	53.54
224.432	52.07
224.651	50.54
224.87	18.49
225.089	33.64
225.308	16.06
225.527	24.48
225.746	25.97
225.965	20.55
226.184	-4.25
226.404	1.47
226.623	-25.51
226.842	-28.28
227.061	-1.54
227.28	13.01
227.499	10.17
227.718	34.48
227.936	30.99
228.155	46.64
228.374	17.84
228.593	23.31
228.812	19.11
229.031	19.36
229.25	-31.7
229.469	5.58
229.688	13.13
229.907	37.62
230.125	43.5
230.344	64.11
230.563	60.05
230.782	57.12
231.001	-23.87
231.22	-19.44
231.438	-6.52
231.657	-10.41
231.876	-18.35
232.095	39.32
232.313	37.2
232.532	35.51
232.751	1.14
232.969	-29.29
233.188	-129.88
233.407	-37.44
233.625	-34.72
233.844	-37.59
234.063	-8.9
234.281	24.95
234.5	13.25
234.719	18.47
234.937	37.44
235.156	37.23
235.374	23.19
235.593	8.54
235.811	3.05
236.03	-18.14
236.249	-71.8
236.467	-63.64
236.686	-16.54
236.904	-4.95
237.123	-33.62
237.341	-24.66
237.559	1.02
237.778	-27.98
237.996	-40.07
238.215	25.91
238.433	43.8
238.652	7.03
238.87	10.27
239.088	10.45
239.307	-17.02
239.525	-32.9
239.743	-37.41
239.962	-41.21
240.18	-52.44
240.398	-49.42
240.617	-45.49
240.835	-26.07
241.053	2.48
241.271	50.85
241.49	40.17
241.708	19.79
241.926	34.92
242.144	24.92
242.363	-37.95
242.581	-47.07
242.799	-17.94
243.017	4.55
243.235	-10.92
243.453	0.32
243.672	-8.85
243.89	-4.78
244.108	-17.34
244.326	5.43
244.544	7.33
244.762	-0.61
244.98	-2.64
245.198	-9.41
245.416	-39.66
245.634	-39.05
245.852	-29.36
246.07	-47.17
246.288	-42.04
246.506	-57.66
246.724	-16.37
246.942	-21.25
247.16	31.52
247.378	54.19
247.596	59.97
247.814	43.57
248.032	23.66
248.25	4.66
248.468	-1.78
248.685	5.99
248.903	43.78
249.121	43.75
249.339	21.62
249.557	19.47
249.775	24.53
249.992	-38.76
250.21	-22.78
250.428	-6.18
250.646	-45.68
250.863	-59.94
251.081	-36.85
251.299	-32.23
251.517	-49.02
251.734	-14.96
251.952	-26.96
252.17	-26.07
252.387	-13.33
252.605	-15.92
252.823	-2.82
253.04	17.62
253.258	36.55
253.475	26.61
253.693	56.45
253.911	52.55
254.128	41.69
254.346	42.81
254.563	27.66
254.781	2.22
254.998	-30.67
255.216	-23.67
255.433	-11.94
255.651	27.31
255.868	41.2
256.086	67.26
256.303	50.08
256.521	35.42
256.738	5
256.956	-28.57
257.173	-41.98
257.39	-41.27
257.608	-67.33
257.825	-18.5
258.043	20.56
258.26	27.58
258.477	49.22
258.695	45.97
258.912	-1.46
259.129	9.98
259.346	-23.1
259.564	-33.52
259.781	-34.71
259.998	35.27
260.216	56.39
260.433	83.42
260.65	76.28
260.867	75.6
261.084	38.39
261.302	16.94
261.519	5.47
261.736	-45.21
261.953	-57.2
262.17	-20.87
262.387	-51.33
262.604	-84.91
262.822	-56.73
263.039	-41.1
263.256	-76.92
263.473	-27.21
263.69	-6.88
263.907	19.56
264.124	33.89
264.341	27.36
264.558	10.76
264.775	21.07
264.992	1.15
265.209	-8.34
265.426	26.08
265.643	39.9
265.86	43.09
266.077	46.98
266.294	36.07
266.51	-12.08
266.727	-49.15
266.944	-45.35
267.161	-32.53
267.378	-18.38
267.595	5.75
267.812	-8.08
268.028	-29.14
268.245	-5.78
268.462	-24.52
268.679	-19.74
268.896	29.49
269.112	26.69
269.329	5.67
269.546	19
269.763	0.73
269.979	-20.6
270.196	-12.67
270.413	-38.08
270.629	-69.32
270.846	-69.17
271.063	-67.74
271.279	-86.4
271.496	-76.62
271.712	-13.96
271.929	9.24
272.146	-0.89
272.362	16.27
272.579	59.32
272.795	38.1
273.012	36.75
273.228	44.75
273.445	29.12
273.661	-3.01
273.878	-51.52
274.094	-54.45
274.311	-77.48
274.527	-20.12
274.744	-23.46
274.96	-7.63
275.177	3.41
275.393	24.46
275.609	13.73
275.826	42.19
276.042	32.15
276.259	24.66
276.475	23.76
276.691	25.76
276.908	1.51
277.124	18.07
277.34	17.35
277.557	10.8
277.773	2.95
277.989	3.49
278.205	2.91
278.422	22.2
278.638	28.89
278.854	51.51
279.07	52.21
279.286	40.39
279.503	4.27
279.719	-0.53
279.935	-36.02
280.151	-27
280.367	-6.14
280.583	-26.29
280.799	-32.18
281.016	-45.71
281.232	-25.07
281.448	-43.29
281.664	-7.11
281.88	-33.93
282.096	-14.8
282.312	-0.98
282.528	29.75
282.744	33.71
282.96	36.55
283.176	38.32
283.392	28.47
283.608	13.04
283.824	-1.71
284.04	2.46
284.256	8.27
284.471	-6.53
284.687	-11.54
284.903	17.56
285.119	43.98
285.335	13.13
285.551	32.06
285.767	16.64
285.982	-3.11
286.198	-64.12
286.414	1.75
286.63	8.93
286.846	42.35
287.061	30.51
287.277	64.97
287.493	26.52
287.709	30.98
287.924	6.79
288.14	31.22
288.356	19.88
288.571	43.74
288.787	31.49
289.003	30.27
289.218	11.49
289.434	-23.63
289.65	-9.83
289.865	-35.94
290.081	-20.69
290.296	-7.8
290.512	12.52
290.727	-27.57
290.943	-1.79
291.159	-21.94
291.374	-27.21
291.59	-37.08
291.805	-21.24
292.021	-19.31
292.236	-17.42
292.451	-2.85
292.667	-2.46
292.882	2.18
293.098	-7.76
293.313	-19.58
293.529	-51.17
293.744	-63.74
293.959	-51.23
294.175	-43.28
294.39	0.98
294.605	20.97
294.821	48.24
295.036	50.58
295.251	45.57
295.467	7.35
295.682	-9.16
295.897	-76.99
296.112	-90.89
296.328	-74.34
296.543	-75.38
296.758	-63.13
296.973	-9.84
297.188	31.82
297.404	15.95
297.619	7.39
297.834	5
298.049	-22.63
298.264	-50.42
298.479	-6.82
298.694	8.81
298.909	21.06
299.125	36.38
299.34	45.99
299.555	22.72
299.77	30.9
299.985	-22
300.2	-73.24
300.415	-102.29
300.63	-71.56
300.845	-83.21
301.06	-76.57
301.275	-35.81
301.49	-15.86
301.704	-14.97
301.919	-31.64
302.134	-37.47
302.349	-38.2
302.564	-95.19
302.779	-144.25
302.994	-96.55
303.209	-51.85
303.423	-22.55
303.638	45.14
303.853	21.53
304.068	19.95
304.283	18.3
304.497	6.5
304.712	-0.9
304.927	10
305.142	0.5
305.356	6.14
305.571	-6.85
305.786	-19.5
306	-37.3
306.215	-44.45
306.43	-70.86
306.644	-71.77
306.859	-31.12
307.074	-10.96
307.288	-20.13
307.503	-13.87
307.717	-21.52
307.932	-38.91
308.147	-31.07
308.361	-19.02
308.576	-18.38
308.79	-51.77
309.005	-46.37
309.219	-56.76
309.434	-67.71
309.648	-56.16
309.863	-8.23
310.077	-3.23
310.292	6.43
310.506	16.19
310.72	17.7
310.935	20.02
311.149	11.31
311.364	21.64
311.578	28.23
311.792	21.92
312.007	14.13
312.221	12.76
312.435	13.81
312.649	-0.18
312.864	26.09
313.078	55.27
313.292	110.17
313.507	81.65
313.721	127.27
313.935	60.8
314.149	29.65
314.363	15.79
314.578	33.04
314.792	17.6
315.006	6.86
315.22	19.12
315.434	19.56
315.648	17.23
315.862	18.37
316.077	10.92
316.291	-4.56
316.505	-4.44
316.719	-33.91
316.933	-43.07
317.147	-47.96
317.361	-89.17
317.575	-100.16
317.789	-120.09
318.003	-171.72
318.217	-148.95
318.431	-44.2
318.645	-3.17
318.859	11.39
319.073	46.59
319.287	37.62
319.5	3.98
319.714	-48.54
319.928	-81.91
320.142	-109.98
320.356	-37.19
320.57	14.73
320.784	-0.1
320.997	-9.99
321.211	-4.36
321.425	-62.31
321.639	-85.2
321.853	-6.96
322.066	24.61
322.28	8.64
322.494	13.15
322.707	17.27
322.921	12.69
323.135	10.33
323.349	29.57
323.562	7.28
323.776	3.33
323.989	-10.13
324.203	-42.47
324.417	-53.65
324.63	-43.94
324.844	-40.09
325.057	-29.38
325.271	0.52
325.485	17.87
325.698	28.77
325.912	37.29
326.125	19.86
326.339	16.6
326.552	-0.86
326.766	8.93
326.979	20.06
327.193	34.47
327.406	19.68
327.619	18.74
327.833	26.96
328.046	3.81
328.26	-20.42
328.473	7.93
328.686	-20.35
328.9	-21.1
329.113	-1.67
329.326	6.37
329.54	18.93
329.753	35.23
329.966	20.79
330.179	21.12
330.393	21.78
330.606	24.52
330.819	32.96
331.032	45.5
331.246	35.51
331.459	62.14
331.672	48.44
331.885	35.94
332.098	-2.03
332.311	-9.58
332.525	-70.15
332.738	-50.12
332.951	-17.95
333.164	9.95
333.377	27.26
333.59	37.96
333.803	33.6
334.016	25.15
334.229	43.68
334.442	52.78
334.655	79.26
334.868	69.38
335.081	52.82
335.294	24.46
335.507	2.28
335.72	-0.6
335.933	-15.08
336.146	-3.49
336.359	5.54
336.572	-21.63
336.785	-57.43
336.997	-45.95
337.21	-34.78
337.423	-31.78
337.636	-11.49
337.849	-4.4
338.062	-18.38
338.274	-13.2
338.487	-30.29
338.7	-32.68
338.913	-62.31
339.125	-77.71
339.338	-134.43
339.551	-78.13
339.763	-42.43
339.976	-12.23
340.189	27.7
340.402	37.91
340.614	13.42
340.827	-5.01
341.039	-19.28
341.252	-30.23
341.465	-18.09
341.677	-20.24
341.89	-55.03
342.102	-20.03
342.315	-37.84
342.527	-54.84
342.74	-41.73
342.952	8.16
343.165	-2.08
343.377	24.46
343.59	12.71
343.802	27.13
344.015	19.84
344.227	35.55
344.44	23.19
344.652	41.08
344.864	24.16
345.077	38.66
345.289	36.49
345.502	38.02
345.714	21.03
345.926	23.13
346.139	12.17
346.351	4.38
346.563	5.71
346.775	25.48
346.988	13.24
347.2	-2.11
347.412	-33.67
347.624	-37.31
347.837	-68.82
348.049	-34.07
348.261	-12.37
348.473	-8.45
348.685	-6.04
348.897	-16.12
349.11	-24.9
349.322	-45.73
349.534	-23.95
349.746	-34.01
349.958	-14.75
350.17	-19.73
350.382	12.75
350.594	3.93
350.806	23.33
351.018	20.13
351.23	1.34
351.442	-62.51
351.654	-76.23
351.866	-79.95
352.078	-71.56
352.29	-19.45
352.502	6.99
352.714	24.81
352.926	18.33
353.138	26.93
353.35	5.68
353.561	13.3
353.773	-6.27
353.985	-4.29
354.197	-15.7
354.409	-15.58
354.621	-22.97
354.832	-14.7
355.044	-14.58
355.256	-12.47
355.468	2.41
355.679	-2.95
355.891	3.28
356.103	-7.46
356.314	-6.71
356.526	-20.73
356.738	-17.04
356.949	-30.84
357.161	-11.43
357.373	-10.85
357.584	-13.05
357.796	-5.44
358.008	-3.23
358.219	10.37
358.431	3.33
358.642	10.36
358.854	11.93
359.065	3.59
359.277	-35.17
359.488	-35.08
359.7	-43.98
359.911	-70.54
360.123	-51.09
360.334	-43.22
360.546	-61.24
360.757	-63.26
360.969	-47.94
361.18	-44.69
361.391	-30.91
361.603	-25.93
361.814	-7.59
362.025	-10.7
362.237	-1.59
362.448	13.97
362.659	30.43
362.871	20.13
363.082	34.58
363.293	35.99
363.504	22.43
363.716	8.7
363.927	2.6
364.138	-28.93
364.349	-44.21
364.56	-58.66
364.772	-50.35
364.983	-24.87
365.194	-19.41
365.405	-10.7
365.616	5.99
365.827	0.37
366.038	-18.06
366.25	-26.25
366.461	-42.95
366.672	-22.08
366.883	-8.74
367.094	-6
367.305	-5.48
367.516	-9.65
367.727	-31.52
367.938	-47.11
368.149	-44.99
368.36	-13.93
368.571	-0.95
368.781	-10.37
368.992	-9.52
369.203	-9.63
369.414	-37.91
369.625	-42.38
369.836	-41.94
370.047	-71.51
370.258	-68.47
370.468	-68.39
370.679	-88.41
370.89	-76.65
371.101	-39.08
371.312	-40.66
371.522	-24.01
371.733	-8.41
371.944	6.52
372.155	3.69
372.365	-2.76
372.576	-6.62
372.787	-10.71
372.997	-27.27
373.208	-18.61
373.419	13.9
373.629	-13.69
373.84	-2.14
374.05	-4.8
374.261	2.82
374.472	-30.06
374.682	12.46
374.893	13.87
375.103	44.58
375.314	33.35
375.524	42.62
375.735	41.23
375.945	43.44
376.156	10.68
376.366	19.21
376.577	15.84
376.787	1.94
376.997	-3.69
377.208	1.12
377.418	-25.21
377.629	-21.09
377.839	-13.9
378.049	-10.01
378.26	9.92
378.47	18.46
378.68	11.24
378.89	3.04
379.101	2.01
379.311	-34.68
379.521	-62.83
379.732	-52.6
379.942	-51.83
380.152	-72.05
380.362	-25.99
380.572	-11.15
380.783	-3.97
380.993	11.58
381.203	23.91
381.413	22.5
381.623	25.87
381.833	24.3
382.043	6.02
382.253	-1.29
382.463	-5.57
382.674	-12.69
382.884	-34.06
383.094	-29.26
383.304	-16.07
383.514	-15.39
383.724	-11.17
383.934	-14.38
384.144	-16.96
384.353	-30.7
384.563	-34.33
384.773	-28.59
384.983	-24.81
385.193	-4.85
385.403	6.66
385.613	10.45
385.823	5.47
386.033	9.04
386.242	-2.7
386.452	-11.11
386.662	-19.16
386.872	-7.46
387.082	-11.82
387.291	-13.18
387.501	-9.13
387.711	-4.34
387.921	-17.43
388.13	-15.18
388.34	-5.97
388.55	-12.78
388.759	-12.01
388.969	-3.76
389.179	-8.08
389.388	-11.4
389.598	-2.98
389.807	-5.46
390.017	-6.42
390.227	-0.4
390.436	-0.17
390.646	-0.45
390.855	0.32
391.065	-0.78
391.274	-4.67
391.484	-8.44
391.693	-4.68
391.903	-2.19
392.112	2.79
392.322	6.6
392.531	7.77
392.74	6.1
392.95	2.03
393.159	0.33
393.369	-1.27
393.578	-1.93
393.787	-2.96
393.997	0.03
394.206	-2.63
394.415	-2.1
394.625	-0.83
394.834	-1.91
395.043	-0.65
395.252	1.69
395.462	3.7
395.671	5.32
395.88	5.83
396.089	5.47
396.298	3.63
396.508	2.18
396.717	0.23
396.926	0.25
397.135	-0.13
397.344	-0.25
397.553	0.86
397.762	3.17
397.971	3.19
398.181	2.77
398.39	2.52
398.599	1.47
398.808	0.91
399.017	1.81
399.226	2.83
399.435	3.99
399.644	4.3
399.853	3.24
400.062	2.5
400.27	2.16
400.479	1.55
400.688	1.01
400.897	1.4
401.106	1.54
401.315	1.15
401.524	1.56
401.733	2.09
401.941	2.05
402.15	2.3
402.359	2.1
402.568	2.3
402.777	2.48
402.985	2.76
403.194	2.33
403.403	2.53
403.612	1.91
403.82	1.65
404.029	1.7
404.238	1.74
404.446	2.07
404.655	2.02
404.864	2.04
405.072	1.63
405.281	1.81
405.489	1.5
405.698	1.71
405.906	1.7
406.115	1.83
406.324	1.78
406.532	1.77
406.741	2
406.949	1.99
407.158	1.92
407.366	1.86
407.574	1.93
407.783	1.88
407.991	1.74
408.2	2.04
408.408	2.13
408.617	2.01
408.825	1.73
409.033	1.83
409.242	1.82
409.45	1.85
409.658	1.82
409.867	2.01
410.075	1.9
410.283	1.77
410.491	1.65
410.7	1.66
410.908	1.57
411.116	1.87
411.324	1.88
411.533	1.89
411.741	2.07
411.949	2.16
412.157	1.89
412.365	1.88
412.573	1.95
412.781	2
412.99	1.9
413.198	2.05
413.406	2.11
413.614	2.03
413.822	1.81
414.03	1.81
414.238	1.62
414.446	1.61
414.654	1.5
414.862	1.55
415.07	1.61
415.278	1.87
415.486	1.58
415.694	1.71
415.902	1.64
416.109	1.64
416.317	1.49
416.525	1.48
416.733	1.55
416.941	1.68
417.149	1.42
417.357	1.52
417.564	1.84
417.772	1.97
417.98	1.84
418.188	2.02
418.395	1.92
418.603	2.02
418.811	1.58
419.019	1.59
419.226	1.78
419.434	1.95
419.642	1.57
419.849	1.89
420.057	1.99
420.265	1.92
420.472	1.59
420.68	1.71
420.887	1.62
421.095	1.62
421.302	1.52
421.51	1.83
421.717	1.95
421.925	1.85
422.132	1.73
422.34	1.5
422.547	1.52
422.755	1.31
422.962	1.4
423.17	1.36
423.377	1.44
423.585	1.31
423.792	1.26
423.999	1.14
424.207	1.15
424.414	1.42
424.621	1.46
424.829	1.48
425.036	1.54
425.243	1.7
425.451	1.5
425.658	1.37
425.865	1.6
426.072	1.69
426.28	1.82
426.487	1.87
426.694	1.98
426.901	1.77
427.108	1.74
427.315	1.59
427.523	1.87
427.73	1.89
427.937	1.88
428.144	1.79
428.351	1.67
428.558	1.61
428.765	1.48
428.972	1.47
429.179	1.63
429.386	2
429.593	1.73
429.8	1.58
430.007	1.7
430.214	1.67
430.421	1.33
430.628	1.24
430.835	1.3
431.042	1.45
431.249	1.51
431.456	1.52
431.662	1.68
431.869	1.89
432.076	1.89
432.283	1.92
432.49	1.98
432.697	2.02
432.903	1.74
433.11	1.66
433.317	1.69
433.524	1.95
433.73	1.89
433.937	2.22
434.144	2.02
434.35	1.94
434.557	1.59
434.764	1.61
434.97	1.44
435.177	1.64
435.384	1.67
435.59	1.83
435.797	2.07
436.003	2.15
436.21	2.07
436.416	2.16
436.623	2.17
436.829	2.18
437.036	2.21
437.242	2.23
437.449	1.99
437.655	2
437.862	1.89
438.068	1.88
438.275	2.01
438.481	2.35
438.687	2.28
438.894	2.26
439.1	2.31
439.307	2.47
439.513	2.34
439.719	2.37
439.926	2.48
440.132	2.49
440.338	2.28
440.544	2.4
440.751	2.4
440.957	2.37
441.163	2.22
441.369	2.34
441.575	2.11
441.782	2.09
441.988	2.05
442.194	2.11
442.4	2.13
442.606	2.41
442.812	2.58
443.018	2.58
443.224	2.63
443.431	2.63
443.637	2.45
443.843	2.28
444.049	2.35
444.255	2.27
444.461	2.31
444.667	2.25
444.873	2.47
445.079	2.39
445.284	2.53
445.49	2.21
445.696	2.12
445.902	1.91
446.108	1.81
446.314	1.71
446.52	1.85
446.726	2.1
446.931	2.18
447.137	2.33
447.343	2.48
447.549	2.44
447.755	2.32
447.96	2.35
448.166	2.27
448.372	2.18
448.578	2.29
448.783	2.32
448.989	2.38
449.195	2.61
449.4	2.69
449.606	2.63
449.812	2.55
450.017	2.57
450.223	2.37
450.428	2.24
450.634	2.31
450.84	2.47
451.045	2.32
451.251	2.23
451.456	2.46
451.662	2.55
451.867	2.53
452.073	2.6
452.278	2.83
452.483	2.92
452.689	2.77
452.894	2.79
453.1	2.76
453.305	2.66
453.51	2.53
453.716	2.44
453.921	2.49
454.127	2.43
454.332	2.43
454.537	2.38
454.742	2.46
454.948	2.38
455.153	2.45
455.358	2.51
455.563	2.7
455.769	2.82
455.974	2.81
456.179	2.7
456.384	2.62
456.589	2.55
456.795	2.4
457	2.37
457.205	2.66
457.41	2.66
457.615	2.58
457.82	2.61
458.025	2.69
458.23	2.48
458.435	2.55
458.64	2.47
458.845	2.57
459.05	2.55
459.255	2.67
459.46	2.61
459.665	2.64
459.87	2.69
460.075	2.7
460.28	2.67
460.485	2.76
460.69	2.81
460.895	2.6
461.099	2.57
461.304	2.66
461.509	2.64
461.714	2.54
461.919	2.82
462.123	2.73
462.328	2.67
