Data from Ofra_PS_T2_1A_8HS23_Reflection_3.txt Node
Date: Wed Jul 21 18:16:29 EDT 2021
User: Adam
Spectrometer: FLMT01687
Trigger mode: 0
Integration Time (sec): 1.100000E0
Scans to average: 2
Electric dark correction enabled: true
Nonlinearity correction enabled: false
Boxcar width: 2
XAxis mode: Wavelengths
Number of Pixels in Spectrum: 3648
>>>>>Begin Spectral Data<<<<<
179.494	526.4
179.716	619.29
179.937	560.48
180.158	529.25
180.38	801.87
180.601	42.54
180.823	-62.4
181.044	-247.87
181.265	-150.74
181.486	-46.92
181.708	163.97
181.929	1381.63
182.15	-712.68
182.372	27.7
182.593	-124.04
182.814	-0.34
183.035	49.74
183.257	-1.6
183.478	-115.32
183.699	-52.77
183.92	-85.2
184.141	-94.95
184.363	-127.44
184.584	-77.75
184.805	-35.93
185.026	1.19
185.247	23.71
185.468	9.76
185.689	3.9
185.91	-8.36
186.132	-2.67
186.353	1.48
186.574	43.36
186.795	26.98
187.016	-10.62
187.237	-19.53
187.458	-83.31
187.679	-73.73
187.9	-38.27
188.121	-25.21
188.342	-29.86
188.563	33.09
188.784	67.36
189.005	46.28
189.226	81.19
189.447	24.6
189.667	-325.73
189.888	-533
190.109	-1584.42
190.33	-798.71
190.551	-1100.88
190.772	-200.24
190.993	-184.49
191.214	-128.17
191.434	-110.98
191.655	-36.69
191.876	-84.01
192.097	-149.3
192.318	-246.31
192.538	-359.53
192.759	-256.02
192.98	-151.89
193.201	-92.34
193.421	-34.31
193.642	5.35
193.863	13.57
194.083	11.38
194.304	11.53
194.525	-10.1
194.745	-62.3
194.966	-80.46
195.187	-90.13
195.407	-134.1
195.628	-173.12
195.848	-160.15
196.069	-142.61
196.29	-94.37
196.51	-98
196.731	-97.29
196.951	-80.27
197.172	-106.6
197.392	-145.68
197.613	-124.18
197.833	-125.67
198.054	-120.79
198.274	-65.76
198.495	-73.88
198.715	-48.93
198.936	-56.43
199.156	-52.22
199.377	-130.34
199.597	-100.34
199.817	-123.13
200.038	-84.03
200.258	-131.79
200.479	-89.54
200.699	-122.79
200.919	-38.14
201.14	-44.23
201.36	-72.73
201.58	-6.11
201.801	22.73
202.021	-13.42
202.241	-17.38
202.461	-12.47
202.682	-139.76
202.902	-242.42
203.122	-151.15
203.342	-124.35
203.563	-65.61
203.783	-18.84
204.003	-38.91
204.223	-42.11
204.443	1.7
204.663	-44.57
204.884	-19.04
205.104	10.81
205.324	10.21
205.544	20.06
205.764	42.9
205.984	32.79
206.204	23.45
206.424	28.83
206.644	-8.21
206.864	-3.08
207.084	-64.84
207.304	-21.87
207.525	-163.75
207.745	-56.66
207.964	-21.76
208.184	-26.72
208.404	-82.49
208.624	-87.63
208.844	-109.25
209.064	-431.8
209.284	-480.83
209.504	-250.84
209.724	-102.93
209.944	-74.56
210.164	-13.37
210.384	-6.85
210.604	-28.18
210.823	-70.73
211.043	-77.45
211.263	-77.69
211.483	-80.7
211.703	-107.44
211.922	-70.3
212.142	-15.98
212.362	-0.8
212.582	-6.25
212.801	-11.23
213.021	-26.66
213.241	-52.22
213.461	-90.79
213.68	-109.13
213.9	-89.61
214.12	-86.62
214.339	-147.73
214.559	-120.24
214.779	-51.52
214.998	-38.29
215.218	-66.14
215.438	-43.06
215.657	-43.16
215.877	-58.62
216.096	-19.76
216.316	-10.09
216.535	-3.44
216.755	-12.43
216.974	-89.99
217.194	-183.79
217.413	-144.07
217.633	-148.03
217.852	-243.95
218.072	-96.13
218.291	-43.14
218.511	-16.09
218.73	-30.52
218.95	-18.4
219.169	-25.8
219.389	-74.93
219.608	-58.62
219.827	-64.47
220.047	-59.14
220.266	-45.4
220.485	-29.74
220.705	-22.48
220.924	-27.42
221.143	2.97
221.363	-16.48
221.582	-1.13
221.801	0.91
222.021	20.75
222.24	-42.6
222.459	-30.29
222.678	-54.8
222.897	-141.3
223.117	-173.59
223.336	-98.58
223.555	-37.56
223.774	20.78
223.993	17.62
224.213	53.76
224.432	11.93
224.651	29.06
224.87	-18.49
225.089	0.57
225.308	-10.98
225.527	1.24
225.746	-12.12
225.965	-10.91
226.184	-33.28
226.404	-7.22
226.623	-24.62
226.842	-15.49
227.061	8.55
227.28	17.32
227.499	2.66
227.718	18.64
227.936	5.06
228.155	-8.39
228.374	-14.13
228.593	-17.55
228.812	-26.53
229.031	-40.25
229.25	-78.31
229.469	-94.33
229.688	-53.11
229.907	-34.65
230.125	-16.76
230.344	7.25
230.563	17.32
230.782	16
231.001	-50.61
231.22	-45.88
231.438	-16.16
231.657	-8.21
231.876	-29.63
232.095	31.15
232.313	25.22
232.532	-12.52
232.751	-38.95
232.969	-56.8
233.188	-183.64
233.407	-88.84
233.625	-38.87
233.844	-50.09
234.063	-32.57
234.281	-9.65
234.5	-18.9
234.719	-19.8
234.937	-27.42
235.156	-25.94
235.374	-23.37
235.593	-36.84
235.811	-71.06
236.03	-40.55
236.249	-54.79
236.467	-47.49
236.686	-5.16
236.904	15.32
237.123	-5.02
237.341	-8.01
237.559	-4.5
237.778	-18.2
237.996	-47.1
238.215	-14.64
238.433	-9.2
238.652	-17.27
238.87	-37.78
239.088	-19.15
239.307	-37.95
239.525	-52.62
239.743	-82.63
239.962	-94.57
240.18	-106.09
240.398	-132.5
240.617	-121.93
240.835	-100
241.053	-91.42
241.271	-77.39
241.49	-38
241.708	-72.95
241.926	-99.61
242.144	-59.6
242.363	-107.46
242.581	-141.77
242.799	-90.53
243.017	-43.05
243.235	-45.13
243.453	-14.2
243.672	-11.37
243.89	-3.15
244.108	-14.74
244.326	-5.76
244.544	-11.66
244.762	-8.67
244.98	-7.2
245.198	-11.56
245.416	-41.53
245.634	-33.91
245.852	-56.32
246.07	-81.53
246.288	-91.73
246.506	-110.32
246.724	-84.7
246.942	-48.46
247.16	-20.69
247.378	2.3
247.596	30.3
247.814	14.18
248.032	-13.81
248.25	-12.1
248.468	-4.07
248.685	3.41
248.903	29.06
249.121	31.9
249.339	-2.02
249.557	-2.52
249.775	-8.19
249.992	-80.98
250.21	-72.19
250.428	-41.29
250.646	-87.26
250.863	-113.96
251.081	-62.6
251.299	-54.27
251.517	-65.14
251.734	-47.79
251.952	-27.03
252.17	-29.29
252.387	-15.78
252.605	-18.02
252.823	-16.84
253.04	-10.88
253.258	-3.92
253.475	-32.84
253.693	-17.76
253.911	10.55
254.128	5.21
254.346	5.84
254.563	1.71
254.781	-17.65
254.998	-58.16
255.216	-80.35
255.433	-73.44
255.651	-38.49
255.868	-26.86
256.086	7.23
256.303	12.73
256.521	13.52
256.738	-13.59
256.956	-19.95
257.173	-38.93
257.39	-60.53
257.608	-103.36
257.825	-29.72
258.043	-16.72
258.26	-7.77
258.477	27.71
258.695	31.86
258.912	-40.97
259.129	-27.73
259.346	-61.88
259.564	-86.09
259.781	-106.35
259.998	-34.39
260.216	-22.65
260.433	25.63
260.65	9.82
260.867	37.1
261.084	5.81
261.302	-7.09
261.519	-38.04
261.736	-36.17
261.953	-59.13
262.17	-35.45
262.387	-76.25
262.604	-93.02
262.822	-101.68
263.039	-95.36
263.256	-135.89
263.473	-60.58
263.69	-37.48
263.907	2.21
264.124	11.26
264.341	17.69
264.558	-13.65
264.775	-8.13
264.992	-34.51
265.209	-26.48
265.426	-2.77
265.643	10.6
265.86	21.82
266.077	35.35
266.294	2.23
266.51	-42.66
266.727	-60.6
266.944	-62.35
267.161	-59.68
267.378	-48.8
267.595	-14.57
267.812	-21.42
268.028	-43.13
268.245	-22.67
268.462	-21.3
268.679	-39.27
268.896	-0.98
269.112	3.76
269.329	-3.66
269.546	-5.06
269.763	-10.7
269.979	-23.49
270.196	-22.61
270.413	-53.91
270.629	-75.09
270.846	-74.98
271.063	-69.45
271.279	-86.25
271.496	-75.2
271.712	-32.4
271.929	-39.9
272.146	-72.32
272.362	-48.73
272.579	-19.13
272.795	-17.32
273.012	8.09
273.228	38.11
273.445	9.03
273.661	-35.98
273.878	-65.44
274.094	-69.3
274.311	-90.92
274.527	-21.53
274.744	-0.13
274.96	5.64
275.177	14.42
275.393	15.53
275.609	2.48
275.826	19.9
276.042	10.17
276.259	11.05
276.475	18.91
276.691	15.67
276.908	-8.39
277.124	6.45
277.34	-11.33
277.557	-43.96
277.773	-44.2
277.989	-49.38
278.205	-55.73
278.422	-26.08
278.638	-2.71
278.854	7.25
279.07	16.25
279.286	18.06
279.503	-6.66
279.719	-22.9
279.935	-35.21
280.151	-64.03
280.367	-30.29
280.583	-58.54
280.799	-43.38
281.016	-60.57
281.232	-19.1
281.448	-36.91
281.664	-5.1
281.88	-34.01
282.096	-17.53
282.312	-5.12
282.528	9.45
282.744	18.4
282.96	20.87
283.176	18.32
283.392	12.03
283.608	6.01
283.824	-12.96
284.04	-7.34
284.256	-3.93
284.471	-16.87
284.687	-14.64
284.903	6.7
285.119	8.51
285.335	-18.76
285.551	-32.06
285.767	-52.75
285.982	-57.66
286.198	-68.34
286.414	-17.12
286.63	3.22
286.846	21.97
287.061	-6.56
287.277	16.97
287.493	-7.31
287.709	6.38
287.924	-8.46
288.14	36.9
288.356	37.29
288.571	44.56
288.787	14.13
289.003	15.13
289.218	-4.09
289.434	-38.11
289.65	-42.28
289.865	-39.47
290.081	-26.72
290.296	-21.62
290.512	-6.83
290.727	-36.61
290.943	-23.62
291.159	-29.68
291.374	-51.77
291.59	-83.87
291.805	-47.2
292.021	-48.4
292.236	-52.89
292.451	-14.89
292.667	1.89
292.882	10.25
293.098	-1.06
293.313	-4.57
293.529	-24.88
293.744	-31.17
293.959	-59.79
294.175	-45.73
294.39	-11.98
294.605	-4.71
294.821	19
295.036	36.71
295.251	31.44
295.467	-13.12
295.682	-17.39
295.897	-79.31
296.112	-108.38
296.328	-89.6
296.543	-80.7
296.758	-89.22
296.973	-43.71
297.188	8.95
297.404	-17.95
297.619	-19.16
297.834	-23.78
298.049	-33.15
298.264	-62.34
298.479	-17.25
298.694	-13.38
298.909	-3.21
299.125	-1.08
299.34	-2.91
299.555	-36.92
299.77	-33.03
299.985	-52.73
300.2	-113.84
300.415	-130.02
300.63	-92.06
300.845	-94.59
301.06	-102.14
301.275	-52.75
301.49	-23.32
301.704	-25.73
301.919	-39.93
302.134	-45.29
302.349	-35.78
302.564	-115.38
302.779	-116.87
302.994	-77.43
303.209	-35.71
303.423	-31.65
303.638	33.93
303.853	-5.33
304.068	-8.46
304.283	-1.93
304.497	-8.98
304.712	-13
304.927	-5.05
305.142	-3.26
305.356	1.76
305.571	4.43
305.786	-8.59
306	-23.4
306.215	-32.77
306.43	-64.14
306.644	-64.17
306.859	-46.57
307.074	-10.54
307.288	-45.55
307.503	-45.36
307.717	-44.94
307.932	-35.25
308.147	-43.57
308.361	-9.87
308.576	-18.27
308.79	-49.97
309.005	-39.74
309.219	-21.06
309.434	-30.55
309.648	-19.62
309.863	-2.46
310.077	-5.23
310.292	-6.43
310.506	4.21
310.72	7.97
310.935	26.87
311.149	8.79
311.364	12.28
311.578	22.56
311.792	9.83
312.007	-2.36
312.221	-7.79
312.435	-8.55
312.649	-29.04
312.864	-61.19
313.078	-51.88
313.292	-14.21
313.507	-50.43
313.721	-48.3
313.935	15.93
314.149	4.09
314.363	-0.42
314.578	-0.89
314.792	-0.37
315.006	-18.23
315.22	-0.46
315.434	-3.08
315.648	2.23
315.862	0.63
316.077	6.06
316.291	-15.25
316.505	-24.88
316.719	-26.54
316.933	-23.2
317.147	-16.5
317.361	-59.65
317.575	-75.78
317.789	-118.79
318.003	-194.01
318.217	-159.67
318.431	-59.66
318.645	-6.33
318.859	-5.82
319.073	1.59
319.287	-11.87
319.5	-41.9
319.714	-92.16
319.928	-109.35
320.142	-135.08
320.356	-83.19
320.57	-34.75
320.784	-36.58
320.997	-43.47
321.211	-22.72
321.425	-78.36
321.639	-112.61
321.853	-63.44
322.066	-52.42
322.28	-49.64
322.494	-38.48
322.707	-20.8
322.921	-24.21
323.135	-4.82
323.349	-5.38
323.562	-29.89
323.776	-43.29
323.989	-44.19
324.203	-76.02
324.417	-64.07
324.63	-77.44
324.844	-79.79
325.057	-83.67
325.271	-55.4
325.485	-32.2
325.698	-2.06
325.912	13.3
326.125	-15.88
326.339	-18.57
326.552	-57.31
326.766	-60.13
326.979	-49.87
327.193	5.37
327.406	-6.87
327.619	1.8
327.833	11.37
328.046	-19.87
328.26	-59.8
328.473	-22.93
328.686	-34.65
328.9	-32.61
329.113	-3.34
329.326	-18.05
329.54	-36.79
329.753	-58.85
329.966	-99.42
330.179	-110.34
330.393	-54.16
330.606	-39.58
330.819	-4.42
331.032	17.36
331.246	28.29
331.459	46.62
331.672	42.86
331.885	24.85
332.098	6.13
332.311	-12.87
332.525	-76.18
332.738	-80.12
332.951	-46.37
333.164	-23.82
333.377	-12.65
333.59	15.56
333.803	5.88
334.016	-0.55
334.229	-24.16
334.442	-10.62
334.655	0.93
334.868	19.18
335.081	16.42
335.294	17.86
335.507	-4.04
335.72	-18.02
335.933	-27.77
336.146	-30.94
336.359	-39.16
336.572	-57.69
336.785	-79.48
336.997	-59.06
337.21	-36.51
337.423	-29.05
337.636	-25.09
337.849	-8.46
338.062	-16.74
338.274	-26.23
338.487	-27.91
338.7	-10.81
338.913	-44.7
339.125	-76.71
339.338	-133.95
339.551	-120.36
339.763	-94.79
339.976	-66.93
340.189	-35.89
340.402	-18.73
340.614	-22.58
340.827	-35.43
341.039	-53.27
341.252	-55.22
341.465	-27.71
341.677	-31.51
341.89	-54.27
342.102	-23.05
342.315	-38.47
342.527	-82.53
342.74	-64.47
342.952	-37.2
343.165	-34.42
343.377	-1.34
343.59	5.43
343.802	15.55
344.015	23.5
344.227	26.04
344.44	10.58
344.652	9.09
344.864	-3.01
345.077	18.14
345.289	14.54
345.502	8.89
345.714	5.9
345.926	14.6
346.139	-3.5
346.351	10.56
346.563	32.48
346.775	31.34
346.988	24.26
347.2	10.33
347.412	-32.98
347.624	-62.35
347.837	-80.62
348.049	-58.64
348.261	-23.51
348.473	-19.5
348.685	-20.95
348.897	-12.86
349.11	-27.36
349.322	-44.2
349.534	-33.89
349.746	-32.12
349.958	-27.72
350.17	-45.62
350.382	-29.02
350.594	-21.97
350.806	-2.58
351.018	-0.29
351.23	-1.55
351.442	-23.48
351.654	-34.62
351.866	-55.77
352.078	-52.58
352.29	-25.78
352.502	2.12
352.714	9.01
352.926	3.31
353.138	3.65
353.35	-5.8
353.561	-22.56
353.773	-32.42
353.985	-15.2
354.197	-31.26
354.409	-38.71
354.621	-50.26
354.832	-33.72
355.044	-50.57
355.256	-35.56
355.468	-14.32
355.679	-8.05
355.891	3.38
356.103	-16.65
356.314	-11.91
356.526	-10.27
356.738	8.01
356.949	-16.89
357.161	8.95
357.373	-0.11
357.584	-16.23
357.796	-16.26
358.008	-20.15
358.219	0.72
358.431	-1.3
358.642	6.2
358.854	11.74
359.065	12.72
359.277	-28.58
359.488	-31.45
359.7	-51.11
359.911	-80.78
360.123	-61.1
360.334	-66.81
360.546	-90.88
360.757	-92.29
360.969	-68.02
361.18	-70.89
361.391	-33.48
361.603	-38.74
361.814	-26.56
362.025	-37.53
362.237	-38.98
362.448	-33.12
362.659	-5.27
362.871	-7.78
363.082	-14.49
363.293	-1.79
363.504	-17.93
363.716	-41.55
363.927	-48.73
364.138	-56.05
364.349	-74.98
364.56	-67.13
364.772	-54.01
364.983	-25.27
365.194	-17.48
365.405	-8.72
365.616	0.51
365.827	-3.94
366.038	-34.86
366.25	-42.08
366.461	-55.28
366.672	-40.41
366.883	-19.87
367.094	-6.31
367.305	-16.9
367.516	-21.27
367.727	-43.2
367.938	-48.2
368.149	-49.9
368.36	-33.21
368.571	-30.1
368.781	-36.18
368.992	-48.14
369.203	-65.03
369.414	-86.16
369.625	-89.06
369.836	-75.12
370.047	-104.49
370.258	-71.34
370.468	-64.12
370.679	-58.71
370.89	-55.91
371.101	-26.71
371.312	-37.59
371.522	-24.53
371.733	-29.28
371.944	-13.48
372.155	-13.96
372.365	-20.28
372.576	-24.41
372.787	-22.77
372.997	-45.72
373.208	-50.7
373.419	-22.22
373.629	-47.25
373.84	-61.2
374.05	-76.77
374.261	-64
374.472	-82.31
374.682	-31.82
374.893	-12.42
375.103	33.86
375.314	29.13
375.524	21.56
375.735	18.29
375.945	13.83
376.156	-20.56
376.366	-23.34
376.577	-19.26
376.787	-32.38
376.997	-36.33
377.208	-31.5
377.418	-37.71
377.629	-28.7
377.839	-18.36
378.049	-14.05
378.26	-1.3
378.47	16.23
378.68	7.87
378.89	-5.63
379.101	-8.43
379.311	-36.29
379.521	-78.07
379.732	-75.85
379.942	-51.88
380.152	-67.45
380.362	-31.77
380.572	-22.97
380.783	-22.59
380.993	-16.45
381.203	-12.11
381.413	-16.99
381.623	-7.78
381.833	3.36
382.043	-11.56
382.253	-17.49
382.463	-8.74
382.674	-25.98
382.884	-42.28
383.094	-36.5
383.304	-20.95
383.514	-19.39
383.724	-5.89
383.934	-10.22
384.144	-16.29
384.353	-27.82
384.563	-28.15
384.773	-20.58
384.983	-19.19
385.193	0.19
385.403	8.09
385.613	7.61
385.823	-4.14
386.033	5.61
386.242	-6.88
386.452	-12.77
386.662	-21.73
386.872	-9.47
387.082	-14.49
387.291	-21.82
387.501	-23.41
387.711	-13.21
387.921	-20.35
388.13	-23.38
388.34	-9.86
388.55	-12.8
388.759	-16.13
388.969	-6.51
389.179	-6.52
389.388	-10.15
389.598	-0.94
389.807	-3.69
390.017	-13.88
390.227	-11.37
390.436	-10.53
390.646	-9.55
390.855	-10.09
391.065	-7.45
391.274	-9.73
391.484	-10.16
391.693	-11.47
391.903	-6.64
392.112	-2.94
392.322	1.33
392.531	4.48
392.74	3.92
392.95	-0.5
393.159	-1.83
393.369	-2.86
393.578	-3.22
393.787	-3.01
393.997	-2.31
394.206	-3.14
394.415	-2.95
394.625	-3.6
394.834	-4.93
395.043	-2.87
395.252	-0.36
395.462	2.13
395.671	3.22
395.88	4.67
396.089	5.11
396.298	2.78
396.508	1.21
396.717	0.6
396.926	0.62
397.135	-0.51
397.344	0.34
397.553	1.57
397.762	2.18
397.971	2.02
398.181	2.6
398.39	1.88
398.599	0.92
398.808	0.96
399.017	2.18
399.226	3.06
399.435	4.52
399.644	4.99
399.853	4.07
400.062	3.29
400.27	2.87
400.479	2.18
400.688	1.55
400.897	2.14
401.106	2.31
401.315	2.06
401.524	1.96
401.733	2.31
401.941	2.69
402.15	2.75
402.359	2.77
402.568	3.43
402.777	3.54
402.985	3.28
403.194	3.09
403.403	3.08
403.612	2.32
403.82	2.36
404.029	2.64
404.238	2.59
404.446	2.83
404.655	2.76
404.864	2.65
405.072	2.37
405.281	2.7
405.489	2.43
405.698	2.54
405.906	2.54
406.115	2.4
406.324	2.28
406.532	2.48
406.741	2.71
406.949	2.73
407.158	2.86
407.366	2.88
407.574	2.89
407.783	2.77
407.991	2.54
408.2	2.6
408.408	2.49
408.617	2.44
408.825	2.31
409.033	2.47
409.242	2.58
409.45	2.73
409.658	2.55
409.867	2.65
410.075	2.61
410.283	2.44
410.491	2.31
410.7	2.41
410.908	2.55
411.116	2.83
411.324	2.82
411.533	2.81
411.741	3.03
411.949	2.9
412.157	2.61
412.365	2.62
412.573	2.57
412.781	2.45
412.99	2.44
413.198	2.55
413.406	2.61
413.614	2.6
413.822	2.44
414.03	2.38
414.238	2.16
414.446	2.2
414.654	2.06
414.862	2.11
415.07	2.23
415.278	2.49
415.486	2.23
415.694	2.42
415.902	2.27
416.109	2.22
416.317	2.23
416.525	2.22
416.733	2.13
416.941	2.41
417.149	2.25
417.357	2.21
417.564	2.31
417.772	2.51
417.98	2.36
418.188	2.47
418.395	2.41
418.603	2.59
418.811	2.27
419.019	2.2
419.226	2.46
419.434	2.5
419.642	2.26
419.849	2.43
420.057	2.54
420.265	2.33
420.472	2.16
420.68	2.16
420.887	2.11
421.095	2.09
421.302	2.07
421.51	2.3
421.717	2.5
421.925	2.52
422.132	2.46
422.34	2.21
422.547	2.09
422.755	1.87
422.962	1.81
423.17	1.67
423.377	1.83
423.585	1.86
423.792	1.89
423.999	1.87
424.207	2.05
424.414	2.09
424.621	2.1
424.829	1.92
425.036	1.88
425.243	1.91
425.451	1.86
425.658	1.64
425.865	1.96
426.072	2.01
426.28	2.02
426.487	2.06
426.694	2.26
426.901	2.1
427.108	2.15
427.315	2.02
427.523	2.22
427.73	2.17
427.937	2.11
428.144	1.94
428.351	2
428.558	1.97
428.765	1.91
428.972	1.9
429.179	2.06
429.386	2.26
429.593	2.08
429.8	2.13
430.007	2.38
430.214	2.45
430.421	2.21
430.628	2.17
430.835	1.99
431.042	2
431.249	2.02
431.456	1.99
431.662	2
431.869	2.19
432.076	2.18
432.283	2.29
432.49	2.42
432.697	2.46
432.903	2.34
433.11	2.28
433.317	2.3
433.524	2.49
433.73	2.47
433.937	2.7
434.144	2.64
434.35	2.57
434.557	2.41
434.764	2.42
434.97	2.32
435.177	2.49
435.384	2.45
435.59	2.46
435.797	2.65
436.003	2.69
436.21	2.69
436.416	2.77
436.623	2.79
436.829	2.81
437.036	2.92
437.242	2.86
437.449	2.76
437.655	2.84
437.862	2.78
438.068	2.61
438.275	2.79
438.481	3.07
438.687	3
438.894	3.01
439.1	3.16
439.307	3.18
439.513	3.07
439.719	3.03
439.926	3.02
440.132	2.91
440.338	2.81
440.544	2.86
440.751	2.88
440.957	2.96
441.163	2.98
441.369	3.02
441.575	2.83
441.782	2.92
441.988	2.84
442.194	2.87
442.4	2.9
442.606	3.2
442.812	3.31
443.018	3.41
443.224	3.47
443.431	3.55
443.637	3.33
443.843	3.18
444.049	3.16
444.255	3.12
444.461	3.12
444.667	3.16
444.873	3.31
445.079	3.35
445.284	3.42
445.49	3.21
445.696	3.12
445.902	2.97
446.108	2.91
446.314	2.88
446.52	2.99
446.726	3.18
446.931	3.17
447.137	3.24
447.343	3.33
447.549	3.23
447.755	3.13
447.96	3.25
448.166	3.22
448.372	3.07
448.578	3.16
448.783	3.17
448.989	3.15
449.195	3.31
449.4	3.4
449.606	3.39
449.812	3.3
450.017	3.46
450.223	3.37
450.428	3.3
450.634	3.45
450.84	3.59
451.045	3.45
451.251	3.35
451.456	3.58
451.662	3.61
451.867	3.63
452.073	3.68
452.278	3.9
452.483	3.92
452.689	3.81
452.894	3.92
453.1	3.88
453.305	3.67
453.51	3.61
453.716	3.54
453.921	3.47
454.127	3.41
454.332	3.41
454.537	3.28
454.742	3.34
454.948	3.33
455.153	3.42
455.358	3.55
455.563	3.77
455.769	3.87
455.974	3.87
456.179	3.79
456.384	3.76
456.589	3.65
456.795	3.45
457	3.4
457.205	3.58
457.41	3.51
457.615	3.45
457.82	3.65
