Data from Ofra_PS_T2_1A_2CX08_Reflection_3.txt Node
Date: Wed Jul 21 17:53:40 EDT 2021
User: Adam
Spectrometer: FLMT01687
Trigger mode: 0
Integration Time (sec): 1.100000E0
Scans to average: 2
Electric dark correction enabled: true
Nonlinearity correction enabled: false
Boxcar width: 2
XAxis mode: Wavelengths
Number of Pixels in Spectrum: 3648
>>>>>Begin Spectral Data<<<<<
179.494	507.6
179.716	569.65
179.937	583.97
180.158	583.12
180.38	970.31
180.601	450
180.823	152.3
181.044	-63.27
181.265	20.96
181.486	14.88
181.708	62.01
181.929	272.45
182.15	-251.41
182.372	99.83
182.593	-6.79
182.814	14.2
183.035	33.65
183.257	45.07
183.478	-22.02
183.699	44.9
183.92	36.79
184.141	54.14
184.363	7.09
184.584	56.59
184.805	45.43
185.026	66.5
185.247	55.1
185.468	41.19
185.689	31.45
185.91	50.79
186.132	44.26
186.353	52.41
186.574	114.59
186.795	85.22
187.016	15.44
187.237	33.22
187.458	1.02
187.679	9.05
187.9	30.22
188.121	66.87
188.342	75.61
188.563	98.29
188.784	116.75
189.005	120.04
189.226	149.15
189.447	132.99
189.667	117.23
189.888	-142.61
190.109	-843.51
190.33	-703.55
190.551	-1206.64
190.772	-243.7
190.993	-159.31
191.214	-115.61
191.434	-11.66
191.655	49.14
191.876	30.64
192.097	-52.19
192.318	-122.03
192.538	-256.45
192.759	-172.15
192.98	-69.98
193.201	-23.39
193.421	13.87
193.642	26.55
193.863	33.69
194.083	7.31
194.304	5.15
194.525	-12.92
194.745	-0.49
194.966	-44.34
195.187	-30.58
195.407	-50.6
195.628	-52.51
195.848	-93.59
196.069	-24.5
196.29	27.55
196.51	-13.85
196.731	-10.07
196.951	-3.47
197.172	-53.36
197.392	-99.57
197.613	-45.15
197.833	-80.87
198.054	-82.72
198.274	-27.65
198.495	-35.27
198.715	-19.35
198.936	-27.16
199.156	2.54
199.377	-71.11
199.597	-115.55
199.817	-127.56
200.038	-59.17
200.258	-112.65
200.479	-54.09
200.699	-1.33
200.919	69.01
201.14	19.23
201.36	4.66
201.58	33.99
201.801	59.7
202.021	21.74
202.241	29.98
202.461	24.39
202.682	-37.81
202.902	-87.57
203.122	-38.76
203.342	-28.11
203.563	3.44
203.783	42.64
204.003	-2.87
204.223	-12.31
204.443	42.28
204.663	37.66
204.884	26.76
205.104	83.32
205.324	116.05
205.544	103.12
205.764	79.55
205.984	78.64
206.204	71.13
206.424	55.32
206.644	26.09
206.864	55.33
207.084	37.17
207.304	64.36
207.525	-24.84
207.745	15.48
207.964	9.83
208.184	-26.35
208.404	-79.23
208.624	-55.81
208.844	-62.96
209.064	-341.82
209.284	-364.12
209.504	-145.5
209.724	-28.11
209.944	-6.36
210.164	42.43
210.384	57.91
210.604	55.1
210.823	15.55
211.043	1.9
211.263	4.44
211.483	-4.6
211.703	-52.99
211.922	-15.54
212.142	58.07
212.362	87.59
212.582	63.98
212.801	61.71
213.021	22.34
213.241	-7.61
213.461	-49.92
213.68	-64.59
213.9	-39.52
214.12	-14.79
214.339	-77.68
214.559	-46.44
214.779	-3.45
214.998	12.9
215.218	17.38
215.438	36.25
215.657	36.46
215.877	25.3
216.096	11.79
216.316	11.78
216.535	10.43
216.755	-1.48
216.974	-54.64
217.194	-94.62
217.413	-85.24
217.633	-91.38
217.852	-105.66
218.072	-29.94
218.291	8.53
218.511	32.22
218.73	15.83
218.95	5.01
219.169	0.72
219.389	-24.56
219.608	-22.23
219.827	-6.07
220.047	14.53
220.266	10.59
220.485	8.78
220.705	18.5
220.924	-14.42
221.143	10.24
221.363	-11.94
221.582	9.27
221.801	8.46
222.021	37.08
222.24	-11.52
222.459	72.03
222.678	27.25
222.897	-34.89
223.117	-75.38
223.336	-42.96
223.555	-33.91
223.774	26.54
223.993	57.02
224.213	118.27
224.432	96.31
224.651	105.48
224.87	70.73
225.089	71.6
225.308	54.76
225.527	60.13
225.746	44.58
225.965	35.47
226.184	16.8
226.404	39.19
226.623	21.33
226.842	18.17
227.061	40.03
227.28	48.41
227.499	40.32
227.718	49.07
227.936	67.88
228.155	82.25
228.374	66.31
228.593	56.63
228.812	62.46
229.031	54.42
229.25	-11.41
229.469	2.02
229.688	-1.05
229.907	48.32
230.125	47.16
230.344	70.03
230.563	79.02
230.782	97.77
231.001	12.67
231.22	-4.55
231.438	11.23
231.657	-4.61
231.876	-28.9
232.095	35.58
232.313	52.49
232.532	48.93
232.751	37.96
232.969	21
233.188	-31.3
233.407	15.87
233.625	15.96
233.844	7.79
234.063	1.79
234.281	13.35
234.5	4.14
234.719	8.04
234.937	26.87
235.156	40.28
235.374	45.54
235.593	30.25
235.811	19.65
236.03	-2.13
236.249	-32.45
236.467	-22.78
236.686	4.96
236.904	21.93
237.123	4.34
237.341	-0.37
237.559	-6.88
237.778	-22.64
237.996	-55.75
238.215	-10.41
238.433	3.33
238.652	1.78
238.87	-17.07
239.088	8.61
239.307	5.5
239.525	-8.44
239.743	-32.02
239.962	-15.13
240.18	-33.97
240.398	-66.59
240.617	-60.75
240.835	-22.91
241.053	4.15
241.271	56.83
241.49	70.59
241.708	87.51
241.926	98.4
242.144	78.54
242.363	3.59
242.581	-13.98
242.799	15.83
243.017	32.79
243.235	10.16
243.453	20.83
243.672	11.87
243.89	-6.79
244.108	-27.34
244.326	-10.09
244.544	-16.32
244.762	-8.28
244.98	8.02
245.198	27.51
245.416	-6.41
245.634	-3.86
245.852	-4.68
246.07	-7
246.288	-14.23
246.506	-23.93
246.724	-4.62
246.942	1.34
247.16	5.63
247.378	-0.78
247.596	37.21
247.814	17.96
248.032	-7.95
248.25	17.47
248.468	25.87
248.685	37.71
248.903	72.11
249.121	76.7
249.339	50.03
249.557	48.94
249.775	39.97
249.992	-12.64
250.21	-11.85
250.428	-16.25
250.646	-26.2
250.863	-40.73
251.081	-8.94
251.299	6.14
251.517	45.97
251.734	32.4
251.952	13.34
252.17	3.25
252.387	22.68
252.605	4.72
252.823	4.44
253.04	31.98
253.258	54.25
253.475	43.7
253.693	58.24
253.911	64.78
254.128	58.58
254.346	67.22
254.563	33.51
254.781	23.25
254.998	-5.26
255.216	-10.87
255.433	-5.81
255.651	62.21
255.868	98.23
256.086	126.71
256.303	117.91
256.521	79.23
256.738	41.35
256.956	-6.32
257.173	-50.04
257.39	-70.63
257.608	-105.13
257.825	-38.78
258.043	0.84
258.26	28.16
258.477	72.32
258.695	75.98
258.912	28.71
259.129	30.57
259.346	-4.67
259.564	-58.22
259.781	-56.11
259.998	-6.52
260.216	12.05
260.433	36.45
260.65	44.87
260.867	46.43
261.084	11.15
261.302	-10.41
261.519	-22.11
261.736	-57.79
261.953	-68.15
262.17	-24.8
262.387	-47.11
262.604	-63.49
262.822	-42.76
263.039	-27.99
263.256	-72.56
263.473	-34.53
263.69	-18.47
263.907	20.77
264.124	43.63
264.341	48.34
264.558	36.47
264.775	47.9
264.992	40.17
265.209	17.49
265.426	39.26
265.643	41.32
265.86	59.98
266.077	46.15
266.294	32.68
266.51	-17.07
266.727	-30.58
266.944	-33
267.161	-14.99
267.378	11.24
267.595	51.84
267.812	29.18
268.028	22.23
268.245	47.46
268.462	12.64
268.679	-6.95
268.896	54.87
269.112	52.44
269.329	33.32
269.546	40.19
269.763	30.62
269.979	0.09
270.196	2.13
270.413	-18.61
270.629	-52.04
270.846	-59.16
271.063	-51.57
271.279	-89.59
271.496	-86.71
271.712	-31.96
271.929	-9.93
272.146	-10.78
272.362	20.59
272.579	67.76
272.795	76.69
273.012	67.47
273.228	67.81
273.445	33.08
273.661	4.8
273.878	-65.12
274.094	-45.82
274.311	-79.03
274.527	9.16
274.744	1.43
274.96	16.61
275.177	13.79
275.393	41.91
275.609	23.01
275.826	53.28
276.042	32.47
276.259	24.62
276.475	27.73
276.691	41.66
276.908	12.74
277.124	36.32
277.34	36.2
277.557	31.35
277.773	10.19
277.989	12.23
278.205	13.41
278.422	35.47
278.638	28.43
278.854	56.28
279.07	60.57
279.286	42.87
279.503	-4.02
279.719	-13.31
279.935	-54.47
280.151	-62.52
280.367	-23.34
280.583	-19.9
280.799	-15.13
281.016	-26.04
281.232	-2.14
281.448	-1.75
281.664	30
281.88	19.85
282.096	39.6
282.312	80.31
282.528	83.94
282.744	90.93
282.96	85.19
283.176	53.88
283.392	25.13
283.608	27.56
283.824	6.85
284.04	16.63
284.256	31.82
284.471	18.5
284.687	3.86
284.903	28.71
285.119	42.89
285.335	14.16
285.551	35.46
285.767	16.2
285.982	-1.11
286.198	-33.97
286.414	36.89
286.63	39.21
286.846	58.3
287.061	41.94
287.277	66.01
287.493	22.74
287.709	37.44
287.924	26.31
288.14	51.01
288.356	50.91
288.571	74.6
288.787	47.16
289.003	44.76
289.218	34.11
289.434	-11.87
289.65	-11.85
289.865	-13.35
290.081	16.37
290.296	7.62
290.512	30.35
290.727	6.34
290.943	-9.94
291.159	-31.83
291.374	-23.49
291.59	-44.81
291.805	-27.46
292.021	-4.02
292.236	10.06
292.451	17.97
292.667	23.59
292.882	35.45
293.098	33.51
293.313	3.6
293.529	-10.15
293.744	-19.62
293.959	-38.8
294.175	-34.82
294.39	17.97
294.605	25.22
294.821	48.45
295.036	58.75
295.251	70.05
295.467	28.05
295.682	37.04
295.897	-5.06
296.112	-8.49
296.328	-8.84
296.543	-4.41
296.758	12.54
296.973	48.37
297.188	56.01
297.404	32.43
297.619	22.86
297.834	-16.35
298.049	-48.99
298.264	-68.86
298.479	-17.68
298.694	-2.56
298.909	25.34
299.125	32.25
299.34	41.29
299.555	5.7
299.77	15.39
299.985	-27.91
300.2	-77.62
300.415	-91.73
300.63	-28.28
300.845	-39.28
301.06	-34.17
301.275	20.21
301.49	49.52
301.704	25.05
301.919	17.76
302.134	17.91
302.349	5.59
302.564	-63.53
302.779	-57.4
302.994	-43.97
303.209	-17.92
303.423	5.7
303.638	60.54
303.853	27.86
304.068	21.77
304.283	15.96
304.497	12.45
304.712	-9.24
304.927	-1.82
305.142	-0.62
305.356	1.78
305.571	-3.32
305.786	-13.88
306	-23.56
306.215	-24.74
306.43	-44.88
306.644	-41.61
306.859	18.88
307.074	38.43
307.288	10.69
307.503	31.28
307.717	15.47
307.932	16.41
308.147	4.47
308.361	35.13
308.576	16.1
308.79	-10.95
309.005	-20.74
309.219	-5.65
309.434	-15.91
309.648	-10.02
309.863	6.69
310.077	11.01
310.292	1.53
310.506	6.48
310.72	18.7
310.935	20.48
311.149	15.51
311.364	39.58
311.578	53.13
311.792	49.24
312.007	67.08
312.221	51.92
312.435	54.67
312.649	29.43
312.864	80.12
313.078	66.75
313.292	125.8
313.507	87.07
313.721	132.9
313.935	53.86
314.149	54.73
314.363	40.07
314.578	47.91
314.792	49.26
315.006	30.16
315.22	37.25
315.434	45.12
315.648	45.32
315.862	45.75
316.077	55.36
316.291	54.83
316.505	73.06
316.719	96.37
316.933	51.71
317.147	51
317.361	-28.43
317.575	-90.82
317.789	-116.21
318.003	-160.7
318.217	-114.86
318.431	1.39
318.645	65.06
318.859	44.46
319.073	68.57
319.287	44.95
319.5	12.51
319.714	-39.28
319.928	-70.1
320.142	-106.58
320.356	-18.02
320.57	29.25
320.784	2.95
320.997	33.2
321.211	36.05
321.425	-56.67
321.639	-100.22
321.853	-17.86
322.066	-15.13
322.28	-19.27
322.494	-4.98
322.707	19.18
322.921	4.1
323.135	8.26
323.349	27.73
323.562	-8.17
323.776	-21.19
323.989	-21.71
324.203	-39.93
324.417	-63.02
324.63	-66.12
324.844	-73.15
325.057	-65.63
325.271	-27.83
325.485	4.37
325.698	46.71
325.912	64.2
326.125	41.66
326.339	25.96
326.552	2.48
326.766	-16.91
326.979	-7.65
327.193	33.53
327.406	14.11
327.619	18.28
327.833	42.76
328.046	14.9
328.26	-29.23
328.473	9.97
328.686	-14.56
328.9	-15.42
329.113	-0.5
329.326	-5.59
329.54	-1.72
329.753	-5.48
329.966	-55.27
330.179	-37.4
330.393	-16.48
330.606	-11.34
330.819	10.02
331.032	35.18
331.246	37.34
331.459	62.93
331.672	50.6
331.885	29.24
332.098	-12.39
332.311	-24.83
332.525	-75
332.738	-31.92
332.951	29.76
333.164	58.02
333.377	73.45
333.59	92.71
333.803	74.7
334.016	55.69
334.229	41.02
334.442	37.01
334.655	42.02
334.868	49.83
335.081	45.37
335.294	42.04
335.507	18.27
335.72	1.34
335.933	-10.16
336.146	-5.42
336.359	7.91
336.572	-10.07
336.785	-31.72
336.997	-18.09
337.21	-8.82
337.423	-22.4
337.636	-3.6
337.849	22.47
338.062	13.88
338.274	30.4
338.487	29.57
338.7	31.31
338.913	-14.89
339.125	-41.52
339.338	-99.95
339.551	-59.24
339.763	-22.12
339.976	10.14
340.189	41.05
340.402	55.73
340.614	49.68
340.827	30.13
341.039	19.32
341.252	18.08
341.465	33.17
341.677	22
341.89	-17.94
342.102	8.25
342.315	-19.54
342.527	-65.97
342.74	-55.45
342.952	-5.16
343.165	-1.44
343.377	30.48
343.59	23.31
343.802	41.51
344.015	44.01
344.227	39.74
344.44	39.5
344.652	43.17
344.864	30.87
345.077	37.74
345.289	41.24
345.502	38.53
345.714	31.26
345.926	29.94
346.139	23.57
346.351	38.95
346.563	29.62
346.775	43.42
346.988	33.28
347.2	5.45
347.412	-48.63
347.624	-43.49
347.837	-68.18
348.049	-27.93
348.261	24.3
348.473	37.55
348.685	34.03
348.897	25.06
349.11	7.11
349.322	8.42
349.534	10.21
349.746	16.31
349.958	20.57
350.17	14.28
350.382	8.74
350.594	-0.09
350.806	-5.19
351.018	4.87
351.23	-14.22
351.442	-71.54
351.654	-64.71
351.866	-74.18
352.078	-60.64
352.29	-29.63
352.502	6.28
352.714	15.82
352.926	6.19
353.138	-4.91
353.35	-6.51
353.561	-9.32
353.773	-28.56
353.985	-9.86
354.197	-5.78
354.409	-5.11
354.621	-9.44
354.832	1.79
355.044	-3.63
355.256	0.21
355.468	11.35
355.679	18.53
355.891	33.08
356.103	20.72
356.314	26.26
356.526	28.55
356.738	21.76
356.949	5.13
357.161	31.9
357.373	16.51
357.584	5.4
357.796	10.71
358.008	8.44
358.219	27.38
358.431	24.88
358.642	32.37
358.854	29.1
359.065	19.23
359.277	-20.71
359.488	-33.94
359.7	-66.55
359.911	-72.83
360.123	-49.4
360.334	-53.54
360.546	-62.09
360.757	-46.36
360.969	-44.44
361.18	-43.87
361.391	-27.86
361.603	-38.89
361.814	-28.92
362.025	-17.08
362.237	-14.91
362.448	2.82
362.659	26.38
362.871	24.22
363.082	17.32
363.293	24.23
363.504	10.51
363.716	-9.99
363.927	-16.94
364.138	-41.5
364.349	-60.61
364.56	-55.66
364.772	-37.86
364.983	-9.56
365.194	-0.19
365.405	14.99
365.616	43.69
365.827	41.08
366.038	19.18
366.25	8.22
366.461	-23.79
366.672	-26.72
366.883	-1.27
367.094	11.99
367.305	16.39
367.516	32.71
367.727	1.03
367.938	-15.32
368.149	-23.5
368.36	-14.22
368.571	-16.44
368.781	-25.96
368.992	-38.77
369.203	-56.94
369.414	-87.53
369.625	-91.54
369.836	-69.13
370.047	-89.31
370.258	-58.23
370.468	-47.57
370.679	-68.45
370.89	-60.07
371.101	-26
371.312	-28.37
371.522	-11.9
371.733	-1.44
371.944	12.66
372.155	18.34
372.365	-2.91
372.576	-10.32
372.787	-5.06
372.997	-27.29
373.208	-26.75
373.419	-1.2
373.629	-23.72
373.84	-20.76
374.05	-30.27
374.261	-27.97
374.472	-34.25
374.682	14.86
374.893	15.59
375.103	42.14
375.314	32.37
375.524	36.29
375.735	37.19
375.945	39.18
376.156	15.78
376.366	20.91
376.577	17.53
376.787	-1.8
376.997	5.6
377.208	11.26
377.418	-3.08
377.629	3.61
377.839	6.11
378.049	-3.34
378.26	16.74
378.47	32.36
378.68	23.99
378.89	21.46
379.101	14.24
379.311	-16.53
379.521	-44.22
379.732	-49.63
379.942	-44.82
380.152	-55.13
380.362	-20.4
380.572	-20.95
380.783	-1.8
380.993	7.47
381.203	28.59
381.413	42.88
381.623	54.19
381.833	42.27
382.043	28.98
382.253	14.86
382.463	-1.34
382.674	-11.8
382.884	-28.8
383.094	-22.96
383.304	-16.08
383.514	-11.44
383.724	2.53
383.934	-6.27
384.144	-16.45
384.353	-22.25
384.563	-21.38
384.773	-18.82
384.983	-13.15
385.193	3.48
385.403	8.87
385.613	8.16
385.823	-7.98
386.033	-1.49
386.242	-10.46
386.452	-12.26
386.662	-19.39
386.872	-2.29
387.082	-6.61
387.291	-10.59
387.501	-11.23
387.711	-8.15
387.921	-11.88
388.13	-9.47
388.34	7.07
388.55	1.76
388.759	-0.03
388.969	2.45
389.179	-4.38
389.388	-11.76
389.598	-5.52
389.807	-11.25
390.017	-15.41
390.227	-9.24
390.436	-11.42
390.646	-9.15
390.855	-0.06
391.065	1.44
391.274	1.98
391.484	0.26
391.693	-0.25
391.903	0.14
392.112	5.79
392.322	6.86
392.531	11.03
392.74	10.42
392.95	4.9
393.159	0.76
393.369	0.73
393.578	-0.47
393.787	-1.63
393.997	0.68
394.206	-0.96
394.415	-0.04
394.625	0.19
394.834	-0.6
395.043	0.31
395.252	3.21
395.462	4.13
395.671	5.92
395.88	6.55
396.089	7.11
396.298	4.58
396.508	3.28
396.717	1.91
396.926	2.52
397.135	1.78
397.344	2.28
397.553	3.64
397.762	5.18
397.971	4.91
398.181	4.84
398.39	4.43
398.599	3.53
398.808	3.08
399.017	3.97
399.226	5.14
399.435	6.21
399.644	6.12
399.853	5.02
400.062	4.37
400.27	3.61
400.479	2.84
400.688	2.71
400.897	3.25
401.106	3.11
401.315	3
401.524	3.13
401.733	3.74
401.941	4.07
402.15	4.37
402.359	4.1
402.568	4.49
402.777	4.36
402.985	3.97
403.194	3.71
403.403	3.95
403.612	3.42
403.82	3.12
404.029	3.34
404.238	3.16
404.446	3.32
404.655	3.16
404.864	3.04
405.072	2.73
405.281	3.16
405.489	2.77
405.698	2.79
405.906	2.71
406.115	2.87
406.324	2.57
406.532	2.81
406.741	3.14
406.949	3.08
407.158	2.96
407.366	3.09
407.574	2.98
407.783	3
407.991	2.94
408.2	3.11
408.408	3.09
408.617	3.03
408.825	2.79
409.033	2.9
409.242	2.9
409.45	2.9
409.658	2.82
409.867	3.02
410.075	2.98
410.283	2.76
410.491	2.65
410.7	2.54
410.908	2.49
411.116	2.82
411.324	2.92
411.533	2.84
411.741	3.1
411.949	3.03
412.157	2.65
412.365	2.7
412.573	2.84
412.781	2.9
412.99	2.84
413.198	3.01
413.406	3.01
413.614	2.95
413.822	2.68
414.03	2.65
414.238	2.43
414.446	2.5
414.654	2.32
414.862	2.53
415.07	2.64
415.278	2.88
415.486	2.61
415.694	2.87
415.902	2.67
416.109	2.66
416.317	2.62
416.525	2.49
416.733	2.32
416.941	2.59
417.149	2.45
417.357	2.52
417.564	2.7
417.772	2.95
417.98	2.74
418.188	2.74
418.395	2.81
418.603	3
418.811	2.62
419.019	2.56
419.226	2.79
419.434	2.81
419.642	2.54
419.849	2.73
420.057	2.81
420.265	2.74
420.472	2.3
420.68	2.34
420.887	2.14
421.095	2.19
421.302	2.02
421.51	2.49
421.717	2.65
421.925	2.86
422.132	2.68
422.34	2.51
422.547	2.35
422.755	2.19
422.962	2.03
423.17	2.03
423.377	2.25
423.585	2.21
423.792	2.12
423.999	2.23
424.207	2.24
424.414	2.31
424.621	2.23
424.829	2.27
425.036	2.3
425.243	2.47
425.451	2.29
425.658	2.2
425.865	2.57
426.072	2.56
426.28	2.64
426.487	2.66
426.694	2.8
426.901	2.4
427.108	2.35
427.315	2.21
427.523	2.49
427.73	2.52
427.937	2.52
428.144	2.39
428.351	2.4
428.558	2.47
428.765	2.38
428.972	2.39
429.179	2.57
429.386	2.78
429.593	2.42
429.8	2.4
430.007	2.61
430.214	2.62
430.421	2.38
430.628	2.32
430.835	2.08
431.042	2.18
431.249	2.2
431.456	2.24
431.662	2.4
431.869	2.82
432.076	2.85
432.283	2.97
432.49	3.04
432.697	3.01
432.903	2.74
433.11	2.46
433.317	2.38
433.524	2.57
433.73	2.55
433.937	2.81
434.144	2.79
434.35	2.74
434.557	2.47
434.764	2.42
434.97	2.25
435.177	2.51
435.384	2.54
435.59	2.58
435.797	2.81
436.003	2.84
436.21	2.74
436.416	2.82
436.623	2.86
436.829	2.93
437.036	3.06
437.242	3
437.449	2.82
437.655	2.88
437.862	2.79
438.068	2.62
438.275	2.77
438.481	3
438.687	2.95
438.894	2.89
439.1	3.01
439.307	3.16
439.513	3.06
439.719	3.06
439.926	3.18
440.132	3.07
440.338	2.86
440.544	2.98
440.751	2.99
440.957	3.05
441.163	3.06
441.369	3.15
441.575	2.92
441.782	2.87
441.988	2.66
442.194	2.7
442.4	2.69
442.606	2.96
442.812	3.07
443.018	3.2
443.224	3.24
443.431	3.35
443.637	3.15
443.843	3.06
444.049	3.09
444.255	3.12
444.461	3.09
444.667	3.1
444.873	3.2
445.079	3.16
445.284	3.11
445.49	2.89
445.696	2.76
445.902	2.63
446.108	2.59
446.314	2.56
446.52	2.67
446.726	3.01
446.931	3.09
447.137	3.17
447.343	3.25
447.549	3.2
447.755	2.99
447.96	2.96
448.166	2.88
448.372	2.8
448.578	2.82
448.783	2.9
448.989	3.07
449.195	3.29
449.4	3.42
449.606	3.42
449.812	3.33
450.017	3.26
450.223	3.07
450.428	2.93
450.634	3.06
450.84	3.23
451.045	3.2
451.251	3.14
451.456	3.45
451.662	3.52
451.867	3.51
452.073	3.51
452.278	3.63
452.483	3.69
452.689	3.54
452.894	3.59
453.1	3.58
453.305	3.54
453.51	3.29
453.716	3.24
453.921	3.2
454.127	3.21
454.332	3.14
454.537	3.13
454.742	3.12
454.948	3.14
455.153	3.12
455.358	3.29
455.563	3.47
455.769	3.68
455.974	3.68
456.179	3.7
456.384	3.67
456.589	3.62
456.795	3.39
457	3.34
457.205	3.65
457.41	3.54
457.615	3.52
457.82	3.7
458.025	3.75
458.23	3.45
458.435	3.56
458.64	3.5
458.845	3.64
459.05	3.59
459.255	3.74
459.46	3.77
459.665	3.84
459.87	3.82
460.075	3.87
460.28	3.86
460.485	3.98
460.69	4.04
460.895	3.89
461.099	3.94
461.304	4.03
461.509	4.01
461.714	3.88
461.919	3.97
462.123	3.92
462.328	4.01
462.533	3.94
462.738	4.2
462.942	4.19
463.147	4.34
463.352	4.37
463.556	4.45
463.761	4.45
463.966	4.48
