Data from Ofra_1a_PS_8HS21_Reflection_3.txt Node
Date: Tue Jul 20 11:02:07 EDT 2021
User: Adam
Spectrometer: FLMT01687
Trigger mode: 0
Integration Time (sec): 1.004000E0
Scans to average: 2
Electric dark correction enabled: true
Nonlinearity correction enabled: false
Boxcar width: 2
XAxis mode: Wavelengths
Number of Pixels in Spectrum: 3648
>>>>>Begin Spectral Data<<<<<
179.494	-476.65
179.716	-549.62
179.937	1116.72
180.158	-1331.85
180.38	245.37
180.601	175.69
180.823	114.35
181.044	97.02
181.265	12.17
181.486	236.49
181.708	214.72
181.929	-5427.27
182.15	30.04
182.372	119.7
182.593	154.6
182.814	-14.77
183.035	38.39
183.257	78.68
183.478	31.65
183.699	18.16
183.92	-38.77
184.141	-66.15
184.363	-61.25
184.584	-51.94
184.805	-24.59
185.026	4.94
185.247	9.23
185.468	-31.41
185.689	-32.49
185.91	-63.14
186.132	-16.97
186.353	-8.89
186.574	1.63
186.795	3.45
187.016	20.56
187.237	4.73
187.458	-13.51
187.679	-30.77
187.9	10.63
188.121	-6.21
188.342	16.73
188.563	53.39
188.784	71.52
189.005	29.66
189.226	23.37
189.447	12.82
189.667	0.33
189.888	-17.8
190.109	-30.71
190.33	2.06
190.551	-8.81
190.772	2.53
190.993	-1.32
191.214	5.6
191.434	-9.31
191.655	-26.9
191.876	1.6
192.097	41.35
192.318	52.23
192.538	3.07
192.759	9.24
192.98	25.8
193.201	17.57
193.421	5
193.642	38.64
193.863	60.91
194.083	20.61
194.304	-0.88
194.525	10.31
194.745	-15.83
194.966	-28.72
195.187	-15.74
195.407	-24.94
195.628	-7.2
195.848	-0.25
196.069	7.76
196.29	19.64
196.51	7.22
196.731	-3.21
196.951	-17.14
197.172	-23.7
197.392	-36.4
197.613	15.2
197.833	-5.07
198.054	2.58
198.274	-2.67
198.495	-0.71
198.715	-36.83
198.936	-6.07
199.156	5.66
199.377	13.9
199.597	29.77
199.817	42.79
200.038	32.49
200.258	25.54
200.479	46.01
200.699	26.45
200.919	1.7
201.14	3.82
201.36	-27.39
201.58	-68.09
201.801	-67.77
202.021	-53.27
202.241	-52.78
202.461	-14.52
202.682	-1.1
202.902	-7.18
203.122	0.8
203.342	2.3
203.563	-1.06
203.783	-14.4
204.003	-20.8
204.223	7.2
204.443	19.55
204.663	10.42
204.884	34.79
205.104	37.49
205.324	1.04
205.544	-57.55
205.764	-14.5
205.984	-22.68
206.204	-21.47
206.424	-30.6
206.644	-12.43
206.864	-39.87
207.084	-0.27
207.304	10.65
207.525	3.35
207.745	25.05
207.964	35.45
208.184	32.73
208.404	21.15
208.624	25.13
208.844	12.39
209.064	7.12
209.284	-1.56
209.504	-2.41
209.724	10.09
209.944	8.57
210.164	-2.92
210.384	-18.41
210.604	-76.24
210.823	-126.8
211.043	-89.2
211.263	-150.31
211.483	-74.62
211.703	-38.42
211.922	-38.74
212.142	-35.85
212.362	-20.89
212.582	-18.15
212.801	-6.64
213.021	19.07
213.241	4.63
213.461	32.18
213.68	15.76
213.9	0.47
214.12	-12.86
214.339	-16.71
214.559	-44.58
214.779	-40.4
214.998	-14.06
215.218	13.8
215.438	18.47
215.657	23
215.877	22.58
216.096	3.65
216.316	-5.64
216.535	-3.39
216.755	1.21
216.974	-10.01
217.194	-11.7
217.413	-12.63
217.633	-33.09
217.852	-26.49
218.072	-2.19
218.291	4.62
218.511	-10.05
218.73	-5.82
218.95	-17.21
219.169	-46.93
219.389	-22.31
219.608	-22.31
219.827	-10.09
220.047	6.18
220.266	-15.22
220.485	-47.61
220.705	-5.78
220.924	-0.1
221.143	22.15
221.363	29.04
221.582	40.35
221.801	31.42
222.021	36.17
222.24	35.27
222.459	46.61
222.678	47.63
222.897	49.46
223.117	38.3
223.336	38.65
223.555	51.34
223.774	65.96
223.993	46.36
224.213	43.67
224.432	22.34
224.651	10.46
224.87	2.54
225.089	19.37
225.308	35.87
225.527	29.25
225.746	40.58
225.965	38.18
226.184	25.26
226.404	20.19
226.623	26.68
226.842	10.91
227.061	15.45
227.28	31.02
227.499	20.49
227.718	25.27
227.936	34.84
228.155	34.62
228.374	15.91
228.593	26.75
228.812	12.63
229.031	21.98
229.25	12.76
229.469	24.22
229.688	13.54
229.907	26.93
230.125	7.97
230.344	18.25
230.563	16.65
230.782	23.23
231.001	19.7
231.22	25.59
231.438	1.16
231.657	-0.21
231.876	4.16
232.095	8.74
232.313	0.69
232.532	23.14
232.751	25.14
232.969	23.73
233.188	12.35
233.407	27.42
233.625	21.67
233.844	34.57
234.063	18.27
234.281	20.6
234.5	5.65
234.719	2.44
234.937	-35.66
235.156	-15.24
235.374	-19.35
235.593	4.63
235.811	20.51
236.03	29.81
236.249	23.02
236.467	20.55
236.686	16.65
236.904	7.04
237.123	3.97
237.341	-4.79
237.559	11.83
237.778	11.28
237.996	-7.94
238.215	-29.71
238.433	-86.88
238.652	-13.22
238.87	-12.35
239.088	-7.58
239.307	2.58
239.525	27.83
239.743	-1.63
239.962	-26.45
240.18	5.61
240.398	8.56
240.617	6.97
240.835	-7.83
241.053	19.7
241.271	-3.55
241.49	11.07
241.708	1.97
241.926	22.34
242.144	32.46
242.363	46.77
242.581	48
242.799	26.92
243.017	-10.18
243.235	-16.23
243.453	-42.59
243.672	-32.57
243.89	-16.81
244.108	1.98
244.326	22.57
244.544	40.44
244.762	30.85
244.98	36.36
245.198	36.11
245.416	23.94
245.634	14.27
245.852	8.74
246.07	18
246.288	2.43
246.506	-0.77
246.724	2.36
246.942	18.03
247.16	7.65
247.378	27.51
247.596	16.97
247.814	-23.93
248.032	-28.79
248.25	3
248.468	7.27
248.685	20.86
248.903	24.76
249.121	21.4
249.339	14.29
249.557	20.46
249.775	18.89
249.992	30.95
250.21	28.82
250.428	31.51
250.646	17.98
250.863	-1.57
251.081	-9.79
251.299	-8.92
251.517	-8.46
251.734	7.29
251.952	15.72
252.17	15.74
252.387	7.7
252.605	-1.19
252.823	-35.47
253.04	-7.39
253.258	-0.82
253.475	-3.27
253.693	6.49
253.911	22.29
254.128	6.03
254.346	8.67
254.563	31.66
254.781	22.5
254.998	20.11
255.216	17.38
255.433	-2.68
255.651	-21.86
255.868	-15.2
256.086	-17.32
256.303	-22.3
256.521	-8.11
256.738	-25.31
256.956	-18.06
257.173	-22.97
257.39	-7.85
257.608	-8.79
257.825	10.63
258.043	10.91
258.26	16.42
258.477	27.54
258.695	23.4
258.912	13.02
259.129	-9.86
259.346	-21.8
259.564	-69.57
259.781	-79.65
259.998	-40.05
260.216	-9.62
260.433	-14.75
260.65	-1.13
260.867	-0.22
261.084	-12.98
261.302	-18.62
261.519	7.12
261.736	4.88
261.953	19.5
262.17	38.68
262.387	23.16
262.604	21.01
262.822	27.34
263.039	19.33
263.256	6.11
263.473	12.9
263.69	15.19
263.907	22.49
264.124	33.22
264.341	45.26
264.558	46.89
264.775	45.65
264.992	30.53
265.209	10.66
265.426	-29.54
265.643	-38.02
265.86	-73.31
266.077	-75.98
266.294	-25.13
266.51	16.08
266.727	20.38
266.944	31.88
267.161	27.43
267.378	22.38
267.595	-1.95
267.812	-24.25
268.028	-53.58
268.245	-37.29
268.462	-33.44
268.679	-5.99
268.896	29.58
269.112	24.09
269.329	-0.25
269.546	17.06
269.763	9.06
269.979	-1.37
270.196	20.82
270.413	37.81
270.629	22.47
270.846	19.95
271.063	9.28
271.279	-0.61
271.496	-18.45
271.712	-18.61
271.929	-21.37
272.146	-21.52
272.362	-41.11
272.579	-22.04
272.795	-18.23
273.012	-7.97
273.228	12.12
273.445	31.86
273.661	12.35
273.878	-9.28
274.094	1.79
274.311	-14.02
274.527	-28.49
274.744	14.46
274.96	21.05
275.177	13.77
275.393	30.26
275.609	42.46
275.826	23.89
276.042	24.2
276.259	23.29
276.475	1.13
276.691	-22.98
276.908	-5.47
277.124	0.14
277.34	-6.14
277.557	-2.49
277.773	5.82
277.989	-7.97
278.205	-2.89
278.422	2.62
278.638	1.69
278.854	-7.95
279.07	10.78
279.286	-4.47
279.503	-4.09
279.719	-1.14
279.935	2.9
280.151	-10.75
280.367	4.07
280.583	1.86
280.799	0.11
281.016	-13.7
281.232	-15.21
281.448	-17.43
281.664	-5.02
281.88	-5.4
282.096	10.15
282.312	20.31
282.528	23.24
282.744	12.04
282.96	0.14
283.176	-38.1
283.392	-75.83
283.608	-68.69
283.824	-67.74
284.04	-89.38
284.256	-12.58
284.471	-8.99
284.687	-16.43
284.903	-16.56
285.119	15.56
285.335	14.06
285.551	18.03
285.767	12.43
285.982	14.86
286.198	-10.77
286.414	-22.37
286.63	-8.65
286.846	-17.71
287.061	4.54
287.277	1.7
287.493	-6.97
287.709	-22.42
287.924	17.17
288.14	30.52
288.356	36.98
288.571	46.59
288.787	31.36
289.003	31.9
289.218	12.12
289.434	0.92
289.65	6.52
289.865	28.7
290.081	19.99
290.296	28
290.512	21.56
290.727	2.49
290.943	-3.35
291.159	-17.03
291.374	-48.64
291.59	-31.57
291.805	-32.27
292.021	-36.23
292.236	-25.97
292.451	-7.86
292.667	-14.13
292.882	-3.35
293.098	6.56
293.313	-0.67
293.529	-2.59
293.744	-21.94
293.959	-10.03
294.175	-14.38
294.39	-13.56
294.605	5.82
294.821	26.75
295.036	16.16
295.251	12.52
295.467	12.21
295.682	3.69
295.897	-16.43
296.112	-26.41
296.328	-12.67
296.543	-17.91
296.758	-30.8
296.973	-16.65
297.188	3.77
297.404	-23.14
297.619	-33.19
297.834	-47.59
298.049	-31.04
298.264	-40.27
298.479	-31.2
298.694	5.49
298.909	16.83
299.125	10.06
299.34	18.35
299.555	16.06
299.77	27.13
299.985	29.5
300.2	23.03
300.415	25.42
300.63	32.12
300.845	18.01
301.06	17.68
301.275	27.62
301.49	27.39
301.704	19.37
301.919	5.66
302.134	5.94
302.349	8.41
302.564	-14.35
302.779	-32.99
302.994	7.85
303.209	7.17
303.423	-1.57
303.638	27.81
303.853	45.67
304.068	15.85
304.283	19.45
304.497	25.12
304.712	10.51
304.927	1.08
305.142	3.84
305.356	2.6
305.571	13.16
305.786	14.2
306	26.63
306.215	31.2
306.43	9.61
306.644	-2.26
306.859	-20.1
307.074	-2.38
307.288	-11.97
307.503	14.07
307.717	4.23
307.932	9.29
308.147	-8.9
308.361	-0.46
308.576	-23.7
308.79	-14.46
309.005	-33.78
309.219	-15.34
309.434	-17.73
309.648	-6.73
309.863	3.02
310.077	4.7
310.292	17.27
310.506	10.09
310.72	-7.94
310.935	-5.97
311.149	-3.72
311.364	-16.65
311.578	-9.61
311.792	-13.28
312.007	-29.28
312.221	-40.82
312.435	-34.15
312.649	-27.39
312.864	-8.74
313.078	2.41
313.292	16.16
313.507	28.16
313.721	30.09
313.935	37.61
314.149	37.56
314.363	40.92
314.578	37.56
314.792	32.65
315.006	15.07
315.22	12.96
315.434	2.05
315.648	-1.48
315.862	2.33
316.077	8
316.291	-4.97
316.505	-19.53
316.719	-6.8
316.933	-6.19
317.147	-7.32
317.361	-3.44
317.575	13.95
317.789	6.94
318.003	-6.28
318.217	-2.07
318.431	-4.25
318.645	-12.72
318.859	-9.52
319.073	0.91
319.287	2.47
319.5	2.7
319.714	1.85
319.928	-13.08
320.142	-4.93
320.356	-6.13
320.57	-24.74
320.784	-26.54
320.997	-40.13
321.211	-28.14
321.425	-39.2
321.639	-20.11
321.853	6.57
322.066	15.8
322.28	17.73
322.494	11.08
322.707	18.11
322.921	7.05
323.135	12.99
323.349	4.37
323.562	13.38
323.776	12.09
323.989	19.29
324.203	10.59
324.417	18.16
324.63	-5.92
324.844	-16.65
325.057	-49.63
325.271	-40.52
325.485	-64.38
325.698	-19.12
325.912	-2.85
326.125	-9.75
326.339	11.68
326.552	5.04
326.766	-3.15
326.979	-2.99
327.193	20.17
327.406	1.84
327.619	17.91
327.833	15
328.046	14.21
328.26	-4.11
328.473	-0.44
328.686	-10.29
328.9	-1.44
329.113	-9.69
329.326	2.69
329.54	5.57
329.753	22.58
329.966	15.65
330.179	15.58
330.393	23.48
330.606	17.44
330.819	4.74
331.032	7.15
331.246	17.04
331.459	20.57
331.672	22.68
331.885	17.48
332.098	20.51
332.311	-0.55
332.525	5.24
332.738	6.29
332.951	3.17
333.164	12.22
333.377	10.61
333.59	1.19
333.803	2.84
334.016	12.23
334.229	10.71
334.442	6.63
334.655	9.3
334.868	5.93
335.081	-0.68
335.294	-11.32
335.507	19.99
335.72	21.05
335.933	14.31
336.146	15.64
336.359	20.02
336.572	7.44
336.785	-5.56
336.997	-17.26
337.21	3.44
337.423	-6.8
337.636	-4.72
337.849	-7.33
338.062	4.07
338.274	-5.27
338.487	-18.92
338.7	-43.47
338.913	-29.86
339.125	-40.19
339.338	-33.21
339.551	-28.73
339.763	0.91
339.976	-2.74
340.189	7.06
340.402	20.38
340.614	32.64
340.827	26.73
341.039	33.77
341.252	20.57
341.465	7.07
341.677	-1.69
341.89	-12.35
342.102	-15.97
342.315	-14.99
342.527	0.28
342.74	-2.84
342.952	2.08
343.165	-2.05
343.377	9.75
343.59	15.23
343.802	19.59
344.015	29.15
344.227	41.34
344.44	21.81
344.652	5.25
344.864	14.25
345.077	11.55
345.289	5.02
345.502	22.58
345.714	20.56
345.926	10.15
346.139	10.24
346.351	1.27
346.563	-3.59
346.775	13.85
346.988	16.49
347.2	-0.61
347.412	8.13
347.624	14.25
347.837	8.28
348.049	5.31
348.261	-1.12
348.473	-3.34
348.685	-10.2
348.897	-30.29
349.11	-14.85
349.322	-7.11
349.534	-8.63
349.746	-1.9
349.958	12.19
350.17	0.54
350.382	22.59
350.594	17.95
350.806	24.28
351.018	17.08
351.23	23.55
351.442	21.88
351.654	26.33
351.866	17.25
352.078	24.12
352.29	15.3
352.502	14.27
352.714	19.87
352.926	0.94
353.138	1.32
353.35	-2.55
353.561	-6.36
353.773	-24.82
353.985	-9.33
354.197	-4.98
354.409	0.74
354.621	-14.51
354.832	-5.2
355.044	-21.77
355.256	-36
355.468	-49.63
355.679	-9.65
355.891	1.23
356.103	3.76
356.314	-0.81
356.526	-9.66
356.738	-29.93
356.949	-29.83
357.161	-10.48
357.373	3.96
357.584	18.6
357.796	30.04
358.008	22.31
358.219	19.41
358.431	12.92
358.642	18.78
358.854	22.96
359.065	18.39
359.277	15.12
359.488	12.1
359.7	2.21
359.911	-4.49
360.123	10.85
360.334	4.68
360.546	5.25
360.757	15.79
360.969	11.79
361.18	2.58
361.391	19.43
361.603	27.55
361.814	21.04
362.025	26.03
362.237	31.54
362.448	22.23
362.659	9.26
362.871	-1.75
363.082	-4.81
363.293	-31.63
363.504	-44.17
363.716	-36.03
363.927	-12.2
364.138	-39.63
364.349	-29.46
364.56	-41.13
364.772	-32.66
364.983	-30.66
365.194	-5
365.405	14.49
365.616	29.66
365.827	26.06
366.038	29.51
366.25	18.78
366.461	3.24
366.672	4.06
366.883	7.43
367.094	-6.71
367.305	-19.94
367.516	5.41
367.727	-10.2
367.938	-15.08
368.149	-7.58
368.36	2.72
368.571	-33.93
368.781	-30.52
368.992	-26.71
369.203	-18.88
369.414	-19.16
369.625	-14.13
369.836	12.74
370.047	19.26
370.258	21.38
370.468	24.27
370.679	26.7
370.89	-1.2
371.101	8.08
371.312	-5.01
371.522	-3.83
371.733	-6.3
371.944	-7.85
372.155	-9.06
372.365	-6.86
372.576	-11.37
372.787	8.23
372.997	17.22
373.208	11.28
373.419	14
373.629	7.81
373.84	-14.77
374.05	-10.98
374.261	-26.49
374.472	-7.04
374.682	6.48
374.893	16.84
375.103	22.11
375.314	33.88
375.524	20.8
375.735	11.64
375.945	19.45
376.156	14.91
376.366	11.05
376.577	14.13
376.787	21.28
376.997	23.74
377.208	19.2
377.418	16.84
377.629	21.52
377.839	16.96
378.049	7.42
378.26	-2.09
378.47	-1.76
378.68	-6.26
378.89	-1.68
379.101	-1
379.311	6.58
379.521	2.9
379.732	9.33
379.942	4.92
380.152	-0.14
380.362	-0.67
380.572	15.72
380.783	18.26
380.993	24.84
381.203	25.35
381.413	32.49
381.623	20.01
381.833	14.08
382.043	9.49
382.253	16
382.463	19.35
382.674	27.12
382.884	27.14
383.094	22.64
383.304	21.74
383.514	18.28
383.724	12.61
383.934	-1.67
384.144	7.14
384.353	5.82
384.563	4.21
384.773	6.23
384.983	11.52
385.193	3.41
385.403	3
385.613	1.61
385.823	0.35
386.033	0.27
386.242	-2.25
386.452	-7.4
386.662	-6.5
386.872	-8.23
387.082	-8.55
387.291	-3.84
387.501	2.37
387.711	6.81
387.921	7.25
388.13	13.11
388.34	11.11
388.55	3.51
388.759	-7.73
388.969	-8.13
389.179	-8.47
389.388	-9.73
389.598	-6.47
389.807	-5.76
390.017	-3.31
390.227	-7.2
390.436	-3.96
390.646	-1.5
390.855	3.77
391.065	3.05
391.274	2.84
391.484	1.04
391.693	-0.28
391.903	-1.41
392.112	-0.87
392.322	-0.2
392.531	0.78
392.74	1.29
392.95	1.06
393.159	1.34
393.369	2.77
393.578	2.5
393.787	1.77
393.997	2.79
394.206	1.1
394.415	0.67
394.625	-0.4
394.834	-1.04
395.043	-1.57
395.252	1.5
395.462	2.51
395.671	3.66
395.88	4.94
396.089	4.29
396.298	3.56
396.508	3.08
396.717	3.1
396.926	2.89
397.135	3.71
397.344	2.09
397.553	2.07
397.762	3.02
397.971	2.77
398.181	2.52
398.39	3.04
398.599	3.27
398.808	2.83
399.017	3.52
399.226	3.42
399.435	3.82
399.644	4.09
399.853	3.95
400.062	3.7
400.27	3.57
400.479	3.57
400.688	3.25
400.897	3.05
401.106	3.01
401.315	3.09
401.524	3.19
401.733	2.93
401.941	3.34
402.15	3.44
402.359	3.48
402.568	3.59
402.777	3.94
402.985	3.6
403.194	3.26
403.403	3.54
403.612	3.12
403.82	2.84
404.029	3.15
404.238	3.28
404.446	3.29
404.655	3.45
404.864	3.59
405.072	3.43
405.281	3.5
405.489	3.32
405.698	3.35
405.906	3.4
406.115	3.37
406.324	3.33
406.532	3.29
406.741	3.19
406.949	3.21
407.158	3.17
407.366	3.07
407.574	3.26
407.783	3.33
407.991	3.26
408.2	3.45
408.408	3.57
408.617	3.44
408.825	3.37
409.033	3.34
409.242	3.33
409.45	3.32
409.658	3.32
409.867	3.47
410.075	3.47
410.283	3.3
410.491	3.16
410.7	2.92
410.908	2.83
411.116	2.94
411.324	2.99
411.533	3
411.741	3.13
411.949	3.14
412.157	3.01
412.365	2.98
412.573	3.02
412.781	3.18
412.99	3.11
413.198	3.24
413.406	3.37
413.614	3.51
413.822	3.46
414.03	3.6
414.238	3.57
414.446	3.56
414.654	3.43
414.862	3.31
415.07	3.06
415.278	3.24
415.486	3.04
415.694	3.05
415.902	3.05
416.109	3.12
416.317	2.87
416.525	2.92
416.733	2.89
416.941	2.97
417.149	2.93
417.357	2.99
417.564	3
417.772	3.21
417.98	3.22
418.188	3.24
418.395	3.09
418.603	3.02
418.811	2.77
419.019	2.72
419.226	2.87
419.434	2.94
419.642	2.77
419.849	2.77
420.057	2.83
420.265	2.7
420.472	2.57
420.68	2.66
420.887	2.67
421.095	2.74
421.302	2.83
421.51	2.86
421.717	2.92
421.925	2.96
422.132	2.87
422.34	2.62
422.547	2.54
422.755	2.66
422.962	2.84
423.17	2.67
423.377	2.78
423.585	3.05
423.792	2.97
423.999	2.76
424.207	2.66
424.414	2.72
424.621	2.75
424.829	2.77
425.036	2.84
425.243	3.04
425.451	2.99
425.658	2.84
425.865	2.82
426.072	2.85
426.28	2.93
426.487	2.94
426.694	2.96
426.901	2.88
427.108	2.67
427.315	2.61
427.523	2.51
427.73	2.5
427.937	2.42
428.144	2.56
428.351	2.54
428.558	2.72
428.765	2.7
428.972	2.85
429.179	2.71
429.386	2.81
429.593	2.63
429.8	2.63
430.007	2.6
430.214	2.76
430.421	2.77
430.628	2.84
430.835	2.79
431.042	2.72
431.249	2.74
431.456	2.58
431.662	2.7
431.869	2.84
432.076	2.84
432.283	2.95
432.49	2.95
432.697	2.84
432.903	2.83
433.11	3.06
433.317	3.04
433.524	3.16
433.73	3.12
433.937	3.25
434.144	2.96
434.35	2.82
434.557	2.85
434.764	2.93
434.97	2.77
435.177	3.01
435.384	3.04
435.59	2.99
435.797	3.1
436.003	3.17
436.21	3.1
436.416	3.11
436.623	3.11
436.829	2.92
437.036	2.81
437.242	2.84
437.449	2.85
437.655	2.88
437.862	3.05
438.068	3.07
438.275	3.19
438.481	3.23
438.687	3.21
438.894	3.36
439.1	3.3
439.307	3.28
439.513	3.29
439.719	3.33
439.926	3.17
440.132	3.24
440.338	3.23
440.544	3.24
440.751	3.17
440.957	3.22
441.163	3.19
441.369	3.17
441.575	3.15
441.782	3.23
441.988	3.11
442.194	3.12
442.4	3.09
442.606	3.22
442.812	3.16
443.018	3.31
443.224	3.38
443.431	3.39
443.637	3.25
443.843	3.28
444.049	3.38
444.255	3.45
444.461	3.48
444.667	3.51
444.873	3.55
445.079	3.43
445.284	3.34
445.49	3.36
445.696	3.39
445.902	3.34
446.108	3.32
446.314	3.38
446.52	3.48
446.726	3.49
446.931	3.44
447.137	3.54
447.343	3.54
447.549	3.42
447.755	3.4
447.96	3.51
448.166	3.47
448.372	3.45
448.578	3.37
448.783	3.37
448.989	3.42
449.195	3.45
449.4	3.49
449.606	3.55
449.812	3.49
450.017	3.48
450.223	3.48
450.428	3.48
450.634	3.48
450.84	3.58
451.045	3.59
451.251	3.57
451.456	3.67
451.662	3.72
451.867	3.67
452.073	3.77
452.278	3.81
452.483	3.74
452.689	3.71
452.894	3.89
453.1	3.77
453.305	3.77
453.51	3.81
453.716	3.81
453.921	3.68
454.127	3.68
454.332	3.66
454.537	3.55
454.742	3.58
454.948	3.56
455.153	3.62
455.358	3.59
455.563	3.79
455.769	3.81
455.974	3.86
456.179	3.8
456.384	3.75
456.589	3.55
456.795	3.54
457	3.45
457.205	3.38
457.41	3.41
457.615	3.45
457.82	3.53
458.025	3.58
458.23	3.62
458.435	3.66
458.64	3.66
458.845	3.62
459.05	3.63
459.255	3.69
459.46	3.74
459.665	3.75
459.87	3.71
460.075	3.76
460.28	3.8
460.485	3.83
460.69	3.83
460.895	3.9
461.099	3.82
461.304	3.75
461.509	3.74
461.714	3.82
461.919	3.86
462.123	3.86
462.328	3.79
462.533	3.72
462.738	3.68
462.942	3.59
463.147	3.66
463.352	3.8
463.556	3.9
463.761	3.9
463.966	3.89
464.17	3.98
464.375	3.97
464.58	3.85
464.784	3.9
464.989	3.93
465.193	3.8
465.398	3.83
465.602	3.95
465.807	3.88
466.011	3.88
466.216	3.92
466.42	3.95
466.625	3.96
466.829	3.92
467.034	4.01
467.238	4.1
