Data from Ofra_PS_T2_2A_2HS17_Reflection_3.txt Node
Date: Wed Jul 21 17:07:46 EDT 2021
User: Adam
Spectrometer: FLMT01687
Trigger mode: 0
Integration Time (sec): 1.100000E0
Scans to average: 2
Electric dark correction enabled: true
Nonlinearity correction enabled: false
Boxcar width: 2
XAxis mode: Wavelengths
Number of Pixels in Spectrum: 3648
>>>>>Begin Spectral Data<<<<<
179.494	430.2
179.716	501.18
179.937	527.57
180.158	549.94
180.38	904.22
180.601	378.31
180.823	120.65
181.044	-117.65
181.265	-134.01
181.486	16.29
181.708	97.86
181.929	803.57
182.15	-702.46
182.372	-16.47
182.593	-11.76
182.814	26.72
183.035	72.91
183.257	76.09
183.478	-28.24
183.699	-4.8
183.92	-16.22
184.141	-9.8
184.363	-41.73
184.584	35.2
184.805	39.66
185.026	61.36
185.247	52.99
185.468	39.98
185.689	49.85
185.91	48.37
186.132	52.05
186.353	54.15
186.574	114.33
186.795	84.76
187.016	59.72
187.237	25.44
187.458	33.28
187.679	20.5
187.9	33.82
188.121	22.17
188.342	57.47
188.563	77.29
188.784	76.64
189.005	47.18
189.226	106.82
189.447	91.41
189.667	-111.04
189.888	-315.15
190.109	-1099.68
190.33	-586.94
190.551	-998.89
190.772	-197.03
190.993	-134.07
191.214	-88.59
191.434	-80.14
191.655	7.64
191.876	-7.06
192.097	-65.69
192.318	-69.01
192.538	-102.27
192.759	-146.99
192.98	-62.21
193.201	-14.25
193.421	-11.68
193.642	11.91
193.863	38.12
194.083	16.92
194.304	12.19
194.525	13.58
194.745	11.94
194.966	-26.23
195.187	-8.02
195.407	-33.83
195.628	-75.89
195.848	-88.26
196.069	-81.5
196.29	-62.84
196.51	-51.47
196.731	-54.18
196.951	-71.71
197.172	-80.41
197.392	-145.89
197.613	-157.27
197.833	-168.8
198.054	-138.49
198.274	-89.13
198.495	-77.2
198.715	-28.68
198.936	-38.67
199.156	-38.77
199.377	-128.29
199.597	-120.9
199.817	-149.91
200.038	-83.91
200.258	-111.36
200.479	-62.84
200.699	-56.85
200.919	27.74
201.14	3.72
201.36	-18.73
201.58	16.1
201.801	35.16
202.021	-13.91
202.241	-12.68
202.461	-2.36
202.682	-60.09
202.902	-103.42
203.122	-40.87
203.342	-42.16
203.563	-22.59
203.783	-7.04
204.003	-50.58
204.223	-57.33
204.443	26.81
204.663	11.33
204.884	45.96
205.104	78.31
205.324	93.39
205.544	57.89
205.764	52.76
205.984	47.45
206.204	49.02
206.424	37.83
206.644	11.44
206.864	30.3
207.084	7.01
207.304	12.9
207.525	-78.98
207.745	-58.68
207.964	-34.21
208.184	-87.08
208.404	-98.13
208.624	-90.6
208.844	-82.65
209.064	-296.03
209.284	-317.29
209.504	-201.64
209.724	-42.66
209.944	-25.98
210.164	-14.38
210.384	0.91
210.604	2.1
210.823	-41.09
211.043	-54.29
211.263	-39.69
211.483	-44.04
211.703	-98.1
211.922	-72.94
212.142	-0.29
212.362	9.87
212.582	3.48
212.801	29.77
213.021	0.16
213.241	-29.43
213.461	-62.8
213.68	-52.54
213.9	-57.5
214.12	-22.19
214.339	-72.69
214.559	-55.8
214.779	-9.84
214.998	6.9
215.218	-42.25
215.438	-22.14
215.657	-15.6
215.877	-36.14
216.096	-21
216.316	-8.48
216.535	-11.31
216.755	-5.97
216.974	-63.24
217.194	-101.73
217.413	-85.53
217.633	-62.38
217.852	-139.49
218.072	-58.47
218.291	-19.16
218.511	12.59
218.73	-1.33
218.95	4.41
219.169	-1.16
219.389	-41.83
219.608	-38.19
219.827	-32.31
220.047	-33.92
220.266	-8.99
220.485	6.07
220.705	18.56
220.924	-11.08
221.143	29.37
221.363	2.46
221.582	12.72
221.801	4.54
222.021	33.17
222.24	-50.8
222.459	-1.16
222.678	-34.23
222.897	-48.06
223.117	-115.12
223.336	-59.45
223.555	-30.95
223.774	31.26
223.993	32.48
224.213	107.55
224.432	84.25
224.651	81.61
224.87	45.18
225.089	46.38
225.308	10.65
225.527	35.34
225.746	25.98
225.965	24.54
226.184	8.28
226.404	42.62
226.623	6.27
226.842	7.73
227.061	27.7
227.28	23.83
227.499	-5.94
227.718	10.29
227.936	4.27
228.155	-6.09
228.374	1.47
228.593	8.93
228.812	12.81
229.031	6.84
229.25	-39.82
229.469	-50.52
229.688	-18.41
229.907	23.71
230.125	54.36
230.344	63.11
230.563	69.96
230.782	56.95
231.001	-41.35
231.22	-73.54
231.438	-35.42
231.657	-30.89
231.876	-52.15
232.095	11.62
232.313	25.3
232.532	20.68
232.751	-2.87
232.969	11.84
233.188	-19.66
233.407	32.7
233.625	11.04
233.844	14.72
234.063	23.53
234.281	43.64
234.5	25.37
234.719	32.11
234.937	46.44
235.156	47.33
235.374	44.88
235.593	42.81
235.811	33.22
236.03	16.99
236.249	-33.02
236.467	-54.04
236.686	-22.41
236.904	-10.12
237.123	-30.17
237.341	-16.15
237.559	-7.25
237.778	-16.51
237.996	-31.11
238.215	23.44
238.433	25.79
238.652	21.88
238.87	-0.63
239.088	-9.29
239.307	-20.17
239.525	-29.41
239.743	-48.03
239.962	-43.25
240.18	-31.47
240.398	-83.63
240.617	-84.42
240.835	-57.56
241.053	-39.25
241.271	-6.11
241.49	13.22
241.708	-0.7
241.926	12.23
242.144	25.55
242.363	-31.05
242.581	-62.23
242.799	-24.14
243.017	-20.3
243.235	-45.64
243.453	-42.66
243.672	-24.31
243.89	-24.44
244.108	-26.47
244.326	0.28
244.544	16.9
244.762	2.68
244.98	-0.05
245.198	12.61
245.416	-17.15
245.634	-26.32
245.852	-11.82
246.07	-2.16
246.288	-27.63
246.506	-27.92
246.724	13.31
246.942	2.31
247.16	38.38
247.378	59.99
247.596	70
247.814	68.5
248.032	55.69
248.25	35.33
248.468	13.19
248.685	21.05
248.903	35.65
249.121	35.52
249.339	-2.82
249.557	-4.04
249.775	5.8
249.992	-56.03
250.21	-53.9
250.428	-5.83
250.646	-24.71
250.863	-56.96
251.081	-31.28
251.299	-19.93
251.517	-49.84
251.734	-28.91
251.952	-22.88
252.17	-14.72
252.387	-7.95
252.605	-10.85
252.823	-9.21
253.04	-4.68
253.258	12.55
253.475	17.29
253.693	36.41
253.911	41.37
254.128	57.53
254.346	60.59
254.563	30.06
254.781	7.66
254.998	-14.01
255.216	-18.41
255.433	-4.57
255.651	34.04
255.868	66.47
256.086	83.88
256.303	68.04
256.521	52.35
256.738	22.02
256.956	-16.47
257.173	-41.07
257.39	-57.42
257.608	-89.81
257.825	21.55
258.043	72.66
258.26	72.78
258.477	107.35
258.695	92.21
258.912	3.86
259.129	5.87
259.346	-19.71
259.564	-58.16
259.781	-66.42
259.998	-1.38
260.216	4.07
260.433	40.9
260.65	46.64
260.867	77.02
261.084	42.44
261.302	15.62
261.519	11.85
261.736	-12.59
261.953	-58.11
262.17	5.36
262.387	-8.07
262.604	-42.22
262.822	-45.21
263.039	-23.28
263.256	-76.26
263.473	-15.17
263.69	-7.48
263.907	20.96
264.124	43.32
264.341	40.73
264.558	24.48
264.775	42.7
264.992	35.75
265.209	23.11
265.426	37.96
265.643	36.88
265.86	43.66
266.077	61.35
266.294	55.49
266.51	11.66
266.727	18.31
266.944	9.95
267.161	-20.11
267.378	-15.12
267.595	7.97
267.812	-34.6
268.028	-66.37
268.245	-47.39
268.462	-46.9
268.679	-37.69
268.896	17.24
269.112	26.22
269.329	20.84
269.546	22.11
269.763	11.96
269.979	-14.75
270.196	-17.6
270.413	-36.49
270.629	-67.19
270.846	-72.23
271.063	-40.86
271.279	-49.64
271.496	-44.1
271.712	8.53
271.929	45.07
272.146	16.7
272.362	22.84
272.579	45.61
272.795	49.19
273.012	22.69
273.228	25.75
273.445	13.83
273.661	-5.6
273.878	-61.73
274.094	-38.26
274.311	-52.25
274.527	3.04
274.744	-4.8
274.96	-10.79
275.177	-1.03
275.393	17.43
275.609	11.69
275.826	39.66
276.042	50.33
276.259	36.84
276.475	48.71
276.691	55.4
276.908	23.57
277.124	39.86
277.34	35.26
277.557	8.91
277.773	-9.68
277.989	4.51
278.205	-3.83
278.422	17.58
278.638	27.45
278.854	39.36
279.07	42.08
279.286	58.6
279.503	16.88
279.719	-2.56
279.935	-16.03
280.151	-17.43
280.367	-21.2
280.583	-21.03
280.799	-0.79
281.016	-13.98
281.232	2.65
281.448	2.53
281.664	31.07
281.88	3.1
282.096	16.93
282.312	25.24
282.528	21.88
282.744	32.44
282.96	39.06
283.176	27.95
283.392	11.62
283.608	9.42
283.824	-0.03
284.04	5.87
284.256	9.67
284.471	19.7
284.687	17.71
284.903	44.49
285.119	67.25
285.335	52.71
285.551	51.13
285.767	40.39
285.982	10.28
286.198	-38.53
286.414	21.78
286.63	34.59
286.846	48.9
287.061	36.55
287.277	57.34
287.493	32.16
287.709	38.87
287.924	14.32
288.14	55.31
288.356	64.01
288.571	67.68
288.787	56
289.003	53.33
289.218	16.98
289.434	-21.91
289.65	-28.81
289.865	-47.54
290.081	-34.18
290.296	-12.94
290.512	-2.49
290.727	-25.99
290.943	-31.67
291.159	-25.56
291.374	-15.8
291.59	-23.32
291.805	-7.37
292.021	17
292.236	20.24
292.451	8.21
292.667	22.64
292.882	40.91
293.098	37.31
293.313	13.18
293.529	4.14
293.744	-21.2
293.959	-45.36
294.175	-35.74
294.39	14.81
294.605	34.38
294.821	55.57
295.036	79.06
295.251	77.86
295.467	57.39
295.682	41.35
295.897	-0.96
296.112	-33.56
296.328	-31.26
296.543	-62.73
296.758	-36.39
296.973	6.4
297.188	40.04
297.404	17.3
297.619	11.53
297.834	-11.97
298.049	-36.19
298.264	-67.97
298.479	-1.69
298.694	6.19
298.909	23.81
299.125	27.66
299.34	39.61
299.555	3.64
299.77	9.05
299.985	-36.96
300.2	-81.13
300.415	-98.54
300.63	-52.06
300.845	-45.97
301.06	-31.78
301.275	4.09
301.49	23
301.704	2.07
301.919	-30.42
302.134	-35.87
302.349	-34.46
302.564	-108.89
302.779	-123.69
302.994	-64.07
303.209	-3.42
303.423	12.34
303.638	77.09
303.853	38.71
304.068	27.56
304.283	8.56
304.497	-3.68
304.712	-27.69
304.927	-12.42
305.142	-14.21
305.356	-2.52
305.571	-12.34
305.786	-20.82
306	-40.38
306.215	-49.54
306.43	-56.78
306.644	-34.43
306.859	-6.22
307.074	12.05
307.288	-6.45
307.503	-28.15
307.717	-21.69
307.932	-23.29
308.147	-26.5
308.361	-14.86
308.576	-13.91
308.79	-68.22
309.005	-49.15
309.219	-36.74
309.434	-33.27
309.648	-31.13
309.863	9.71
310.077	0.48
310.292	-12.12
310.506	-2.81
310.72	11.7
310.935	16.82
311.149	7.39
311.364	31.36
311.578	41.3
311.792	35.53
312.007	34.61
312.221	27.13
312.435	27.82
312.649	8.94
312.864	-11.17
313.078	-12.26
313.292	21.65
313.507	-18.75
313.721	-28.6
313.935	26.09
314.149	18.55
314.363	29.29
314.578	30.07
314.792	32.9
315.006	18.68
315.22	30.77
315.434	21.99
315.648	27.56
315.862	23.6
316.077	24.9
316.291	-5.36
316.505	-11.21
316.719	-32.91
316.933	-52.47
317.147	-49.57
317.361	-92.03
317.575	-95.2
317.789	-124.28
318.003	-157.17
318.217	-113.78
318.431	3.97
318.645	24.19
318.859	23.93
319.073	45.99
319.287	22.62
319.5	-19.73
319.714	-49.44
319.928	-62.06
320.142	-88.86
320.356	-5.94
320.57	43.87
320.784	48.73
320.997	31.92
321.211	30.65
321.425	-52.28
321.639	-87.02
321.853	-38.49
322.066	-6.34
322.28	-13.16
322.494	3.75
322.707	32.84
322.921	20.91
323.135	9.87
323.349	27.28
323.562	11.88
323.776	-7.94
323.989	1.77
324.203	-12.93
324.417	-32.12
324.63	-32.22
324.844	-42.08
325.057	-46.32
325.271	-20.02
325.485	17.88
325.698	26.52
325.912	52.98
326.125	31.19
326.339	30.69
326.552	12.86
326.766	18.52
326.979	23.37
327.193	58.81
327.406	40.46
327.619	19.48
327.833	25.81
328.046	-11.77
328.26	-52.71
328.473	-21.74
328.686	-37.37
328.9	-27.62
329.113	-1.45
329.326	-20.67
329.54	-33.26
329.753	-34.88
329.966	-67.67
330.179	-68.88
330.393	-39.26
330.606	-19.95
330.819	2.7
331.032	18.98
331.246	26.02
331.459	52.4
331.672	45.49
331.885	34.86
332.098	-4.75
332.311	-24.59
332.525	-82.27
332.738	-70.21
332.951	-26.65
333.164	40.68
333.377	56.02
333.59	77.24
333.803	91.04
334.016	73.32
334.229	62.66
334.442	63.29
334.655	82.06
334.868	62
335.081	51.32
335.294	27.56
335.507	15.2
335.72	-1.48
335.933	-8.92
336.146	-23.64
336.359	-9.86
336.572	-23.85
336.785	-65.79
336.997	-52.85
337.21	-11
337.423	-24.97
337.636	-26.6
337.849	-3.22
338.062	-16.1
338.274	-31.41
338.487	-23.14
338.7	-15.15
338.913	-58.49
339.125	-71.87
339.338	-107.42
339.551	-91.68
339.763	-49.27
339.976	3.36
340.189	16.73
340.402	34.13
340.614	18.97
340.827	-4.83
341.039	-31.89
341.252	-25.34
341.465	-13.84
341.677	-25.23
341.89	-57.12
342.102	-18.98
342.315	-45.68
342.527	-87.86
342.74	-54.78
342.952	-12.64
343.165	-21.68
343.377	8.03
343.59	4.78
343.802	5.73
344.015	0.71
344.227	14.3
344.44	13
344.652	18.04
344.864	3.64
345.077	22.6
345.289	31.83
345.502	32.02
345.714	29.37
345.926	44.64
346.139	35.15
346.351	23.35
346.563	27.04
346.775	40.63
346.988	30.13
347.2	24.62
347.412	-11.06
347.624	-29.11
347.837	-50.09
348.049	-30.96
348.261	-7.43
348.473	0.7
348.685	2.07
348.897	-17.68
349.11	-34.48
349.322	-71.77
349.534	-56.75
349.746	-32.24
349.958	-10.29
350.17	-6
350.382	25.06
350.594	10.88
350.806	8.75
351.018	15.01
351.23	10.44
351.442	-33.34
351.654	-15.4
351.866	-28.12
352.078	-23.89
352.29	-12.23
352.502	9.35
352.714	18.03
352.926	13.58
353.138	7.43
353.35	-2.1
353.561	-8.36
353.773	-35.68
353.985	-14.68
354.197	-15.82
354.409	-13.47
354.621	-10.27
354.832	15.86
355.044	1.82
355.256	5.9
355.468	19.36
355.679	11.98
355.891	14.59
356.103	10.52
356.314	18.28
356.526	25.88
356.738	32.28
356.949	12.3
357.161	0.13
357.373	-7.94
357.584	-21.65
357.796	-14.41
358.008	-16.24
358.219	4.16
358.431	1.18
358.642	14.61
358.854	24.91
359.065	22.92
359.277	3.88
359.488	-8.59
359.7	-30.98
359.911	-62.23
360.123	-36.92
360.334	-48.27
360.546	-64.87
360.757	-60.05
360.969	-42.43
361.18	-53.59
361.391	-38.22
361.603	-38.49
361.814	-29.42
362.025	-23.04
362.237	-11.12
362.448	-1.24
362.659	32.31
362.871	31.67
363.082	27.19
363.293	20.74
363.504	7.79
363.716	-28.44
363.927	-39.43
364.138	-61.79
364.349	-77.48
364.56	-58.64
364.772	-46.72
364.983	-25.81
365.194	-19.77
365.405	1.09
365.616	14.99
365.827	17.86
366.038	-8.65
366.25	-5.57
366.461	-34.36
366.672	-9.26
366.883	9.4
367.094	22.39
367.305	4.93
367.516	14.1
367.727	-23.3
367.938	-31.12
368.149	-34.07
368.36	-5.94
368.571	11.79
368.781	-1.34
368.992	-22.54
369.203	-38.2
369.414	-54.72
369.625	-85.4
369.836	-63.3
370.047	-77.85
370.258	-61
370.468	-50.06
370.679	-56.43
370.89	-54.03
371.101	-23.24
371.312	-24.8
371.522	-24.78
371.733	-17.44
371.944	5.19
372.155	1.97
372.365	-10.52
372.576	-17.25
372.787	-20.96
372.997	-48.13
373.208	-39.33
373.419	0.11
373.629	-23.08
373.84	-14.79
374.05	-11.91
374.261	-8.32
374.472	-29.87
374.682	17.72
374.893	20.26
375.103	44.33
375.314	42.06
375.524	34.47
375.735	29.92
375.945	34.14
376.156	9.26
376.366	6.04
376.577	18.01
376.787	7.17
376.997	7.77
377.208	12.45
377.418	0.98
377.629	1.63
377.839	1.83
378.049	1.82
378.26	15.43
378.47	20.49
378.68	10.46
378.89	9.67
379.101	3.48
379.311	-23.04
379.521	-51.78
379.732	-45.02
379.942	-39.29
380.152	-55.09
380.362	-30.34
380.572	-12.37
380.783	-1.01
380.993	-0.8
381.203	15.56
381.413	22.76
381.623	26
381.833	28.67
382.043	18.14
382.253	6.23
382.463	-1.87
382.674	-12.48
382.884	-35.67
383.094	-26.79
383.304	-20.56
383.514	-12.28
383.724	3.49
383.934	1.37
384.144	-10.55
384.353	-11.76
384.563	-13.8
384.773	-16.73
384.983	-29.3
385.193	-12.78
385.403	-8.47
385.613	-7.3
385.823	-15.66
386.033	1.65
386.242	-4.53
386.452	-6.84
386.662	-11.37
386.872	-1.72
387.082	-8.31
387.291	-12.21
387.501	-14.44
387.711	-12.96
387.921	-16.3
388.13	-14.17
388.34	1.26
388.55	-1.65
388.759	1.63
388.969	7.98
389.179	6.72
389.388	2.21
389.598	8.65
389.807	2.16
390.017	-4.28
390.227	-0.69
390.436	-3.11
390.646	-3.61
390.855	0.73
391.065	0.68
391.274	-3.06
391.484	-5.66
391.693	-5.47
391.903	-5.81
392.112	0.28
392.322	4.09
392.531	8.37
392.74	8.99
392.95	4.2
393.159	0.84
393.369	-0.75
393.578	-3.28
393.787	-3.08
393.997	-0.04
394.206	-2.4
394.415	-2.14
394.625	-0
394.834	-1.83
395.043	-0.65
395.252	2.54
395.462	3.93
395.671	3.6
395.88	4.38
396.089	4.06
396.298	1.66
396.508	1.6
396.717	1.48
396.926	1.72
397.135	0.84
397.344	1.78
397.553	2.15
397.762	3.63
397.971	3.36
398.181	4.15
398.39	3.55
398.599	2.9
398.808	2.54
399.017	3.77
399.226	4.62
399.435	5.91
399.644	6.38
399.853	5.15
400.062	4.06
400.27	3.54
400.479	2.97
400.688	2.01
400.897	2.61
401.106	3.07
401.315	2.77
401.524	2.52
401.733	3.48
401.941	3.75
402.15	3.58
402.359	3.63
402.568	4.21
402.777	4.37
402.985	4.07
403.194	3.99
403.403	3.91
403.612	3.4
403.82	3.06
404.029	3.3
404.238	3.16
404.446	3.42
404.655	3.27
404.864	3.15
405.072	2.88
405.281	3.16
405.489	2.84
405.698	2.78
405.906	2.94
406.115	2.91
406.324	2.69
406.532	2.93
406.741	3.35
406.949	3.18
407.158	3.16
407.366	3.21
407.574	3.15
407.783	3.08
407.991	3.03
408.2	3.19
408.408	3.27
408.617	3.1
408.825	2.88
409.033	3.04
409.242	3.15
409.45	3.22
409.658	3.23
409.867	3.41
410.075	3.23
410.283	3.03
410.491	2.84
410.7	2.85
410.908	2.85
411.116	3.03
411.324	3.08
411.533	3.13
411.741	3.27
411.949	3.16
412.157	2.94
412.365	2.97
412.573	2.9
412.781	2.9
412.99	2.82
413.198	3.11
413.406	2.97
413.614	3.08
413.822	2.92
414.03	2.87
414.238	2.49
414.446	2.54
414.654	2.29
414.862	2.36
415.07	2.48
415.278	2.92
415.486	2.85
415.694	3.03
415.902	2.94
416.109	2.85
416.317	2.55
416.525	2.32
416.733	2.28
416.941	2.47
417.149	2.5
417.357	2.6
417.564	2.99
417.772	3.16
417.98	3.03
418.188	2.97
418.395	2.98
418.603	3.03
418.811	2.66
419.019	2.56
419.226	2.8
419.434	2.82
419.642	2.5
419.849	2.63
420.057	2.68
420.265	2.59
420.472	2.34
420.68	2.36
420.887	2.28
421.095	2.36
421.302	2.31
421.51	2.64
421.717	2.72
421.925	2.85
422.132	2.7
422.34	2.49
422.547	2.26
422.755	2.15
422.962	2.05
423.17	1.94
423.377	2.07
423.585	2.23
423.792	2.23
423.999	2.29
424.207	2.4
424.414	2.54
424.621	2.44
424.829	2.55
425.036	2.54
425.243	2.78
425.451	2.63
425.658	2.35
425.865	2.61
426.072	2.62
426.28	2.71
426.487	2.57
426.694	2.79
426.901	2.37
427.108	2.32
427.315	1.93
427.523	2.27
427.73	2.27
427.937	2.31
428.144	2.21
428.351	2.33
428.558	2.37
428.765	2.3
428.972	2.38
429.179	2.53
429.386	2.71
429.593	2.51
429.8	2.42
430.007	2.43
430.214	2.5
430.421	2.3
430.628	2.14
430.835	2.16
431.042	2.27
431.249	2.31
431.456	2.36
431.662	2.55
431.869	2.74
432.076	2.81
432.283	2.83
432.49	2.8
432.697	2.78
432.903	2.54
433.11	2.44
433.317	2.55
433.524	2.73
433.73	2.72
433.937	2.97
434.144	2.94
434.35	2.83
434.557	2.67
434.764	2.69
434.97	2.62
435.177	2.7
435.384	2.57
435.59	2.7
435.797	2.88
436.003	3.07
436.21	3.11
436.416	3.2
436.623	3.24
436.829	3.29
437.036	3.2
437.242	3.12
437.449	3.03
437.655	2.97
437.862	2.88
438.068	2.8
438.275	3
438.481	3.27
438.687	3.23
438.894	3.24
439.1	3.28
439.307	3.29
439.513	3.17
439.719	3.19
439.926	3.26
440.132	3.19
440.338	3.05
440.544	3.16
440.751	3.15
440.957	3.15
441.163	3.05
441.369	3.18
441.575	2.93
441.782	2.95
441.988	2.86
442.194	3.07
442.4	2.98
442.606	3.28
442.812	3.34
443.018	3.4
443.224	3.39
443.431	3.53
443.637	3.36
443.843	3.23
444.049	3.3
444.255	3.2
444.461	3.17
444.667	3.15
444.873	3.28
445.079	3.24
445.284	3.38
445.49	3.16
445.696	3
445.902	2.91
446.108	2.85
446.314	2.74
446.52	2.83
446.726	3.13
446.931	3.15
447.137	3.2
447.343	3.26
447.549	3.27
447.755	3.17
447.96	3.18
448.166	3.15
448.372	3.06
448.578	3.1
448.783	3.07
448.989	3.2
449.195	3.39
449.4	3.49
449.606	3.47
449.812	3.42
450.017	3.38
450.223	3.19
450.428	3.11
450.634	3.27
450.84	3.48
451.045	3.49
451.251	3.45
451.456	3.68
451.662	3.67
451.867	3.63
452.073	3.58
452.278	3.8
452.483	3.88
452.689	3.71
452.894	3.72
453.1	3.65
453.305	3.49
453.51	3.39
453.716	3.4
453.921	3.45
454.127	3.46
454.332	3.41
454.537	3.22
454.742	3.29
454.948	3.21
455.153	3.26
455.358	3.39
455.563	3.69
455.769	3.75
455.974	3.71
456.179	3.63
456.384	3.57
456.589	3.4
456.795	3.3
457	3.25
457.205	3.49
457.41	3.41
457.615	3.33
457.82	3.42
458.025	3.43
458.23	3.27
458.435	3.38
458.64	3.39
458.845	3.47
459.05	3.52
459.255	3.47
459.46	3.38
459.665	3.43
459.87	3.42
460.075	3.41
460.28	3.5
460.485	3.67
460.69	3.65
460.895	3.5
461.099	3.45
461.304	3.58
461.509	3.57
461.714	3.5
461.919	3.59
462.123	3.51
462.328	3.48
462.533	3.42
462.738	3.52
