Data from Ofra_1a_PS_2HS17_Reflection_3.txt Node
Date: Tue Jul 20 10:53:07 EDT 2021
User: Adam
Spectrometer: FLMT01687
Trigger mode: 0
Integration Time (sec): 1.004000E0
Scans to average: 2
Electric dark correction enabled: true
Nonlinearity correction enabled: false
Boxcar width: 2
XAxis mode: Wavelengths
Number of Pixels in Spectrum: 3648
>>>>>Begin Spectral Data<<<<<
179.494	-16.24
179.716	-29.01
179.937	374.58
180.158	-529.94
180.38	117.83
180.601	81.08
180.823	68.16
181.044	-101.34
181.265	-288.31
181.486	124.15
181.708	27.92
181.929	690.91
182.15	-66.57
182.372	510.34
182.593	201.67
182.814	-133.11
183.035	-53.79
183.257	-11.15
183.478	-26.14
183.699	-22.45
183.92	-46.68
184.141	-9.66
184.363	0.5
184.584	20.39
184.805	15.81
185.026	47.12
185.247	22.17
185.468	-27.38
185.689	-23.91
185.91	-40.4
186.132	-35.58
186.353	-33.09
186.574	5.49
186.795	18.76
187.016	16.59
187.237	-0.66
187.458	12.23
187.679	-6.43
187.9	-13.51
188.121	1.93
188.342	41.49
188.563	46.41
188.784	48.64
189.005	32.89
189.226	29.34
189.447	1.23
189.667	-12.61
189.888	-35.37
190.109	-37.48
190.33	-25.49
190.551	-20.35
190.772	-5.78
190.993	12.59
191.214	-26.8
191.434	-69.53
191.655	-63.24
191.876	-12.96
192.097	-10.66
192.318	34.05
192.538	15.33
192.759	12.94
192.98	20.13
193.201	15.14
193.421	7.15
193.642	9.43
193.863	11.46
194.083	-1.52
194.304	10.45
194.525	8.02
194.745	20.1
194.966	28.07
195.187	23.74
195.407	2.65
195.628	19.62
195.848	26.13
196.069	11.41
196.29	0.41
196.51	13.02
196.731	-6.65
196.951	-37.27
197.172	-13.87
197.392	-2.15
197.613	9.56
197.833	7.67
198.054	26.77
198.274	2.98
198.495	6.9
198.715	-5.62
198.936	9.39
199.156	-3.54
199.377	-12.43
199.597	-17.76
199.817	-16.85
200.038	-57.22
200.258	-12.32
200.479	-4.25
200.699	4.95
200.919	-15.7
201.14	-1.79
201.36	-4.52
201.58	-16.58
201.801	-28.62
202.021	-16.13
202.241	-10.01
202.461	-27.84
202.682	6.91
202.902	11.25
203.122	19.8
203.342	20.27
203.563	25.03
203.783	7.1
204.003	-5.44
204.223	10.91
204.443	16.42
204.663	8.36
204.884	25.8
205.104	44.65
205.324	54.57
205.544	22.47
205.764	56.58
205.984	33.07
206.204	26.46
206.424	-1.21
206.644	28.83
206.864	-30.04
207.084	-3.3
207.304	-21.8
207.525	-16.42
207.745	-10.47
207.964	2.58
208.184	8.44
208.404	9.32
208.624	24.21
208.844	15.7
209.064	12.59
209.284	-3.66
209.504	3.21
209.724	-16.98
209.944	-23.52
210.164	-17.28
210.384	-12.05
210.604	-45.82
210.823	-34.23
211.043	-23.46
211.263	-66.47
211.483	-19.47
211.703	-14.15
211.922	-5.78
212.142	-5.22
212.362	21.97
212.582	12.83
212.801	19
213.021	-2.52
213.241	-0.35
213.461	-4.75
213.68	2.22
213.9	4
214.12	0.31
214.339	0.71
214.559	-10.38
214.779	-32.01
214.998	-20.08
215.218	-1.99
215.438	8.27
215.657	7.69
215.877	-2.54
216.096	-0.22
216.316	-5.15
216.535	-16.57
216.755	-8.86
216.974	-3.53
217.194	-2.69
217.413	-4.63
217.633	-13.11
217.852	-12.91
218.072	1.33
218.291	-11.91
218.511	-15.64
218.73	-23.36
218.95	-37.23
219.169	-65.75
219.389	-41.57
219.608	-17.62
219.827	9.13
220.047	16.73
220.266	17.99
220.485	19.52
220.705	-11.21
220.924	-55.54
221.143	3.32
221.363	30.12
221.582	20.47
221.801	38.04
222.021	49.17
222.24	-3.63
222.459	1.18
222.678	12.57
222.897	0.32
223.117	13.24
223.336	50.24
223.555	55.78
223.774	80
223.993	103.87
224.213	105.28
224.432	87.88
224.651	68.37
224.87	60.63
225.089	51.03
225.308	41.45
225.527	26.34
225.746	11.97
225.965	12.61
226.184	-17.16
226.404	-24.19
226.623	-5.15
226.842	-1.4
227.061	0.65
227.28	22.36
227.499	21.85
227.718	9.36
227.936	19.08
228.155	27.05
228.374	19.53
228.593	23.47
228.812	12.97
229.031	11.37
229.25	-8.32
229.469	-6.86
229.688	-2.5
229.907	10.45
230.125	-0.39
230.344	6.28
230.563	8.23
230.782	15.27
231.001	26.08
231.22	32.17
231.438	40.33
231.657	38.87
231.876	22.03
232.095	26.61
232.313	25.35
232.532	18.22
232.751	1.09
232.969	10.26
233.188	3.04
233.407	2.96
233.625	-4.44
233.844	2.46
234.063	8.51
234.281	5.76
234.5	8.72
234.719	15.3
234.937	10.07
235.156	10.12
235.374	11.92
235.593	33.11
235.811	32.99
236.03	35.45
236.249	25.42
236.467	32.02
236.686	13.17
236.904	11.45
237.123	19.82
237.341	16.53
237.559	8.31
237.778	18.76
237.996	-3.01
238.215	-78.23
238.433	-112.38
238.652	-54.05
238.87	-55.22
239.088	-30.42
239.307	7.61
239.525	21.56
239.743	16.99
239.962	11.16
240.18	23.86
240.398	25.57
240.617	5.31
240.835	-2.97
241.053	-11.59
241.271	-27.43
241.49	-11.34
241.708	-16.16
241.926	-23.75
242.144	-10.2
242.363	-24.2
242.581	-74.43
242.799	3.29
243.017	23.5
243.235	15.9
243.453	25.04
243.672	12.17
243.89	10.78
244.108	26.69
244.326	36.09
244.544	47.4
244.762	46.79
244.98	34.09
245.198	30.7
245.416	25.18
245.634	16.61
245.852	14.88
246.07	32.65
246.288	26.09
246.506	24.94
246.724	14.75
246.942	13.54
247.16	13.96
247.378	-11.94
247.596	-9.18
247.814	-5.1
248.032	-19.03
248.25	7.33
248.468	22.93
248.685	21.55
248.903	13.16
249.121	18.87
249.339	9.27
249.557	8.78
249.775	21.46
249.992	28.99
250.21	29.75
250.428	29.11
250.646	31.86
250.863	8.98
251.081	4.19
251.299	6.51
251.517	10.64
251.734	9.36
251.952	20.54
252.17	27.31
252.387	5.3
252.605	-0.83
252.823	-29.25
253.04	-29.66
253.258	-25.58
253.475	2.75
253.693	-5.18
253.911	6.15
254.128	4.4
254.346	10.08
254.563	17.02
254.781	19.34
254.998	16.06
255.216	-1.91
255.433	-34.28
255.651	-29.65
255.868	-30.59
256.086	-16.73
256.303	6.75
256.521	19.61
256.738	15.39
256.956	20.48
257.173	7.7
257.39	4.73
257.608	-1.61
257.825	-0.34
258.043	10.34
258.26	10.38
258.477	4.97
258.695	11.03
258.912	2.79
259.129	-10.51
259.346	-1.62
259.564	12.44
259.781	-4.98
259.998	16.19
260.216	29.72
260.433	4.41
260.65	-2.24
260.867	12.59
261.084	5.59
261.302	-15.85
261.519	18.98
261.736	14.51
261.953	4.78
262.17	19.47
262.387	16.4
262.604	7.41
262.822	18.08
263.039	23.1
263.256	12.73
263.473	9.35
263.69	16.02
263.907	16.15
264.124	15.85
264.341	34.08
264.558	47.71
264.775	43.3
264.992	44.93
265.209	28.42
265.426	5.42
265.643	-8.27
265.86	-8.21
266.077	-5.46
266.294	20.49
266.51	42.69
266.727	43.12
266.944	52.07
267.161	39.2
267.378	41.16
267.595	17.78
267.812	17.48
268.028	22.22
268.245	26.13
268.462	8.77
268.679	22.9
268.896	28.68
269.112	10.29
269.329	-0.27
269.546	28.79
269.763	16.88
269.979	-1.38
270.196	6.69
270.413	8.51
270.629	-19.3
270.846	-13.39
271.063	8.71
271.279	15.79
271.496	25.29
271.712	32.65
271.929	32.35
272.146	21.6
272.362	2.81
272.579	-12.51
272.795	-10.51
273.012	5.64
273.228	16.36
273.445	16.16
273.661	25.33
273.878	0.15
274.094	-10.5
274.311	-7.74
274.527	-32.74
274.744	-6.3
274.96	21.87
275.177	12.26
275.393	15.66
275.609	31.41
275.826	30.84
276.042	17.8
276.259	20.15
276.475	18.84
276.691	6.45
276.908	-10.06
277.124	-5.61
277.34	-13.09
277.557	-18.97
277.773	-12.82
277.989	7.84
278.205	20.58
278.422	10.09
278.638	24.94
278.854	5.33
279.07	8.48
279.286	0.9
279.503	10.37
279.719	0.37
279.935	9.31
280.151	-2.54
280.367	7.59
280.583	13.57
280.799	7.37
281.016	-9.7
281.232	3
281.448	-16.63
281.664	-19.46
281.88	-5.58
282.096	15.93
282.312	14.6
282.528	17.12
282.744	29.57
282.96	20.4
283.176	-9.08
283.392	-54.71
283.608	-39.53
283.824	-58.35
284.04	-103.15
284.256	-27.45
284.471	0.11
284.687	7.57
284.903	4.9
285.119	32.27
285.335	29.07
285.551	33.72
285.767	27.87
285.982	35.58
286.198	-4.6
286.414	-3.71
286.63	2.98
286.846	-18.75
287.061	1.34
287.277	7.7
287.493	-9.96
287.709	-39.77
287.924	-5.25
288.14	8.07
288.356	24.47
288.571	34.56
288.787	42.58
289.003	42.25
289.218	23.05
289.434	12.92
289.65	15.46
289.865	8.37
290.081	4.89
290.296	7.18
290.512	5.48
290.727	-6.16
290.943	-1.94
291.159	-9.49
291.374	-31.78
291.59	-29.33
291.805	-38.87
292.021	-24.24
292.236	-20.98
292.451	6.1
292.667	10.5
292.882	29.55
293.098	30.31
293.313	26.77
293.529	19.64
293.744	13.18
293.959	6.84
294.175	0.12
294.39	-13.19
294.605	7.36
294.821	7.71
295.036	2.47
295.251	12.9
295.467	9.91
295.682	-2.39
295.897	-13.69
296.112	-21.9
296.328	-12.26
296.543	-13
296.758	-10
296.973	-7.7
297.188	0.54
297.404	-50.51
297.619	-44.79
297.834	-72.7
298.049	-32.03
298.264	-29.18
298.479	-0.32
298.694	16.24
298.909	28.41
299.125	18.1
299.34	25.66
299.555	26.79
299.77	31.74
299.985	27.11
300.2	37.96
300.415	35.89
300.63	35.18
300.845	25.66
301.06	21.62
301.275	8.11
301.49	7.12
301.704	-3.73
301.919	-11.14
302.134	-21.71
302.349	-3.28
302.564	-5.04
302.779	-13.55
302.994	17.5
303.209	32.41
303.423	27.44
303.638	38.67
303.853	48.5
304.068	14.24
304.283	10.92
304.497	-8.56
304.712	2.35
304.927	13.42
305.142	26.79
305.356	33.84
305.571	34.96
305.786	21.92
306	22.44
306.215	22.2
306.43	4.49
306.644	-1.72
306.859	-3.9
307.074	-5.99
307.288	-5.01
307.503	3.82
307.717	15.19
307.932	15.7
308.147	9.63
308.361	6.97
308.576	-10.06
308.79	-10.26
309.005	-11.31
309.219	7.77
309.434	11.34
309.648	18.67
309.863	10.47
310.077	6.33
310.292	3.51
310.506	-12.79
310.72	-16.63
310.935	-0.38
311.149	-6.77
311.364	-12.29
311.578	7.81
311.792	11.15
312.007	17.31
312.221	18.12
312.435	23.05
312.649	18.23
312.864	33.19
313.078	18.08
313.292	29.56
313.507	29.07
313.721	28.77
313.935	17.93
314.149	27.8
314.363	30.76
314.578	29.59
314.792	6.98
315.006	7.25
315.22	6.73
315.434	8.14
315.648	3
315.862	23.33
316.077	13.9
316.291	22.47
316.505	-0.29
316.719	0.14
316.933	-6.95
317.147	4.85
317.361	0.48
317.575	14.89
317.789	17.72
318.003	8.22
318.217	12.1
318.431	-9.22
318.645	-17.02
318.859	-16.31
319.073	7.47
319.287	-2.06
319.5	12.2
319.714	13.27
319.928	18.37
320.142	2.07
320.356	16.21
320.57	-0.56
320.784	16.61
320.997	-5.34
321.211	13.73
321.425	-9.02
321.639	9.72
321.853	7.16
322.066	8.23
322.28	-6.87
322.494	6.73
322.707	4.94
322.921	1.18
323.135	8.09
323.349	6.77
323.562	11.45
323.776	0.58
323.989	10.16
324.203	1.98
324.417	6.2
324.63	-11.16
324.844	-17.62
325.057	-43.66
325.271	-24.11
325.485	-22.39
325.698	9.99
325.912	38.38
326.125	29.08
326.339	24.55
326.552	20.12
326.766	0.98
326.979	-3.01
327.193	11.05
327.406	7.12
327.619	8.02
327.833	14.32
328.046	1.7
328.26	-2.3
328.473	3.49
328.686	17.48
328.9	24.48
329.113	26.04
329.326	29.38
329.54	35.57
329.753	38.37
329.966	32.53
330.179	38.37
330.393	52.04
330.606	53.93
330.819	49.2
331.032	41.38
331.246	36.8
331.459	40.88
331.672	30.58
331.885	8.53
332.098	24.23
332.311	15.55
332.525	-0.31
332.738	5.57
332.951	3.29
333.164	0.08
333.377	6.26
333.59	7.33
333.803	13.67
334.016	30.38
334.229	28.29
334.442	18.97
334.655	19.83
334.868	13.23
335.081	10.33
335.294	0.89
335.507	13.18
335.72	-4.15
335.933	-5.38
336.146	-11.11
336.359	4.7
336.572	-6.96
336.785	-3
336.997	-23.1
337.21	-14.48
337.423	-19.77
337.636	-1.85
337.849	0.51
338.062	13.83
338.274	10.89
338.487	-18.48
338.7	-19.5
338.913	-10.43
339.125	-29.89
339.338	-16.56
339.551	14.37
339.763	6.73
339.976	13.46
340.189	25.32
340.402	27.71
340.614	28.78
340.827	27.74
341.039	16.21
341.252	11.86
341.465	0.26
341.677	-1.04
341.89	-8.43
342.102	5.57
342.315	-2.14
342.527	1.37
342.74	-2.36
342.952	-3.36
343.165	-11.19
343.377	-3.26
343.59	9.11
343.802	6.65
344.015	31.7
344.227	30.19
344.44	26.2
344.652	0.24
344.864	13.57
345.077	11.53
345.289	16.28
345.502	31.92
345.714	45.51
345.926	38.4
346.139	6.03
346.351	18.01
346.563	13.56
346.775	15.88
346.988	22.8
347.2	34.45
347.412	30.07
347.624	30.17
347.837	30.47
348.049	15.98
348.261	-0.32
348.473	-11.89
348.685	-22.02
348.897	-29.95
349.11	-22.5
349.322	7.02
349.534	1.89
349.746	-3.62
349.958	-9.38
350.17	-19.67
350.382	-37.13
350.594	-16.35
350.806	25.47
351.018	30.52
351.23	43.04
351.442	42.91
351.654	37.86
351.866	6.69
352.078	21.73
352.29	17.22
352.502	16.43
352.714	7.53
352.926	12
353.138	7.34
353.35	-1.44
353.561	7.06
353.773	9.13
353.985	13.31
354.197	1.42
354.409	0.84
354.621	-22.19
354.832	-24.33
355.044	-38.61
355.256	-35.47
355.468	-44.51
355.679	-6.1
355.891	5.01
356.103	13.94
356.314	7.5
356.526	1.85
356.738	-13.1
356.949	-18.77
357.161	-7.17
357.373	-5.89
357.584	10.49
357.796	15.41
358.008	21.96
358.219	17.95
358.431	15.37
358.642	8.02
358.854	13.36
359.065	-4.65
359.277	-1.71
359.488	1.29
359.7	6.18
359.911	-8.68
360.123	11.99
360.334	5.84
360.546	4.31
360.757	4.26
360.969	12.18
361.18	3.72
361.391	4.05
361.603	10.01
361.814	24.04
362.025	32.2
362.237	29.61
362.448	36.74
362.659	33.67
362.871	8.83
363.082	-7.74
363.293	-14.14
363.504	-45.22
363.716	-35.84
363.927	-2.57
364.138	-17.88
364.349	-14.6
364.56	-6.46
364.772	-2.73
364.983	2.23
365.194	23.16
365.405	25.54
365.616	38.97
365.827	21.8
366.038	23.27
366.25	26.3
366.461	16.71
366.672	8.13
366.883	10.2
367.094	1.43
367.305	-10.94
367.516	2.22
367.727	-12.11
367.938	-0.05
368.149	-9.85
368.36	-16.45
368.571	-28.76
368.781	-22.32
368.992	-30.99
369.203	-21.02
369.414	-22.62
369.625	-18.34
369.836	16.3
370.047	27.7
370.258	43.96
370.468	47.6
370.679	41.45
370.89	16.47
371.101	3.73
371.312	-9.71
371.522	-4.75
371.733	1.21
371.944	-7.28
372.155	-15.56
372.365	0.9
372.576	-19.34
372.787	-11.44
372.997	-12.29
373.208	1.24
373.419	-13.51
373.629	-7.2
373.84	-16.86
374.05	-14.73
374.261	-18.6
374.472	-21.36
374.682	-13.53
374.893	-18.35
375.103	5.87
375.314	8.4
375.524	22.61
375.735	22.56
375.945	20.35
376.156	6.51
376.366	3.61
376.577	-9.77
376.787	-10.36
376.997	-3.57
377.208	1.91
377.418	8.69
377.629	12.88
377.839	17.68
378.049	22.12
378.26	18.06
378.47	10.33
378.68	9.42
378.89	1.62
379.101	0.07
379.311	0.28
379.521	1.08
379.732	12.77
379.942	11.1
380.152	8.48
380.362	3.48
380.572	10.88
380.783	9.99
380.993	13.18
381.203	12.48
381.413	19.88
381.623	15.24
381.833	10.82
382.043	13.58
382.253	18.63
382.463	27.23
382.674	31.73
382.884	25.98
383.094	21.34
383.304	22.91
383.514	10.25
383.724	3.71
383.934	-1.51
384.144	3.7
384.353	1.95
384.563	10.22
384.773	14.19
384.983	15.8
385.193	11.69
385.403	6.24
385.613	1.89
385.823	0.34
386.033	-0.52
386.242	-4.69
386.452	-6.4
386.662	-4.08
386.872	3.91
387.082	2.82
387.291	4.37
387.501	6.91
387.711	6.69
387.921	2.74
388.13	6.03
388.34	8.12
388.55	5.8
388.759	-0.02
388.969	-3.76
389.179	-0.58
389.388	-1.38
389.598	-0.71
389.807	-3.38
390.017	-1.42
390.227	-4.39
390.436	-2.46
390.646	-3.38
390.855	3.23
391.065	0.59
391.274	0.77
391.484	-2.43
391.693	-0.41
391.903	-2.08
392.112	1.3
392.322	2.04
392.531	3.17
392.74	0.88
392.95	2.49
393.159	0.85
393.369	-0.29
393.578	-0.14
393.787	1.26
393.997	0.01
394.206	-0.58
394.415	0.24
394.625	0.71
394.834	-0.14
395.043	1.37
395.252	4.25
395.462	5.67
395.671	6.09
395.88	7.24
396.089	5.9
396.298	4.81
396.508	3.92
396.717	3.42
396.926	2.72
397.135	3.25
397.344	2.63
397.553	2.42
397.762	3.39
397.971	3.46
398.181	3.9
398.39	4.12
398.599	4.36
398.808	4.08
399.017	4.6
399.226	4.74
399.435	4.55
399.644	4.95
399.853	4.64
400.062	4.72
400.27	4.22
400.479	4.49
400.688	4.4
400.897	4.51
401.106	4.45
401.315	4.41
401.524	4.55
401.733	4.28
401.941	4.68
402.15	4.47
402.359	4.6
402.568	4.73
402.777	5.02
402.985	4.62
403.194	4.57
403.403	4.64
403.612	4.32
403.82	4.04
404.029	4.09
404.238	4.21
404.446	4.25
404.655	4.29
404.864	4.37
405.072	4.4
405.281	4.39
405.489	4.22
405.698	4.27
405.906	4.4
406.115	4.32
406.324	4.34
406.532	4.49
406.741	4.62
406.949	4.64
407.158	4.73
407.366	4.7
407.574	4.74
407.783	4.57
407.991	4.49
408.2	4.53
408.408	4.57
408.617	4.5
408.825	4.46
409.033	4.4
409.242	4.46
409.45	4.42
409.658	4.3
409.867	4.4
410.075	4.46
410.283	4.26
410.491	4.22
410.7	4.15
410.908	4.3
411.116	4.34
411.324	4.41
411.533	4.3
411.741	4.44
411.949	4.31
412.157	4.19
412.365	4.3
412.573	4.33
412.781	4.39
412.99	4.35
413.198	4.36
413.406	4.42
413.614	4.59
413.822	4.55
414.03	4.5
414.238	4.55
414.446	4.39
414.654	4.15
414.862	4.16
415.07	4.21
415.278	4.25
415.486	4.07
415.694	4.25
415.902	4.17
416.109	4.08
416.317	3.96
416.525	4.03
416.733	3.81
416.941	3.88
417.149	3.76
417.357	3.79
417.564	3.77
417.772	4.1
417.98	4.09
418.188	4.18
418.395	4.09
418.603	4
418.811	3.81
419.019	3.8
419.226	3.91
419.434	3.91
419.642	3.92
419.849	3.84
420.057	3.82
420.265	3.76
420.472	3.8
420.68	3.96
420.887	3.95
421.095	4
421.302	3.95
421.51	3.93
421.717	3.89
421.925	3.88
422.132	3.82
422.34	3.66
422.547	3.73
422.755	3.85
422.962	3.9
423.17	3.77
423.377	3.92
423.585	4
423.792	3.82
423.999	3.89
424.207	3.76
424.414	3.73
424.621	3.62
424.829	3.7
425.036	3.67
425.243	3.82
425.451	3.91
425.658	3.84
425.865	3.72
426.072	3.75
426.28	3.87
426.487	3.76
426.694	3.72
426.901	3.78
427.108	3.71
427.315	3.62
427.523	3.54
427.73	3.6
427.937	3.4
428.144	3.32
428.351	3.34
428.558	3.47
428.765	3.39
428.972	3.58
429.179	3.43
429.386	3.47
429.593	3.34
429.8	3.3
430.007	3.33
430.214	3.58
430.421	3.55
430.628	3.56
430.835	3.58
431.042	3.58
431.249	3.46
431.456	3.39
431.662	3.5
431.869	3.7
432.076	3.65
432.283	3.74
432.49	3.84
432.697	3.8
432.903	3.64
433.11	3.74
433.317	3.73
433.524	3.74
433.73	3.67
433.937	3.86
434.144	3.79
434.35	3.71
434.557	3.69
434.764	3.73
434.97	3.5
435.177	3.65
435.384	3.74
435.59	3.77
435.797	3.84
436.003	3.9
436.21	3.71
436.416	3.75
436.623	3.67
436.829	3.56
437.036	3.59
437.242	3.62
437.449	3.56
437.655	3.63
437.862	3.74
438.068	3.82
438.275	3.83
438.481	3.83
438.687	3.8
438.894	3.88
439.1	3.73
439.307	3.84
439.513	3.88
439.719	3.98
439.926	3.94
440.132	4.07
440.338	3.98
440.544	3.98
440.751	3.84
440.957	3.9
441.163	3.81
441.369	3.77
441.575	3.71
441.782	3.82
441.988	3.75
442.194	3.71
442.4	3.75
442.606	3.83
442.812	3.81
443.018	3.84
443.224	4.03
443.431	4.13
443.637	4.05
443.843	4.09
444.049	4.14
444.255	4.15
444.461	4.04
444.667	4.07
444.873	4.07
445.079	3.98
445.284	3.92
445.49	3.88
445.696	3.86
445.902	3.75
446.108	3.85
446.314	3.77
446.52	3.94
446.726	4.01
446.931	4.01
447.137	3.92
447.343	4.01
447.549	3.97
447.755	3.94
447.96	4.03
448.166	4.1
448.372	4.04
448.578	3.95
448.783	3.89
448.989	3.89
449.195	3.94
449.4	4.05
449.606	4.15
449.812	4.14
450.017	4.15
450.223	4.05
450.428	3.96
450.634	3.91
450.84	3.93
451.045	3.97
451.251	4.11
451.456	4.15
451.662	4.2
451.867	4.28
452.073	4.24
452.278	4.14
452.483	4.05
452.689	3.93
452.894	3.98
453.1	3.92
453.305	3.91
453.51	4.02
453.716	4.09
453.921	4.14
454.127	4.14
454.332	4.16
454.537	4.05
454.742	4.04
454.948	3.92
455.153	3.99
455.358	3.96
455.563	4.01
455.769	4.09
455.974	4.06
456.179	3.99
456.384	3.93
456.589	3.92
456.795	3.81
457	3.87
457.205	3.86
457.41	3.89
457.615	3.81
457.82	3.89
458.025	3.83
458.23	3.85
458.435	3.9
458.64	3.96
458.845	3.96
459.05	4.01
459.255	3.99
459.46	3.96
459.665	4
459.87	3.9
460.075	3.91
460.28	3.95
460.485	4
460.69	3.96
460.895	4.06
461.099	3.92
461.304	3.82
461.509	3.83
461.714	3.92
461.919	3.82
462.123	3.95
462.328	3.93
462.533	3.82
462.738	3.72
462.942	3.77
463.147	3.8
463.352	3.93
463.556	4
463.761	4.02
463.966	3.98
464.17	4.08
464.375	4.08
464.58	4.02
464.784	4.03
464.989	4.08
465.193	3.9
465.398	3.87
465.602	4.02
465.807	4.04
466.011	4.08
466.216	4.05
466.42	4.1
466.625	4.12
466.829	4.12
467.034	4.15
467.238	4.26
467.443	4.21
467.647	4.07
467.851	4.13
468.056	4.09
468.26	4
468.464	4.03
468.669	4.17
