Data from Ofra_PS_T2_2A_1GT37_Reflection_2.txt Node
Date: Wed Jul 21 16:54:32 EDT 2021
User: Adam
Spectrometer: FLMT01687
Trigger mode: 0
Integration Time (sec): 1.100000E0
Scans to average: 2
Electric dark correction enabled: true
Nonlinearity correction enabled: false
Boxcar width: 2
XAxis mode: Wavelengths
Number of Pixels in Spectrum: 3648
>>>>>Begin Spectral Data<<<<<
179.494	373.6
179.716	440.24
179.937	431.45
180.158	447.25
180.38	739.37
180.601	366.85
180.823	175.19
181.044	85.78
181.265	201.47
181.486	86.33
181.708	81.99
181.929	-297.96
182.15	302.82
182.372	173.99
182.593	104.18
182.814	48.88
183.035	31.13
183.257	13.79
183.478	2.34
183.699	37.2
183.92	17.71
184.141	37.9
184.363	37.35
184.584	64.71
184.805	65.5
185.026	85.47
185.247	66.96
185.468	31.95
185.689	12.65
185.91	-1.57
186.132	-8.36
186.353	8.53
186.574	68.67
186.795	61.47
187.016	34.67
187.237	16.17
187.458	8.41
187.679	-18.93
187.9	-10.34
188.121	13.81
188.342	36.76
188.563	56.47
188.784	82.1
189.005	58.68
189.226	79.63
189.447	71.73
189.667	-156.31
189.888	-355.17
190.109	-706.49
190.33	-428.39
190.551	-845.13
190.772	-160.05
190.993	-104.77
191.214	-114.85
191.434	-56.86
191.655	5.03
191.876	-6.57
192.097	-57.87
192.318	-85.66
192.538	-114.66
192.759	-90.69
192.98	-23.14
193.201	24.29
193.421	35.49
193.642	35.97
193.863	28.24
194.083	24.12
194.304	13.34
194.525	8.68
194.745	-46.91
194.966	-28.66
195.187	-45.06
195.407	-74.12
195.628	-109.6
195.848	-55.79
196.069	-48.3
196.29	-29.89
196.51	-35.48
196.731	-36.47
196.951	-34.47
197.172	-52.57
197.392	-52.74
197.613	-49.24
197.833	-85.21
198.054	-88.02
198.274	-49.88
198.495	-63.55
198.715	-25.5
198.936	-8.92
199.156	-0.09
199.377	-56.26
199.597	-53.05
199.817	-81.59
200.038	-43.73
200.258	-57.35
200.479	5.5
200.699	-17.67
200.919	45.1
201.14	-2.54
201.36	-36.36
201.58	-6.45
201.801	42.12
202.021	1.65
202.241	11.36
202.461	19.22
202.682	-43.79
202.902	-127.79
203.122	-48.43
203.342	-30.76
203.563	17.71
203.783	42.26
204.003	29.54
204.223	31.56
204.443	41.62
204.663	-13.8
204.884	2.96
205.104	31.48
205.324	28.32
205.544	65.79
205.764	68.05
205.984	58.83
206.204	49.18
206.424	38.15
206.644	2.32
206.864	13.64
207.084	-13.06
207.304	13.86
207.525	7.19
207.745	-1.88
207.964	29.54
208.184	-6.03
208.404	-43.58
208.624	-48.45
208.844	-53.03
209.064	-271.2
209.284	-238.08
209.504	-53.1
209.724	8.34
209.944	27.76
210.164	43.13
210.384	35.08
210.604	12.65
210.823	-16.03
211.043	-40.12
211.263	-24.77
211.483	-13.99
211.703	-30.88
211.922	-25.39
212.142	26.22
212.362	2.31
212.582	1.44
212.801	-12.11
213.021	-11.83
213.241	-52.94
213.461	-45.89
213.68	-62.55
213.9	-69.28
214.12	-58.75
214.339	-79.94
214.559	-61.09
214.779	-23.2
214.998	4.86
215.218	-18.81
215.438	4.18
215.657	-3.7
215.877	-8.76
216.096	7.2
216.316	15.27
216.535	-4.77
216.755	-2.81
216.974	-77.21
217.194	-151.36
217.413	-141.62
217.633	-124.29
217.852	-244.91
218.072	-98.41
218.291	-34.65
218.511	-1.73
218.73	-21.1
218.95	-1.33
219.169	-8.51
219.389	-47.15
219.608	-22.68
219.827	-15.65
220.047	13.26
220.266	30.44
220.485	53.03
220.705	55.99
220.924	40.97
221.143	45.66
221.363	28.84
221.582	43.68
221.801	48.82
222.021	65.53
222.24	50.98
222.459	95.87
222.678	50.81
222.897	3.64
223.117	-11.93
223.336	-21.52
223.555	-4.07
223.774	4.87
223.993	-1.32
224.213	39.15
224.432	38.12
224.651	55.37
224.87	29.8
225.089	35.53
225.308	17.99
225.527	42.32
225.746	24.49
225.965	23.96
226.184	29.6
226.404	35.67
226.623	11.8
226.842	32.23
227.061	50.5
227.28	42.46
227.499	42.08
227.718	48.35
227.936	31.51
228.155	39.8
228.374	24.62
228.593	29.91
228.812	24.78
229.031	34.82
229.25	4.44
229.469	36.06
229.688	21.54
229.907	21.17
230.125	34.97
230.344	39.1
230.563	26.7
230.782	43.92
231.001	-8.45
231.22	-26.67
231.438	-10.08
231.657	7.08
231.876	-8.76
232.095	34.08
232.313	21.5
232.532	-11.03
232.751	-44.42
232.969	-42.7
233.188	-127.88
233.407	-4.3
233.625	16.68
233.844	26.32
234.063	33.04
234.281	63.78
234.5	49.36
234.719	42.12
234.937	41.76
235.156	35.35
235.374	26.89
235.593	13.06
235.811	17.04
236.03	20.99
236.249	30.57
236.467	6.87
236.686	33.24
236.904	29.52
237.123	17.3
237.341	12.4
237.559	20.12
237.778	7.28
237.996	1.9
238.215	28.39
238.433	32.92
238.652	25.63
238.87	-3.38
239.088	-8.4
239.307	-15.9
239.525	-46.3
239.743	-48.7
239.962	-24.91
240.18	-28.33
240.398	-81.33
240.617	-59.93
240.835	-43.58
241.053	-43.28
241.271	-32.96
241.49	22.55
241.708	2.38
241.926	-30.17
242.144	-28.74
242.363	-47.71
242.581	-98.5
242.799	-38.77
243.017	-9.69
243.235	-9.14
243.453	10.78
243.672	19.99
243.89	5.29
244.108	-7.7
244.326	6.89
244.544	15.44
244.762	14.68
244.98	25.16
245.198	33.15
245.416	21.51
245.634	17.23
245.852	24.64
246.07	23.44
246.288	36.33
246.506	12.72
246.724	12.33
246.942	1.39
247.16	23.34
247.378	19.27
247.596	34.95
247.814	46.66
248.032	29.7
248.25	31.48
248.468	26.42
248.685	26.46
248.903	29.77
249.121	39.55
249.339	6.36
249.557	6.11
249.775	16.96
249.992	-46.76
250.21	-44.52
250.428	-22.35
250.646	-50
250.863	-68.83
251.081	-28.42
251.299	-26.22
251.517	-22.02
251.734	10
251.952	12.52
252.17	14.29
252.387	19.88
252.605	15.56
252.823	25
253.04	37.99
253.258	57.59
253.475	55.97
253.693	70.22
253.911	58.77
254.128	74.25
254.346	67.72
254.563	45.47
254.781	31.41
254.998	5.79
255.216	-16.86
255.433	-1.26
255.651	8.85
255.868	-8.41
256.086	24.6
256.303	19.02
256.521	16.31
256.738	8.2
256.956	2.96
257.173	-17.24
257.39	-33.07
257.608	-47.67
257.825	1.06
258.043	34.96
258.26	43.26
258.477	60.69
258.695	55.53
258.912	4.07
259.129	5.86
259.346	-11.38
259.564	-45.73
259.781	-45.1
259.998	18.04
260.216	16.45
260.433	25.1
260.65	26.15
260.867	30.13
261.084	1.42
261.302	-2.54
261.519	-12.8
261.736	-26.29
261.953	-47.21
262.17	-2.24
262.387	-23.58
262.604	-34.74
262.822	-26.17
263.039	-16.08
263.256	-66.21
263.473	-17.71
263.69	1.17
263.907	23.11
264.124	31.58
264.341	27.18
264.558	11.98
264.775	10.92
264.992	9.49
265.209	0.62
265.426	14.05
265.643	19.77
265.86	26.53
266.077	17.87
266.294	26.74
266.51	-6.34
266.727	-23.29
266.944	-22.95
267.161	-21.78
267.378	-12.82
267.595	43.05
267.812	36.17
268.028	26.74
268.245	45.95
268.462	7.33
268.679	-24.88
268.896	20.85
269.112	28.14
269.329	27.94
269.546	33.87
269.763	27.06
269.979	10.3
270.196	12.56
270.413	-17.99
270.629	-27.73
270.846	-19.96
271.063	-24.68
271.279	-36.81
271.496	-19.74
271.712	5.24
271.929	3.6
272.146	3.9
272.362	-3.64
272.579	-3.83
272.795	-12.05
273.012	-8.09
273.228	-10.49
273.445	-17.5
273.661	-26.58
273.878	-38.53
274.094	-14.84
274.311	-40.42
274.527	7.46
274.744	1.84
274.96	-0.66
275.177	1.1
275.393	23.24
275.609	16.15
275.826	42.67
276.042	52.03
276.259	38.98
276.475	42.14
276.691	37.55
276.908	20.74
277.124	24.77
277.34	25.33
277.557	2.99
277.773	3.11
277.989	-5.29
278.205	-4.83
278.422	9.21
278.638	8.82
278.854	17.25
279.07	30.95
279.286	20.84
279.503	-10.71
279.719	-4.4
279.935	-13.83
280.151	-33.85
280.367	-15.98
280.583	-22.95
280.799	-14.54
281.016	-33.07
281.232	3.27
281.448	6.56
281.664	31.92
281.88	4.55
282.096	12.62
282.312	13.25
282.528	12.49
282.744	4.82
282.96	23.02
283.176	12.35
283.392	10.35
283.608	6.35
283.824	2.31
284.04	12.22
284.256	10
284.471	0.61
284.687	-0.42
284.903	22.87
285.119	38.87
285.335	41.79
285.551	42.16
285.767	21.39
285.982	7.02
286.198	-30.76
286.414	6.4
286.63	18.59
286.846	36.83
287.061	24.78
287.277	46.75
287.493	18.58
287.709	18.17
287.924	4.12
288.14	22.71
288.356	7.18
288.571	29.1
288.787	22.4
289.003	25.28
289.218	24.07
289.434	6.93
289.65	5.91
289.865	6.25
290.081	13.66
290.296	-5.01
290.512	5.82
290.727	-12.35
290.943	-12.85
291.159	-7.88
291.374	4.47
291.59	-5.19
291.805	10.86
292.021	24.57
292.236	21.78
292.451	23.76
292.667	29.85
292.882	47.42
293.098	44.06
293.313	41.72
293.529	17.19
293.744	15.66
293.959	-4.59
294.175	-1.33
294.39	19.53
294.605	28.2
294.821	41.26
295.036	31.92
295.251	26.94
295.467	12.83
295.682	-0.62
295.897	-35.38
296.112	-36.66
296.328	-38.77
296.543	-47.02
296.758	-28.91
296.973	-14.72
297.188	20.83
297.404	5.78
297.619	-3.4
297.834	-24.62
298.049	-40.39
298.264	-49.58
298.479	1.45
298.694	10.19
298.909	38.78
299.125	52.1
299.34	59.57
299.555	36.92
299.77	34.58
299.985	-11.47
300.2	-59.39
300.415	-70.5
300.63	-55.86
300.845	-54.35
301.06	-55.16
301.275	-26.65
301.49	-19.06
301.704	-20.97
301.919	-26.32
302.134	-22.29
302.349	-11.41
302.564	-43.14
302.779	-42.67
302.994	25.71
303.209	44.21
303.423	43.73
303.638	60.36
303.853	46.21
304.068	23.29
304.283	21.94
304.497	20.19
304.712	23.35
304.927	26.89
305.142	20.6
305.356	37.58
305.571	27.63
305.786	1.61
306	-12.67
306.215	-15.61
306.43	-53.05
306.644	-46
306.859	9.42
307.074	23.89
307.288	20.87
307.503	33.62
307.717	37.34
307.932	16.62
308.147	10.63
308.361	18.18
308.576	-6.99
308.79	-58.23
309.005	-39.68
309.219	-35.45
309.434	-40.49
309.648	-25.44
309.863	-0.84
310.077	2.94
310.292	9.68
310.506	17.22
310.72	33.4
310.935	49.89
311.149	37.52
311.364	35.88
311.578	38.66
311.792	26.74
312.007	14.94
312.221	14.45
312.435	16.86
312.649	12.87
312.864	37.21
313.078	45.11
313.292	82.4
313.507	73.93
313.721	64.99
313.935	38.58
314.149	13.55
314.363	7.32
314.578	0.58
314.792	15.38
315.006	-5.52
315.22	20.37
315.434	13.45
315.648	24.58
315.862	17.64
316.077	30.6
316.291	28.11
316.505	35.54
316.719	23.94
316.933	16.54
317.147	4.53
317.361	-46.46
317.575	-73.23
317.789	-95.42
318.003	-157.96
318.217	-123.76
318.431	-45.46
318.645	2.84
318.859	13.71
319.073	22.58
319.287	17.46
319.5	-7.48
319.714	-20.29
319.928	-34.5
320.142	-31.48
320.356	4.98
320.57	45.93
320.784	36.27
320.997	32.92
321.211	20.28
321.425	-27.14
321.639	-46.85
321.853	-13.86
322.066	9.21
322.28	14.71
322.494	24.37
322.707	17.27
322.921	8.15
323.135	4.67
323.349	9.49
323.562	0.56
323.776	2.04
323.989	7.54
324.203	-14.93
324.417	-19.15
324.63	-25.56
324.844	-17.68
325.057	-17.24
325.271	0.32
325.485	7.26
325.698	26.51
325.912	34.16
326.125	25.92
326.339	13.72
326.552	-1.06
326.766	-1.04
326.979	14.65
327.193	21.08
327.406	19.16
327.619	18.16
327.833	32.04
328.046	4.58
328.26	-20.6
328.473	17.34
328.686	11.57
328.9	6.67
329.113	30.55
329.326	29.72
329.54	18.93
329.753	25.24
329.966	-2.42
330.179	-10.15
330.393	2.28
330.606	6.17
330.819	20.42
331.032	37.14
331.246	33.19
331.459	55.26
331.672	43.03
331.885	36.76
332.098	3.9
332.311	7.36
332.525	-26.64
332.738	-20.42
332.951	-7.49
333.164	31.54
333.377	38.38
333.59	44.67
333.803	49.9
334.016	47.37
334.229	23.59
334.442	26.94
334.655	51.67
334.868	52.53
335.081	42.17
335.294	63.14
335.507	47.82
335.72	20.53
335.933	5.58
336.146	1.08
336.359	-28.89
336.572	-48.68
336.785	-61.62
336.997	-60.58
337.21	-37.19
337.423	-16.97
337.636	-13.95
337.849	-3.73
338.062	-0.25
338.274	-19.33
338.487	-32.73
338.7	-26.24
338.913	-57.84
339.125	-72.32
339.338	-94.1
339.551	-75.87
339.763	-55.21
339.976	-10.31
340.189	9.72
340.402	11.14
340.614	-1.61
340.827	-6.29
341.039	-32.66
341.252	-25.92
341.465	0.89
341.677	-0.4
341.89	-18.32
342.102	1.85
342.315	-19.7
342.527	-61.45
342.74	-47.45
342.952	-20.87
343.165	-3.77
343.377	16.86
343.59	17.81
343.802	28.09
344.015	24.89
344.227	16.82
344.44	22.25
344.652	38.22
344.864	28.29
345.077	40.48
345.289	36.39
345.502	33.7
345.714	18.89
345.926	25.88
346.139	16.37
346.351	17.25
346.563	21.27
346.775	28.82
346.988	14.48
347.2	6.11
347.412	-27.88
347.624	-53.68
347.837	-83.47
348.049	-53.09
348.261	-20.37
348.473	4.22
348.685	16.32
348.897	19.15
349.11	-1.26
349.322	-24.98
349.534	-26.01
349.746	-14.53
349.958	12.6
350.17	32.6
350.382	50.14
350.594	56.82
350.806	65.89
351.018	48.35
351.23	45.93
351.442	13.52
351.654	12.29
351.866	-5.14
352.078	6.12
352.29	4.18
352.502	10.03
352.714	8.41
352.926	3.36
353.138	-1.41
353.35	-0.04
353.561	9.87
353.773	2.08
353.985	7.87
354.197	7.17
354.409	-6.9
354.621	-11.73
354.832	3.16
355.044	-8.5
355.256	-5.15
355.468	13.95
355.679	12.73
355.891	13.27
356.103	0.42
356.314	7.06
356.526	-1.51
356.738	-5.48
356.949	-17.45
357.161	18.6
357.373	9.94
357.584	10.28
357.796	26.76
358.008	21.21
358.219	21.86
358.431	25.17
358.642	25
358.854	19.12
359.065	5.8
359.277	-6.53
359.488	-10.95
359.7	-18.2
359.911	-38.13
360.123	-16.23
360.334	-18.86
360.546	-27.82
360.757	-27.34
360.969	-14.98
361.18	-7.29
361.391	-4.11
361.603	0.66
361.814	25.09
362.025	30.84
362.237	25.34
362.448	34.66
362.659	41.35
362.871	23.01
363.082	9.5
363.293	6.03
363.504	-14.26
363.716	-42.32
363.927	-54.17
364.138	-55.08
364.349	-46.41
364.56	-27.37
364.772	-4.63
364.983	15.17
365.194	17.11
365.405	19.61
365.616	35.08
365.827	22.39
366.038	4.02
366.25	1.9
366.461	-19.06
366.672	-13.55
366.883	6.39
367.094	14.21
367.305	0.69
367.516	9.8
367.727	-11.54
367.938	-18.85
368.149	-26.87
368.36	-1.28
368.571	2.82
368.781	-0.17
368.992	-10.84
369.203	-20.27
369.414	-44.22
369.625	-45.61
369.836	-42.99
370.047	-59.16
370.258	-39.65
370.468	-45.91
370.679	-63.25
370.89	-50.14
371.101	-30.35
371.312	-30.75
371.522	-6.12
371.733	-2.65
371.944	-2.05
372.155	-5.11
372.365	-12.73
372.576	-17.53
372.787	-13.68
372.997	-42.89
373.208	-34.7
373.419	-16.25
373.629	-36.89
373.84	-40.94
374.05	-35.16
374.261	-35.21
374.472	-33.35
374.682	4.8
374.893	11.7
375.103	39.75
375.314	40.14
375.524	34.09
375.735	25.38
375.945	29.42
376.156	10.92
376.366	9.93
376.577	14.35
376.787	13.79
376.997	18.2
377.208	18.21
377.418	13.67
377.629	11.67
377.839	13
378.049	5.11
378.26	18.55
378.47	23.22
378.68	14.76
378.89	13.12
379.101	26.7
379.311	3.23
379.521	-13.95
379.732	-1.47
379.942	-9.47
380.152	-34.1
380.362	-9.65
380.572	-5.48
380.783	-3.75
380.993	10.7
381.203	15.55
381.413	17.61
381.623	19.45
381.833	23.26
382.043	15.63
382.253	4.35
382.463	6.62
382.674	2.28
382.884	-8.97
383.094	-1.22
383.304	17.95
383.514	17.32
383.724	23.03
383.934	23.01
384.144	11.2
384.353	-11.32
384.563	-15.16
384.773	-9.73
384.983	-17.81
385.193	-1.5
385.403	8.35
385.613	9.69
385.823	3.35
386.033	11.94
386.242	2.44
386.452	-4.72
386.662	-7.81
386.872	-0.71
387.082	-9.32
387.291	-16.15
387.501	-16.7
387.711	-8.21
387.921	-9.4
388.13	-3.54
388.34	2
388.55	1.26
388.759	-0.99
388.969	3.27
389.179	-0.86
389.388	0.99
389.598	10.12
389.807	4.8
390.017	-0.97
390.227	4.83
390.436	2.22
390.646	-1.28
390.855	3.14
391.065	3.52
391.274	0.83
391.484	3.86
391.693	5.32
391.903	3.65
392.112	9.55
392.322	12.3
392.531	12.19
392.74	13
392.95	11.1
393.159	7.84
393.369	6.15
393.578	5.01
393.787	2.75
393.997	3.42
394.206	1.43
394.415	2.88
394.625	3.23
394.834	2.41
395.043	4.6
395.252	6.64
395.462	7.05
395.671	7.21
395.88	8.07
396.089	7.38
396.298	5.78
396.508	5.44
396.717	4.92
396.926	5.3
397.135	4.88
397.344	5.37
397.553	6.07
397.762	6.94
397.971	6.58
398.181	6.44
398.39	6.1
398.599	5.55
398.808	5.9
399.017	6.78
399.226	7.48
399.435	8.34
399.644	8.67
399.853	7.89
400.062	7.38
400.27	6.98
400.479	6.75
400.688	5.79
400.897	5.73
401.106	6.06
401.315	6.45
401.524	6.3
401.733	7.01
401.941	7.77
402.15	7.61
402.359	7.39
402.568	7.8
402.777	7.92
402.985	7.51
403.194	7.52
403.403	7.61
403.612	7.03
403.82	6.68
404.029	6.87
404.238	6.68
404.446	6.89
404.655	6.87
404.864	6.81
405.072	6.53
405.281	6.73
405.489	6.57
405.698	6.57
405.906	6.65
406.115	6.79
406.324	6.74
406.532	6.82
406.741	7.07
406.949	7.03
407.158	6.95
407.366	6.96
407.574	6.75
407.783	6.67
407.991	6.45
408.2	6.45
408.408	6.39
408.617	6.4
408.825	6.27
409.033	6.55
409.242	6.54
409.45	6.63
409.658	6.57
409.867	6.63
410.075	6.38
410.283	6.28
410.491	6.16
410.7	6.08
410.908	6.14
411.116	6.34
411.324	6.39
411.533	6.31
411.741	6.39
411.949	6.34
412.157	6.19
412.365	6.1
412.573	6.13
412.781	6.14
412.99	6.02
413.198	6.2
413.406	6.31
413.614	6.2
413.822	6.18
414.03	6.1
414.238	5.84
414.446	5.82
414.654	5.76
414.862	5.68
415.07	5.76
415.278	6.1
415.486	5.89
415.694	6.01
415.902	5.88
416.109	5.77
416.317	5.58
416.525	5.58
416.733	5.49
416.941	5.7
417.149	5.72
417.357	5.67
417.564	5.64
417.772	5.95
417.98	5.73
418.188	5.69
418.395	5.61
418.603	5.82
418.811	5.32
419.019	5.38
419.226	5.6
419.434	5.69
419.642	5.45
419.849	5.67
420.057	5.72
420.265	5.5
420.472	5.33
420.68	5.45
420.887	5.23
421.095	5.25
421.302	5.39
421.51	5.49
421.717	5.47
421.925	5.7
422.132	5.62
422.34	5.28
422.547	5.43
422.755	5.34
422.962	5.15
423.17	5.08
423.377	5.29
423.585	5.13
423.792	5.02
423.999	5.05
424.207	4.96
424.414	4.97
424.621	4.8
424.829	4.97
425.036	5.14
425.243	5.38
425.451	5.31
425.658	5.28
425.865	5.39
426.072	5.25
426.28	5.27
426.487	5.37
426.694	5.61
426.901	5.38
427.108	5.49
427.315	5.37
427.523	5.61
427.73	5.47
427.937	5.66
428.144	5.45
428.351	5.57
428.558	5.42
428.765	5.46
428.972	5.31
429.179	5.37
429.386	5.49
429.593	5.36
429.8	5.38
430.007	5.57
430.214	5.72
430.421	5.51
430.628	5.44
430.835	5.39
431.042	5.43
431.249	5.59
431.456	5.76
431.662	5.93
431.869	6.18
432.076	6.18
432.283	6.18
432.49	6.15
432.697	6.13
432.903	5.89
433.11	5.89
433.317	5.85
433.524	6.01
433.73	6.07
433.937	6.35
434.144	6.33
434.35	6.33
434.557	6.27
434.764	6.29
434.97	6.18
435.177	6.27
435.384	6.33
435.59	6.43
435.797	6.55
436.003	6.54
436.21	6.54
436.416	6.63
436.623	6.64
436.829	6.81
437.036	7.07
437.242	7.17
437.449	7.12
437.655	7.13
437.862	7.02
438.068	6.93
438.275	7.02
438.481	7.19
438.687	7.19
438.894	7.22
439.1	7.31
439.307	7.44
439.513	7.38
439.719	7.42
439.926	7.5
440.132	7.41
440.338	7.3
440.544	7.32
440.751	7.33
440.957	7.41
441.163	7.43
441.369	7.52
441.575	7.5
441.782	7.51
441.988	7.44
442.194	7.53
442.4	7.46
442.606	7.73
442.812	7.79
443.018	7.85
443.224	7.81
443.431	7.96
443.637	7.83
443.843	7.86
444.049	7.83
444.255	7.79
444.461	7.73
444.667	7.69
444.873	7.82
445.079	7.93
445.284	8.12
445.49	7.97
445.696	7.85
445.902	7.77
446.108	7.81
446.314	7.75
446.52	7.89
446.726	8.16
446.931	8.17
447.137	8.13
447.343	8.09
447.549	8.03
447.755	7.93
447.96	7.98
448.166	7.96
448.372	8.04
448.578	8.19
448.783	8.19
448.989	8.27
449.195	8.42
449.4	8.42
449.606	8.4
449.812	8.38
450.017	8.39
450.223	8.24
450.428	8.17
450.634	8.13
450.84	8.27
451.045	8.22
451.251	8.17
451.456	8.4
451.662	8.48
451.867	8.59
452.073	8.61
452.278	8.76
452.483	8.78
452.689	8.85
452.894	8.8
453.1	8.86
453.305	8.81
453.51	8.76
453.716	8.72
453.921	8.69
454.127	8.63
454.332	8.53
454.537	8.43
454.742	8.37
454.948	8.39
455.153	8.46
455.358	8.62
455.563	8.74
455.769	8.86
455.974	8.83
456.179	8.77
456.384	8.88
456.589	8.84
456.795	8.73
457	8.77
457.205	8.89
457.41	8.74
457.615	8.79
457.82	8.87
458.025	8.86
458.23	8.79
458.435	8.82
458.64	8.8
458.845	8.92
459.05	8.93
459.255	8.92
459.46	8.95
459.665	8.93
459.87	8.97
460.075	8.95
460.28	9.02
460.485	9.19
460.69	9.24
460.895	9.1
461.099	9.11
461.304	9.12
461.509	9.03
461.714	8.98
461.919	9.13
462.123	9.08
462.328	9.18
462.533	9.19
462.738	9.31
462.942	9.24
463.147	9.44
463.352	9.44
463.556	9.46
463.761	9.47
463.966	9.58
464.17	9.57
464.375	9.52
464.58	9.44
464.784	9.51
464.989	9.42
465.193	9.34
