Data from Ofra_PS_T2_1A_2HS27_Reflection_1.txt Node
Date: Wed Jul 21 18:02:39 EDT 2021
User: Adam
Spectrometer: FLMT01687
Trigger mode: 0
Integration Time (sec): 1.100000E0
Scans to average: 2
Electric dark correction enabled: true
Nonlinearity correction enabled: false
Boxcar width: 2
XAxis mode: Wavelengths
Number of Pixels in Spectrum: 3648
>>>>>Begin Spectral Data<<<<<
179.494	573.6
179.716	669.88
179.937	621.17
180.158	641.25
180.38	1059.37
180.601	512.15
180.823	103.58
181.044	-68.25
181.265	-132.35
181.486	-20.91
181.708	23.56
181.929	293.88
182.15	-228.17
182.372	101.35
182.593	-10.45
182.814	29.43
183.035	66.78
183.257	66.62
183.478	-25.53
183.699	57.61
183.92	20.46
184.141	31.82
184.363	-33.84
184.584	44.5
184.805	50.21
185.026	81.17
185.247	68.49
185.468	53.51
185.689	22.92
185.91	27.81
186.132	16.54
186.353	17.24
186.574	86.15
186.795	102.67
187.016	37.38
187.237	7.57
187.458	-11.8
187.679	-41.18
187.9	-30.38
188.121	-8.34
188.342	30
188.563	65.43
188.784	80.76
189.005	48.01
189.226	92.5
189.447	45.05
189.667	-235.92
189.888	-471.43
190.109	-1274.03
190.33	-797.42
190.551	-1154.87
190.772	-240.44
190.993	-191.17
191.214	-191.92
191.434	-122.56
191.655	-31.66
191.876	-57.55
192.097	-91.78
192.318	-159.22
192.538	-272.73
192.759	-221.99
192.98	-105.24
193.201	-33.74
193.421	-7.11
193.642	30.39
193.863	48.93
194.083	37.65
194.304	17.49
194.525	27.25
194.745	20.15
194.966	-13.83
195.187	-40.86
195.407	-42.44
195.628	-109.45
195.848	-128.52
196.069	-80.54
196.29	-8.85
196.51	-63.4
196.731	-27.66
196.951	-0.73
197.172	-74.08
197.392	-159.68
197.613	-127.33
197.833	-183.37
198.054	-153.86
198.274	-83.8
198.495	-84.21
198.715	-42.14
198.936	-43.57
199.156	-39.23
199.377	-131.61
199.597	-92.31
199.817	-115.65
200.038	-36.5
200.258	-73.91
200.479	12.87
200.699	27.56
200.919	76.16
201.14	11.78
201.36	-11.39
201.58	25.12
201.801	46.14
202.021	1.71
202.241	8.82
202.461	15.04
202.682	-76.33
202.902	-158.78
203.122	-81.59
203.342	-70.34
203.563	-32.49
203.783	0.21
204.003	-30.54
204.223	-30.06
204.443	32.66
204.663	28.37
204.884	41.59
205.104	88.82
205.324	113.68
205.544	100.42
205.764	98.52
205.984	91.84
206.204	80.89
206.424	69.79
206.644	54.59
206.864	40.4
207.084	4.9
207.304	-7.01
207.525	-141.56
207.745	-94
207.964	-38.94
208.184	-66.74
208.404	-110.31
208.624	-95.03
208.844	-97.56
209.064	-388.48
209.284	-414.25
209.504	-189.68
209.724	-44.53
209.944	-23.76
210.164	13.23
210.384	32.27
210.604	38.82
210.823	-15.68
211.043	-30.91
211.263	-35.31
211.483	-31.86
211.703	-87.77
211.922	-56.65
212.142	-3.49
212.362	5.13
212.582	-2.28
212.801	17.32
213.021	-8.98
213.241	-9.07
213.461	-41.33
213.68	-77.85
213.9	-79.58
214.12	-44.77
214.339	-105.88
214.559	-79.85
214.779	-18.46
214.998	-15.71
215.218	-58.81
215.438	-10.54
215.657	-9.15
215.877	-1.4
216.096	22.04
216.316	41.71
216.535	22.27
216.755	29.57
216.974	-37.45
217.194	-64.53
217.413	-94.33
217.633	-103.39
217.852	-213.05
218.072	-98.91
218.291	-66.64
218.511	-14.5
218.73	-16.15
218.95	-24.66
219.169	-30
219.389	-68.48
219.608	-61.1
219.827	-63.63
220.047	-31.25
220.266	-6.22
220.485	4.74
220.705	-3.5
220.924	-20.32
221.143	12.68
221.363	-17.54
221.582	-3.23
221.801	18.8
222.021	43.45
222.24	-38.97
222.459	-0.52
222.678	-44.76
222.897	-135.28
223.117	-188.07
223.336	-126.74
223.555	-75.72
223.774	-13.9
223.993	7.55
224.213	64.45
224.432	50.35
224.651	71.32
224.87	42.67
225.089	57.59
225.308	50.12
225.527	60.65
225.746	62.03
225.965	49.56
226.184	19.13
226.404	15.74
226.623	-9.95
226.842	-10.48
227.061	27.88
227.28	37.53
227.499	29.83
227.718	40.29
227.936	34.16
228.155	52.15
228.374	33.87
228.593	41.65
228.812	40.33
229.031	22.77
229.25	-54.67
229.469	-50.72
229.688	-42.69
229.907	8.23
230.125	42.2
230.344	45.32
230.563	41.5
230.782	43.07
231.001	-48.34
231.22	-44.32
231.438	-14.01
231.657	3.2
231.876	-17.59
232.095	37.01
232.313	40.67
232.532	33.36
232.751	13.95
232.969	-2.98
233.188	-72.62
233.407	-29.65
233.625	-13.81
233.844	-23.5
234.063	-18.82
234.281	13.07
234.5	1.21
234.719	-3.59
234.937	16.24
235.156	37.29
235.374	30.83
235.593	19.48
235.811	16.16
236.03	-10.28
236.249	-68.78
236.467	-53.09
236.686	-13.79
236.904	7.71
237.123	-5.4
237.341	9.52
237.559	12.69
237.778	-2.51
237.996	-16.14
238.215	13.94
238.433	8.77
238.652	-2.72
238.87	-19.31
239.088	-13.05
239.307	-27.2
239.525	-35.36
239.743	-60.56
239.962	-35.95
240.18	-52.84
240.398	-77.18
240.617	-67.07
240.835	-34.14
241.053	-11.73
241.271	14.17
241.49	14.36
241.708	-30.78
241.926	-85.88
242.144	-81.41
242.363	-117.3
242.581	-131.88
242.799	-60.32
243.017	-3.01
243.235	-23.88
243.453	-5.14
243.672	-11.78
243.89	-18.45
244.108	-41.88
244.326	-13.07
244.544	-14.06
244.762	4
244.98	23.31
245.198	39.86
245.416	2.25
245.634	-8.55
245.852	-19.2
246.07	-39.32
246.288	-49.59
246.506	-74.77
246.724	-34.11
246.942	-27.71
247.16	6.41
247.378	31.58
247.596	60.88
247.814	51.36
248.032	33.58
248.25	16
248.468	11.86
248.685	20.68
248.903	41.06
249.121	34.43
249.339	18.73
249.557	-6.18
249.775	5.33
249.992	-73.27
250.21	-66.38
250.428	-48.16
250.646	-78.7
250.863	-119.53
251.081	-73.56
251.299	-83.1
251.517	-80.41
251.734	-44.89
251.952	-29.66
252.17	-27.02
252.387	-10.17
252.605	-22.31
252.823	-21.41
253.04	-2.1
253.258	13.75
253.475	-2.22
253.693	24.71
253.911	31.46
254.128	19.87
254.346	19.37
254.563	5.69
254.781	-10.42
254.998	-27.65
255.216	-36.94
255.433	-21.11
255.651	23.21
255.868	17.78
256.086	43.35
256.303	40.95
256.521	29.29
256.738	5.73
256.956	-13.78
257.173	-42.12
257.39	-56.29
257.608	-89.48
257.825	-14.33
258.043	26.64
258.26	27.24
258.477	74.29
258.695	61.05
258.912	-2.08
259.129	-1.26
259.346	-33.55
259.564	-84.7
259.781	-95.19
259.998	-20.54
260.216	6.43
260.433	40.95
260.65	18.37
260.867	29.49
261.084	-6.37
261.302	-37.16
261.519	-52.16
261.736	-46.5
261.953	-55.5
262.17	-21.66
262.387	-44.84
262.604	-49.91
262.822	-55.23
263.039	-51.33
263.256	-90.35
263.473	-56.2
263.69	-38.79
263.907	10.04
264.124	23.28
264.341	17.63
264.558	12.18
264.775	22.11
264.992	13.02
265.209	17.92
265.426	41.56
265.643	43.31
265.86	45.38
266.077	26.91
266.294	16.28
266.51	-35.19
266.727	-37.71
266.944	-32.41
267.161	-34.94
267.378	-36.83
267.595	8.02
267.812	-26.97
268.028	-46.94
268.245	-8.02
268.462	-19.73
268.679	-36.99
268.896	13.31
269.112	9.34
269.329	-5.26
269.546	-3.87
269.763	-6.55
269.979	-8.48
270.196	-1.7
270.413	-13
270.629	-29.77
270.846	-33.63
271.063	-40.6
271.279	-51.84
271.496	-52.17
271.712	-22.67
271.929	-11.04
272.146	-17.04
272.362	-1.36
272.579	35.94
272.795	35.47
273.012	41.59
273.228	46.42
273.445	12.95
273.661	-16
273.878	-47.28
274.094	-53.44
274.311	-87.98
274.527	-4.82
274.744	-17.12
274.96	3.58
275.177	5.12
275.393	20.99
275.609	0.19
275.826	43.99
276.042	23.99
276.259	11.58
276.475	30.37
276.691	38.56
276.908	2.34
277.124	17.82
277.34	23.75
277.557	14.49
277.773	4.11
277.989	9.45
278.205	10.7
278.422	21.8
278.638	17.6
278.854	26.04
279.07	18.92
279.286	2.52
279.503	-38.42
279.719	-48.22
279.935	-72.56
280.151	-92.5
280.367	-59.46
280.583	-58.38
280.799	-53.84
281.016	-62.79
281.232	-12.66
281.448	-16.37
281.664	8.08
281.88	-10.71
282.096	3.89
282.312	11.75
282.528	13.8
282.744	17.8
282.96	21.64
283.176	5.53
283.392	0
283.608	0.58
283.824	-6.37
284.04	-1.63
284.256	12.83
284.471	-3.98
284.687	-16.68
284.903	3.41
285.119	33.29
285.335	11.43
285.551	36.95
285.767	22.7
285.982	0.81
286.198	-46.27
286.414	3.03
286.63	3.5
286.846	32.38
287.061	14.99
287.277	38.68
287.493	14.58
287.709	13.43
287.924	-8.35
288.14	18.34
288.356	25.94
288.571	41.47
288.787	24.06
289.003	23.48
289.218	7.55
289.434	-33.66
289.65	-48.67
289.865	-46.47
290.081	-22.21
290.296	-11.6
290.512	8.53
290.727	-13.65
290.943	-11.06
291.159	-15.08
291.374	-5.62
291.59	-15.76
291.805	2.28
292.021	21.3
292.236	15.3
292.451	24.27
292.667	32.88
292.882	39.51
293.098	17.08
293.313	-3.02
293.529	-45.02
293.744	-62.73
293.959	-53.24
294.175	-35.86
294.39	-0.13
294.605	18.04
294.821	41.99
295.036	44.05
295.251	36.53
295.467	-3.55
295.682	-13.18
295.897	-67.24
296.112	-77.81
296.328	-68.86
296.543	-49.8
296.758	-45
296.973	-6.25
297.188	10.16
297.404	-7.67
297.619	-27.47
297.834	-32.51
298.049	-46.38
298.264	-63.47
298.479	-6.77
298.694	14.67
298.909	26.83
299.125	26.82
299.34	49.79
299.555	9.46
299.77	8.52
299.985	-28.18
300.2	-67.63
300.415	-79.66
300.63	-33.1
300.845	-39.37
301.06	-36.79
301.275	-4.13
301.49	-1.68
301.704	-22.38
301.919	-32.09
302.134	-25.94
302.349	-34.59
302.564	-81.86
302.779	-70.78
302.994	-65.36
303.209	-31.77
303.423	39.01
303.638	81.64
303.853	42.61
304.068	34.47
304.283	21
304.497	1.75
304.712	-22.05
304.927	-3.06
305.142	-4.54
305.356	9.6
305.571	6.31
305.786	10.97
306	-12.61
306.215	1.55
306.43	-19.22
306.644	-28.13
306.859	-15.97
307.074	-5.44
307.288	-40.12
307.503	-59.49
307.717	-60.95
307.932	-59.43
308.147	-66.76
308.361	-24.74
308.576	-29.06
308.79	-53.37
309.005	-43.34
309.219	-11.49
309.434	-38.23
309.648	-28.88
309.863	-1.89
310.077	-6.52
310.292	-12.8
310.506	-6.91
310.72	1.76
310.935	13.97
311.149	5.97
311.364	24.08
311.578	39.78
311.792	36.42
312.007	40.12
312.221	28.47
312.435	31.87
312.649	10.87
312.864	-21.15
313.078	-23.27
313.292	33
313.507	-25.75
313.721	1.22
313.935	57.31
314.149	37.19
314.363	18.98
314.578	27.76
314.792	17.37
315.006	-3.89
315.22	11.89
315.434	12.22
315.648	13.79
315.862	14.5
316.077	16.52
316.291	-5.72
316.505	7.03
316.719	10.4
316.933	-24.12
317.147	-9.79
317.361	-44.8
317.575	-83.53
317.789	-116.64
318.003	-143.31
318.217	-108.07
318.431	-30.5
318.645	15.13
318.859	20.26
319.073	35.86
319.287	22.22
319.5	-4.84
319.714	-39.19
319.928	-59.5
320.142	-72.12
320.356	-14.15
320.57	35.36
320.784	36.37
320.997	38.14
321.211	26.77
321.425	-38.68
321.639	-80.39
321.853	-25.91
322.066	-17.14
322.28	-26.57
322.494	-7.42
322.707	15.03
322.921	-7.86
323.135	-6.29
323.349	14.48
323.562	-4.58
323.776	-24.01
323.989	-3.63
324.203	-12.29
324.417	-16.85
324.63	-25.28
324.844	-21.81
325.057	-38.31
325.271	-18.23
325.485	7.17
325.698	25.35
325.912	34.63
326.125	13.54
326.339	13.47
326.552	-11.32
326.766	-28.14
326.979	-0.97
327.193	39.53
327.406	28.39
327.619	22.14
327.833	37.46
328.046	9.88
328.26	-38.27
328.473	-16.91
328.686	-41.19
328.9	-39.01
329.113	-39.43
329.326	-54.64
329.54	-29.31
329.753	-33.36
329.966	-53.38
330.179	-24.48
330.393	8.97
330.606	0.35
330.819	18.45
331.032	29.55
331.246	27.21
331.459	42.45
331.672	39.99
331.885	28.35
332.098	2.58
332.311	-7.23
332.525	-62.52
332.738	-86.75
332.951	-63.01
333.164	-30.72
333.377	-17.47
333.59	18.72
333.803	24.53
334.016	8.95
334.229	22.15
334.442	15.74
334.655	17.75
334.868	16.23
335.081	18.26
335.294	-11.08
335.507	-13.88
335.72	-32.4
335.933	-32.44
336.146	-29.49
336.359	-38.43
336.572	-73.22
336.785	-86.25
336.997	-74.36
337.21	-47.52
337.423	-29.46
337.636	-9.85
337.849	12.19
338.062	1.89
338.274	2.1
338.487	-9.01
338.7	-7.85
338.913	-51.72
339.125	-71.6
339.338	-133.46
339.551	-105.18
339.763	-72.87
339.976	-25.82
340.189	-11.78
340.402	4.56
340.614	-9.33
340.827	-6.55
341.039	-27.89
341.252	-15.55
341.465	4.7
341.677	4.31
341.89	-44.69
342.102	-21.54
342.315	-36.1
342.527	-80.25
342.74	-64.94
342.952	-6.12
343.165	-13.18
343.377	13.03
343.59	18.42
343.802	40.21
344.015	51.95
344.227	63.78
344.44	57.96
344.652	56.65
344.864	33.09
345.077	28.63
345.289	31.86
345.502	33.84
345.714	23.54
345.926	34.41
346.139	17.33
346.351	22.97
346.563	24.98
346.775	33.99
346.988	13.7
347.2	16.75
347.412	-33.04
347.624	-62.01
347.837	-86.33
348.049	-40.65
348.261	-15.99
348.473	3.73
348.685	10.22
348.897	-1.57
349.11	-14.22
349.322	-50.04
349.534	-36.04
349.746	-24.74
349.958	-15.79
350.17	-44.78
350.382	-0.17
350.594	-9.54
350.806	-4.57
351.018	15.74
351.23	8.07
351.442	-52.96
351.654	-47.35
351.866	-38.42
352.078	-33.6
352.29	-2.03
352.502	25.11
352.714	31.38
352.926	8.98
353.138	12.68
353.35	1.34
353.561	-10.57
353.773	-29.15
353.985	-1.06
354.197	-13.75
354.409	-5.74
354.621	-3.32
354.832	3.94
355.044	-11.5
355.256	-10.9
355.468	-1.1
355.679	-2.78
355.891	3.19
356.103	-4.25
356.314	4.39
356.526	-1.27
356.738	-14.09
356.949	-19.68
357.161	-14.4
357.373	-21.11
357.584	-36.95
357.796	-12.02
358.008	-13.95
358.219	-2.3
358.431	-13.08
358.642	-5.34
358.854	-10.99
359.065	-19.95
359.277	-49.6
359.488	-42.57
359.7	-55.95
359.911	-66.14
360.123	-37.66
360.334	-41.53
360.546	-58.74
360.757	-50.22
360.969	-39.24
361.18	-70.54
361.391	-38.56
361.603	-44.91
361.814	-35.8
362.025	-26.77
362.237	-12.78
362.448	-3.25
362.659	25.16
362.871	16.47
363.082	16.96
363.293	16.82
363.504	-2.32
363.716	-40.29
363.927	-45.95
364.138	-72.09
364.349	-83.14
364.56	-68.13
364.772	-40.99
364.983	-11.41
365.194	-6.66
365.405	4.94
365.616	13.6
365.827	8.67
366.038	-25.37
366.25	-36.28
366.461	-75.56
366.672	-46.61
366.883	-29.66
367.094	-7.39
367.305	-12.82
367.516	4.17
367.727	-25.32
367.938	-34.78
368.149	-43.17
368.36	-14.29
368.571	-17.28
368.781	-23.02
368.992	-38.04
369.203	-60.97
369.414	-90.6
369.625	-100.96
369.836	-83.06
370.047	-98.75
370.258	-67.26
370.468	-63.13
370.679	-71.48
370.89	-71.3
371.101	-39.31
371.312	-43.3
371.522	-38.59
371.733	-25.77
371.944	-9.11
372.155	-7.87
372.365	-12.04
372.576	-15.78
372.787	-8.37
372.997	-35.26
373.208	-36.1
373.419	-5.07
373.629	-33.05
373.84	-51.15
374.05	-47.15
374.261	-35.32
374.472	-58.96
374.682	-7.53
374.893	15.37
375.103	46.65
375.314	35.06
375.524	36.6
375.735	35.86
375.945	28.28
376.156	-1.19
376.366	4.01
376.577	4.91
376.787	-2.56
376.997	-1.01
377.208	-9.13
377.418	-22.9
377.629	-8.51
377.839	-2.56
378.049	-2.16
378.26	18.49
378.47	20.87
378.68	14.53
378.89	10.37
379.101	7.19
379.311	-20.47
379.521	-39.85
379.732	-53.34
379.942	-51.08
380.152	-65.25
380.362	-36.55
380.572	-25.9
380.783	-17.38
380.993	-7.86
381.203	6.42
381.413	22.91
381.623	22.83
381.833	17.37
382.043	5.74
382.253	-5.74
382.463	-13.85
382.674	-12.25
382.884	-26.06
383.094	-26.66
383.304	-15.07
383.514	-6.9
383.724	0.51
383.934	4.35
384.144	-0.44
384.353	-11.38
384.563	-15.04
384.773	-17.98
384.983	-26.76
385.193	-13.66
385.403	-9.3
385.613	-8.58
385.823	-19.17
386.033	-9.78
386.242	-13.81
386.452	-13.65
386.662	-22.91
386.872	-6.01
387.082	-8.44
387.291	-17.69
387.501	-21.58
387.711	-13.23
387.921	-21.57
388.13	-17.17
388.34	0.06
388.55	-2.3
388.759	-5.64
388.969	-1.52
389.179	-6.78
389.388	-11.23
389.598	-3.92
389.807	-9.97
390.017	-15.16
390.227	-11.98
390.436	-14.11
390.646	-16.64
390.855	-8.02
391.065	-6.51
391.274	-8.16
391.484	-9.42
391.693	-7.07
391.903	-8.19
392.112	-1.76
392.322	2.92
392.531	6.23
392.74	7.36
392.95	2.39
393.159	-1.11
393.369	-3.47
393.578	-4.67
393.787	-7.67
393.997	-3.68
394.206	-4.3
394.415	-4.24
394.625	-4.21
394.834	-3.69
395.043	-3
395.252	-1.77
395.462	0.07
395.671	1.26
395.88	1.77
396.089	1.66
396.298	0.08
396.508	-1
396.717	-1.42
396.926	-1.34
397.135	-1.9
397.344	-1.02
397.553	0.26
397.762	1.75
397.971	1.69
398.181	1.96
398.39	1.05
398.599	0.43
398.808	-0.51
399.017	0.23
399.226	1.34
399.435	2.95
399.644	2.63
399.853	1.97
400.062	1.84
400.27	0.96
400.479	0.37
400.688	0.01
400.897	0.45
401.106	0.07
401.315	0.22
401.524	0.11
401.733	0.68
401.941	0.77
402.15	1.06
402.359	0.88
402.568	1.39
402.777	1.48
402.985	1.33
403.194	1.16
403.403	1.37
403.612	0.67
403.82	0.57
404.029	0.86
404.238	0.81
404.446	1.18
404.655	1.09
404.864	1.09
405.072	0.68
405.281	0.82
405.489	0.43
405.698	0.59
405.906	0.55
406.115	0.73
406.324	0.72
406.532	0.9
406.741	1.28
406.949	1.35
407.158	1.31
407.366	1.34
407.574	1.21
407.783	1.11
407.991	0.88
408.2	1.15
408.408	1.14
408.617	1.16
408.825	1.02
409.033	1.16
409.242	1.05
409.45	1.04
409.658	0.96
409.867	1.05
410.075	0.9
410.283	0.77
410.491	0.67
410.7	0.67
410.908	0.69
411.116	1.06
411.324	1.15
411.533	1.16
411.741	1.45
411.949	1.46
412.157	1.07
412.365	1.14
412.573	1.27
412.781	1.13
412.99	0.94
413.198	1.24
413.406	1.19
413.614	1.08
413.822	0.83
414.03	0.94
414.238	0.75
414.446	0.86
414.654	0.73
414.862	1
415.07	1
415.278	1.13
415.486	0.9
415.694	1.07
415.902	0.97
416.109	0.96
416.317	1
416.525	0.97
416.733	0.88
416.941	0.92
417.149	0.83
417.357	0.7
417.564	0.94
417.772	1.27
417.98	1.2
418.188	1.23
418.395	1.33
418.603	1.33
418.811	0.83
419.019	0.77
419.226	0.98
419.434	1.07
419.642	0.75
419.849	0.94
420.057	0.98
420.265	0.87
420.472	0.56
420.68	0.77
420.887	0.71
421.095	0.77
421.302	0.64
421.51	0.96
421.717	1.02
421.925	1.28
422.132	1.24
422.34	1.09
422.547	1.08
422.755	0.95
422.962	0.76
423.17	0.61
423.377	0.8
423.585	0.65
423.792	0.73
423.999	0.73
424.207	0.82
424.414	0.93
424.621	1.01
424.829	1.02
425.036	1.12
425.243	1.22
425.451	1.03
425.658	0.9
425.865	0.88
426.072	0.88
426.28	0.97
426.487	1.01
426.694	1.13
426.901	1.09
427.108	0.99
427.315	0.83
427.523	1.05
427.73	1.09
427.937	1.08
428.144	0.89
428.351	0.85
428.558	1.02
428.765	0.81
428.972	0.72
429.179	1.08
429.386	1.42
429.593	1.1
429.8	0.95
430.007	1.08
430.214	1.03
430.421	0.74
430.628	0.67
430.835	0.73
431.042	0.92
431.249	0.88
431.456	0.81
431.662	0.89
431.869	1.16
432.076	1.11
432.283	1.23
432.49	1.28
432.697	1.28
432.903	0.98
433.11	0.79
433.317	0.78
433.524	1.1
433.73	1.02
433.937	1.25
434.144	1.2
434.35	1.1
434.557	0.79
434.764	0.89
434.97	0.78
435.177	0.97
435.384	0.9
435.59	1.03
435.797	1.14
436.003	1.25
436.21	1.15
436.416	1.27
436.623	1.2
436.829	1.19
437.036	1.26
437.242	1.38
437.449	1.26
437.655	1.28
437.862	1.22
438.068	1.02
438.275	1.06
438.481	1.34
438.687	1.33
438.894	1.27
439.1	1.42
439.307	1.52
439.513	1.25
439.719	1.31
439.926	1.47
440.132	1.47
440.338	1.27
440.544	1.55
440.751	1.53
440.957	1.56
441.163	1.43
441.369	1.52
441.575	1.24
441.782	1.18
441.988	1.01
442.194	1.01
442.4	0.97
442.606	1.27
442.812	1.34
443.018	1.53
443.224	1.64
443.431	1.73
443.637	1.48
443.843	1.41
444.049	1.32
444.255	1.27
444.461	1.24
444.667	1.24
444.873	1.41
445.079	1.43
445.284	1.55
445.49	1.36
445.696	1.24
445.902	1.08
446.108	0.99
446.314	0.85
446.52	0.96
446.726	1.24
446.931	1.24
447.137	1.3
447.343	1.38
447.549	1.24
447.755	1.1
447.96	1.16
448.166	1.14
448.372	1.11
448.578	1.28
448.783	1.29
448.989	1.34
449.195	1.51
449.4	1.56
449.606	1.49
449.812	1.47
450.017	1.53
450.223	1.37
450.428	1.29
450.634	1.38
450.84	1.55
451.045	1.41
451.251	1.33
451.456	1.56
451.662	1.61
451.867	1.56
452.073	1.62
452.278	1.78
452.483	1.75
452.689	1.6
452.894	1.65
453.1	1.63
453.305	1.59
453.51	1.56
453.716	1.53
453.921	1.55
454.127	1.47
454.332	1.42
454.537	1.34
454.742	1.42
454.948	1.33
455.153	1.43
455.358	1.52
455.563	1.61
455.769	1.68
455.974	1.7
456.179	1.59
456.384	1.55
456.589	1.52
456.795	1.34
457	1.34
457.205	1.51
457.41	1.48
457.615	1.38
457.82	1.51
458.025	1.58
458.23	1.5
458.435	1.53
458.64	1.53
458.845	1.65
459.05	1.62
459.255	1.58
459.46	1.58
459.665	1.68
459.87	1.65
460.075	1.57
460.28	1.67
460.485	1.78
460.69	1.75
460.895	1.54
