Data from Ofra_1a_PS_9CX6_Reflection_2.txt Node
Date: Tue Jul 20 11:05:50 EDT 2021
User: Adam
Spectrometer: FLMT01687
Trigger mode: 0
Integration Time (sec): 1.004000E0
Scans to average: 2
Electric dark correction enabled: true
Nonlinearity correction enabled: false
Boxcar width: 2
XAxis mode: Wavelengths
Number of Pixels in Spectrum: 3648
>>>>>Begin Spectral Data<<<<<
179.494	-133.5
179.716	-138.93
179.937	471.91
180.158	-508.92
180.38	85
180.601	49.71
180.823	-19.82
181.044	-140.24
181.265	-118.62
181.486	176.88
181.708	143.73
181.929	-1790.91
182.15	-104.23
182.372	163.05
182.593	416.43
182.814	-261.97
183.035	-57.28
183.257	25.17
183.478	3.72
183.699	6.89
183.92	-29.99
184.141	-30.94
184.363	-49.12
184.584	-56.92
184.805	-10.67
185.026	25.65
185.247	13.48
185.468	2
185.689	6.73
185.91	-13.71
186.132	-11.71
186.353	4.98
186.574	14.63
186.795	19.45
187.016	20.92
187.237	22.71
187.458	33.44
187.679	33.98
187.9	55.07
188.121	49.79
188.342	65.92
188.563	68.39
188.784	73.37
189.005	49.97
189.226	44.51
189.447	38.86
189.667	19.09
189.888	-3.59
190.109	-15.73
190.33	7.39
190.551	-13.27
190.772	12.8
190.993	4.15
191.214	-1.99
191.434	-22.74
191.655	31.46
191.876	12.99
192.097	51.05
192.318	48.52
192.538	33.25
192.759	13.35
192.98	3.92
193.201	2.83
193.421	-2.27
193.642	-2.84
193.863	-9.4
194.083	7.79
194.304	7.68
194.525	13.77
194.745	26.08
194.966	22.94
195.187	9.82
195.407	-4.51
195.628	0.07
195.848	10.48
196.069	14.28
196.29	21.77
196.51	13.69
196.731	0.63
196.951	-15.58
197.172	-6.55
197.392	-2.98
197.613	17.68
197.833	17.03
198.054	9.21
198.274	-1.65
198.495	-20.38
198.715	-35.91
198.936	-10.02
199.156	-13.99
199.377	-13.86
199.597	13.2
199.817	26.85
200.038	1.55
200.258	32.03
200.479	25.59
200.699	21.59
200.919	3.13
201.14	11.27
201.36	3.83
201.58	0.11
201.801	-13.97
202.021	-36.07
202.241	-27.97
202.461	-54.2
202.682	-41.85
202.902	-7.46
203.122	25.94
203.342	30.28
203.563	19.31
203.783	25.42
204.003	-5.26
204.223	3.61
204.443	10.38
204.663	32.34
204.884	32.69
205.104	30.19
205.324	2.42
205.544	-56.53
205.764	-26.09
205.984	-23.54
206.204	-33.21
206.424	-29.57
206.644	-26.56
206.864	-36.81
207.084	-15.82
207.304	-7.13
207.525	-19.65
207.745	16
207.964	22.73
208.184	28.64
208.404	32.91
208.624	44.23
208.844	28.3
209.064	34.47
209.284	25.07
209.504	7.61
209.724	0.09
209.944	-0.13
210.164	-14.46
210.384	-31.27
210.604	-46.7
210.823	-63.38
211.043	-59.39
211.263	-114.32
211.483	-61.12
211.703	-51.54
211.922	-43.18
212.142	-21.59
212.362	5
212.582	-5.58
212.801	-10.62
213.021	-32.76
213.241	-42.96
213.461	-44.05
213.68	-14.97
213.9	-8.39
214.12	-8.35
214.339	-13.87
214.559	-3.42
214.779	1.84
214.998	-5.64
215.218	6.48
215.438	17.67
215.657	15.82
215.877	-13.7
216.096	16.54
216.316	13.48
216.535	6.96
216.755	4.02
216.974	-2.29
217.194	-4.18
217.413	-2.95
217.633	0.09
217.852	-0.29
218.072	7.88
218.291	-10.16
218.511	-18.57
218.73	-51.4
218.95	-91.57
219.169	-84.33
219.389	-63.13
219.608	-55.11
219.827	-21.88
220.047	-4.26
220.266	-20.63
220.485	-52.01
220.705	-35
220.924	-46
221.143	-5.01
221.363	-0.78
221.582	28.4
221.801	28.35
222.021	42.9
222.24	36.97
222.459	53.2
222.678	45.25
222.897	43.15
223.117	40.98
223.336	36
223.555	30.61
223.774	42.93
223.993	40
224.213	50.67
224.432	53.86
224.651	42.14
224.87	29.96
225.089	24.8
225.308	13.25
225.527	-8.24
225.746	-19.91
225.965	-28.13
226.184	-44.84
226.404	-57.37
226.623	-29.01
226.842	-21.97
227.061	-23.51
227.28	4.17
227.499	15.07
227.718	10.43
227.936	17.22
228.155	19.03
228.374	7.81
228.593	9.38
228.812	10.25
229.031	19.6
229.25	4.28
229.469	-5.8
229.688	-4.46
229.907	-2.13
230.125	-9.78
230.344	7.09
230.563	18.24
230.782	27.6
231.001	26.58
231.22	26.08
231.438	34.42
231.657	46.65
231.876	41.58
232.095	50.63
232.313	49.06
232.532	30.69
232.751	11.04
232.969	11
233.188	3.57
233.407	0.91
233.625	8.83
233.844	10.66
234.063	1.58
234.281	2.66
234.5	-1.47
234.719	-4.74
234.937	-8.81
235.156	-5.98
235.374	-3.9
235.593	22.21
235.811	45.84
236.03	29.19
236.249	33.97
236.467	32.97
236.686	23.04
236.904	12.3
237.123	17.69
237.341	13.12
237.559	13.61
237.778	28.42
237.996	2.74
238.215	-42.72
238.433	-111.08
238.652	-34.12
238.87	-49.58
239.088	-37.4
239.307	-2.54
239.525	12.57
239.743	-10.82
239.962	-20.7
240.18	-13.22
240.398	-15.38
240.617	-29.17
240.835	-20.28
241.053	-5.88
241.271	8.73
241.49	16.56
241.708	14.16
241.926	7.73
242.144	8.53
242.363	-7.28
242.581	-91.36
242.799	-69.75
243.017	-40.88
243.235	-30.2
243.453	-45.66
243.672	3.66
243.89	3.43
244.108	17.05
244.326	26.81
244.544	40.67
244.762	25.49
244.98	32.85
245.198	33.99
245.416	28.43
245.634	29.46
245.852	23.27
246.07	30.59
246.288	9.94
246.506	-5.9
246.724	-1.96
246.942	4.2
247.16	-16.17
247.378	-15.61
247.596	31.36
247.814	6.91
248.032	11.62
248.25	64.8
248.468	54.24
248.685	40.03
248.903	43.18
249.121	44.44
249.339	29.54
249.557	20.9
249.775	24.98
249.992	15.03
250.21	-3.72
250.428	9.44
250.646	8.99
250.863	2.21
251.081	5.25
251.299	22.63
251.517	23.79
251.734	30.09
251.952	25.96
252.17	25.33
252.387	21.95
252.605	-5.26
252.823	-27.75
253.04	-18.19
253.258	-5.7
253.475	-7.36
253.693	-4.62
253.911	3.62
254.128	-9.39
254.346	-4.37
254.563	19.25
254.781	14.86
254.998	5.93
255.216	-1.19
255.433	-8.51
255.651	-48.01
255.868	-29.34
256.086	-25.93
256.303	-9.9
256.521	-13.88
256.738	5.71
256.956	0.08
257.173	6.97
257.39	16.01
257.608	18.66
257.825	3.13
258.043	17.65
258.26	18.44
258.477	17.88
258.695	16.96
258.912	20.5
259.129	6.77
259.346	0.62
259.564	-10.99
259.781	-19.99
259.998	7.34
260.216	29.32
260.433	29.63
260.65	38.34
260.867	38.37
261.084	40.14
261.302	11
261.519	20.94
261.736	19.38
261.953	27.08
262.17	14.93
262.387	22.53
262.604	19.5
262.822	19.19
263.039	23.29
263.256	28.6
263.473	25.66
263.69	20.34
263.907	20.38
264.124	15.81
264.341	17.06
264.558	13.95
264.775	17.81
264.992	14.48
265.209	5.24
265.426	4.52
265.643	5.07
265.86	-10.06
266.077	-20.59
266.294	-9.39
266.51	5.51
266.727	17.98
266.944	34.9
267.161	35.41
267.378	40.05
267.595	19.17
267.812	4.63
268.028	-13.66
268.245	0.79
268.462	-9.94
268.679	22.06
268.896	39.75
269.112	33.69
269.329	2.51
269.546	22.76
269.763	6.09
269.979	6.88
270.196	19.81
270.413	34.64
270.629	29.1
270.846	18.96
271.063	15
271.279	4.74
271.496	-5.23
271.712	5.59
271.929	29.87
272.146	37.85
272.362	53.88
272.579	52
272.795	47.66
273.012	39.43
273.228	40.04
273.445	23.42
273.661	15.28
273.878	3.61
274.094	12.56
274.311	5.4
274.527	-9.37
274.744	11.38
274.96	20.5
275.177	19.87
275.393	26.28
275.609	31.14
275.826	23.34
276.042	12.98
276.259	17.13
276.475	3.41
276.691	-14.31
276.908	-11.45
277.124	10.8
277.34	-2.43
277.557	-23.49
277.773	7.7
277.989	0.53
278.205	-18.29
278.422	-14.74
278.638	11.01
278.854	4.5
279.07	17.29
279.286	22.85
279.503	20.61
279.719	20.83
279.935	15.84
280.151	3.29
280.367	15.33
280.583	13.85
280.799	4
281.016	-13.77
281.232	2.54
281.448	-20.97
281.664	-9.55
281.88	-3.95
282.096	10.36
282.312	11.22
282.528	13.71
282.744	5.86
282.96	-6.68
283.176	-15.31
283.392	-35.68
283.608	-20.05
283.824	-42.95
284.04	-67.38
284.256	-25.42
284.471	-13.61
284.687	-14.7
284.903	-7
285.119	14.5
285.335	8.75
285.551	3.62
285.767	-4.2
285.982	8.25
286.198	-18.75
286.414	-17.89
286.63	-5.28
286.846	1.16
287.061	8.19
287.277	13.92
287.493	-20.14
287.709	-29.79
287.924	-10.08
288.14	8.73
288.356	27.28
288.571	51.34
288.787	48
289.003	52.74
289.218	18.95
289.434	-8.83
289.65	11.91
289.865	8.91
290.081	10.89
290.296	25.51
290.512	25.12
290.727	15.35
290.943	15.84
291.159	16.42
291.374	-10.31
291.59	9.37
291.805	-9.63
292.021	-3.87
292.236	-25.66
292.451	6.56
292.667	-2.39
292.882	15.34
293.098	22.53
293.313	27.52
293.529	24.69
293.744	11.78
293.959	-1.56
294.175	-4.07
294.39	-17.48
294.605	-7.03
294.821	-10.33
295.036	-8.88
295.251	-6.89
295.467	-6.4
295.682	-8.36
295.897	-12.76
296.112	-20.32
296.328	-13.28
296.543	-29.27
296.758	-37.85
296.973	-23.02
297.188	-14.8
297.404	-53.71
297.619	-43.58
297.834	-46.05
298.049	-43.4
298.264	-39.03
298.479	-14.98
298.694	21.29
298.909	22.8
299.125	28.75
299.34	25.02
299.555	19.7
299.77	14.94
299.985	16.57
300.2	17.81
300.415	26.24
300.63	25.61
300.845	17.8
301.06	11.77
301.275	13.07
301.49	4.53
301.704	8.88
301.919	6.56
302.134	16.8
302.349	12.81
302.564	10.68
302.779	-6.86
302.994	2
303.209	-0.96
303.423	7.03
303.638	20.5
303.853	21.22
304.068	9.87
304.283	5.48
304.497	-14.11
304.712	-6.03
304.927	6.17
305.142	4.86
305.356	1.59
305.571	5.37
305.786	-6.75
306	0.62
306.215	3.6
306.43	-2.11
306.644	-10.42
306.859	-24.96
307.074	-19.15
307.288	-7.08
307.503	5.49
307.717	2.04
307.932	12.4
308.147	5.83
308.361	-0.36
308.576	-29.15
308.79	-21.97
309.005	-40.27
309.219	-33.25
309.434	-20.83
309.648	-4.61
309.863	2.95
310.077	19.42
310.292	23.67
310.506	15.39
310.72	17.04
310.935	20.66
311.149	19.1
311.364	8.1
311.578	-5.91
311.792	-1.58
312.007	-17.77
312.221	-40.4
312.435	-10.32
312.649	7.76
312.864	16.89
313.078	10.42
313.292	16.82
313.507	20.25
313.721	18.98
313.935	10.65
314.149	33.91
314.363	45.75
314.578	29
314.792	22.62
315.006	13.57
315.22	0.47
315.434	-5.86
315.648	-10.71
315.862	-8.06
316.077	-7.81
316.291	-15.77
316.505	-49.79
316.719	-25.65
316.933	-11.65
317.147	-0.78
317.361	11.34
317.575	32.18
317.789	25.78
318.003	18.32
318.217	10.71
318.431	-0.68
318.645	3.2
318.859	12.56
319.073	22.47
319.287	16.83
319.5	18.62
319.714	5
319.928	-6.53
320.142	-25.37
320.356	-8.5
320.57	-40.6
320.784	-26.93
320.997	-26.07
321.211	-2.37
321.425	-35.25
321.639	8.82
321.853	1.41
322.066	-9.5
322.28	-9.07
322.494	7.84
322.707	-4.65
322.921	5.15
323.135	19.28
323.349	16.53
323.562	12.15
323.776	22.58
323.989	38.17
324.203	18.13
324.417	9.64
324.63	-0.42
324.844	-20.06
325.057	-66.22
325.271	-49.61
325.485	-50.23
325.698	-30.42
325.912	-9
326.125	-0.24
326.339	18.15
326.552	14.43
326.766	-0.45
326.979	3.76
327.193	5.54
327.406	-25.44
327.619	0.73
327.833	12.46
328.046	8.2
328.26	14.54
328.473	29.31
328.686	15.22
328.9	26.49
329.113	24.8
329.326	7.5
329.54	10.3
329.753	24.59
329.966	14.16
330.179	9.47
330.393	13.2
330.606	8.4
330.819	-6.8
331.032	-6.66
331.246	4.55
331.459	21.97
331.672	22.12
331.885	23.61
332.098	19.89
332.311	11.48
332.525	-4.56
332.738	-5.21
332.951	-17.41
333.164	-3.2
333.377	7.68
333.59	14.83
333.803	30.74
334.016	37.79
334.229	32.15
334.442	22.83
334.655	16.02
334.868	-8.48
335.081	-9.8
335.294	-23.91
335.507	-6.04
335.72	-12.99
335.933	-7.83
336.146	-8.66
336.359	13.2
336.572	-1.63
336.785	4.67
336.997	10.09
337.21	18.86
337.423	-0.15
337.636	4.76
337.849	6.4
338.062	12.66
338.274	17.88
338.487	3.54
338.7	-12.09
338.913	-4.69
339.125	-14.64
339.338	-19.51
339.551	-15.18
339.763	3.85
339.976	1.59
340.189	-1.11
340.402	10.47
340.614	28.04
340.827	19.9
341.039	16.89
341.252	13.75
341.465	5.32
341.677	-0.59
341.89	-6.83
342.102	12.25
342.315	17.11
342.527	16.04
342.74	2.37
342.952	-3.79
343.165	-28.39
343.377	-14.7
343.59	-7.49
343.802	0.37
344.015	24.71
344.227	27.51
344.44	22.37
344.652	9.77
344.864	15.27
345.077	3.42
345.289	19.86
345.502	27.21
345.714	31.79
345.926	39.96
346.139	32.65
346.351	22.11
346.563	8.47
346.775	7.45
346.988	6.02
347.2	14.15
347.412	13.21
347.624	8.85
347.837	18.17
348.049	17.94
348.261	4
348.473	-5.03
348.685	-12.72
348.897	-23.83
349.11	-28.11
349.322	-29.1
349.534	-33.8
349.746	-17.14
349.958	-23.94
350.17	-21.09
350.382	4.29
350.594	21.8
350.806	31.74
351.018	34.84
351.23	35.91
351.442	34.86
351.654	26.5
351.866	22.67
352.078	21.83
352.29	16.91
352.502	6.91
352.714	9.57
352.926	0.23
353.138	13.18
353.35	-4.68
353.561	-3.43
353.773	-10.64
353.985	7.2
354.197	3.31
354.409	18.8
354.621	16.12
354.832	22.67
355.044	-10.06
355.256	-8.18
355.468	-19.87
355.679	5.72
355.891	12.68
356.103	21.14
356.314	3.56
356.526	-4.89
356.738	-24.97
356.949	-35.66
357.161	-13.22
357.373	5.11
357.584	2.25
357.796	5.59
358.008	9.12
358.219	-13.47
358.431	-24.81
358.642	-5.05
358.854	10.04
359.065	0.19
359.277	11.07
359.488	15.1
359.7	-0.2
359.911	-18.32
360.123	-4.3
360.334	-13.04
360.546	-19.1
360.757	-9.95
360.969	0.6
361.18	-5.18
361.391	8.41
361.603	25.06
361.814	28.07
362.025	30.47
362.237	36.8
362.448	34.99
362.659	22.75
362.871	7.94
363.082	10.37
363.293	-14.36
363.504	-52.28
363.716	-39.86
363.927	-1.27
364.138	-33.31
364.349	-31.17
364.56	-25.69
364.772	-4.92
364.983	-12.47
365.194	-3.59
365.405	9.39
365.616	17.13
365.827	1.43
366.038	2.24
366.25	5.16
366.461	7.61
366.672	5.34
366.883	-6.01
367.094	-26.49
367.305	-43.63
367.516	-39.42
367.727	-48.18
367.938	-32.68
368.149	-29.04
368.36	-17.14
368.571	-35.66
368.781	-26.2
368.992	-25.57
369.203	-14.22
369.414	-19.05
369.625	-16.43
369.836	4.4
370.047	-2.62
370.258	-7.91
370.468	-10.71
370.679	-10.66
370.89	-31.17
371.101	-15.74
371.312	-17.8
371.522	-5.1
371.733	5.21
371.944	-5
372.155	0.54
372.365	1.81
372.576	-3.15
372.787	5.47
372.997	11.56
373.208	9.66
373.419	8.6
373.629	3.08
373.84	-13.78
374.05	-15.45
374.261	-26.7
374.472	-11.5
374.682	10.21
374.893	1.64
375.103	11.29
375.314	17.48
375.524	-4.24
375.735	-3.8
375.945	8.99
376.156	1.54
376.366	2.24
376.577	15.86
376.787	1.49
376.997	7.75
377.208	9.17
377.418	5.71
377.629	10.21
377.839	19.65
378.049	18.61
378.26	17.21
378.47	8.94
378.68	2.38
378.89	-1.28
379.101	-7.6
379.311	-1.13
379.521	-2.98
379.732	1.16
379.942	7.98
380.152	6.05
380.362	5.27
380.572	23.32
380.783	21.05
380.993	16.64
381.203	17.83
381.413	11.54
381.623	7.63
381.833	7.36
382.043	-6.92
382.253	-7.16
382.463	7.05
382.674	6.55
382.884	10.49
383.094	14.17
383.304	14.7
383.514	17.63
383.724	16
383.934	5.97
384.144	15.54
384.353	14.97
384.563	4.57
384.773	11.27
384.983	12.53
385.193	5.29
385.403	0.99
385.613	8.54
385.823	0.1
386.033	1.45
386.242	-1.16
386.452	-0.91
386.662	-4.24
386.872	2.72
387.082	4.33
387.291	0.53
387.501	4.92
387.711	7.33
387.921	2.84
388.13	3.75
388.34	9.14
388.55	1.35
388.759	-4.81
388.969	-4.19
389.179	-2.63
389.388	-6.61
389.598	-0.47
389.807	-1.66
390.017	-4.11
390.227	-7.76
390.436	-6.66
390.646	-6.44
390.855	-1.97
391.065	-1.88
391.274	1.39
391.484	1.03
391.693	0.63
391.903	-1.33
392.112	-1.91
392.322	-4.01
392.531	-2.56
392.74	-1.54
392.95	-1.66
393.159	-1.13
393.369	-0.09
393.578	-0.01
393.787	0.41
393.997	1.18
394.206	1.55
394.415	1.96
394.625	2.62
394.834	0.27
395.043	0.46
395.252	3.81
395.462	3.8
395.671	3.05
395.88	5.22
396.089	4.64
396.298	2.62
396.508	2.98
396.717	3.17
396.926	2.28
397.135	2.89
397.344	2.83
397.553	2.66
397.762	3.8
397.971	4.05
398.181	3.86
398.39	3.35
398.599	3.09
398.808	2.51
399.017	3.12
399.226	3.13
399.435	3.34
399.644	3.5
399.853	3.67
400.062	3.25
400.27	3.01
400.479	2.95
400.688	3.08
400.897	2.78
401.106	2.92
401.315	2.74
401.524	2.88
401.733	2.37
401.941	2.26
402.15	1.71
402.359	2.12
402.568	2.16
402.777	2.46
402.985	2.38
403.194	2.62
403.403	2.57
403.612	2.52
403.82	2.37
404.029	2.51
404.238	2.48
404.446	2.49
404.655	2.53
404.864	2.63
405.072	2.69
405.281	2.55
405.489	2.46
405.698	2.41
405.906	2.46
406.115	2.27
406.324	2.44
406.532	2.45
406.741	2.49
406.949	2.41
407.158	2.51
407.366	2.34
407.574	2.36
407.783	2.34
407.991	2.21
408.2	2.19
408.408	2.32
408.617	2.26
408.825	2.08
409.033	2.24
409.242	2.42
409.45	2.4
409.658	2.35
409.867	2.47
410.075	2.56
410.283	2.35
410.491	2.26
410.7	2.25
410.908	2.33
411.116	2.27
411.324	2.33
411.533	2.25
411.741	2.24
411.949	2.14
412.157	2.03
412.365	2.02
412.573	2.05
412.781	2.01
412.99	2.03
413.198	2.05
413.406	2.03
413.614	2.18
413.822	2.27
414.03	2.27
414.238	2.31
414.446	2.43
414.654	2.31
414.862	2.23
415.07	2.07
415.278	2.02
415.486	1.78
415.694	1.93
415.902	2.06
416.109	2.2
416.317	2.19
416.525	2.26
416.733	2.21
416.941	2.26
417.149	2.21
417.357	2.29
417.564	2.32
417.772	2.37
417.98	2.19
418.188	2.15
418.395	1.89
418.603	1.77
418.811	1.55
419.019	1.56
419.226	1.73
419.434	1.87
419.642	1.86
419.849	1.89
420.057	1.89
420.265	1.75
420.472	1.71
420.68	1.75
420.887	1.75
421.095	1.8
421.302	1.75
421.51	1.73
421.717	1.8
421.925	1.84
422.132	1.79
422.34	1.72
422.547	1.79
422.755	1.9
422.962	1.97
423.17	1.96
423.377	2.03
423.585	2.05
423.792	1.88
423.999	1.86
424.207	1.82
424.414	1.97
424.621	1.96
424.829	2.04
425.036	2.04
425.243	2.11
425.451	2.09
425.658	2.05
425.865	1.97
426.072	2.06
426.28	2.03
426.487	1.96
426.694	1.77
426.901	1.8
427.108	1.59
427.315	1.55
427.523	1.53
427.73	1.74
427.937	1.6
428.144	1.82
428.351	1.88
428.558	2
428.765	1.96
428.972	2.05
429.179	1.82
429.386	1.84
429.593	1.68
429.8	1.66
430.007	1.72
430.214	1.72
430.421	1.75
430.628	1.78
430.835	1.79
431.042	1.7
431.249	1.69
431.456	1.59
431.662	1.68
431.869	1.84
432.076	1.96
432.283	2.12
432.49	2.1
432.697	1.99
432.903	1.82
433.11	1.84
433.317	1.78
433.524	1.86
433.73	1.86
433.937	1.96
434.144	1.82
434.35	1.74
434.557	1.71
434.764	1.83
434.97	1.68
435.177	1.89
435.384	1.96
435.59	1.99
435.797	2.03
436.003	2.17
436.21	1.95
436.416	1.94
436.623	1.88
436.829	1.81
437.036	1.72
437.242	1.84
437.449	1.89
437.655	2.02
437.862	2.01
438.068	2.05
438.275	2.09
438.481	2.16
438.687	2.08
438.894	2.16
439.1	2.15
439.307	2.24
439.513	2.22
439.719	2.28
439.926	2.22
440.132	2.3
440.338	2.12
440.544	2.03
440.751	1.95
440.957	2.08
441.163	1.97
441.369	2.12
441.575	2.06
441.782	2.22
441.988	2.14
442.194	2.17
442.4	2.13
442.606	2.35
442.812	2.22
443.018	2.27
443.224	2.39
443.431	2.29
443.637	2.17
443.843	2.25
444.049	2.22
444.255	2.19
444.461	2.15
444.667	2.16
444.873	2.15
445.079	2.03
445.284	1.98
445.49	2
445.696	1.97
445.902	1.97
446.108	2.04
446.314	2.05
446.52	2.2
446.726	2.25
446.931	2.2
447.137	2.25
447.343	2.36
447.549	2.34
447.755	2.38
447.96	2.42
448.166	2.46
448.372	2.41
448.578	2.29
448.783	2.23
448.989	2.29
449.195	2.24
449.4	2.21
449.606	2.21
449.812	2.2
450.017	2.11
450.223	2.15
450.428	2.14
450.634	2.16
450.84	2.2
451.045	2.2
451.251	2.2
451.456	2.22
451.662	2.33
451.867	2.35
452.073	2.35
452.278	2.32
452.483	2.25
452.689	2.24
452.894	2.28
453.1	2.24
453.305	2.23
453.51	2.29
453.716	2.22
453.921	2.24
454.127	2.3
454.332	2.25
454.537	2.23
454.742	2.34
454.948	2.34
455.153	2.36
455.358	2.45
455.563	2.5
455.769	2.44
455.974	2.35
456.179	2.3
456.384	2.26
456.589	2.24
456.795	2.2
457	2.24
457.205	2.27
457.41	2.25
457.615	2.28
457.82	2.37
458.025	2.32
458.23	2.31
458.435	2.38
458.64	2.36
458.845	2.32
459.05	2.38
459.255	2.39
459.46	2.39
459.665	2.38
459.87	2.35
460.075	2.38
460.28	2.4
460.485	2.5
460.69	2.43
460.895	2.46
461.099	2.36
461.304	2.27
461.509	2.21
461.714	2.29
461.919	2.28
462.123	2.38
462.328	2.36
462.533	2.19
462.738	2.18
462.942	2.14
463.147	2.1
463.352	2.18
463.556	2.34
463.761	2.29
463.966	2.36
464.17	2.49
464.375	2.49
464.58	2.41
464.784	2.49
464.989	2.5
465.193	2.36
465.398	2.4
465.602	2.54
465.807	2.56
466.011	2.57
466.216	2.57
466.42	2.61
466.625	2.63
466.829	2.57
467.034	2.61
467.238	2.72
467.443	2.69
467.647	2.53
467.851	2.6
468.056	2.53
