Data from Ofra_PS_T2_1A_2GT03_Reflection_2.txt Node
Date: Wed Jul 21 17:55:26 EDT 2021
User: Adam
Spectrometer: FLMT01687
Trigger mode: 0
Integration Time (sec): 1.100000E0
Scans to average: 2
Electric dark correction enabled: true
Nonlinearity correction enabled: false
Boxcar width: 2
XAxis mode: Wavelengths
Number of Pixels in Spectrum: 3648
>>>>>Begin Spectral Data<<<<<
179.494	584
179.716	661.65
179.937	643.35
180.158	637.25
180.38	897.5
180.601	107.18
180.823	-20.97
181.044	-188.15
181.265	-166.18
181.486	39.14
181.708	168.82
181.929	1197.96
182.15	-505.63
182.372	46.96
182.593	-51.92
182.814	-30.81
183.035	-5.57
183.257	17.13
183.478	-60.43
183.699	2.77
183.92	-0.73
184.141	-10.35
184.363	-91.31
184.584	-9.85
184.805	8.73
185.026	40.95
185.247	42.77
185.468	43.89
185.689	35.23
185.91	39.57
186.132	19.94
186.353	3.99
186.574	42.34
186.795	12.76
187.016	-49.62
187.237	-45.33
187.458	-79.65
187.679	-63.79
187.9	-31.56
188.121	-27.43
188.342	-6.76
188.563	53.33
188.784	55.3
189.005	36.6
189.226	86.28
189.447	58.63
189.667	-152.43
189.888	-349.75
190.109	-1389.61
190.33	-773.55
190.551	-1307.96
190.772	-249.64
190.993	-207.4
191.214	-130.79
191.434	-90.85
191.655	-19.39
191.876	-66.43
192.097	-116.26
192.318	-144.26
192.538	-213.49
192.759	-168.86
192.98	-44.82
193.201	-4.16
193.421	8.38
193.642	32.16
193.863	36.76
194.083	1.04
194.304	-10.23
194.525	-10.71
194.745	-21.99
194.966	-53.11
195.187	-56.12
195.407	-85.49
195.628	-149.19
195.848	-153.8
196.069	-109.37
196.29	-66.22
196.51	-55.62
196.731	-47.09
196.951	-79.17
197.172	-88.63
197.392	-134.35
197.613	-128.72
197.833	-158.31
198.054	-122.28
198.274	-82.76
198.495	-70.95
198.715	-57.18
198.936	-68.84
199.156	-61.57
199.377	-169.03
199.597	-160.41
199.817	-146.26
200.038	-72.34
200.258	-122.25
200.479	-39.28
200.699	-66.08
200.919	-16.49
201.14	-35.91
201.36	-69.97
201.58	-3.52
201.801	25.42
202.021	-17.59
202.241	-11.36
202.461	0.84
202.682	-89.35
202.902	-145.08
203.122	-68.62
203.342	-85.57
203.563	-13.2
203.783	11.16
204.003	-13.21
204.223	-6.29
204.443	70.27
204.663	11.52
204.884	8.41
205.104	60.15
205.324	84.11
205.544	59.35
205.764	79.73
205.984	90.43
206.204	61.61
206.424	41.23
206.644	-1.52
206.864	0.09
207.084	-54.6
207.304	-61.94
207.525	-163.75
207.745	-73.55
207.964	-36.59
208.184	-85.03
208.404	-97.37
208.624	-101.97
208.844	-99.04
209.064	-384.1
209.284	-353.37
209.504	-177.11
209.724	-40.2
209.944	-6.16
210.164	32.92
210.384	22.54
210.604	21.21
210.823	-31.79
211.043	-83.78
211.263	-80.51
211.483	-57.82
211.703	-116.42
211.922	-79.65
212.142	11.71
212.362	31.16
212.582	21.88
212.801	21.01
213.021	-12.76
213.241	-66.9
213.461	-98.01
213.68	-136.22
213.9	-87.42
214.12	-53.43
214.339	-112.73
214.559	-67.56
214.779	-0.59
214.998	-20.57
215.218	-66.73
215.438	-10.95
215.657	-33.46
215.877	-45.2
216.096	-2.13
216.316	3.53
216.535	-10
216.755	8.72
216.974	-73
217.194	-134.19
217.413	-114.3
217.633	-126.46
217.852	-287.14
218.072	-133.07
218.291	-60.2
218.511	-9.05
218.73	-16.71
218.95	-2.49
219.169	-6.33
219.389	-56.18
219.608	-46.34
219.827	-39.46
220.047	-24.18
220.266	-18.39
220.485	-6.45
220.705	-9.34
220.924	-26.26
221.143	7.99
221.363	-12.47
221.582	-11.85
221.801	3.41
222.021	30.15
222.24	-47.63
222.459	20.31
222.678	32.94
222.897	-39.24
223.117	-111.24
223.336	-30.7
223.555	-12.8
223.774	26.13
223.993	30.33
224.213	97.27
224.432	75.03
224.651	85.66
224.87	37.41
225.089	47.16
225.308	29.67
225.527	33.05
225.746	24.25
225.965	20.87
226.184	-18.56
226.404	6.83
226.623	-23.85
226.842	-21.41
227.061	9.29
227.28	22.29
227.499	3.87
227.718	20.86
227.936	23
228.155	25.23
228.374	17.77
228.593	21.22
228.812	23.4
229.031	6.55
229.25	-55.5
229.469	-49.55
229.688	-34.77
229.907	-1.98
230.125	16.91
230.344	44.57
230.563	54.17
230.782	64.39
231.001	-2
231.22	-36.55
231.438	-6.82
231.657	-1.63
231.876	-34.2
232.095	32.85
232.313	62.3
232.532	37.94
232.751	-13.53
232.969	-22.24
233.188	-133.06
233.407	-58.49
233.625	-19.85
233.844	-21.57
234.063	-22.56
234.281	-6.1
234.5	-27.98
234.719	-22.07
234.937	-4.95
235.156	11.86
235.374	24.02
235.593	15.65
235.811	10.93
236.03	-0.92
236.249	-45.1
236.467	-62.28
236.686	-19.62
236.904	-8.22
237.123	-25.49
237.341	-22.66
237.559	-10.91
237.778	-22.49
237.996	-50.83
238.215	-8.72
238.433	14.51
238.652	18.04
238.87	-9.49
239.088	10.76
239.307	-1.99
239.525	5.16
239.743	-28.15
239.962	-13.36
240.18	-52.27
240.398	-99.42
240.617	-133.53
240.835	-119.55
241.053	-94.85
241.271	-14.97
241.49	19.43
241.708	9.12
241.926	-13.35
242.144	-7.74
242.363	-104.02
242.581	-109.67
242.799	-48.6
243.017	-9.16
243.235	-34.47
243.453	0.25
243.672	-20.16
243.89	-26.18
244.108	-45.65
244.326	-22.7
244.544	-28.61
244.762	-13.95
244.98	-9.12
245.198	-2.21
245.416	-30.96
245.634	-33.91
245.852	-36.64
246.07	-52.33
246.288	-46.73
246.506	-47.13
246.724	-0.85
246.942	-13.31
247.16	23.05
247.378	27.87
247.596	39.26
247.814	15.28
248.032	2.09
248.25	-6.01
248.468	-8.02
248.685	-13.93
248.903	30.04
249.121	25.27
249.339	0.23
249.557	6.05
249.775	9.68
249.992	-66.93
250.21	-66.32
250.428	-47.25
250.646	-82.95
250.863	-94.71
251.081	-57.88
251.299	-33.36
251.517	-15.93
251.734	-5.42
251.952	-15.5
252.17	-12.95
252.387	-3.2
252.605	-18.43
252.823	-12.48
253.04	19.37
253.258	42.46
253.475	32.99
253.693	56.99
253.911	52.49
254.128	44.21
254.346	21.29
254.563	12.18
254.781	-34.75
254.998	-41.27
255.216	-62.79
255.433	-45.45
255.651	-21.44
255.868	17.3
256.086	35.59
256.303	18.71
256.521	8.79
256.738	-4.49
256.956	-31.47
257.173	-58.54
257.39	-63.34
257.608	-86.29
257.825	-38.13
258.043	-7.36
258.26	2.13
258.477	55.36
258.695	59.17
258.912	1
259.129	5.62
259.346	-31.5
259.564	-96.83
259.781	-124.81
259.998	-36.16
260.216	-5.66
260.433	45.61
260.65	54.78
260.867	57.64
261.084	20.47
261.302	3.66
261.519	-26.65
261.736	-48.71
261.953	-59.6
262.17	-18.77
262.387	-50.36
262.604	-90.17
262.822	-95.51
263.039	-65.43
263.256	-117
263.473	-77.07
263.69	-33.36
263.907	8.54
264.124	3.61
264.341	-0.12
264.558	-21.57
264.775	-11.57
264.992	-34.51
265.209	-18.7
265.426	15.49
265.643	35.7
265.86	48.79
266.077	57.87
266.294	41.5
266.51	-10.34
266.727	-33.52
266.944	-40.91
267.161	-46.04
267.378	-40.23
267.595	-17.58
267.812	-38.48
268.028	-64.74
268.245	-56.03
268.462	-70.62
268.679	-71.56
268.896	-16.19
269.112	-22.02
269.329	-29.79
269.546	-17.45
269.763	-12.57
269.979	-34.8
270.196	-26.02
270.413	-53.32
270.629	-80.37
270.846	-99.18
271.063	-95.08
271.279	-86.48
271.496	-74.98
271.712	-23.42
271.929	22.89
272.146	13.13
272.362	-25
272.579	21.55
272.795	24.7
273.012	12.85
273.228	17.96
273.445	18.92
273.661	-32.78
273.878	-86.45
274.094	-79.14
274.311	-101.51
274.527	-23.46
274.744	-2.22
274.96	-8.69
275.177	-8.53
275.393	-6.08
275.609	-21.37
275.826	-3.92
276.042	6.74
276.259	1.05
276.475	36.33
276.691	40.36
276.908	17.87
277.124	25.48
277.34	4.77
277.557	-16.71
277.773	-37.72
277.989	-32.17
278.205	-34.01
278.422	3.33
278.638	3.83
278.854	30.55
279.07	28.54
279.286	20.39
279.503	-17.73
279.719	-29.26
279.935	-52.74
280.151	-85.56
280.367	-43.27
280.583	-51.63
280.799	-33.91
281.016	-61.21
281.232	1.64
281.448	-7.66
281.664	21.2
281.88	-7.22
282.096	9.48
282.312	19.5
282.528	29.17
282.744	19.17
282.96	45.21
283.176	39.44
283.392	25.11
283.608	18.81
283.824	18.87
284.04	10.54
284.256	22.6
284.471	1.55
284.687	-9.09
284.903	15.98
285.119	51.5
285.335	20.28
285.551	46.21
285.767	39.06
285.982	8.78
286.198	-37.66
286.414	22.1
286.63	11.04
286.846	35.77
287.061	16.36
287.277	43.77
287.493	11.89
287.709	19.97
287.924	-7.13
288.14	28.38
288.356	27.24
288.571	52.1
288.787	30.86
289.003	36.91
289.218	10.56
289.434	-24.77
289.65	-23.82
289.865	-19.7
290.081	0.08
290.296	11.02
290.512	2.71
290.727	-34.27
290.943	-35.89
291.159	-54.18
291.374	-53.8
291.59	-62.06
291.805	-50.14
292.021	-21.73
292.236	-18.17
292.451	-0.26
292.667	15.49
292.882	53.43
293.098	29.91
293.313	24.23
293.529	-11.35
293.744	-34.93
293.959	-63.75
294.175	-40.61
294.39	-4.69
294.605	14.52
294.821	37.03
295.036	38.05
295.251	36.14
295.467	-1.13
295.682	-13.86
295.897	-65.82
296.112	-79.94
296.328	-71.71
296.543	-73.79
296.758	-57.34
296.973	-12.25
297.188	24.26
297.404	-10.12
297.619	-19.75
297.834	-46.36
298.049	-74.09
298.264	-99.79
298.479	-19.21
298.694	-1.06
298.909	26.23
299.125	34.97
299.34	48.13
299.555	9.52
299.77	23.68
299.985	-33.83
300.2	-81.41
300.415	-100.39
300.63	-52.71
300.845	-70.64
301.06	-50.16
301.275	-10.18
301.49	-0.28
301.704	-18.43
301.919	-22.25
302.134	-38.06
302.349	-41.1
302.564	-108.99
302.779	-139.24
302.994	-100
303.209	-29.06
303.423	21.17
303.638	67.14
303.853	42.48
304.068	15.63
304.283	13.45
304.497	0.05
304.712	-9.44
304.927	12.57
305.142	13.26
305.356	1.45
305.571	-3.67
305.786	-6.93
306	-44.93
306.215	-36.98
306.43	-45.86
306.644	-13.23
306.859	32.65
307.074	59.39
307.288	18.81
307.503	13.87
307.717	-17.97
307.932	-27.26
308.147	-34.81
308.361	-1.02
308.576	1.54
308.79	-49.76
309.005	-46.06
309.219	-32.55
309.434	-46.76
309.648	-40.22
309.863	2.57
310.077	-4.7
310.292	-10.94
310.506	-2.71
310.72	7.82
310.935	-6.37
311.149	1.8
311.364	11.09
311.578	14.06
311.792	9.97
312.007	16.9
312.221	7.1
312.435	18.75
312.649	5.89
312.864	35.61
313.078	72.59
313.292	126.86
313.507	105.69
313.721	147.49
313.935	60.73
314.149	32.84
314.363	17.46
314.578	4.76
314.792	10.47
315.006	-12.62
315.22	15.82
315.434	29.61
315.648	47.1
315.862	46.16
316.077	51.73
316.291	17.84
316.505	15.11
316.719	19.93
316.933	-12.94
317.147	-29.56
317.361	-56.77
317.575	-83.69
317.789	-150.75
318.003	-234.52
318.217	-146.08
318.431	-64.2
318.645	-8.86
318.859	8.56
319.073	45.46
319.287	27.56
319.5	12
319.714	-47.51
319.928	-80.17
320.142	-129.19
320.356	-92.53
320.57	-75.3
320.784	-80.1
320.997	-87.74
321.211	-51.01
321.425	-107.84
321.639	-130.74
321.853	-44.85
322.066	-15.34
322.28	-14.05
322.494	14.72
322.707	44.08
322.921	22.06
323.135	13.74
323.349	22.76
323.562	-0.56
323.776	-19.92
323.989	-22.23
324.203	-48.48
324.417	-54.33
324.63	-87.05
324.844	-88.19
325.057	-87.44
325.271	-58.5
325.485	-27.62
325.698	13.48
325.912	17.72
326.125	-4.25
326.339	0.35
326.552	-27.93
326.766	-25.93
326.979	-0.71
327.193	41.71
327.406	31.74
327.619	23.64
327.833	33.16
328.046	6.69
328.26	-39.26
328.473	-23.4
328.686	-56.65
328.9	-54.46
329.113	-43.56
329.326	-73.43
329.54	-59.92
329.753	-53
329.966	-105.22
330.179	-72.26
330.393	-29
330.606	-28.33
330.819	-6.87
331.032	21.48
331.246	14.51
331.459	36.06
331.672	26.79
331.885	20.35
332.098	-9.68
332.311	-23.91
332.525	-68.17
332.738	-64.93
332.951	-35.25
333.164	-14.86
333.377	1.64
333.59	17.51
333.803	21.44
334.016	14.51
334.229	17.9
334.442	13.28
334.655	20.81
334.868	37.88
335.081	26.13
335.294	-0.12
335.507	-2.28
335.72	-13.54
335.933	-32.56
336.146	-33.42
336.359	-21.35
336.572	-45.9
336.785	-69.02
336.997	-48.19
337.21	-30.2
337.423	-27.48
337.636	-17.17
337.849	2.23
338.062	-0.31
338.274	14.25
338.487	0.06
338.7	13.15
338.913	-13.81
339.125	-48.45
339.338	-119.44
339.551	-86.15
339.763	-54.1
339.976	-26.81
340.189	6.86
340.402	34.81
340.614	23.56
340.827	10.28
341.039	-11.06
341.252	-8.37
341.465	3.82
341.677	-5.64
341.89	-48.81
342.102	-17.66
342.315	-38.09
342.527	-69.32
342.74	-51.8
342.952	0.93
343.165	-5.86
343.377	16.03
343.59	-1.51
343.802	18.02
344.015	14.15
344.227	34.98
344.44	27.38
344.652	38.93
344.864	15.83
345.077	29.91
345.289	26.41
345.502	24.91
345.714	11.08
345.926	25.96
346.139	13.44
346.351	16.65
346.563	35.88
346.775	49.55
346.988	28.69
347.2	12.22
347.412	-40.63
347.624	-76.26
347.837	-101.13
348.049	-63.39
348.261	-17.98
348.473	0.06
348.685	-11.12
348.897	-14.26
349.11	-36.44
349.322	-54.11
349.534	-25.63
349.746	-17.45
349.958	0.07
350.17	-1.98
350.382	17.02
350.594	1.62
350.806	7.09
351.018	-5.07
351.23	-12.24
351.442	-82.02
351.654	-90.58
351.866	-75.99
352.078	-36.62
352.29	-2.89
352.502	16.88
352.714	35.01
352.926	19.78
353.138	4.39
353.35	-11.03
353.561	-13.96
353.773	-40.37
353.985	-28.66
354.197	-26.36
354.409	-26.96
354.621	-41.9
354.832	-27.68
355.044	-38.02
355.256	-39.01
355.468	-24.39
355.679	-20.19
355.891	-14.14
356.103	-25.16
356.314	-23.71
356.526	-20.97
356.738	-9.69
356.949	-9.77
357.161	32.58
357.373	35.34
357.584	30.9
357.796	26.99
358.008	16.78
358.219	18.84
358.431	5.17
358.642	7.98
358.854	9.91
359.065	-5.96
359.277	-40.51
359.488	-38.66
359.7	-64.67
359.911	-82.85
360.123	-55.96
360.334	-56.19
360.546	-81.97
360.757	-85.52
360.969	-58.6
361.18	-50.5
361.391	-43.12
361.603	-41.98
361.814	-29.5
362.025	-47.14
362.237	-45.97
362.448	-19.78
362.659	-3.26
362.871	1.97
363.082	-0.38
363.293	-3.34
363.504	-31.13
363.716	-46.18
363.927	-63.45
364.138	-74.58
364.349	-101.66
364.56	-82.85
364.772	-69.85
364.983	-41.9
365.194	-32.4
365.405	-6.59
365.616	15.29
365.827	12.84
366.038	-9.5
366.25	-19.63
366.461	-34.45
366.672	-17.19
366.883	2.15
367.094	4.06
367.305	-6.25
367.516	-4.82
367.727	-42.79
367.938	-60.19
368.149	-51.38
368.36	-24.28
368.571	-19.97
368.781	-33.17
368.992	-46.42
369.203	-70.81
369.414	-97.72
369.625	-98.57
369.836	-81.78
370.047	-99.44
370.258	-82.44
370.468	-69.63
370.679	-80.76
370.89	-72.23
371.101	-38.44
371.312	-28.54
371.522	-26.24
371.733	-14.48
371.944	-5.18
372.155	-1.82
372.365	-11.09
372.576	-12.97
372.787	-13.59
372.997	-42.01
373.208	-44.18
373.419	-9.96
373.629	-45.12
373.84	-54.46
374.05	-43.7
374.261	-30.54
374.472	-58.38
374.682	-7.49
374.893	-15.61
375.103	24.32
375.314	17.21
375.524	21.56
375.735	30.75
375.945	50.71
376.156	17.78
376.366	20.66
376.577	17.28
376.787	2.71
376.997	-0.71
377.208	5.81
377.418	-12.92
377.629	2.88
377.839	7.49
378.049	-2.64
378.26	8.75
378.47	23.19
378.68	9.8
378.89	6.27
379.101	2.07
379.311	-32.66
379.521	-70.62
379.732	-77.59
379.942	-73.69
380.152	-81.85
380.362	-40.5
380.572	-30.86
380.783	-7.29
380.993	5.79
381.203	15.74
381.413	25.08
381.623	38.78
381.833	25.3
382.043	7.14
382.253	-2.26
382.463	-14.19
382.674	-25.78
382.884	-44.76
383.094	-36.01
383.304	-21.03
383.514	-6.62
383.724	8.94
383.934	6.01
384.144	-6.11
384.353	-17.72
384.563	-25.54
384.773	-22.33
384.983	-24.66
385.193	0.68
385.403	4.25
385.613	1.16
385.823	-17.81
386.033	-7.73
386.242	-18.15
386.452	-18.03
386.662	-22.09
386.872	-6.4
387.082	-14.2
387.291	-20.86
387.501	-25.91
387.711	-16.13
387.921	-22.25
388.13	-19.17
388.34	-7.89
388.55	-8.76
388.759	-8.95
388.969	-1.55
389.179	-3.5
389.388	-4.69
389.598	2.6
389.807	-3.55
390.017	-11.15
390.227	-7.55
390.436	-8.57
390.646	-9.4
390.855	-5.22
391.065	-3.66
391.274	-3.67
391.484	-6.02
391.693	-3.18
391.903	-1.91
392.112	2.73
392.322	4.88
392.531	9.4
392.74	8.01
392.95	2.88
393.159	2.96
393.369	1.18
393.578	-1.56
393.787	-3.41
393.997	-0.7
394.206	-4.55
394.415	-2.88
394.625	-2.32
394.834	-2.22
395.043	-1.75
395.252	2.06
395.462	1.69
395.671	3.22
395.88	3.85
396.089	5.13
396.298	3.08
396.508	3.79
396.717	3.51
396.926	4.74
397.135	4.64
397.344	4.4
397.553	4.8
397.762	5.85
397.971	5.55
398.181	5.54
398.39	4.99
398.599	4.36
398.808	3.9
399.017	4.4
399.226	5.38
399.435	6.84
399.644	7.11
399.853	6.24
400.062	5.54
400.27	4.42
400.479	3.82
400.688	3.09
400.897	3.49
401.106	3.63
401.315	3.92
401.524	3.87
401.733	4.73
401.941	4.97
402.15	5.02
402.359	4.81
402.568	5.07
402.777	5.04
402.985	4.84
403.194	4.57
403.403	4.79
403.612	4.37
403.82	4.16
404.029	4.31
404.238	4.41
404.446	4.54
404.655	4.37
404.864	4.31
405.072	3.99
405.281	4.27
405.489	3.77
405.698	3.91
405.906	3.9
406.115	3.9
406.324	3.67
406.532	3.87
406.741	4.13
406.949	4.11
407.158	4.14
407.366	4.13
407.574	4.2
407.783	4.21
407.991	4.02
408.2	4.2
408.408	4.16
408.617	3.89
408.825	3.67
409.033	3.76
409.242	3.68
409.45	3.68
409.658	3.68
409.867	3.85
410.075	3.76
410.283	3.62
410.491	3.59
410.7	3.55
410.908	3.47
411.116	3.77
411.324	3.71
411.533	3.72
411.741	4.08
411.949	4.01
412.157	3.67
412.365	3.78
412.573	3.74
412.781	3.59
412.99	3.65
413.198	3.86
413.406	3.76
413.614	3.73
413.822	3.58
414.03	3.42
414.238	3.32
414.446	3.48
414.654	3.32
414.862	3.44
415.07	3.69
415.278	3.88
415.486	3.67
415.694	3.85
415.902	3.69
416.109	3.4
416.317	3.21
416.525	3.2
416.733	3.21
416.941	3.5
417.149	3.51
417.357	3.6
417.564	3.73
417.772	3.95
417.98	3.58
418.188	3.57
418.395	3.58
418.603	3.69
418.811	3.32
419.019	3.43
419.226	3.66
419.434	3.56
419.642	3.25
419.849	3.28
420.057	3.34
420.265	3.16
420.472	3.05
420.68	3.12
420.887	3.18
421.095	3.18
421.302	3.2
421.51	3.39
421.717	3.55
421.925	3.64
422.132	3.45
422.34	3.27
422.547	3.31
422.755	3.13
422.962	2.92
423.17	2.93
423.377	3.09
423.585	2.99
423.792	3.01
423.999	3.11
424.207	3.19
424.414	3.36
424.621	3.34
424.829	3.31
425.036	3.28
425.243	3.41
425.451	3.12
425.658	2.89
425.865	3.08
426.072	2.97
426.28	3.05
426.487	3.04
426.694	3.13
426.901	2.89
427.108	3.05
427.315	2.93
427.523	3.31
427.73	3.43
427.937	3.49
428.144	3.33
428.351	3.28
428.558	3.23
428.765	3.11
428.972	3.1
429.179	3.2
429.386	3.39
429.593	3.13
429.8	2.99
430.007	3.09
430.214	3.16
430.421	2.89
430.628	2.71
430.835	2.77
431.042	2.98
431.249	3.05
431.456	3.09
431.662	3.34
431.869	3.49
432.076	3.35
432.283	3.41
432.49	3.44
432.697	3.43
432.903	3.27
433.11	3.17
433.317	3.27
433.524	3.49
433.73	3.45
433.937	3.8
434.144	3.76
434.35	3.57
434.557	3.31
434.764	3.36
434.97	3.19
435.177	3.4
435.384	3.33
435.59	3.43
435.797	3.54
436.003	3.66
436.21	3.64
436.416	3.85
436.623	3.9
436.829	3.87
437.036	3.9
437.242	3.83
437.449	3.69
437.655	3.74
437.862	3.66
438.068	3.52
438.275	3.6
438.481	3.85
438.687	3.81
438.894	3.88
439.1	3.88
439.307	4.08
439.513	3.95
439.719	3.97
439.926	4.03
440.132	4.02
440.338	3.81
440.544	3.99
440.751	3.82
440.957	3.91
441.163	3.88
441.369	4.03
441.575	3.72
441.782	3.85
441.988	3.69
442.194	3.63
442.4	3.5
442.606	3.79
442.812	3.79
443.018	3.93
443.224	4.06
443.431	4.19
443.637	3.96
443.843	3.85
444.049	3.76
444.255	3.77
444.461	3.79
444.667	3.8
444.873	4.04
445.079	4.04
445.284	4.1
445.49	3.84
445.696	3.77
445.902	3.63
446.108	3.64
446.314	3.57
446.52	3.66
446.726	3.87
446.931	3.88
447.137	3.91
447.343	3.95
447.549	3.94
447.755	3.81
447.96	3.84
448.166	3.78
448.372	3.66
448.578	3.71
448.783	3.69
448.989	3.82
449.195	3.94
449.4	4.02
449.606	3.99
449.812	3.93
450.017	3.88
450.223	3.85
450.428	3.77
450.634	3.86
450.84	4.08
451.045	4.02
451.251	3.88
451.456	4.13
451.662	4.2
451.867	4.24
452.073	4.24
452.278	4.42
452.483	4.44
452.689	4.36
452.894	4.4
453.1	4.44
453.305	4.29
453.51	4.21
453.716	4.17
453.921	4.13
454.127	4.09
454.332	4.11
454.537	4.05
454.742	4.09
454.948	4.13
455.153	4.19
455.358	4.25
455.563	4.41
455.769	4.46
455.974	4.35
456.179	4.22
456.384	4.21
456.589	4.12
456.795	3.91
457	3.81
457.205	4.05
457.41	4.02
457.615	3.98
457.82	4.09
458.025	4.13
458.23	3.94
458.435	4.01
458.64	3.96
458.845	4.11
459.05	4.11
459.255	4.12
459.46	4.1
459.665	4.08
459.87	4.02
460.075	4.02
460.28	4.12
