Data from Ofra_PS_T2_1A_6EV18_Reflection_3.txt Node
Date: Wed Jul 21 18:10:10 EDT 2021
User: Adam
Spectrometer: FLMT01687
Trigger mode: 0
Integration Time (sec): 1.100000E0
Scans to average: 2
Electric dark correction enabled: true
Nonlinearity correction enabled: false
Boxcar width: 2
XAxis mode: Wavelengths
Number of Pixels in Spectrum: 3648
>>>>>Begin Spectral Data<<<<<
179.494	488.8
179.716	561.65
179.937	592.34
180.158	591.25
180.38	1099.37
180.601	302.21
180.823	68.54
181.044	-130.33
181.265	11.76
181.486	-5.36
181.708	161.66
181.929	1728.57
182.15	-821.13
182.372	23.99
182.593	8.01
182.814	33.91
183.035	91.13
183.257	65.6
183.478	-50.64
183.699	-29.76
183.92	-56.31
184.141	-54.08
184.363	-92.07
184.584	-10.49
184.805	-11.19
185.026	30.62
185.247	38.02
185.468	26.47
185.689	7.05
185.91	21.03
186.132	1.01
186.353	1.85
186.574	37.34
186.795	44.4
187.016	1.84
187.237	0.47
187.458	-37.18
187.679	-65.8
187.9	-57.04
188.121	-64.6
188.342	-94.19
188.563	-38.08
188.784	-23.14
189.005	-43.67
189.226	2.83
189.447	-22.68
189.667	-245.15
189.888	-529.56
190.109	-1497.4
190.33	-796.13
190.551	-1219.47
190.772	-302.42
190.993	-258.71
191.214	-190.17
191.434	-101.68
191.655	-38.77
191.876	-91.83
192.097	-105.59
192.318	-183.4
192.538	-352.2
192.759	-209.63
192.98	-68.82
193.201	-32.99
193.421	1.34
193.642	32.73
193.863	25.5
194.083	-1.43
194.304	-6.09
194.525	-19.59
194.745	-56.01
194.966	-57.21
195.187	-54.94
195.407	-49.46
195.628	-89.22
195.848	-112.58
196.069	-119.46
196.29	-80.16
196.51	-119.24
196.731	-111.02
196.951	-129.48
197.172	-132.15
197.392	-169.31
197.613	-175.06
197.833	-182.4
198.054	-123.37
198.274	-71.43
198.495	-91.62
198.715	-54.35
198.936	-82.81
199.156	-89.77
199.377	-191.66
199.597	-158.26
199.817	-144.42
200.038	-69.39
200.258	-122.12
200.479	-62.06
200.699	-38.34
200.919	2.58
201.14	-15.7
201.36	-12.89
201.58	10.7
201.801	33.88
202.021	-0.06
202.241	-7.09
202.461	-5.46
202.682	-79.64
202.902	-168.09
203.122	-92.36
203.342	-74.95
203.563	-40.63
203.783	-13.01
204.003	-37
204.223	-61.83
204.443	5.71
204.663	-33.04
204.884	-7.02
205.104	26.41
205.324	50.74
205.544	42.34
205.764	53.4
205.984	35.82
206.204	20.34
206.424	16.81
206.644	-34.88
206.864	-25.97
207.084	-64.24
207.304	5.34
207.525	-95
207.745	-37.9
207.964	-13.84
208.184	-73.7
208.404	-122.37
208.624	-119.31
208.844	-121.89
209.064	-414.29
209.284	-377.2
209.504	-173.55
209.724	-35.54
209.944	-15.92
210.164	-0.73
210.384	9.15
210.604	-2.23
210.823	-57.58
211.043	-81.42
211.263	-44.26
211.483	-38
211.703	-89.14
211.922	-60.86
212.142	-3.8
212.362	-10.35
212.582	-8.19
212.801	-0.32
213.021	-21.45
213.241	-23.84
213.461	-56.35
213.68	-95.63
213.9	-80.77
214.12	-53.09
214.339	-123.63
214.559	-90.76
214.779	-29.43
214.998	-29.24
215.218	-88.61
215.438	-44.98
215.657	-80.5
215.877	-97.39
216.096	-57.16
216.316	-39.41
216.535	-49.06
216.755	-25.09
216.974	-125.54
217.194	-177.37
217.413	-163.27
217.633	-169.47
217.852	-297.89
218.072	-124.63
218.291	-57.85
218.511	3.25
218.73	-5.81
218.95	-17.07
219.169	-15.21
219.389	-60.19
219.608	-62.28
219.827	-74.38
220.047	-46.39
220.266	-35.43
220.485	-27.89
220.705	-26.13
220.924	-30.06
221.143	11.24
221.363	-7.74
221.582	14.92
221.801	25.63
222.021	38.37
222.24	-24.86
222.459	55.08
222.678	-23.19
222.897	-86.08
223.117	-157.07
223.336	-124.53
223.555	-119.98
223.774	-55.7
223.993	-55.76
224.213	17.88
224.432	-0.4
224.651	33.51
224.87	8.04
225.089	20.92
225.308	21.67
225.527	39.49
225.746	31.69
225.965	21.31
226.184	-8.42
226.404	8.75
226.623	-20.15
226.842	-18.14
227.061	4.13
227.28	17.23
227.499	-18.27
227.718	6.59
227.936	-3.68
228.155	9.4
228.374	-3.13
228.593	29.74
228.812	22.38
229.031	27.09
229.25	-34.86
229.469	-26.8
229.688	-19.94
229.907	3.12
230.125	-7.23
230.344	20.23
230.563	19.52
230.782	31.83
231.001	-33.28
231.22	-29.7
231.438	-17.2
231.657	-17.74
231.876	-55.14
232.095	4.85
232.313	25.09
232.532	2.15
232.751	-10.95
232.969	-37.93
233.188	-159.43
233.407	-77.56
233.625	-41.51
233.844	-65.85
234.063	-41.3
234.281	-0.25
234.5	-30.13
234.719	-26.73
234.937	-9.91
235.156	-0.74
235.374	0.65
235.593	-6.22
235.811	-7.07
236.03	2.17
236.249	-21.42
236.467	-39.56
236.686	-9.98
236.904	3.46
237.123	-22.98
237.341	-23.19
237.559	-18.88
237.778	-37.83
237.996	-80.3
238.215	-20.69
238.433	-6.06
238.652	-5.92
238.87	-28.93
239.088	-12.93
239.307	-18.51
239.525	-30.35
239.743	-58.9
239.962	-39.4
240.18	-61.93
240.398	-118.47
240.617	-121.32
240.835	-95.82
241.053	-80.46
241.271	-23.62
241.49	2.76
241.708	-4.46
241.926	-1.28
242.144	5.93
242.363	-46.85
242.581	-51.21
242.799	-31.47
243.017	-21.32
243.235	-38.16
243.453	-40.01
243.672	-47.36
243.89	-51.14
244.108	-70.19
244.326	-54.6
244.544	-41.71
244.762	-36.45
244.98	-22.31
245.198	-9.62
245.416	-39.88
245.634	-48.64
245.852	-53.84
246.07	-78.45
246.288	-88.27
246.506	-101.46
246.724	-95.11
246.942	-97.82
247.16	-41.61
247.378	-20.98
247.596	18.49
247.814	6.54
248.032	-0.97
248.25	-8.87
248.468	-5.21
248.685	-17.41
248.903	26.18
249.121	30.33
249.339	-4.39
249.557	-3.06
249.775	9.05
249.992	-67.51
250.21	-65.47
250.428	-35.79
250.646	-75.89
250.863	-101.41
251.081	-48.15
251.299	-43.21
251.517	-32.71
251.734	-10.38
251.952	12.52
252.17	0.44
252.387	11.54
252.605	-6.48
252.823	12.04
253.04	6.09
253.258	21.31
253.475	2.15
253.693	13.1
253.911	-11.26
254.128	-3.19
254.346	-26.13
254.563	-30.17
254.781	-39.68
254.998	-46.57
255.216	-45.15
255.433	-24.74
255.651	29.54
255.868	67.3
256.086	75.79
256.303	56.06
256.521	30.5
256.738	-6.29
256.956	-52.93
257.173	-82.1
257.39	-94.32
257.608	-104.83
257.825	6.29
258.043	81.76
258.26	63.48
258.477	88.9
258.695	86.74
258.912	-1.92
259.129	-27.14
259.346	-58.04
259.564	-100.65
259.781	-142.02
259.998	-72.31
260.216	-49.43
260.433	-5.06
260.65	-1.21
260.867	23.11
261.084	-4.11
261.302	-27.84
261.519	-39.01
261.736	-55.47
261.953	-77.4
262.17	-41.44
262.387	-66.28
262.604	-65
262.822	-49.72
263.039	-26.91
263.256	-74.4
263.473	-38.96
263.69	-32.05
263.907	-7.62
264.124	4.92
264.341	4.39
264.558	-1.88
264.775	2.89
264.992	-14.31
265.209	-13.24
265.426	16.28
265.643	15.93
265.86	21.33
266.077	20.47
266.294	-11.09
266.51	-50.39
266.727	-50.36
266.944	-52.26
267.161	-31.91
267.378	-30.42
267.595	-2.27
267.812	-17.56
268.028	-42.8
268.245	-39.14
268.462	-30.89
268.679	-29.15
268.896	18.95
269.112	23.63
269.329	13.87
269.546	11.56
269.763	-8.78
269.979	-35.68
270.196	-38.41
270.413	-78.27
270.629	-95.92
270.846	-92.75
271.063	-94.6
271.279	-94.97
271.496	-71.06
271.712	-32.33
271.929	-35.4
272.146	-55.99
272.362	-38
272.579	-8.07
272.795	-2.33
273.012	19.64
273.228	32.98
273.445	-15.86
273.661	-39.67
273.878	-90.23
274.094	-85.16
274.311	-115.55
274.527	-28.21
274.744	-36.97
274.96	-24.54
275.177	-16.9
275.393	14.35
275.609	1.8
275.826	38.86
276.042	41.4
276.259	18.18
276.475	16.57
276.691	10.78
276.908	-26.16
277.124	-12.84
277.34	-2.49
277.557	-21.6
277.773	-18.55
277.989	-9.67
278.205	-22.44
278.422	-8.11
278.638	5.91
278.854	30.61
279.07	34.46
279.286	20.65
279.503	2.97
279.719	-26.91
279.935	-76.18
280.151	-103.1
280.367	-59.94
280.583	-79.67
280.799	-61.88
281.016	-80.64
281.232	-33.3
281.448	-41.45
281.664	-15.01
281.88	-35.88
282.096	3.62
282.312	15.96
282.528	24.57
282.744	33.19
282.96	41.96
283.176	26.42
283.392	13.34
283.608	1.41
283.824	-0.32
284.04	3.65
284.256	4.1
284.471	-8.02
284.687	-4.9
284.903	10.55
285.119	31.83
285.335	10.49
285.551	7.96
285.767	-1.93
285.982	-24.17
286.198	-71.92
286.414	-7.35
286.63	14.59
286.846	35.67
287.061	17.73
287.277	49.1
287.493	8.33
287.709	6.74
287.924	-6.57
288.14	23.69
288.356	10.35
288.571	47.95
288.787	44.11
289.003	33.97
289.218	14.31
289.434	-15.1
289.65	-25.21
289.865	-38.79
290.081	-12.9
290.296	6.37
290.512	12.31
290.727	-12.55
290.943	-24.42
291.159	-34.56
291.374	-51.87
291.59	-70.43
291.805	-50.9
292.021	-20.09
292.236	-26.36
292.451	-3.79
292.667	-3.45
292.882	8.87
293.098	-18.84
293.313	-37
293.529	-68.9
293.744	-77.84
293.959	-76.53
294.175	-70.97
294.39	-26.01
294.605	-9.06
294.821	17.64
295.036	12.85
295.251	21.96
295.467	-20.92
295.682	-37.93
295.897	-98.58
296.112	-106.54
296.328	-86.2
296.543	-76.57
296.758	-94.3
296.973	-48.14
297.188	-1.86
297.404	-40.08
297.619	-50.69
297.834	-36.72
298.049	-53.13
298.264	-82.58
298.479	-14.79
298.694	-22.05
298.909	-6.17
299.125	1.58
299.34	0.57
299.555	-44.22
299.77	-14.77
299.985	-45.18
300.2	-89.85
300.415	-99.54
300.63	-47.54
300.845	-51.72
301.06	-48.54
301.275	-15.87
301.49	-4.76
301.704	-16.76
301.919	-38.33
302.134	-38.35
302.349	-39.98
302.564	-100.16
302.779	-146.45
302.994	-146.39
303.209	-130.91
303.423	-98.16
303.638	-6.5
303.853	-9.7
304.068	0.68
304.283	14.17
304.497	6.65
304.712	-6.5
304.927	-1.94
305.142	-14.36
305.356	-22.2
305.571	-34.05
305.786	-45.1
306	-80.74
306.215	-68.86
306.43	-70.63
306.644	-64.07
306.859	-14.23
307.074	14.99
307.288	-29.39
307.503	-53.96
307.717	-38.23
307.932	-46.19
308.147	-52.28
308.361	-35.46
308.576	-34.23
308.79	-89.92
309.005	-83.2
309.219	-62.88
309.434	-61.51
309.648	-50.46
309.863	-24.12
310.077	-26.13
310.292	-37.2
310.506	-32.55
310.72	-14.72
310.935	-12.74
311.149	-13.3
311.364	4.88
311.578	14.46
311.792	2.36
312.007	7.45
312.221	-5.79
312.435	-14.6
312.649	-21.79
312.864	-46.73
313.078	-16.79
313.292	56
313.507	9.55
313.721	7.19
313.935	30.74
314.149	3.96
314.363	-19.81
314.578	-3.66
314.792	-5.6
315.006	-19.77
315.22	4.22
315.434	4.07
315.648	15.94
315.862	15.9
316.077	24.59
316.291	6.26
316.505	11.79
316.719	1.19
316.933	-13.96
317.147	-13.96
317.361	-82.62
317.575	-94.23
317.789	-124.02
318.003	-197.71
318.217	-166.19
318.431	-64.37
318.645	-12.86
318.859	-9.95
319.073	10.88
319.287	-2.55
319.5	-15.22
319.714	-69.68
319.928	-109.04
320.142	-113.9
320.356	-52.4
320.57	-20.62
320.784	-31.19
320.997	-1.48
321.211	-17.14
321.425	-82.6
321.639	-115.67
321.853	-36.63
322.066	-23.15
322.28	-27.94
322.494	-16.71
322.707	7.54
322.921	-24.33
323.135	-20.5
323.349	-10.59
323.562	-35.18
323.776	-64.34
323.989	-47.61
324.203	-86.66
324.417	-77.2
324.63	-76.95
324.844	-73.52
325.057	-74.81
325.271	-46.99
325.485	-25.99
325.698	-6.54
325.912	6.22
326.125	-17.58
326.339	-3.53
326.552	-38.98
326.766	-28.6
326.979	-16.9
327.193	18.5
327.406	1.33
327.619	10.44
327.833	11.42
328.046	-11.17
328.26	-39.03
328.473	-37.39
328.686	-62.83
328.9	-67.05
329.113	-42.49
329.326	-70.36
329.54	-47.94
329.753	-71.19
329.966	-86.85
330.179	-89.03
330.393	-53.71
330.606	-34.16
330.819	1.39
331.032	7.11
331.246	12.81
331.459	37.48
331.672	21.95
331.885	11.54
332.098	8.31
332.311	2.6
332.525	-57.79
332.738	-47.54
332.951	-28.2
333.164	-12.35
333.377	-3.86
333.59	19.1
333.803	35.09
334.016	18.29
334.229	7.45
334.442	17.62
334.655	39.91
334.868	18.63
335.081	29.61
335.294	20.1
335.507	-4.36
335.72	-20.29
335.933	-34.38
336.146	-45.34
336.359	-41.89
336.572	-47.86
336.785	-76.48
336.997	-59
337.21	-44.62
337.423	-41.72
337.636	-45.78
337.849	-14.92
338.062	-22.34
338.274	-19.16
338.487	-38.74
338.7	-34.3
338.913	-72.61
339.125	-88.28
339.338	-144.29
339.551	-94.53
339.763	-60.17
339.976	-26.32
340.189	-6.06
340.402	15.89
340.614	-3
340.827	-13
341.039	-46.23
341.252	-32.85
341.465	-11.97
341.677	-16.27
341.89	-42.87
342.102	-9.61
342.315	-33.54
342.527	-80.8
342.74	-71.95
342.952	-42.39
343.165	-51.1
343.377	-19.75
343.59	-13.93
343.802	4.62
344.015	2.33
344.227	15.64
344.44	3.09
344.652	0.7
344.864	-10.32
345.077	15.24
345.289	11.23
345.502	8.61
345.714	-1.61
345.926	-0.59
346.139	-20
346.351	-13.05
346.563	2.05
346.775	14.84
346.988	11.02
347.2	2
347.412	-45.24
347.624	-76.19
347.837	-103.08
348.049	-68.07
348.261	-22.01
348.473	3.85
348.685	5.72
348.897	13.56
349.11	-19.76
349.322	-68.33
349.534	-73.76
349.746	-56.13
349.958	-48.33
350.17	-37.09
350.382	-1.79
350.594	2.54
350.806	-1.29
351.018	-7.75
351.23	-31.54
351.442	-70.28
351.654	-79.46
351.866	-74.89
352.078	-55.12
352.29	-17.6
352.502	-9.02
352.714	4.44
352.926	-3.86
353.138	-3.89
353.35	-15.5
353.561	-11.41
353.773	-38.07
353.985	-20.24
354.197	-32.17
354.409	-38.39
354.621	-46.18
354.832	-24.68
355.044	-43
355.256	-42.13
355.468	-19.93
355.679	-21.29
355.891	-26.11
356.103	-40.23
356.314	-25.03
356.526	-32.15
356.738	-33.84
356.949	-53.45
357.161	-20.68
357.373	-41.78
357.584	-50.16
357.796	-39.43
358.008	-30.74
358.219	-16.13
358.431	-17.44
358.642	-6.2
358.854	-7.52
359.065	-12.4
359.277	-51.53
359.488	-45.81
359.7	-71.48
359.911	-73.56
360.123	-47.51
360.334	-50.41
360.546	-65.7
360.757	-59.5
360.969	-51.47
361.18	-48.09
361.391	-29.56
361.603	-35.81
361.814	-27.23
362.025	-13.27
362.237	-16.76
362.448	-7.58
362.659	17.35
362.871	5.99
363.082	5.23
363.293	1.22
363.504	-8.31
363.716	-22.51
363.927	-22.77
364.138	-54
364.349	-59.1
364.56	-49.76
364.772	-53.82
364.983	-28.67
365.194	-21.38
365.405	-7.22
365.616	4.34
365.827	8.9
366.038	-19.78
366.25	-39.43
366.461	-78.69
366.672	-42.91
366.883	-20.72
367.094	-10.54
367.305	-5
367.516	3.09
367.727	-34.81
367.938	-49.93
368.149	-34.23
368.36	-22.03
368.571	-24.99
368.781	-27.38
368.992	-46.64
369.203	-82.16
369.414	-104.32
369.625	-109.98
369.836	-96.61
370.047	-109.66
370.258	-69.13
370.468	-68.68
370.679	-72.13
370.89	-57.81
371.101	-29.39
371.312	-42.22
371.522	-22.3
371.733	-11.69
371.944	-10.36
372.155	3.16
372.365	-2.89
372.576	-6.22
372.787	-10.85
372.997	-38.25
373.208	-47.61
373.419	-13.86
373.629	-49.32
373.84	-57.62
374.05	-74.51
374.261	-50.42
374.472	-66.65
374.682	-10.8
374.893	-1.06
375.103	47.37
375.314	27.86
375.524	16.03
375.735	5.12
375.945	11.51
376.156	-26.72
376.366	-18.72
376.577	-17.62
376.787	-20.72
376.997	-25.71
377.208	-18.17
377.418	-42.45
377.629	-21.32
377.839	-16.11
378.049	-15.15
378.26	-0.7
378.47	11.24
378.68	-4.61
378.89	-18.08
379.101	-22.78
379.311	-53.09
379.521	-78.88
379.732	-81.48
379.942	-85.18
380.152	-98.45
380.362	-62.54
380.572	-55.06
380.783	-32.29
380.993	-7.01
381.203	10.39
381.413	14.61
381.623	22.27
381.833	14.32
382.043	4.14
382.253	-10.36
382.463	-5.76
382.674	-12.59
382.884	-30.4
383.094	-30.55
383.304	-24.71
383.514	-19.88
383.724	-15.71
383.934	-17
384.144	-23.63
384.353	-27.25
384.563	-39.47
384.773	-27.96
384.983	-28.94
385.193	-10.58
385.403	-8.48
385.613	-2.38
385.823	-18.33
386.033	-17.2
386.242	-27.49
386.452	-27.89
386.662	-36.83
386.872	-18.46
387.082	-21.12
387.291	-27.37
387.501	-24.51
387.711	-17.43
387.921	-31.18
388.13	-26
388.34	-10.13
388.55	-11.04
388.759	-12.01
388.969	0.24
389.179	-2.29
389.388	-7.15
389.598	-1.93
389.807	-7.34
390.017	-15.72
390.227	-12.34
390.436	-11.73
390.646	-14.4
390.855	-9.66
391.065	-5.91
391.274	-5.9
391.484	-7.31
391.693	-5.93
391.903	-4.58
392.112	-0.85
392.322	0.73
392.531	4.67
392.74	5.72
392.95	-0.26
393.159	-2.99
393.369	-2.44
393.578	-5.18
393.787	-7.51
393.997	-3.15
394.206	-5.74
394.415	-6.04
394.625	-5.17
394.834	-6.02
395.043	-5.23
395.252	-1.45
395.462	0.3
395.671	1.02
395.88	2.01
396.089	2.89
396.298	0.75
396.508	0.15
396.717	-0.97
396.926	-0.23
397.135	-1.61
397.344	-1.21
397.553	-0.77
397.762	1.15
397.971	1.49
398.181	1.67
398.39	1.1
398.599	0.91
398.808	0.53
399.017	0.87
399.226	2.31
399.435	3.82
399.644	3.88
399.853	3.06
400.062	2.47
400.27	1.76
400.479	1.36
400.688	0.32
400.897	0.67
401.106	0.7
401.315	0.69
401.524	0.91
401.733	1.55
401.941	1.86
402.15	2.03
402.359	1.92
402.568	2.1
402.777	2.48
402.985	2.42
403.194	2.41
403.403	2.39
403.612	1.63
403.82	1.26
404.029	1.44
404.238	1.33
404.446	1.7
404.655	1.63
404.864	1.84
405.072	1.53
405.281	1.67
405.489	1.3
405.698	1.42
405.906	1.29
406.115	1.32
406.324	1.2
406.532	1.48
406.741	1.83
406.949	1.91
407.158	1.91
407.366	2.02
407.574	1.97
407.783	1.99
407.991	1.72
408.2	1.96
408.408	1.84
408.617	1.69
408.825	1.4
409.033	1.62
409.242	1.49
409.45	1.65
409.658	1.55
409.867	1.69
410.075	1.49
410.283	1.39
410.491	1.32
410.7	1.37
410.908	1.38
411.116	1.74
411.324	1.7
411.533	1.61
411.741	1.77
411.949	1.8
412.157	1.54
412.365	1.58
412.573	1.63
412.781	1.68
412.99	1.48
413.198	1.64
413.406	1.67
413.614	1.58
413.822	1.39
414.03	1.49
414.238	1.35
414.446	1.42
414.654	1.28
414.862	1.37
415.07	1.5
415.278	1.74
415.486	1.55
415.694	1.81
415.902	1.75
416.109	1.47
416.317	1.31
416.525	1.17
416.733	1.13
416.941	1.24
417.149	1.22
417.357	1.21
417.564	1.46
417.772	1.53
417.98	1.38
418.188	1.53
418.395	1.62
418.603	1.66
418.811	1.45
419.019	1.34
419.226	1.59
419.434	1.66
419.642	1.5
419.849	1.72
420.057	1.95
420.265	1.7
420.472	1.39
420.68	1.38
420.887	1.17
421.095	1.15
421.302	1.05
421.51	1.32
421.717	1.44
421.925	1.59
422.132	1.41
422.34	1.35
422.547	1.28
422.755	1.19
422.962	1.06
423.17	1.16
423.377	1.27
423.585	1.32
423.792	1.38
423.999	1.52
424.207	1.47
424.414	1.56
424.621	1.5
424.829	1.44
425.036	1.34
425.243	1.49
425.451	1.32
425.658	1.06
425.865	1.14
426.072	1.14
426.28	1.2
426.487	1.27
426.694	1.39
426.901	1.27
427.108	1.16
427.315	1.04
427.523	1.16
427.73	1.19
427.937	1.2
428.144	1.2
428.351	1.15
428.558	1.34
428.765	1.26
428.972	1.19
429.179	1.36
429.386	1.61
429.593	1.26
429.8	1.24
430.007	1.38
430.214	1.34
430.421	1.12
430.628	0.97
430.835	0.89
431.042	0.97
431.249	1.07
431.456	1.08
431.662	1.2
431.869	1.32
432.076	1.38
432.283	1.41
432.49	1.46
432.697	1.55
432.903	1.45
433.11	1.38
433.317	1.4
433.524	1.63
433.73	1.59
433.937	1.87
434.144	1.73
434.35	1.66
434.557	1.24
434.764	1.25
434.97	1.08
435.177	1.27
435.384	1.08
435.59	1.28
435.797	1.5
436.003	1.52
436.21	1.47
436.416	1.65
436.623	1.62
436.829	1.59
437.036	1.67
437.242	1.69
437.449	1.63
437.655	1.65
437.862	1.57
438.068	1.41
438.275	1.54
438.481	1.72
438.687	1.66
438.894	1.64
439.1	1.71
439.307	1.83
439.513	1.66
439.719	1.71
439.926	1.77
440.132	1.78
440.338	1.45
440.544	1.6
440.751	1.59
440.957	1.67
441.163	1.63
441.369	1.75
441.575	1.54
441.782	1.52
441.988	1.42
442.194	1.39
442.4	1.37
442.606	1.72
442.812	1.83
443.018	1.85
443.224	1.92
443.431	2.01
443.637	1.64
443.843	1.53
444.049	1.53
444.255	1.46
444.461	1.44
444.667	1.5
444.873	1.67
445.079	1.63
445.284	1.75
445.49	1.56
445.696	1.43
445.902	1.32
446.108	1.25
446.314	1.13
446.52	1.24
446.726	1.53
446.931	1.58
447.137	1.66
447.343	1.79
447.549	1.66
447.755	1.49
447.96	1.49
448.166	1.48
448.372	1.39
448.578	1.54
448.783	1.53
448.989	1.57
449.195	1.76
449.4	1.77
449.606	1.69
449.812	1.63
450.017	1.63
450.223	1.46
450.428	1.34
450.634	1.43
450.84	1.67
451.045	1.57
451.251	1.45
451.456	1.83
451.662	1.93
451.867	1.86
452.073	1.86
452.278	2.05
452.483	2.01
452.689	1.87
452.894	1.92
453.1	1.97
453.305	1.84
453.51	1.77
453.716	1.68
453.921	1.61
454.127	1.51
454.332	1.52
454.537	1.42
454.742	1.51
454.948	1.46
455.153	1.48
455.358	1.54
455.563	1.71
455.769	1.85
455.974	1.86
456.179	1.78
456.384	1.72
456.589	1.62
456.795	1.35
457	1.32
457.205	1.58
457.41	1.58
457.615	1.56
457.82	1.66
458.025	1.71
458.23	1.55
458.435	1.64
458.64	1.54
458.845	1.65
