Data from Ofra_PS_T2_1A_8CX24_Reflection_3.txt Node
Date: Wed Jul 21 18:14:26 EDT 2021
User: Adam
Spectrometer: FLMT01687
Trigger mode: 0
Integration Time (sec): 1.100000E0
Scans to average: 2
Electric dark correction enabled: true
Nonlinearity correction enabled: false
Boxcar width: 2
XAxis mode: Wavelengths
Number of Pixels in Spectrum: 3648
>>>>>Begin Spectral Data<<<<<
179.494	452.2
179.716	526.35
179.937	499.65
180.158	477.81
180.38	735.16
180.601	250.41
180.823	54.54
181.044	-38.27
181.265	214.15
181.486	85.32
181.708	117.84
181.929	729.08
182.15	-338.38
182.372	123.56
182.593	51.13
182.814	40.75
183.035	69.87
183.257	43.51
183.478	-28.78
183.699	-0.04
183.92	9.98
184.141	-0.03
184.363	-36.17
184.584	10.33
184.805	26.16
185.026	23.29
185.247	32.3
185.468	46.75
185.689	37.16
185.91	15.87
186.132	23.97
186.353	20
186.574	44.92
186.795	51.44
187.016	38.65
187.237	17.08
187.458	4.44
187.679	-23.46
187.9	-15.7
188.121	-15.59
188.342	-16.66
188.563	15.23
188.784	24.82
189.005	48.36
189.226	75.5
189.447	41.65
189.667	-116.63
189.888	-223.28
190.109	-1145.78
190.33	-538.23
190.551	-924.12
190.772	-143.16
190.993	-153.28
191.214	-130.4
191.434	-92.87
191.655	12.85
191.876	-54.4
192.097	-93.4
192.318	-162.96
192.538	-227.05
192.759	-214.33
192.98	-133.04
193.201	-56.17
193.421	-8.32
193.642	4.6
193.863	16.78
194.083	5.45
194.304	-13.62
194.525	-31.54
194.745	-60.48
194.966	-87.8
195.187	-77.08
195.407	-93.62
195.628	-150.7
195.848	-141.63
196.069	-101.46
196.29	-33.41
196.51	-60.09
196.731	-35.5
196.951	-39.49
197.172	-51.01
197.392	-67.63
197.613	-46.88
197.833	-91.72
198.054	-67.45
198.274	-51.5
198.495	-89.36
198.715	-31.85
198.936	-6.09
199.156	3.18
199.377	-42.51
199.597	-46.52
199.817	-75.63
200.038	-39.09
200.258	-106.13
200.479	-64.78
200.699	-42.98
200.919	-6.6
201.14	-50.61
201.36	-64.93
201.58	15.33
201.801	41.53
202.021	-0.4
202.241	1.59
202.461	2.88
202.682	-93.76
202.902	-165.59
203.122	-81.62
203.342	-67.66
203.563	-8.32
203.783	20.94
204.003	-10.01
204.223	-19.22
204.443	38.9
204.663	-7.85
204.884	8.85
205.104	67.93
205.324	94.39
205.544	85.19
205.764	76.53
205.984	68.38
206.204	59.07
206.424	35.54
206.644	15.77
206.864	27.71
207.084	-20.51
207.304	-47.12
207.525	-124.77
207.745	-100.23
207.964	-60.11
208.184	-98.57
208.404	-117.05
208.624	-113.33
208.844	-106.83
209.064	-349.83
209.284	-324.16
209.504	-198.17
209.724	-77.06
209.944	-93.14
210.164	-49.39
210.384	-28.06
210.604	-40.78
210.823	-66.4
211.043	-37.01
211.263	-33.16
211.483	-27.84
211.703	-68.28
211.922	-46.77
212.142	8.82
212.362	28.62
212.582	18.48
212.801	34.38
213.021	5.11
213.241	-2.69
213.461	-33.38
213.68	-53.07
213.9	-24.09
214.12	-23.95
214.339	-105.91
214.559	-82.09
214.779	-16.92
214.998	-30.76
215.218	-41.01
215.438	15.53
215.657	5.8
215.877	-28.82
216.096	5.93
216.316	1.49
216.535	-17.6
216.755	-25.04
216.974	-100.62
217.194	-166.65
217.413	-139.21
217.633	-157.16
217.852	-236.13
218.072	-99.53
218.291	-36.87
218.511	-15.14
218.73	-29.98
218.95	-27.37
219.169	-33.36
219.389	-80.11
219.608	-55.29
219.827	-40.98
220.047	-19.46
220.266	-6.04
220.485	-2.58
220.705	10.49
220.924	-13.56
221.143	15.73
221.363	-4.19
221.582	9.17
221.801	8.13
222.021	23.38
222.24	-61.63
222.459	-36.19
222.678	-40.36
222.897	-123.93
223.117	-139.57
223.336	-101.62
223.555	-69.65
223.774	-56.68
223.993	5.13
224.213	43.48
224.432	31.83
224.651	57.5
224.87	39.03
225.089	33.34
225.308	18.56
225.527	31.5
225.746	15.49
225.965	6.23
226.184	-2.96
226.404	12.34
226.623	-12.07
226.842	-11.85
227.061	12.21
227.28	11.67
227.499	4.84
227.718	22.57
227.936	23.79
228.155	33
228.374	19.65
228.593	15.05
228.812	-9.18
229.031	-24.25
229.25	-82.02
229.469	-100.38
229.688	-92.91
229.907	-38.86
230.125	-17.77
230.344	0.39
230.563	31.98
230.782	49.47
231.001	0.76
231.22	-21.95
231.438	8.65
231.657	-4.72
231.876	-34.29
232.095	10.46
232.313	20.6
232.532	-0.02
232.751	-23.27
232.969	-38.46
233.188	-98.21
233.407	-31.42
233.625	-11.11
233.844	-8.74
234.063	0.69
234.281	16.97
234.5	4.42
234.719	-0.77
234.937	12.77
235.156	13.67
235.374	17.25
235.593	14.75
235.811	9.63
236.03	-13.06
236.249	-52.99
236.467	-50.22
236.686	-16.66
236.904	-0.57
237.123	-26.71
237.341	-13.64
237.559	-6.42
237.778	-21.32
237.996	-39.01
238.215	7.62
238.433	3.07
238.652	-8.37
238.87	-34.35
239.088	-20.5
239.307	-27.59
239.525	-24.52
239.743	-56.89
239.962	-50.97
240.18	-84.03
240.398	-128.55
240.617	-127.71
240.835	-109.46
241.053	-62.08
241.271	-22.34
241.49	13.91
241.708	5.26
241.926	8.06
242.144	-1.53
242.363	-38.74
242.581	-64.59
242.799	-30.05
243.017	-5.43
243.235	-25.87
243.453	-11.81
243.672	-12.85
243.89	-15.42
244.108	-26.11
244.326	-12.12
244.544	-10.47
244.762	-10.2
244.98	-11.56
245.198	-3.34
245.416	-18.68
245.634	-36.08
245.852	-46.34
246.07	-52.46
246.288	-76.56
246.506	-85.43
246.724	-38.92
246.942	-13.13
247.16	9.48
247.378	14.88
247.596	22.71
247.814	11.22
248.032	-23.53
248.25	-36.98
248.468	-23.91
248.685	-23.21
248.903	4.22
249.121	7.26
249.339	-16.32
249.557	-9.19
249.775	3.08
249.992	-77.61
250.21	-72.47
250.428	-43.24
250.646	-78.51
250.863	-103.26
251.081	-48.1
251.299	-41.05
251.517	-43.04
251.734	-21.32
251.952	-15.59
252.17	-18.02
252.387	-6.23
252.605	-17.39
252.823	-21.13
253.04	-9
253.258	-1.17
253.475	-8.25
253.693	27.33
253.911	26.82
254.128	10.65
254.346	19.58
254.563	2.92
254.781	-30.87
254.998	-34.03
255.216	-28.06
255.433	-35.12
255.651	-2.54
255.868	30.09
256.086	51.63
256.303	43.23
256.521	34.92
256.738	2.18
256.956	-20.03
257.173	-61.53
257.39	-65.37
257.608	-85.37
257.825	4.3
258.043	33.82
258.26	46.82
258.477	63.56
258.695	64.94
258.912	-16.62
259.129	-16.33
259.346	-66.33
259.564	-91.07
259.781	-119.74
259.998	-45.08
260.216	-29.17
260.433	41.33
260.65	30.02
260.867	37.38
261.084	16.98
261.302	-0.02
261.519	-35.5
261.736	-36.72
261.953	-47.62
262.17	-11.06
262.387	-31.25
262.604	-54.85
262.822	-78.81
263.039	-52.64
263.256	-96.35
263.473	-50.63
263.69	-33.03
263.907	12.03
264.124	-0.01
264.341	-13.9
264.558	-25.14
264.775	-8.69
264.992	-19.75
265.209	-5.93
265.426	25.52
265.643	31.47
265.86	24.54
266.077	4.37
266.294	-7.68
266.51	-49.54
266.727	-68.67
266.944	-52.92
267.161	-42.4
267.378	-34.77
267.595	-8.24
267.812	-18.98
268.028	-45.96
268.245	-22
268.462	-41.73
268.679	-47.7
268.896	19.34
269.112	16.58
269.329	4.01
269.546	18.88
269.763	7.78
269.979	-27.34
270.196	-16.04
270.413	-27.79
270.629	-50.69
270.846	-42.87
271.063	-30.78
271.279	-52.99
271.496	-48.98
271.712	-23.09
271.929	-16.7
272.146	-33.83
272.362	-10.39
272.579	4.47
272.795	9.92
273.012	17.96
273.228	23.98
273.445	9.16
273.661	-4.1
273.878	-48.96
274.094	-47.83
274.311	-85.99
274.527	-7.73
274.744	-9.91
274.96	-1.41
275.177	7.25
275.393	21.74
275.609	-0.39
275.826	22.22
276.042	18.49
276.259	-1.78
276.475	10.86
276.691	7.63
276.908	-3.61
277.124	17.04
277.34	12.19
277.557	-0.78
277.773	-14.24
277.989	-26.84
278.205	-27.33
278.422	-7.78
278.638	6.39
278.854	34.59
279.07	46.8
279.286	25.15
279.503	8.45
279.719	6.12
279.935	-15.33
280.151	-27.18
280.367	3.75
280.583	-17.41
280.799	-29.16
281.016	-70.73
281.232	-28.35
281.448	-37.35
281.664	-8.78
281.88	-31.92
282.096	-3.7
282.312	4.5
282.528	17.48
282.744	25.52
282.96	14.75
283.176	9.2
283.392	-3.48
283.608	-5.1
283.824	-11.22
284.04	3.68
284.256	13.86
284.471	5.63
284.687	-1.45
284.903	14.58
285.119	43.67
285.335	34.28
285.551	53
285.767	29.9
285.982	16.39
286.198	-12.44
286.414	19.79
286.63	21.13
286.846	27.87
287.061	5.57
287.277	32.79
287.493	10.09
287.709	21.29
287.924	16.86
288.14	60.25
288.356	32.63
288.571	43.05
288.787	25.81
289.003	32.44
289.218	10.05
289.434	-12.11
289.65	-4.36
289.865	-14.08
290.081	-1.85
290.296	8.79
290.512	11.76
290.727	-21.67
290.943	-22.65
291.159	-24.95
291.374	-25.46
291.59	-39.6
291.805	-24.95
292.021	-14.69
292.236	-24.94
292.451	-11.68
292.667	2.68
292.882	6.2
293.098	-1.14
293.313	-20.22
293.529	-52.51
293.744	-63.45
293.959	-62.32
294.175	-46.28
294.39	-1.16
294.605	17.79
294.821	42.22
295.036	46.45
295.251	51.92
295.467	16.86
295.682	0.91
295.897	-40.72
296.112	-39.03
296.328	-52.44
296.543	-60.07
296.758	-47.6
296.973	-17.61
297.188	23.78
297.404	13.83
297.619	10.78
297.834	0.71
298.049	-11.51
298.264	-58.62
298.479	-8.59
298.694	10.51
298.909	23.83
299.125	35.17
299.34	47.28
299.555	13.83
299.77	11.98
299.985	-30.87
300.2	-92.57
300.415	-111.07
300.63	-77.57
300.845	-75.46
301.06	-80.22
301.275	-48.52
301.49	-23.39
301.704	-35.53
301.919	-49.44
302.134	-38.66
302.349	-31.95
302.564	-92.29
302.779	-103.82
302.994	-127.47
303.209	-103.48
303.423	-80.81
303.638	-4.52
303.853	-29.71
304.068	-16.69
304.283	-21.35
304.497	-26.08
304.712	-33.76
304.927	-7
305.142	-26.02
305.356	-18.91
305.571	-14.75
305.786	-24.11
306	-51.79
306.215	-24.43
306.43	-29.08
306.644	-21.64
306.859	-8.93
307.074	9.37
307.288	-3.77
307.503	-14.57
307.717	-26.98
307.932	-22.9
308.147	-32.96
308.361	-28.37
308.576	-36.5
308.79	-80.28
309.005	-82.04
309.219	-68.58
309.434	-74.07
309.648	-55.2
309.863	-21.57
310.077	-4.24
310.292	3.59
310.506	5
310.72	18.18
310.935	21.83
311.149	16.3
311.364	24.07
311.578	32.58
311.792	21.39
312.007	15.37
312.221	-0.4
312.435	-5.14
312.649	-19.45
312.864	-14.41
313.078	7.21
313.292	67.35
313.507	45.68
313.721	57.36
313.935	24.63
314.149	19.54
314.363	-3.46
314.578	-1.58
314.792	7.91
315.006	-0.44
315.22	10.38
315.434	14.34
315.648	22.29
315.862	12.46
316.077	12.01
316.291	-22.28
316.505	-15.53
316.719	-39.36
316.933	-52.15
317.147	-46.53
317.361	-61.59
317.575	-89.48
317.789	-114.42
318.003	-137.23
318.217	-90.52
318.431	-33.8
318.645	5.03
318.859	9.73
319.073	38.78
319.287	16.32
319.5	-1.3
319.714	-39.75
319.928	-62.48
320.142	-119.48
320.356	-57.94
320.57	-16.14
320.784	-18.68
320.997	2.36
321.211	7.58
321.425	-64.4
321.639	-92.49
321.853	-28.85
322.066	-24.33
322.28	-24.78
322.494	-16.66
322.707	-3.02
322.921	-32.49
323.135	-32.89
323.349	-16.8
323.562	-18.19
323.776	-25.63
323.989	-30.72
324.203	-55.89
324.417	-69.23
324.63	-94.45
324.844	-96.88
325.057	-84.6
325.271	-49.08
325.485	-28.68
325.698	-7.11
325.912	7.97
326.125	-16.42
326.339	-9.09
326.552	-10.74
326.766	-30.9
326.979	-16.27
327.193	37.54
327.406	16.78
327.619	1.74
327.833	23.22
328.046	-8.66
328.26	-54.78
328.473	-26.34
328.686	-34.31
328.9	-30.24
329.113	11.39
329.326	3.7
329.54	14.87
329.753	0.95
329.966	-24.4
330.179	-39.46
330.393	-13.67
330.606	-15.94
330.819	-2.61
331.032	20.82
331.246	26.27
331.459	56.43
331.672	49.5
331.885	58.6
332.098	34.35
332.311	24.52
332.525	-48.57
332.738	-33.69
332.951	-13.32
333.164	0.69
333.377	4.75
333.59	37.86
333.803	32.14
334.016	7
334.229	9.37
334.442	8.92
334.655	19.23
334.868	20.74
335.081	22.24
335.294	10.34
335.507	5.46
335.72	-18.81
335.933	-23.58
336.146	-26.84
336.359	-8.42
336.572	-39.07
336.785	-58.43
336.997	-57.96
337.21	-27.68
337.423	-44.47
337.636	-36.06
337.849	-6.53
338.062	-15.69
338.274	-8.95
338.487	-11.28
338.7	4.41
338.913	-53.75
339.125	-64.72
339.338	-120.14
339.551	-78.63
339.763	-65.32
339.976	-8.55
340.189	25.95
340.402	35.49
340.614	18.99
340.827	30.99
341.039	0.74
341.252	6.92
341.465	8.61
341.677	-0.36
341.89	-57.92
342.102	-20.69
342.315	-48.46
342.527	-72.95
342.74	-53.32
342.952	5.06
343.165	0.32
343.377	9.6
343.59	3.39
343.802	5.34
344.015	-10.85
344.227	-11.99
344.44	-5.2
344.652	4.66
344.864	-10.58
345.077	11.31
345.289	20.38
345.502	26.66
345.714	27.7
345.926	43.45
346.139	39.38
346.351	41.09
346.563	36.61
346.775	31.67
346.988	13
347.2	-7.92
347.412	-59.19
347.624	-81.67
347.837	-85.22
348.049	-62.3
348.261	-33.24
348.473	-1.13
348.685	13.09
348.897	-7
349.11	-12.18
349.322	-28.38
349.534	-19.53
349.746	-21.92
349.958	-8.69
350.17	-16.24
350.382	8.12
350.594	-11.11
350.806	-13.73
351.018	-19.51
351.23	-33.31
351.442	-74.35
351.654	-71.05
351.866	-67
352.078	-43.15
352.29	-17
352.502	3.16
352.714	24.58
352.926	12.78
353.138	8.32
353.35	-4.03
353.561	-8.34
353.773	-30.22
353.985	-13.95
354.197	-16.35
354.409	-16.24
354.621	-12.84
354.832	-3.83
355.044	-8.47
355.256	-9.67
355.468	5.39
355.679	-12.41
355.891	-8.41
356.103	-31.68
356.314	-15
356.526	-23.76
356.738	-0.38
356.949	-24.51
357.161	-7.3
357.373	-26.11
357.584	-32.42
357.796	-26.4
358.008	-17.28
358.219	3.77
358.431	6.46
358.642	10.12
358.854	9.29
359.065	-5.55
359.277	-36.83
359.488	-46.27
359.7	-70.1
359.911	-85.57
360.123	-60.39
360.334	-64.26
360.546	-71.93
360.757	-68.86
360.969	-40.04
361.18	-33.59
361.391	-20.84
361.603	-30.01
361.814	-14.15
362.025	-18.03
362.237	-30.53
362.448	-4.97
362.659	14.51
362.871	9.05
363.082	-0.58
363.293	-1.28
363.504	-27.71
363.716	-55.82
363.927	-56.25
364.138	-76.1
364.349	-87.39
364.56	-66.87
364.772	-59.07
364.983	-38.39
365.194	-33.56
365.405	-21.68
365.616	-16.33
365.827	-8.27
366.038	-34.93
366.25	-36.46
366.461	-60.06
366.672	-33.82
366.883	-23.83
367.094	-2.21
367.305	-11.99
367.516	-8.11
367.727	-36.96
367.938	-50.19
368.149	-62.19
368.36	-36.98
368.571	-21.71
368.781	-32.05
368.992	-36.61
369.203	-48.21
369.414	-83.95
369.625	-103.48
369.836	-95.34
370.047	-125.14
370.258	-100.4
370.468	-84.13
370.679	-87.19
370.89	-77.17
371.101	-58.29
371.312	-62.56
371.522	-54.47
371.733	-43.04
371.944	-23.31
372.155	-1.35
372.365	-6.74
372.576	-12.76
372.787	-8.79
372.997	-35.27
373.208	-52.65
373.419	-28.19
373.629	-55.19
373.84	-70.08
374.05	-81.59
374.261	-70.66
374.472	-78.4
374.682	-17.9
374.893	-14.51
375.103	11.68
375.314	13.7
375.524	2.46
375.735	7.92
375.945	17.43
376.156	-2.63
376.366	-4.13
376.577	-0.12
376.787	-18.25
376.997	-20.52
377.208	-13.18
377.418	-23.42
377.629	-17.16
377.839	-16.66
378.049	-10.08
378.26	5.21
378.47	14.35
378.68	7.74
378.89	6.42
379.101	-1.37
379.311	-25.32
379.521	-51.18
379.732	-40.57
379.942	-46.59
380.152	-76.96
380.362	-47.66
380.572	-35.36
380.783	-34.01
380.993	-16.17
381.203	7.32
381.413	17.52
381.623	8.97
381.833	16.84
382.043	-3.14
382.253	-12.84
382.463	-20.14
382.674	-24.21
382.884	-49
383.094	-36.05
383.304	-27.42
383.514	-16.49
383.724	-7.04
383.934	-2.79
384.144	-14.31
384.353	-17.85
384.563	-31.79
384.773	-22.21
384.983	-28.02
385.193	-7.37
385.403	-0.54
385.613	7.66
385.823	-7
386.033	1.44
386.242	-9.37
386.452	-13.16
386.662	-21.61
386.872	-2.33
387.082	-7.94
387.291	-8.78
387.501	-8.14
387.711	-1.61
387.921	-15.44
388.13	-15.92
388.34	-5.09
388.55	-12.77
388.759	-12.46
388.969	-4.41
389.179	-6.14
389.388	-11.89
389.598	-3.3
389.807	-8.77
390.017	-15.94
390.227	-9.27
390.436	-7.37
390.646	-5.06
390.855	-1.9
391.065	2
391.274	-0.84
391.484	-3.5
391.693	-2.93
391.903	-0.76
392.112	3.35
392.322	6.12
392.531	8.88
392.74	6.62
392.95	-0.18
393.159	-4.36
393.369	-5.39
393.578	-5.98
393.787	-6.66
393.997	-3.87
394.206	-4.82
394.415	-5.1
394.625	-4.98
394.834	-5.78
395.043	-5.55
395.252	-3.01
395.462	-0.67
395.671	-0.08
395.88	1.32
396.089	2.44
396.298	0.03
396.508	-1.65
396.717	-2.28
396.926	-1.97
397.135	-2.42
397.344	-1.58
397.553	-0.58
397.762	0.61
397.971	0.7
398.181	0.82
398.39	0.51
398.599	-0.01
398.808	-0.13
399.017	0.23
399.226	1.46
399.435	2.66
399.644	2.95
399.853	2.01
400.062	1.59
400.27	0.74
400.479	0.21
400.688	-0.53
400.897	-0.28
401.106	-0.01
401.315	-0
401.524	0.34
401.733	1.17
401.941	1.71
402.15	1.78
402.359	1.69
402.568	1.85
402.777	1.89
402.985	1.55
403.194	1.3
403.403	1.36
403.612	0.9
403.82	0.67
404.029	0.99
404.238	1
404.446	1.33
404.655	1.19
404.864	1.05
405.072	0.7
405.281	0.86
405.489	0.56
405.698	0.74
405.906	0.86
406.115	0.87
406.324	0.85
406.532	0.98
406.741	1.19
406.949	1.32
407.158	1.23
407.366	1.31
407.574	1.23
407.783	1.12
407.991	0.85
408.2	1.03
408.408	0.94
408.617	0.93
408.825	0.83
409.033	1.04
409.242	1.17
409.45	1.22
409.658	1.15
409.867	1.22
410.075	0.97
410.283	0.78
410.491	0.73
410.7	0.63
410.908	0.67
411.116	1.07
411.324	1.12
411.533	1.16
411.741	1.49
411.949	1.4
412.157	1.08
412.365	1.17
412.573	1.15
412.781	1.09
412.99	1.03
413.198	1.31
413.406	1.18
413.614	1.08
413.822	0.9
414.03	0.96
414.238	0.68
414.446	0.83
414.654	0.79
414.862	0.92
415.07	1.02
415.278	1.17
415.486	0.89
415.694	0.99
415.902	0.85
416.109	0.68
416.317	0.65
416.525	0.63
416.733	0.66
416.941	0.9
417.149	0.91
417.357	0.97
417.564	1.18
417.772	1.4
417.98	1.25
418.188	1.32
418.395	1.49
418.603	1.63
418.811	1.16
419.019	1.18
419.226	1.27
419.434	1.17
419.642	0.95
419.849	1.1
420.057	1.12
420.265	0.99
420.472	0.81
420.68	0.78
420.887	0.7
421.095	0.76
421.302	0.83
421.51	1.03
421.717	1.15
421.925	1.36
422.132	1.18
422.34	0.96
422.547	0.9
422.755	0.72
422.962	0.66
423.17	0.63
423.377	0.86
423.585	0.74
423.792	0.67
423.999	0.71
424.207	0.74
424.414	0.76
424.621	0.87
424.829	1.02
425.036	0.91
425.243	1.04
425.451	0.85
425.658	0.54
425.865	0.67
426.072	0.72
426.28	0.8
426.487	0.72
426.694	0.9
426.901	0.7
427.108	0.71
427.315	0.63
427.523	1.03
427.73	1.11
427.937	1.06
428.144	0.9
428.351	0.86
428.558	0.77
428.765	0.58
428.972	0.59
429.179	0.83
429.386	1.01
429.593	0.9
429.8	0.85
430.007	1.02
430.214	1.03
430.421	0.76
430.628	0.56
430.835	0.42
431.042	0.66
431.249	0.76
431.456	0.8
431.662	0.96
431.869	1.24
432.076	0.99
432.283	1.09
432.49	1.14
432.697	1.16
432.903	0.94
433.11	0.92
433.317	0.85
433.524	1.01
433.73	0.9
433.937	1.18
434.144	1.17
434.35	1.08
434.557	0.85
434.764	0.91
434.97	0.72
435.177	0.95
435.384	0.82
435.59	0.89
435.797	1.06
436.003	1.2
436.21	1.06
436.416	1.19
436.623	1.17
436.829	1.26
437.036	1.4
437.242	1.39
437.449	1.27
437.655	1.31
437.862	1.15
438.068	1.07
438.275	1.16
438.481	1.33
438.687	1.31
438.894	1.3
439.1	1.17
439.307	1.25
439.513	1.17
439.719	1.19
439.926	1.29
440.132	1.26
440.338	1.03
440.544	1.16
440.751	1.05
440.957	1.09
441.163	1.03
441.369	1.19
441.575	0.95
441.782	0.98
441.988	0.82
442.194	0.9
442.4	0.83
442.606	1.15
442.812	1.21
443.018	1.36
443.224	1.4
443.431	1.51
443.637	1.19
443.843	1.15
444.049	1.08
444.255	1.02
444.461	0.96
444.667	1.04
444.873	1.09
445.079	1.13
445.284	1.25
445.49	1.09
445.696	0.98
445.902	0.94
446.108	0.83
446.314	0.74
446.52	0.83
446.726	1.08
446.931	1.1
447.137	1.2
447.343	1.2
447.549	1.15
447.755	1.01
447.96	1.02
448.166	0.94
448.372	0.89
448.578	0.88
448.783	0.82
448.989	0.82
449.195	1.04
449.4	1.05
449.606	1.1
449.812	1.05
450.017	1.09
450.223	0.94
450.428	0.94
450.634	1.04
450.84	1.23
451.045	1.11
451.251	0.98
451.456	1.23
451.662	1.24
451.867	1.25
452.073	1.29
452.278	1.5
452.483	1.52
452.689	1.4
452.894	1.36
453.1	1.33
453.305	1.19
453.51	1.06
453.716	1.03
453.921	1.04
454.127	0.99
454.332	0.97
454.537	0.89
454.742	0.9
454.948	0.89
455.153	1
455.358	1.08
455.563	1.27
455.769	1.41
455.974	1.34
456.179	1.21
456.384	1.18
456.589	1.05
456.795	0.8
457	0.84
457.205	1.12
457.41	1.14
457.615	1.15
457.82	1.27
458.025	1.34
458.23	1.18
458.435	1.19
458.64	1.13
458.845	1.25
459.05	1.13
459.255	1.17
459.46	1.11
459.665	1.13
459.87	1.1
460.075	1.13
460.28	1.09
460.485	1.18
