Data from Ofra_PS_T2_2A_2CX12_Reflection_1.txt Node
Date: Wed Jul 21 16:57:59 EDT 2021
User: Adam
Spectrometer: FLMT01687
Trigger mode: 0
Integration Time (sec): 1.100000E0
Scans to average: 2
Electric dark correction enabled: true
Nonlinearity correction enabled: false
Boxcar width: 2
XAxis mode: Wavelengths
Number of Pixels in Spectrum: 3648
>>>>>Begin Spectral Data<<<<<
179.494	368.2
179.716	385.88
179.937	382.91
180.158	349.56
180.38	485.78
180.601	213.95
180.823	79.86
181.044	-6.99
181.265	117.1
181.486	25.8
181.708	78.35
181.929	845.41
182.15	-232.75
182.372	39.44
182.593	-36.67
182.814	8.22
183.035	46.39
183.257	12.59
183.478	-61.97
183.699	-75.82
183.92	-44.45
184.141	-36.51
184.363	-66.81
184.584	-6.17
184.805	-2.49
185.026	1.9
185.247	1.67
185.468	-9.5
185.689	-6.39
185.91	9.17
186.132	11.28
186.353	0.81
186.574	61.61
186.795	40.32
187.016	13.62
187.237	-13.2
187.458	-17.13
187.679	-25.59
187.9	-30.41
188.121	-3.08
188.342	41.32
188.563	70.96
188.784	75.97
189.005	73.67
189.226	59.79
189.447	5.23
189.667	-263.71
189.888	-405.05
190.109	-1270.45
190.33	-646.61
190.551	-1192.26
190.772	-239.04
190.993	-209.84
191.214	-146.12
191.434	-79.15
191.655	41.93
191.876	-10.7
192.097	-97.07
192.318	-145.75
192.538	-127.64
192.759	-136.32
192.98	-41.69
193.201	29.75
193.421	49.78
193.642	46.43
193.863	50.93
194.083	39.78
194.304	18.64
194.525	-17.92
194.745	-62.43
194.966	-58.94
195.187	-81.74
195.407	-113.21
195.628	-138.29
195.848	-142
196.069	-145.35
196.29	-72.02
196.51	-51.42
196.731	-40.91
196.951	-42.05
197.172	-59.44
197.392	-83.34
197.613	-87.31
197.833	-119.59
198.054	-84.08
198.274	-24.92
198.495	-60.8
198.715	-17.65
198.936	6.32
199.156	0.24
199.377	-75.88
199.597	-43.81
199.817	-106.7
200.038	-81.3
200.258	-139.5
200.479	-101.78
200.699	-123.54
200.919	-25.55
201.14	-20.81
201.36	-42.49
201.58	9.55
201.801	26.47
202.021	-2.86
202.241	-11.05
202.461	-6.38
202.682	-86.3
202.902	-154.82
203.122	-87.26
203.342	-67.36
203.563	-30.14
203.783	-20.57
204.003	-34.2
204.223	-34.57
204.443	6.7
204.663	-16.01
204.884	26.04
205.104	60.6
205.324	62.82
205.544	71.25
205.764	86.96
205.984	61.21
206.204	63.47
206.424	52.74
206.644	33.7
206.864	22.43
207.084	-8.94
207.304	-57.64
207.525	-169.77
207.745	-127.25
207.964	-56.4
208.184	-51.79
208.404	-101.58
208.624	-99.84
208.844	-95.03
209.064	-389.92
209.284	-430.63
209.504	-188.6
209.724	-47.16
209.944	-28.58
210.164	0.64
210.384	12.28
210.604	-2.17
210.823	-51.76
211.043	-55
211.263	-35.54
211.483	-49.16
211.703	-74.7
211.922	-57.77
212.142	7.89
212.362	9.92
212.582	15.94
212.801	25
213.021	18.8
213.241	-15.24
213.461	-65.25
213.68	-83.01
213.9	-70.31
214.12	-47.36
214.339	-101.86
214.559	-57.14
214.779	-26.26
214.998	-30.31
215.218	-87.35
215.438	-31.63
215.657	-51.59
215.877	-25.19
216.096	12.11
216.316	27.22
216.535	1.62
216.755	2.94
216.974	-63.61
217.194	-141.13
217.413	-131.48
217.633	-128.26
217.852	-154.37
218.072	-58.71
218.291	-30.72
218.511	-14.11
218.73	-17.23
218.95	-18.31
219.169	-38.95
219.389	-64.83
219.608	-38.64
219.827	-39.53
220.047	-41.31
220.266	-12.26
220.485	3.14
220.705	22.1
220.924	17.02
221.143	35.52
221.363	18.36
221.582	29.08
221.801	24.01
222.021	25.26
222.24	-13.44
222.459	57.79
222.678	-13.33
222.897	-56.05
223.117	-80.28
223.336	-44.19
223.555	-22.64
223.774	29.54
223.993	56.79
224.213	66.71
224.432	43.35
224.651	42.54
224.87	3.82
225.089	3.6
225.308	-7.2
225.527	4.89
225.746	-12.57
225.965	-7.58
226.184	-39.27
226.404	-3.06
226.623	-23.93
226.842	-8.8
227.061	30.11
227.28	40.5
227.499	45.77
227.718	53.26
227.936	37.59
228.155	22.13
228.374	0.86
228.593	-2.55
228.812	-11.14
229.031	-9.21
229.25	-62.59
229.469	-63.42
229.688	-74.87
229.907	-50.51
230.125	-43.14
230.344	-16.83
230.563	-15.53
230.782	8.41
231.001	-66.92
231.22	-59.04
231.438	-40.05
231.657	-23.53
231.876	-40
232.095	14.52
232.313	13.04
232.532	-4.51
232.751	-45.58
232.969	-35.48
233.188	-106.22
233.407	-14.68
233.625	-6.81
233.844	11.86
234.063	-14.08
234.281	8.01
234.5	-32.3
234.719	-22.9
234.937	-20.23
235.156	-11.64
235.374	3.16
235.593	18.85
235.811	39.29
236.03	47.14
236.249	38.4
236.467	12.74
236.686	24.03
236.904	15.82
237.123	2.44
237.341	1.45
237.559	9.07
237.778	-6.64
237.996	-27.59
238.215	1.89
238.433	22.73
238.652	15.02
238.87	-9.38
239.088	-4.37
239.307	-21.26
239.525	-37.23
239.743	-60.58
239.962	-35.45
240.18	-40.93
240.398	-36
240.617	-44.91
240.835	-16.07
241.053	-25.19
241.271	2.39
241.49	5.64
241.708	-21.48
241.926	-30.07
242.144	-9.67
242.363	-43.62
242.581	-72.18
242.799	-17.88
243.017	-0.62
243.235	-20.54
243.453	-16.76
243.672	-15.67
243.89	-13.59
244.108	-30.1
244.326	-3.24
244.544	-2.18
244.762	9.45
244.98	-8.57
245.198	17.42
245.416	-6.77
245.634	-10.86
245.852	-19.94
246.07	-22.96
246.288	-39.82
246.506	-65.72
246.724	-33.5
246.942	-38.46
247.16	-9.3
247.378	-3.13
247.596	18.95
247.814	-2.66
248.032	-17.03
248.25	-14.67
248.468	-12.56
248.685	-11.72
248.903	26.06
249.121	21.32
249.339	-2.44
249.557	-11.18
249.775	-7.75
249.992	-68.97
250.21	-52.69
250.428	-38.3
250.646	-46.87
250.863	-60.95
251.081	-34.74
251.299	-37.65
251.517	-19.99
251.734	-24.75
251.952	-23.28
252.17	-15.36
252.387	4.93
252.605	2.86
252.823	26.06
253.04	46.27
253.258	57.3
253.475	45.13
253.693	53.87
253.911	45.48
254.128	28.86
254.346	47.71
254.563	32.3
254.781	6.65
254.998	-25.47
255.216	-15.48
255.433	-12.35
255.651	27.38
255.868	49.02
256.086	58.32
256.303	42.77
256.521	16.72
256.738	-7.09
256.956	-26.07
257.173	-40.14
257.39	-39.92
257.608	-33.64
257.825	22.95
258.043	54.22
258.26	41.04
258.477	69.95
258.695	45.82
258.912	-7.17
259.129	-7.19
259.346	-16.1
259.564	-52.75
259.781	-52.52
259.998	-3.11
260.216	25
260.433	36.14
260.65	38.44
260.867	56.51
261.084	31.21
261.302	-0.02
261.519	-18.56
261.736	-54.5
261.953	-82.91
262.17	-48.97
262.387	-79.29
262.604	-97.78
262.822	-95.35
263.039	-75.86
263.256	-103.91
263.473	-76.63
263.69	-20.03
263.907	13.42
264.124	17.94
264.341	5.68
264.558	1.36
264.775	5.23
264.992	-27.68
265.209	-18.61
265.426	3.85
265.643	24.92
265.86	24.72
266.077	44.24
266.294	36.13
266.51	20.05
266.727	-14.04
266.944	-14.56
267.161	-22.97
267.378	-4.65
267.595	4.19
267.812	-4.23
268.028	-16.16
268.245	3.34
268.462	-35.36
268.679	-35.51
268.896	-5.2
269.112	-3.88
269.329	-5.73
269.546	16.09
269.763	2.95
269.979	-12.08
270.196	-22
270.413	-66.4
270.629	-93.75
270.846	-94.96
271.063	-84.09
271.279	-87.7
271.496	-47.7
271.712	1.82
271.929	24.75
272.146	26.86
272.362	44.98
272.579	47.4
272.795	34.32
273.012	39.19
273.228	31
273.445	10.81
273.661	4.05
273.878	-40.67
274.094	-32.83
274.311	-59.77
274.527	-11.58
274.744	-12.95
274.96	-15.93
275.177	-4.47
275.393	7.49
275.609	3.9
275.826	35.24
276.042	30.48
276.259	17.45
276.475	38.03
276.691	35.83
276.908	4.21
277.124	12.93
277.34	13.33
277.557	-4.21
277.773	-6.81
277.989	-10.48
278.205	-3.14
278.422	-2.7
278.638	17.87
278.854	22.77
279.07	37.43
279.286	65.02
279.503	52.3
279.719	16.36
279.935	12.41
280.151	-16.17
280.367	-33.51
280.583	-34.81
280.799	-18.58
281.016	-52.09
281.232	-4.29
281.448	-13.63
281.664	4.63
281.88	-24.37
282.096	6.94
282.312	-3.63
282.528	11.07
282.744	5.4
282.96	14.96
283.176	-8.06
283.392	-5.69
283.608	-13.54
283.824	-5.96
284.04	-1.49
284.256	21.66
284.471	4.47
284.687	3.03
284.903	15.15
285.119	33.63
285.335	14.23
285.551	25.92
285.767	17.31
285.982	-9.74
286.198	-51.4
286.414	-7.5
286.63	0.32
286.846	20.46
287.061	7.63
287.277	33.61
287.493	4.61
287.709	18.67
287.924	-2.69
288.14	20.95
288.356	21.87
288.571	49.29
288.787	14.22
289.003	19.49
289.218	10.79
289.434	-26.69
289.65	-45.61
289.865	-47.1
290.081	-39.64
290.296	-24.93
290.512	-27.22
290.727	-30.06
290.943	-20.58
291.159	-18.86
291.374	-36.07
291.59	-36.48
291.805	-30.98
292.021	-10.27
292.236	-4.14
292.451	18.04
292.667	29.89
292.882	39.34
293.098	25.89
293.313	-14.18
293.529	-28.48
293.744	-47.47
293.959	-64.96
294.175	-66.93
294.39	-26.62
294.605	-16.51
294.821	4.18
295.036	12.75
295.251	28.74
295.467	28.11
295.682	28.94
295.897	2.9
296.112	-3.55
296.328	-5.63
296.543	-31.24
296.758	-38.22
296.973	-2.36
297.188	32.69
297.404	10.16
297.619	-2.37
297.834	-4.17
298.049	-30.73
298.264	-83.8
298.479	-24.84
298.694	-16.34
298.909	0.38
299.125	12.09
299.34	29.64
299.555	1.56
299.77	6.18
299.985	-42.46
300.2	-88.02
300.415	-94.59
300.63	-60.55
300.845	-57.59
301.06	-47.52
301.275	-18.52
301.49	-16.83
301.704	-27.58
301.919	-25.93
302.134	-24.54
302.349	-34.96
302.564	-66.5
302.779	-48.07
302.994	-53.17
303.209	-28.48
303.423	19.3
303.638	56.98
303.853	14.83
304.068	9.43
304.283	14.37
304.497	5.52
304.712	-11.72
304.927	-0.74
305.142	-8.13
305.356	-9.77
305.571	-14.42
305.786	-30.76
306	-36.86
306.215	-22.21
306.43	-38.22
306.644	-17.5
306.859	9.19
307.074	14.81
307.288	-12.14
307.503	-15.09
307.717	-37.8
307.932	-37.8
308.147	-52.58
308.361	-30.36
308.576	-29.24
308.79	-54.22
309.005	-39.45
309.219	-17.8
309.434	-24.63
309.648	-23.01
309.863	-1.27
310.077	6.15
310.292	14.59
310.506	18.82
310.72	27.57
310.935	46.88
311.149	23.14
311.364	30.32
311.578	32.46
311.792	33.72
312.007	21.26
312.221	26.89
312.435	26.32
312.649	9.64
312.864	43.59
313.078	70.01
313.292	108.59
313.507	80.12
313.721	127.37
313.935	40.31
314.149	13.79
314.363	16.3
314.578	8.93
314.792	7.08
315.006	-3.61
315.22	18.02
315.434	11.07
315.648	27.84
315.862	34.35
316.077	34.69
316.291	13.46
316.505	20.82
316.719	5.17
316.933	-26.09
317.147	-37.83
317.361	-79.41
317.575	-95.16
317.789	-113.01
318.003	-155.57
318.217	-106.1
318.431	-19.18
318.645	7.35
318.859	2.15
319.073	24.31
319.287	15
319.5	-11.31
319.714	-39.38
319.928	-51.08
320.142	-69.19
320.356	-33.65
320.57	17.66
320.784	13.65
320.997	30.28
321.211	38.31
321.425	2.14
321.639	-42.84
321.853	5
322.066	0.34
322.28	-10.84
322.494	-13.59
322.707	8.65
322.921	-16.78
323.135	-13.23
323.349	-7.91
323.562	-11.47
323.776	-33.36
323.989	-20.98
324.203	-29.54
324.417	-31.07
324.63	-62.06
324.844	-40.64
325.057	-32.47
325.271	-15.34
325.485	1.85
325.698	25.64
325.912	36.9
326.125	4.93
326.339	5.59
326.552	-9.35
326.766	-8.03
326.979	3.85
327.193	47.12
327.406	38.76
327.619	32.46
327.833	48.2
328.046	12.96
328.26	-25.29
328.473	-17.25
328.686	-52.21
328.9	-51.68
329.113	-23.83
329.326	-39.01
329.54	-15.82
329.753	-19.26
329.966	-42.67
330.179	-29.67
330.393	-11.33
330.606	-3.3
330.819	8.78
331.032	12.34
331.246	6.82
331.459	32
331.672	15.68
331.885	17.98
332.098	8.2
332.311	-10.67
332.525	-73.53
332.738	-57.77
332.951	-17.46
333.164	23.33
333.377	37.63
333.59	46.66
333.803	52.93
334.016	36.37
334.229	29.83
334.442	25.05
334.655	45.53
334.868	42.93
335.081	31.18
335.294	10.34
335.507	15.42
335.72	8.76
335.933	-7.01
336.146	2.08
336.359	9.39
336.572	-22.39
336.785	-38.96
336.997	-23.55
337.21	-15.61
337.423	-24.77
337.636	-11.8
337.849	-0.85
338.062	-14.18
338.274	-15.26
338.487	-22.92
338.7	-16.12
338.913	-43.9
339.125	-56.96
339.338	-98.09
339.551	-52.9
339.763	-36.46
339.976	-16.45
340.189	0.58
340.402	-0.78
340.614	-27.49
340.827	-45.56
341.039	-65.41
341.252	-58.1
341.465	-34.2
341.677	-31.58
341.89	-61.07
342.102	-25.2
342.315	-44.72
342.527	-76.97
342.74	-53.11
342.952	-21.53
343.165	-31.79
343.377	-4.05
343.59	6.22
343.802	2.05
344.015	11.71
344.227	17.2
344.44	10.2
344.652	4.81
344.864	-6.91
345.077	13
345.289	14.5
345.502	14.43
345.714	9.9
345.926	26.02
346.139	14.43
346.351	33.34
346.563	42.36
346.775	39.24
346.988	29.46
347.2	22.43
347.412	-39.22
347.624	-71.03
347.837	-63.81
348.049	-44.47
348.261	-27.08
348.473	-11.94
348.685	-15.44
348.897	-25.68
349.11	-47.47
349.322	-68.27
349.534	-45.93
349.746	-28.27
349.958	-8.47
350.17	-2.53
350.382	5.53
350.594	12.12
350.806	24.6
351.018	17.77
351.23	6.24
351.442	-23.58
351.654	-37.42
351.866	-49.3
352.078	-47.92
352.29	-17.18
352.502	12.41
352.714	19.2
352.926	9.52
353.138	2.97
353.35	-19.48
353.561	-30.67
353.773	-46.12
353.985	-36.51
354.197	-47.38
354.409	-30.66
354.621	-39.94
354.832	-24.16
355.044	-26.44
355.256	-23.61
355.468	-0.75
355.679	3.15
355.891	10.41
356.103	-6.95
356.314	16.33
356.526	8.14
356.738	16.78
356.949	3.12
357.161	34.82
357.373	21.58
357.584	6.56
357.796	9.25
358.008	7.3
358.219	11.48
358.431	11.72
358.642	9.57
358.854	1.26
359.065	0.94
359.277	-25.75
359.488	-33.37
359.7	-36.3
359.911	-44.68
360.123	-39.69
360.334	-48.08
360.546	-62
360.757	-59.64
360.969	-51.81
361.18	-37.41
361.391	-14.67
361.603	-25.16
361.814	-15.8
362.025	0.67
362.237	-0.36
362.448	9.22
362.659	30.46
362.871	24.42
363.082	15.81
363.293	4.79
363.504	-10.6
363.716	-35.68
363.927	-55.37
364.138	-77.56
364.349	-100.26
364.56	-75.77
364.772	-58.51
364.983	-26.03
365.194	-16.29
365.405	13.58
365.616	22.34
365.827	12.79
366.038	-14.42
366.25	-28.81
366.461	-72.92
366.672	-57.21
366.883	-30.12
367.094	-12.58
367.305	-7.39
367.516	4.97
367.727	-15.89
367.938	-30.65
368.149	-24.18
368.36	-13.75
368.571	-8.98
368.781	-17.67
368.992	-24.76
369.203	-37.42
369.414	-55.56
369.625	-72.64
369.836	-57.49
370.047	-73.15
370.258	-55.84
370.468	-53.91
370.679	-62.17
370.89	-62.94
371.101	-34
371.312	-38.79
371.522	-25.69
371.733	-3.44
371.944	14.32
372.155	21.47
372.365	11.38
372.576	3.01
372.787	-7.84
372.997	-36.35
373.208	-43.37
373.419	-21.71
373.629	-41.7
373.84	-42.99
374.05	-42.92
374.261	-32.46
374.472	-43.19
374.682	2.54
374.893	11.73
375.103	49.18
375.314	34.33
375.524	38.7
375.735	32.2
375.945	37.34
376.156	8.92
376.366	14.77
376.577	12.32
376.787	10.56
376.997	-0.77
377.208	-0.36
377.418	-19.39
377.629	-9.94
377.839	-16.43
378.049	-9.36
378.26	5.21
378.47	17.43
378.68	4.92
378.89	5.37
379.101	0.58
379.311	-26.78
379.521	-43.01
379.732	-37.41
379.942	-40.82
380.152	-54.46
380.362	-20.72
380.572	-14.68
380.783	-4.93
380.993	11.94
381.203	23.14
381.413	14.14
381.623	19.48
381.833	12.89
382.043	-2.51
382.253	-3.03
382.463	-4.9
382.674	-12.26
382.884	-28.44
383.094	-26.28
383.304	-17.28
383.514	-8.29
383.724	-3.35
383.934	-2.47
384.144	-9.05
384.353	-28.77
384.563	-34.22
384.773	-24.99
384.983	-27.84
385.193	-9.74
385.403	2.38
385.613	8.57
385.823	1.33
386.033	9.2
386.242	1.61
386.452	-3.77
386.662	-17.61
386.872	-9.43
387.082	-17.45
387.291	-20.59
387.501	-18.53
387.711	-5.71
387.921	-12.62
388.13	-8.12
388.34	-0.35
388.55	-6.59
388.759	-5.13
388.969	0.6
389.179	2.32
389.388	0.6
389.598	8.27
389.807	0.96
390.017	-4.54
390.227	-8.93
390.436	-9.84
390.646	-10.32
390.855	-5.68
391.065	-2.95
391.274	-1.82
391.484	-3.02
391.693	1.84
391.903	4.03
392.112	3.73
392.322	5.12
392.531	8.64
392.74	4.29
392.95	-2.19
393.159	-2.98
393.369	-1.08
393.578	-2.55
393.787	-3.54
393.997	-0.28
394.206	-0.19
394.415	-1.18
394.625	-1.22
394.834	-0.81
395.043	-0.52
395.252	1.04
395.462	2.28
395.671	3.51
395.88	4.61
396.089	5.62
396.298	4.22
396.508	3.46
396.717	2.12
396.926	2.21
397.135	1.51
397.344	1.65
397.553	2.12
397.762	3.11
397.971	3.39
398.181	3.56
398.39	4.18
398.599	3.93
398.808	4.21
399.017	4.69
399.226	5.87
399.435	5.93
399.644	6.1
399.853	4.98
400.062	4.52
400.27	3.86
400.479	3.37
400.688	3.04
400.897	3.67
401.106	3.6
401.315	3.29
401.524	3.68
401.733	4.3
401.941	4.04
402.15	4.43
402.359	4.29
402.568	4.65
402.777	4.71
402.985	4.95
403.194	4.72
403.403	4.96
403.612	4.44
403.82	4.15
404.029	4.23
404.238	4.24
404.446	4.34
404.655	4.12
404.864	4.16
405.072	3.82
405.281	3.89
405.489	3.67
405.698	3.83
405.906	3.86
406.115	4.01
406.324	3.95
406.532	4.18
406.741	4.53
406.949	4.54
407.158	4.6
407.366	4.65
407.574	4.52
407.783	4.3
407.991	3.99
408.2	4.01
408.408	3.88
408.617	3.87
408.825	3.77
409.033	3.96
409.242	3.98
409.45	4.11
409.658	3.98
409.867	4.04
410.075	4.01
410.283	3.84
410.491	3.76
410.7	3.74
410.908	3.74
411.116	4.01
411.324	4.09
411.533	3.93
411.741	4.13
411.949	4.16
412.157	3.78
412.365	3.7
412.573	3.88
412.781	3.86
412.99	3.82
413.198	4.05
413.406	4.07
413.614	3.99
413.822	3.8
414.03	3.75
414.238	3.54
414.446	3.6
414.654	3.44
414.862	3.54
415.07	3.57
415.278	3.75
415.486	3.62
415.694	3.75
415.902	3.64
416.109	3.5
416.317	3.46
416.525	3.4
416.733	3.37
416.941	3.53
417.149	3.59
417.357	3.6
417.564	3.8
417.772	3.91
417.98	3.76
418.188	3.8
418.395	3.77
418.603	3.82
418.811	3.6
419.019	3.54
419.226	3.75
419.434	3.78
419.642	3.46
419.849	3.6
420.057	3.59
420.265	3.36
420.472	3.21
420.68	3.4
420.887	3.24
421.095	3.36
421.302	3.39
421.51	3.41
421.717	3.32
421.925	3.47
422.132	3.29
422.34	3.1
422.547	3.11
422.755	3.07
422.962	2.92
423.17	2.95
423.377	3.03
423.585	3.07
423.792	3.02
423.999	3.11
424.207	2.98
424.414	3.04
424.621	2.98
424.829	3.05
425.036	3
425.243	3.16
425.451	3.09
425.658	2.98
425.865	3.03
426.072	3.05
426.28	3.28
426.487	3.25
426.694	3.28
426.901	3.17
427.108	3.13
427.315	2.94
427.523	3.19
427.73	3.27
427.937	3.29
428.144	3.25
428.351	3.21
428.558	3.11
428.765	2.95
428.972	2.91
429.179	3.01
429.386	3.25
429.593	3.14
429.8	3.1
430.007	3.28
430.214	3.39
430.421	3.21
430.628	3.1
430.835	3
431.042	3.07
431.249	3.06
431.456	3.12
431.662	3.25
431.869	3.57
432.076	3.5
432.283	3.58
432.49	3.51
432.697	3.51
432.903	3.24
433.11	3.19
433.317	3.13
433.524	3.33
433.73	3.36
433.937	3.64
434.144	3.55
434.35	3.45
434.557	3.36
434.764	3.34
434.97	3.21
435.177	3.34
435.384	3.35
435.59	3.37
435.797	3.54
436.003	3.59
436.21	3.6
436.416	3.68
436.623	3.6
436.829	3.52
437.036	3.59
437.242	3.65
437.449	3.41
437.655	3.4
437.862	3.49
438.068	3.43
438.275	3.54
438.481	3.89
438.687	3.88
438.894	3.7
439.1	3.77
439.307	3.82
439.513	3.71
439.719	3.67
439.926	3.85
440.132	3.77
440.338	3.58
440.544	3.6
440.751	3.71
440.957	3.7
441.163	3.72
441.369	3.79
441.575	3.68
441.782	3.71
441.988	3.57
442.194	3.51
442.4	3.51
442.606	3.8
442.812	3.84
443.018	4.01
443.224	4.16
443.431	4.2
443.637	3.94
443.843	3.87
444.049	3.79
444.255	3.65
444.461	3.63
444.667	3.62
444.873	3.73
445.079	3.77
445.284	3.97
445.49	3.84
445.696	3.77
445.902	3.62
446.108	3.55
446.314	3.35
446.52	3.48
446.726	3.74
446.931	3.83
447.137	3.88
447.343	3.95
447.549	3.88
447.755	3.72
447.96	3.75
448.166	3.75
448.372	3.73
448.578	3.68
448.783	3.72
448.989	3.74
449.195	3.82
449.4	3.83
449.606	3.85
449.812	3.78
450.017	3.76
450.223	3.67
450.428	3.63
450.634	3.71
450.84	3.85
451.045	3.82
451.251	3.79
451.456	3.99
451.662	4.05
451.867	4.07
452.073	4.1
452.278	4.21
452.483	4.29
452.689	4.18
452.894	4.11
453.1	4.09
453.305	4.01
453.51	3.92
453.716	3.88
453.921	3.9
454.127	3.81
454.332	3.74
454.537	3.56
454.742	3.73
454.948	3.7
455.153	3.85
455.358	3.92
455.563	4.12
455.769	4.08
455.974	4.03
456.179	3.84
456.384	3.9
456.589	3.84
456.795	3.7
457	3.73
457.205	4.02
457.41	3.93
457.615	3.83
457.82	3.92
458.025	3.94
458.23	3.82
458.435	3.82
458.64	3.79
458.845	3.88
459.05	3.88
459.255	3.87
459.46	3.88
459.665	3.93
459.87	3.88
460.075	3.88
460.28	3.9
460.485	4
460.69	4.07
460.895	3.97
461.099	4
461.304	4.03
461.509	3.99
461.714	3.94
461.919	4.08
462.123	4.03
462.328	3.98
