Data from Ofra_2a_PS_4HS13_Reflection_1.txt Node
Date: Tue Jul 20 09:50:11 EDT 2021
User: Adam
Spectrometer: FLMT01687
Trigger mode: 0
Integration Time (sec): 9.450000E-1
Scans to average: 3
Electric dark correction enabled: true
Nonlinearity correction enabled: false
Boxcar width: 3
XAxis mode: Wavelengths
Number of Pixels in Spectrum: 3648
>>>>>Begin Spectral Data<<<<<
179.494	1137.28
179.716	752.99
179.937	889.01
180.158	3544.53
180.38	-1242.44
180.601	-273.42
180.823	-98.77
181.044	-97.01
181.265	-44.74
181.486	88.9
181.708	793.48
181.929	-93.72
182.15	-614.77
182.372	59.75
182.593	71.06
182.814	-152.99
183.035	9.71
183.257	0.86
183.478	-3.86
183.699	29.47
183.92	26.65
184.141	38.53
184.363	53.19
184.584	30.65
184.805	40.75
185.026	35.75
185.247	10.99
185.468	18.91
185.689	21.69
185.91	16.59
186.132	16.2
186.353	-0.73
186.574	6.14
186.795	-7.88
187.016	-10.47
187.237	-27.21
187.458	-35.49
187.679	-64.32
187.9	-46.26
188.121	-34.09
188.342	3.13
188.563	-3.48
188.784	8.73
189.005	4.85
189.226	21.93
189.447	24.29
189.667	29.6
189.888	34.39
190.109	32.84
190.33	26.93
190.551	32.66
190.772	19.29
190.993	22.48
191.214	15.14
191.434	-2.38
191.655	6.37
191.876	10.78
192.097	-2.05
192.318	5.59
192.538	0.52
192.759	11.04
192.98	10.35
193.201	9.69
193.421	14.01
193.642	29.94
193.863	20.11
194.083	17.27
194.304	-6.58
194.525	13.24
194.745	-4.61
194.966	4.87
195.187	-2.98
195.407	8.76
195.628	10.63
195.848	10.73
196.069	8.07
196.29	15.55
196.51	-5.44
196.731	9.6
196.951	-3.6
197.172	-5.76
197.392	2.35
197.613	-3.39
197.833	-2.22
198.054	6.51
198.274	-22.1
198.495	-11.51
198.715	-20.43
198.936	-39.86
199.156	-39.62
199.377	-34.84
199.597	-36.03
199.817	-8.56
200.038	-6.88
200.258	-8.39
200.479	8.73
200.699	15.77
200.919	-3.15
201.14	6.04
201.36	21.29
201.58	20.82
201.801	27.06
202.021	20.75
202.241	27.78
202.461	35.54
202.682	27.45
202.902	21.05
203.122	17.93
203.342	22.68
203.563	21.19
203.783	12.59
204.003	8.16
204.223	17.82
204.443	12.54
204.663	11.59
204.884	-6.81
205.104	-7.13
205.324	-3.17
205.544	16.56
205.764	5.44
205.984	-1.26
206.204	11.43
206.424	19.86
206.644	18.08
206.864	16.55
207.084	21.54
207.304	18.44
207.525	26.38
207.745	19.63
207.964	21.17
208.184	9.05
208.404	12.12
208.624	-9.02
208.844	-15.8
209.064	-7.34
209.284	-13.91
209.504	-19.1
209.724	-30.97
209.944	-44
210.164	-28.22
210.384	-5.85
210.604	-15.24
210.823	-11.65
211.043	-9.11
211.263	13.9
211.483	22.66
211.703	33.06
211.922	16.67
212.142	20.58
212.362	22.59
212.582	17.72
212.801	9.45
213.021	1.51
213.241	-12.3
213.461	-1.85
213.68	-8.25
213.9	2.59
214.12	4.08
214.339	10.91
214.559	19.68
214.779	14.91
214.998	4.48
215.218	2.27
215.438	8.77
215.657	15.65
215.877	8.34
216.096	-4.26
216.316	-5.18
216.535	-0.73
216.755	-10.11
216.974	-21.07
217.194	-35.6
217.413	-19.47
217.633	-13.94
217.852	-10.41
218.072	-13.68
218.291	13.7
218.511	15.2
218.73	15.14
218.95	3.45
219.169	3.38
219.389	5.15
219.608	11.74
219.827	-0.38
220.047	1.48
220.266	6.85
220.485	5.08
220.705	5.59
220.924	9.6
221.143	-1.83
221.363	-4.99
221.582	-12.28
221.801	-9.69
222.021	-6.64
222.24	-19.13
222.459	-28.04
222.678	-36.02
222.897	-20.71
223.117	-9.33
223.336	3.18
223.555	18
223.774	45.58
223.993	57.97
224.213	52.8
224.432	55.66
224.651	47.3
224.87	46.8
225.089	45.73
225.308	29.31
225.527	21.36
225.746	24.25
225.965	5.35
226.184	-3.9
226.404	-23.53
226.623	-29.35
226.842	-16.73
227.061	-21.19
227.28	-8.39
227.499	18.66
227.718	26.6
227.936	25.44
228.155	21
228.374	17.93
228.593	13.04
228.812	3.13
229.031	-12.3
229.25	0.61
229.469	5.38
229.688	15.28
229.907	6.94
230.125	10.13
230.344	12.56
230.563	27.27
230.782	15.05
231.001	13.35
231.22	0.17
231.438	16.68
231.657	27.75
231.876	27.01
232.095	19.46
232.313	26.37
232.532	26.6
232.751	37.3
232.969	40.31
233.188	34.59
233.407	33.33
233.625	28.51
233.844	25.55
234.063	22.23
234.281	20.36
234.5	16.98
234.719	17.03
234.937	27.98
235.156	29.02
235.374	18.73
235.593	18.54
235.811	14.93
236.03	13.98
236.249	21.59
236.467	12.39
236.686	23.98
236.904	26.7
237.123	27.51
237.341	25.93
237.559	23.72
237.778	22.91
237.996	27.93
238.215	16.62
238.433	30.22
238.652	22.33
238.87	22.8
239.088	13.37
239.307	10.48
239.525	-2.04
239.743	-8.16
239.962	-12.87
240.18	-4.29
240.398	-2
240.617	10.11
240.835	16.3
241.053	21.12
241.271	34.64
241.49	17.75
241.708	9.73
241.926	-3.61
242.144	-4.47
242.363	-21.26
242.581	-13.18
242.799	-35.38
243.017	-17.35
243.235	-16.73
243.453	-6.71
243.672	-11.12
243.89	-6.1
244.108	-1.24
244.326	5.84
244.544	6.02
244.762	12.14
244.98	9.88
245.198	3.05
245.416	5.91
245.634	8.35
245.852	15.57
246.07	19.33
246.288	2.56
246.506	10.28
246.724	27.99
246.942	37.21
247.16	27.91
247.378	18.42
247.596	16.41
247.814	18.29
248.032	8.25
248.25	-8.15
248.468	-0.5
248.685	1.25
248.903	6.95
249.121	13.04
249.339	29.09
249.557	32.04
249.775	22.82
249.992	12.57
250.21	7.03
250.428	-0.95
250.646	-3.76
250.863	-6.55
251.081	-9.76
251.299	15.33
251.517	19.14
251.734	25.42
251.952	39.46
252.17	23.59
252.387	15.12
252.605	19.99
252.823	8.34
253.04	0.11
253.258	3.13
253.475	-0.57
253.693	16.4
253.911	21.06
254.128	7.7
254.346	4.47
254.563	5.65
254.781	4.71
254.998	5.47
255.216	2.31
255.433	1.93
255.651	9.18
255.868	11.92
256.086	9.24
256.303	6.73
256.521	-1.18
256.738	-5.66
256.956	-23.77
257.173	-13.3
257.39	-1.01
257.608	0.81
257.825	-2.9
258.043	8.09
258.26	3.14
258.477	16.99
258.695	16.45
258.912	32.55
259.129	33.45
259.346	39.2
259.564	30.32
259.781	39.83
259.998	41.54
260.216	40.32
260.433	15.83
260.65	23.63
260.867	16.15
261.084	24.77
261.302	22.9
261.519	11.97
261.736	13.78
261.953	16.04
262.17	6.67
262.387	13.39
262.604	-5.37
262.822	-4.06
263.039	-7.02
263.256	-5.71
263.473	-14.88
263.69	-14.67
263.907	-24.93
264.124	-18.56
264.341	-22.73
264.558	-8.01
264.775	-5.2
264.992	-4.48
265.209	5.6
265.426	16.53
265.643	24.85
265.86	18.87
266.077	13.48
266.294	15.39
266.51	20.13
266.727	-2.96
266.944	-18.2
267.161	-23.24
267.378	-20.44
267.595	-20.1
267.812	-30.75
268.028	-22.81
268.245	-5.97
268.462	-5.48
268.679	-11.86
268.896	-9.96
269.112	7.48
269.329	13.47
269.546	13.63
269.763	18.31
269.979	22.23
270.196	32.76
270.413	35.6
270.629	30.65
270.846	28.66
271.063	28.72
271.279	26.43
271.496	18.87
271.712	6.12
271.929	6.11
272.146	0.97
272.362	-14.5
272.579	-18.61
272.795	-15.1
273.012	-3.46
273.228	7.22
273.445	7.18
273.661	7.71
273.878	21.65
274.094	28.87
274.311	24.13
274.527	28.36
274.744	20.79
274.96	18.67
275.177	27.21
275.393	20.68
275.609	12.57
275.826	10.76
276.042	17.39
276.259	21.21
276.475	24.05
276.691	28.1
276.908	24.4
277.124	24.5
277.34	21.54
277.557	5.79
277.773	0.82
277.989	1.41
278.205	-23.77
278.422	-8.28
278.638	5.04
278.854	6.4
279.07	-5.87
279.286	9.83
279.503	13.26
279.719	37.29
279.935	21.09
280.151	17.85
280.367	23.56
280.583	33.93
280.799	24.66
281.016	17.57
281.232	4.79
281.448	4.2
281.664	0.35
281.88	9.02
282.096	24.35
282.312	19.83
282.528	19.02
282.744	14.47
282.96	20.74
283.176	26.57
283.392	28.71
283.608	19.23
283.824	18.91
284.04	21.25
284.256	33.75
284.471	36.42
284.687	27.45
284.903	23.34
285.119	11.06
285.335	8.63
285.551	16.12
285.767	3.04
285.982	-2.08
286.198	-4.15
286.414	-0.34
286.63	13.95
286.846	15.38
287.061	18.71
287.277	23.62
287.493	25.81
287.709	19.56
287.924	24.43
288.14	24.23
288.356	35.26
288.571	27.71
288.787	27.66
289.003	31.34
289.218	31.67
289.434	23.14
289.65	21.05
289.865	25.86
290.081	29.08
290.296	21.6
290.512	17.94
290.727	27.34
290.943	19.46
291.159	13.68
291.374	6.56
291.59	-1.38
291.805	-1.39
292.021	-22.4
292.236	-23.39
292.451	-18.42
292.667	-15.84
292.882	-20.63
293.098	-30.06
293.313	-30.52
293.529	-18.74
293.744	-21.16
293.959	-12.3
294.175	-16.19
294.39	-13.77
294.605	-1.71
294.821	1.56
295.036	4.64
295.251	-2.66
295.467	-3.28
295.682	4.82
295.897	4.33
296.112	4.5
296.328	0.06
296.543	0.24
296.758	6.86
296.973	-0.36
297.188	-4.92
297.404	0.33
297.619	-6.52
297.834	5.8
298.049	4.75
298.264	9.91
298.479	6.84
298.694	7.96
298.909	-3.53
299.125	5.09
299.34	0.96
299.555	9.06
299.77	5.9
299.985	10.31
300.2	12.41
300.415	19.04
300.63	10.77
300.845	15.93
301.06	12.28
301.275	15.95
301.49	19.45
301.704	13.28
301.919	11.5
302.134	11.7
302.349	-0.82
302.564	-10.76
302.779	-14.14
302.994	-19.53
303.209	-22.64
303.423	-16.66
303.638	-11.96
303.853	-13.89
304.068	-2.68
304.283	-4.14
304.497	4.46
304.712	19.62
304.927	12.58
305.142	8.56
305.356	19.7
305.571	18.81
305.786	19.39
306	19.18
306.215	3.97
306.43	17.37
306.644	23.15
306.859	24.19
307.074	22.67
307.288	25.26
307.503	13.26
307.717	16.67
307.932	15.6
308.147	14.72
308.361	5.65
308.576	4.49
308.79	4.37
309.005	8.96
309.219	12.01
309.434	4.04
309.648	-9
309.863	2.6
310.077	2.6
310.292	-1.48
310.506	15.1
310.72	22.57
310.935	25.94
311.149	37.15
311.364	30.12
311.578	31.76
311.792	26.41
312.007	15.58
312.221	10.95
312.435	8.41
312.649	6.71
312.864	6.38
313.078	-3.39
313.292	14.03
313.507	19.45
313.721	13.05
313.935	27.6
314.149	22.93
314.363	24.16
314.578	50.11
314.792	39.98
315.006	39.09
315.22	45.57
315.434	37.07
315.648	26.29
315.862	24.63
316.077	5.08
316.291	8.9
316.505	5.08
316.719	-19.53
316.933	-23.07
317.147	-12.28
317.361	-7.94
317.575	-4.53
317.789	1.24
318.003	5.7
318.217	24.77
318.431	30.53
318.645	23.1
318.859	7.7
319.073	6.07
319.287	6.34
319.5	1.92
319.714	-4.35
319.928	2.91
320.142	4.79
320.356	21.11
320.57	17.25
320.784	22.31
320.997	30.35
321.211	28.8
321.425	11.24
321.639	22.5
321.853	15.82
322.066	17.34
322.28	9.85
322.494	1.28
322.707	0.19
322.921	12.92
323.135	12.67
323.349	10.92
323.562	14.92
323.776	7.64
323.989	10.16
324.203	16.52
324.417	0.65
324.63	-10.87
324.844	-15.73
325.057	-14.44
325.271	-17.84
325.485	-19.99
325.698	-22.41
325.912	-11.21
326.125	-4.81
326.339	4.84
326.552	9.44
326.766	22.64
326.979	31.08
327.193	26.38
327.406	28.82
327.619	22.48
327.833	20.98
328.046	0.91
328.26	-6.45
328.473	-12.6
328.686	-9.93
328.9	-20.21
329.113	-17.49
329.326	-13.44
329.54	-1.66
329.753	-1.04
329.966	-0.74
330.179	17.33
330.393	25.31
330.606	28.28
330.819	29.66
331.032	33.53
331.246	34.03
331.459	34.22
331.672	17.91
331.885	17.43
332.098	32.91
332.311	16.88
332.525	11.65
332.738	8.73
332.951	9.29
333.164	6.67
333.377	-10.57
333.59	-21.84
333.803	-0.69
334.016	-15.2
334.229	-5.56
334.442	1.56
334.655	5.31
334.868	22.07
335.081	27.36
335.294	15.39
335.507	27.12
335.72	9.94
335.933	13.9
336.146	20.13
336.359	9.69
336.572	-3.29
336.785	9.07
336.997	-3.14
337.21	10.12
337.423	2.51
337.636	2.32
337.849	8.4
338.062	15.72
338.274	8.79
338.487	8.46
338.7	11.51
338.913	3.72
339.125	1.29
339.338	-0.86
339.551	1.29
339.763	-2.47
339.976	-0.79
340.189	-10.45
340.402	-7.3
340.614	-1.27
340.827	-8.42
341.039	-10.74
341.252	-11.81
341.465	-16.76
341.677	-13.67
341.89	-7.6
342.102	-12.51
342.315	4.13
342.527	0.13
342.74	4.61
342.952	8.95
343.165	15.33
343.377	19.46
343.59	16.45
343.802	13.75
344.015	15.33
344.227	11.22
344.44	8.52
344.652	7.93
344.864	2.63
345.077	2.36
345.289	-6.09
345.502	-4.1
345.714	-8.91
345.926	-5.96
346.139	-4.96
346.351	-22.8
346.563	-16.35
346.775	-15.24
346.988	-14.97
347.2	-5.46
347.412	-0.98
347.624	5
347.837	14.99
348.049	4.05
348.261	6.11
348.473	0.82
348.685	6.31
348.897	4.21
349.11	-4.38
349.322	-16.22
349.534	-8.28
349.746	-9.4
349.958	-0.17
350.17	-5.2
350.382	-9.96
350.594	-8.99
350.806	8.37
351.018	2.77
351.23	7.77
351.442	6.1
351.654	5.6
351.866	4.53
352.078	-0.01
352.29	-2.08
352.502	13.35
352.714	5.88
352.926	2.31
353.138	2.97
353.35	4.37
353.561	6.29
353.773	3.66
353.985	1.35
354.197	5.18
354.409	3.96
354.621	1.74
354.832	-8.32
355.044	3.54
355.256	-3.14
355.468	-18.83
355.679	-18.19
355.891	-13.12
356.103	-11.23
356.314	-1.29
356.526	-15.5
356.738	-10.73
356.949	-1.92
357.161	1.38
357.373	3.52
357.584	9.49
357.796	8.9
358.008	15.34
358.219	24.85
358.431	27.67
358.642	20.91
358.854	18.87
359.065	19.5
359.277	18.63
359.488	15.55
359.7	3.9
359.911	-2.84
360.123	3.66
360.334	4.82
360.546	-9.28
360.757	4.47
360.969	13.99
361.18	12.79
361.391	12.8
361.603	12.15
361.814	16.83
362.025	25.36
362.237	12.68
362.448	8.51
362.659	8.08
362.871	15.15
363.082	11.79
363.293	11.06
363.504	8.33
363.716	6.17
363.927	8.35
364.138	11.69
364.349	11.75
364.56	13.53
364.772	10.2
364.983	6.56
365.194	12.56
365.405	4.08
365.616	-0.17
365.827	-3.66
366.038	7.88
366.25	12.16
366.461	12.36
366.672	13.96
366.883	16.19
367.094	12.49
367.305	8.82
367.516	0.4
367.727	-7.86
367.938	-0.01
368.149	1.95
368.36	-0.2
368.571	5.91
368.781	7.88
368.992	5.77
369.203	9.67
369.414	-1.12
369.625	-6.61
369.836	-2.9
370.047	-7.65
370.258	-10.74
370.468	-15.74
370.679	-15.83
370.89	-6.49
371.101	-11.52
371.312	-10.07
371.522	-0.69
371.733	-7.17
371.944	3.17
372.155	-5.55
372.365	-7.72
372.576	-2.71
372.787	-4.05
372.997	-11.28
373.208	0.23
373.419	-3.1
373.629	9.87
373.84	7
374.05	5.5
374.261	-6.25
374.472	-9.14
374.682	-16.42
374.893	-15.93
375.103	-15.9
375.314	-11.31
375.524	-8.75
375.735	0.27
375.945	8.15
376.156	15.12
376.366	14.26
376.577	11.76
376.787	14.29
376.997	15.98
377.208	10.36
377.418	7.55
377.629	4.73
377.839	8.79
378.049	11.71
378.26	9.38
378.47	10.31
378.68	13.35
378.89	11.48
379.101	4.72
379.311	-7.51
379.521	2.93
379.732	-6.84
379.942	-7.16
380.152	-0.68
380.362	-1.33
380.572	6.78
380.783	11.1
380.993	3.45
381.203	12.51
381.413	11.4
381.623	7.14
381.833	3.92
382.043	-3.5
382.253	-0.37
382.463	0.64
382.674	2.27
382.884	2.07
383.094	3.73
383.304	5.69
383.514	11.84
383.724	9.69
383.934	6.1
384.144	7.67
384.353	10.6
384.563	8.42
384.773	12.07
384.983	12.79
385.193	14.11
385.403	14.99
385.613	9.89
385.823	3.88
386.033	1.75
386.242	-1.78
386.452	-3.49
386.662	-5.27
386.872	-6.8
387.082	-7.19
387.291	-3.52
387.501	1.71
387.711	4.82
387.921	2.03
388.13	1.19
388.34	3.29
388.55	7.1
388.759	6.41
388.969	1.42
389.179	3.07
389.388	5.17
389.598	3.4
389.807	2.43
390.017	2.39
390.227	1.28
390.436	3.91
390.646	2.14
390.855	1.21
391.065	2.5
391.274	1.77
391.484	1.76
391.693	3.54
391.903	2.45
392.112	2.12
392.322	3.91
392.531	5.32
392.74	4.76
392.95	4.33
393.159	3.82
393.369	4.71
393.578	3.97
393.787	2.91
393.997	2.45
394.206	3.34
394.415	3.28
394.625	2.37
394.834	1.98
395.043	3.01
395.252	3.55
395.462	2.97
395.671	3.01
395.88	2.81
396.089	3.26
396.298	2.97
396.508	2.58
396.717	2.07
396.926	2.05
397.135	1.57
397.344	1.75
397.553	2.04
397.762	2.13
397.971	2.01
398.181	1.84
398.39	2.12
398.599	2.64
398.808	2.72
399.017	2.8
399.226	3.02
399.435	3
399.644	3.14
399.853	3.07
400.062	2.88
400.27	2.8
400.479	2.64
400.688	2.54
400.897	2.9
401.106	3.05
401.315	2.92
401.524	2.92
401.733	3.07
401.941	3.15
402.15	2.93
402.359	2.7
402.568	2.61
402.777	2.59
402.985	2.48
403.194	2.42
403.403	2.18
403.612	2.3
403.82	2.3
404.029	2.28
404.238	2.45
404.446	2.42
404.655	2.21
404.864	2.3
405.072	2.28
405.281	2.15
405.489	2.25
405.698	2.09
405.906	2.13
406.115	2.22
406.324	2.19
406.532	2.22
406.741	2.31
406.949	2.18
407.158	2.28
407.366	2.37
407.574	2.34
407.783	2.26
407.991	2.16
408.2	2.09
408.408	2.06
408.617	2.02
408.825	2.01
409.033	1.98
409.242	2.06
409.45	2.13
409.658	2.16
409.867	2.22
410.075	2.14
410.283	2.04
410.491	2.04
410.7	2.13
410.908	2.14
411.116	2.1
411.324	2.18
411.533	2.13
411.741	2.13
411.949	2.19
412.157	2.06
412.365	2.02
412.573	2.06
412.781	1.97
412.99	2.12
413.198	2.15
413.406	2.04
413.614	2.07
413.822	2.01
414.03	1.98
414.238	2.06
414.446	1.94
414.654	1.88
414.862	1.92
415.07	1.99
415.278	1.95
415.486	1.99
415.694	1.84
415.902	1.81
416.109	1.81
416.317	1.77
416.525	1.71
416.733	1.87
416.941	1.76
417.149	1.93
417.357	1.97
417.564	1.97
417.772	2.02
417.98	1.91
418.188	1.75
418.395	1.76
418.603	1.57
418.811	1.48
419.019	1.5
419.226	1.58
419.434	1.54
419.642	1.54
419.849	1.57
420.057	1.58
420.265	1.61
420.472	1.48
420.68	1.32
420.887	1.47
421.095	1.48
421.302	1.52
421.51	1.55
421.717	1.68
421.925	1.72
422.132	1.77
422.34	1.74
422.547	1.87
422.755	1.83
422.962	1.79
423.17	1.73
423.377	1.85
423.585	1.87
423.792	1.81
423.999	1.71
424.207	1.63
424.414	1.76
424.621	1.71
424.829	1.62
425.036	1.54
425.243	1.62
425.451	1.63
425.658	1.79
425.865	1.58
426.072	1.62
426.28	1.6
426.487	1.56
426.694	1.5
426.901	1.4
427.108	1.43
427.315	1.55
427.523	1.59
427.73	1.62
427.937	1.68
428.144	1.7
428.351	1.87
428.558	1.7
428.765	1.71
428.972	1.64
429.179	1.56
429.386	1.61
429.593	1.6
429.8	1.53
430.007	1.63
430.214	1.66
430.421	1.62
430.628	1.52
430.835	1.49
431.042	1.55
431.249	1.54
431.456	1.59
431.662	1.58
431.869	1.7
432.076	1.83
432.283	1.78
432.49	1.75
432.697	1.75
432.903	1.71
433.11	1.7
433.317	1.71
433.524	1.68
433.73	1.71
433.937	1.69
434.144	1.76
434.35	1.7
434.557	1.65
434.764	1.55
434.97	1.61
435.177	1.57
435.384	1.63
435.59	1.58
435.797	1.63
436.003	1.66
436.21	1.64
436.416	1.56
436.623	1.65
436.829	1.56
437.036	1.53
437.242	1.49
437.449	1.5
437.655	1.55
437.862	1.61
438.068	1.63
438.275	1.63
438.481	1.69
438.687	1.71
438.894	1.76
439.1	1.76
439.307	1.75
439.513	1.71
439.719	1.78
439.926	1.77
440.132	1.77
440.338	1.8
440.544	1.83
440.751	1.86
440.957	1.8
441.163	1.8
441.369	1.81
441.575	1.79
441.782	1.71
441.988	1.72
442.194	1.74
442.4	1.9
442.606	1.93
442.812	1.94
443.018	1.95
443.224	2
443.431	1.98
443.637	1.94
443.843	1.87
444.049	1.82
444.255	1.81
444.461	1.81
444.667	1.8
444.873	1.82
445.079	1.83
445.284	1.76
445.49	1.74
445.696	1.79
445.902	1.85
446.108	1.86
446.314	1.9
446.52	1.96
446.726	2.01
446.931	2.05
447.137	2
447.343	1.96
447.549	1.91
447.755	1.82
447.96	1.75
448.166	1.82
448.372	1.86
448.578	1.85
448.783	1.85
448.989	1.89
449.195	1.92
449.4	1.92
449.606	1.87
449.812	1.83
450.017	1.86
450.223	1.88
450.428	1.87
450.634	1.88
450.84	1.92
451.045	1.91
451.251	1.92
451.456	1.89
451.662	1.86
451.867	1.9
452.073	1.88
452.278	1.86
452.483	1.85
452.689	1.82
452.894	1.85
453.1	1.83
453.305	1.8
453.51	1.79
453.716	1.79
453.921	1.81
454.127	1.8
454.332	1.8
454.537	1.92
454.742	1.92
454.948	1.93
455.153	1.97
455.358	2.01
455.563	2.02
455.769	2
455.974	1.92
456.179	1.87
456.384	1.92
456.589	1.89
456.795	1.84
457	1.88
457.205	1.85
457.41	1.86
457.615	1.92
457.82	1.94
458.025	1.91
458.23	1.9
458.435	1.82
458.64	1.9
458.845	1.86
459.05	1.82
459.255	1.76
459.46	1.79
459.665	1.83
459.87	1.87
460.075	1.83
460.28	1.89
460.485	1.93
460.69	1.84
460.895	1.86
461.099	1.83
461.304	1.82
461.509	1.77
461.714	1.77
461.919	1.74
462.123	1.87
462.328	1.87
462.533	1.88
462.738	1.86
462.942	1.93
463.147	1.89
463.352	1.95
463.556	1.97
463.761	1.97
463.966	2.01
464.17	2.05
464.375	2
464.58	2.02
464.784	1.98
464.989	1.92
465.193	1.93
465.398	1.95
465.602	1.97
465.807	2.02
466.011	2.04
466.216	2
466.42	2.03
466.625	2.05
466.829	2.02
467.034	2.02
467.238	2.02
467.443	2.03
467.647	2.07
467.851	2.1
468.056	2.07
468.26	2.07
468.464	2.08
468.669	2.12
468.873	2.13
469.077	2.17
469.282	2.16
469.486	2.21
469.69	2.25
469.894	2.29
470.099	2.28
