Data from Ofra_1a_PS_4CX12_Reflection_2.txt Node
Date: Tue Jul 20 10:55:44 EDT 2021
User: Adam
Spectrometer: FLMT01687
Trigger mode: 0
Integration Time (sec): 1.004000E0
Scans to average: 2
Electric dark correction enabled: true
Nonlinearity correction enabled: false
Boxcar width: 2
XAxis mode: Wavelengths
Number of Pixels in Spectrum: 3648
>>>>>Begin Spectral Data<<<<<
179.494	-332.99
179.716	-477.86
179.937	1141.14
180.158	-1340.13
180.38	141.7
180.601	81.85
180.823	20.81
181.044	-101.34
181.265	18.14
181.486	15.62
181.708	61.23
181.929	690.91
182.15	-73.34
182.372	84.73
182.593	111.42
182.814	-275.72
183.035	-60.49
183.257	-16.66
183.478	-27.94
183.699	-42.44
183.92	-68.25
184.141	-66.53
184.363	-69.63
184.584	-75.1
184.805	-48.6
185.026	-2.98
185.247	-5.47
185.468	-20.09
185.689	-23.42
185.91	-35.17
186.132	-29.1
186.353	-24.03
186.574	-4.2
186.795	-8.37
187.016	16.81
187.237	11.77
187.458	1.59
187.679	-23.2
187.9	33.49
188.121	30.15
188.342	71.4
188.563	94.44
188.784	97.13
189.005	74.1
189.226	78.91
189.447	47.54
189.667	40.04
189.888	24.83
190.109	14.72
190.33	8.16
190.551	13.75
190.772	14.42
190.993	12.9
191.214	13.76
191.434	-26.69
191.655	-55.6
191.876	-13.39
192.097	-3.03
192.318	16.87
192.538	5.33
192.759	10.62
192.98	26.19
193.201	21.18
193.421	9.85
193.642	25.18
193.863	28.19
194.083	14.82
194.304	10.99
194.525	-11.73
194.745	-18.87
194.966	-1.33
195.187	-5.84
195.407	-13.25
195.628	22.48
195.848	14.33
196.069	1.87
196.29	-1.81
196.51	-10.27
196.731	-27.64
196.951	-25.71
197.172	-18.3
197.392	-17.87
197.613	13.91
197.833	6.83
198.054	-7.03
198.274	-10.96
198.495	0.8
198.715	-13.18
198.936	2.51
199.156	14.83
199.377	31.27
199.597	18.22
199.817	9.67
200.038	-38.94
200.258	-8.17
200.479	0.41
200.699	7.34
200.919	15.53
201.14	40.35
201.36	35.66
201.58	10.22
201.801	6.48
202.021	-1.07
202.241	12.35
202.461	18.69
202.682	36.18
202.902	45
203.122	52.48
203.342	50.45
203.563	40.82
203.783	20.33
204.003	-3.34
204.223	6.6
204.443	9.25
204.663	-19.43
204.884	-4.1
205.104	-7.95
205.324	-17.48
205.544	-44.94
205.764	4.72
205.984	9.42
206.204	42.72
206.424	37.71
206.644	34.17
206.864	-8.21
207.084	7.24
207.304	-20.19
207.525	-15.69
207.745	11.56
207.964	42.78
208.184	36.44
208.404	31.83
208.624	37.16
208.844	24.2
209.064	0.98
209.284	4.29
209.504	1.33
209.724	-9.58
209.944	-9.36
210.164	-6.62
210.384	0.44
210.604	-3.64
210.823	6.07
211.043	-1.43
211.263	-32.31
211.483	-58.17
211.703	-38.95
211.922	-66.09
212.142	-18.63
212.362	15.11
212.582	36.6
212.801	30.94
213.021	29.01
213.241	-7.92
213.461	-13.39
213.68	-12.82
213.9	-10.88
214.12	-11.78
214.339	-13.63
214.559	-7.28
214.779	-18.89
214.998	-16.83
215.218	1.21
215.438	15.49
215.657	5.75
215.877	7.13
216.096	26.83
216.316	24.9
216.535	1.31
216.755	12.69
216.974	21.35
217.194	1.58
217.413	-2.46
217.633	26.23
217.852	13.9
218.072	15.74
218.291	14.3
218.511	9.93
218.73	-1.99
218.95	-42.37
219.169	-55.01
219.389	-26.08
219.608	-26.52
219.827	-13.04
220.047	19.18
220.266	27.83
220.485	19.22
220.705	50.34
220.924	37.2
221.143	40.07
221.363	27.71
221.582	33.71
221.801	25.41
222.021	44.27
222.24	37.03
222.459	56.38
222.678	48.28
222.897	48.85
223.117	41.81
223.336	50.24
223.555	51.32
223.774	72.97
223.993	98.74
224.213	129.99
224.432	110.75
224.651	82.6
224.87	70.59
225.089	49.93
225.308	41.09
225.527	32.3
225.746	39.71
225.965	30.4
226.184	14.27
226.404	-7.43
226.623	9.21
226.842	10.89
227.061	10.15
227.28	23.92
227.499	37.28
227.718	32.45
227.936	27.8
228.155	38.18
228.374	29.17
228.593	26.41
228.812	33.51
229.031	40.67
229.25	29.76
229.469	40.56
229.688	34.43
229.907	33.18
230.125	28.65
230.344	25.41
230.563	32.38
230.782	29.7
231.001	11.27
231.22	19.35
231.438	21.55
231.657	12.92
231.876	23.43
232.095	32.62
232.313	16.69
232.532	20.25
232.751	4.55
232.969	1.1
233.188	-13.82
233.407	-0.22
233.625	-9.69
233.844	17.76
234.063	10.19
234.281	17.68
234.5	21.33
234.719	23.05
234.937	-13.32
235.156	-17.42
235.374	1.8
235.593	-2.84
235.811	12.83
236.03	33.33
236.249	33.46
236.467	23.34
236.686	14.82
236.904	7.18
237.123	5.39
237.341	-2.04
237.559	-3.34
237.778	13.7
237.996	-19.92
238.215	-53.34
238.433	-73.71
238.652	-5.02
238.87	-2.09
239.088	31.12
239.307	27.81
239.525	27.81
239.743	6.44
239.962	-19.19
240.18	-14.67
240.398	-17.67
240.617	-13.42
240.835	-23.37
241.053	6.1
241.271	9.39
241.49	16.78
241.708	5.31
241.926	7.4
242.144	6.91
242.363	-6.67
242.581	-52
242.799	-58.06
243.017	-23.4
243.235	-14.8
243.453	-24.21
243.672	-12.1
243.89	13.15
244.108	20.05
244.326	16.03
244.544	35.34
244.762	24.39
244.98	22.35
245.198	20.45
245.416	22.52
245.634	18.5
245.852	14.53
246.07	30.63
246.288	28.72
246.506	21.13
246.724	15.31
246.942	31.44
247.16	15.5
247.378	15.89
247.596	42.22
247.814	41.15
248.032	31.97
248.25	37.5
248.468	20.34
248.685	18.32
248.903	15.45
249.121	17.61
249.339	15.25
249.557	20.44
249.775	28.42
249.992	27.94
250.21	25.81
250.428	30.75
250.646	28.03
250.863	6.53
251.081	10.64
251.299	11.48
251.517	11.79
251.734	13.38
251.952	23.5
252.17	12.57
252.387	10.47
252.605	2.23
252.823	-10.5
253.04	14.83
253.258	43.09
253.475	31.11
253.693	48.8
253.911	46.57
254.128	33.51
254.346	39.61
254.563	56.69
254.781	46.51
254.998	56.37
255.216	44.7
255.433	0.44
255.651	-9.61
255.868	-18.68
256.086	-15.51
256.303	-1.72
256.521	17.08
256.738	6.3
256.956	6.61
257.173	-3.33
257.39	6.33
257.608	3.23
257.825	12.67
258.043	29.31
258.26	29.03
258.477	17.64
258.695	18.27
258.912	-1.73
259.129	-27.41
259.346	-45.34
259.564	-23.17
259.781	-27.68
259.998	-1.83
260.216	8.63
260.433	18.22
260.65	5.42
260.867	14.32
261.084	14.33
261.302	24.28
261.519	13.82
261.736	32.37
261.953	17.07
262.17	26.99
262.387	16.25
262.604	32.55
262.822	37.09
263.039	32.89
263.256	27.31
263.473	29.22
263.69	20.85
263.907	10.7
264.124	16.39
264.341	33.6
264.558	21.1
264.775	31.12
264.992	46.51
265.209	32.82
265.426	23.59
265.643	47.8
265.86	11.5
266.077	-23.85
266.294	11.52
266.51	18.42
266.727	1.1
266.944	26.74
267.161	21.2
267.378	19.28
267.595	-1.65
267.812	-4.27
268.028	-21.11
268.245	-10.65
268.462	-7.14
268.679	2.9
268.896	13.34
269.112	10.63
269.329	-15.85
269.546	-16.15
269.763	-1.15
269.979	-3.21
270.196	0.43
270.413	13.81
270.629	15.93
270.846	16.6
271.063	24.93
271.279	30.53
271.496	39.19
271.712	28.61
271.929	11.83
272.146	1.72
272.362	-1.3
272.579	-15.42
272.795	-22.88
273.012	-13.92
273.228	-1.08
273.445	8.32
273.661	17.33
273.878	4.98
274.094	8.11
274.311	13.51
274.527	-17.79
274.744	-12.52
274.96	13.23
275.177	21.24
275.393	21.55
275.609	45.57
275.826	58.18
276.042	51.47
276.259	47.88
276.475	41.58
276.691	28.36
276.908	17.23
277.124	31.54
277.34	15.68
277.557	14.97
277.773	5.31
277.989	-17.87
278.205	-14.45
278.422	7.1
278.638	15.39
278.854	11.02
279.07	31.8
279.286	23.84
279.503	14.86
279.719	15.19
279.935	25.93
280.151	3.33
280.367	2.07
280.583	-4.33
280.799	-8.84
281.016	-40.22
281.232	-12.77
281.448	-3.34
281.664	10.89
281.88	21.21
282.096	24.44
282.312	22.66
282.528	21.8
282.744	9.12
282.96	-9.91
283.176	-9.34
283.392	-35.26
283.608	-23.39
283.824	-16.61
284.04	-56.98
284.256	-39.05
284.471	-23.36
284.687	-23.75
284.903	-14.03
285.119	7.56
285.335	18.14
285.551	26.02
285.767	27.12
285.982	25.09
286.198	15.96
286.414	14.64
286.63	16.99
286.846	28.69
287.061	33.9
287.277	36.59
287.493	21.15
287.709	22.78
287.924	25.86
288.14	32.27
288.356	44.4
288.571	53.79
288.787	50.02
289.003	53.13
289.218	24.67
289.434	13.11
289.65	18.82
289.865	8.22
290.081	2.01
290.296	20.28
290.512	14.99
290.727	3.01
290.943	17.54
291.159	11.29
291.374	-8.25
291.59	-14.31
291.805	-28.01
292.021	-42.42
292.236	-28.21
292.451	1.28
292.667	6.63
292.882	25.77
293.098	37.48
293.313	21.53
293.529	1.81
293.744	-1.41
293.959	8.11
294.175	12.72
294.39	-10.68
294.605	11.68
294.821	21.91
295.036	12.38
295.251	5.96
295.467	2.24
295.682	-0.46
295.897	-21.48
296.112	-26.75
296.328	0.8
296.543	12.24
296.758	7.86
296.973	23.53
297.188	21.46
297.404	-21.17
297.619	-29.36
297.834	-58.18
298.049	-48.8
298.264	-22.83
298.479	-12.73
298.694	14.3
298.909	30.07
299.125	23.37
299.34	26.25
299.555	31.65
299.77	47.49
299.985	37.75
300.2	43.02
300.415	35.64
300.63	35.06
300.845	22.35
301.06	23.67
301.275	18.94
301.49	27.22
301.704	27.45
301.919	11.2
302.134	7.33
302.349	8.86
302.564	-5.84
302.779	-21.64
302.994	9.28
303.209	19.01
303.423	14.88
303.638	23.02
303.853	28.99
304.068	11.51
304.283	15.7
304.497	4.4
304.712	10.86
304.927	14.4
305.142	15.31
305.356	9.26
305.571	16.02
305.786	12.98
306	15.73
306.215	21.61
306.43	17.06
306.644	18.72
306.859	17.1
307.074	13.88
307.288	15.35
307.503	19.33
307.717	8.33
307.932	22.23
308.147	9.77
308.361	6.68
308.576	-19.48
308.79	1.24
309.005	-10.91
309.219	2.49
309.434	17.61
309.648	40.57
309.863	24.07
310.077	18.73
310.292	29.99
310.506	-0.07
310.72	-19.98
310.935	10.49
311.149	9.71
311.364	-0.79
311.578	11.91
311.792	14.46
312.007	-3.7
312.221	-18.54
312.435	-9.31
312.649	7.63
312.864	20.06
313.078	36.78
313.292	35.7
313.507	36.62
313.721	27.75
313.935	22.94
314.149	9.51
314.363	16.85
314.578	17.48
314.792	-5.06
315.006	-12.13
315.22	-3.37
315.434	12.33
315.648	2.82
315.862	24.69
316.077	13.41
316.291	22.3
316.505	-6.42
316.719	8.79
316.933	0.12
317.147	15.17
317.361	3.7
317.575	18.7
317.789	15.98
318.003	1.2
318.217	-0.06
318.431	-2.73
318.645	-8.46
318.859	2.51
319.073	17.4
319.287	15.2
319.5	10.45
319.714	-8.52
319.928	-12.84
320.142	-20.57
320.356	-12.82
320.57	-35.35
320.784	5.61
320.997	-16.1
321.211	-5.29
321.425	-32.51
321.639	-6.06
321.853	-5.76
322.066	11.65
322.28	8.25
322.494	18.6
322.707	17.68
322.921	-0.82
323.135	-9.5
323.349	-9.42
323.562	-8.01
323.776	-5.25
323.989	16.6
324.203	9.06
324.417	10.37
324.63	5.5
324.844	4.74
325.057	-24.24
325.271	-9.28
325.485	-12.32
325.698	5.22
325.912	3.54
326.125	13.6
326.339	21.66
326.552	23.32
326.766	14.08
326.979	28.3
327.193	36.91
327.406	17.89
327.619	23.34
327.833	15.98
328.046	1.84
328.26	-2.86
328.473	17.91
328.686	10.8
328.9	13.88
329.113	19.71
329.326	8.9
329.54	4.3
329.753	21.44
329.966	20.83
330.179	29.32
330.393	39.52
330.606	33.07
330.819	17.11
331.032	27.16
331.246	30.12
331.459	36.09
331.672	34.45
331.885	33.79
332.098	41.43
332.311	13.53
332.525	6.42
332.738	24.87
332.951	23.82
333.164	17.96
333.377	21.37
333.59	31.64
333.803	21.64
334.016	28.36
334.229	32.81
334.442	39.13
334.655	38.95
334.868	20.14
335.081	15.91
335.294	3.08
335.507	7.24
335.72	-10.97
335.933	0.59
336.146	0.83
336.359	22.72
336.572	24.35
336.785	40.37
336.997	40.61
337.21	40.75
337.423	2.5
337.636	-13.63
337.849	-7.73
338.062	-4.15
338.274	13.02
338.487	14.9
338.7	8.53
338.913	4.99
339.125	8.73
339.338	-13.81
339.551	-15.3
339.763	5.15
339.976	10.42
340.189	-2.26
340.402	5.67
340.614	20.39
340.827	15.37
341.039	3.38
341.252	-0.05
341.465	-10.25
341.677	-17.54
341.89	-35.35
342.102	-28.02
342.315	-18.86
342.527	-13.34
342.74	-19.79
342.952	-15.18
343.165	-14.66
343.377	-7.92
343.59	3.32
343.802	20.95
344.015	32.8
344.227	49.29
344.44	48.2
344.652	33.09
344.864	31.33
345.077	39.88
345.289	27.98
345.502	45.34
345.714	47.46
345.926	43.94
346.139	25.46
346.351	33.08
346.563	31.65
346.775	45.32
346.988	47.89
347.2	41.58
347.412	26.23
347.624	21.11
347.837	17.53
348.049	3.96
348.261	1.31
348.473	-4.1
348.685	-10.71
348.897	-9.48
349.11	1.06
349.322	8.2
349.534	16.48
349.746	20.26
349.958	10.8
350.17	-9.67
350.382	-11.89
350.594	2.83
350.806	13.46
351.018	11.5
351.23	31.61
351.442	39.98
351.654	33.77
351.866	19.9
352.078	33.12
352.29	25.5
352.502	28.25
352.714	24.79
352.926	17.7
353.138	10.66
353.35	13.06
353.561	7.06
353.773	-2.74
353.985	15.93
354.197	18.3
354.409	13.38
354.621	-8.44
354.832	0.86
355.044	-29.3
355.256	-50.88
355.468	-60.14
355.679	-11.24
355.891	-1.18
356.103	2.33
356.314	14.91
356.526	17.59
356.738	12.24
356.949	-3.33
357.161	14.5
357.373	7.8
357.584	18.59
357.796	14.82
358.008	27.85
358.219	23.27
358.431	17.7
358.642	15.41
358.854	17.17
359.065	0.63
359.277	6.98
359.488	8.7
359.7	6.06
359.911	0.23
360.123	15.19
360.334	1.28
360.546	-0.7
360.757	-9.79
360.969	-6.97
361.18	-20.22
361.391	-12.05
361.603	-1.42
361.814	19.22
362.025	21.9
362.237	27.81
362.448	37.49
362.659	28.17
362.871	17.57
363.082	14.41
363.293	8.96
363.504	-22.54
363.716	-16.18
363.927	-3.76
364.138	-22.57
364.349	-20.71
364.56	-15.57
364.772	-2.2
364.983	4.34
365.194	16.3
365.405	18.11
365.616	35.96
365.827	21.34
366.038	16.43
366.25	17.02
366.461	18.34
366.672	-1.48
366.883	3.12
367.094	-6.58
367.305	-19.96
367.516	-18.05
367.727	-17.83
367.938	-24.68
368.149	-27.65
368.36	-27.97
368.571	-51.91
368.781	-51.51
368.992	-35.78
369.203	-21.32
369.414	-17.13
369.625	3.4
369.836	23.33
370.047	19.11
370.258	29.64
370.468	16.53
370.679	8.87
370.89	-9.14
371.101	12.26
371.312	-5.17
371.522	14.36
371.733	7.89
371.944	7.91
372.155	-1.48
372.365	6.45
372.576	-4.64
372.787	6.65
372.997	19.86
373.208	14.56
373.419	15.29
373.629	15.36
373.84	8.73
374.05	-4.2
374.261	-7.96
374.472	-3.09
374.682	-0.35
374.893	-9.67
375.103	8.45
375.314	9.47
375.524	4.51
375.735	17.22
375.945	26.91
376.156	10.42
376.366	13.84
376.577	15.34
376.787	11.84
376.997	14.42
377.208	18.41
377.418	14.86
377.629	16.3
377.839	14.05
378.049	18.25
378.26	13.41
378.47	17.98
378.68	11.86
378.89	23.39
379.101	18.26
379.311	26.72
379.521	21.84
379.732	23.9
379.942	9.45
380.152	-1.24
380.362	-4.51
380.572	5.38
380.783	13.88
380.993	20.52
381.203	21.11
381.413	17.59
381.623	13.91
381.833	10.64
382.043	-5.05
382.253	5.14
382.463	17.5
382.674	12.82
382.884	11.99
383.094	23.69
383.304	22.75
383.514	18.59
383.724	23.24
383.934	14.4
384.144	15.04
384.353	13.77
384.563	7.95
384.773	10.32
384.983	11.96
385.193	1.33
385.403	1.38
385.613	7.56
385.823	2.7
386.033	3.89
386.242	5.76
386.452	3.23
386.662	2.75
386.872	3.15
387.082	1.37
387.291	-0.9
387.501	2.97
387.711	3.27
387.921	3.75
388.13	11.76
388.34	11.41
388.55	6.51
388.759	2.92
388.969	3.04
389.179	-0.73
389.388	1.81
389.598	1.51
389.807	-2.73
390.017	-7.18
390.227	-9.37
390.436	-4.56
390.646	-2.8
390.855	1.75
391.065	9.03
391.274	10.76
391.484	7.2
391.693	9.12
391.903	8.21
392.112	4.99
392.322	4.61
392.531	3.93
392.74	-0.43
392.95	0.75
393.159	1.76
393.369	1.83
393.578	2.4
393.787	5.13
393.997	6.1
394.206	4.69
394.415	5.76
394.625	5.26
394.834	2.58
395.043	1.93
395.252	5.44
395.462	5.81
395.671	6.74
395.88	9.5
396.089	9.49
396.298	7.52
396.508	5.9
396.717	5.8
396.926	4.54
397.135	5.12
397.344	4.64
397.553	5.54
397.762	6.18
397.971	6.46
398.181	5.85
398.39	5.79
398.599	5.33
398.808	4.84
399.017	5.18
399.226	5.27
399.435	5.62
399.644	6.34
399.853	6.85
400.062	6.6
400.27	6.42
400.479	6.54
400.688	6.28
400.897	6.05
401.106	6.37
401.315	6.37
401.524	6.36
401.733	6.19
401.941	6.35
402.15	6.01
402.359	6.11
402.568	6.15
402.777	6.22
402.985	5.8
403.194	5.86
403.403	6.19
403.612	5.99
403.82	5.99
404.029	6.22
404.238	6.34
404.446	6.31
404.655	6.52
404.864	6.51
405.072	6.52
405.281	6.43
405.489	6.16
405.698	6.16
405.906	6.19
406.115	6.05
406.324	6.03
406.532	6.03
406.741	5.88
406.949	5.86
407.158	5.88
407.366	5.84
407.574	5.92
407.783	5.93
407.991	5.84
408.2	5.88
408.408	5.85
408.617	5.71
408.825	5.59
409.033	5.75
409.242	5.81
409.45	5.92
409.658	5.87
409.867	6
410.075	5.94
410.283	5.72
410.491	5.51
410.7	5.59
410.908	5.52
411.116	5.55
411.324	5.6
411.533	5.58
411.741	5.51
411.949	5.56
412.157	5.49
412.365	5.47
412.573	5.52
412.781	5.58
412.99	5.57
413.198	5.62
413.406	5.73
413.614	5.77
413.822	5.81
414.03	5.73
414.238	5.65
414.446	5.64
414.654	5.49
414.862	5.42
415.07	5.27
415.278	5.33
415.486	5.15
415.694	5.28
415.902	5.22
416.109	5.28
416.317	5.26
416.525	5.35
416.733	5.26
416.941	5.34
417.149	5.29
417.357	5.25
417.564	5.15
417.772	5.29
417.98	5.19
418.188	5.21
418.395	4.94
418.603	4.99
418.811	4.74
419.019	4.76
419.226	4.84
419.434	4.96
419.642	4.74
419.849	4.94
420.057	4.91
420.265	4.83
420.472	4.78
420.68	4.86
420.887	4.62
421.095	4.69
421.302	4.72
421.51	4.71
421.717	4.83
421.925	4.98
422.132	4.95
422.34	4.82
422.547	4.88
422.755	5.02
422.962	5.02
423.17	4.88
423.377	5
423.585	5.17
423.792	4.93
423.999	4.86
424.207	4.95
424.414	4.89
424.621	4.85
424.829	4.99
425.036	5.08
425.243	5.11
425.451	5.13
425.658	5.07
425.865	5.01
426.072	4.98
426.28	4.94
426.487	4.96
426.694	4.88
426.901	4.8
427.108	4.72
427.315	4.68
427.523	4.59
427.73	4.7
427.937	4.67
428.144	4.75
428.351	4.7
428.558	4.87
428.765	4.87
428.972	4.99
429.179	4.88
429.386	5.02
429.593	4.78
429.8	4.72
430.007	4.8
430.214	4.98
430.421	4.97
430.628	5.08
430.835	5.01
431.042	4.88
431.249	4.83
431.456	4.81
431.662	5.01
431.869	5.21
432.076	5.28
432.283	5.33
432.49	5.4
432.697	5.32
432.903	5.18
433.11	5.27
433.317	5.25
433.524	5.23
433.73	5.12
433.937	5.21
434.144	5.03
434.35	4.99
434.557	4.96
434.764	5.07
434.97	5.04
435.177	5.28
435.384	5.34
435.59	5.47
435.797	5.56
436.003	5.51
436.21	5.34
436.416	5.3
436.623	5.31
436.829	5.14
437.036	5.15
437.242	5.22
437.449	5.24
437.655	5.21
437.862	5.32
438.068	5.3
438.275	5.4
438.481	5.48
438.687	5.39
438.894	5.45
439.1	5.48
439.307	5.43
439.513	5.42
439.719	5.54
439.926	5.59
440.132	5.78
440.338	5.76
440.544	5.77
440.751	5.79
440.957	5.69
441.163	5.52
441.369	5.58
441.575	5.55
441.782	5.56
441.988	5.61
442.194	5.59
442.4	5.61
442.606	5.81
442.812	5.75
443.018	5.71
443.224	5.85
443.431	5.86
443.637	5.71
443.843	5.76
444.049	5.86
444.255	5.83
444.461	5.77
444.667	5.75
444.873	5.73
445.079	5.68
445.284	5.74
445.49	5.75
445.696	5.74
445.902	5.72
446.108	5.79
446.314	5.67
446.52	5.83
446.726	5.92
446.931	5.97
447.137	5.94
447.343	6.09
447.549	6.03
447.755	6.02
447.96	5.99
448.166	6.05
448.372	6.08
448.578	5.98
448.783	5.98
448.989	6.07
449.195	6.04
449.4	6.03
449.606	6.1
449.812	6.02
450.017	6.08
450.223	6.09
450.428	6.06
450.634	6.04
450.84	6.18
451.045	6.16
451.251	6.14
451.456	6.14
451.662	6.17
451.867	6.22
452.073	6.29
452.278	6.28
452.483	6.27
452.689	6.24
452.894	6.24
453.1	6.16
453.305	6.18
453.51	6.26
453.716	6.3
453.921	6.26
454.127	6.23
454.332	6.19
454.537	6.15
454.742	6.16
454.948	6.16
455.153	6.21
455.358	6.3
455.563	6.34
455.769	6.32
455.974	6.34
456.179	6.32
456.384	6.28
456.589	6.23
456.795	6.25
457	6.27
457.205	6.17
457.41	6.25
457.615	6.25
457.82	6.28
458.025	6.22
458.23	6.29
458.435	6.28
458.64	6.32
458.845	6.39
459.05	6.44
459.255	6.51
459.46	6.42
459.665	6.42
459.87	6.37
460.075	6.43
460.28	6.53
460.485	6.74
460.69	6.71
460.895	6.81
461.099	6.74
461.304	6.66
461.509	6.59
461.714	6.7
461.919	6.57
462.123	6.61
462.328	6.59
462.533	6.49
462.738	6.47
462.942	6.48
463.147	6.52
463.352	6.55
463.556	6.67
463.761	6.71
463.966	6.74
464.17	6.86
464.375	6.98
464.58	6.95
464.784	6.92
464.989	7
465.193	6.9
465.398	6.89
465.602	7.03
465.807	7.1
466.011	7.08
466.216	7.01
466.42	7.01
466.625	6.93
466.829	6.84
467.034	6.93
467.238	7.11
467.443	7.07
467.647	7.17
467.851	7.25
