Data from Ofra_PS_T2_2A_2GT31_Reflection_2.txt Node
Date: Wed Jul 21 17:03:09 EDT 2021
User: Adam
Spectrometer: FLMT01687
Trigger mode: 0
Integration Time (sec): 1.100000E0
Scans to average: 2
Electric dark correction enabled: true
Nonlinearity correction enabled: false
Boxcar width: 2
XAxis mode: Wavelengths
Number of Pixels in Spectrum: 3648
>>>>>Begin Spectral Data<<<<<
179.494	486.4
179.716	505.18
179.937	471.98
180.158	465.25
180.38	647.5
180.601	202.76
180.823	141.43
181.044	112.8
181.265	192.65
181.486	115.28
181.708	131.18
181.929	559.18
182.15	-297.18
182.372	141.55
182.593	118.82
182.814	63.86
183.035	115.65
183.257	134.4
183.478	52.13
183.699	66.78
183.92	35.12
184.141	34.8
184.363	-46.8
184.584	0.26
184.805	23.31
185.026	75.05
185.247	58.52
185.468	55.55
185.689	68.17
185.91	59.52
186.132	46.51
186.353	55.79
186.574	97.28
186.795	66.64
187.016	43.12
187.237	22.62
187.458	37.72
187.679	22.6
187.9	49.79
188.121	46.9
188.342	90.68
188.563	74.49
188.784	118.27
189.005	81.76
189.226	131.82
189.447	122.52
189.667	153.88
189.888	-18.23
190.109	-320.78
190.33	-263.87
190.551	-595.58
190.772	-108.47
190.993	-81.15
191.214	-59.83
191.434	-68.75
191.655	12.76
191.876	-30.02
192.097	-65.73
192.318	-34.02
192.538	11.14
192.759	-75.76
192.98	17.42
193.201	47.54
193.421	28.14
193.642	31.87
193.863	51.8
194.083	30.36
194.304	18.59
194.525	32.07
194.745	13.22
194.966	-15.13
195.187	-16
195.407	-42.93
195.628	-103.4
195.848	-69.99
196.069	-55.11
196.29	-6.17
196.51	-16.8
196.731	-15.43
196.951	-20.95
197.172	-25.79
197.392	-82.34
197.613	-50.76
197.833	-62.84
198.054	-62.77
198.274	-29.29
198.495	-42.8
198.715	-36.26
198.936	-42.83
199.156	-17.44
199.377	-91.15
199.597	-90.05
199.817	-109.21
200.038	-58.27
200.258	-145.96
200.479	-101.07
200.699	-73.85
200.919	-16.75
201.14	-40.99
201.36	-46.03
201.58	21.46
201.801	44.66
202.021	21.96
202.241	21.59
202.461	30.21
202.682	-43.79
202.902	-121.41
203.122	-29.6
203.342	-30.76
203.563	-3.64
203.783	12.88
204.003	-14.01
204.223	-16.74
204.443	43.94
204.663	10.65
204.884	29.85
205.104	72.65
205.324	58.95
205.544	61.67
205.764	74.48
205.984	62.63
206.204	61.14
206.424	47.08
206.644	8.47
206.864	35.04
207.084	-3.71
207.304	-17.7
207.525	-76.25
207.745	-29.46
207.964	5.44
208.184	-5.41
208.404	-34.24
208.624	-18.37
208.844	7.55
209.064	-182.03
209.284	-195.34
209.504	-64.92
209.724	7.69
209.944	-18.8
210.164	-3.6
210.384	19.33
210.604	18.48
210.823	-8.97
211.043	9.8
211.263	19.64
211.483	22.59
211.703	-12.15
211.922	2.38
212.142	46.24
212.362	80.7
212.582	39.95
212.801	33.6
213.021	12.33
213.241	7.65
213.461	-42.9
213.68	-50.57
213.9	-14.31
214.12	-3.17
214.339	-81.97
214.559	-58.6
214.779	-10.53
214.998	-15.11
215.218	-47.92
215.438	-5.1
215.657	-7.3
215.877	-9.6
216.096	12.05
216.316	26.08
216.535	24.3
216.755	40.41
216.974	2.47
217.194	-41.09
217.413	-63.92
217.633	-64.04
217.852	-128.02
218.072	-34.96
218.291	-9.63
218.511	24.59
218.73	-0.71
218.95	-3.55
219.169	-13.14
219.389	-47.55
219.608	-42.24
219.827	-13.11
220.047	-7.94
220.266	0.91
220.485	13.55
220.705	27.74
220.924	5.94
221.143	34.93
221.363	16.65
221.582	30.4
221.801	47.35
222.021	56.55
222.24	22.07
222.459	107.75
222.678	53.47
222.897	-15.35
223.117	-47.7
223.336	-6.33
223.555	-14.47
223.774	13.42
223.993	23.31
224.213	54.2
224.432	21.44
224.651	31.21
224.87	15.93
225.089	32.26
225.308	19.04
225.527	35.48
225.746	37.23
225.965	38.9
226.184	32.05
226.404	37.87
226.623	19.83
226.842	29.86
227.061	47.96
227.28	38.73
227.499	30.81
227.718	43.48
227.936	26.16
228.155	32.15
228.374	30.08
228.593	39.73
228.812	32.63
229.031	16.64
229.25	-32.38
229.469	-45.68
229.688	-49.7
229.907	-11.73
230.125	9.84
230.344	18.8
230.563	20.88
230.782	26.51
231.001	-37.2
231.22	-10.81
231.438	20.83
231.657	43.2
231.876	44.25
232.095	80.06
232.313	78.44
232.532	69.16
232.751	48.24
232.969	48.16
233.188	9.35
233.407	46.98
233.625	37.96
233.844	16.29
234.063	15.65
234.281	29.99
234.5	22.33
234.719	18.1
234.937	51.79
235.156	55.53
235.374	58.95
235.593	64.32
235.811	79.02
236.03	59.62
236.249	30.57
236.467	35.3
236.686	19.11
236.904	20.69
237.123	-2.18
237.341	1.86
237.559	7.7
237.778	-5.97
237.996	-18.96
238.215	26.48
238.433	46.07
238.652	40.25
238.87	23.54
239.088	33.47
239.307	19.13
239.525	-4.7
239.743	-30.25
239.962	5.6
240.18	-21.27
240.398	-36.65
240.617	-39.55
240.835	-7.39
241.053	5.91
241.271	68.04
241.49	57.8
241.708	71.09
241.926	80.36
242.144	34.57
242.363	-19.6
242.581	-11.85
242.799	5.59
243.017	21.39
243.235	20.66
243.453	46.92
243.672	41.79
243.89	30.3
244.108	17.89
244.326	48.84
244.544	39.6
244.762	44.88
244.98	63.01
245.198	73.22
245.416	21.29
245.634	26.62
245.852	15.52
246.07	32.97
246.288	32.65
246.506	48.07
246.724	42.3
246.942	39.52
247.16	37.26
247.378	47.74
247.596	53.72
247.814	48.2
248.032	29.25
248.25	40.95
248.468	23.84
248.685	28.76
248.903	50.95
249.121	58.62
249.339	25.43
249.557	5.71
249.775	4.07
249.992	-59.08
250.21	-49.02
250.428	-25.41
250.646	-48.15
250.863	-63.96
251.081	-22.88
251.299	-14.46
251.517	-4.03
251.734	19.62
251.952	15.5
252.17	12.62
252.387	9.14
252.605	-4.15
252.823	14.22
253.04	40.69
253.258	58.59
253.475	63.31
253.693	90.07
253.911	72.1
254.128	58.61
254.346	50.65
254.563	35.37
254.781	4.93
254.998	-1.79
255.216	15.37
255.433	24.35
255.651	62.53
255.868	68.16
256.086	61.03
256.303	26.61
256.521	12.86
256.738	-9.15
256.956	-29.14
257.173	-36.4
257.39	-34.8
257.608	-38.88
257.825	4.7
258.043	49.84
258.26	32.74
258.477	70.85
258.695	67.82
258.912	33.59
259.129	28.09
259.346	4.9
259.564	-34.99
259.781	-50
259.998	14.51
260.216	27.7
260.433	56.86
260.65	49.49
260.867	60.33
261.084	20.33
261.302	-2.99
261.519	-10.94
261.736	-31.08
261.953	-46.05
262.17	-19.35
262.387	-54.54
262.604	-59.05
262.822	-62.62
263.039	-50.39
263.256	-88.88
263.473	-25.26
263.69	-6.46
263.907	30.52
264.124	52.73
264.341	45.7
264.558	32.23
264.775	41.38
264.992	34.92
265.209	15.83
265.426	41.07
265.643	38.15
265.86	46.25
266.077	50.56
266.294	47.57
266.51	17.64
266.727	12.25
266.944	0.87
267.161	-12.47
267.378	-5.64
267.595	30.01
267.812	8.99
268.028	-7.53
268.245	18.28
268.462	-2.53
268.679	-29.58
268.896	25.69
269.112	23.47
269.329	9.23
269.546	19.15
269.763	20.05
269.979	-1.95
270.196	-0.06
270.413	-23.9
270.629	-45.46
270.846	-44.98
271.063	-37.8
271.279	-41.77
271.496	-26.37
271.712	10.35
271.929	28.37
272.146	8.16
272.362	22.82
272.579	40.1
272.795	36.52
273.012	37.83
273.228	70.34
273.445	49.37
273.661	54.61
273.878	23.13
274.094	9.3
274.311	-36.13
274.527	10.15
274.744	8.69
274.96	-4.84
275.177	12.82
275.393	35.04
275.609	41.86
275.826	57.91
276.042	66.42
276.259	45.06
276.475	46.78
276.691	42.8
276.908	11.52
277.124	26.9
277.34	36.88
277.557	4.32
277.773	-14.44
277.989	-3.43
278.205	-3.68
278.422	8.76
278.638	22.78
278.854	61.28
279.07	58.65
279.286	39.61
279.503	22.5
279.719	13.8
279.935	-24.7
280.151	-32.63
280.367	-9.07
280.583	-24.15
280.799	-10.64
281.016	-24.71
281.232	4.38
281.448	-0.61
281.664	17.13
281.88	4.3
282.096	20.8
282.312	40.36
282.528	52.67
282.744	54.34
282.96	40.92
283.176	32.79
283.392	22.16
283.608	10.13
283.824	10.75
284.04	25.67
284.256	19.71
284.471	10.23
284.687	16.44
284.903	35
285.119	49.97
285.335	43.9
285.551	66.49
285.767	58.53
285.982	35.38
286.198	-6.41
286.414	29.25
286.63	15.93
286.846	25.07
287.061	7.15
287.277	32.41
287.493	11.65
287.709	25.27
287.924	12.31
288.14	38.59
288.356	33.65
288.571	47.51
288.787	36.77
289.003	41.79
289.218	34.88
289.434	6.77
289.65	4.1
289.865	-0.48
290.081	8.17
290.296	19.9
290.512	29.57
290.727	2.08
290.943	0.29
291.159	-6.28
291.374	-21.75
291.59	-40.56
291.805	-19.28
292.021	-1.95
292.236	-1.43
292.451	17.84
292.667	35.38
292.882	51.41
293.098	32.42
293.313	10.6
293.529	-14.77
293.744	-37.9
293.959	-46.13
294.175	-31.91
294.39	11.86
294.605	34.85
294.821	50.45
295.036	56.36
295.251	64.5
295.467	40.06
295.682	20.17
295.897	-6.15
296.112	-11.09
296.328	-28.16
296.543	-55.6
296.758	-52.81
296.973	-11.21
297.188	24.03
297.404	19.62
297.619	32.7
297.834	15.11
298.049	-14.28
298.264	-52.54
298.479	-19.61
298.694	-14.16
298.909	11.42
299.125	20.42
299.34	23.05
299.555	1.87
299.77	9.81
299.985	-35.02
300.2	-73.43
300.415	-76
300.63	-34.68
300.845	-33.35
301.06	-9.02
301.275	25.81
301.49	37.78
301.704	31.73
301.919	10.58
302.134	-6.59
302.349	-18.86
302.564	-87.38
302.779	-88.14
302.994	-31.66
303.209	-0.12
303.423	31.65
303.638	80.5
303.853	30.4
304.068	18.84
304.283	16.98
304.497	18.45
304.712	1.64
304.927	13.93
305.142	10.69
305.356	29.84
305.571	29.09
305.786	27.04
306	20.3
306.215	21.67
306.43	-17.89
306.644	-9.58
306.859	51.48
307.074	53.79
307.288	21.31
307.503	33.36
307.717	9.24
307.932	-15.49
308.147	-14.78
308.361	17.1
308.576	7.54
308.79	-18.42
309.005	-16.62
309.219	0.86
309.434	-5.67
309.648	0.12
309.863	20.56
310.077	29.01
310.292	15.08
310.506	6.34
310.72	23.42
310.935	30.14
311.149	19.03
311.364	36.27
311.578	53.15
311.792	40.77
312.007	38.34
312.221	31.43
312.435	35.57
312.649	18.17
312.864	67.73
313.078	87.58
313.292	153.07
313.507	130.58
313.721	184.67
313.935	68.45
314.149	58.59
314.363	37.58
314.578	33.19
314.792	32.61
315.006	28.02
315.22	28.01
315.434	27.66
315.648	29.61
315.862	11.26
316.077	5.81
316.291	-9.46
316.505	6.46
316.719	-0.76
316.933	-0.92
317.147	16.5
317.361	-27.07
317.575	-52.47
317.789	-67.66
318.003	-103.69
318.217	-77.35
318.431	1.93
318.645	43.76
318.859	38.92
319.073	68.91
319.287	43.06
319.5	18.18
319.714	-25.03
319.928	-33.36
320.142	-69.75
320.356	-25.98
320.57	-0.09
320.784	-23.11
320.997	-48.47
321.211	-27.79
321.425	-93.96
321.639	-103.85
321.853	-42.27
322.066	-27.52
322.28	-39.26
322.494	-5.49
322.707	17.62
322.921	5.7
323.135	13.95
323.349	27.76
323.562	1.93
323.776	-21.32
323.989	-17.72
324.203	-39.89
324.417	-40.05
324.63	-23.68
324.844	-27.48
325.057	-25.19
325.271	8.86
325.485	28.05
325.698	44.16
325.912	62.8
326.125	44.08
326.339	42.79
326.552	36.27
326.766	24.17
326.979	31.68
327.193	61.99
327.406	39.58
327.619	29.37
327.833	34.95
328.046	12.15
328.26	-18.67
328.473	-2.45
328.686	-28.11
328.9	-19.67
329.113	3.74
329.326	-14.49
329.54	-13.36
329.753	-24.68
329.966	-54.35
330.179	-57.48
330.393	-27.57
330.606	-10.96
330.819	23.16
331.032	35.81
331.246	38.4
331.459	69.83
331.672	60.52
331.885	40.98
332.098	15.91
332.311	-13.38
332.525	-61.68
332.738	-57.6
332.951	-3.56
333.164	28.73
333.377	45.21
333.59	53.61
333.803	65.75
334.016	44.98
334.229	32.98
334.442	43.85
334.655	60.87
334.868	58.49
335.081	50.16
335.294	51.51
335.507	58.18
335.72	29.47
335.933	12.75
336.146	16.68
336.359	12.54
336.572	-29.97
336.785	-39.43
336.997	-9.36
337.21	13.3
337.423	18.25
337.636	36.87
337.849	45.21
338.062	30.33
338.274	19.22
338.487	22.47
338.7	19.06
338.913	-16.19
339.125	-28.54
339.338	-83.37
339.551	-71.07
339.763	-44.56
339.976	-5.41
340.189	9.72
340.402	36.58
340.614	21.2
340.827	19.45
341.039	2.95
341.252	4.06
341.465	23.47
341.677	29.61
341.89	-6.99
342.102	9.84
342.315	-11.85
342.527	-57.44
342.74	-53.57
342.952	-17.55
343.165	-21.18
343.377	13.6
343.59	11.01
343.802	20.27
344.015	21.92
344.227	34.53
344.44	17.54
344.652	26.77
344.864	17.42
345.077	33.8
345.289	31.01
345.502	30.85
345.714	27.56
345.926	40
346.139	29.89
346.351	39.25
346.563	55.8
346.775	61.14
346.988	50.74
347.2	56.22
347.412	21.03
347.624	-10.91
347.837	-42.9
348.049	-34.79
348.261	-18.93
348.473	8.32
348.685	1.86
348.897	1.86
349.11	-4.17
349.322	-16.68
349.534	-7.65
349.746	20.29
349.958	34.62
350.17	20.72
350.382	26.95
350.594	1.5
350.806	3.63
351.018	2.17
351.23	4.77
351.442	-33.36
351.654	-1.97
351.866	12.3
352.078	2.78
352.29	21.35
352.502	37.49
352.714	35.18
352.926	20.78
353.138	22.7
353.35	7.51
353.561	7.22
353.773	-6.01
353.985	6.1
354.197	12.48
354.409	20.8
354.621	14.08
354.832	21.4
355.044	4.58
355.256	1.47
355.468	10.76
355.679	13.24
355.891	13.42
356.103	9.09
356.314	23.56
356.526	28.4
356.738	39.13
356.949	55.83
357.161	55.57
357.373	39.1
357.584	17.01
357.796	15.57
358.008	3.28
358.219	18.07
358.431	20.18
358.642	27.6
358.854	22.36
359.065	14.83
359.277	-13.01
359.488	-23.52
359.7	-40.55
359.911	-44.35
360.123	-24.95
360.334	-21.63
360.546	-19.92
360.757	0.31
360.969	18.57
361.18	30.1
361.391	54.5
361.603	33.53
361.814	32.25
362.025	27.4
362.237	25.51
362.448	24.57
362.659	43.94
362.871	42.36
363.082	34.01
363.293	33.44
363.504	11.12
363.716	-9.63
363.927	-6.8
364.138	-24.94
364.349	-30.23
364.56	-14.51
364.772	-1.16
364.983	11.6
365.194	21.55
365.405	32.3
365.616	51.87
365.827	50.05
366.038	27.97
366.25	18.82
366.461	-20.08
366.672	-14.57
366.883	9.09
367.094	17.06
367.305	14.72
367.516	29.72
367.727	11.04
367.938	-3.45
368.149	-10.36
368.36	3.11
368.571	7.1
368.781	0.74
368.992	-14
369.203	-14.19
369.414	-21.26
369.625	-29.83
369.836	-24.59
370.047	-38.97
370.258	-36.33
370.468	-44.27
370.679	-57.03
370.89	-56.84
371.101	-27.89
371.312	-25.24
371.522	-14.83
371.733	-7.72
371.944	8.66
372.155	1.56
372.365	-6.9
372.576	-5.96
372.787	2.25
372.997	-19.54
373.208	-15.42
373.419	7.28
373.629	-12.94
373.84	-18.97
374.05	-16.51
374.261	-13.24
374.472	-20
374.682	19.18
374.893	20.4
375.103	46.61
375.314	49.21
375.524	42.75
375.735	36.33
375.945	48.15
376.156	29.26
376.366	26.78
376.577	24.51
376.787	21.22
376.997	13.17
377.208	6.2
377.418	-0.42
377.629	12.14
377.839	4.27
378.049	2.95
378.26	16.37
378.47	23.92
378.68	19.61
378.89	14.66
379.101	4.93
379.311	-22.81
379.521	-55.23
379.732	-66.65
379.942	-50.14
380.152	-52.4
380.362	-17.26
380.572	-14.49
380.783	0.62
380.993	1.62
381.203	14.4
381.413	22.87
381.623	36
381.833	26.27
382.043	20.43
382.253	11.86
382.463	7.08
382.674	-1.44
382.884	-17.26
383.094	-14.15
383.304	-5.49
383.514	-2.1
383.724	10.34
383.934	11.21
384.144	-4.42
384.353	-5.95
384.563	-7.59
384.773	-8.14
384.983	-6.5
385.193	17.48
385.403	16.95
385.613	19.18
385.823	5.32
386.033	6.86
386.242	3.5
386.452	-0.81
386.662	-12.17
386.872	7.42
387.082	5.12
387.291	-0.02
387.501	4.48
387.711	9.63
387.921	-2
388.13	-4.8
388.34	3.79
388.55	-5.07
388.759	-7.81
388.969	2.11
389.179	3.1
389.388	-0.52
389.598	7.3
389.807	1.91
390.017	-8.05
390.227	-7.45
390.436	-8.71
390.646	-5.71
390.855	0.17
391.065	0.39
391.274	1.53
391.484	0.43
391.693	1.8
391.903	2.48
392.112	8.75
392.322	10.7
392.531	12.83
392.74	12.42
392.95	8.8
393.159	5.3
393.369	4.05
393.578	3.18
393.787	0.52
393.997	3.14
394.206	2.17
394.415	3.74
394.625	3.3
394.834	2.32
395.043	2.62
395.252	4.98
395.462	5.9
395.671	6.28
395.88	7.27
396.089	7.47
396.298	5.28
396.508	4.48
396.717	4.42
396.926	5.21
397.135	4.04
397.344	5.04
397.553	5.94
397.762	7.18
397.971	6.74
398.181	7.55
398.39	6.29
398.599	5.5
398.808	5.37
399.017	6.55
399.226	8.07
399.435	9.85
399.644	9.94
399.853	9.14
400.062	8.36
400.27	7.08
400.479	6.14
400.688	5.56
400.897	5.63
401.106	5.86
401.315	6.12
401.524	6.19
401.733	6.69
401.941	7.25
402.15	7.15
402.359	6.75
402.568	7.01
402.777	7.03
402.985	6.79
403.194	6.52
403.403	6.66
403.612	6.43
403.82	6.13
404.029	6.04
404.238	5.95
404.446	6.05
404.655	5.77
404.864	5.99
405.072	5.75
405.281	5.89
405.489	5.67
405.698	5.65
405.906	5.42
406.115	5.62
406.324	5.64
406.532	5.85
406.741	6.15
406.949	6.18
407.158	5.99
407.366	5.9
407.574	5.67
407.783	5.56
407.991	5.51
408.2	5.6
408.408	5.58
408.617	5.56
408.825	5.39
409.033	5.47
409.242	5.48
409.45	5.58
409.658	5.46
409.867	5.66
410.075	5.49
410.283	5.39
410.491	5.27
410.7	5.33
410.908	5.26
411.116	5.5
411.324	5.52
411.533	5.45
411.741	5.58
411.949	5.65
412.157	5.43
412.365	5.46
412.573	5.47
412.781	5.47
412.99	5.29
413.198	5.35
413.406	5.27
413.614	5.28
413.822	5.13
414.03	5.09
414.238	4.86
414.446	4.94
414.654	4.88
414.862	5.07
415.07	5.23
415.278	5.42
415.486	5.24
415.694	5.26
415.902	5.04
416.109	4.78
416.317	4.71
416.525	4.68
416.733	4.66
416.941	4.78
417.149	4.94
417.357	4.94
417.564	5.13
417.772	5.27
417.98	5.13
418.188	5.12
418.395	5.14
418.603	5.23
418.811	4.85
419.019	4.84
419.226	4.91
419.434	5.04
419.642	4.8
419.849	4.97
420.057	4.91
420.265	4.88
420.472	4.64
420.68	4.71
420.887	4.62
421.095	4.6
421.302	4.58
421.51	4.77
421.717	4.79
421.925	4.88
422.132	4.85
422.34	4.56
422.547	4.51
422.755	4.36
422.962	4.19
423.17	4.15
423.377	4.29
423.585	4.24
423.792	4.2
423.999	4.35
424.207	4.28
424.414	4.35
424.621	4.35
424.829	4.43
425.036	4.42
425.243	4.58
425.451	4.37
425.658	4.23
425.865	4.34
426.072	4.44
426.28	4.6
426.487	4.69
426.694	4.82
426.901	4.6
427.108	4.55
427.315	4.41
427.523	4.65
427.73	4.49
427.937	4.55
428.144	4.36
428.351	4.43
428.558	4.42
428.765	4.47
428.972	4.52
429.179	4.85
429.386	4.93
429.593	4.75
429.8	4.64
430.007	4.64
430.214	4.63
430.421	4.53
430.628	4.37
430.835	4.48
431.042	4.68
431.249	4.63
431.456	4.75
431.662	4.93
431.869	5.08
432.076	5.03
432.283	5.13
432.49	4.99
432.697	5.07
432.903	4.84
433.11	4.75
433.317	4.75
433.524	5.07
433.73	4.96
433.937	5.29
434.144	5.26
434.35	5.23
434.557	4.92
434.764	5.04
434.97	4.85
435.177	4.97
435.384	4.87
435.59	4.96
435.797	5.1
436.003	5.28
436.21	5.25
436.416	5.32
436.623	5.29
436.829	5.32
437.036	5.35
437.242	5.42
437.449	5.32
437.655	5.48
437.862	5.42
438.068	5.36
438.275	5.44
438.481	5.77
438.687	5.7
438.894	5.67
439.1	5.67
439.307	5.89
439.513	5.73
439.719	5.69
439.926	5.86
440.132	5.87
440.338	5.58
440.544	5.82
440.751	5.87
440.957	5.88
441.163	5.81
441.369	5.93
441.575	5.62
441.782	5.63
441.988	5.52
442.194	5.61
442.4	5.72
442.606	6.03
442.812	6.18
443.018	6.35
443.224	6.4
443.431	6.34
443.637	6.19
443.843	6.12
444.049	6.16
444.255	6.12
444.461	6.18
444.667	6.14
444.873	6.19
445.079	6.11
445.284	6.22
445.49	6.08
445.696	6.05
445.902	6.06
446.108	6
446.314	6
446.52	6.06
446.726	6.29
446.931	6.25
447.137	6.28
447.343	6.25
447.549	6.24
447.755	6.06
447.96	6.14
448.166	6.16
448.372	6.14
448.578	6.22
448.783	6.27
448.989	6.27
449.195	6.45
449.4	6.51
449.606	6.44
449.812	6.43
450.017	6.46
450.223	6.31
450.428	6.23
450.634	6.37
450.84	6.43
451.045	6.43
451.251	6.43
451.456	6.74
451.662	6.75
451.867	6.81
452.073	6.79
452.278	6.9
452.483	6.87
452.689	6.86
452.894	6.92
453.1	6.9
453.305	6.82
453.51	6.77
453.716	6.69
453.921	6.59
454.127	6.6
454.332	6.56
454.537	6.43
454.742	6.45
454.948	6.49
455.153	6.54
455.358	6.66
455.563	6.89
455.769	7.03
455.974	6.98
456.179	6.85
456.384	6.83
456.589	6.7
456.795	6.44
457	6.46
457.205	6.74
457.41	6.8
457.615	6.76
457.82	6.9
458.025	6.94
458.23	6.89
458.435	6.91
458.64	6.86
458.845	7.09
459.05	7.07
459.255	6.97
459.46	6.98
459.665	7.04
459.87	6.93
460.075	6.93
460.28	6.97
460.485	7.04
460.69	7.11
460.895	6.94
461.099	6.95
461.304	7.05
461.509	7.02
461.714	6.93
461.919	7.24
462.123	7.19
462.328	7.26
462.533	7.2
462.738	7.43
462.942	7.17
463.147	7.32
463.352	7.36
463.556	7.39
463.761	7.34
463.966	7.49
464.17	7.52
464.375	7.41
464.58	7.37
464.784	7.29
464.989	7.19
465.193	7.25
465.398	7.31
465.602	7.5
