Data from Ofra_PS_T2_1A_0GT03_Reflection_3.txt Node
Date: Wed Jul 21 17:46:23 EDT 2021
User: Adam
Spectrometer: FLMT01687
Trigger mode: 0
Integration Time (sec): 1.100000E0
Scans to average: 2
Electric dark correction enabled: true
Nonlinearity correction enabled: false
Boxcar width: 2
XAxis mode: Wavelengths
Number of Pixels in Spectrum: 3648
>>>>>Begin Spectral Data<<<<<
179.494	488
179.716	548
179.937	521.17
180.158	490.25
180.38	753.12
180.601	253.04
180.823	97.19
181.044	-72.99
181.265	-9.56
181.486	4.56
181.708	56.58
181.929	769.39
182.15	-653.52
182.372	8.45
182.593	-49.83
182.814	2.24
183.035	152
183.257	92.89
183.478	-38.09
183.699	9.52
183.92	-16.84
184.141	-71.67
184.363	-71.65
184.584	14.32
184.805	-9.75
185.026	18.74
185.247	23.95
185.468	-4.35
185.689	-16.47
185.91	-6.37
186.132	2.85
186.353	-1.02
186.574	42.34
186.795	26.21
187.016	-7.04
187.237	-55.7
187.458	-65.4
187.679	-51.01
187.9	-21.64
188.121	-23.82
188.342	19.19
188.563	40.57
188.784	43.61
189.005	53.72
189.226	122.35
189.447	107.99
189.667	-14.08
189.888	-102.96
190.109	-1054.55
190.33	-742.58
190.551	-1390.27
190.772	-285.96
190.993	-273.27
191.214	-149.13
191.434	-79.88
191.655	19.26
191.876	-20.6
192.097	-41.78
192.318	-139.34
192.538	-275.07
192.759	-207.87
192.98	-67.84
193.201	-27.69
193.421	3.64
193.642	26.35
193.863	27.81
194.083	4.16
194.304	-12.95
194.525	-15.59
194.745	-25.57
194.966	-47.09
195.187	-77.51
195.407	-93.11
195.628	-143.43
195.848	-160.9
196.069	-149.43
196.29	-85.92
196.51	-99
196.731	-89.48
196.951	-92.69
197.172	-83.5
197.392	-131.79
197.613	-139.29
197.833	-157.58
198.054	-131.19
198.274	-90.42
198.495	-78.28
198.715	-23.05
198.936	-18.93
199.156	-11.12
199.377	-59.04
199.597	-86.43
199.817	-110.01
200.038	-54.94
200.258	-98.01
200.479	-69.03
200.699	-38.52
200.919	6.7
201.14	-44.57
201.36	-70.66
201.58	-3.92
201.801	21.78
202.021	-20.82
202.241	-4.34
202.461	-5.72
202.682	-102.49
202.902	-174.6
203.122	-95.29
203.342	-84.67
203.563	-3.72
203.783	28.84
204.003	-14.42
204.223	-22.28
204.443	28.11
204.663	-24.02
204.884	-23.2
205.104	34.21
205.324	62
205.544	30.2
205.764	33.14
205.984	33.43
206.204	38.57
206.424	19.9
206.644	-8.21
206.864	14.88
207.084	-21.66
207.304	-30.88
207.525	-125.31
207.745	-69.04
207.964	-29.17
208.184	-59.15
208.404	-114.59
208.624	-98.59
208.844	-86.93
209.064	-376.5
209.284	-420.98
209.504	-159.1
209.724	-32.07
209.944	-22.24
210.164	29.39
210.384	53.84
210.604	36.09
210.823	-16.9
211.043	-39.19
211.263	-37.62
211.483	-57.82
211.703	-109.24
211.922	-86.25
212.142	-9.7
212.362	1.01
212.582	-16.89
212.801	11.63
213.021	-3.56
213.241	-31.67
213.461	-88.3
213.68	-101.43
213.9	-88.79
214.12	-85.33
214.339	-148.89
214.559	-126.06
214.779	-58.19
214.998	-54.9
215.218	-104.46
215.438	-67.39
215.657	-66.73
215.877	-45.76
216.096	-12.27
216.316	23.85
216.535	23.52
216.755	38.06
216.974	-43.83
217.194	-109.63
217.413	-131.31
217.633	-133.79
217.852	-289.44
218.072	-109.83
218.291	-49.51
218.511	2.56
218.73	-1.84
218.95	-5.67
219.169	-18.78
219.389	-58.83
219.608	-52.16
219.827	-63.56
220.047	-32.27
220.266	-20.53
220.485	-21.84
220.705	-21.17
220.924	-28.58
221.143	6.46
221.363	-13.81
221.582	-14.58
221.801	-3.27
222.021	16.99
222.24	-26.68
222.459	20.31
222.678	4.58
222.897	-66.3
223.117	-146
223.336	-165.98
223.555	-121.53
223.774	-51.54
223.993	-55.1
224.213	42.31
224.432	32.86
224.651	75.08
224.87	36.34
225.089	47.85
225.308	33.53
225.527	56.54
225.746	36.43
225.965	36.38
226.184	18.48
226.404	30.02
226.623	-23.47
226.842	-7.89
227.061	21.97
227.28	18.93
227.499	-7.57
227.718	22.92
227.936	4.54
228.155	-4.97
228.374	-28.33
228.593	-0.96
228.812	-10.39
229.031	-10.58
229.25	-53.69
229.469	-30.67
229.688	-20.34
229.907	19.95
230.125	38.82
230.344	43.34
230.563	54.36
230.782	50.27
231.001	-28.66
231.22	-28.15
231.438	3.63
231.657	-3.89
231.876	-14.32
232.095	30.48
232.313	43.95
232.532	23.93
232.751	16.53
232.969	15
233.188	-7.85
233.407	19.3
233.625	9.13
233.844	-3.08
234.063	-13.5
234.281	12.2
234.5	-17.69
234.719	0.06
234.937	17.51
235.156	19.56
235.374	19.44
235.593	16.68
235.811	-3.78
236.03	-33.03
236.249	-79.01
236.467	-98.55
236.686	-46.86
236.904	-23.91
237.123	-43.83
237.341	-38.18
237.559	-32.81
237.778	-42.72
237.996	-74.42
238.215	-17.7
238.433	7.36
238.652	5.71
238.87	-26.27
239.088	-6.47
239.307	-13.54
239.525	-23.5
239.743	-42.69
239.962	-31.21
240.18	-72.24
240.398	-113.35
240.617	-135.86
240.835	-117.51
241.053	-77.98
241.271	-2.61
241.49	9.64
241.708	15.34
241.926	17.46
242.144	-0.8
242.363	-71.61
242.581	-82.74
242.799	-39.4
243.017	-13.57
243.235	-42.37
243.453	-10.97
243.672	-15.94
243.89	-24.66
244.108	-33.68
244.326	1.02
244.544	-6.07
244.762	2.79
244.98	24.45
245.198	25.19
245.416	-19.94
245.634	-40.58
245.852	-60.16
246.07	-79.44
246.288	-77.65
246.506	-92.18
246.724	-51.22
246.942	-30.88
247.16	-2.14
247.378	-15.05
247.596	29.26
247.814	46.58
248.032	21.57
248.25	18.78
248.468	22.06
248.685	32.24
248.903	39.49
249.121	33.67
249.339	-1.5
249.557	-18.87
249.775	-9.4
249.992	-92
250.21	-88.64
250.428	-56.1
250.646	-63.84
250.863	-93.65
251.081	-51.3
251.299	-23.17
251.517	-19.87
251.734	-2.9
251.952	1.35
252.17	5.06
252.387	12.62
252.605	-0.5
252.823	-2.43
253.04	11.43
253.258	22.58
253.475	18.53
253.693	53.95
253.911	46.8
254.128	55.61
254.346	48.5
254.563	17.69
254.781	-24.95
254.998	-48.61
255.216	-58.6
255.433	-41.19
255.651	-1.86
255.868	39.39
256.086	67.64
256.303	46.32
256.521	34.26
256.738	15.22
256.956	-21.08
257.173	-53.19
257.39	-73.47
257.608	-107.5
257.825	-45.41
258.043	11.84
258.26	43.19
258.477	75.49
258.695	74.58
258.912	12.99
259.129	4.54
259.346	-51.56
259.564	-95.85
259.781	-107.21
259.998	-39.91
260.216	-36.42
260.433	17.44
260.65	19.58
260.867	33.06
261.084	1.56
261.302	-6.64
261.519	-26.39
261.736	-47.34
261.953	-70.05
262.17	-25.05
262.387	-69.57
262.604	-101.29
262.822	-114.02
263.039	-106.19
263.256	-153.52
263.473	-96.09
263.69	-57.7
263.907	-7.82
264.124	18.01
264.341	11.1
264.558	-7.56
264.775	7.91
264.992	-9.49
265.209	-7.04
265.426	24.1
265.643	41.61
265.86	36.7
266.077	42.52
266.294	11.33
266.51	-41.09
266.727	-58.66
266.944	-45.91
267.161	-52.86
267.378	-23.78
267.595	18.52
267.812	-4.99
268.028	-26.49
268.245	-4.05
268.462	-46.99
268.679	-68.78
268.896	-6.51
269.112	-1.72
269.329	-16.03
269.546	-7.07
269.763	-7.43
269.979	-30.28
270.196	-34.89
270.413	-68.09
270.629	-87.33
270.846	-99.18
271.063	-87.7
271.279	-96.39
271.496	-75.84
271.712	-30.77
271.929	-24.2
272.146	-37.44
272.362	-22.82
272.579	22.8
272.795	17.02
273.012	28.45
273.228	17.28
273.445	-10.75
273.661	-55.48
273.878	-82.58
274.094	-87.34
274.311	-105.55
274.527	-31.56
274.744	-16.68
274.96	-20.62
275.177	-10.35
275.393	9.24
275.609	-6.65
275.826	6.25
276.042	1.6
276.259	-1.11
276.475	5.49
276.691	8.34
276.908	-15.42
277.124	6.75
277.34	3.8
277.557	-1.27
277.773	-8.17
277.989	-12.43
278.205	-22.65
278.422	-7.86
278.638	4.12
278.854	29.18
279.07	41.22
279.286	29.87
279.503	6.58
279.719	-19.03
279.935	-67.83
280.151	-87.77
280.367	-63.36
280.583	-89.28
280.799	-67.14
281.016	-79.86
281.232	-25.91
281.448	-27.16
281.664	2.12
281.88	-24.51
282.096	8.25
282.312	24.25
282.528	47.17
282.744	53.74
282.96	53.74
283.176	28.88
283.392	11.24
283.608	-0.68
283.824	-16.7
284.04	-22.86
284.256	-26.82
284.471	-29.15
284.687	-27.38
284.903	-1.83
285.119	36.7
285.335	19.05
285.551	9.72
285.767	-20.36
285.982	-29.51
286.198	-62.5
286.414	-7.61
286.63	15.7
286.846	47.24
287.061	26.79
287.277	44.12
287.493	14.92
287.709	29.39
287.924	11.08
288.14	47.54
288.356	39.94
288.571	65.01
288.787	39.51
289.003	41.18
289.218	11.59
289.434	-35.47
289.65	-44.81
289.865	-49.86
290.081	-42.52
290.296	-16.03
290.512	14.28
290.727	-5.98
290.943	-11.35
291.159	-17.06
291.374	-35.07
291.59	-59.5
291.805	-51.28
292.021	-41.93
292.236	-37.59
292.451	-11.62
292.667	3.16
292.882	19.17
293.098	18.65
293.313	-24.3
293.529	-57.78
293.744	-76.98
293.959	-62.81
294.175	-59.34
294.39	-8.91
294.605	15.47
294.821	47.5
295.036	43.29
295.251	44.94
295.467	-7.94
295.682	-30.01
295.897	-106.75
296.112	-118.74
296.328	-108.95
296.543	-96.66
296.758	-77.27
296.973	-10.29
297.188	29.13
297.404	17.57
297.619	17.33
297.834	-5.18
298.049	-29.6
298.264	-62.76
298.479	-14.99
298.694	-9.23
298.909	14.37
299.125	12.14
299.34	6.61
299.555	-24.47
299.77	-9.42
299.985	-52.91
300.2	-106.53
300.415	-111.97
300.63	-50.25
300.845	-60.31
301.06	-47.63
301.275	-2.1
301.49	13.51
301.704	-23.95
301.919	-40.1
302.134	-52.88
302.349	-62.74
302.564	-144.01
302.779	-207.46
302.994	-193.57
303.209	-133.62
303.423	-71
303.638	19.79
303.853	3.92
304.068	-6.24
304.283	-3.09
304.497	-18.16
304.712	-43.02
304.927	-18.88
305.142	-21.28
305.356	-19.46
305.571	-10.63
305.786	-11.08
306	-30.38
306.215	-23.67
306.43	-39.3
306.644	-54.1
306.859	-0.2
307.074	0.33
307.288	-26.82
307.503	-57.36
307.717	-56.71
307.932	-77.29
308.147	-86.33
308.361	-47.08
308.576	-37.09
308.79	-77.28
309.005	-58.71
309.219	-31.81
309.434	-48.57
309.648	-46.29
309.863	-4.2
310.077	-9.63
310.292	-5.89
310.506	-16.71
310.72	-2.59
310.935	-0.27
311.149	2.38
311.364	16.14
311.578	32.99
311.792	25.84
312.007	20.91
312.221	-1.92
312.435	3.79
312.649	-12.6
312.864	19.04
313.078	37.8
313.292	122.18
313.507	87.34
313.721	123.88
313.935	48.23
314.149	24.79
314.363	14.32
314.578	14.48
314.792	14.08
315.006	-3.12
315.22	23.96
315.434	24.77
315.648	27.12
315.862	15.71
316.077	22.88
316.291	-22.8
316.505	-23.91
316.719	-36.29
316.933	-29.57
317.147	-30.37
317.361	-66.99
317.575	-94.56
317.789	-127.48
318.003	-161.15
318.217	-130.83
318.431	-27.14
318.645	16.16
318.859	6.08
319.073	17.29
319.287	6.67
319.5	-27.54
319.714	-64.46
319.928	-85.64
320.142	-124.04
320.356	-48.75
320.57	-18.11
320.784	-35.03
320.997	-39.73
321.211	-36.41
321.425	-130.57
321.639	-141.77
321.853	-62.19
322.066	-27.06
322.28	-17.5
322.494	17.43
322.707	32.76
322.921	16.65
323.135	-5.61
323.349	5.65
323.562	-31.87
323.776	-54.24
323.989	-62.19
324.203	-77.01
324.417	-73.21
324.63	-68.45
324.844	-52.37
325.057	-46.41
325.271	-21.46
325.485	-8.55
325.698	10.76
325.912	25.84
326.125	2.76
326.339	-2.37
326.552	-30.71
326.766	-29.45
326.979	-31.29
327.193	8.11
327.406	-2.89
327.619	-6.21
327.833	3.1
328.046	-20.33
328.26	-59.8
328.473	-29.31
328.686	-49.96
328.9	-57.73
329.113	-31.75
329.326	-48.1
329.54	-41.15
329.753	-51.06
329.966	-56.77
330.179	-63.83
330.393	-24.9
330.606	-26.08
330.819	1.49
331.032	11.43
331.246	14.97
331.459	41.45
331.672	34.38
331.885	18.72
332.098	-8.31
332.311	-18.2
332.525	-84.89
332.738	-46.22
332.951	-5.38
333.164	30.25
333.377	38.33
333.59	56.92
333.803	38.33
334.016	34.79
334.229	45.12
334.442	45.53
334.655	63.58
334.868	68.7
335.081	42.87
335.294	12.05
335.507	7.1
335.72	-9.43
335.933	-22.31
336.146	-28.09
336.359	-27.15
336.572	-45.29
336.785	-85.14
336.997	-73.1
337.21	-43.19
337.423	-47.36
337.636	-55.86
337.849	-20.99
338.062	-25.99
338.274	-21.85
338.487	-17.4
338.7	7.92
338.913	-55.45
339.125	-73.47
339.338	-130.17
339.551	-113.85
339.763	-78
339.976	-21.27
340.189	-4.93
340.402	24.56
340.614	14.92
340.827	-11.93
341.039	-37.25
341.252	-35.73
341.465	-10.3
341.677	-23.58
341.89	-48.81
342.102	-4.81
342.315	-6.11
342.527	-67.9
342.74	-43.02
342.952	-17.43
343.165	-27.32
343.377	-15.77
343.59	-13.56
343.802	13.08
344.015	24.84
344.227	47.3
344.44	40.26
344.652	37.72
344.864	2.66
345.077	23.58
345.289	19.21
345.502	26.49
345.714	31.13
345.926	42.17
346.139	26.3
346.351	34.36
346.563	34.18
346.775	35.57
346.988	20.11
347.2	-2.16
347.412	-61.17
347.624	-73.19
347.837	-110.14
348.049	-103.57
348.261	-25.97
348.473	-14.1
348.685	-36.95
348.897	-24.21
349.11	-14.68
349.322	-53.88
349.534	-28.84
349.746	-22.04
349.958	-19.05
350.17	-30.77
350.382	-1.85
350.594	-12.08
350.806	-0.29
351.018	2.28
351.23	-19.3
351.442	-85.43
351.654	-111.84
351.866	-106.57
352.078	-106.2
352.29	-51.63
352.502	-13.2
352.714	2.48
352.926	-5.13
353.138	2.53
353.35	-15.9
353.561	-18.85
353.773	-41.43
353.985	-22.76
354.197	-29.08
354.409	-17.3
354.621	-31.23
354.832	-6.37
355.044	-18.33
355.256	-24.93
355.468	-14.2
355.679	-8.43
355.891	-3.28
356.103	-12.71
356.314	4.59
356.526	-4.11
356.738	-8.79
356.949	-46.62
357.161	-16.47
357.373	-30.56
357.584	-42.69
357.796	-19.99
358.008	-17.36
358.219	-11.85
358.431	-4.81
358.642	6.2
358.854	-2.77
359.065	-9.13
359.277	-45.8
359.488	-59.78
359.7	-83.96
359.911	-102.64
360.123	-59.54
360.334	-67.14
360.546	-76.3
360.757	-83.45
360.969	-53.3
361.18	-46.88
361.391	-17.1
361.603	-24.01
361.814	21.91
362.025	7.95
362.237	-5.91
362.448	2.62
362.659	22.47
362.871	11.85
363.082	3.75
363.293	7.82
363.504	-13.73
363.716	-35.11
363.927	-54.41
364.138	-76.94
364.349	-100.18
364.56	-81.42
364.772	-81.24
364.983	-53.19
365.194	-45.23
365.405	-23.32
365.616	-8.24
365.827	3.21
366.038	-24.69
366.25	-28.09
366.461	-76.51
366.672	-51.85
366.883	-27.21
367.094	-12.53
367.305	-13.63
367.516	0.96
367.727	-35.81
367.938	-56.19
368.149	-59.48
368.36	-35.68
368.571	-27.37
368.781	-31.6
368.992	-47.74
369.203	-59.4
369.414	-92.46
369.625	-102.15
369.836	-88.79
370.047	-100.19
370.258	-75.98
370.468	-73.35
370.679	-92.75
370.89	-84.79
371.101	-56.32
371.312	-71.7
371.522	-67.79
371.733	-43.67
371.944	-34.78
372.155	-26.5
372.365	-18.85
372.576	-13.63
372.787	-19.53
372.997	-37.84
373.208	-51.57
373.419	-24.05
373.629	-53.61
373.84	-45.64
374.05	-52.01
374.261	-31.38
374.472	-60.81
374.682	-3.85
374.893	-12.42
375.103	28.9
375.314	17.69
375.524	23.78
375.735	22.06
375.945	36.68
376.156	-5.8
376.366	-10.39
376.577	-7.5
376.787	-16.69
376.997	-22.11
377.208	-10.24
377.418	-13.67
377.629	-7.29
377.839	-21.27
378.049	-14.26
378.26	1.93
378.47	7.07
378.68	-8.69
378.89	-7.55
379.101	-18.73
379.311	-56.04
379.521	-80.36
379.732	-68.6
379.942	-59.33
380.152	-68.8
380.362	-31.02
380.572	-19.97
380.783	5.94
380.993	11.66
381.203	25.94
381.413	45.12
381.623	43.65
381.833	19.58
382.043	4.42
382.253	-7.37
382.463	-15.95
382.674	-28.19
382.884	-46.59
383.094	-32.75
383.304	-25.09
383.514	-18.61
383.724	-0.83
383.934	-6.78
384.144	-22.17
384.353	-31.37
384.563	-32.2
384.773	-26.31
384.983	-25.02
385.193	-3.82
385.403	1.72
385.613	-2.93
385.823	-15.77
386.033	-5.99
386.242	-20.83
386.452	-25.07
386.662	-34.09
386.872	-20.05
387.082	-25.29
387.291	-25.24
387.501	-20.83
387.711	-10.8
387.921	-23.17
388.13	-22
388.34	-5.7
388.55	-10.65
388.759	-11.16
388.969	-1.3
389.179	-2.36
389.388	-7.93
389.598	-1.47
389.807	-10.29
390.017	-16.51
390.227	-14.3
390.436	-16.64
390.646	-15.17
390.855	-6.74
391.065	-6.21
391.274	-8.43
391.484	-11.19
391.693	-11.04
391.903	-12.03
392.112	-6.58
392.322	-2.94
392.531	2.9
392.74	3.64
392.95	-1.8
393.159	-4.86
393.369	-3.85
393.578	-5.71
393.787	-7.2
393.997	-3.17
394.206	-3.9
394.415	-5.13
394.625	-4.99
394.834	-5.56
395.043	-4.83
395.252	-1.89
395.462	1.17
395.671	2.34
395.88	2.76
396.089	2.92
396.298	0.91
396.508	-1.41
396.717	-2.05
396.926	-0.92
397.135	-0.89
397.344	-0.69
397.553	0.83
397.762	2.86
397.971	2
398.181	2.39
398.39	1.7
398.599	0.85
398.808	0.17
399.017	1.6
399.226	2.87
399.435	4.11
399.644	4.45
399.853	3.47
400.062	2.84
400.27	1.92
400.479	1.71
400.688	0.81
400.897	1.27
401.106	1.25
401.315	0.95
401.524	0.62
401.733	1.66
401.941	2.04
402.15	2.2
402.359	2.02
402.568	2.48
402.777	2.39
402.985	2.14
403.194	2.04
403.403	2.25
403.612	1.88
403.82	1.58
404.029	1.66
404.238	1.47
404.446	1.82
404.655	1.81
404.864	1.81
405.072	1.59
405.281	1.84
405.489	1.43
405.698	1.48
405.906	1.4
406.115	1.4
406.324	1.22
406.532	1.35
406.741	1.66
406.949	1.67
407.158	1.66
407.366	1.7
407.574	1.65
407.783	1.36
407.991	1.25
408.2	1.48
408.408	1.42
408.617	1.26
408.825	1.17
409.033	1.29
409.242	1.33
409.45	1.5
409.658	1.5
409.867	1.73
410.075	1.59
410.283	1.42
410.491	1.31
410.7	1.29
410.908	1.22
411.116	1.63
411.324	1.63
411.533	1.58
411.741	1.87
411.949	1.84
412.157	1.53
412.365	1.63
412.573	1.71
412.781	1.66
412.99	1.55
413.198	1.72
413.406	1.74
413.614	1.68
413.822	1.54
414.03	1.62
414.238	1.47
414.446	1.46
414.654	1.26
414.862	1.45
415.07	1.52
415.278	1.69
415.486	1.49
415.694	1.65
415.902	1.45
416.109	1.26
416.317	1.18
416.525	1.08
416.733	1.09
416.941	1.2
417.149	1.16
417.357	1.18
417.564	1.49
417.772	1.63
417.98	1.58
418.188	1.7
418.395	1.68
418.603	1.79
418.811	1.47
419.019	1.4
419.226	1.58
419.434	1.73
419.642	1.33
419.849	1.54
420.057	1.61
420.265	1.52
420.472	1.32
420.68	1.47
420.887	1.31
421.095	1.3
421.302	1.2
421.51	1.45
421.717	1.46
421.925	1.74
422.132	1.71
422.34	1.6
422.547	1.48
422.755	1.39
422.962	1.21
423.17	1.09
423.377	1.21
423.585	1.25
423.792	1.23
423.999	1.19
424.207	1.26
424.414	1.46
424.621	1.35
424.829	1.28
425.036	1.31
425.243	1.39
425.451	1.2
425.658	1.02
425.865	1.32
426.072	1.33
426.28	1.51
426.487	1.42
426.694	1.65
426.901	1.34
427.108	1.36
427.315	1.22
427.523	1.5
427.73	1.41
427.937	1.5
428.144	1.39
428.351	1.28
428.558	1.4
428.765	1.29
428.972	1.19
429.179	1.44
429.386	1.7
429.593	1.24
429.8	1.19
430.007	1.45
430.214	1.43
430.421	1.18
430.628	1.17
430.835	1.1
431.042	1.22
431.249	1.26
431.456	1.32
431.662	1.51
431.869	1.74
432.076	1.67
432.283	1.65
432.49	1.66
432.697	1.78
432.903	1.62
433.11	1.56
433.317	1.71
433.524	1.86
433.73	1.7
433.937	1.99
434.144	1.84
434.35	1.77
434.557	1.55
434.764	1.58
434.97	1.4
435.177	1.67
435.384	1.51
435.59	1.64
435.797	1.83
436.003	2
436.21	1.89
436.416	2
436.623	1.99
436.829	1.93
437.036	1.89
437.242	1.93
437.449	1.88
437.655	1.89
437.862	1.94
438.068	1.84
438.275	1.9
438.481	2.08
438.687	2.11
438.894	1.97
439.1	2.05
439.307	2.16
439.513	2.05
439.719	2.04
439.926	2.26
440.132	2.23
440.338	2.01
440.544	2.12
440.751	2.01
440.957	2.02
441.163	1.9
441.369	2.04
441.575	1.86
441.782	1.92
441.988	1.75
442.194	1.83
442.4	1.83
442.606	2.03
442.812	2.05
443.018	2.17
443.224	2.23
443.431	2.27
443.637	2.14
443.843	2.09
444.049	2.03
444.255	2
444.461	2
444.667	1.95
444.873	2.12
445.079	2.16
445.284	2.21
445.49	2
445.696	1.95
445.902	1.76
446.108	1.79
446.314	1.74
446.52	1.79
446.726	2.05
446.931	2.03
447.137	2
447.343	2.07
447.549	2.06
447.755	1.87
447.96	1.98
448.166	1.85
448.372	1.77
448.578	1.81
448.783	1.76
448.989	1.86
449.195	2.19
449.4	2.23
449.606	2.23
449.812	2.25
450.017	2.23
450.223	1.98
450.428	1.88
450.634	2.04
450.84	2.2
451.045	2.15
451.251	2.09
451.456	2.35
451.662	2.35
451.867	2.34
452.073	2.32
452.278	2.5
452.483	2.53
452.689	2.45
452.894	2.51
453.1	2.54
453.305	2.47
453.51	2.37
453.716	2.3
453.921	2.28
454.127	2.24
454.332	2.15
454.537	2.06
454.742	2.12
454.948	2.11
455.153	2.16
455.358	2.24
455.563	2.44
455.769	2.55
455.974	2.41
456.179	2.34
456.384	2.38
456.589	2.26
456.795	2.04
457	2.11
457.205	2.33
457.41	2.27
457.615	2.25
457.82	2.37
458.025	2.38
458.23	2.2
458.435	2.25
458.64	2.13
458.845	2.26
459.05	2.26
459.255	2.28
459.46	2.26
459.665	2.32
