Data from Ofra_1a_PS_2CX10_Reflection_3.txt Node
Date: Tue Jul 20 10:46:44 EDT 2021
User: Adam
Spectrometer: FLMT01687
Trigger mode: 0
Integration Time (sec): 1.004000E0
Scans to average: 2
Electric dark correction enabled: true
Nonlinearity correction enabled: false
Boxcar width: 2
XAxis mode: Wavelengths
Number of Pixels in Spectrum: 3648
>>>>>Begin Spectral Data<<<<<
179.494	69.54
179.716	143.51
179.937	116.05
180.158	-106.37
180.38	122.95
180.601	-32.39
180.823	-93.72
181.044	-250.52
181.265	-372.55
181.486	257.86
181.708	-11.02
181.929	9809.09
182.15	-169.11
182.372	513.79
182.593	424.23
182.814	-431.75
183.035	-108.28
183.257	-32.16
183.478	-31.11
183.699	-5.27
183.92	-9.56
184.141	9.21
184.363	-6.84
184.584	-33.17
184.805	-42.83
185.026	6.25
185.247	-27.84
185.468	-55.1
185.689	-19.63
185.91	-27.66
186.132	-8.43
186.353	9.32
186.574	20.11
186.795	10.07
187.016	30.5
187.237	26.57
187.458	37.83
187.679	24.07
187.9	40.56
188.121	51.37
188.342	46.17
188.563	53.79
188.784	61.97
189.005	38.62
189.226	28.9
189.447	25.93
189.667	0.97
189.888	-7.12
190.109	-5.69
190.33	1.2
190.551	-10.58
190.772	14.27
190.993	7.45
191.214	-6.37
191.434	-24.95
191.655	-61.06
191.876	-40.55
192.097	4.76
192.318	23.99
192.538	-2.55
192.759	2.11
192.98	28.29
193.201	20.05
193.421	17.49
193.642	34.72
193.863	43.13
194.083	18.05
194.304	6.78
194.525	-1.75
194.745	-20.86
194.966	-8.88
195.187	-2.3
195.407	-8.98
195.628	9.49
195.848	18.61
196.069	9.8
196.29	1.01
196.51	-12.11
196.731	-20.71
196.951	-39.64
197.172	-5.15
197.392	2.6
197.613	31.59
197.833	34.11
198.054	43.42
198.274	30.08
198.495	38.14
198.715	23.19
198.936	23.67
199.156	27.36
199.377	12.14
199.597	14.92
199.817	19.06
200.038	-5.97
200.258	7.68
200.479	30.9
200.699	34.23
200.919	13.37
201.14	14.85
201.36	24.08
201.58	-0.24
201.801	-27.55
202.021	-24.01
202.241	-12.43
202.461	-7.49
202.682	10.9
202.902	3.16
203.122	-0.41
203.342	-2.98
203.563	-35
203.783	-45.71
204.003	-24.92
204.223	2.56
204.443	18.44
204.663	42.73
204.884	55.83
205.104	52.95
205.324	79.25
205.544	13.82
205.764	42.79
205.984	13.64
206.204	1.11
206.424	-34.7
206.644	-15.42
206.864	-73.19
207.084	-22.34
207.304	-33.21
207.525	-23.15
207.745	-7.33
207.964	11.85
208.184	16.55
208.404	26.28
208.624	33.59
208.844	25.95
209.064	21.11
209.284	-5.1
209.504	-20.87
209.724	-22.18
209.944	-39.58
210.164	-41.78
210.384	-40.39
210.604	-64.01
210.823	-70.1
211.043	-28.91
211.263	-86.35
211.483	-48.7
211.703	-40.38
211.922	-76.62
212.142	-60.98
212.362	-21.3
212.582	-23.23
212.801	-22.66
213.021	-12.64
213.241	-25.56
213.461	-22.41
213.68	1.35
213.9	4.75
214.12	5.69
214.339	6.6
214.559	15.89
214.779	-7.9
214.998	-13.23
215.218	-7.44
215.438	8.35
215.657	-11.83
215.877	-7.39
216.096	12.79
216.316	17.84
216.535	-0.77
216.755	22.63
216.974	12.79
217.194	-12.57
217.413	-10.39
217.633	-11.07
217.852	-17.86
218.072	-9.8
218.291	-18.65
218.511	-40.36
218.73	-51.26
218.95	-80.24
219.169	-76.08
219.389	-51.22
219.608	-26.94
219.827	-6.47
220.047	3.03
220.266	-1.31
220.485	-0.59
220.705	-15.29
220.924	-1.97
221.143	9.14
221.363	15.33
221.582	16.91
221.801	27.85
222.021	23.22
222.24	17.79
222.459	32.93
222.678	27.42
222.897	24.57
223.117	34.26
223.336	24.53
223.555	21.14
223.774	33.96
223.993	28.79
224.213	3.15
224.432	3.32
224.651	-23.48
224.87	-18.25
225.089	-4.38
225.308	13.55
225.527	7.43
225.746	19.37
225.965	5.74
226.184	-12.85
226.404	-26.36
226.623	-1.8
226.842	-3.74
227.061	13.39
227.28	28.38
227.499	24.8
227.718	17.99
227.936	28
228.155	21.26
228.374	9.81
228.593	22.89
228.812	29.12
229.031	3.82
229.25	-11.82
229.469	-8.26
229.688	-5.21
229.907	4.38
230.125	24.89
230.344	34.89
230.563	36.64
230.782	35.21
231.001	29.99
231.22	22.54
231.438	20.62
231.657	14.65
231.876	2.97
232.095	1.31
232.313	-8.64
232.532	-4.72
232.751	-16.33
232.969	-13.04
233.188	-15.87
233.407	1.86
233.625	2.82
233.844	6.23
234.063	8.58
234.281	18.05
234.5	-1.68
234.719	-2.62
234.937	-4.95
235.156	-8.66
235.374	-25.39
235.593	1.29
235.811	15.74
236.03	9.77
236.249	15.69
236.467	8.13
236.686	-12.22
236.904	-6.77
237.123	-1.11
237.341	-8.88
237.559	3.05
237.778	39.28
237.996	4.69
238.215	-5.97
238.433	-21.18
238.652	5.77
238.87	-18.26
239.088	10.83
239.307	8.1
239.525	16.57
239.743	2.83
239.962	-1.85
240.18	1.84
240.398	4.71
240.617	-16.37
240.835	-15.2
241.053	-5.95
241.271	-11.91
241.49	-1.2
241.708	7.23
241.926	3.56
242.144	-0.22
242.363	3.58
242.581	-67.69
242.799	-77.62
243.017	-38.45
243.235	-13.05
243.453	-45.49
243.672	-12.01
243.89	-10.44
244.108	0.94
244.326	10.2
244.544	36.2
244.762	25.96
244.98	32.67
245.198	28.82
245.416	14.9
245.634	-2.19
245.852	-3.68
246.07	1.36
246.288	-2.95
246.506	4
246.724	23.53
246.942	37.19
247.16	38.64
247.378	50.53
247.596	75.57
247.814	25.64
248.032	2.05
248.25	0.53
248.468	11.43
248.685	5.06
248.903	19.15
249.121	23.97
249.339	22.68
249.557	28.01
249.775	38.68
249.992	24.56
250.21	15.47
250.428	32.6
250.646	35.33
250.863	9.35
251.081	26.42
251.299	32.51
251.517	18.94
251.734	12.23
251.952	25.59
252.17	7.21
252.387	-8.33
252.605	-9.91
252.823	-45.28
253.04	-18.56
253.258	14.41
253.475	19.33
253.693	14.33
253.911	22.17
254.128	-0.52
254.346	-8.17
254.563	12.53
254.781	15.35
254.998	12.92
255.216	2.1
255.433	-24.25
255.651	-22.28
255.868	-22.71
256.086	-15.83
256.303	-6.96
256.521	13.12
256.738	7.83
256.956	5.42
257.173	4.84
257.39	15.32
257.608	0.17
257.825	7.32
258.043	10.95
258.26	3.3
258.477	1.13
258.695	10.81
258.912	-8.19
259.129	-24.61
259.346	-20.43
259.564	-17.07
259.781	-37.32
259.998	2.87
260.216	19.87
260.433	16.21
260.65	14.85
260.867	27.22
261.084	11.49
261.302	-2.07
261.519	16.38
261.736	14.39
261.953	24.97
262.17	35.23
262.387	37.16
262.604	36.85
262.822	42.72
263.039	42.61
263.256	32.78
263.473	31.35
263.69	31.29
263.907	25.05
264.124	32.2
264.341	39.65
264.558	34.39
264.775	42.12
264.992	28.13
265.209	-7.06
265.426	-31.93
265.643	-24.04
265.86	-72.48
266.077	-40.76
266.294	-17.92
266.51	17.22
266.727	28.22
266.944	39.83
267.161	34.59
267.378	36.52
267.595	12.75
267.812	-5.6
268.028	-29.56
268.245	-18.83
268.462	-10.59
268.679	0.02
268.896	25.58
269.112	20.01
269.329	6.49
269.546	26.61
269.763	38.08
269.979	32.4
270.196	48
270.413	42.84
270.629	12.9
270.846	4.09
271.063	3.56
271.279	-2.41
271.496	-9.18
271.712	4.79
271.929	5.88
272.146	-13.3
272.362	-19.28
272.579	-24.74
272.795	-35.18
273.012	-24.59
273.228	-12.56
273.445	0.73
273.661	19.41
273.878	11.44
274.094	-2.03
274.311	7.1
274.527	-8.71
274.744	11.31
274.96	21.94
275.177	19.98
275.393	16.84
275.609	21.74
275.826	4.31
276.042	-7.24
276.259	2.15
276.475	-11.52
276.691	-14.54
276.908	-6.43
277.124	5.93
277.34	16.61
277.557	22.98
277.773	40.7
277.989	33.2
278.205	32.59
278.422	2.18
278.638	4.53
278.854	-9.8
279.07	0.17
279.286	-7.74
279.503	0.16
279.719	-2.48
279.935	2.94
280.151	-2.78
280.367	-1.83
280.583	3.18
280.799	-8.47
281.016	-42.14
281.232	-24.77
281.448	-21.45
281.664	-17.73
281.88	2.86
282.096	16.76
282.312	8.32
282.528	6.51
282.744	4.52
282.96	-6.74
283.176	-19.77
283.392	-60.36
283.608	-55.24
283.824	-74.03
284.04	-117.11
284.256	-73.52
284.471	-27.18
284.687	-22.39
284.903	-12.98
285.119	17.63
285.335	26.49
285.551	20.9
285.767	31.11
285.982	23.09
286.198	-27.29
286.414	-42.26
286.63	-57.54
286.846	-73.51
287.061	-60.48
287.277	-52.98
287.493	-43.43
287.709	-42.68
287.924	-15.96
288.14	0.19
288.356	14.09
288.571	20.36
288.787	8.28
289.003	12.97
289.218	2.25
289.434	-4.44
289.65	-0.15
289.865	4.37
290.081	2.07
290.296	13.84
290.512	22.12
290.727	2.94
290.943	7.85
291.159	4.29
291.374	-18.72
291.59	-13.5
291.805	-11
292.021	-10.1
292.236	-25.35
292.451	-11.3
292.667	-17.94
292.882	2.69
293.098	9.64
293.313	16.84
293.529	18.86
293.744	20.38
293.959	21.06
294.175	39.56
294.39	35.53
294.605	39.98
294.821	33.39
295.036	17.89
295.251	3.48
295.467	-6.58
295.682	-11.44
295.897	-19.46
296.112	-15.68
296.328	-12.63
296.543	-9.33
296.758	-12.14
296.973	-8.46
297.188	-20.7
297.404	-56.09
297.619	-68.77
297.834	-92.03
298.049	-70.28
298.264	-38.06
298.479	-15.79
298.694	14.96
298.909	17.48
299.125	12.31
299.34	12.12
299.555	7.23
299.77	20.82
299.985	24.41
300.2	24.6
300.415	24.49
300.63	23.8
300.845	17.75
301.06	25.34
301.275	28.18
301.49	36.85
301.704	33.1
301.919	20.61
302.134	14.27
302.349	6
302.564	8.37
302.779	3.29
302.994	18.37
303.209	23.38
303.423	31.93
303.638	18.72
303.853	9.57
304.068	-22.48
304.283	-23.42
304.497	-37.88
304.712	-26.28
304.927	-15.26
305.142	4.68
305.356	2.65
305.571	3.02
305.786	0.92
306	15.44
306.215	-0.96
306.43	-7.63
306.644	-12.69
306.859	-24.32
307.074	-8.86
307.288	-6.22
307.503	16.13
307.717	12.05
307.932	28.58
308.147	18.42
308.361	25.82
308.576	12.9
308.79	26.1
309.005	21.9
309.219	35.16
309.434	43.93
309.648	33.62
309.863	16.3
310.077	14.43
310.292	14.78
310.506	-3.76
310.72	-7.87
310.935	24.06
311.149	16.97
311.364	8.77
311.578	16.59
311.792	35.3
312.007	40.35
312.221	31.3
312.435	25.25
312.649	31.8
312.864	21.26
313.078	13.39
313.292	32.55
313.507	40.99
313.721	31.89
313.935	35.26
314.149	26.68
314.363	-4.12
314.578	-9.75
314.792	-43.95
315.006	-42.53
315.22	-22.12
315.434	-11.33
315.648	-27.14
315.862	-5.24
316.077	-12.46
316.291	-16
316.505	-22.3
316.719	4.45
316.933	-5.38
317.147	6.61
317.361	1.62
317.575	0.17
317.789	0.01
318.003	4.54
318.217	14.37
318.431	18.33
318.645	29.83
318.859	30.73
319.073	27.79
319.287	16.91
319.5	10.06
319.714	1.89
319.928	-1.45
320.142	0.41
320.356	13.8
320.57	4.55
320.784	6.51
320.997	-14.33
321.211	-7.84
321.425	-43.15
321.639	-4.1
321.853	-4.34
322.066	1.44
322.28	-6.96
322.494	-0.12
322.707	-14.67
322.921	-11.39
323.135	1.97
323.349	-4.82
323.562	8.71
323.776	6.78
323.989	10.08
324.203	-9.34
324.417	-12.07
324.63	-32.01
324.844	-30.49
325.057	-45.22
325.271	-28.64
325.485	-16.61
325.698	-2.2
325.912	20.95
326.125	8.21
326.339	25.77
326.552	25.84
326.766	25.36
326.979	7.38
327.193	32.43
327.406	9.84
327.619	20.11
327.833	14.72
328.046	18.03
328.26	1.84
328.473	1.51
328.686	-3.7
328.9	10.1
329.113	-1.5
329.326	-13.79
329.54	5.48
329.753	15.46
329.966	13.4
330.179	22.44
330.393	40.21
330.606	24.91
330.819	13.44
331.032	6.59
331.246	10.79
331.459	16.12
331.672	17.86
331.885	16.16
332.098	32.35
332.311	12.43
332.525	11.22
332.738	12.64
332.951	10.28
333.164	7.26
333.377	20.64
333.59	10.47
333.803	22.89
334.016	22.99
334.229	15.9
334.442	5.54
334.655	14.47
334.868	3.26
335.081	7.79
335.294	4.71
335.507	12.41
335.72	12
335.933	13.08
336.146	7.68
336.359	19.93
336.572	22.01
336.785	15.45
336.997	9.78
337.21	22.94
337.423	-1.27
337.636	-7.31
337.849	-17.03
338.062	-12.03
338.274	-4.4
338.487	-14.03
338.7	-27.37
338.913	-6.52
339.125	-4
339.338	-24.26
339.551	-13.43
339.763	-4.72
339.976	-2.35
340.189	-4.22
340.402	5.21
340.614	16.97
340.827	27.13
341.039	21.35
341.252	31.73
341.465	22.11
341.677	32.19
341.89	11.34
342.102	17.98
342.315	8.85
342.527	9.19
342.74	-17.42
342.952	-5.41
343.165	-15.31
343.377	-3.52
343.59	3.07
343.802	11.58
344.015	9.41
344.227	15.13
344.44	0.16
344.652	-8.56
344.864	-3.59
345.077	5.35
345.289	18.07
345.502	27.61
345.714	39.56
345.926	29.35
346.139	5.16
346.351	-8.46
346.563	-5.95
346.775	-18.79
346.988	2.99
347.2	14.46
347.412	15.24
347.624	18
347.837	25.62
348.049	27.24
348.261	12.92
348.473	8.11
348.685	-1.13
348.897	-11.4
349.11	-14.79
349.322	4.28
349.534	-0.8
349.746	4.66
349.958	-7.78
350.17	-18.41
350.382	-3.59
350.594	11.39
350.806	24.63
351.018	39.41
351.23	44.29
351.442	33.09
351.654	23.4
351.866	8.78
352.078	2.89
352.29	-1.78
352.502	14.79
352.714	24.49
352.926	28.67
353.138	31.68
353.35	18.84
353.561	-1.8
353.773	-8.8
353.985	-6.66
354.197	-5.16
354.409	6.88
354.621	-1.72
354.832	7.14
355.044	-5.87
355.256	-4.75
355.468	-33.72
355.679	7.39
355.891	5.94
356.103	14.11
356.314	8.2
356.526	12.98
356.738	-9.39
356.949	-6.85
357.161	2.23
357.373	5.33
357.584	14.48
357.796	18.99
358.008	11.8
358.219	3.39
358.431	3.77
358.642	-0.66
358.854	2.64
359.065	2.72
359.277	-5.78
359.488	-4.24
359.7	-2.11
359.911	-16.14
360.123	-1.4
360.334	-2.93
360.546	-17.82
360.757	-9.99
360.969	3.95
361.18	-6.87
361.391	4.84
361.603	13.27
361.814	12.21
362.025	15.04
362.237	22.89
362.448	25.71
362.659	24.78
362.871	6.17
363.082	-7.06
363.293	-22.91
363.504	-57.29
363.716	-52.9
363.927	-4.29
364.138	-10.68
364.349	-17.01
364.56	-7.35
364.772	6.07
364.983	-12.2
365.194	-1.01
365.405	-2.51
365.616	16.8
365.827	-4.69
366.038	-3.41
366.25	-7.25
366.461	0.89
366.672	-5.64
366.883	-4.54
367.094	-16.9
367.305	-29.22
367.516	-22.68
367.727	-42.36
367.938	-39.07
368.149	-41.16
368.36	-36.83
368.571	-51.83
368.781	-44.32
368.992	-37.59
369.203	-25.36
369.414	-20.2
369.625	-15.58
369.836	20.57
370.047	26.49
370.258	31.03
370.468	20.17
370.679	20.62
370.89	-8.41
371.101	17.35
371.312	16.85
371.522	26.41
371.733	11.29
371.944	7.68
372.155	-7.58
372.365	-6.49
372.576	-15.45
372.787	6.71
372.997	1.78
373.208	-8.73
373.419	-21.69
373.629	-10.85
373.84	-42.69
374.05	-39.32
374.261	-53.85
374.472	-34.69
374.682	-25.89
374.893	-5.35
375.103	-2.26
375.314	3.5
375.524	-2.2
375.735	-11.67
375.945	-5.31
376.156	-6.08
376.366	-4.98
376.577	-7.51
376.787	-4.21
376.997	-2.99
377.208	2.73
377.418	1.73
377.629	6.25
377.839	11.45
378.049	11.03
378.26	9
378.47	10.63
378.68	8.91
378.89	4.54
379.101	4.42
379.311	-1.16
379.521	-5.84
379.732	-5.89
379.942	-3.19
380.152	-5.78
380.362	2.67
380.572	17.11
380.783	25.69
380.993	18.45
381.203	21.59
381.413	26.4
381.623	20.75
381.833	17.91
382.043	19.56
382.253	15.93
382.463	12.98
382.674	14.85
382.884	17.78
383.094	15.44
383.304	14.59
383.514	9.66
383.724	5.8
383.934	-7.16
384.144	-3.8
384.353	-2.42
384.563	1.41
384.773	6.03
384.983	12.14
385.193	11.48
385.403	7.45
385.613	9.79
385.823	5.91
386.033	4.06
386.242	0.28
386.452	-5.13
386.662	-6.83
386.872	-3.31
387.082	-5.69
387.291	-3.07
387.501	1.98
387.711	3.12
387.921	1.86
388.13	6.92
388.34	7.47
388.55	7.35
388.759	0.48
388.969	-1.94
389.179	-1.17
389.388	-3.34
389.598	-7.39
389.807	-6.73
390.017	-5.88
390.227	-10.97
390.436	-5.21
390.646	-1.91
390.855	0.44
391.065	3.91
391.274	4.68
391.484	-0.64
391.693	-0.27
391.903	-1.54
392.112	-3.32
392.322	-2.35
392.531	0
392.74	-1.4
392.95	-0.87
393.159	0.95
393.369	0.3
393.578	1.52
393.787	2.11
393.997	3.4
394.206	1.11
394.415	1.67
394.625	1.21
394.834	-0.24
395.043	0.03
395.252	3.38
395.462	4.09
395.671	3.12
395.88	4.54
396.089	3.73
396.298	2.55
396.508	2.15
396.717	2.23
396.926	1.83
397.135	1.97
397.344	1.14
397.553	0.27
397.762	1.68
397.971	1.41
398.181	0.97
398.39	0.72
398.599	1.52
398.808	0.87
399.017	2.16
399.226	2.65
399.435	2.93
399.644	3.3
399.853	3.61
400.062	3.19
400.27	3.18
400.479	3.01
400.688	2.83
400.897	2.49
401.106	2.57
401.315	2.62
401.524	3
401.733	2.85
401.941	3.22
402.15	3.06
402.359	2.97
402.568	3.04
402.777	3.28
402.985	2.85
403.194	2.78
403.403	2.85
403.612	2.55
403.82	2.23
404.029	2.38
404.238	2.38
404.446	2.47
404.655	2.53
404.864	2.96
405.072	2.9
405.281	2.95
405.489	2.92
405.698	2.96
405.906	2.85
406.115	2.82
406.324	2.8
406.532	2.89
406.741	2.92
406.949	2.81
407.158	3.05
407.366	3.04
407.574	3.04
407.783	2.94
407.991	2.86
408.2	2.86
408.408	2.85
408.617	2.68
408.825	2.62
409.033	2.63
409.242	2.65
409.45	2.66
409.658	2.69
409.867	2.87
410.075	2.9
410.283	2.79
410.491	2.65
410.7	2.54
410.908	2.58
411.116	2.72
411.324	2.68
411.533	2.77
411.741	2.76
411.949	2.67
412.157	2.42
412.365	2.47
412.573	2.49
412.781	2.47
412.99	2.43
413.198	2.54
413.406	2.68
413.614	2.71
413.822	2.92
414.03	2.99
414.238	2.96
414.446	2.92
414.654	2.77
414.862	2.67
415.07	2.58
415.278	2.57
415.486	2.35
415.694	2.42
415.902	2.4
416.109	2.42
416.317	2.44
416.525	2.4
416.733	2.38
416.941	2.47
417.149	2.3
417.357	2.35
417.564	2.4
417.772	2.51
417.98	2.44
418.188	2.47
418.395	2.26
418.603	2.2
418.811	2.05
419.019	1.94
419.226	2.1
419.434	2.22
419.642	2.14
419.849	2.12
420.057	2.17
420.265	2.12
420.472	2.22
420.68	2.31
420.887	2.3
421.095	2.33
421.302	2.3
421.51	2.07
421.717	2.07
421.925	2.27
422.132	2.21
422.34	2.05
422.547	2.09
422.755	2.13
422.962	1.96
423.17	1.83
423.377	1.93
423.585	2.11
423.792	2.22
423.999	2.27
424.207	2.2
424.414	2.11
424.621	2.05
424.829	1.95
425.036	1.94
425.243	2.13
425.451	2.23
425.658	2.03
425.865	1.93
426.072	1.86
426.28	1.85
426.487	1.9
426.694	1.97
426.901	1.95
427.108	1.88
427.315	1.96
427.523	1.84
427.73	1.95
427.937	1.96
428.144	2.04
428.351	1.9
428.558	2.07
428.765	1.95
428.972	2.1
429.179	2.04
429.386	2.18
429.593	2.04
429.8	2.15
430.007	1.97
430.214	2.11
430.421	2.25
430.628	2.32
430.835	2.32
431.042	2.39
431.249	2.32
431.456	2.12
431.662	2.23
431.869	2.3
432.076	2.24
432.283	2.39
432.49	2.41
432.697	2.29
432.903	2.17
433.11	2.42
433.317	2.39
433.524	2.44
433.73	2.44
433.937	2.56
434.144	2.37
434.35	2.23
434.557	2.25
434.764	2.32
434.97	2.16
435.177	2.31
435.384	2.41
435.59	2.39
435.797	2.46
436.003	2.57
436.21	2.46
436.416	2.52
436.623	2.57
436.829	2.5
437.036	2.49
437.242	2.6
437.449	2.52
437.655	2.55
437.862	2.54
438.068	2.63
438.275	2.7
438.481	2.72
438.687	2.65
438.894	2.84
439.1	2.72
439.307	2.74
439.513	2.8
439.719	2.84
439.926	2.74
440.132	2.86
440.338	2.85
440.544	2.89
440.751	2.87
440.957	2.94
441.163	2.78
441.369	2.73
441.575	2.6
441.782	2.7
441.988	2.65
442.194	2.79
442.4	2.76
442.606	3.04
442.812	3.02
443.018	3.05
443.224	3.1
443.431	3.13
443.637	2.93
443.843	2.96
444.049	3
444.255	3.03
444.461	2.95
444.667	3.03
444.873	2.92
445.079	2.85
445.284	2.82
445.49	2.87
445.696	2.76
445.902	2.85
446.108	2.9
446.314	2.81
446.52	2.97
446.726	3.18
446.931	3.05
447.137	3.09
447.343	3.19
447.549	3.05
447.755	2.98
447.96	3.12
448.166	3.09
448.372	3.08
448.578	3.04
448.783	3
448.989	3.02
449.195	3.03
449.4	3.08
449.606	3.18
449.812	3.11
450.017	3.11
450.223	3.04
450.428	2.97
450.634	2.93
450.84	3.04
451.045	3.01
451.251	3.13
451.456	3.17
451.662	3.23
451.867	3.25
452.073	3.27
452.278	3.22
452.483	3.25
452.689	3.28
452.894	3.4
453.1	3.38
453.305	3.45
453.51	3.45
453.716	3.34
453.921	3.27
454.127	3.27
454.332	3.21
454.537	3.25
454.742	3.3
454.948	3.33
455.153	3.4
455.358	3.46
455.563	3.45
455.769	3.52
455.974	3.43
456.179	3.33
456.384	3.27
456.589	3.22
456.795	3.17
457	3.21
457.205	3.17
457.41	3.09
457.615	3.02
457.82	3.13
458.025	3.12
458.23	3.22
458.435	3.34
458.64	3.44
458.845	3.39
459.05	3.47
459.255	3.48
459.46	3.51
459.665	3.47
459.87	3.43
460.075	3.43
460.28	3.47
460.485	3.48
460.69	3.48
460.895	3.5
461.099	3.38
461.304	3.26
461.509	3.26
461.714	3.36
461.919	3.3
462.123	3.34
462.328	3.29
462.533	3.13
462.738	3.02
462.942	3.08
463.147	3.09
463.352	3.29
463.556	3.42
463.761	3.41
463.966	3.42
464.17	3.55
464.375	3.51
464.58	3.48
464.784	3.6
464.989	3.64
465.193	3.58
465.398	3.59
465.602	3.73
465.807	3.69
466.011	3.69
466.216	3.71
466.42	3.8
466.625	3.78
466.829	3.74
467.034	3.85
467.238	3.9
467.443	3.83
