Data from Ofra_PS_T2_2A_2GT07_Reflection_2.txt Node
Date: Wed Jul 21 17:06:18 EDT 2021
User: Adam
Spectrometer: FLMT01687
Trigger mode: 0
Integration Time (sec): 1.100000E0
Scans to average: 2
Electric dark correction enabled: true
Nonlinearity correction enabled: false
Boxcar width: 2
XAxis mode: Wavelengths
Number of Pixels in Spectrum: 3648
>>>>>Begin Spectral Data<<<<<
179.494	480.6
179.716	539.29
179.937	461.64
180.158	395.44
180.38	532.97
180.601	106.49
180.823	31.65
181.044	-23.82
181.265	285.11
181.486	93.5
181.708	91.63
181.929	497.45
182.15	-284.15
182.372	167.99
182.593	39.46
182.814	16.39
183.035	64.04
183.257	67.82
183.478	7.5
183.699	93.3
183.92	75.22
184.141	83.73
184.363	73.51
184.584	93.51
184.805	67.68
185.026	94.54
185.247	86.76
185.468	49.67
185.689	40.68
185.91	53.08
186.132	41.84
186.353	29.4
186.574	87.09
186.795	83.47
187.016	49.32
187.237	55.72
187.458	83.75
187.679	69.5
187.9	69
188.121	51.37
188.342	83.01
188.563	77.56
188.784	98.57
189.005	119.39
189.226	185.75
189.447	154.19
189.667	210.8
189.888	36.58
190.109	-433.44
190.33	-292.74
190.551	-621.9
190.772	-54.66
190.993	-0.89
191.214	-23.09
191.434	-19.78
191.655	34.51
191.876	-5.99
192.097	-66.22
192.318	-75.15
192.538	-94.35
192.759	-77.17
192.98	-13.25
193.201	26.02
193.421	49.51
193.642	46.4
193.863	68.43
194.083	39.55
194.304	42.89
194.525	32.29
194.745	50.62
194.966	5.94
195.187	18.85
195.407	22.4
195.628	-20.94
195.848	-43.06
196.069	-46.98
196.29	10.76
196.51	-13.43
196.731	-6.99
196.951	3.56
197.172	-1.93
197.392	-45.77
197.613	-45.06
197.833	-63.54
198.054	-65.42
198.274	-15.86
198.495	-20.32
198.715	-4.64
198.936	-14.68
199.156	5.81
199.377	-70.26
199.597	-78.82
199.817	-75.35
200.038	-0.36
200.258	-39.44
200.479	65.85
200.699	108.52
200.919	116.27
201.14	95.87
201.36	68.96
201.58	60.15
201.801	84.32
202.021	61.85
202.241	49.08
202.461	43.14
202.682	-45.18
202.902	-124.57
203.122	-66.61
203.342	-25.63
203.563	37.65
203.783	75.57
204.003	81.58
204.223	72.2
204.443	90.29
204.663	70.68
204.884	65.64
205.104	85.64
205.324	108.24
205.544	87.67
205.764	90.7
205.984	83.97
206.204	93.16
206.424	89.59
206.644	82.36
206.864	73.09
207.084	92.47
207.304	120.58
207.525	108.52
207.745	77.53
207.964	81.12
208.184	28.92
208.404	-22.84
208.624	-25.09
208.844	5.66
209.064	-181.28
209.284	-199.94
209.504	-63.18
209.724	2.52
209.944	-14.22
210.164	27.06
210.384	46.24
210.604	56.45
210.823	32.34
211.043	11.09
211.263	19.87
211.483	7.35
211.703	-46.26
211.922	-22.34
212.142	31.59
212.362	37.31
212.582	25.53
212.801	33.38
213.021	19.19
213.241	20.48
213.461	-14.75
213.68	-3.49
213.9	11.69
214.12	33.13
214.339	-28.71
214.559	-8.66
214.779	18.4
214.998	12.51
215.218	-15.52
215.438	36.06
215.657	58.16
215.877	57.53
216.096	65.41
216.316	68.68
216.535	49.86
216.755	39.06
216.974	-14.04
217.194	-65.13
217.413	-53.83
217.633	-47.32
217.852	-122.79
218.072	-55.19
218.291	2.9
218.511	28.33
218.73	19.28
218.95	17.62
219.169	19.43
219.389	-26.34
219.608	-24.12
219.827	-22.52
220.047	-19.28
220.266	1.89
220.485	28.17
220.705	40.89
220.924	32.85
221.143	51.94
221.363	34.37
221.582	27.18
221.801	30.24
222.021	40.69
222.24	13.3
222.459	64.41
222.678	58.83
222.897	47.82
223.117	25.43
223.336	28.84
223.555	36.87
223.774	67.25
223.993	84.14
224.213	119.33
224.432	103.36
224.651	106.92
224.87	78.89
225.089	78.7
225.308	53.58
225.527	64.18
225.746	58.11
225.965	42.89
226.184	30.36
226.404	43.47
226.623	19.28
226.842	24.3
227.061	54.68
227.28	53.03
227.499	52.85
227.718	67.25
227.936	59.65
228.155	62.57
228.374	55.23
228.593	65.98
228.812	61.43
229.031	52.39
229.25	14.18
229.469	26.37
229.688	26.38
229.907	45.64
230.125	69.58
230.344	82.59
230.563	88.77
230.782	87.19
231.001	36.26
231.22	21.64
231.438	49.54
231.657	32.12
231.876	29.87
232.095	78.21
232.313	88.1
232.532	81.24
232.751	61.29
232.969	40.14
233.188	-7.14
233.407	49.8
233.625	27.11
233.844	16.57
234.063	27.58
234.281	49.05
234.5	35.46
234.719	50.65
234.937	83.42
235.156	84.45
235.374	66.72
235.593	56.34
235.811	65.29
236.03	38.06
236.249	21.88
236.467	41.42
236.686	41.83
236.904	30.09
237.123	14.7
237.341	19.01
237.559	26.41
237.778	12.49
237.996	12.6
238.215	40.44
238.433	53.56
238.652	60.95
238.87	40.91
239.088	48.17
239.307	42.44
239.525	31.14
239.743	-2.44
239.962	20.88
240.18	6.76
240.398	-9.07
240.617	-9.35
240.835	9.85
241.053	57.13
241.271	78.62
241.49	75.65
241.708	59.61
241.926	56.13
242.144	16.81
242.363	-14.99
242.581	-66.71
242.799	-16.84
243.017	10.58
243.235	-0.25
243.453	16.69
243.672	28.62
243.89	28.18
244.108	25.06
244.326	53.54
244.544	55.84
244.762	71.63
244.98	67.94
245.198	62.02
245.416	37.72
245.634	38.52
245.852	22.02
246.07	44.02
246.288	44.92
246.506	1.49
246.724	24.15
246.942	51.46
247.16	57.6
247.378	59.99
247.596	96.89
247.814	94.73
248.032	56.14
248.25	42.99
248.468	55.14
248.685	60.74
248.903	76.87
249.121	94.03
249.339	71.75
249.557	56.96
249.775	45.52
249.992	-23.4
250.21	-35.1
250.428	-10.59
250.646	-25.53
250.863	-36.65
251.081	4.67
251.299	30.25
251.517	38.45
251.734	41.85
251.952	36.43
252.17	35.48
252.387	36.56
252.605	23.23
252.823	27.34
253.04	47.74
253.258	61.58
253.475	71.33
253.693	99.21
253.911	88.46
254.128	76.1
254.346	61.05
254.563	34.84
254.781	6.83
254.998	-1.04
255.216	14.61
255.433	38.6
255.651	82.97
255.868	123.26
256.086	120.54
256.303	99.56
256.521	76.55
256.738	51.84
256.956	9.2
257.173	-6.97
257.39	-12.56
257.608	-25.93
257.825	46.57
258.043	112.5
258.26	102.29
258.477	141.39
258.695	143.32
258.912	77.88
259.129	60.56
259.346	37.08
259.564	-10.31
259.781	-9.3
259.998	38.16
260.216	48.37
260.433	85.44
260.65	87.01
260.867	83.34
261.084	63.9
261.302	50.09
261.519	31.18
261.736	5.64
261.953	-7.26
262.17	8.83
262.387	0.47
262.604	-14.29
262.822	-10.16
263.039	-10.12
263.256	6.22
263.473	19.78
263.69	27.8
263.907	51.38
264.124	74.42
264.341	68.15
264.558	54.02
264.775	70.87
264.992	68.29
265.209	48.8
265.426	64.53
265.643	71.4
265.86	80.3
266.077	84.47
266.294	104.81
266.51	67.44
266.727	30.4
266.944	24.72
267.161	16.08
267.378	21.49
267.595	41.66
267.812	29.86
268.028	16.83
268.245	42.87
268.462	10.84
268.679	4.22
268.896	56.81
269.112	64.89
269.329	53.93
269.546	59.9
269.763	58.56
269.979	56.67
270.196	33.88
270.413	11.77
270.629	-0.9
270.846	-14.82
271.063	-5.79
271.279	-3.66
271.496	8.71
271.712	41
271.929	76.96
272.146	61.69
272.362	88.57
272.579	97.03
272.795	98.89
273.012	82.47
273.228	76.92
273.445	57.63
273.661	51.72
273.878	9.06
274.094	1.82
274.311	-6.37
274.527	24.63
274.744	27.54
274.96	12.48
275.177	17.29
275.393	34.9
275.609	48.4
275.826	63.64
276.042	78.26
276.259	79.22
276.475	78.6
276.691	74.04
276.908	47.17
277.124	58.9
277.34	58.2
277.557	37.5
277.773	12.13
277.989	8.39
278.205	-14.85
278.422	11.01
278.638	24.39
278.854	44.16
279.07	50.28
279.286	66.53
279.503	42.06
279.719	21.55
279.935	1.72
280.151	5.81
280.367	17.53
280.583	16.38
280.799	13.69
281.016	6.59
281.232	31.94
281.448	23.31
281.664	36.23
281.88	41.82
282.096	48.24
282.312	56.42
282.528	102.24
282.744	134.33
282.96	113.12
283.176	97.16
283.392	82.37
283.608	64.09
283.824	39.13
284.04	37.65
284.256	47.64
284.471	35.8
284.687	26.67
284.903	72.92
285.119	111.29
285.335	86.83
285.551	120.45
285.767	118.79
285.982	84.22
286.198	34.52
286.414	64.44
286.63	52.07
286.846	58.05
287.061	37.87
287.277	58.98
287.493	38.94
287.709	57.24
287.924	40.38
288.14	78.4
288.356	84.66
288.571	97.4
288.787	75.51
289.003	68.99
289.218	41.7
289.434	4.15
289.65	2.31
289.865	14.42
290.081	53.99
290.296	75.75
290.512	87.84
290.727	55.93
290.943	37.63
291.159	23.45
291.374	30.55
291.59	22.86
291.805	29.94
292.021	41.31
292.236	41.73
292.451	40.11
292.667	54.24
292.882	85.36
293.098	91.19
293.313	87.02
293.529	54.3
293.744	41.76
293.959	8.45
294.175	-2.44
294.39	14.42
294.605	34.38
294.821	39.29
295.036	43.34
295.251	55.86
295.467	61.24
295.682	50.82
295.897	44.47
296.112	29.48
296.328	40.31
296.543	18.29
296.758	41.43
296.973	60.34
297.188	68.29
297.404	40.98
297.619	42.33
297.834	24.7
298.049	6.42
298.264	-11.48
298.479	24.79
298.694	24.18
298.909	35.27
299.125	39.39
299.34	56.46
299.555	49.37
299.77	89.56
299.985	48.47
300.2	27.44
300.415	-6.33
300.63	7.14
300.845	-23.82
301.06	-15.82
301.275	-0.76
301.49	16.1
301.704	16.5
301.919	3.22
302.134	-2.87
302.349	-3.24
302.564	-37.68
302.779	-33.1
302.994	23.86
303.209	54.22
303.423	90.71
303.638	114.38
303.853	79
304.068	69.63
304.283	51.23
304.497	40.16
304.712	21.16
304.927	28.22
305.142	15.38
305.356	19.01
305.571	12.43
305.786	12.92
306	1.31
306.215	21.69
306.43	21.97
306.644	57.97
306.859	91.73
307.074	86.18
307.288	54.83
307.503	70.66
307.717	32.99
307.932	18.58
308.147	2.76
308.361	27.41
308.576	12.84
308.79	-0.89
309.005	4.23
309.219	12.37
309.434	7.96
309.648	11.91
309.863	27.49
310.077	31.84
310.292	50.44
310.506	35.04
310.72	40.89
310.935	45.89
311.149	40.59
311.364	54.51
311.578	68.74
311.792	58.92
312.007	50.52
312.221	38.76
312.435	26.02
312.649	12.34
312.864	57.94
313.078	83.3
313.292	144.02
313.507	148.31
313.721	179.82
313.935	76.49
314.149	75.67
314.363	60.34
314.578	65.67
314.792	68.05
315.006	52.94
315.22	55.94
315.434	48.99
315.648	45.73
315.862	53.47
316.077	54.94
316.291	33.65
316.505	52.28
316.719	60.7
316.933	14.35
317.147	25.23
317.361	-5.83
317.575	-25.76
317.789	-38.2
318.003	-62.77
318.217	-47.82
318.431	21.11
318.645	46.69
318.859	32.28
319.073	56.91
319.287	52.64
319.5	36.11
319.714	6.52
319.928	27.98
320.142	-1.53
320.356	63.99
320.57	82.34
320.784	102.51
320.997	74.49
321.211	94.85
321.425	20.49
321.639	0.46
321.853	30.45
322.066	39.14
322.28	29.32
322.494	39.04
322.707	54.58
322.921	42.74
323.135	36.93
323.349	45.71
323.562	31.73
323.776	32.99
323.989	39.91
324.203	26.5
324.417	28.57
324.63	17.08
324.844	4.55
325.057	-1.94
325.271	26.91
325.485	40.24
325.698	71.49
325.912	66.66
326.125	60.34
326.339	51.43
326.552	29.14
326.766	18.13
326.979	54.15
327.193	70.06
327.406	66.78
327.619	61.27
327.833	73.15
328.046	44.12
328.26	15.75
328.473	35.23
328.686	27.34
328.9	25.88
329.113	43.78
329.326	40.91
329.54	30.63
329.753	19.18
329.966	4.57
330.179	-9.59
330.393	12.83
330.606	23.85
330.819	43.64
331.032	55.08
331.246	61.11
331.459	78.56
331.672	76.74
331.885	63.35
332.098	26.72
332.311	17.07
332.525	-32.12
332.738	-21.8
332.951	24.36
333.164	59.99
333.377	65.39
333.59	81.29
333.803	77.88
334.016	65.72
334.229	73.55
334.442	73.59
334.655	98.73
334.868	110.91
335.081	84.04
335.294	60.79
335.507	58
335.72	48.28
335.933	26.42
336.146	30.96
336.359	35.37
336.572	23.95
336.785	-25.17
336.997	-9.15
337.21	25.2
337.423	21.92
337.636	17.01
337.849	40.88
338.062	37.71
338.274	23.96
338.487	25.11
338.7	39.01
338.913	22.11
339.125	4.04
339.338	-27.35
339.551	-0.35
339.763	6.09
339.976	20.43
340.189	49.08
340.402	76.85
340.614	45.75
340.827	42.63
341.039	36.89
341.252	31.43
341.465	22.54
341.677	34.11
341.89	16.52
342.102	39.39
342.315	22.4
342.527	28.27
342.74	24.66
342.952	33.37
343.165	23.62
343.377	37.34
343.59	37.52
343.802	47.72
344.015	58.3
344.227	70.99
344.44	61.53
344.652	53.15
344.864	44.09
345.077	51.57
345.289	48.47
345.502	59.85
345.714	48.64
345.926	54.9
346.139	48.28
346.351	64.03
346.563	55.68
346.775	65.89
346.988	51.03
347.2	45.48
347.412	0.51
347.624	-12.74
347.837	-26.88
348.049	1.6
348.261	29.27
348.473	34.43
348.685	31.76
348.897	27.72
349.11	7.67
349.322	13.09
349.534	28.4
349.746	34.76
349.958	51.09
350.17	70.54
350.382	51.37
350.594	49.03
350.806	44.45
351.018	38.61
351.23	30.01
351.442	-5.65
351.654	12.58
351.866	32.54
352.078	25.68
352.29	34.66
352.502	49.64
352.714	44.42
352.926	36.99
353.138	38.37
353.35	29.3
353.561	16.75
353.773	1.42
353.985	10.48
354.197	8.95
354.409	11.02
354.621	20.15
354.832	30.28
355.044	25.74
355.256	27.29
355.468	28.82
355.679	28.05
355.891	29.65
356.103	14.3
356.314	20.85
356.526	21.16
356.738	28.13
356.949	26.74
357.161	53.63
357.373	41.85
357.584	41.77
357.796	46.95
358.008	42.62
358.219	53.5
358.431	49.45
358.642	58.41
358.854	51.26
359.065	39.06
359.277	7.46
359.488	1.13
359.7	-14.75
359.911	-27.75
360.123	6.19
360.334	-2
360.546	9.27
360.757	6.54
360.969	39
361.18	29.9
361.391	47.77
361.603	27.8
361.814	45.85
362.025	17.98
362.237	22.8
362.448	30.92
362.659	46.25
362.871	33.45
363.082	38.73
363.293	34.87
363.504	20.7
363.716	14.65
363.927	27.63
364.138	13.03
364.349	-2.07
364.56	3.14
364.772	3.86
364.983	6.86
365.194	15.27
365.405	36.57
365.616	49.4
365.827	50.61
366.038	40.36
366.25	33.96
366.461	14.24
366.672	23.86
366.883	31.12
367.094	36.51
367.305	29.73
367.516	32.74
367.727	13.38
367.938	4.7
368.149	11.46
368.36	24.15
368.571	26.47
368.781	9.64
368.992	9.58
369.203	-9.62
369.414	-32.11
369.625	-40.57
369.836	-24.4
370.047	-46.99
370.258	-38.64
370.468	-33.24
370.679	-43.4
370.89	-33.52
371.101	-11.91
371.312	-7.82
371.522	9.92
371.733	20.66
371.944	36.26
372.155	43.45
372.365	30.9
372.576	28.49
372.787	30.75
372.997	5.06
373.208	11.71
373.419	45.48
373.629	15.73
373.84	18.88
374.05	26.41
374.261	30.72
374.472	9.49
374.682	57.12
374.893	62.02
375.103	80.94
375.314	64
375.524	65.76
375.735	51.18
375.945	49.58
376.156	30.34
376.366	34
376.577	30.23
376.787	21.47
376.997	27.28
377.208	31.74
377.418	26.02
377.629	42.42
377.839	41.55
378.049	39.45
378.26	47.57
378.47	49.29
378.68	36.78
378.89	46.15
379.101	39.64
379.311	14.75
379.521	-8.21
379.732	-6.19
379.942	-8.62
380.152	-26.89
380.362	8.83
380.572	20.76
380.783	28.84
380.993	43.02
381.203	65.17
381.413	75.97
381.623	74.74
381.833	71
382.043	56.67
382.253	48.27
382.463	37.38
382.674	38.94
382.884	18.28
383.094	12.42
383.304	14.87
383.514	11.37
383.724	20.81
383.934	23.67
384.144	17.79
384.353	10.72
384.563	7.9
384.773	8.81
384.983	7.61
385.193	24.6
385.403	32.55
385.613	38.61
385.823	34
386.033	37.09
386.242	31.05
386.452	28.35
386.662	23.48
386.872	32.28
387.082	31.51
387.291	25.54
387.501	31.39
387.711	32.88
387.921	25.92
388.13	22.82
388.34	28.63
388.55	19.64
388.759	16.7
388.969	22.76
389.179	22.36
389.388	23.61
389.598	27.16
389.807	26.29
390.017	21.14
390.227	21.36
390.436	17.98
390.646	19.64
390.855	22.23
391.065	23.76
391.274	26.82
391.484	27.02
391.693	30.49
391.903	33.02
392.112	37.79
392.322	41.11
392.531	42.6
392.74	40.95
392.95	36.28
393.159	30.81
393.369	27.38
393.578	27.55
393.787	27.27
393.997	28.64
394.206	29.52
394.415	31.28
394.625	31.2
394.834	29.36
395.043	30.6
395.252	30.47
395.462	31.9
395.671	33.41
395.88	35.02
396.089	35.71
396.298	35.09
396.508	33.71
396.717	32.66
396.926	32.88
397.135	31.91
397.344	32.21
397.553	33.52
397.762	34.89
397.971	34.42
398.181	35.22
398.39	35.25
398.599	34.61
398.808	33.99
399.017	34.93
399.226	35.53
399.435	35.92
399.644	36
399.853	35.35
400.062	34.35
400.27	34
400.479	33.5
400.688	32.98
400.897	33.58
401.106	33.88
401.315	33.61
401.524	33.65
401.733	33.69
401.941	33.63
402.15	33.56
402.359	33.21
402.568	33.13
402.777	33.1
402.985	32.76
403.194	32.75
403.403	32.91
403.612	32.71
403.82	32.72
404.029	33.02
404.238	32.91
404.446	33.09
404.655	32.88
404.864	32.75
405.072	32.29
405.281	32.27
405.489	31.71
405.698	31.75
405.906	31.55
406.115	31.67
406.324	31.35
406.532	31.49
406.741	31.48
406.949	31.44
407.158	31.36
407.366	31.41
407.574	31.51
407.783	31.65
407.991	31.58
408.2	31.67
408.408	31.64
408.617	31.26
408.825	31.04
409.033	31.01
409.242	30.79
409.45	30.68
409.658	30.61
409.867	30.55
410.075	30.31
410.283	30.12
410.491	29.95
410.7	29.85
410.908	29.81
411.116	30.1
411.324	30.03
411.533	29.99
411.741	30.07
411.949	30
412.157	29.64
412.365	29.55
412.573	29.65
412.781	29.47
412.99	29.39
413.198	29.52
413.406	29.54
413.614	29.32
413.822	29.24
414.03	29.02
414.238	28.69
414.446	28.85
414.654	28.71
414.862	28.76
415.07	28.77
415.278	28.88
415.486	28.42
415.694	28.58
415.902	28.25
416.109	28.04
416.317	27.94
416.525	27.87
416.733	27.63
416.941	27.93
417.149	28.08
417.357	28.1
417.564	28.22
417.772	28.52
417.98	28.11
418.188	27.9
418.395	27.92
418.603	27.92
418.811	27.3
419.019	27.51
419.226	27.68
419.434	27.79
419.642	27.48
419.849	27.78
420.057	27.82
420.265	27.67
420.472	27.38
420.68	27.4
420.887	27.07
421.095	26.92
421.302	26.8
421.51	26.82
421.717	26.92
421.925	27.11
422.132	27.09
422.34	27.02
422.547	27.03
422.755	27.01
422.962	26.92
423.17	26.77
423.377	27.12
423.585	26.83
423.792	26.79
423.999	26.79
424.207	26.78
424.414	26.64
424.621	26.73
424.829	26.73
425.036	26.89
425.243	27.11
425.451	26.81
425.658	26.78
425.865	26.99
426.072	26.8
426.28	27.05
426.487	27.26
426.694	27.38
426.901	27.15
427.108	27.29
427.315	27.2
427.523	27.35
427.73	27.53
427.937	27.47
428.144	27.33
428.351	27.14
428.558	27.3
428.765	27.42
428.972	27.63
429.179	27.99
429.386	28.43
429.593	28.32
429.8	28
430.007	28.13
430.214	28.02
430.421	27.77
430.628	27.7
430.835	27.77
431.042	27.83
431.249	27.97
431.456	28.46
431.662	28.89
431.869	29.27
432.076	29.59
432.283	29.86
432.49	29.67
432.697	29.66
432.903	29.52
433.11	29.38
433.317	29.46
433.524	29.75
433.73	29.83
433.937	29.87
434.144	29.97
434.35	29.72
434.557	29.47
434.764	29.31
434.97	29.49
435.177	29.5
435.384	29.65
435.59	29.76
435.797	30.14
436.003	30.27
436.21	30.42
436.416	30.53
436.623	30.75
436.829	30.72
437.036	30.71
437.242	30.88
437.449	31.04
437.655	30.97
437.862	31.04
438.068	31.15
438.275	31.17
438.481	31.31
438.687	31.51
438.894	31.7
439.1	31.83
439.307	32
439.513	32.1
439.719	32.05
439.926	32.09
440.132	32.12
440.338	31.95
440.544	31.98
440.751	32.1
440.957	32.21
441.163	32.33
441.369	32.48
441.575	32.37
441.782	32.39
441.988	32.28
442.194	32.23
442.4	32.31
442.606	32.56
442.812	32.71
443.018	32.83
443.224	33
443.431	33.18
443.637	33.22
443.843	33.02
444.049	33.19
444.255	33.21
444.461	33.11
444.667	32.97
444.873	33.44
445.079	33.35
445.284	33.47
445.49	33.35
445.696	33.44
445.902	33.22
446.108	33.42
446.314	33.42
446.52	33.64
446.726	33.91
446.931	34.07
447.137	34.16
447.343	34.28
447.549	34.17
447.755	33.95
447.96	34.01
448.166	33.92
448.372	33.91
448.578	34.16
448.783	34.41
448.989	34.57
449.195	34.6
449.4	34.6
449.606	34.58
449.812	34.47
450.017	34.29
450.223	34.5
450.428	34.47
450.634	34.58
450.84	34.69
451.045	34.78
451.251	34.79
451.456	35.06
451.662	35.28
451.867	35.42
452.073	35.45
452.278	35.47
452.483	35.51
452.689	35.38
452.894	35.22
453.1	35.29
453.305	35.22
453.51	35.11
453.716	35.01
453.921	35.32
454.127	35.26
454.332	35.19
454.537	35.17
454.742	35.31
454.948	35.31
455.153	35.53
455.358	35.87
455.563	36.08
455.769	36.32
455.974	36.27
456.179	36.05
456.384	35.84
456.589	35.85
456.795	35.79
457	35.95
457.205	36.2
457.41	36.29
457.615	36.16
457.82	36.15
458.025	36
458.23	35.99
458.435	36.17
458.64	36.09
458.845	36.19
459.05	36.25
459.255	36.33
459.46	36.3
459.665	36.54
459.87	36.58
460.075	36.72
460.28	36.7
460.485	36.85
460.69	36.99
460.895	36.92
461.099	36.9
461.304	37.07
461.509	36.98
461.714	36.64
461.919	36.89
