Data from Ofra_2a_PS_4HS15_Reflection_2.txt Node
Date: Tue Jul 20 09:51:21 EDT 2021
User: Adam
Spectrometer: FLMT01687
Trigger mode: 0
Integration Time (sec): 9.450000E-1
Scans to average: 3
Electric dark correction enabled: true
Nonlinearity correction enabled: false
Boxcar width: 3
XAxis mode: Wavelengths
Number of Pixels in Spectrum: 3648
>>>>>Begin Spectral Data<<<<<
179.494	921.3
179.716	539.79
179.937	576.92
180.158	2339.06
180.38	-945.35
180.601	-172.86
180.823	-92.88
181.044	-123.11
181.265	-189.47
181.486	-53.97
181.708	-1878.26
181.929	-199.53
182.15	-729.55
182.372	-23.83
182.593	-58.56
182.814	350.3
183.035	233.06
183.257	132.13
183.478	72.33
183.699	48.37
183.92	28.11
184.141	31.96
184.363	13.2
184.584	7.51
184.805	14.29
185.026	-4.45
185.247	7.53
185.468	13.58
185.689	32.42
185.91	48.51
186.132	56.13
186.353	40.16
186.574	32.07
186.795	20.25
187.016	23.84
187.237	12.01
187.458	-8.3
187.679	-19.46
187.9	1.67
188.121	12.51
188.342	41.05
188.563	41.01
188.784	36.03
189.005	44.95
189.226	46.45
189.447	19.38
189.667	24.09
189.888	29.85
190.109	27.53
190.33	29.42
190.551	18.89
190.772	13.03
190.993	40.94
191.214	43.8
191.434	25.1
191.655	33.44
191.876	40.85
192.097	46.11
192.318	48.65
192.538	49.08
192.759	42.3
192.98	41.18
193.201	46.68
193.421	44.32
193.642	44.83
193.863	46.21
194.083	33.35
194.304	32.77
194.525	42.71
194.745	27.37
194.966	15.62
195.187	27.2
195.407	24.41
195.628	30.44
195.848	38.96
196.069	39.72
196.29	36.02
196.51	51.16
196.731	36.2
196.951	39.96
197.172	22.95
197.392	19.08
197.613	15.67
197.833	10.65
198.054	15.19
198.274	8.86
198.495	8
198.715	11.18
198.936	7.84
199.156	13.09
199.377	24.38
199.597	17.92
199.817	16.92
200.038	24.73
200.258	27.1
200.479	28.26
200.699	35.03
200.919	19.33
201.14	17.92
201.36	21.46
201.58	18.02
201.801	21.22
202.021	22.41
202.241	22.84
202.461	32.94
202.682	34.6
202.902	37.57
203.122	35.5
203.342	50.21
203.563	53.6
203.783	52.25
204.003	50.37
204.223	43.55
204.443	37.75
204.663	44.25
204.884	30.6
205.104	39.72
205.324	44.96
205.544	55.13
205.764	61.33
205.984	67.9
206.204	72.56
206.424	64.97
206.644	55.79
206.864	48.35
207.084	49.57
207.304	43.7
207.525	29.63
207.745	19.42
207.964	20.75
208.184	24.51
208.404	24.05
208.624	12.22
208.844	9.9
209.064	15.97
209.284	17.14
209.504	13.87
209.724	-15.4
209.944	-11.47
210.164	-1.02
210.384	24.12
210.604	11.92
210.823	13.31
211.043	11.01
211.263	41.29
211.483	37.46
211.703	39.18
211.922	28.42
212.142	38.84
212.362	35.6
212.582	38.42
212.801	15.33
213.021	16.44
213.241	16.34
213.461	14.87
213.68	16.34
213.9	31.42
214.12	26.09
214.339	38.89
214.559	41.54
214.779	39.64
214.998	42.64
215.218	50.41
215.438	59.73
215.657	58.13
215.877	64.64
216.096	59.09
216.316	55.36
216.535	46.17
216.755	38.5
216.974	23.89
217.194	31.59
217.413	30.8
217.633	16.65
217.852	7.57
218.072	19.49
218.291	33.1
218.511	32.89
218.73	21.64
218.95	20.72
219.169	34.79
219.389	37.85
219.608	35.47
219.827	21.39
220.047	25.95
220.266	33.39
220.485	33.66
220.705	22.43
220.924	30.92
221.143	21.82
221.363	21.71
221.582	22.08
221.801	31.07
222.021	36.18
222.24	43.16
222.459	32.04
222.678	43.81
222.897	40.37
223.117	36.76
223.336	25.69
223.555	6.09
223.774	18.83
223.993	22.2
224.213	25.81
224.432	36.65
224.651	34.14
224.87	26.72
225.089	35.64
225.308	27.62
225.527	28.13
225.746	29.72
225.965	23.04
226.184	26.77
226.404	20.99
226.623	27.89
226.842	25.19
227.061	34.55
227.28	47.34
227.499	45.74
227.718	41.41
227.936	45.98
228.155	49.72
228.374	58.46
228.593	55.93
228.812	41.29
229.031	45.15
229.25	46.88
229.469	54.57
229.688	52.62
229.907	46.77
230.125	45.23
230.344	48.25
230.563	41.91
230.782	30.52
231.001	23.84
231.22	12.87
231.438	12.86
231.657	7.26
231.876	11.88
232.095	23.03
232.313	41.19
232.532	44.63
232.751	55
232.969	61.62
233.188	70.92
233.407	61.23
233.625	61.21
233.844	50.01
234.063	44.04
234.281	33.2
234.5	33.98
234.719	28.22
234.937	40.05
235.156	34.6
235.374	27.59
235.593	30.39
235.811	24.83
236.03	14.01
236.249	21.86
236.467	17.21
236.686	18.3
236.904	16.4
237.123	24.04
237.341	29.5
237.559	38.19
237.778	39.92
237.996	39.4
238.215	30.27
238.433	37.23
238.652	28.7
238.87	28.97
239.088	16.6
239.307	20.72
239.525	9.79
239.743	7.27
239.962	13.86
240.18	25.58
240.398	25.14
240.617	31.07
240.835	29.69
241.053	44.5
241.271	44.87
241.49	37.45
241.708	28.57
241.926	27.01
242.144	35.92
242.363	27.93
242.581	30.31
242.799	34.13
243.017	30.7
243.235	35.22
243.453	46.76
243.672	41.39
243.89	52.34
244.108	46.24
244.326	38.7
244.544	47.32
244.762	45.8
244.98	38.3
245.198	28.47
245.416	22.16
245.634	26.7
245.852	44.99
246.07	41.07
246.288	40.1
246.506	48.99
246.724	67.47
246.942	75.66
247.16	64.38
247.378	40.56
247.596	46.06
247.814	37.35
248.032	16.14
248.25	4.84
248.468	-1.73
248.685	-3.71
248.903	3.69
249.121	1.87
249.339	20.86
249.557	40.39
249.775	26.28
249.992	24.11
250.21	21.14
250.428	19.48
250.646	26.06
250.863	27.79
251.081	23.99
251.299	49.76
251.517	58.23
251.734	72.65
251.952	84.9
252.17	77.34
252.387	62.58
252.605	64.48
252.823	56.01
253.04	63.08
253.258	49.52
253.475	34.62
253.693	36.35
253.911	35.06
254.128	15.35
254.346	13.39
254.563	3.08
254.781	6.63
254.998	4.65
255.216	-1.45
255.433	-2.96
255.651	9.36
255.868	14.29
256.086	25.65
256.303	26.69
256.521	17.36
256.738	22.26
256.956	19.35
257.173	23.18
257.39	29.4
257.608	31.12
257.825	30.56
258.043	42.9
258.26	45.63
258.477	34.94
258.695	40.64
258.912	44.79
259.129	36.22
259.346	40.55
259.564	33.38
259.781	35.49
259.998	40.22
260.216	41.42
260.433	39.3
260.65	47.2
260.867	27.06
261.084	38.81
261.302	29.21
261.519	29.76
261.736	17.83
261.953	15.5
262.17	12.14
262.387	26.24
262.604	12.29
262.822	25.63
263.039	34.6
263.256	31.95
263.473	22.79
263.69	25.32
263.907	22.86
264.124	27.65
264.341	22.89
264.558	27.47
264.775	34.25
264.992	47.42
265.209	40.01
265.426	36.46
265.643	35.79
265.86	35.27
266.077	31.7
266.294	26.44
266.51	23.95
266.727	21.6
266.944	24.1
267.161	28.43
267.378	35.52
267.595	20.87
267.812	13.68
268.028	18.32
268.245	20.01
268.462	23.94
268.679	13.38
268.896	4.44
269.112	20.18
269.329	27.67
269.546	20.1
269.763	32.95
269.979	28.45
270.196	38.14
270.413	38.74
270.629	31.53
270.846	31.18
271.063	36.64
271.279	24.06
271.496	18.16
271.712	9.16
271.929	18.8
272.146	29.28
272.362	12.68
272.579	13.85
272.795	15.58
273.012	23.33
273.228	29.78
273.445	25.85
273.661	14.97
273.878	34.37
274.094	30.77
274.311	30.35
274.527	26.4
274.744	17.61
274.96	18.45
275.177	34.41
275.393	29.02
275.609	34.19
275.826	37.16
276.042	54.76
276.259	49.5
276.475	47.4
276.691	36.41
276.908	35.18
277.124	35.83
277.34	30.78
277.557	21.4
277.773	24.53
277.989	21.26
278.205	14.55
278.422	16.36
278.638	19.33
278.854	19.41
279.07	4.37
279.286	3.62
279.503	9.44
279.719	21.87
279.935	14.66
280.151	12.97
280.367	14.94
280.583	29.6
280.799	41.29
281.016	39.59
281.232	39.84
281.448	43.78
281.664	36.32
281.88	35.47
282.096	40.49
282.312	33.31
282.528	28.95
282.744	20.78
282.96	23.57
283.176	25.81
283.392	33.03
283.608	30.77
283.824	32.48
284.04	38.31
284.256	35.98
284.471	36.98
284.687	31.03
284.903	32.26
285.119	21.05
285.335	16.82
285.551	25.14
285.767	32.23
285.982	31.46
286.198	37.77
286.414	39.58
286.63	48.16
286.846	51.22
287.061	46.8
287.277	48.18
287.493	52.19
287.709	46.66
287.924	43.01
288.14	32.14
288.356	39.28
288.571	25.22
288.787	23.32
289.003	15.8
289.218	19.41
289.434	22.54
289.65	34.03
289.865	36.05
290.081	39.55
290.296	35.67
290.512	42.39
290.727	62.27
290.943	52.64
291.159	41.99
291.374	36.57
291.59	32.12
291.805	32.56
292.021	14.11
292.236	-5.62
292.451	2.73
292.667	5.3
292.882	-0.25
293.098	-1.5
293.313	-2.81
293.529	4.09
293.744	9.77
293.959	10.11
294.175	13.57
294.39	23.86
294.605	31.21
294.821	29.72
295.036	33.31
295.251	32.76
295.467	14.03
295.682	16.35
295.897	9.04
296.112	10.57
296.328	16.1
296.543	5.46
296.758	-1.66
296.973	16.44
297.188	10.8
297.404	18.85
297.619	9.99
297.834	18.98
298.049	23.1
298.264	30.14
298.479	9.46
298.694	14.89
298.909	3.36
299.125	11.44
299.34	4.17
299.555	7.72
299.77	0.27
299.985	7.86
300.2	4.85
300.415	16.47
300.63	5.88
300.845	16.2
301.06	18.97
301.275	30.11
301.49	36.25
301.704	40.86
301.919	37.39
302.134	38.02
302.349	25.54
302.564	17.34
302.779	7.79
302.994	-4.36
303.209	-7.43
303.423	5.18
303.638	15.67
303.853	33.03
304.068	41.46
304.283	46.07
304.497	48.43
304.712	49.91
304.927	35.87
305.142	30.28
305.356	27.68
305.571	32.95
305.786	24.99
306	25.64
306.215	23.16
306.43	38.1
306.644	42.03
306.859	38.47
307.074	29.41
307.288	31.61
307.503	34.62
307.717	30.73
307.932	24.97
308.147	22.57
308.361	15.63
308.576	15.41
308.79	16.24
309.005	15.79
309.219	20.37
309.434	25.27
309.648	17.21
309.863	21.46
310.077	21.64
310.292	18.93
310.506	24.4
310.72	13.97
310.935	1.64
311.149	8.17
311.364	12.66
311.578	13.57
311.792	11.46
312.007	7.62
312.221	17.5
312.435	20.94
312.649	-5.05
312.864	-33.12
313.078	-13.27
313.292	0.43
313.507	6.25
313.721	-2.5
313.935	12.33
314.149	39.65
314.363	50.72
314.578	63.03
314.792	52.65
315.006	54.28
315.22	66.2
315.434	56.85
315.648	55.58
315.862	58.8
316.077	45.13
316.291	52.95
316.505	57.45
316.719	22.44
316.933	24.44
317.147	22.2
317.361	22.26
317.575	14.38
317.789	19.76
318.003	9.65
318.217	33.76
318.431	35.46
318.645	41.65
318.859	26.34
319.073	25.86
319.287	24
319.5	21.59
319.714	15.09
319.928	17.57
320.142	11.29
320.356	31.01
320.57	30.51
320.784	32.57
320.997	43.37
321.211	46.96
321.425	31.68
321.639	36.66
321.853	27.24
322.066	28.18
322.28	24.61
322.494	18.7
322.707	13.72
322.921	27.63
323.135	18.17
323.349	18.36
323.562	19.91
323.776	20.16
323.989	22.58
324.203	26.63
324.417	22.14
324.63	25.88
324.844	16.88
325.057	17.87
325.271	12.03
325.485	9.16
325.698	3.83
325.912	7.11
326.125	15.23
326.339	29.81
326.552	32.11
326.766	44.9
326.979	49.66
327.193	51.4
327.406	54.07
327.619	43.65
327.833	41.14
328.046	33.68
328.26	21.48
328.473	17.06
328.686	24.78
328.9	8.26
329.113	18.86
329.326	29.79
329.54	30.52
329.753	36.28
329.966	30.25
330.179	33.56
330.393	48.81
330.606	51.78
330.819	49.32
331.032	53.63
331.246	54.41
331.459	61.76
331.672	51.22
331.885	44.2
332.098	46.6
332.311	27.86
332.525	24.58
332.738	23.32
332.951	24.25
333.164	25.32
333.377	16.66
333.59	13.06
333.803	17.93
334.016	16.34
334.229	13.31
334.442	18.97
334.655	24.87
334.868	40.73
335.081	43.82
335.294	48.35
335.507	54.34
335.72	35.23
335.933	26.64
336.146	28.76
336.359	25.11
336.572	17.69
336.785	23.64
336.997	8.77
337.21	30.62
337.423	33.59
337.636	29.68
337.849	24.73
338.062	28.07
338.274	24.16
338.487	27.2
338.7	23.38
338.913	22.61
339.125	20.22
339.338	25.24
339.551	29.38
339.763	26.98
339.976	17.94
340.189	21.33
340.402	22.28
340.614	20.84
340.827	12.4
341.039	10.42
341.252	10.74
341.465	17.65
341.677	7.26
341.89	3.16
342.102	15.58
342.315	30.32
342.527	27.9
342.74	26.2
342.952	23.37
343.165	31.47
343.377	43.23
343.59	38.01
343.802	35.07
344.015	39.46
344.227	39.84
344.44	42.89
344.652	49.4
344.864	49.01
345.077	51.52
345.289	51.8
345.502	44.38
345.714	38.91
345.926	42.55
346.139	34.86
346.351	17.02
346.563	16.25
346.775	9.1
346.988	12.45
347.2	22.4
347.412	18.9
347.624	14.18
347.837	18.76
348.049	20.9
348.261	21.5
348.473	17.94
348.685	19.7
348.897	20.29
349.11	29.41
349.322	30.35
349.534	18.32
349.746	21.52
349.958	25.22
350.17	24.7
350.382	23.4
350.594	21.82
350.806	32.11
351.018	37.02
351.23	38.21
351.442	31.66
351.654	35.87
351.866	42.12
352.078	38.15
352.29	38.86
352.502	44.93
352.714	43.78
352.926	42.66
353.138	30.78
353.35	23.06
353.561	20.15
353.773	20.35
353.985	19.12
354.197	15.69
354.409	29.04
354.621	35.35
354.832	31.37
355.044	48.14
355.256	40.54
355.468	38.53
355.679	41.72
355.891	33.88
356.103	33.41
356.314	37.89
356.526	24.24
356.738	21.29
356.949	20.51
357.161	19.54
357.373	19.2
357.584	24.86
357.796	26.65
358.008	32.25
358.219	41.88
358.431	44.6
358.642	39.79
358.854	35.39
359.065	23.85
359.277	15.96
359.488	12.28
359.7	9.78
359.911	11.51
360.123	16.45
360.334	17.67
360.546	14.76
360.757	19.71
360.969	23.99
361.18	16.82
361.391	14.57
361.603	16.03
361.814	24.68
362.025	28.4
362.237	31
362.448	27.73
362.659	31.49
362.871	35.74
363.082	36.96
363.293	28.51
363.504	33.15
363.716	34.86
363.927	34.54
364.138	37.46
364.349	37.64
364.56	33.96
364.772	33.01
364.983	24.93
365.194	22.31
365.405	19.63
365.616	12.9
365.827	6.16
366.038	11.68
366.25	13.41
366.461	24.95
366.672	22.65
366.883	32.74
367.094	26.97
367.305	32.64
367.516	28.51
367.727	26.11
367.938	17.75
368.149	19.16
368.36	14.19
368.571	20.31
368.781	17.23
368.992	16.97
369.203	18.44
369.414	23.83
369.625	25.17
369.836	21.86
370.047	16.89
370.258	9.36
370.468	10.66
370.679	13.22
370.89	14.94
371.101	10.63
371.312	10.53
371.522	14.11
371.733	17.37
371.944	20.19
372.155	8.81
372.365	7.77
372.576	12.36
372.787	6.85
372.997	6.13
373.208	11.91
373.419	4.32
373.629	13.42
373.84	5.45
374.05	4.87
374.261	11.72
374.472	10.3
374.682	4.31
374.893	1.08
375.103	-0.06
375.314	2.91
375.524	-2.21
375.735	-0.28
375.945	-1.85
376.156	1.85
376.366	9.19
376.577	11.93
376.787	17.88
376.997	22.8
377.208	21.86
377.418	24.69
377.629	24.79
377.839	27.29
378.049	35.38
378.26	34.15
378.47	33.22
378.68	31.57
378.89	26.21
379.101	17.76
379.311	12.04
379.521	8.66
379.732	0.73
379.942	1.45
380.152	5.91
380.362	12.18
380.572	21.01
380.783	20.82
380.993	21.52
381.203	21.68
381.413	22.71
381.623	19.55
381.833	15.68
382.043	10.58
382.253	12.1
382.463	13.04
382.674	18.62
382.884	12.1
383.094	13.21
383.304	15.66
383.514	20.85
383.724	19.24
383.934	16.75
384.144	16.77
384.353	20.15
384.563	16.62
384.773	19.21
384.983	16.69
385.193	21.25
385.403	24.32
385.613	22.13
385.823	21.56
386.033	24.46
386.242	21.8
386.452	22.36
386.662	19.96
386.872	12.55
387.082	10.09
387.291	7.92
387.501	8.07
387.711	8.23
387.921	7.46
388.13	5.18
388.34	7.82
388.55	12.28
388.759	13.47
388.969	10.52
389.179	12.85
389.388	11.15
389.598	10.04
389.807	8.57
390.017	6.92
390.227	5.5
390.436	6.99
390.646	6.43
390.855	7.82
391.065	8.31
391.274	6.79
391.484	5.96
391.693	6.91
391.903	6.01
392.112	4.74
392.322	5.54
392.531	6
392.74	5.74
392.95	6.48
393.159	6.99
393.369	8.07
393.578	8.17
393.787	8.14
393.997	8.46
394.206	9.82
394.415	8.82
394.625	7.46
394.834	6.16
395.043	6.24
395.252	5.99
395.462	5.87
395.671	5.76
395.88	6.35
396.089	6.67
396.298	6.77
396.508	6.41
396.717	5.55
396.926	5.09
397.135	4.79
397.344	4.5
397.553	4.64
397.762	4.82
397.971	4.76
398.181	4.64
398.39	4.62
398.599	4.93
398.808	5.15
399.017	5.16
399.226	5.44
399.435	5.6
399.644	5.67
399.853	5.86
400.062	5.55
400.27	5.5
400.479	5.31
400.688	5.18
400.897	5.23
401.106	5.26
401.315	5.16
401.524	5.27
401.733	5.32
401.941	5.21
402.15	4.97
402.359	4.9
402.568	4.93
402.777	4.85
402.985	4.78
403.194	4.68
403.403	4.63
403.612	4.67
403.82	4.66
404.029	4.67
404.238	4.7
404.446	4.54
404.655	4.35
404.864	4.32
405.072	4.29
405.281	4.08
405.489	4.06
405.698	3.9
405.906	3.96
406.115	3.98
406.324	4.01
406.532	4.08
406.741	4.14
406.949	4.1
407.158	4.27
407.366	4.33
407.574	4.32
407.783	4.24
407.991	4.1
408.2	4.09
408.408	4.07
408.617	3.9
408.825	3.87
409.033	3.83
409.242	3.82
409.45	3.81
409.658	3.83
409.867	3.81
410.075	3.81
410.283	3.68
410.491	3.69
410.7	3.73
410.908	3.79
411.116	3.68
411.324	3.73
411.533	3.65
411.741	3.71
411.949	3.72
412.157	3.76
412.365	3.67
412.573	3.71
412.781	3.71
412.99	3.78
413.198	3.79
413.406	3.74
413.614	3.77
413.822	3.8
414.03	3.75
414.238	3.75
414.446	3.7
414.654	3.74
414.862	3.73
415.07	3.69
415.278	3.66
415.486	3.78
415.694	3.64
415.902	3.61
416.109	3.62
416.317	3.59
416.525	3.65
416.733	3.72
416.941	3.6
417.149	3.78
417.357	3.78
417.564	3.65
417.772	3.69
417.98	3.56
418.188	3.41
418.395	3.4
418.603	3.19
418.811	3.17
419.019	3.21
419.226	3.24
419.434	3.17
419.642	3.19
419.849	3.21
420.057	3.36
420.265	3.33
420.472	3.29
420.68	3.18
420.887	3.27
421.095	3.28
421.302	3.38
421.51	3.4
421.717	3.45
421.925	3.42
422.132	3.47
422.34	3.38
422.547	3.39
422.755	3.29
422.962	3.13
423.17	3.1
423.377	3.21
423.585	3.23
423.792	3.31
423.999	3.26
424.207	3.19
424.414	3.26
424.621	3.29
424.829	3.22
425.036	3.14
425.243	3.14
425.451	3.16
425.658	3.18
425.865	3.04
426.072	3.1
426.28	3.12
426.487	3.16
426.694	3.02
426.901	2.95
427.108	3.02
427.315	3.08
427.523	3.02
427.73	3.01
427.937	3.06
428.144	3.14
428.351	3.28
428.558	3.24
428.765	3.22
428.972	3.18
429.179	3.09
429.386	3.11
429.593	3.09
429.8	3.1
430.007	3.13
430.214	3.22
430.421	3.23
430.628	3.15
430.835	3.15
431.042	3.26
431.249	3.21
431.456	3.21
431.662	3.24
431.869	3.33
432.076	3.43
432.283	3.35
432.49	3.31
432.697	3.31
432.903	3.33
433.11	3.34
433.317	3.31
433.524	3.28
433.73	3.48
433.937	3.43
434.144	3.52
434.35	3.49
434.557	3.44
434.764	3.42
434.97	3.5
435.177	3.37
435.384	3.43
435.59	3.35
435.797	3.45
436.003	3.43
436.21	3.43
436.416	3.38
436.623	3.43
436.829	3.42
437.036	3.43
437.242	3.42
437.449	3.48
437.655	3.53
437.862	3.6
438.068	3.59
438.275	3.59
438.481	3.63
438.687	3.65
438.894	3.6
439.1	3.6
439.307	3.58
439.513	3.54
439.719	3.59
439.926	3.59
440.132	3.54
440.338	3.55
440.544	3.6
440.751	3.58
440.957	3.55
441.163	3.5
441.369	3.49
441.575	3.48
441.782	3.48
441.988	3.42
442.194	3.48
442.4	3.57
442.606	3.66
442.812	3.69
443.018	3.66
443.224	3.68
443.431	3.69
443.637	3.64
443.843	3.65
444.049	3.6
444.255	3.6
444.461	3.66
444.667	3.69
444.873	3.72
445.079	3.81
445.284	3.79
445.49	3.73
445.696	3.72
445.902	3.76
446.108	3.73
446.314	3.77
446.52	3.72
446.726	3.77
446.931	3.83
447.137	3.82
447.343	3.78
447.549	3.78
447.755	3.73
447.96	3.72
448.166	3.74
448.372	3.71
448.578	3.72
448.783	3.75
448.989	3.81
449.195	3.85
449.4	3.87
449.606	3.8
449.812	3.84
450.017	3.84
450.223	3.82
450.428	3.79
450.634	3.82
450.84	3.85
451.045	3.85
451.251	3.9
451.456	3.92
451.662	3.9
451.867	3.9
452.073	3.87
452.278	3.88
452.483	3.92
452.689	3.9
452.894	3.94
453.1	3.92
453.305	3.93
453.51	3.91
453.716	3.87
453.921	3.89
454.127	3.87
454.332	3.84
454.537	3.92
454.742	3.95
454.948	3.98
455.153	3.97
455.358	4
455.563	3.99
455.769	3.99
455.974	3.94
456.179	3.89
456.384	3.91
456.589	3.97
456.795	3.85
457	3.84
457.205	3.83
457.41	3.88
457.615	3.98
457.82	4.02
458.025	3.96
458.23	4.03
458.435	4.03
458.64	4.13
458.845	4.13
459.05	4.15
459.255	4.06
459.46	4.11
459.665	4.2
459.87	4.24
460.075	4.15
460.28	4.15
460.485	4.14
460.69	4.16
460.895	4.17
461.099	4.11
461.304	4.09
461.509	4.05
461.714	4.05
461.919	4.01
462.123	4.06
462.328	4.08
462.533	4.11
462.738	4.11
462.942	4.23
463.147	4.28
463.352	4.27
463.556	4.28
463.761	4.31
463.966	4.36
464.17	4.41
464.375	4.36
464.58	4.32
464.784	4.38
464.989	4.36
465.193	4.37
465.398	4.37
465.602	4.33
465.807	4.39
466.011	4.44
466.216	4.42
466.42	4.47
466.625	4.46
466.829	4.46
467.034	4.52
467.238	4.5
467.443	4.51
467.647	4.56
467.851	4.58
468.056	4.59
468.26	4.51
468.464	4.46
468.669	4.49
468.873	4.46
