Data from Ofra_PS_T2_1A_2CX10_Reflection_3.txt Node
Date: Wed Jul 21 17:52:10 EDT 2021
User: Adam
Spectrometer: FLMT01687
Trigger mode: 0
Integration Time (sec): 1.100000E0
Scans to average: 2
Electric dark correction enabled: true
Nonlinearity correction enabled: false
Boxcar width: 2
XAxis mode: Wavelengths
Number of Pixels in Spectrum: 3648
>>>>>Begin Spectral Data<<<<<
179.494	625.2
179.716	741.18
179.937	669.25
180.158	700.12
180.38	1110.94
180.601	211.33
180.823	-34.91
181.044	-161.37
181.265	-354.04
181.486	-115.42
181.708	75.87
181.929	768.37
182.15	-297.89
182.372	-6.59
182.593	-142.68
182.814	-41.05
183.035	2.87
183.257	18.94
183.478	-62.87
183.699	-30.36
183.92	-65.97
184.141	-39
184.363	-122.33
184.584	-44.69
184.805	-26.33
185.026	-0.96
185.247	-5.43
185.468	-23.7
185.689	-34.76
185.91	-21.73
186.132	-14.75
186.353	-38.23
186.574	0.51
186.795	1.16
187.016	-70.69
187.237	-75.28
187.458	-108.48
187.679	-74.73
187.9	-57.41
188.121	-32.11
188.342	-21.28
188.563	20.66
188.784	67.78
189.005	44.11
189.226	91.44
189.447	50.56
189.667	-85.19
189.888	-569.7
190.109	-1650
190.33	-972.58
190.551	-1525.22
190.772	-341.77
190.993	-245.23
191.214	-278.06
191.434	-175.84
191.655	-85.21
191.876	-176.64
192.097	-183.3
192.318	-154
192.538	-257.33
192.759	-142.78
192.98	-25.03
193.201	-21.41
193.421	-24.55
193.642	6.06
193.863	2.83
194.083	-50.42
194.304	-60.52
194.525	-58.27
194.745	-141.87
194.966	-169.69
195.187	-126.01
195.407	-140.21
195.628	-229.76
195.848	-194.83
196.069	-176.21
196.29	-146.98
196.51	-142.99
196.731	-111.97
196.951	-103.96
197.172	-127.81
197.392	-167.54
197.613	-168.7
197.833	-169.99
198.054	-151.63
198.274	-92.06
198.495	-107.77
198.715	-71.11
198.936	-122.01
199.156	-110.63
199.377	-219.79
199.597	-188.52
199.817	-214.21
200.038	-106.23
200.258	-177.81
200.479	-130.09
200.699	-118.46
200.919	-58.96
201.14	-77.77
201.36	-86.48
201.58	-10.47
201.801	13.24
202.021	-17.37
202.241	-28.78
202.461	-24.2
202.682	-164.91
202.902	-255.92
203.122	-163.02
203.342	-141.13
203.563	-81.94
203.783	-20.03
204.003	-64.87
204.223	-81.4
204.443	-11.24
204.663	-71.58
204.884	-65.57
205.104	-21.85
205.324	4.89
205.544	-16.63
205.764	14.98
205.984	16.36
206.204	20.31
206.424	-0.25
206.644	-56.6
206.864	-46.61
207.084	-120.4
207.304	-94.41
207.525	-227.34
207.745	-88.65
207.964	-13.16
208.184	-63.77
208.404	-113.67
208.624	-125.26
208.844	-129.6
209.064	-473.16
209.284	-500.91
209.504	-255.82
209.724	-75.24
209.944	-47.16
210.164	-14.22
210.384	8.93
210.604	-14.34
210.823	-62.06
211.043	-81.46
211.263	-74.62
211.483	-80.89
211.703	-137.94
211.922	-127.18
212.142	-47.6
212.362	-37.24
212.582	-36.61
212.801	-5.41
213.021	-26.41
213.241	-59.12
213.461	-112.41
213.68	-141.87
213.9	-127.03
214.12	-90.69
214.339	-160.13
214.559	-113.26
214.779	-31.02
214.998	-24.57
215.218	-67.57
215.438	-25.46
215.657	-34.52
215.877	-46.83
216.096	-26.78
216.316	-5.3
216.535	11.84
216.755	-3.07
216.974	-111.25
217.194	-148.07
217.413	-159.86
217.633	-185.41
217.852	-278.41
218.072	-121.7
218.291	-66.53
218.511	-11.5
218.73	-45.57
218.95	-30.3
219.169	-31.52
219.389	-88.35
219.608	-82.52
219.827	-81.12
220.047	-75.71
220.266	-64.41
220.485	-49.44
220.705	-41.06
220.924	-47.9
221.143	-1.6
221.363	-32.32
221.582	-22.04
221.801	-14.31
222.021	5.95
222.24	-107.89
222.459	-57.57
222.678	-79.54
222.897	-207.2
223.117	-236.37
223.336	-191.53
223.555	-101.02
223.774	-35.45
223.993	-2.98
224.213	38.44
224.432	3.79
224.651	14.38
224.87	-31.69
225.089	3.01
225.308	-7.1
225.527	20.74
225.746	-3.97
225.965	-12.96
226.184	-46.97
226.404	-25.99
226.623	-57.49
226.842	-55.35
227.061	-7.38
227.28	-1.8
227.499	-21.07
227.718	2.29
227.936	4.4
228.155	5.74
228.374	-2.29
228.593	6.01
228.812	9.7
229.031	3.66
229.25	-58.62
229.469	-50.58
229.688	-38.93
229.907	-28.9
230.125	-0.12
230.344	21.02
230.563	20.85
230.782	35.64
231.001	-26.26
231.22	-40.47
231.438	-17.23
231.657	-9.31
231.876	-37.36
232.095	12.59
232.313	31.49
232.532	14.44
232.751	-39.51
232.969	-52.88
233.188	-149
233.407	-83.55
233.625	-57.85
233.844	-60.61
234.063	-52.07
234.281	-8.87
234.5	-32.38
234.719	-35.28
234.937	-21.86
235.156	-7.78
235.374	-14
235.593	-32.5
235.811	-44.98
236.03	-53.3
236.249	-96.07
236.467	-108.66
236.686	-41.62
236.904	-12.26
237.123	-37.25
237.341	-36.4
237.559	-17.03
237.778	-40.36
237.996	-67.18
238.215	-5.63
238.433	7.55
238.652	2.19
238.87	-12.19
239.088	1.9
239.307	-12.39
239.525	-30.39
239.743	-67.84
239.962	-75.65
240.18	-134.54
240.398	-206.43
240.617	-194.11
240.835	-194.5
241.053	-168.3
241.271	-106.58
241.49	-53.19
241.708	-74.46
241.926	-87.23
242.144	-68.29
242.363	-124.33
242.581	-146.89
242.799	-97.25
243.017	-48.43
243.235	-58.72
243.453	-19.12
243.672	-12.4
243.89	-16.7
244.108	-28.34
244.326	-8.15
244.544	-25.69
244.762	-32.66
244.98	-37.31
245.198	-34.15
245.416	-50.26
245.634	-47.01
245.852	-51.48
246.07	-74.03
246.288	-59.23
246.506	-85.25
246.724	-37.78
246.942	-25.47
247.16	7.62
247.378	16.35
247.596	27.83
247.814	15.1
248.032	-16.01
248.25	-20.4
248.468	-15.56
248.685	-7.42
248.903	14.42
249.121	22.71
249.339	-8.41
249.557	-25.61
249.775	-26.73
249.992	-101.04
250.21	-108
250.428	-64.07
250.646	-105.51
250.863	-126.62
251.081	-91.13
251.299	-76.7
251.517	-84.21
251.734	-43.4
251.952	-46.19
252.17	-45.94
252.387	-21.83
252.605	-37.16
252.823	-37.06
253.04	-13.11
253.258	2.24
253.475	-30.13
253.693	0.3
253.911	13.42
254.128	20.14
254.346	30.78
254.563	4.13
254.781	-25.12
254.998	-61.3
255.216	-89.21
255.433	-98.54
255.651	-50.47
255.868	-33.41
256.086	9.8
256.303	10.93
256.521	15.74
256.738	-12.21
256.956	-35.78
257.173	-58.51
257.39	-85.95
257.608	-110.82
257.825	-51.52
258.043	-11.16
258.26	-1.75
258.477	48.06
258.695	55.88
258.912	11.88
259.129	9.41
259.346	-33.45
259.564	-77.99
259.781	-118.7
259.998	-44.73
260.216	-13.89
260.433	26.07
260.65	25.73
260.867	44.32
261.084	-4.57
261.302	-43.1
261.519	-61.03
261.736	-86.28
261.953	-111.11
262.17	-50.58
262.387	-94.08
262.604	-128.15
262.822	-124.91
263.039	-105.12
263.256	-183.05
263.473	-114.77
263.69	-70.46
263.907	-22.62
264.124	-14.66
264.341	-2.58
264.558	-12.41
264.775	3.36
264.992	-9.05
265.209	-2.62
265.426	20.11
265.643	29.65
265.86	38.78
266.077	35.78
266.294	19.03
266.51	-28.8
266.727	-55.96
266.944	-58.74
267.161	-79.7
267.378	-78.88
267.595	-50.84
267.812	-83.11
268.028	-107.16
268.245	-37.37
268.462	-60.72
268.679	-68.96
268.896	0.78
269.112	1.85
269.329	-30.7
269.546	-18.35
269.763	-14.88
269.979	-34.96
270.196	-31.45
270.413	-56.24
270.629	-69.56
270.846	-91.76
271.063	-92.17
271.279	-120.47
271.496	-92.05
271.712	-41.97
271.929	-7.97
272.146	-5.46
272.362	13.5
272.579	45.3
272.795	37.39
273.012	37.15
273.228	32.94
273.445	2.71
273.661	-37.97
273.878	-93.59
274.094	-89.88
274.311	-107.52
274.527	-21.3
274.744	-16.84
274.96	-11.44
275.177	-9.49
275.393	7.12
275.609	-4.19
275.826	14.37
276.042	7.45
276.259	-1.67
276.475	6.79
276.691	5.5
276.908	-15.24
277.124	5.41
277.34	9.84
277.557	0.1
277.773	-12.25
277.989	-11.39
278.205	-21.31
278.422	-16.95
278.638	-13.89
278.854	-3.17
279.07	-0.29
279.286	-12.68
279.503	-33.1
279.719	-29.23
279.935	-48.93
280.151	-85.28
280.367	-38.21
280.583	-45.15
280.799	-60.24
281.016	-90.32
281.232	-27.47
281.448	-27.31
281.664	0.26
281.88	-11.32
282.096	7.06
282.312	23.61
282.528	-2.59
282.744	-22.06
282.96	-16.96
283.176	-22.71
283.392	-34.9
283.608	-30.61
283.824	-27.05
284.04	-18.25
284.256	-13.09
284.471	-25.3
284.687	-39.54
284.903	-23.4
285.119	-1.32
285.335	-32.8
285.551	-33.4
285.767	-24.45
285.982	-50.54
286.198	-122.12
286.414	-39.32
286.63	-26.39
286.846	-7.33
287.061	-20.05
287.277	20.04
287.493	-15.23
287.709	-6.72
287.924	-19.13
288.14	20.39
288.356	20.38
288.571	23.85
288.787	-1.39
289.003	3.91
289.218	-21.68
289.434	-63.06
289.65	-44.06
289.865	-52.68
290.081	-41.56
290.296	-27.81
290.512	-10.66
290.727	-59.01
290.943	-40.7
291.159	-53.29
291.374	-59.08
291.59	-85.49
291.805	-50.11
292.021	-56.26
292.236	-55.44
292.451	-33.38
292.667	-18.49
292.882	-16.17
293.098	-11.36
293.313	-51.2
293.529	-93.66
293.744	-83.05
293.959	-82.03
294.175	-74.68
294.39	-19
294.605	3.62
294.821	20.65
295.036	22.09
295.251	21.49
295.467	-24.35
295.682	-51.14
295.897	-121.1
296.112	-127.3
296.328	-107.87
296.543	-91.86
296.758	-75.35
296.973	-21.4
297.188	14.68
297.404	-8.25
297.619	-28.74
297.834	-53.73
298.049	-80.12
298.264	-114.56
298.479	-54.84
298.694	-40.34
298.909	-6.58
299.125	3.68
299.34	12.1
299.555	-13.93
299.77	3.39
299.985	-47.71
300.2	-109.85
300.415	-126.26
300.63	-73.49
300.845	-88.98
301.06	-82.25
301.275	-41.41
301.49	-23.12
301.704	-50.03
301.919	-60.15
302.134	-58.15
302.349	-55.44
302.564	-121.73
302.779	-138.45
302.994	-72.65
303.209	-49.69
303.423	-21.23
303.638	50.89
303.853	10.51
304.068	-9.36
304.283	-7.69
304.497	-15.95
304.712	-35.7
304.927	-12.74
305.142	-30.07
305.356	-23.93
305.571	-25.66
305.786	-39.64
306	-54.59
306.215	-31.62
306.43	-39.73
306.644	-47.83
306.859	-6.6
307.074	-15.2
307.288	-41.77
307.503	-74.94
307.717	-64.08
307.932	-65.55
308.147	-70.01
308.361	-42.53
308.576	-49.28
308.79	-98.09
309.005	-77.28
309.219	-53.64
309.434	-75.95
309.648	-71.83
309.863	-35.95
310.077	-55.93
310.292	-66.8
310.506	-53.14
310.72	-27.07
310.935	-17.59
311.149	-15.51
311.364	14.17
311.578	28.93
311.792	7.72
312.007	15.05
312.221	-0.72
312.435	-5.2
312.649	-31.47
312.864	-3.38
313.078	-0.34
313.292	68.06
313.507	0.48
313.721	48.24
313.935	31.27
314.149	14.47
314.363	-2.59
314.578	16.86
314.792	5.35
315.006	-25.55
315.22	-3.32
315.434	1.92
315.648	-3.93
315.862	-4.13
316.077	12.24
316.291	-25.02
316.505	-27.75
316.719	-34.94
316.933	-46.72
317.147	-65.68
317.361	-100.48
317.575	-122.45
317.789	-148.46
318.003	-214.97
318.217	-161.93
318.431	-64.41
318.645	-18.52
318.859	-17.55
319.073	8.23
319.287	-4.34
319.5	-36.55
319.714	-91.22
319.928	-118.43
320.142	-148.28
320.356	-74.87
320.57	-22.75
320.784	-12.28
320.997	-37.29
321.211	-58.27
321.425	-147.29
321.639	-173.77
321.853	-95.37
322.066	-65.69
322.28	-49.95
322.494	-23.07
322.707	5.92
322.921	-7.77
323.135	0.71
323.349	9.79
323.562	-18.41
323.776	-48.42
323.989	-51.76
324.203	-67.07
324.417	-84.74
324.63	-88.89
324.844	-81.95
325.057	-79.45
325.271	-57.69
325.485	-21.29
325.698	-5.51
325.912	2.92
326.125	-34.17
326.339	-23.84
326.552	-56.88
326.766	-52.08
326.979	-34.94
327.193	26.38
327.406	-16.01
327.619	-15.66
327.833	-1.96
328.046	-29.88
328.26	-88.39
328.473	-42.53
328.686	-69.55
328.9	-68.92
329.113	-56.94
329.326	-69.91
329.54	-77.52
329.753	-86.08
329.966	-148.98
330.179	-124.16
330.393	-78.12
330.606	-61.89
330.819	-31.07
331.032	3.09
331.246	7.35
331.459	40.67
331.672	19.22
331.885	12.61
332.098	-17.87
332.311	-38.52
332.525	-105.92
332.738	-62.31
332.951	-35.21
333.164	-1.14
333.377	10.08
333.59	33.05
333.803	23.7
334.016	9.77
334.229	4.79
334.442	-0.49
334.655	23.63
334.868	30.1
335.081	17.41
335.294	-3.9
335.507	-2.05
335.72	-51.46
335.933	-59.16
336.146	-65.35
336.359	-58.74
336.572	-81.05
336.785	-86.15
336.997	-65.56
337.21	-32.02
337.423	-36.35
337.636	-41.24
337.849	-27.31
338.062	-25.96
338.274	-21.99
338.487	-35.39
338.7	-26.88
338.913	-71.75
339.125	-113.98
339.338	-190.47
339.551	-136.99
339.763	-78.9
339.976	-37.87
340.189	-12.48
340.402	-0.09
340.614	-18.4
340.827	-31.09
341.039	-52.29
341.252	-50.12
341.465	-22.82
341.677	-27.86
341.89	-68.71
342.102	-25.8
342.315	-46.1
342.527	-89.81
342.74	-74.03
342.952	-37.87
343.165	-43.01
343.377	-8.92
343.59	-6.59
343.802	20.93
344.015	31.69
344.227	40.92
344.44	25.05
344.652	23.73
344.864	-9.12
345.077	9.22
345.289	12.12
345.502	19.87
345.714	10.31
345.926	16.05
346.139	-3.22
346.351	4.5
346.563	13.67
346.775	24.82
346.988	6.02
347.2	-7.67
347.412	-76.45
347.624	-120.63
347.837	-150
348.049	-115.17
348.261	-59.77
348.473	-38.85
348.685	-35.19
348.897	-41.65
349.11	-51.48
349.322	-93.04
349.534	-57.27
349.746	-38.87
349.958	-11.01
350.17	-4.91
350.382	11.51
350.594	0.09
350.806	-12.05
351.018	-17.19
351.23	-36.42
351.442	-92.19
351.654	-116.37
351.866	-102.74
352.078	-86.85
352.29	-47.72
352.502	-17.18
352.714	2.75
352.926	-13.54
353.138	-11
353.35	-23.79
353.561	-20.15
353.773	-41.01
353.985	-27.22
354.197	-41.72
354.409	-51.56
354.621	-64.8
354.832	-48.97
355.044	-54.12
355.256	-53.75
355.468	-33.69
355.679	-42.56
355.891	-37.43
356.103	-51.76
356.314	-42.91
356.526	-44.86
356.738	-36.94
356.949	-47.21
357.161	-7.02
357.373	-13.45
357.584	-27.32
357.796	-6.01
358.008	-10.7
358.219	6.96
358.431	10.18
358.642	22.1
358.854	18.39
359.065	10.69
359.277	-46.79
359.488	-50.7
359.7	-85.26
359.911	-114.86
360.123	-93.13
360.334	-94.58
360.546	-120.02
360.757	-105.24
360.969	-73.87
361.18	-67.25
361.391	-34.22
361.603	-53.08
361.814	-48.38
362.025	-45.05
362.237	-38.61
362.448	-31.39
362.659	6.54
362.871	6.93
363.082	-4.35
363.293	-9.26
363.504	-25.01
363.716	-47.8
363.927	-44.62
364.138	-69.46
364.349	-70.91
364.56	-57.25
364.772	-48.01
364.983	-19.9
365.194	-5.24
365.405	14.09
365.616	34.82
365.827	31.72
366.038	2.27
366.25	-4.64
366.461	-58.1
366.672	-46.87
366.883	-30.03
367.094	-18.86
367.305	-25.83
367.516	-10.02
367.727	-41.95
367.938	-53.95
368.149	-55.77
368.36	-35.8
368.571	-31.38
368.781	-33.15
368.992	-53.64
369.203	-70.32
369.414	-94.01
369.625	-96.38
369.836	-93.14
370.047	-107.82
370.258	-99.97
370.468	-94.47
370.679	-113.44
370.89	-108.63
371.101	-72.41
371.312	-73.09
371.522	-72.43
371.733	-49.41
371.944	-36.5
372.155	-26.88
372.365	-22.84
372.576	-22.68
372.787	-26.67
372.997	-52.5
373.208	-64.16
373.419	-29.66
373.629	-66.17
373.84	-75.12
374.05	-83.86
374.261	-71.58
374.472	-111.07
374.682	-36.78
374.893	-40.82
375.103	2.22
375.314	-8.76
375.524	-13.17
375.735	-18.06
375.945	-4.65
376.156	-29.36
376.366	-17.82
376.577	-16.84
376.787	-28.52
376.997	-29.13
377.208	-26.51
377.418	-42.72
377.629	-23
377.839	-18.81
378.049	-15.47
378.26	1.47
378.47	12.72
378.68	-5.42
378.89	-8.88
379.101	-15.51
379.311	-55.05
379.521	-82.49
379.732	-59.89
379.942	-62.97
380.152	-82.88
380.362	-44.72
380.572	-41.74
380.783	-37.55
380.993	-20.31
381.203	-6.82
381.413	-3.57
381.623	5.71
381.833	5.25
382.043	-7.05
382.253	-14.66
382.463	-13.99
382.674	-24.15
382.884	-36.56
383.094	-42.41
383.304	-27.01
383.514	-23.09
383.724	-12.99
383.934	-19.23
384.144	-30.58
384.353	-49.29
384.563	-53.17
384.773	-47.79
384.983	-50.51
385.193	-25.48
385.403	-16.33
385.613	-12.94
385.823	-28.4
386.033	-19.9
386.242	-25.18
386.452	-31.81
386.662	-44.56
386.872	-23.38
387.082	-32.14
387.291	-41.5
387.501	-42.89
387.711	-31.26
387.921	-36.62
388.13	-32.05
388.34	-13.72
388.55	-11.92
388.759	-8.84
388.969	-2.1
389.179	0.52
389.388	-6.15
389.598	0.26
389.807	-8.5
390.017	-14.14
390.227	-16.12
390.436	-15.66
390.646	-17.45
390.855	-11.23
391.065	-10.83
391.274	-11.96
391.484	-15.91
391.693	-14.26
391.903	-14.61
392.112	-8.37
392.322	-5.31
392.531	1.16
392.74	2.34
392.95	-1.7
393.159	-5.37
393.369	-3.71
393.578	-6.23
393.787	-9.06
393.997	-5.88
394.206	-7.75
394.415	-7.42
394.625	-7.67
394.834	-9.17
395.043	-7.53
395.252	-4.4
395.462	-2.93
395.671	-0.7
395.88	2.44
396.089	2.51
396.298	1.29
396.508	0.01
396.717	-0.59
396.926	-0.51
397.135	-1.3
397.344	-1.33
397.553	-0.27
397.762	1.5
397.971	0.62
398.181	0.96
398.39	0.47
398.599	-0.53
398.808	-1.35
399.017	-0.22
399.226	1.25
399.435	2.94
399.644	3.51
399.853	2.56
400.062	2.03
400.27	0.85
400.479	0.13
400.688	-0.46
400.897	-0.09
401.106	-0.02
401.315	0.1
401.524	-0.12
401.733	0.62
401.941	1.25
402.15	1.52
402.359	1.38
402.568	1.73
402.777	1.86
402.985	1.48
403.194	1.25
403.403	1.49
403.612	1.23
403.82	0.76
404.029	1.02
404.238	1.01
404.446	1.13
404.655	1.09
404.864	1.26
405.072	0.93
405.281	1.22
405.489	0.88
405.698	0.87
405.906	0.8
406.115	0.83
406.324	0.66
406.532	1
406.741	1.33
406.949	1.36
407.158	1.33
407.366	1.41
407.574	1.39
407.783	1.45
407.991	1.36
408.2	1.55
408.408	1.5
408.617	1.29
408.825	1.02
409.033	1.09
409.242	1.21
409.45	1.25
409.658	1.18
409.867	1.36
410.075	1.25
410.283	1.05
410.491	0.86
410.7	0.87
410.908	0.87
411.116	1.29
411.324	1.3
411.533	1.32
411.741	1.62
411.949	1.53
412.157	1.13
412.365	1.12
412.573	1.24
412.781	1.23
412.99	1.2
413.198	1.36
413.406	1.4
413.614	1.39
413.822	1.18
414.03	1.03
414.238	0.82
414.446	0.95
414.654	0.75
414.862	0.93
415.07	1
415.278	1.32
415.486	0.91
415.694	1.07
415.902	0.89
416.109	0.82
416.317	0.75
416.525	0.76
416.733	0.65
416.941	0.81
417.149	0.78
417.357	0.73
417.564	1.03
417.772	1.46
417.98	1.34
418.188	1.48
418.395	1.46
418.603	1.59
418.811	0.99
419.019	0.98
419.226	1.12
419.434	1.27
419.642	0.91
419.849	1.22
420.057	1.22
420.265	1.14
420.472	0.8
420.68	1
420.887	0.94
421.095	1
421.302	0.94
421.51	1.32
421.717	1.34
421.925	1.4
422.132	1.32
422.34	1.06
422.547	1.02
422.755	0.89
422.962	0.73
423.17	0.61
423.377	0.94
423.585	0.97
423.792	0.91
423.999	1.1
424.207	1.09
424.414	1.11
424.621	0.87
424.829	0.97
425.036	0.88
425.243	1.13
425.451	0.89
425.658	0.79
425.865	0.95
426.072	0.91
426.28	0.96
426.487	1.12
426.694	1.28
426.901	0.96
427.108	1.02
427.315	0.88
427.523	0.98
427.73	0.95
427.937	1.05
428.144	0.84
428.351	0.8
428.558	0.86
428.765	0.8
428.972	0.74
429.179	0.95
429.386	1.32
429.593	1.09
429.8	1
430.007	1.02
430.214	1.1
430.421	0.72
430.628	0.55
430.835	0.54
431.042	0.85
431.249	0.88
431.456	0.98
431.662	1.19
431.869	1.38
432.076	1.3
432.283	1.31
432.49	1.26
432.697	1.27
432.903	1.03
433.11	0.91
433.317	0.9
433.524	1.17
433.73	1.11
433.937	1.43
434.144	1.33
434.35	1.22
434.557	1.01
434.764	1.04
434.97	0.89
435.177	1.16
435.384	1.13
435.59	1.2
435.797	1.44
436.003	1.5
436.21	1.35
436.416	1.52
436.623	1.46
436.829	1.38
437.036	1.45
437.242	1.46
437.449	1.32
437.655	1.39
437.862	1.28
438.068	1.13
438.275	1.32
438.481	1.61
438.687	1.59
438.894	1.55
439.1	1.6
439.307	1.68
439.513	1.42
439.719	1.42
439.926	1.62
440.132	1.66
440.338	1.44
440.544	1.69
440.751	1.55
440.957	1.56
441.163	1.45
441.369	1.55
441.575	1.31
441.782	1.37
441.988	1.21
442.194	1.28
442.4	1.28
442.606	1.52
442.812	1.61
443.018	1.79
443.224	1.85
443.431	1.89
443.637	1.65
443.843	1.53
444.049	1.44
444.255	1.42
444.461	1.45
444.667	1.54
444.873	1.79
445.079	1.86
445.284	1.97
445.49	1.68
445.696	1.52
445.902	1.32
446.108	1.19
446.314	1.02
446.52	1.16
446.726	1.45
446.931	1.51
447.137	1.65
447.343	1.68
447.549	1.63
447.755	1.44
447.96	1.5
448.166	1.42
448.372	1.43
448.578	1.57
448.783	1.59
448.989	1.68
449.195	1.85
449.4	1.86
449.606	1.76
449.812	1.61
450.017	1.61
450.223	1.43
450.428	1.29
450.634	1.45
450.84	1.69
451.045	1.58
451.251	1.56
451.456	1.91
451.662	1.88
451.867	1.89
452.073	1.86
452.278	1.98
452.483	2.01
452.689	1.91
452.894	1.92
453.1	1.95
453.305	1.87
453.51	1.71
453.716	1.68
453.921	1.65
454.127	1.66
454.332	1.64
454.537	1.58
454.742	1.62
454.948	1.59
455.153	1.62
455.358	1.71
455.563	1.86
455.769	2.05
