Data from Ofra_2a_PS_2GT3_Reflection_1.txt Node
Date: Tue Jul 20 09:40:32 EDT 2021
User: Adam
Spectrometer: FLMT01687
Trigger mode: 0
Integration Time (sec): 9.450000E-1
Scans to average: 3
Electric dark correction enabled: true
Nonlinearity correction enabled: false
Boxcar width: 3
XAxis mode: Wavelengths
Number of Pixels in Spectrum: 3648
>>>>>Begin Spectral Data<<<<<
179.494	1555.62
179.716	1015.85
179.937	1064.84
180.158	4201.56
180.38	-2087.21
180.601	-326.02
180.823	-120.27
181.044	-1.59
181.265	78.47
181.486	56.54
181.708	-643.48
181.929	-100.93
182.15	-990.91
182.372	137.91
182.593	85.62
182.814	64.07
183.035	-26.45
183.257	43.57
183.478	14.43
183.699	37.65
183.92	32.24
184.141	20.74
184.363	13.58
184.584	20.7
184.805	14.14
185.026	6.6
185.247	-20.07
185.468	-3.45
185.689	10.22
185.91	18.41
186.132	20.42
186.353	11.87
186.574	10.48
186.795	-3.85
187.016	-6.5
187.237	-8.89
187.458	-35.85
187.679	-61.8
187.9	-36.63
188.121	-23.35
188.342	2.54
188.563	-0.65
188.784	1.39
189.005	22.02
189.226	33.52
189.447	23.01
189.667	15.32
189.888	19.1
190.109	1.54
190.33	-8.47
190.551	-27.38
190.772	-43.08
190.993	-19.96
191.214	-22.09
191.434	-38.45
191.655	-11.91
191.876	5.55
192.097	3.11
192.318	9.95
192.538	1.4
192.759	3.53
192.98	0.56
193.201	6.54
193.421	3.67
193.642	6.38
193.863	1.47
194.083	-4.1
194.304	-10.97
194.525	2.57
194.745	-26.47
194.966	-28.66
195.187	-24.04
195.407	-23.86
195.628	-16.74
195.848	-27.11
196.069	-31.18
196.29	-28.04
196.51	-49.36
196.731	-30.68
196.951	-24.2
197.172	-58.27
197.392	-16.74
197.613	-25.62
197.833	-30.61
198.054	-28.71
198.274	-68.9
198.495	-91.23
198.715	-84.69
198.936	-111.28
199.156	-69.3
199.377	-55.55
199.597	-52.96
199.817	-19.47
200.038	2.78
200.258	15.95
200.479	5.34
200.699	0.22
200.919	-15.56
201.14	-12.68
201.36	-20.09
201.58	-31.65
201.801	-26.42
202.021	-13.4
202.241	-17.19
202.461	-3.95
202.682	4.53
202.902	15.29
203.122	16.75
203.342	25.75
203.563	26.62
203.783	29.2
204.003	27.33
204.223	32.83
204.443	23.68
204.663	27.42
204.884	11.06
205.104	-2.75
205.324	8.28
205.544	0.43
205.764	-31.1
205.984	-20.86
206.204	-24.39
206.424	-10.51
206.644	0.82
206.864	-8.41
207.084	7.69
207.304	4.65
207.525	-5.94
207.745	-3.71
207.964	-2.27
208.184	-12.18
208.404	-22.04
208.624	-51.9
208.844	-48.86
209.064	-31.2
209.284	-27.81
209.504	-33.7
209.724	-63.1
209.944	-52.63
210.164	-31.94
210.384	-18.73
210.604	-35.66
210.823	-46.99
211.043	-49.45
211.263	-24.47
211.483	-16.64
211.703	-13.16
211.922	-4.16
212.142	-0.29
212.362	14.8
212.582	13.76
212.801	11.61
213.021	-3.41
213.241	-11.72
213.461	-17.47
213.68	-16.15
213.9	-20.91
214.12	-17.5
214.339	-12.46
214.559	4.67
214.779	0.45
214.998	-7.32
215.218	-2.41
215.438	2.99
215.657	8.08
215.877	5.5
216.096	-2.45
216.316	-1.16
216.535	4.12
216.755	-20.88
216.974	-20.61
217.194	-23.25
217.413	-13.93
217.633	-8.82
217.852	5.6
218.072	-8.18
218.291	35.96
218.511	21.56
218.73	8.24
218.95	1.53
219.169	-3.97
219.389	-13.09
219.608	1.36
219.827	-37.25
220.047	-29.9
220.266	-17.92
220.485	0.39
220.705	5.85
220.924	10.67
221.143	4.83
221.363	4.73
221.582	-4.56
221.801	-0.95
222.021	-15.06
222.24	-32.3
222.459	-35.45
222.678	-48.48
222.897	-36.9
223.117	-33.15
223.336	-23.33
223.555	-18.31
223.774	-1.32
223.993	14.13
224.213	11.67
224.432	7.78
224.651	8.12
224.87	5.56
225.089	13.95
225.308	13.94
225.527	0.42
225.746	2.56
225.965	3.3
226.184	-1.25
226.404	-7.04
226.623	-11.44
226.842	-18.97
227.061	-26.56
227.28	-18.28
227.499	6.26
227.718	4.48
227.936	-5.1
228.155	-6.76
228.374	-0.03
228.593	0.78
228.812	-6.08
229.031	-20.69
229.25	-18.64
229.469	-2.63
229.688	-0.3
229.907	-12.84
230.125	-1.11
230.344	3.75
230.563	12.94
230.782	1.88
231.001	-5.39
231.22	-14.14
231.438	-3.7
231.657	-4.73
231.876	-13.13
232.095	-21.55
232.313	-7.07
232.532	-2.2
232.751	-0.76
232.969	4.73
233.188	7.08
233.407	13.48
233.625	6.2
233.844	6.86
234.063	-5.46
234.281	-0.36
234.5	-1.63
234.719	-14.1
234.937	-14.28
235.156	-11.97
235.374	-20.94
235.593	-9.42
235.811	-22.22
236.03	-41.35
236.249	-28.57
236.467	-21.61
236.686	-13.58
236.904	-19.48
237.123	-11.18
237.341	-3.07
237.559	-3.88
237.778	7.14
237.996	3.64
238.215	-0.28
238.433	16.15
238.652	12.56
238.87	9.68
239.088	3.56
239.307	4.96
239.525	-4.54
239.743	-10.38
239.962	-20.73
240.18	-12.86
240.398	0.78
240.617	16.53
240.835	5.06
241.053	24.27
241.271	38.63
241.49	26.95
241.708	20.54
241.926	-6.39
242.144	-19.43
242.363	-16.19
242.581	-27.41
242.799	-39.49
243.017	-11.64
243.235	-24.64
243.453	-14.53
243.672	-14.87
243.89	-4.97
244.108	9.89
244.326	7.95
244.544	-2.95
244.762	10.4
244.98	13.75
245.198	15.47
245.416	4.89
245.634	12.82
245.852	16.2
246.07	22.06
246.288	18.11
246.506	24.23
246.724	30.42
246.942	43.34
247.16	15.02
247.378	0.65
247.596	0.36
247.814	-10.66
248.032	-19.86
248.25	-32.56
248.468	-38.97
248.685	-31.72
248.903	-34.65
249.121	-44.09
249.339	-28.56
249.557	-27.7
249.775	-38.2
249.992	-39.08
250.21	-44.04
250.428	-29.33
250.646	-16.81
250.863	-15.95
251.081	-22.66
251.299	-8.38
251.517	10.54
251.734	0.45
251.952	-8
252.17	-49.61
252.387	-41.47
252.605	-31.79
252.823	-32.22
253.04	-41.97
253.258	-36.83
253.475	-21.95
253.693	2.64
253.911	1.81
254.128	-2.92
254.346	-7.17
254.563	-15.34
254.781	-13.83
254.998	-16.96
255.216	-18.07
255.433	-18.09
255.651	-12.56
255.868	-5.07
256.086	-6.08
256.303	-4.61
256.521	-25.76
256.738	-26.81
256.956	-39.76
257.173	-36.32
257.39	-29.67
257.608	-15.66
257.825	-25.05
258.043	-7.14
258.26	-15.42
258.477	-7.65
258.695	-2.83
258.912	2.67
259.129	-8.28
259.346	3.31
259.564	-1.15
259.781	18.03
259.998	24.41
260.216	24.48
260.433	6.26
260.65	0.53
260.867	-10.5
261.084	-10.79
261.302	-29.93
261.519	-42.45
261.736	-52.07
261.953	-46.54
262.17	-24.12
262.387	-32.36
262.604	-42.15
262.822	-23.07
263.039	-21.24
263.256	-19.79
263.473	-17.89
263.69	-25.74
263.907	-7.12
264.124	2.58
264.341	-4.69
264.558	5.01
264.775	15.63
264.992	15.48
265.209	18.47
265.426	16.32
265.643	16.83
265.86	10.58
266.077	5.1
266.294	-0.98
266.51	-0.36
266.727	-8.1
266.944	-21.83
267.161	-26.84
267.378	-22.75
267.595	-33
267.812	-33.46
268.028	-23.25
268.245	-18.08
268.462	-14.87
268.679	-20.9
268.896	-18.6
269.112	-8.62
269.329	1.16
269.546	-3.66
269.763	0.05
269.979	6.33
270.196	16.15
270.413	17.11
270.629	14.59
270.846	8.77
271.063	8.5
271.279	1.66
271.496	-12.24
271.712	-15.83
271.929	-18.32
272.146	-17.88
272.362	-43.47
272.579	-46.14
272.795	-50
273.012	-32.4
273.228	-30.48
273.445	-26.77
273.661	-22.09
273.878	-9.2
274.094	-7.21
274.311	-8.7
274.527	-12.66
274.744	-20.44
274.96	-22.74
275.177	-21.25
275.393	-22.21
275.609	-19.59
275.826	-9.21
276.042	0.59
276.259	8.21
276.475	15.5
276.691	14.72
276.908	14.48
277.124	10.57
277.34	6.49
277.557	3.8
277.773	-0.78
277.989	-5.02
278.205	-13.24
278.422	-2.24
278.638	10.56
278.854	13.83
279.07	5.75
279.286	-4.82
279.503	-3.41
279.719	9.36
279.935	-5.42
280.151	-6.27
280.367	-9.93
280.583	1.92
280.799	20.37
281.016	18.86
281.232	8.68
281.448	10.41
281.664	13.06
281.88	22.35
282.096	20.13
282.312	1.24
282.528	-10.29
282.744	-6.12
282.96	-5.58
283.176	-7.54
283.392	-12.06
283.608	-8.03
283.824	-9.96
284.04	-0.03
284.256	-0.34
284.471	5.55
284.687	3.11
284.903	0.21
285.119	-17.84
285.335	-6.69
285.551	1.4
285.767	3.58
285.982	9.74
286.198	5.48
286.414	14.4
286.63	20.58
286.846	18.83
287.061	10.24
287.277	9.58
287.493	3.78
287.709	0.38
287.924	-3.59
288.14	8.6
288.356	9.41
288.571	12.58
288.787	17.5
289.003	22.95
289.218	18.47
289.434	12.55
289.65	10.2
289.865	13.62
290.081	9.54
290.296	2.31
290.512	1.5
290.727	15.69
290.943	0.05
291.159	-11.53
291.374	-6.18
291.59	-7.12
291.805	-8.07
292.021	-27.4
292.236	-27.6
292.451	-5.68
292.667	1.9
292.882	-15.26
293.098	-12.93
293.313	-10.67
293.529	-1.65
293.744	-0.54
293.959	-2.21
294.175	-15.67
294.39	-5.87
294.605	-15.73
294.821	-15.54
295.036	-7.75
295.251	-1.9
295.467	-3.97
295.682	3.48
295.897	0.05
296.112	2.88
296.328	-1.96
296.543	-20.86
296.758	-29.17
296.973	-28.89
297.188	-29.71
297.404	-22.11
297.619	-13.23
297.834	5.87
298.049	10.99
298.264	12.24
298.479	-3.8
298.694	-0.41
298.909	-9.29
299.125	-9.78
299.34	-22.89
299.555	-12.64
299.77	-17.48
299.985	-10.34
300.2	-9.79
300.415	-4.21
300.63	-11.19
300.845	-8.5
301.06	-6.07
301.275	-4.03
301.49	8.53
301.704	5.6
301.919	0.26
302.134	-1.53
302.349	-8.88
302.564	-27.85
302.779	-38.96
302.994	-60.18
303.209	-77.66
303.423	-59.81
303.638	-47.7
303.853	-37
304.068	-14.83
304.283	-11
304.497	-2.95
304.712	10.43
304.927	2.01
305.142	-3.31
305.356	7.04
305.571	8.8
305.786	12.22
306	19.17
306.215	20.61
306.43	26.2
306.644	27.44
306.859	22.08
307.074	16.07
307.288	18.63
307.503	13.38
307.717	12.27
307.932	9.68
308.147	9.02
308.361	-0.1
308.576	-2.96
308.79	-3.76
309.005	0.56
309.219	-1.11
309.434	-1.91
309.648	-14.93
309.863	-9
310.077	-10.89
310.292	-13.78
310.506	-9.32
310.72	-11.57
310.935	-7.83
311.149	5.89
311.364	5.89
311.578	8.63
311.792	6.25
312.007	-0.89
312.221	1.48
312.435	3.73
312.649	3.75
312.864	-11.12
313.078	-18.36
313.292	-9.93
313.507	-9.61
313.721	-12.43
313.935	-8.05
314.149	-2.32
314.363	8.3
314.578	38.77
314.792	32.27
315.006	26.56
315.22	26.25
315.434	15.43
315.648	8.47
315.862	10.21
316.077	-10.14
316.291	-5.59
316.505	4.48
316.719	-8.37
316.933	3.44
317.147	14
317.361	16.26
317.575	18.04
317.789	15.31
318.003	12.8
318.217	16.96
318.431	20.2
318.645	16.23
318.859	5.91
319.073	7.42
319.287	9.16
319.5	7.33
319.714	8.25
319.928	4.04
320.142	1.95
320.356	15.9
320.57	9.42
320.784	12.46
320.997	14.9
321.211	8.03
321.425	-0.76
321.639	7.86
321.853	-7.81
322.066	-11.79
322.28	-19.81
322.494	-24.24
322.707	-13
322.921	-0.36
323.135	-1.23
323.349	8.01
323.562	12.49
323.776	21.07
323.989	20.66
324.203	25.12
324.417	8.45
324.63	-2.48
324.844	-16.08
325.057	-6.6
325.271	-36.22
325.485	-31.51
325.698	-40.46
325.912	-21.52
326.125	-17.65
326.339	-4.96
326.552	-10.93
326.766	11.8
326.979	11.51
327.193	6.53
327.406	-2.03
327.619	-11.81
327.833	-17.02
328.046	-18.89
328.26	-32.02
328.473	-37.04
328.686	-24.89
328.9	-24.18
329.113	-19.13
329.326	-7.98
329.54	-10.23
329.753	-5.93
329.966	-4.95
330.179	-2.03
330.393	1.47
330.606	5.95
330.819	4.3
331.032	9.96
331.246	10.86
331.459	12.06
331.672	12.93
331.885	5.44
332.098	-2.36
332.311	-18.6
332.525	-13.37
332.738	-13.98
332.951	-13.11
333.164	-22.19
333.377	-26.02
333.59	-13.92
333.803	-0.93
334.016	-1.19
334.229	1.18
334.442	20.51
334.655	22.91
334.868	33.29
335.081	30.96
335.294	29.17
335.507	25.07
335.72	14.87
335.933	5.2
336.146	7.83
336.359	0.05
336.572	-4.69
336.785	4.68
336.997	-1.59
337.21	6.32
337.423	8.13
337.636	11.83
337.849	9.85
338.062	21.1
338.274	17.51
338.487	17.57
338.7	15.98
338.913	13.43
339.125	7.59
339.338	16.66
339.551	12
339.763	9.33
339.976	9.98
340.189	4.95
340.402	4.66
340.614	8.08
340.827	-7.27
341.039	-11.05
341.252	-13.39
341.465	-17.6
341.677	-13.22
341.89	-20.74
342.102	-17.49
342.315	-4.16
342.527	-6.07
342.74	-5.55
342.952	2.63
343.165	14.7
343.377	17.9
343.59	11.07
343.802	5.61
344.015	11.17
344.227	2.39
344.44	-1.29
344.652	-8.64
344.864	-4.81
345.077	-10.95
345.289	-7.86
345.502	-7.87
345.714	-4.27
345.926	-14.44
346.139	-13.91
346.351	-33.89
346.563	-24.18
346.775	-30.31
346.988	-26.15
347.2	-14.39
347.412	-9.11
347.624	-5.35
347.837	6.49
348.049	8.99
348.261	10.1
348.473	2.86
348.685	10.43
348.897	5.38
349.11	-0.94
349.322	-11.39
349.534	-20.73
349.746	-11.99
349.958	-5.73
350.17	-16.38
350.382	-12.9
350.594	-12.45
350.806	0.05
351.018	2.89
351.23	2.55
351.442	-1.58
351.654	2.84
351.866	5.18
352.078	-1.3
352.29	-2.09
352.502	-2.08
352.714	-6.53
352.926	-4.23
353.138	-8.06
353.35	-13.11
353.561	-1.01
353.773	-3.69
353.985	-3.51
354.197	-5.52
354.409	0.37
354.621	0.86
354.832	0.11
355.044	4.18
355.256	5.46
355.468	5.24
355.679	5.26
355.891	-1.15
356.103	-8.52
356.314	-7.39
356.526	-16.25
356.738	-20.03
356.949	-15.58
357.161	-13.16
357.373	-10.27
357.584	1.53
357.796	6.19
358.008	10.84
358.219	18.72
358.431	16.97
358.642	9.45
358.854	11
359.065	6.99
359.277	4.79
359.488	-1.02
359.7	-2.11
359.911	-2.92
360.123	6.87
360.334	4.24
360.546	-2.67
360.757	9.06
360.969	13.98
361.18	7.62
361.391	9.6
361.603	5.57
361.814	5.96
362.025	9.43
362.237	-0.33
362.448	0.04
362.659	-5.4
362.871	-2.24
363.082	-1.52
363.293	1.16
363.504	3.34
363.716	8.33
363.927	6.86
364.138	14.59
364.349	19.23
364.56	20.45
364.772	15.18
364.983	8.7
365.194	0.44
365.405	-2.1
365.616	-14.42
365.827	-26.35
366.038	-11.34
366.25	-3.01
366.461	9.47
366.672	9.83
366.883	11.69
367.094	12.35
367.305	8.11
367.516	-3.56
367.727	-8.2
367.938	-11.6
368.149	-0.7
368.36	2.26
368.571	2.13
368.781	2.26
368.992	2.27
369.203	5.1
369.414	-2.68
369.625	-7.89
369.836	-11.26
370.047	-6.95
370.258	-4.64
370.468	-5.55
370.679	-6.54
370.89	6.18
371.101	2.22
371.312	2.85
371.522	8.14
371.733	2.43
371.944	3.28
372.155	-10
372.365	-20.96
372.576	-21.68
372.787	-22.65
372.997	-30.72
373.208	-20.44
373.419	-21.21
373.629	-4.81
373.84	-8.16
374.05	-6.24
374.261	-6.89
374.472	-4.82
374.682	-16.18
374.893	-19.5
375.103	-14.52
375.314	-7.69
375.524	-7.39
375.735	-3.32
375.945	-3.9
376.156	6.37
376.366	10.85
376.577	7.15
376.787	5.9
376.997	10.9
377.208	4.36
377.418	10.08
377.629	3.51
377.839	8.61
378.049	9.51
378.26	12.66
378.47	11.14
378.68	15.67
378.89	4.5
379.101	1.04
379.311	-12.24
379.521	-7.24
379.732	-17.6
379.942	-19.62
380.152	-15.15
380.362	1.1
380.572	6.47
380.783	15.3
380.993	9.89
381.203	13.59
381.413	18.28
381.623	15.01
381.833	6.21
382.043	2.35
382.253	0.85
382.463	1.38
382.674	4.53
382.884	-0.43
383.094	0.95
383.304	2.14
383.514	5.93
383.724	4.26
383.934	1.45
384.144	2.91
384.353	4.68
384.563	1.66
384.773	2.5
384.983	2.88
385.193	6.66
385.403	12.13
385.613	8.13
385.823	7.26
386.033	6.84
386.242	7.92
386.452	5.1
386.662	4.16
386.872	-0.65
387.082	-1.24
387.291	-0.96
387.501	0.53
387.711	-0.59
387.921	1.57
388.13	-2.25
388.34	-0.46
388.55	2.37
388.759	2.24
388.969	-0.1
389.179	2.66
389.388	3.85
389.598	1.94
389.807	1.76
390.017	1.14
390.227	2.03
390.436	2.44
390.646	1.83
390.855	0.19
391.065	0.98
391.274	-1.18
391.484	-0.21
391.693	-0.37
391.903	-0.84
392.112	-1.33
392.322	1.13
392.531	2.87
392.74	3.07
392.95	3.32
393.159	3.61
393.369	4.58
393.578	4.43
393.787	3.74
393.997	5.17
394.206	5.22
394.415	5.52
394.625	4.61
394.834	3.23
395.043	3.61
395.252	3.41
395.462	2.31
395.671	3.5
395.88	3.12
396.089	3.74
396.298	4.27
396.508	4.23
396.717	3.48
396.926	3.28
397.135	2.64
397.344	2.5
397.553	2.76
397.762	3.07
397.971	2.91
398.181	2.93
398.39	3.47
398.599	4.1
398.808	4.59
399.017	4.66
399.226	4.85
399.435	4.8
399.644	5.11
399.853	5.07
400.062	4.61
400.27	4.36
400.479	4.23
400.688	4.09
400.897	4.32
401.106	4.42
401.315	4.16
401.524	4.47
401.733	4.59
401.941	4.36
402.15	4.28
402.359	4.2
402.568	4.13
402.777	4.23
402.985	4.01
403.194	3.9
403.403	3.81
403.612	3.79
403.82	3.81
404.029	3.78
404.238	3.72
404.446	3.74
404.655	3.68
404.864	3.74
405.072	3.79
405.281	3.63
405.489	3.68
405.698	3.63
405.906	3.5
406.115	3.53
406.324	3.46
406.532	3.38
406.741	3.51
406.949	3.44
407.158	3.56
407.366	3.66
407.574	3.67
407.783	3.67
407.991	3.66
408.2	3.55
408.408	3.5
408.617	3.38
408.825	3.32
409.033	3.28
409.242	3.25
409.45	3.28
409.658	3.33
409.867	3.37
410.075	3.36
410.283	3.32
410.491	3.29
410.7	3.32
410.908	3.3
411.116	3.22
411.324	3.22
411.533	3.15
411.741	3.16
411.949	3.21
412.157	3.3
412.365	3.3
412.573	3.29
412.781	3.23
412.99	3.4
413.198	3.43
413.406	3.32
413.614	3.24
413.822	3.26
414.03	3.2
414.238	3.24
414.446	3.13
414.654	3.11
414.862	3.15
415.07	3.19
415.278	3.13
415.486	3.25
415.694	3.17
415.902	3.16
416.109	3.17
416.317	3.19
416.525	3.14
416.733	3.2
416.941	3.06
417.149	3.15
417.357	3.17
417.564	3.17
417.772	3.13
417.98	3.09
418.188	2.98
418.395	3.07
418.603	2.91
418.811	2.82
419.019	2.8
419.226	2.86
419.434	2.84
419.642	2.9
419.849	2.88
420.057	2.9
420.265	2.94
420.472	2.89
420.68	2.8
420.887	2.87
421.095	2.94
421.302	2.95
421.51	3.1
421.717	3.16
421.925	3.13
422.132	3.14
422.34	3.04
422.547	2.91
422.755	2.84
422.962	2.67
423.17	2.48
423.377	2.53
423.585	2.52
423.792	2.53
423.999	2.57
424.207	2.58
424.414	2.62
424.621	2.66
424.829	2.59
425.036	2.55
425.243	2.57
425.451	2.55
425.658	2.6
425.865	2.57
426.072	2.62
426.28	2.69
426.487	2.68
426.694	2.59
426.901	2.47
427.108	2.48
427.315	2.55
427.523	2.53
427.73	2.52
427.937	2.54
428.144	2.62
428.351	2.75
428.558	2.64
428.765	2.57
428.972	2.64
429.179	2.6
429.386	2.73
429.593	2.71
429.8	2.72
430.007	2.79
430.214	2.86
430.421	2.82
430.628	2.71
430.835	2.62
431.042	2.63
431.249	2.63
431.456	2.68
431.662	2.59
431.869	2.63
432.076	2.72
432.283	2.72
432.49	2.67
432.697	2.65
432.903	2.6
433.11	2.68
433.317	2.71
433.524	2.64
433.73	2.66
433.937	2.68
434.144	2.76
434.35	2.76
434.557	2.71
434.764	2.66
434.97	2.79
435.177	2.75
435.384	2.79
435.59	2.74
435.797	2.72
436.003	2.75
436.21	2.72
436.416	2.64
436.623	2.68
436.829	2.74
437.036	2.69
437.242	2.77
437.449	2.81
437.655	2.86
437.862	2.93
438.068	3
438.275	2.92
438.481	3.09
438.687	3.13
438.894	3.05
439.1	3.09
439.307	3.09
439.513	3.01
439.719	3.07
439.926	3.03
440.132	2.97
440.338	3.09
440.544	3.05
440.751	3.03
440.957	3.03
441.163	3.07
441.369	3.03
441.575	3.06
441.782	2.97
441.988	2.95
442.194	2.99
442.4	3.01
442.606	2.97
442.812	2.95
443.018	2.96
443.224	3.06
443.431	3.16
443.637	3.09
443.843	3.18
444.049	3.18
444.255	3.17
444.461	3.17
444.667	3.15
444.873	3.06
445.079	3.17
445.284	3.13
445.49	3.17
445.696	3.21
445.902	3.25
446.108	3.23
446.314	3.31
446.52	3.3
446.726	3.28
446.931	3.26
447.137	3.29
447.343	3.3
447.549	3.28
447.755	3.22
447.96	3.22
448.166	3.31
448.372	3.32
448.578	3.36
448.783	3.31
448.989	3.35
449.195	3.36
449.4	3.36
449.606	3.31
449.812	3.31
450.017	3.27
450.223	3.28
450.428	3.31
450.634	3.34
450.84	3.37
451.045	3.39
451.251	3.39
451.456	3.39
451.662	3.39
451.867	3.36
452.073	3.34
452.278	3.28
452.483	3.26
452.689	3.31
452.894	3.29
453.1	3.26
453.305	3.27
453.51	3.29
453.716	3.32
453.921	3.34
454.127	3.32
454.332	3.35
454.537	3.41
454.742	3.4
454.948	3.41
455.153	3.4
455.358	3.46
455.563	3.46
455.769	3.45
455.974	3.44
456.179	3.39
456.384	3.41
456.589	3.48
456.795	3.36
457	3.42
457.205	3.4
457.41	3.39
457.615	3.47
457.82	3.5
458.025	3.44
458.23	3.51
458.435	3.44
458.64	3.52
458.845	3.52
459.05	3.51
459.255	3.44
459.46	3.46
459.665	3.5
459.87	3.55
460.075	3.5
460.28	3.54
460.485	3.6
460.69	3.63
460.895	3.66
461.099	3.62
461.304	3.61
461.509	3.58
461.714	3.57
461.919	3.52
462.123	3.54
462.328	3.5
462.533	3.51
462.738	3.54
462.942	3.62
463.147	3.61
463.352	3.66
463.556	3.69
463.761	3.74
463.966	3.75
464.17	3.72
464.375	3.66
464.58	3.63
464.784	3.65
464.989	3.58
465.193	3.59
465.398	3.65
465.602	3.69
465.807	3.76
466.011	3.83
466.216	3.81
466.42	3.86
466.625	3.88
466.829	3.89
467.034	3.93
467.238	3.96
