Data from Ofra_PS_T2_1A_1GT42_Reflection_1.txt Node
Date: Wed Jul 21 17:48:41 EDT 2021
User: Adam
Spectrometer: FLMT01687
Trigger mode: 0
Integration Time (sec): 1.100000E0
Scans to average: 2
Electric dark correction enabled: true
Nonlinearity correction enabled: false
Boxcar width: 2
XAxis mode: Wavelengths
Number of Pixels in Spectrum: 3648
>>>>>Begin Spectral Data<<<<<
179.494	597.2
179.716	668.71
179.937	666.63
180.158	695.37
180.38	1157.19
180.601	474.31
180.823	183.5
181.044	81.28
181.265	150.37
181.486	120.78
181.708	104.73
181.929	643.88
182.15	11.97
182.372	186.32
182.593	170.21
182.814	50.52
183.035	74
183.257	53.92
183.478	-15.43
183.699	57.53
183.92	36.94
184.141	63.97
184.363	10.44
184.584	59.4
184.805	33.83
185.026	56.72
185.247	51.33
185.468	16.61
185.689	11.42
185.91	16.6
186.132	-4.18
186.353	-12.28
186.574	58.85
186.795	34.09
187.016	-18.91
187.237	-3.41
187.458	-9.43
187.679	-6.45
187.9	40.57
188.121	51.11
188.342	96.01
188.563	111.41
188.784	146.83
189.005	101.18
189.226	134.44
189.447	91.45
189.667	-233.25
189.888	-424.38
190.109	-1282.47
190.33	-623.55
190.551	-1187.17
190.772	-166.46
190.993	-191.29
191.214	-161.24
191.434	-142.3
191.655	-45.71
191.876	-115.72
192.097	-122.81
192.318	-182.07
192.538	-270.23
192.759	-188.84
192.98	-73.14
193.201	-23.3
193.421	-3.36
193.642	15.85
193.863	20.42
194.083	-12.91
194.304	-32.29
194.525	-26.68
194.745	-45.88
194.966	-88.73
195.187	-86.97
195.407	-79.5
195.628	-152.95
195.848	-151
196.069	-104.9
196.29	-54.36
196.51	-80.14
196.731	-59.57
196.951	-57.8
197.172	-74.51
197.392	-120.28
197.613	-121.35
197.833	-163.26
198.054	-138.47
198.274	-108.02
198.495	-112.82
198.715	-66.22
198.936	-68.15
199.156	-69.44
199.377	-138.12
199.597	-124.94
199.817	-159.55
200.038	-106.99
200.258	-139.54
200.479	-59.18
200.699	-29.77
200.919	33.96
201.14	2.37
201.36	-48.73
201.58	-5.02
201.801	27.25
202.021	-2.31
202.241	-0.84
202.461	3.82
202.682	-95.56
202.902	-192.35
203.122	-142.83
203.342	-111.27
203.563	-59.33
203.783	-10.1
204.003	-40.88
204.223	-55.7
204.443	3.67
204.663	-10.16
204.884	6.61
205.104	54.65
205.324	98.47
205.544	82.95
205.764	77.63
205.984	63.09
206.204	48.15
206.424	32.72
206.644	-1.65
206.864	13.16
207.084	-43.69
207.304	-38.65
207.525	-234.53
207.745	-169.51
207.964	-109.09
208.184	-124.79
208.404	-175.44
208.624	-152.16
208.844	-119.29
209.064	-428
209.284	-380.96
209.504	-114.35
209.724	13.92
209.944	12.2
210.164	46.69
210.384	41.26
210.604	28.22
210.823	-22.52
211.043	-49.96
211.263	-42.27
211.483	-38.63
211.703	-105.52
211.922	-86.66
212.142	-21.92
212.362	-9.4
212.582	-11.7
212.801	14.39
213.021	-4.1
213.241	-10.45
213.461	-62.78
213.68	-80.75
213.9	-50.09
214.12	-35.03
214.339	-94.94
214.559	-64.65
214.779	-24.5
214.998	-50.3
215.218	-91.83
215.438	-48.45
215.657	-50.79
215.877	-47.3
216.096	6.36
216.316	29.14
216.535	30.66
216.755	41.58
216.974	-11.83
217.194	-81.46
217.413	-116.04
217.633	-136.43
217.852	-277.06
218.072	-132.92
218.291	-60.77
218.511	-0.24
218.73	-16.82
218.95	-3.69
219.169	-4.81
219.389	-60.56
219.608	-61.61
219.827	-55.32
220.047	-61.87
220.266	-29.57
220.485	-11.48
220.705	-3.32
220.924	-28.1
221.143	16.84
221.363	-4.87
221.582	5.59
221.801	23.57
222.021	41.54
222.24	-13.48
222.459	55.16
222.678	-3.18
222.897	-104.98
223.117	-135.52
223.336	-104.03
223.555	-71.83
223.774	-27.49
223.993	2.32
224.213	42.8
224.432	26.34
224.651	49.65
224.87	36.02
225.089	46.39
225.308	37.82
225.527	47.4
225.746	40.58
225.965	35.15
226.184	21.3
226.404	38.06
226.623	6.28
226.842	0.14
227.061	26.81
227.28	27.2
227.499	7.43
227.718	33.03
227.936	21.54
228.155	37.62
228.374	20.94
228.593	25.87
228.812	17.41
229.031	16.26
229.25	-50.41
229.469	-43.48
229.688	-30.41
229.907	2.25
230.125	23.71
230.344	16.99
230.563	34.29
230.782	32.77
231.001	-38.98
231.22	-42.96
231.438	18.2
231.657	0.91
231.876	-7.81
232.095	34.96
232.313	42.91
232.532	4.16
232.751	-33.21
232.969	-51.59
233.188	-140.82
233.407	-61.8
233.625	-29.02
233.844	-48.37
234.063	-26.01
234.281	-12.73
234.5	-32.72
234.719	-40.51
234.937	-8.84
235.156	3.22
235.374	-1.79
235.593	-29.77
235.811	-33.56
236.03	-50.21
236.249	-113.08
236.467	-71.71
236.686	-7.26
236.904	11.19
237.123	-10.02
237.341	-10.28
237.559	-6.03
237.778	-34.93
237.996	-80.75
238.215	-21.61
238.433	-18.54
238.652	-25.73
238.87	-36.9
239.088	-10.36
239.307	-21.65
239.525	-25.46
239.743	-62.99
239.962	-35.22
240.18	-57.75
240.398	-82.16
240.617	-57.05
240.835	-32.44
241.053	-20.64
241.271	35.83
241.49	38.25
241.708	19.53
241.926	23.43
242.144	3.57
242.363	-79.78
242.581	-110.87
242.799	-59.02
243.017	-28.71
243.235	-44.64
243.453	-12.4
243.672	-7.59
243.89	-16.5
244.108	-36.59
244.326	-18.75
244.544	-37.17
244.762	-42.06
244.98	-50.5
245.198	-29.93
245.416	-63.01
245.634	-52.36
245.852	-61.96
246.07	-74.83
246.288	-75.97
246.506	-97.65
246.724	-54.57
246.942	-52.78
247.16	1.73
247.378	3.3
247.596	30.61
247.814	16.27
248.032	8.92
248.25	0.41
248.468	4.96
248.685	20.65
248.903	50.16
249.121	51.37
249.339	9.86
249.557	6.74
249.775	7.36
249.992	-55.58
250.21	-57.6
250.428	-24.53
250.646	-56.95
250.863	-80.01
251.081	-64.55
251.299	-45.25
251.517	-31.82
251.734	-16.98
251.952	-19.88
252.17	-10.87
252.387	-6.38
252.605	-25.07
252.823	-18.37
253.04	5.07
253.258	20.84
253.475	3.08
253.693	28.12
253.911	36.23
254.128	36.94
254.346	48.62
254.563	30.08
254.781	11.01
254.998	-12.03
255.216	-25.2
255.433	-46.28
255.651	-4.24
255.868	3.11
256.086	51.38
256.303	36.77
256.521	39.08
256.738	15.64
256.956	2.8
257.173	-44.17
257.39	-52.44
257.608	-89.01
257.825	-56.44
258.043	-40.36
258.26	-8.08
258.477	29.31
258.695	28.64
258.912	-17.1
259.129	1.58
259.346	-40.34
259.564	-80.35
259.781	-104.76
259.998	-17.49
260.216	13.5
260.433	64.48
260.65	52.77
260.867	61.94
261.084	23.34
261.302	-23.54
261.519	-53.8
261.736	-65.69
261.953	-78.52
262.17	-27.98
262.387	-29.4
262.604	-71.16
262.822	-90.33
263.039	-60.4
263.256	-111.8
263.473	-100.14
263.69	-59.87
263.907	2.14
264.124	19.7
264.341	13.86
264.558	14.44
264.775	42.06
264.992	23.76
265.209	10.28
265.426	48.07
265.643	57.99
265.86	58.37
266.077	68.54
266.294	52.39
266.51	-24.28
266.727	-58.54
266.944	-62.71
267.161	-74.67
267.378	-62.12
267.595	-16.48
267.812	-23
268.028	-51.45
268.245	-15.82
268.462	-52.02
268.679	-50.93
268.896	5.85
269.112	13.99
269.329	2.45
269.546	20.88
269.763	12.13
269.979	-7.76
270.196	-10.94
270.413	-37.26
270.629	-66.33
270.846	-74.47
271.063	-68.73
271.279	-79.83
271.496	-72.1
271.712	-19.43
271.929	-5.68
272.146	-16.81
272.362	7.59
272.579	37.15
272.795	27.07
273.012	28.12
273.228	35.96
273.445	3.26
273.661	-18.09
273.878	-48.99
274.094	-59.8
274.311	-87.77
274.527	-40.13
274.744	-50.25
274.96	-53.75
275.177	-27.77
275.393	-9.83
275.609	-4.88
275.826	36.98
276.042	44.35
276.259	35.09
276.475	40.09
276.691	36.62
276.908	1.38
277.124	3.63
277.34	12.17
277.557	-4.99
277.773	-15.36
277.989	-11.33
278.205	-16.32
278.422	-1.67
278.638	5.36
278.854	14.71
279.07	8.36
279.286	8.48
279.503	-38.68
279.719	-55.76
279.935	-74.82
280.151	-85.93
280.367	-56.35
280.583	-79.15
280.799	-70.95
281.016	-91.75
281.232	-45.15
281.448	-49.69
281.664	-6.05
281.88	-29.75
282.096	-11.08
282.312	-2.3
282.528	17.71
282.744	5.89
282.96	14.53
283.176	18.24
283.392	4.23
283.608	-20.38
283.824	-20.09
284.04	-4.46
284.256	-0.55
284.471	-7.83
284.687	-15.45
284.903	12.1
285.119	42.43
285.335	17.56
285.551	46.33
285.767	33.39
285.982	-7.33
286.198	-73.34
286.414	-5.29
286.63	-0.03
286.846	35.84
287.061	24.66
287.277	64.52
287.493	32.89
287.709	52.93
287.924	31.04
288.14	74.48
288.356	62.26
288.571	86.25
288.787	47.8
289.003	46.94
289.218	14.92
289.434	-30.27
289.65	-44.54
289.865	-43.04
290.081	-8.51
290.296	9.63
290.512	20.67
290.727	-17.78
290.943	-24.57
291.159	-46.86
291.374	-48.57
291.59	-74.62
291.805	-41.91
292.021	-24.33
292.236	-24.79
292.451	-12.79
292.667	11.6
292.882	25.15
293.098	20.43
293.313	11.11
293.529	-23.37
293.744	-44.21
293.959	-57.61
294.175	-59.58
294.39	-16.27
294.605	5.8
294.821	35.23
295.036	33.55
295.251	46.63
295.467	9.89
295.682	-3
295.897	-70.2
296.112	-68.59
296.328	-69.94
296.543	-78.44
296.758	-58.63
296.973	-13.71
297.188	17.23
297.404	-12.2
297.619	-27.7
297.834	-40.49
298.049	-55.81
298.264	-85.3
298.479	-12.66
298.694	3.3
298.909	20.95
299.125	12.95
299.34	26.04
299.555	-10.19
299.77	-0.42
299.985	-51.04
300.2	-93.18
300.415	-119.13
300.63	-57.72
300.845	-66.13
301.06	-62.52
301.275	-21.95
301.49	-2.72
301.704	-31.32
301.919	-47.74
302.134	-57.21
302.349	-54.32
302.564	-131.82
302.779	-167.67
302.994	-114.34
303.209	-57.33
303.423	-22.84
303.638	51.61
303.853	22.91
304.068	12.2
304.283	17.17
304.497	0.7
304.712	-9.19
304.927	-2.06
305.142	-24.52
305.356	-24.81
305.571	-19.29
305.786	-27.45
306	-29.9
306.215	-6.25
306.43	-21.37
306.644	7.35
306.859	30.96
307.074	8.86
307.288	-17.23
307.503	-23.02
307.717	-49.02
307.932	-56.98
308.147	-61.36
308.361	-27.3
308.576	-39.49
308.79	-69.04
309.005	-45.78
309.219	-22.82
309.434	-36.26
309.648	-30.01
309.863	-12.3
310.077	-14.65
310.292	-14.09
310.506	-16.96
310.72	2.47
310.935	27.92
311.149	19.93
311.364	36.43
311.578	54.85
311.792	43.91
312.007	42.78
312.221	21.14
312.435	17.58
312.649	1.61
312.864	47.27
313.078	43.79
313.292	126.72
313.507	116.47
313.721	133.45
313.935	49.81
314.149	28.15
314.363	9.7
314.578	10.01
314.792	4.28
315.006	-11.83
315.22	9.62
315.434	13.76
315.648	18.41
315.862	19.41
316.077	29.42
316.291	-4.73
316.505	-7.31
316.719	-19.23
316.933	-28.05
317.147	-40.3
317.361	-54.8
317.575	-85.54
317.789	-119.49
318.003	-179.68
318.217	-137.29
318.431	-65.34
318.645	-7.98
318.859	-13.02
319.073	21.68
319.287	15.87
319.5	-2.12
319.714	-45.78
319.928	-56.57
320.142	-106.26
320.356	-58.23
320.57	-29.68
320.784	-51.04
320.997	-35.81
321.211	-19.22
321.425	-83.9
321.639	-98.56
321.853	-20.3
322.066	-15.95
322.28	-22.33
322.494	4.13
322.707	16.23
322.921	-12.08
323.135	-12.61
323.349	5.57
323.562	-31.34
323.776	-49.81
323.989	-41.3
324.203	-59.87
324.417	-72.5
324.63	-87.57
324.844	-89.89
325.057	-92.15
325.271	-59.18
325.485	-15.79
325.698	27.74
325.912	45.87
326.125	22.12
326.339	23.74
326.552	7.71
326.766	-5.5
326.979	0.74
327.193	35.1
327.406	6.55
327.619	1.14
327.833	17.4
328.046	-15
328.26	-34.26
328.473	-6.73
328.686	-42.95
328.9	-54.77
329.113	-23.85
329.326	-55.17
329.54	-23.4
329.753	-21.96
329.966	-50.82
330.179	-47.37
330.393	-27.15
330.606	-29.46
330.819	-7.52
331.032	17.9
331.246	20.82
331.459	53.9
331.672	33.41
331.885	29.55
332.098	-4.13
332.311	-24.19
332.525	-87.06
332.738	-37.45
332.951	-7.01
333.164	27.53
333.377	48.09
333.59	50.84
333.803	44.24
334.016	25.32
334.229	10.67
334.442	8.52
334.655	35.03
334.868	33.87
335.081	22.8
335.294	9.78
335.507	0.55
335.72	-31.18
335.933	-48.35
336.146	-51.59
336.359	-42.26
336.572	-72.03
336.785	-71.63
336.997	-53.03
337.21	-30.11
337.423	-42.56
337.636	-34.14
337.849	-21.41
338.062	-32.5
338.274	-33.15
338.487	-34.2
338.7	-37.48
338.913	-85.11
339.125	-109.81
339.338	-160.49
339.551	-123.04
339.763	-66.52
339.976	-26.28
340.189	-1.03
340.402	10.79
340.614	-2.1
340.827	-17.77
341.039	-36.21
341.252	-36.38
341.465	-11.32
341.677	-11.07
341.89	-43.46
342.102	8.14
342.315	-10.32
342.527	-60.7
342.74	-56.6
342.952	-16.47
343.165	-36.7
343.377	2.61
343.59	14.71
343.802	38.95
344.015	44.21
344.227	62.4
344.44	32.49
344.652	26.95
344.864	-4.16
345.077	15.26
345.289	7.49
345.502	19.48
345.714	12.82
345.926	31.19
346.139	10.48
346.351	16.72
346.563	22.73
346.775	25.63
346.988	4.96
347.2	1.08
347.412	-34.19
347.624	-72.89
347.837	-85.46
348.049	-66.84
348.261	-19.1
348.473	-4.88
348.685	-3.89
348.897	-5.09
349.11	-24.36
349.322	-69.22
349.534	-55.13
349.746	-42.74
349.958	-30.73
350.17	-30.43
350.382	-10.76
350.594	-24.65
350.806	-21.48
351.018	-24.32
351.23	-39.17
351.442	-77.53
351.654	-82.38
351.866	-59.69
352.078	-48.17
352.29	-18.68
352.502	4.53
352.714	14.45
352.926	-1.93
353.138	-4
353.35	-3.91
353.561	-12.31
353.773	-26.92
353.985	-15.73
354.197	-30.51
354.409	-40.6
354.621	-48.61
354.832	-39.94
355.044	-49.71
355.256	-31.62
355.468	-13.52
355.679	-14.06
355.891	-3.35
356.103	-22.09
356.314	-29.24
356.526	-40.82
356.738	-26.76
356.949	-48.6
357.161	-20.65
357.373	-18.07
357.584	-23.83
357.796	0.53
358.008	3.17
358.219	31.34
358.431	30.18
358.642	35.01
358.854	18.01
359.065	5.99
359.277	-32.24
359.488	-36.4
359.7	-48.35
359.911	-58.64
360.123	-30.37
360.334	-39.26
360.546	-49.26
360.757	-51.76
360.969	-31.62
361.18	-37.22
361.391	-11.79
361.603	-22.31
361.814	-24.27
362.025	-28
362.237	-19.63
362.448	-12.17
362.659	18.81
362.871	20.97
363.082	17.79
363.293	7.47
363.504	-9.74
363.716	-39.49
363.927	-52.54
364.138	-79.57
364.349	-97.15
364.56	-90.71
364.772	-86.87
364.983	-48.26
365.194	-41.34
365.405	-14.05
365.616	13.46
365.827	18.28
366.038	-1.12
366.25	-5.23
366.461	-49.86
366.672	-35.71
366.883	-10.21
367.094	-0.28
367.305	-9.33
367.516	5.89
367.727	-20.42
367.938	-35.99
368.149	-47.32
368.36	-25.45
368.571	-20.29
368.781	-38.21
368.992	-50.04
369.203	-60.54
369.414	-90.8
369.625	-96.68
369.836	-72.4
370.047	-88.12
370.258	-69.44
370.468	-63.9
370.679	-81.28
370.89	-83.33
371.101	-60.9
371.312	-64.98
371.522	-64.6
371.733	-53.61
371.944	-39.8
372.155	-34.17
372.365	-50.75
372.576	-54.05
372.787	-45.52
372.997	-75.95
373.208	-77.74
373.419	-41.73
373.629	-60.06
373.84	-64.64
374.05	-65.66
374.261	-42.62
374.472	-69.39
374.682	-11.05
374.893	-13.22
375.103	22.99
375.314	14.41
375.524	21.13
375.735	13.07
375.945	24.14
376.156	-5.62
376.366	-6.89
376.577	-5.16
376.787	-20.24
376.997	-15.63
377.208	-9.61
377.418	-24.43
377.629	-12.55
377.839	-9.8
378.049	-19.14
378.26	-0.58
378.47	16.54
378.68	-0.9
378.89	1.42
379.101	-1.38
379.311	-31.03
379.521	-60.51
379.732	-47.69
379.942	-45.9
380.152	-60.18
380.362	-35.95
380.572	-19.91
380.783	-4.72
380.993	2.31
381.203	17.06
381.413	27.27
381.623	18.32
381.833	13.6
382.043	-6.39
382.253	-17.02
382.463	-13.13
382.674	-20.81
382.884	-49.66
383.094	-37.84
383.304	-29.01
383.514	-26.77
383.724	-11.59
383.934	-3.05
384.144	-13.35
384.353	-17.58
384.563	-23.69
384.773	-20.86
384.983	-32.07
385.193	-7.7
385.403	-9.46
385.613	-14.13
385.823	-29.32
386.033	-13.64
386.242	-29.1
386.452	-27.81
386.662	-30.71
386.872	-11.41
387.082	-15.46
387.291	-17.77
387.501	-8.79
387.711	2.04
387.921	-15.59
388.13	-15.74
388.34	0.51
388.55	-13.54
388.759	-16.87
388.969	-6.54
389.179	-9.16
389.388	-17.66
389.598	-4.93
389.807	-12.25
390.017	-16.53
390.227	-15.13
390.436	-14.82
390.646	-16.53
390.855	-10.18
391.065	-11.62
391.274	-13.98
391.484	-14.36
391.693	-9.55
391.903	-9.4
392.112	-3.62
392.322	3.29
392.531	7.89
392.74	5.31
392.95	2.56
393.159	0.31
393.369	-2.8
393.578	-4.35
393.787	-4.48
393.997	-2.15
394.206	-3.97
394.415	-3.87
394.625	-4.09
394.834	-5.58
395.043	-5.15
395.252	-1.76
395.462	0.62
395.671	2.97
395.88	3.66
396.089	4.56
396.298	1.56
396.508	1.48
396.717	-0.07
396.926	0.73
397.135	-0.25
397.344	0.54
397.553	1.03
397.762	3.13
397.971	2.89
398.181	3.44
398.39	2.84
398.599	2.39
398.808	1.35
399.017	2.07
399.226	3.26
399.435	4.65
399.644	4.53
399.853	3.63
400.062	3
400.27	1.9
400.479	1.09
400.688	0.6
400.897	1.21
401.106	1.6
401.315	1.71
401.524	1.98
401.733	2.49
401.941	2.57
402.15	2.88
402.359	2.71
402.568	3.12
402.777	3.11
402.985	3.08
403.194	2.64
403.403	2.92
403.612	2.46
403.82	2.36
404.029	2.54
404.238	2.46
404.446	2.66
404.655	2.47
404.864	2.41
405.072	2.06
405.281	2.61
405.489	2.04
405.698	2.2
405.906	2.16
406.115	2.28
406.324	1.93
406.532	2.36
406.741	2.61
406.949	2.71
407.158	2.72
407.366	2.64
407.574	2.57
407.783	2.54
407.991	2.4
408.2	2.5
408.408	2.54
408.617	2.43
408.825	2.31
409.033	2.37
409.242	2.43
409.45	2.43
409.658	2.37
409.867	2.49
410.075	2.34
410.283	2.16
410.491	2.21
410.7	2.19
410.908	2.22
411.116	2.64
411.324	2.66
411.533	2.55
411.741	2.83
411.949	2.79
412.157	2.44
412.365	2.55
412.573	2.58
412.781	2.5
412.99	2.33
413.198	2.57
413.406	2.47
413.614	2.53
413.822	2.26
414.03	2.27
414.238	1.99
414.446	2.11
414.654	1.87
414.862	2.07
415.07	2.21
415.278	2.41
415.486	2.15
415.694	2.24
415.902	2.1
416.109	1.93
416.317	1.89
416.525	1.79
416.733	1.89
416.941	2.12
417.149	2.02
417.357	1.99
417.564	2.29
417.772	2.42
417.98	2.3
418.188	2.4
418.395	2.43
418.603	2.56
418.811	2.11
419.019	2.07
419.226	2.26
419.434	2.53
419.642	2.15
419.849	2.52
420.057	2.56
420.265	2.41
420.472	1.92
420.68	2
420.887	1.77
421.095	1.89
421.302	1.88
421.51	2.13
421.717	2.22
421.925	2.41
422.132	2.12
422.34	1.97
422.547	2.01
422.755	1.88
422.962	1.67
423.17	1.64
423.377	1.73
423.585	1.68
423.792	1.63
423.999	1.75
424.207	1.75
424.414	2
424.621	1.94
424.829	1.92
425.036	1.9
425.243	2.01
425.451	1.65
425.658	1.37
425.865	1.61
426.072	1.62
426.28	1.8
426.487	1.79
426.694	2.12
426.901	2.02
427.108	1.95
427.315	1.83
427.523	2.17
427.73	1.97
427.937	1.93
428.144	1.93
428.351	1.93
428.558	1.93
428.765	1.97
428.972	1.98
429.179	2.11
429.386	2.28
429.593	2.06
429.8	1.99
430.007	2.04
430.214	2.16
430.421	1.95
430.628	1.91
430.835	1.86
431.042	2.07
431.249	1.92
431.456	2.04
431.662	2.19
431.869	2.42
432.076	2.42
432.283	2.63
432.49	2.57
432.697	2.56
432.903	2.4
433.11	2.25
433.317	2.22
433.524	2.48
433.73	2.52
433.937	2.74
434.144	2.61
434.35	2.55
434.557	2.37
434.764	2.31
434.97	2.22
435.177	2.42
435.384	2.28
435.59	2.42
435.797	2.68
436.003	2.76
436.21	2.73
436.416	2.9
436.623	2.79
436.829	2.8
437.036	2.83
437.242	2.88
437.449	2.83
437.655	2.83
437.862	2.68
438.068	2.61
438.275	2.77
438.481	2.98
438.687	3
438.894	3.02
439.1	3.08
439.307	3.19
439.513	3.06
439.719	3.11
439.926	3.33
440.132	3.37
440.338	3.14
440.544	3.26
440.751	3.13
440.957	3.11
441.163	2.98
441.369	3.13
441.575	2.93
441.782	3.07
441.988	2.94
442.194	2.95
442.4	2.89
442.606	3.19
442.812	3.17
443.018	3.25
443.224	3.39
443.431	3.55
443.637	3.33
443.843	3.32
444.049	3.31
444.255	3.35
444.461	3.31
444.667	3.3
444.873	3.45
445.079	3.47
445.284	3.49
445.49	3.3
445.696	3.23
445.902	3.05
446.108	3.08
446.314	3
446.52	3.1
446.726	3.33
446.931	3.33
447.137	3.31
447.343	3.32
447.549	3.23
447.755	3.1
447.96	3.22
448.166	3.2
448.372	3.18
448.578	3.24
448.783	3.28
448.989	3.37
449.195	3.56
449.4	3.58
449.606	3.57
449.812	3.44
450.017	3.46
450.223	3.34
450.428	3.27
450.634	3.54
450.84	3.75
451.045	3.67
451.251	3.62
451.456	3.94
451.662	3.93
451.867	4.01
452.073	4.04
452.278	4.14
452.483	4.16
452.689	3.99
452.894	3.96
453.1	4
453.305	3.88
453.51	3.7
453.716	3.72
453.921	3.74
454.127	3.69
454.332	3.73
454.537	3.74
454.742	3.75
454.948	3.67
455.153	3.77
455.358	3.89
455.563	4.07
455.769	4.24
455.974	4.25
456.179	4.06
456.384	4.06
456.589	3.97
456.795	3.7
457	3.7
457.205	3.97
457.41	3.87
457.615	3.86
457.82	4.06
458.025	4.11
458.23	3.95
458.435	4.07
458.64	3.93
458.845	4.02
459.05	4
459.255	4.06
459.46	4.05
