Data from Ofra_PS_T2_2A_6EV18_Reflection_2.txt Node
Date: Wed Jul 21 17:16:47 EDT 2021
User: Adam
Spectrometer: FLMT01687
Trigger mode: 0
Integration Time (sec): 1.100000E0
Scans to average: 2
Electric dark correction enabled: true
Nonlinearity correction enabled: false
Boxcar width: 2
XAxis mode: Wavelengths
Number of Pixels in Spectrum: 3648
>>>>>Begin Spectral Data<<<<<
179.494	570
179.716	623.29
179.937	572.48
180.158	573.37
180.38	872.81
180.601	274.31
180.823	87.85
181.044	16.35
181.265	3.31
181.486	12.47
181.708	71.02
181.929	247.96
182.15	-116.2
182.372	50.17
182.593	9.93
182.814	8
183.035	29.48
183.257	29.39
183.478	-13.09
183.699	51.64
183.92	21.12
184.141	35.9
184.363	2.06
184.584	43.54
184.805	39.89
185.026	70.89
185.247	54.14
185.468	40.55
185.689	34.51
185.91	26.2
186.132	40.12
186.353	53.52
186.574	92.79
186.795	83.92
187.016	43.39
187.237	18.36
187.458	-10.79
187.679	8.7
187.9	23.19
188.121	-2.92
188.342	2.23
188.563	51.16
188.784	68.15
189.005	68.67
189.226	154.67
189.447	149.76
189.667	61.89
189.888	-204.68
190.109	-1338.31
190.33	-734.52
190.551	-1230.53
190.772	-245.16
190.993	-172.91
191.214	-70.41
191.434	-66.54
191.655	-15.28
191.876	-50.89
192.097	-120.37
192.318	-177.97
192.538	-228.3
192.759	-169.26
192.98	-65.23
193.201	2.41
193.421	4.15
193.642	27.4
193.863	44.28
194.083	22.53
194.304	-1.26
194.525	0.71
194.745	-28.44
194.966	-50.05
195.187	-47.85
195.407	-89.06
195.628	-144.68
195.848	-131.69
196.069	-143.39
196.29	-85.46
196.51	-69.58
196.731	-48.25
196.951	-54.26
197.172	-53
197.392	-92.27
197.613	-80.29
197.833	-101.77
198.054	-114.21
198.274	-71.71
198.495	-79.94
198.715	-33.09
198.936	-49.77
199.156	-19.08
199.377	-66.56
199.597	-73.13
199.817	-88.55
200.038	-21.25
200.258	-76.49
200.479	1.41
200.699	-0.27
200.919	34.21
201.14	-0.17
201.36	-17.43
201.58	7.08
201.801	41.78
202.021	-8.45
202.241	-14.94
202.461	-2.8
202.682	-119.82
202.902	-197.27
203.122	-116.58
203.342	-90.93
203.563	-53.24
203.783	0.1
204.003	-49.14
204.223	-21.59
204.443	18.65
204.663	2.77
204.884	0.69
205.104	47.51
205.324	59.84
205.544	61.93
205.764	71.12
205.984	54.79
206.204	57.94
206.424	51.02
206.644	13.78
206.864	10.43
207.084	-16.25
207.304	-7.26
207.525	-194.53
207.745	-89.21
207.964	-25.03
208.184	-54.11
208.404	-112.79
208.624	-74.37
208.844	-67.11
209.064	-341.13
209.284	-298.83
209.504	-83.02
209.724	-8.61
209.944	1.32
210.164	23.48
210.384	33.9
210.604	33.11
210.823	-14.76
211.043	-33.07
211.263	-24.8
211.483	-22.1
211.703	-85.33
211.922	-58.71
212.142	7.33
212.362	41.76
212.582	15.58
212.801	42.46
213.021	13.58
213.241	8.94
213.461	-44.19
213.68	-80.85
213.9	-52.37
214.12	-29.46
214.339	-103.42
214.559	-67.51
214.779	-1.89
214.998	-12.68
215.218	-40.25
215.438	-10.16
215.657	-30.36
215.877	-38.44
216.096	-9.81
216.316	8.11
216.535	-0.59
216.755	-5.34
216.974	-96.01
217.194	-139.41
217.413	-163.72
217.633	-151.22
217.852	-243.86
218.072	-100.84
218.291	-55.61
218.511	-8.6
218.73	-47.49
218.95	-37.14
219.169	-31.36
219.389	-76.73
219.608	-59.89
219.827	-37.61
220.047	-16.28
220.266	-13.7
220.485	-19.24
220.705	-8.87
220.924	-21.77
221.143	12.33
221.363	-9.94
221.582	7.57
221.801	13.27
222.021	21.83
222.24	-28.7
222.459	22.98
222.678	37.89
222.897	-33.94
223.117	-51.87
223.336	-42.96
223.555	-38.58
223.774	-36.16
223.993	-33.18
224.213	2.13
224.432	-4.7
224.651	28.64
224.87	13.98
225.089	35.33
225.308	37.76
225.527	57.9
225.746	56.77
225.965	41.14
226.184	32.99
226.404	27.85
226.623	-3.35
226.842	-3.46
227.061	26.02
227.28	25.17
227.499	22.28
227.718	31.06
227.936	25.1
228.155	41.38
228.374	24.36
228.593	29.71
228.812	39.79
229.031	35.41
229.25	-43.03
229.469	-43.3
229.688	-38.93
229.907	1.03
230.125	19.49
230.344	50.34
230.563	55.37
230.782	51.22
231.001	-38.55
231.22	-25.54
231.438	7.67
231.657	9.87
231.876	-4.23
232.095	57.04
232.313	52.68
232.532	39.11
232.751	15.03
232.969	31.73
233.188	-44.82
233.407	-2.97
233.625	-15.74
233.844	-25.48
234.063	-19.66
234.281	-3.64
234.5	-19.27
234.719	-5.96
234.937	18.06
235.156	7.27
235.374	1.5
235.593	-4.41
235.811	-24.96
236.03	-42.02
236.249	-78.63
236.467	-52.95
236.686	-14.71
236.904	7.64
237.123	-15.47
237.341	-10.91
237.559	-7.68
237.778	-32.31
237.996	-73.39
238.215	-22.06
238.433	-15.02
238.652	-16.19
238.87	-24.67
239.088	-4.08
239.307	-10.34
239.525	12.13
239.743	-19.21
239.962	-0.65
240.18	-9.38
240.398	-35.54
240.617	-59.46
240.835	-13.57
241.053	17.59
241.271	65.28
241.49	55.15
241.708	47.1
241.926	28.31
242.144	-10.1
242.363	-70.7
242.581	-70.6
242.799	-32.87
243.017	-23.36
243.235	-31.28
243.453	-15.31
243.672	-10.11
243.89	-8.31
244.108	-1.41
244.326	24.61
244.544	23.35
244.762	11.37
244.98	24.91
245.198	26.06
245.416	-12.71
245.634	-5.11
245.852	-0.6
246.07	-4.02
246.288	-18.52
246.506	-28.31
246.724	-24.07
246.942	-26.66
247.16	-14.69
247.378	14.57
247.596	32
247.814	25.9
248.032	9.74
248.25	28.51
248.468	3.52
248.685	16.19
248.903	48.15
249.121	48.73
249.339	12.4
249.557	13.65
249.775	6.79
249.992	-58.47
250.21	-60.22
250.428	-37.35
250.646	-69.14
250.863	-79.02
251.081	-43.66
251.299	-23.13
251.517	-29.38
251.734	-9.5
251.952	-5.23
252.17	-7.25
252.387	-3.04
252.605	-12.39
252.823	-0.66
253.04	12.36
253.258	27.25
253.475	27.02
253.693	59.25
253.911	55.89
254.128	55.46
254.346	46.69
254.563	25.61
254.781	-15.11
254.998	-39.76
255.216	-43.36
255.433	-24.78
255.651	16.64
255.868	67.26
256.086	75.52
256.303	47.05
256.521	31.02
256.738	8
256.956	-22.94
257.173	-50.04
257.39	-58.77
257.608	-95.56
257.825	-8.76
258.043	29.4
258.26	41.16
258.477	81.91
258.695	92.36
258.912	15.1
259.129	17.12
259.346	-18.56
259.564	-49.92
259.781	-72.55
259.998	-8.73
260.216	-11.13
260.433	41.44
260.65	34.34
260.867	57.49
261.084	26.88
261.302	33.47
261.519	16.28
261.736	-1.48
261.953	-42.14
262.17	-12.67
262.387	-70.06
262.604	-92.2
262.822	-112.57
263.039	-72.61
263.256	-107.19
263.473	-45.15
263.69	-25.69
263.907	18.14
264.124	35.28
264.341	37.66
264.558	23.22
264.775	38.56
264.992	33.25
265.209	12.25
265.426	24.72
265.643	23.26
265.86	26.88
266.077	32.99
266.294	33.4
266.51	11.6
266.727	-2.3
266.944	-12.51
267.161	-35.25
267.378	-32.32
267.595	5.31
267.812	-16.33
268.028	-44.83
268.245	-12.03
268.462	-27.02
268.679	-56.56
268.896	15.81
269.112	35.37
269.329	26.98
269.546	42.82
269.763	39.82
269.979	21.39
270.196	13.72
270.413	-16.25
270.629	-53.31
270.846	-56.08
271.063	-40.7
271.279	-51.95
271.496	-28.55
271.712	9.29
271.929	37.41
272.146	5.19
272.362	6.14
272.579	29.58
272.795	33.09
273.012	23.07
273.228	42.91
273.445	24.84
273.661	-16.44
273.878	-51.84
274.094	-43.48
274.311	-67.44
274.527	-9.74
274.744	-0.29
274.96	-2.49
275.177	-0.41
275.393	10.34
275.609	13.7
275.826	31.68
276.042	19.1
276.259	4.61
276.475	17.5
276.691	11.23
276.908	-23.06
277.124	-0.53
277.34	10.98
277.557	-7.15
277.773	-17.47
277.989	0.08
278.205	2.72
278.422	11.12
278.638	15.49
278.854	33.32
279.07	28.97
279.286	-2.61
279.503	-32.67
279.719	-32.64
279.935	-50.7
280.151	-58.61
280.367	2.41
280.583	-9.65
280.799	-20.88
281.016	-42.11
281.232	-3.56
281.448	-15.73
281.664	17.28
281.88	11.32
282.096	31.21
282.312	40.1
282.528	64.22
282.744	62.04
282.96	51.91
283.176	40.64
283.392	30.8
283.608	7.2
283.824	6.02
284.04	17.36
284.256	18.82
284.471	1.58
284.687	0.81
284.903	14.88
285.119	30.04
285.335	0.62
285.551	8.38
285.767	-0.52
285.982	-24.41
286.198	-58.81
286.414	20.72
286.63	18.06
286.846	41.46
287.061	18.88
287.277	46.49
287.493	1.66
287.709	17.52
287.924	-2.09
288.14	40.69
288.356	26.03
288.571	50.24
288.787	44.82
289.003	48.17
289.218	25.68
289.434	-24.43
289.65	-16.01
289.865	-36.58
290.081	-18.66
290.296	-21.15
290.512	15.12
290.727	-19.99
290.943	-18.4
291.159	-31.83
291.374	-22.71
291.59	-44.62
291.805	-37.24
292.021	-34.01
292.236	-30.69
292.451	-7.7
292.667	10.7
292.882	36.4
293.098	39.33
293.313	9.4
293.529	-30.21
293.744	-45.46
293.959	-66.36
294.175	-52.43
294.39	-5.82
294.605	18.57
294.821	37.86
295.036	46.13
295.251	48.92
295.467	32.93
295.682	12.53
295.897	-18.1
296.112	-34.28
296.328	-33.6
296.543	-52.3
296.758	-33.87
296.973	0.1
297.188	30.13
297.404	11.09
297.619	3.63
297.834	-5.33
298.049	-22.46
298.264	-57.23
298.479	-3.84
298.694	0.21
298.909	14.52
299.125	17.4
299.34	45.19
299.555	15.16
299.77	41.52
299.985	-7.4
300.2	-56.86
300.415	-89.18
300.63	-38.68
300.845	-52.57
301.06	-55.19
301.275	-13.2
301.49	8.83
301.704	-17.59
301.919	-40.93
302.134	-30.62
302.349	-48.7
302.564	-114.16
302.779	-171.82
302.994	-141.77
303.209	-94.03
303.423	-41.25
303.638	13.61
303.853	14.36
304.068	-6.76
304.283	-5.54
304.497	-16.24
304.712	-17.55
304.927	-8.23
305.142	-4.33
305.356	12.78
305.571	20.8
305.786	0.42
306	-20.85
306.215	-8.76
306.43	-52.38
306.644	-43.68
306.859	18.27
307.074	19.65
307.288	-15.98
307.503	-24.38
307.717	-23.45
307.932	-30.96
308.147	-23.39
308.361	9.12
308.576	9.33
308.79	-51.6
309.005	-38.59
309.219	-23.81
309.434	-41.93
309.648	-37.43
309.863	13.77
310.077	-7.49
310.292	-17.94
310.506	-3.54
310.72	8.44
310.935	4.74
311.149	5.46
311.364	20.69
311.578	30.73
311.792	21.33
312.007	26.55
312.221	12.6
312.435	13.65
312.649	-4.42
312.864	-14.93
313.078	-13.22
313.292	62.83
313.507	42.97
313.721	60.85
313.935	59.83
314.149	54.35
314.363	30.66
314.578	18.11
314.792	24.53
315.006	9.72
315.22	24.98
315.434	35.46
315.648	46.73
315.862	41.11
316.077	37.48
316.291	11.95
316.505	4.97
316.719	-21.94
316.933	-54.48
317.147	-27.33
317.361	-63.28
317.575	-97.24
317.789	-102.48
318.003	-134.33
318.217	-111.55
318.431	-26.34
318.645	24.73
318.859	10.44
319.073	37.48
319.287	14.49
319.5	-23.8
319.714	-73.72
319.928	-92.21
320.142	-125.47
320.356	-64.46
320.57	-32.37
320.784	-42.44
320.997	-49.21
321.211	-47.31
321.425	-91.84
321.639	-100.22
321.853	-34.58
322.066	-16.88
322.28	-17.63
322.494	-16.19
322.707	9.81
322.921	-20.17
323.135	-27.92
323.349	-0.91
323.562	-16.27
323.776	-36.49
323.989	-29.31
324.203	-53.4
324.417	-82.92
324.63	-80.54
324.844	-82.56
325.057	-76.94
325.271	-31.51
325.485	-5.09
325.698	14.86
325.912	33.71
326.125	14.1
326.339	20.66
326.552	9.43
326.766	2.83
326.979	21.58
327.193	45.24
327.406	26.23
327.619	20.02
327.833	34.2
328.046	-14.44
328.26	-39.58
328.473	-16.52
328.686	-34.18
328.9	-33.8
329.113	-2.9
329.326	-25.95
329.54	-21.87
329.753	-40.3
329.966	-71.81
330.179	-51.54
330.393	-4.78
330.606	-2.34
330.819	15.5
331.032	26.1
331.246	34.1
331.459	51.8
331.672	38.64
331.885	34.55
332.098	14.37
332.311	-9.23
332.525	-55.99
332.738	-26.07
332.951	6.21
333.164	40.46
333.377	47.09
333.59	53.31
333.803	51.82
334.016	34.82
334.229	17.93
334.442	21.08
334.655	30.47
334.868	24.55
335.081	13.41
335.294	-4.81
335.507	-22.57
335.72	-34.82
335.933	-40.04
336.146	-37.38
336.359	-35.92
336.572	-73.93
336.785	-86.57
336.997	-69.12
337.21	-26.45
337.423	-15.08
337.636	12.05
337.849	22.8
338.062	18.41
338.274	-0.26
338.487	-21.12
338.7	-13.99
338.913	-41.75
339.125	-70.42
339.338	-110.69
339.551	-71.39
339.763	-37.97
339.976	-31.47
340.189	-24.27
340.402	-21.93
340.614	-25.66
340.827	-41.16
341.039	-57.19
341.252	-47.13
341.465	-13.72
341.677	-26.31
341.89	-69.55
342.102	-22.15
342.315	-33.39
342.527	-74
342.74	-41.76
342.952	5.51
343.165	6.51
343.377	40.72
343.59	27.85
343.802	43.85
344.015	40.9
344.227	45.13
344.44	25.37
344.652	26.75
344.864	-5.75
345.077	24.05
345.289	26.23
345.502	33.47
345.714	34.87
345.926	42.63
346.139	29.08
346.351	43.52
346.563	50.41
346.775	58.94
346.988	48.92
347.2	30.58
347.412	-34.63
347.624	-68.86
347.837	-89.37
348.049	-58.36
348.261	-20.81
348.473	-0.65
348.685	-11.47
348.897	-24.01
349.11	-44.29
349.322	-69.75
349.534	-65.53
349.746	-43.25
349.958	-30.58
350.17	-26.39
350.382	-0.26
350.594	-2.86
350.806	-3.6
351.018	-3.68
351.23	-9.99
351.442	-80.77
351.654	-82.2
351.866	-71.9
352.078	-60.41
352.29	-28.52
352.502	19.25
352.714	31.7
352.926	20.21
353.138	23.18
353.35	17.95
353.561	12.36
353.773	-7.09
353.985	2.66
354.197	-11.5
354.409	-16.16
354.621	-23.86
354.832	-11.64
355.044	-17.51
355.256	-19.53
355.468	-13.69
355.679	-7.65
355.891	0.65
356.103	-4.81
356.314	11.13
356.526	9.52
356.738	3.34
356.949	-28.79
357.161	-4.35
357.373	-2.82
357.584	-19.96
357.796	-7.39
358.008	8.7
358.219	17.64
358.431	5.87
358.642	23.61
358.854	15.99
359.065	-8.94
359.277	-45.09
359.488	-49.69
359.7	-75.14
359.911	-94.32
360.123	-50.34
360.334	-53.05
360.546	-71.4
360.757	-54.83
360.969	-31.49
361.18	-33.68
361.391	-8.77
361.603	-6.38
361.814	-7.62
362.025	-11.07
362.237	-15.77
362.448	-17.7
362.659	6.97
362.871	-3.09
363.082	0.64
363.293	-2.76
363.504	-16.75
363.716	-44.99
363.927	-40.01
364.138	-68.37
364.349	-77.53
364.56	-65.83
364.772	-54.68
364.983	-15.86
365.194	-14.86
365.405	10.5
365.616	35.18
365.827	42.59
366.038	8.38
366.25	25.46
366.461	-15.42
366.672	-11.18
366.883	8.16
367.094	16.78
367.305	-4.54
367.516	3.42
367.727	-26.62
367.938	-43.59
368.149	-58.28
368.36	-37.31
368.571	-26.31
368.781	-32.89
368.992	-37.85
369.203	-45.84
369.414	-61.59
369.625	-60.34
369.836	-45.3
370.047	-70.98
370.258	-38.02
370.468	-28.96
370.679	-49.21
370.89	-47.65
371.101	-17.13
371.312	-35.31
371.522	-46.45
371.733	-28.16
371.944	-15.87
372.155	-21.54
372.365	-16.63
372.576	-12.82
372.787	-15.59
372.997	-23.74
373.208	-22.11
373.419	5.85
373.629	-5.84
373.84	-9.22
374.05	-22.81
374.261	-0.59
374.472	-21.42
374.682	20.37
374.893	24.14
375.103	53.58
375.314	34.16
375.524	26.65
375.735	19.95
375.945	29.28
376.156	-3.04
376.366	10.71
376.577	11.71
376.787	2.61
376.997	-4.47
377.208	-1.56
377.418	-22.21
377.629	-15.79
377.839	-18.58
378.049	-10.44
378.26	6.68
378.47	19.94
378.68	15.63
378.89	12.53
379.101	1.7
379.311	-35.43
379.521	-65.72
379.732	-62.41
379.942	-58.18
380.152	-74.63
380.362	-34.37
380.572	-32.07
380.783	-20.5
380.993	-11.45
381.203	4.98
381.413	15.71
381.623	24.18
381.833	23.45
382.043	5.69
382.253	0.16
382.463	-5.03
382.674	-12.81
382.884	-37.53
383.094	-29.67
383.304	-24.99
383.514	-15.41
383.724	-10.41
383.934	-8.73
384.144	-15.22
384.353	-20.89
384.563	-31.11
384.773	-24.15
384.983	-31.11
385.193	-5.85
385.403	-0.81
385.613	4.21
385.823	-7.11
386.033	3.37
386.242	-12.29
386.452	-12.83
386.662	-22.66
386.872	-4.88
387.082	-9.19
387.291	-11.48
387.501	-12.28
387.711	0.4
387.921	-9.76
388.13	-8.96
388.34	1.99
388.55	-5.39
388.759	-13.61
388.969	-6.91
389.179	-9.08
389.388	-11.16
389.598	-4.28
389.807	-7.44
390.017	-11.6
390.227	-9.96
390.436	-12.05
390.646	-13.26
390.855	-7.59
391.065	-7.01
391.274	-6.53
391.484	-7.93
391.693	-1.79
391.903	-1.94
392.112	1.4
392.322	2.68
392.531	5.71
392.74	2.29
392.95	-1.6
393.159	-3.38
393.369	-3.46
393.578	-2.91
393.787	-3.17
393.997	-0.36
394.206	-0.96
394.415	-0.64
394.625	-1.77
394.834	-3.44
395.043	-2.29
395.252	-0.04
395.462	2.2
395.671	3.38
395.88	4.62
396.089	4.61
396.298	2.18
396.508	1.53
396.717	0.7
396.926	1.61
397.135	0.78
397.344	1.14
397.553	1.21
397.762	2.62
397.971	2.18
398.181	3.23
398.39	2.76
398.599	2.64
398.808	2.25
399.017	3.25
399.226	3.63
399.435	4.73
399.644	4.76
399.853	3.9
400.062	3.24
400.27	2.84
400.479	2.29
400.688	1.31
400.897	1.84
401.106	1.98
401.315	2
401.524	2.17
401.733	2.91
401.941	3.35
402.15	3.52
402.359	3.22
402.568	3.81
402.777	3.88
402.985	3.53
403.194	3.23
403.403	3.16
403.612	2.55
403.82	2.51
404.029	2.59
404.238	2.51
404.446	3.05
404.655	3.08
404.864	3.1
405.072	2.9
405.281	3.18
405.489	2.67
405.698	2.66
405.906	2.6
406.115	2.69
406.324	2.58
406.532	2.79
406.741	3.16
406.949	3.08
407.158	3.09
407.366	3.06
407.574	2.93
407.783	2.69
407.991	2.66
408.2	2.86
408.408	2.86
408.617	2.83
408.825	2.67
409.033	2.76
409.242	2.69
409.45	2.8
409.658	2.73
409.867	2.95
410.075	2.85
410.283	2.69
410.491	2.57
410.7	2.6
410.908	2.63
411.116	2.92
411.324	3.01
411.533	2.87
411.741	3.18
411.949	3.02
412.157	2.73
412.365	2.66
412.573	2.78
412.781	2.61
412.99	2.55
413.198	2.69
413.406	2.71
413.614	2.71
413.822	2.52
414.03	2.46
414.238	2.22
414.446	2.33
414.654	2.26
414.862	2.41
415.07	2.55
415.278	2.83
415.486	2.48
415.694	2.49
415.902	2.41
416.109	2.28
416.317	2.12
416.525	2.08
416.733	2.01
416.941	2.07
417.149	1.96
417.357	1.95
417.564	2.28
417.772	2.6
417.98	2.59
418.188	2.68
418.395	2.71
418.603	2.75
418.811	2.25
419.019	2.09
419.226	2.38
419.434	2.5
419.642	2.19
419.849	2.47
420.057	2.56
420.265	2.52
420.472	2.39
420.68	2.49
420.887	2.42
421.095	2.5
421.302	2.36
421.51	2.37
421.717	2.38
421.925	2.43
422.132	2.27
422.34	1.91
422.547	2.12
422.755	2.05
422.962	1.93
423.17	1.95
423.377	2.23
423.585	2.15
423.792	2.15
423.999	2.25
424.207	2.22
424.414	2.31
424.621	2.32
424.829	2.32
425.036	2.35
425.243	2.5
425.451	2.3
425.658	2.01
425.865	2.19
426.072	2.19
426.28	2.43
426.487	2.43
426.694	2.52
426.901	2.32
427.108	2.26
427.315	1.94
427.523	2.17
427.73	2.2
427.937	2.07
428.144	1.93
428.351	1.92
428.558	2.01
428.765	1.9
428.972	1.95
429.179	2.12
429.386	2.43
429.593	2.15
429.8	2.06
430.007	2.27
430.214	2.35
430.421	2.05
430.628	1.98
430.835	1.94
431.042	2.13
431.249	2.1
431.456	2.13
431.662	2.27
431.869	2.48
432.076	2.39
432.283	2.42
432.49	2.42
432.697	2.49
432.903	2.29
433.11	2.2
433.317	2.29
433.524	2.52
433.73	2.3
433.937	2.6
434.144	2.56
434.35	2.41
434.557	2.2
434.764	2.26
434.97	2.16
435.177	2.37
435.384	2.3
435.59	2.4
435.797	2.64
436.003	2.7
436.21	2.56
436.416	2.72
436.623	2.68
436.829	2.68
437.036	2.67
437.242	2.73
437.449	2.56
437.655	2.58
437.862	2.51
438.068	2.51
438.275	2.57
438.481	2.9
438.687	2.94
438.894	2.95
439.1	2.94
439.307	3.05
439.513	2.82
439.719	2.79
439.926	2.85
440.132	2.8
440.338	2.55
440.544	2.69
440.751	2.64
440.957	2.65
441.163	2.61
441.369	2.69
441.575	2.47
441.782	2.45
441.988	2.4
442.194	2.43
442.4	2.42
442.606	2.72
442.812	2.77
443.018	2.91
443.224	2.96
443.431	3.05
443.637	2.83
443.843	2.8
444.049	2.72
444.255	2.64
444.461	2.66
444.667	2.63
444.873	2.72
445.079	2.69
445.284	2.82
445.49	2.54
445.696	2.41
445.902	2.28
446.108	2.23
446.314	2.1
446.52	2.28
446.726	2.52
446.931	2.57
447.137	2.63
447.343	2.7
447.549	2.51
447.755	2.43
447.96	2.47
448.166	2.38
448.372	2.29
448.578	2.43
448.783	2.52
448.989	2.52
449.195	2.78
449.4	2.83
449.606	2.83
449.812	2.62
450.017	2.71
450.223	2.5
450.428	2.43
450.634	2.59
450.84	2.82
451.045	2.67
451.251	2.59
451.456	2.83
451.662	2.84
451.867	2.86
452.073	2.88
452.278	3.06
452.483	3.12
452.689	2.95
452.894	2.9
453.1	2.9
453.305	2.85
453.51	2.7
453.716	2.67
453.921	2.74
454.127	2.63
454.332	2.49
454.537	2.45
454.742	2.53
454.948	2.47
455.153	2.6
455.358	2.77
455.563	2.88
455.769	2.95
455.974	2.96
456.179	2.77
456.384	2.65
456.589	2.57
456.795	2.4
457	2.39
457.205	2.71
457.41	2.71
457.615	2.65
457.82	2.75
458.025	2.7
458.23	2.48
458.435	2.57
458.64	2.53
458.845	2.65
459.05	2.66
459.255	2.7
459.46	2.69
459.665	2.77
459.87	2.75
460.075	2.71
460.28	2.76
460.485	2.81
460.69	2.76
460.895	2.52
461.099	2.59
461.304	2.76
461.509	2.72
