Data from Ofra_1a_PS_2GT38_Reflection_2.txt Node
Date: Tue Jul 20 10:50:08 EDT 2021
User: Adam
Spectrometer: FLMT01687
Trigger mode: 0
Integration Time (sec): 1.004000E0
Scans to average: 2
Electric dark correction enabled: true
Nonlinearity correction enabled: false
Boxcar width: 2
XAxis mode: Wavelengths
Number of Pixels in Spectrum: 3648
>>>>>Begin Spectral Data<<<<<
179.494	-304.06
179.716	-361.07
179.937	897.32
180.158	-1028.66
180.38	117.14
180.601	41.24
180.823	55.52
181.044	-116.99
181.265	-164.44
181.486	180.58
181.708	77.12
181.929	-5390.91
182.15	9.17
182.372	440.89
182.593	476.6
182.814	-235.48
183.035	-14.29
183.257	-7.87
183.478	-1.37
183.699	-11.05
183.92	-41.28
184.141	-40.12
184.363	-42.55
184.584	-75.57
184.805	-34.65
185.026	12.56
185.247	-0.99
185.468	-41.5
185.689	-6.28
185.91	-53.7
186.132	-58.74
186.353	-66.4
186.574	-34.52
186.795	-34.06
187.016	5.57
187.237	10.57
187.458	25.32
187.679	7.41
187.9	30.69
188.121	49.11
188.342	56.8
188.563	101.61
188.784	101.78
189.005	74.48
189.226	59.38
189.447	44.92
189.667	26.5
189.888	16.2
190.109	9.46
190.33	5.04
190.551	0.56
190.772	2.7
190.993	-11.94
191.214	-8.39
191.434	-43.65
191.655	-25.84
191.876	-14.77
192.097	35.78
192.318	41.25
192.538	31.54
192.759	13.12
192.98	34.02
193.201	30.12
193.421	28
193.642	42.26
193.863	68.84
194.083	66.67
194.304	74.15
194.525	70.98
194.745	53.91
194.966	39.63
195.187	30.15
195.407	8.24
195.628	13.67
195.848	14.48
196.069	3.04
196.29	9.95
196.51	19.03
196.731	20.84
196.951	5.62
197.172	8.23
197.392	3.46
197.613	22.58
197.833	9.29
198.054	17.36
198.274	21.22
198.495	10.11
198.715	-15.51
198.936	4.82
199.156	1.72
199.377	0.55
199.597	13
199.817	6.44
200.038	-21.02
200.258	5.12
200.479	16.77
200.699	22.39
200.919	40.65
201.14	38.79
201.36	26.26
201.58	-24.37
201.801	-43.12
202.021	-77.73
202.241	-82.27
202.461	-58.82
202.682	-24.5
202.902	-6.41
203.122	7.99
203.342	6.51
203.563	-2.75
203.783	-17.17
204.003	-33
204.223	-8.94
204.443	23.78
204.663	13.02
204.884	55.27
205.104	50.45
205.324	48.44
205.544	-32.01
205.764	24.17
205.984	10.39
206.204	32.08
206.424	-12.77
206.644	8.54
206.864	-41.04
207.084	-49.15
207.304	-87.8
207.525	-61.84
207.745	-40.93
207.964	-40.11
208.184	-32.15
208.404	-16.99
208.624	7.37
208.844	0.09
209.064	19.92
209.284	-2.19
209.504	1.04
209.724	-8.79
209.944	-10.3
210.164	-24.5
210.384	-25.42
210.604	-66.22
210.823	-92.06
211.043	-66.29
211.263	-98.24
211.483	-33.53
211.703	-16.51
211.922	-18.19
212.142	-8.81
212.362	-2.1
212.582	-7.13
212.801	-6.74
213.021	-7.16
213.241	-33.83
213.461	-22.56
213.68	-5.06
213.9	-4.5
214.12	-10.54
214.339	-9.61
214.559	-17.23
214.779	-28.85
214.998	-20.39
215.218	-2.9
215.438	10.63
215.657	5.26
215.877	6.26
216.096	8.47
216.316	12.29
216.535	-2.86
216.755	6.72
216.974	4.85
217.194	-17.47
217.413	-19.65
217.633	-4.47
217.852	-5.14
218.072	-1.78
218.291	13.72
218.511	8.16
218.73	-21.92
218.95	-55.01
219.169	-47.92
219.389	-40.14
219.608	-18.47
219.827	17.24
220.047	26.49
220.266	-8.93
220.485	-26.25
220.705	-43.71
220.924	-71.7
221.143	-18.68
221.363	13.44
221.582	25.43
221.801	26.64
222.021	8.95
222.24	-9.24
222.459	5.71
222.678	5.38
222.897	-0.89
223.117	17.5
223.336	32.77
223.555	24.74
223.774	31.62
223.993	44.27
224.213	58.63
224.432	31.7
224.651	20.91
224.87	11.33
225.089	8.32
225.308	6.21
225.527	0.44
225.746	4.6
225.965	4.58
226.184	-14.89
226.404	-25.68
226.623	-13.38
226.842	-8.33
227.061	0.95
227.28	30.84
227.499	35.45
227.718	39.2
227.936	33.25
228.155	27.73
228.374	13.65
228.593	19.67
228.812	15.96
229.031	29.37
229.25	12.22
229.469	11.1
229.688	1.99
229.907	1.96
230.125	-12.45
230.344	3.57
230.563	-5.64
230.782	8.31
231.001	4.65
231.22	22.23
231.438	34.83
231.657	46.82
231.876	21.06
232.095	14.54
232.313	-20.36
232.532	-27
232.751	-35.11
232.969	-24.67
233.188	-13.68
233.407	0.74
233.625	-13.41
233.844	-26.31
234.063	-29.34
234.281	-22.1
234.5	-12.86
234.719	-9.55
234.937	-26.2
235.156	-24.2
235.374	-18.49
235.593	-8.21
235.811	21.45
236.03	26.22
236.249	32.76
236.467	31.99
236.686	17.92
236.904	5.22
237.123	8.72
237.341	-2.88
237.559	-17.15
237.778	13.04
237.996	1
238.215	-25.99
238.433	-43.18
238.652	-4.82
238.87	-33.87
239.088	-7.68
239.307	4.73
239.525	-5.17
239.743	-20.31
239.962	-24.86
240.18	-18.7
240.398	-13.61
240.617	-10.2
240.835	6.44
241.053	10.58
241.271	2.14
241.49	0.59
241.708	-0.43
241.926	-18.58
242.144	-26.64
242.363	-38.51
242.581	-50.25
242.799	-79.62
243.017	-48.47
243.235	-26.46
243.453	-42.42
243.672	-35.54
243.89	-13.72
244.108	5.06
244.326	10.89
244.544	28.74
244.762	9.55
244.98	15.25
245.198	10.03
245.416	-1.82
245.634	-3.86
245.852	3.41
246.07	8.5
246.288	6.48
246.506	17.46
246.724	4.15
246.942	16.94
247.16	13.4
247.378	15.57
247.596	28.24
247.814	54.22
248.032	31.89
248.25	39.74
248.468	28.83
248.685	30.35
248.903	18.38
249.121	11.4
249.339	-0.22
249.557	-6.26
249.775	-17.73
249.992	-13.11
250.21	-0.72
250.428	21.64
250.646	26.58
250.863	11.7
251.081	19.56
251.299	28.31
251.517	31.81
251.734	31.66
251.952	36.25
252.17	35.51
252.387	18.97
252.605	-2.21
252.823	-10.83
253.04	16.45
253.258	12.98
253.475	8.53
253.693	18.69
253.911	18.33
254.128	20.43
254.346	36.01
254.563	41.36
254.781	29.65
254.998	17.62
255.216	-11.61
255.433	-44.01
255.651	-25.7
255.868	-23.5
256.086	1.3
256.303	1.73
256.521	18.72
256.738	5.35
256.956	4.4
257.173	-14.06
257.39	-4.08
257.608	-10.56
257.825	-5.06
258.043	-2.3
258.26	1.15
258.477	6.32
258.695	2.62
258.912	-12.66
259.129	-17.66
259.346	-33.9
259.564	-48.87
259.781	-44.41
259.998	3.83
260.216	-8.61
260.433	-0.24
260.65	-1.5
260.867	-10.84
261.084	-39.81
261.302	-38.41
261.519	-39.14
261.736	-40.15
261.953	-29.15
262.17	-12.12
262.387	-0.23
262.604	0.79
262.822	12.09
263.039	18.06
263.256	16.43
263.473	18.71
263.69	21.3
263.907	22.74
264.124	22.68
264.341	29.19
264.558	23.87
264.775	31.97
264.992	23.09
265.209	7.92
265.426	10.31
265.643	23.92
265.86	28.66
266.077	17.53
266.294	32.82
266.51	24.89
266.727	20.51
266.944	19.68
267.161	29.07
267.378	29.58
267.595	19.17
267.812	8.84
268.028	5.29
268.245	6.53
268.462	-6.2
268.679	15.13
268.896	18.41
269.112	2.49
269.329	-8.01
269.546	13.9
269.763	4.99
269.979	4.89
270.196	22.38
270.413	12.99
270.629	-0.91
270.846	-17.88
271.063	-21.19
271.279	-18.58
271.496	-19.75
271.712	11.47
271.929	17.49
272.146	10.62
272.362	8.3
272.579	-1.87
272.795	-31.06
273.012	-35.95
273.228	-20.2
273.445	-24.7
273.661	-20.31
273.878	-21
274.094	-14.23
274.311	-16.25
274.527	-32.06
274.744	-7.97
274.96	-0.26
275.177	9.39
275.393	16.19
275.609	27.9
275.826	18.66
276.042	2.96
276.259	-5.35
276.475	-23.67
276.691	-36.4
276.908	-31.79
277.124	-6.58
277.34	-5.16
277.557	-2.76
277.773	22.16
277.989	21.19
278.205	2.35
278.422	-1.93
278.638	-1.32
278.854	-16.55
279.07	-0.7
279.286	0.54
279.503	8.6
279.719	18.48
279.935	22.54
280.151	8.87
280.367	26.36
280.583	22.41
280.799	13.24
281.016	-7.14
281.232	3.57
281.448	-14.43
281.664	-8.88
281.88	9.11
282.096	16.55
282.312	9.73
282.528	7.08
282.744	4.41
282.96	-14.2
283.176	-6.58
283.392	-31.93
283.608	-27.5
283.824	-50.01
284.04	-74.24
284.256	-59.29
284.471	-30.33
284.687	-23.31
284.903	-13.92
285.119	-8.94
285.335	-0.74
285.551	9.99
285.767	-1.78
285.982	-4.56
286.198	-22.98
286.414	-16.25
286.63	-58.57
286.846	-24.6
287.061	-3.34
287.277	23.22
287.493	2.82
287.709	23.22
287.924	0.5
288.14	8.38
288.356	19.53
288.571	25.86
288.787	20.4
289.003	36.85
289.218	16.51
289.434	-12.9
289.65	0.87
289.865	8.04
290.081	11.3
290.296	34.81
290.512	41.05
290.727	26.38
290.943	14.42
291.159	9.62
291.374	-21.14
291.59	-9.4
291.805	-21.64
292.021	-22.74
292.236	-33.25
292.451	-6.25
292.667	-9.78
292.882	28.41
293.098	34.98
293.313	28.48
293.529	16.03
293.744	13.31
293.959	-0.29
294.175	7.32
294.39	1.62
294.605	20.43
294.821	7.23
295.036	-11.81
295.251	-10.09
295.467	-10.17
295.682	-16.08
295.897	-21.52
296.112	-14.66
296.328	-2.75
296.543	-6.49
296.758	-18.34
296.973	-6.41
297.188	14.17
297.404	-13.84
297.619	-22.37
297.834	-22.63
298.049	2.39
298.264	-12.06
298.479	-0.14
298.694	30.7
298.909	29.88
299.125	24.66
299.34	18.3
299.555	15
299.77	28.52
299.985	29.09
300.2	35.22
300.415	37.56
300.63	39.27
300.845	19.16
301.06	25.68
301.275	13.23
301.49	17.77
301.704	12.56
301.919	8.31
302.134	-0.81
302.349	10.66
302.564	1.19
302.779	-0.69
302.994	18.74
303.209	29.62
303.423	10.6
303.638	35.57
303.853	18.58
304.068	0.78
304.283	-11.74
304.497	-1.14
304.712	4.15
304.927	9.78
305.142	9.8
305.356	15.75
305.571	12.4
305.786	0.82
306	12.78
306.215	12.97
306.43	4.45
306.644	-1.21
306.859	-13.74
307.074	-11.75
307.288	-1.57
307.503	7.97
307.717	18.81
307.932	30.43
308.147	23.17
308.361	25.3
308.576	18.35
308.79	4.44
309.005	-14.17
309.219	-3.93
309.434	7.11
309.648	15.62
309.863	24.6
310.077	15.58
310.292	36.06
310.506	9.23
310.72	3.83
310.935	24.12
311.149	30.62
311.364	17.04
311.578	38.36
311.792	47.5
312.007	30.53
312.221	17.8
312.435	21.85
312.649	37.33
312.864	32.72
313.078	40.49
313.292	45.3
313.507	58.45
313.721	25.24
313.935	22.89
314.149	31.52
314.363	26.01
314.578	23.22
314.792	28.38
315.006	16.88
315.22	10.56
315.434	28.69
315.648	-2.08
315.862	2.61
316.077	6.64
316.291	18.03
316.505	-4.5
316.719	28.56
316.933	33.41
317.147	30.69
317.361	15.81
317.575	24.23
317.789	28
318.003	8.8
318.217	17.64
318.431	6.19
318.645	5.18
318.859	14.07
319.073	30.25
319.287	11.6
319.5	19.72
319.714	11.94
319.928	-0.19
320.142	-1.27
320.356	25.75
320.57	7.97
320.784	21.4
320.997	18.23
321.211	16.13
321.425	-13.1
321.639	4.36
321.853	9.67
322.066	5.91
322.28	-8.4
322.494	0.95
322.707	-9.08
322.921	-31.36
323.135	-28.27
323.349	-13.72
323.562	-1.27
323.776	20.06
323.989	42.47
324.203	26.22
324.417	33.11
324.63	22.45
324.844	-5.36
325.057	-28.42
325.271	-10.94
325.485	-16.97
325.698	1.6
325.912	26.47
326.125	32.38
326.339	40.14
326.552	32.86
326.766	22.48
326.979	10.76
327.193	8.64
327.406	-19.39
327.619	-5.04
327.833	-21.91
328.046	-12.58
328.26	-18.36
328.473	-8.79
328.686	-21.48
328.9	-3.01
329.113	-13.36
329.326	-17.39
329.54	-5.41
329.753	5.05
329.966	3.19
330.179	6.49
330.393	13.07
330.606	9.18
330.819	1.7
331.032	8.01
331.246	17.12
331.459	16.17
331.672	12.02
331.885	19.14
332.098	20.07
332.311	3.93
332.525	11.66
332.738	17.12
332.951	10.99
333.164	8.55
333.377	10.83
333.59	-9.01
333.803	-8.06
334.016	-3.97
334.229	-4.14
334.442	-6.6
334.655	-3.1
334.868	-6.04
335.081	-10.19
335.294	-15.61
335.507	3.98
335.72	16.3
335.933	9.9
336.146	25.03
336.359	25.12
336.572	18.67
336.785	25.81
336.997	25.67
337.21	11.22
337.423	-3.78
337.636	-6.35
337.849	-22.91
338.062	-9.85
338.274	10.69
338.487	12.15
338.7	-6.41
338.913	6.59
339.125	-3.55
339.338	-17.24
339.551	-7.8
339.763	0.07
339.976	9.02
340.189	9.88
340.402	25.16
340.614	13.88
340.827	7.36
341.039	-2.46
341.252	16.01
341.465	-1.17
341.677	0.56
341.89	6.8
342.102	7.41
342.315	-7.49
342.527	-0.73
342.74	-16.54
342.952	-21.23
343.165	-18.17
343.377	0.07
343.59	3.76
343.802	22.13
344.015	34.36
344.227	34.27
344.44	21.15
344.652	22.06
344.864	13.94
345.077	5.86
345.289	11.33
345.502	31.28
345.714	20.51
345.926	33.7
346.139	18.17
346.351	20.6
346.563	19.1
346.775	12.97
346.988	16.06
347.2	19.59
347.412	17.37
347.624	2.67
347.837	20.63
348.049	8.2
348.261	-1.17
348.473	-12.98
348.685	-7.96
348.897	-25.83
349.11	-5.98
349.322	5.8
349.534	9.47
349.746	-0.09
349.958	-12.78
350.17	-38.54
350.382	-35.18
350.594	-30.15
350.806	1.26
351.018	11.88
351.23	29.65
351.442	38.87
351.654	44.68
351.866	35.88
352.078	42.73
352.29	26.44
352.502	18.57
352.714	8.24
352.926	2.35
353.138	-1.45
353.35	3.96
353.561	2.12
353.773	1.34
353.985	14.11
354.197	18.38
354.409	24.8
354.621	23.94
354.832	20.55
355.044	5.46
355.256	8.52
355.468	-8.76
355.679	10.99
355.891	27.57
356.103	26.82
356.314	12.54
356.526	4.43
356.738	-29.22
356.949	-35.81
357.161	-27.62
357.373	-10.32
357.584	3.17
357.796	20.92
358.008	21.25
358.219	17.92
358.431	11.58
358.642	9.46
358.854	14.38
359.065	5.2
359.277	-2.74
359.488	-0.92
359.7	0.3
359.911	-22.64
360.123	-7.63
360.334	-2.59
360.546	-7.34
360.757	-11.47
360.969	4.27
361.18	-6.49
361.391	8.11
361.603	9.21
361.814	7.44
362.025	18.11
362.237	17.52
362.448	14.88
362.659	10.48
362.871	-1.8
363.082	-11.93
363.293	-13.82
363.504	-47.12
363.716	-40.28
363.927	1.1
364.138	-16.99
364.349	-20.42
364.56	-16.97
364.772	-11.69
364.983	-11.66
365.194	2.83
365.405	11.6
365.616	24.02
365.827	15.84
366.038	23.39
366.25	26.26
366.461	27.88
366.672	33.94
366.883	35.32
367.094	15.94
367.305	-8.95
367.516	-14.16
367.727	-27.55
367.938	-24.12
368.149	-12.61
368.36	8.35
368.571	-16.59
368.781	-30.58
368.992	-27.79
369.203	-27.74
369.414	-25.48
369.625	-5.03
369.836	21.89
370.047	22.73
370.258	22.95
370.468	14.28
370.679	16.63
370.89	0.4
371.101	14.18
371.312	6.5
371.522	10.08
371.733	11.48
371.944	9.61
372.155	19.21
372.365	29.74
372.576	24.56
372.787	21.42
372.997	23.8
373.208	18.4
373.419	18
373.629	13.54
373.84	8.84
374.05	3.52
374.261	-14.93
374.472	-20.94
374.682	-16.6
374.893	-25.01
375.103	-14.2
375.314	6.49
375.524	10.08
375.735	19.93
375.945	25.98
376.156	20.05
376.366	12.35
376.577	18.19
376.787	11.03
376.997	17.07
377.208	13.05
377.418	10.64
377.629	10.63
377.839	13.66
378.049	17.57
378.26	15.24
378.47	25.85
378.68	21.29
378.89	14.74
379.101	1.66
379.311	9.32
379.521	-8.43
379.732	-2.18
379.942	-2.43
380.152	-5.41
380.362	-6.78
380.572	13.08
380.783	4.61
380.993	4.35
381.203	7.53
381.413	7.43
381.623	4.98
381.833	7.99
382.043	10.69
382.253	18.4
382.463	21.59
382.674	17.5
382.884	22.34
383.094	22.7
383.304	13.68
383.514	13.89
383.724	12.58
383.934	0.36
384.144	2.79
384.353	7.84
384.563	11.06
384.773	18.63
384.983	23.11
385.193	23.7
385.403	17.8
385.613	16.41
385.823	13.16
386.033	10.26
386.242	5.53
386.452	5.32
386.662	0.81
386.872	2.17
387.082	5.19
387.291	6.11
387.501	8.86
387.711	13.26
387.921	10.15
388.13	8.83
388.34	12.53
388.55	9.66
388.759	2.17
388.969	2.5
389.179	3.74
389.388	0.88
389.598	-1.11
389.807	-3.07
390.017	-1.43
390.227	-3.6
390.436	-2.47
390.646	-0.63
390.855	3.98
391.065	3.5
391.274	5.41
391.484	1.35
391.693	2.75
391.903	3.34
392.112	1.27
392.322	-1
392.531	0.09
392.74	-1.54
392.95	-1.86
393.159	-1.74
393.369	0.33
393.578	1.87
393.787	1.95
393.997	1.92
394.206	2.53
394.415	2.34
394.625	1.5
394.834	-0.02
395.043	0.08
395.252	1.53
395.462	2.3
395.671	2.81
395.88	5.11
396.089	5.79
396.298	4.9
396.508	4.01
396.717	4.09
396.926	3.31
397.135	3.51
397.344	3.05
397.553	3.19
397.762	4.04
397.971	4.1
398.181	3.87
398.39	3.95
398.599	4.14
398.808	3.61
399.017	4.38
399.226	3.94
399.435	4.15
399.644	4.49
399.853	4.54
400.062	4.4
400.27	4.14
400.479	4.22
400.688	3.97
400.897	3.6
401.106	3.88
401.315	4.3
401.524	4.62
401.733	4.47
401.941	4.94
402.15	4.31
402.359	4.46
402.568	4.34
402.777	4.62
402.985	4.1
403.194	4.24
403.403	4
403.612	3.65
403.82	3.37
404.029	3.74
404.238	3.67
404.446	3.86
404.655	4.06
404.864	4.09
405.072	3.99
405.281	3.96
405.489	3.84
405.698	3.91
405.906	4.07
406.115	4.07
406.324	4.18
406.532	4.21
406.741	4.09
406.949	3.96
407.158	4.03
407.366	3.92
407.574	4.03
407.783	4.07
407.991	4.06
408.2	4.13
408.408	4.14
408.617	3.89
408.825	3.82
409.033	3.77
409.242	3.64
409.45	3.63
409.658	3.67
409.867	3.79
410.075	3.89
410.283	3.86
410.491	3.72
410.7	3.66
410.908	3.62
411.116	3.62
411.324	3.6
411.533	3.66
411.741	3.76
411.949	3.74
412.157	3.71
412.365	3.75
412.573	3.8
412.781	3.77
412.99	3.76
413.198	3.7
413.406	3.79
413.614	3.9
413.822	3.94
414.03	3.94
414.238	3.97
414.446	3.85
414.654	3.71
414.862	3.58
415.07	3.52
415.278	3.57
415.486	3.43
415.694	3.54
415.902	3.63
416.109	3.59
416.317	3.58
416.525	3.65
416.733	3.49
416.941	3.48
417.149	3.52
417.357	3.44
417.564	3.56
417.772	3.63
417.98	3.57
418.188	3.52
418.395	3.29
418.603	2.99
418.811	2.89
419.019	2.93
419.226	3.01
419.434	3.31
419.642	3.29
419.849	3.34
420.057	3.32
420.265	3.17
420.472	3.04
420.68	3.19
420.887	3.09
421.095	3.02
421.302	3.07
421.51	2.99
421.717	3.07
421.925	3.25
422.132	3.3
422.34	3.23
422.547	3.31
422.755	3.12
422.962	3.01
423.17	2.83
423.377	2.84
423.585	2.88
423.792	2.91
423.999	3.02
424.207	3.01
424.414	3.05
424.621	2.99
424.829	3.11
425.036	3.07
425.243	3.23
425.451	3.17
425.658	3.16
425.865	3.2
426.072	3.17
426.28	3.23
426.487	3.2
426.694	3.25
426.901	3.16
427.108	3.1
427.315	2.86
427.523	2.75
427.73	2.74
427.937	2.61
428.144	2.63
428.351	2.76
428.558	3.01
428.765	2.94
428.972	3.12
429.179	3.09
429.386	3.31
429.593	3.24
429.8	3.31
430.007	3.25
430.214	3.35
430.421	3.33
430.628	3.33
430.835	3.35
431.042	3.38
431.249	3.41
431.456	3.24
431.662	3.34
431.869	3.42
432.076	3.49
432.283	3.5
432.49	3.48
432.697	3.38
432.903	3.34
433.11	3.43
433.317	3.45
433.524	3.56
433.73	3.53
433.937	3.58
434.144	3.34
434.35	3.15
434.557	3.13
434.764	3.2
434.97	3.1
435.177	3.3
435.384	3.5
435.59	3.51
435.797	3.57
436.003	3.66
436.21	3.52
436.416	3.48
436.623	3.41
436.829	3.43
437.036	3.37
437.242	3.5
437.449	3.55
437.655	3.68
437.862	3.62
438.068	3.67
438.275	3.68
438.481	3.78
438.687	3.71
438.894	3.79
439.1	3.69
439.307	3.74
439.513	3.7
439.719	3.85
439.926	3.81
440.132	3.96
440.338	3.92
440.544	3.88
440.751	3.74
440.957	3.71
441.163	3.62
441.369	3.61
441.575	3.57
441.782	3.63
441.988	3.71
442.194	3.8
442.4	3.76
442.606	4.04
442.812	3.98
443.018	3.98
443.224	4.05
443.431	4.16
443.637	3.87
443.843	3.91
444.049	3.89
444.255	3.81
444.461	3.7
444.667	3.78
444.873	3.8
445.079	3.81
445.284	3.83
445.49	3.87
445.696	3.88
445.902	3.92
446.108	4.01
446.314	4.03
446.52	4.05
446.726	4.08
446.931	3.98
447.137	3.92
447.343	3.94
447.549	3.98
447.755	3.96
447.96	4.05
448.166	4.1
448.372	4.1
448.578	4.04
448.783	4.06
448.989	4.09
449.195	4.08
449.4	4.07
449.606	4.13
449.812	4.13
450.017	4.07
450.223	4.1
450.428	4.06
450.634	4.02
450.84	4.05
451.045	4.09
451.251	4.08
451.456	4.17
451.662	4.3
451.867	4.31
452.073	4.35
452.278	4.28
452.483	4.27
452.689	4.24
452.894	4.33
453.1	4.29
453.305	4.31
453.51	4.36
453.716	4.34
453.921	4.26
454.127	4.27
454.332	4.26
454.537	4.25
454.742	4.22
454.948	4.22
455.153	4.25
455.358	4.26
455.563	4.29
455.769	4.3
455.974	4.31
456.179	4.27
456.384	4.33
456.589	4.32
456.795	4.27
457	4.18
457.205	4.16
457.41	4.09
457.615	4
457.82	4.13
458.025	4.25
458.23	4.36
458.435	4.42
458.64	4.54
458.845	4.52
459.05	4.46
459.255	4.41
459.46	4.36
459.665	4.28
459.87	4.22
460.075	4.31
460.28	4.46
460.485	4.58
460.69	4.57
460.895	4.68
461.099	4.51
461.304	4.33
461.509	4.23
461.714	4.33
461.919	4.2
462.123	4.33
462.328	4.33
462.533	4.32
462.738	4.23
462.942	4.24
463.147	4.2
463.352	4.23
463.556	4.31
463.761	4.31
463.966	4.3
464.17	4.42
464.375	4.49
464.58	4.48
464.784	4.51
464.989	4.61
465.193	4.61
465.398	4.57
465.602	4.73
465.807	4.76
466.011	4.7
466.216	4.58
466.42	4.68
466.625	4.61
466.829	4.6
467.034	4.71
467.238	4.89
467.443	4.86
467.647	4.82
