Data from Ofra_PS_T2_2A_0GT01_Reflection_3.txt Node
Date: Wed Jul 21 16:51:01 EDT 2021
User: Adam
Spectrometer: FLMT01687
Trigger mode: 0
Integration Time (sec): 1.100000E0
Scans to average: 2
Electric dark correction enabled: true
Nonlinearity correction enabled: false
Boxcar width: 2
XAxis mode: Wavelengths
Number of Pixels in Spectrum: 3648
>>>>>Begin Spectral Data<<<<<
179.494	286
179.716	325.88
179.937	303.53
180.158	258.62
180.38	400.94
180.601	182.04
180.823	74.3
181.044	50.95
181.265	202.57
181.486	55.36
181.708	81.64
181.929	384.69
182.15	-96.48
182.372	117.74
182.593	20.03
182.814	78.57
183.035	112.26
183.257	102.39
183.478	69.68
183.699	95.07
183.92	59.29
184.141	56.73
184.363	55.41
184.584	61.06
184.805	57.96
185.026	56.81
185.247	49.24
185.468	32.27
185.689	25.76
185.91	30.59
186.132	25.14
186.353	16.45
186.574	41.94
186.795	22.8
187.016	-16.52
187.237	3.69
187.458	-5.22
187.679	-20.53
187.9	39.07
188.121	42.59
188.342	50.34
188.563	71.3
188.784	89.95
189.005	53.66
189.226	101.49
189.447	117.97
189.667	132.77
189.888	22.41
190.109	117.53
190.33	-96.45
190.551	-448.23
190.772	-105.93
190.993	-49.28
191.214	-68.67
191.434	-5.87
191.655	33.19
191.876	43.25
192.097	-18.27
192.318	-69.98
192.538	-188.12
192.759	-135.71
192.98	-93.12
193.201	-20.09
193.421	5.73
193.642	29.74
193.863	36
194.083	43.14
194.304	31.7
194.525	24.85
194.745	17.28
194.966	5.76
195.187	6.63
195.407	6.23
195.628	-14.55
195.848	-19.36
196.069	-25.92
196.29	-24.87
196.51	-50.67
196.731	-25.5
196.951	-34.65
197.172	-32.58
197.392	-49.63
197.613	-67.95
197.833	-90.16
198.054	-76.58
198.274	-26.06
198.495	-31.2
198.715	8.05
198.936	-6.57
199.156	3.78
199.377	-28
199.597	-11.14
199.817	-11.33
200.038	27.71
200.258	5.23
200.479	5.29
200.699	-15.28
200.919	29.06
201.14	45.79
201.36	41.14
201.58	58.04
201.801	75.5
202.021	49.02
202.241	38.94
202.461	41.68
202.682	-7.04
202.902	-68.15
203.122	-22.54
203.342	-27.3
203.563	1.46
203.783	21.82
204.003	32.41
204.223	44.83
204.443	55.64
204.663	37.23
204.884	45.52
205.104	22.89
205.324	21.21
205.544	23.81
205.764	32.66
205.984	30.86
206.204	58.59
206.424	36.58
206.644	26.54
206.864	33.85
207.084	15.21
207.304	-33.47
207.525	-79.53
207.745	-23.55
207.964	4.14
208.184	-33.63
208.404	-29.13
208.624	-23.85
208.844	-15.57
209.064	-145.74
209.284	-89.25
209.504	-34.8
209.724	42.63
209.944	23.08
210.164	32.22
210.384	35.76
210.604	33.9
210.823	-6.23
211.043	-20.48
211.263	-4.08
211.483	2.73
211.703	-24.59
211.922	-1.05
212.142	54.27
212.362	72.41
212.582	47.93
212.801	64.76
213.021	36.39
213.241	40.88
213.461	-7.18
213.68	-17.06
213.9	-42.07
214.12	-20.28
214.339	-83.85
214.559	-31.84
214.779	16.49
214.998	28.53
215.218	8.96
215.438	34.66
215.657	28.6
215.877	-4.99
216.096	19.65
216.316	38.29
216.535	33.32
216.755	26.88
216.974	10.52
217.194	-3.29
217.413	0.06
217.633	-10.11
217.852	-48.85
218.072	-6.21
218.291	8.45
218.511	6.87
218.73	-1.66
218.95	-0.45
219.169	-5.24
219.389	-22.38
219.608	-0.3
219.827	6.19
220.047	16.64
220.266	27.82
220.485	32.6
220.705	15.58
220.924	8.94
221.143	36.11
221.363	20.24
221.582	14.66
221.801	23.02
222.021	34.3
222.24	-22.14
222.459	18.67
222.678	-14.55
222.897	-8.47
223.117	-22.91
223.336	3.4
223.555	22.31
223.774	51.01
223.993	15.56
224.213	38.99
224.432	40.7
224.651	35.01
224.87	22.87
225.089	48.85
225.308	32.62
225.527	20.84
225.746	18.49
225.965	31.24
226.184	-20.81
226.404	7.65
226.623	0.41
226.842	0.37
227.061	15.23
227.28	28.23
227.499	18.76
227.718	20.98
227.936	14.52
228.155	8.29
228.374	14.68
228.593	34.06
228.812	67.41
229.031	65.63
229.25	36.18
229.469	21.63
229.688	-5.66
229.907	5.29
230.125	17.79
230.344	38.17
230.563	50.26
230.782	48.41
231.001	-3.09
231.22	-16.76
231.438	-23.54
231.657	-12.76
231.876	-2.7
232.095	38.56
232.313	41.83
232.532	46.87
232.751	32.28
232.969	3.62
233.188	-43.99
233.407	13.31
233.625	24.26
233.844	43.35
234.063	34.35
234.281	34.75
234.5	31.51
234.719	22.35
234.937	14.54
235.156	12.69
235.374	16.06
235.593	0.85
235.811	-6.47
236.03	2.55
236.249	-9.31
236.467	-8.95
236.686	10.62
236.904	19.22
237.123	-3.9
237.341	1.49
237.559	2.03
237.778	-15.01
237.996	-28.77
238.215	10.15
238.433	29.91
238.652	37.43
238.87	26.76
239.088	39.91
239.307	37.11
239.525	13.21
239.743	-16.68
239.962	18.92
240.18	-10.19
240.398	-39.7
240.617	-11.31
240.835	28.65
241.053	-11.39
241.271	-9.3
241.49	15.26
241.708	-15.18
241.926	-60.78
242.144	-19.85
242.363	-23.18
242.581	-41.02
242.799	-20.24
243.017	-5.38
243.235	-17.14
243.453	-11.38
243.672	-15.97
243.89	-5.01
244.108	-11.77
244.326	-0.13
244.544	15.17
244.762	27.87
244.98	29.97
245.198	50.9
245.416	35.57
245.634	26.51
245.852	7.24
246.07	5.41
246.288	-29.03
246.506	-53.13
246.724	-70.72
246.942	-50.3
247.16	-30.23
247.378	-3.52
247.596	8.79
247.814	10.84
248.032	-11.83
248.25	-13.04
248.468	-27.31
248.685	-16.47
248.903	-1.28
249.121	10.21
249.339	1.76
249.557	14.58
249.775	16.88
249.992	-18.98
250.21	-28.17
250.428	-18.69
250.646	-32.02
250.863	-45.87
251.081	-26.06
251.299	-14.85
251.517	-13.17
251.734	-6.15
251.952	-1.24
252.17	13.2
252.387	24.05
252.605	14.12
252.823	13.42
253.04	18.45
253.258	21.07
253.475	18.05
253.693	47.64
253.911	47.13
254.128	47.85
254.346	51.69
254.563	33.45
254.781	-0.17
254.998	-0.45
255.216	-4.41
255.433	-4.47
255.651	15.14
255.868	33.89
256.086	51.23
256.303	60.54
256.521	54.06
256.738	36.75
256.956	28.92
257.173	4.94
257.39	-17.22
257.608	-37.72
257.825	-24.07
258.043	-9.32
258.26	15.72
258.477	48.75
258.695	57.57
258.912	41.08
259.129	39.12
259.346	11.95
259.564	-31.69
259.781	-46.97
259.998	-7.47
260.216	6.69
260.433	14.61
260.65	13.81
260.867	40.75
261.084	16.61
261.302	-5.34
261.519	8.78
261.736	4.37
261.953	-37.58
262.17	13.25
262.387	-5.29
262.604	-41.08
262.822	-36.96
263.039	-11.56
263.256	-55.98
263.473	-6.94
263.69	19.22
263.907	42.02
264.124	41.97
264.341	35.46
264.558	25
264.775	19.84
264.992	-7.29
265.209	0.54
265.426	19.17
265.643	17.93
265.86	20.86
266.077	29.34
266.294	19.67
266.51	-9.86
266.727	-14.71
266.944	6.47
267.161	-2.45
267.378	-5.52
267.595	26.1
267.812	-1.23
268.028	-11.88
268.245	11.42
268.462	20.79
268.679	3.24
268.896	49.8
269.112	43.69
269.329	36.37
269.546	21.71
269.763	30.26
269.979	6.44
270.196	-10.71
270.413	-29.71
270.629	-45.99
270.846	-59.23
271.063	-38.31
271.279	-29.04
271.496	-11.72
271.712	37.2
271.929	54.74
272.146	52.22
272.362	67.68
272.579	63.69
272.795	49.51
273.012	53.54
273.228	48.04
273.445	29.24
273.661	25.36
273.878	-21.24
274.094	-3.95
274.311	-19.87
274.527	17.38
274.744	22.48
274.96	36.64
275.177	36.02
275.393	47.37
275.609	43.07
275.826	51.96
276.042	43.2
276.259	12.79
276.475	15.69
276.691	10.38
276.908	-14.04
277.124	2.61
277.34	13.2
277.557	-3.4
277.773	1.61
277.989	2.73
278.205	-6.88
278.422	-4.31
278.638	4.1
278.854	25.73
279.07	18.17
279.286	32.55
279.503	6.98
279.719	16.41
279.935	-6.84
280.151	-5.83
280.367	-3.31
280.583	-7.59
280.799	-9.62
281.016	-35.32
281.232	-8.52
281.448	-12.48
281.664	5.87
281.88	-32.1
282.096	-9.99
282.312	10.2
282.528	18.78
282.744	59.37
282.96	79.72
283.176	58.35
283.392	52.18
283.608	43.21
283.824	24.79
284.04	22.04
284.256	35.58
284.471	5.01
284.687	3.26
284.903	13.87
285.119	21.34
285.335	19.72
285.551	39.75
285.767	37.17
285.982	18.87
286.198	12.95
286.414	11.76
286.63	20.17
286.846	28.48
287.061	25
287.277	30.47
287.493	15.62
287.709	22.72
287.924	3.87
288.14	13.13
288.356	14.32
288.571	23.22
288.787	16.6
289.003	22.08
289.218	14.23
289.434	-0.9
289.65	3.83
289.865	-13.01
290.081	1.18
290.296	1.11
290.512	12.62
290.727	7.83
290.943	18.17
291.159	14.96
291.374	18.29
291.59	4.8
291.805	5.73
292.021	13.44
292.236	1.58
292.451	2.2
292.667	14.34
292.882	20.9
293.098	3.6
293.313	0.04
293.529	-0.89
293.744	-4.42
293.959	-11.86
294.175	-6.06
294.39	15.5
294.605	26.72
294.821	25.38
295.036	32.92
295.251	33.62
295.467	16.3
295.682	7.64
295.897	-11.21
296.112	-22.01
296.328	-15.36
296.543	-24.98
296.758	-42.38
296.973	-0.36
297.188	18.67
297.404	-8.48
297.619	-15.08
297.834	-8.28
298.049	-41.33
298.264	-47.78
298.479	8.3
298.694	20.23
298.909	28.29
299.125	30.58
299.34	23.6
299.555	-0.15
299.77	-2.87
299.985	-17.98
300.2	-40.51
300.415	-29.99
300.63	-11.32
300.845	-18.51
301.06	-8.14
301.275	4.34
301.49	10.45
301.704	-0.46
301.919	-5.46
302.134	-28.03
302.349	-19.13
302.564	-69.28
302.779	-76.96
302.994	-88.32
303.209	3.76
303.423	1.09
303.638	47.18
303.853	20.28
304.068	31.53
304.283	23.02
304.497	32.79
304.712	22.58
304.927	23.47
305.142	14.2
305.356	8.7
305.571	-17.62
305.786	-30.89
306	-49.81
306.215	-65.2
306.43	-70.74
306.644	-38.75
306.859	-17.14
307.074	15.86
307.288	3.12
307.503	-8.13
307.717	-13.83
307.932	-20.55
308.147	-22.4
308.361	4.55
308.576	5.64
308.79	-14.14
309.005	-1.08
309.219	11.33
309.434	8.04
309.648	9.04
309.863	13.71
310.077	27.86
310.292	24.01
310.506	18.35
310.72	17.92
310.935	24.12
311.149	18.81
311.364	29.69
311.578	37.28
311.792	38.99
312.007	27.84
312.221	10.86
312.435	2.24
312.649	-9.36
312.864	-48.15
313.078	-27.3
313.292	10.22
313.507	-17.65
313.721	-9.7
313.935	23.93
314.149	11.34
314.363	-2.8
314.578	-9.23
314.792	-10.12
315.006	-11.06
315.22	9.54
315.434	4.43
315.648	19.88
315.862	16.26
316.077	16.55
316.291	-9.77
316.505	23.55
316.719	32.56
316.933	22.5
317.147	33.23
317.361	16.81
317.575	-38.76
317.789	-60.51
318.003	-111.91
318.217	-110.33
318.431	-47.35
318.645	4.69
318.859	9.46
319.073	25.42
319.287	21.21
319.5	13.42
319.714	-5.8
319.928	-33.24
320.142	-38.96
320.356	-12.77
320.57	-14.77
320.784	-50.31
320.997	-82.01
321.211	-65.67
321.425	-75.97
321.639	-64.05
321.853	-9.99
322.066	29.59
322.28	20.2
322.494	14.69
322.707	25.84
322.921	22.56
323.135	26.61
323.349	29.32
323.562	30.12
323.776	17.11
323.989	8.78
324.203	3.01
324.417	-2
324.63	-11.46
324.844	-9.37
325.057	-1.43
325.271	-15.48
325.485	13.5
325.698	22.66
325.912	30.24
326.125	4.49
326.339	13.35
326.552	-7.31
326.766	0.23
326.979	10.1
327.193	44.73
327.406	35.34
327.619	26.38
327.833	22.82
328.046	1.42
328.26	-28.58
328.473	-16.57
328.686	-23.26
328.9	-20.18
329.113	-2.17
329.326	-2.69
329.54	3.02
329.753	-4.83
329.966	-19.1
330.179	-26.07
330.393	-7.77
330.606	-0.84
330.819	11.7
331.032	31.39
331.246	32.9
331.459	39.48
331.672	28.18
331.885	28.1
332.098	18.88
332.311	14.49
332.525	-7.75
332.738	-15.86
332.951	-10.65
333.164	1.43
333.377	17.5
333.59	37.05
333.803	54.46
334.016	54
334.229	61.05
334.442	51.33
334.655	52.21
334.868	73.6
335.081	61.86
335.294	45.43
335.507	43.03
335.72	33.32
335.933	9.93
336.146	-2.63
336.359	-6.57
336.572	-17.25
336.785	-41.21
336.997	-37.54
337.21	-10.18
337.423	-1.54
337.636	1.44
337.849	29.59
338.062	20.23
338.274	22.98
338.487	26.13
338.7	16.74
338.913	-40.49
339.125	-39.86
339.338	-77.42
339.551	-75.73
339.763	-51.06
339.976	2.38
340.189	4.23
340.402	6.49
340.614	7.81
340.827	13.93
341.039	13.6
341.252	28.89
341.465	38.6
341.677	44.88
341.89	20.8
342.102	18.96
342.315	11.07
342.527	-10.58
342.74	-18.96
342.952	4.58
343.165	-1.83
343.377	8.25
343.59	12.64
343.802	18
344.015	9.38
344.227	3.4
344.44	9.76
344.652	5.9
344.864	-4.57
345.077	24.12
345.289	34.82
345.502	26.48
345.714	34.6
345.926	40.17
346.139	30.22
346.351	22.86
346.563	29.58
346.775	23.11
346.988	12.2
347.2	9.04
347.412	-18.08
347.624	-33.94
347.837	-52.93
348.049	-29.2
348.261	-8.99
348.473	12.89
348.685	22.2
348.897	23.08
349.11	14.08
349.322	-4.8
349.534	1.19
349.746	12.3
349.958	29.17
350.17	28.37
350.382	48.33
350.594	44.77
350.806	42.94
351.018	46.04
351.23	33.32
351.442	-4.57
351.654	-22.02
351.866	-24.73
352.078	-26.65
352.29	-4.22
352.502	4.58
352.714	19.36
352.926	8.33
353.138	2.38
353.35	5.98
353.561	12.05
353.773	4.53
353.985	11.48
354.197	6.01
354.409	-4.87
354.621	-10.21
354.832	-0.97
355.044	-3.41
355.256	6.37
355.468	10.7
355.679	24.43
355.891	23.19
356.103	13.26
356.314	18.79
356.526	25.77
356.738	13.03
356.949	4.22
357.161	12.11
357.373	3.57
357.584	-4.51
357.796	-0.12
358.008	-1.17
358.219	16.11
358.431	11.89
358.642	10.56
358.854	2.28
359.065	1.93
359.277	-16.16
359.488	-16.23
359.7	-19.06
359.911	-17.68
360.123	-12.42
360.334	-15.34
360.546	-9.49
360.757	-23.67
360.969	-14.09
361.18	-5.28
361.391	-15.2
361.603	-23.86
361.814	-0.89
362.025	-13.53
362.237	-20.09
362.448	-0.31
362.659	19.57
362.871	18.55
363.082	31.09
363.293	25.88
363.504	10.46
363.716	-8.72
363.927	-7.6
364.138	-17.4
364.349	-23.33
364.56	-15.22
364.772	-9.43
364.983	5.13
365.194	-0.72
365.405	10.91
365.616	20.24
365.827	14.47
366.038	1.91
366.25	10.76
366.461	-5.07
366.672	14.54
366.883	31.78
367.094	32.94
367.305	23
367.516	29.66
367.727	12.2
367.938	1.21
368.149	-1.15
368.36	-1.9
368.571	-3.75
368.781	-16.85
368.992	-31.44
369.203	-43.46
369.414	-38.35
369.625	-45.7
369.836	-29.94
370.047	-43.73
370.258	-35.59
370.468	-32.43
370.679	-33.72
370.89	-36.26
371.101	-15.4
371.312	-19.79
371.522	-20.36
371.733	-13.68
371.944	-1.32
372.155	0.16
372.365	-2.83
372.576	-6.95
372.787	-0.65
372.997	-16.06
373.208	-25.21
373.419	-6.18
373.629	-28.17
373.84	-24.99
374.05	-23.88
374.261	-17.72
374.472	-25.29
374.682	1.64
374.893	3.65
375.103	25.19
375.314	33.76
375.524	33.16
375.735	32.99
375.945	27.71
376.156	7.4
376.366	-0.67
376.577	-9.23
376.787	-13.34
376.997	-14.2
377.208	-5.29
377.418	0.9
377.629	15.04
377.839	25.64
378.049	22.22
378.26	25.14
378.47	31.1
378.68	19.91
378.89	14.22
379.101	15.08
379.311	1.96
379.521	-25.35
379.732	-15.28
379.942	-12.64
380.152	-22.48
380.362	2.14
380.572	9.47
380.783	17.18
380.993	20.93
381.203	30.61
381.413	21.56
381.623	23.88
381.833	17.49
382.043	9.31
382.253	2.63
382.463	8.42
382.674	-1.19
382.884	-5.26
383.094	6.14
383.304	12.62
383.514	9.85
383.724	19.99
383.934	14.85
384.144	3
384.353	-7.54
384.563	-6.92
384.773	-2.37
384.983	-2.95
385.193	13.43
385.403	19.83
385.613	23.01
385.823	15.02
386.033	17.84
386.242	7.2
386.452	1.58
386.662	-7.55
386.872	5.47
387.082	-0.42
387.291	-4.45
387.501	-3.61
387.711	4.84
387.921	-4.36
388.13	1.9
388.34	12.83
388.55	9.25
388.759	8.77
388.969	10.79
389.179	8.97
389.388	4.21
389.598	11.06
389.807	4.15
390.017	0.78
390.227	1.41
390.436	0.24
390.646	-2.72
390.855	-0.22
391.065	0.95
391.274	-1.22
391.484	-1.19
391.693	1.95
391.903	4.95
392.112	7.34
392.322	6.16
392.531	8.7
392.74	7.21
392.95	3.45
393.159	-0.14
393.369	0.32
393.578	0.13
393.787	0.71
393.997	2.23
394.206	3.78
394.415	5.63
394.625	4.88
394.834	2.44
395.043	3.08
395.252	3.39
395.462	5.66
395.671	6.02
395.88	7.24
396.089	7.7
396.298	6.78
396.508	5.43
396.717	4.7
396.926	4.94
397.135	4.23
397.344	4.68
397.553	4.37
397.762	5.53
397.971	5.57
398.181	5.99
398.39	5.45
398.599	5.7
398.808	5.24
399.017	5.33
399.226	6.07
399.435	6.9
399.644	6.85
399.853	6.39
400.062	6.55
400.27	5.88
400.479	5.59
400.688	5.15
400.897	5.37
401.106	5.23
401.315	5.27
401.524	5.35
401.733	5.54
401.941	5.94
402.15	5.87
402.359	5.48
402.568	5.51
402.777	5.78
402.985	5.45
403.194	5.4
403.403	5.47
403.612	5.25
403.82	4.86
404.029	5.06
404.238	4.93
404.446	5.31
404.655	5.22
404.864	5.38
405.072	5.13
405.281	5.15
405.489	4.95
405.698	4.95
405.906	4.78
406.115	4.88
406.324	4.85
406.532	4.93
406.741	5.21
406.949	5.47
407.158	5.45
407.366	5.58
407.574	5.59
407.783	5.53
407.991	5.26
408.2	5.22
408.408	5.23
408.617	5.09
408.825	4.94
409.033	5.07
409.242	5.14
409.45	5.17
409.658	5.16
409.867	5.24
410.075	5.17
410.283	4.99
410.491	4.91
410.7	4.86
410.908	4.85
411.116	4.96
411.324	5.04
411.533	4.78
411.741	4.89
411.949	4.87
412.157	4.79
412.365	4.84
412.573	5
412.781	5.07
412.99	4.92
413.198	4.96
413.406	4.95
413.614	4.91
413.822	4.64
414.03	4.7
414.238	4.61
414.446	4.61
414.654	4.61
414.862	4.75
415.07	4.82
415.278	4.86
415.486	4.73
415.694	4.78
415.902	4.7
416.109	4.68
416.317	4.56
416.525	4.41
416.733	4.38
416.941	4.65
417.149	4.7
417.357	4.7
417.564	4.95
417.772	5.07
417.98	4.83
418.188	4.7
418.395	4.87
418.603	4.98
418.811	4.81
419.019	4.85
419.226	4.98
419.434	4.92
419.642	4.59
419.849	4.63
420.057	4.56
420.265	4.56
420.472	4.44
420.68	4.48
420.887	4.43
421.095	4.46
421.302	4.34
421.51	4.42
421.717	4.6
421.925	4.72
422.132	4.68
422.34	4.51
422.547	4.34
422.755	4.08
422.962	3.89
423.17	3.73
423.377	3.88
423.585	4.06
423.792	4.08
423.999	4.2
424.207	4.32
424.414	4.27
424.621	4.23
424.829	4.38
425.036	4.36
425.243	4.46
425.451	4.4
425.658	4.37
425.865	4.45
426.072	4.38
426.28	4.49
426.487	4.44
426.694	4.31
426.901	4.13
427.108	4.13
427.315	3.99
427.523	4.15
427.73	4.24
427.937	4.32
428.144	4.28
428.351	4.21
428.558	4.33
428.765	4.27
428.972	4.16
429.179	4.31
429.386	4.59
429.593	4.45
429.8	4.45
430.007	4.68
430.214	4.6
430.421	4.41
430.628	4.29
430.835	4.29
431.042	4.36
431.249	4.54
431.456	4.54
431.662	4.69
431.869	4.85
432.076	4.76
432.283	4.76
432.49	4.83
432.697	4.77
432.903	4.67
433.11	4.67
433.317	4.63
433.524	4.69
433.73	4.74
433.937	4.9
434.144	4.92
434.35	4.87
434.557	4.73
434.764	4.73
434.97	4.69
435.177	4.75
435.384	4.74
435.59	4.87
435.797	5.06
436.003	5.06
436.21	5.04
436.416	5.11
436.623	5.17
436.829	5.18
437.036	5.27
437.242	5.28
437.449	5.2
437.655	5.28
437.862	5.29
438.068	5.17
438.275	5.27
438.481	5.55
438.687	5.4
438.894	5.37
439.1	5.5
439.307	5.57
439.513	5.49
439.719	5.54
439.926	5.65
440.132	5.58
440.338	5.55
440.544	5.57
440.751	5.64
440.957	5.67
441.163	5.78
441.369	5.79
441.575	5.8
441.782	5.75
441.988	5.68
442.194	5.62
442.4	5.61
442.606	5.79
442.812	5.93
443.018	5.92
443.224	5.99
443.431	6.07
443.637	5.85
443.843	5.7
444.049	5.7
444.255	5.62
444.461	5.65
444.667	5.72
444.873	5.87
445.079	5.9
445.284	6.08
445.49	5.99
445.696	5.9
445.902	5.84
446.108	5.82
446.314	5.67
446.52	5.63
446.726	5.83
446.931	5.91
447.137	5.92
447.343	6.1
447.549	6.16
447.755	6.08
447.96	6.12
448.166	6.1
448.372	5.95
448.578	6
448.783	5.95
448.989	5.96
449.195	6.09
449.4	6.2
449.606	6.21
449.812	6.14
450.017	6.19
450.223	6.13
450.428	5.99
450.634	5.99
450.84	6.19
451.045	6.07
451.251	6.09
451.456	6.38
451.662	6.43
451.867	6.45
452.073	6.53
452.278	6.55
452.483	6.53
452.689	6.47
452.894	6.49
453.1	6.47
453.305	6.49
453.51	6.43
453.716	6.39
453.921	6.38
454.127	6.31
454.332	6.29
454.537	6.23
454.742	6.29
454.948	6.27
455.153	6.32
455.358	6.47
455.563	6.57
455.769	6.64
455.974	6.64
456.179	6.59
456.384	6.42
456.589	6.36
456.795	6.25
457	6.18
457.205	6.38
457.41	6.4
457.615	6.43
457.82	6.46
458.025	6.56
458.23	6.38
458.435	6.45
458.64	6.43
458.845	6.53
459.05	6.41
459.255	6.5
459.46	6.48
459.665	6.47
459.87	6.5
460.075	6.63
460.28	6.63
460.485	6.71
460.69	6.71
460.895	6.63
461.099	6.6
461.304	6.69
461.509	6.67
461.714	6.74
461.919	6.83
462.123	6.83
462.328	6.77
462.533	6.84
462.738	6.85
462.942	6.82
463.147	6.8
463.352	6.89
463.556	6.85
463.761	6.81
463.966	6.79
464.17	6.89
464.375	6.86
464.58	6.89
464.784	6.9
464.989	6.85
465.193	6.81
465.398	6.84
465.602	6.8
465.807	6.83
466.011	6.97
466.216	7.06
