Data from Ofra_2a_PS_2CX10_Reflection_3.txt Node
Date: Tue Jul 20 09:37:34 EDT 2021
User: Adam
Spectrometer: FLMT01687
Trigger mode: 0
Integration Time (sec): 9.450000E-1
Scans to average: 3
Electric dark correction enabled: true
Nonlinearity correction enabled: false
Boxcar width: 3
XAxis mode: Wavelengths
Number of Pixels in Spectrum: 3648
>>>>>Begin Spectral Data<<<<<
179.494	806.51
179.716	470.51
179.937	559.89
180.158	2360.55
180.38	-1467.15
180.601	-261.62
180.823	-71.16
181.044	18.43
181.265	-0.84
181.486	74.59
181.708	-594.57
181.929	115
182.15	561.93
182.372	8.21
182.593	4.71
182.814	264.82
183.035	206.3
183.257	163.36
183.478	96.12
183.699	92.62
183.92	70.41
184.141	65.42
184.363	44.76
184.584	39.89
184.805	43.86
185.026	44.15
185.247	6.87
185.468	2.75
185.689	6.66
185.91	8.62
186.132	17.02
186.353	-1.22
186.574	9.92
186.795	1.84
187.016	9.91
187.237	11.67
187.458	21.05
187.679	-4.05
187.9	8.62
188.121	-3.38
188.342	27.62
188.563	40.77
188.784	24.03
189.005	16.17
189.226	19.7
189.447	19.93
189.667	27.34
189.888	17.25
190.109	-4.07
190.33	7.44
190.551	0.18
190.772	-4.84
190.993	2.51
191.214	-7.48
191.434	-11.97
191.655	-2.45
191.876	3.67
192.097	-1.07
192.318	5.81
192.538	5.67
192.759	5.15
192.98	7.05
193.201	28.19
193.421	34.23
193.642	56.86
193.863	68.54
194.083	66.92
194.304	53.36
194.525	53.18
194.745	35.25
194.966	34.99
195.187	35.64
195.407	30.14
195.628	26.08
195.848	36.01
196.069	30.58
196.29	20.03
196.51	4.62
196.731	0.46
196.951	7.37
197.172	2.94
197.392	5.43
197.613	7.12
197.833	9.89
198.054	-2.74
198.274	-25.02
198.495	-29.02
198.715	-26.54
198.936	-22.61
199.156	-6.72
199.377	3.43
199.597	13.59
199.817	30.22
200.038	25.28
200.258	24.16
200.479	34.94
200.699	44.77
200.919	33.41
201.14	47.5
201.36	52.36
201.58	58.15
201.801	55.92
202.021	42.3
202.241	42.93
202.461	47.81
202.682	45.65
202.902	49.83
203.122	46.15
203.342	59.58
203.563	54.88
203.783	52.02
204.003	49.34
204.223	50.97
204.443	52.4
204.663	51.41
204.884	33.89
205.104	43.84
205.324	51.75
205.544	52.13
205.764	60.6
205.984	56.52
206.204	57.3
206.424	63.92
206.644	64.17
206.864	54.39
207.084	68.91
207.304	62.68
207.525	58.75
207.745	61.73
207.964	57.57
208.184	42.35
208.404	32.49
208.624	2.17
208.844	-12.25
209.064	-5.06
209.284	-1.58
209.504	1.12
209.724	-21.53
209.944	-12.2
210.164	14.6
210.384	30.4
210.604	15.45
210.823	5.8
211.043	-10.95
211.263	17.76
211.483	17.66
211.703	16.12
211.922	9.39
212.142	23.43
212.362	23.83
212.582	21.71
212.801	12.44
213.021	-1.04
213.241	-10.32
213.461	-0.07
213.68	-4.7
213.9	-2.9
214.12	7.38
214.339	10.17
214.559	26.1
214.779	23.11
214.998	20.46
215.218	19.99
215.438	31.27
215.657	28.82
215.877	25
216.096	17.61
216.316	17.96
216.535	18.47
216.755	3.45
216.974	-1.13
217.194	-1.24
217.413	4.45
217.633	3.81
217.852	-2.51
218.072	-32.93
218.291	14.89
218.511	13.79
218.73	5.53
218.95	3.52
219.169	1.89
219.389	1.22
219.608	30.13
219.827	8.02
220.047	16.41
220.266	26.1
220.485	26.59
220.705	18.06
220.924	25.76
221.143	16.43
221.363	18.61
221.582	16.18
221.801	14.41
222.021	15.66
222.24	21.97
222.459	20.14
222.678	5.27
222.897	0.68
223.117	-7.85
223.336	-6.46
223.555	-13.37
223.774	-1.36
223.993	7.49
224.213	17.95
224.432	24.91
224.651	26.16
224.87	27.11
225.089	32.02
225.308	23.08
225.527	18
225.746	10.45
225.965	7.69
226.184	3.56
226.404	-8.76
226.623	17.21
226.842	24.26
227.061	10.52
227.28	34.02
227.499	44.73
227.718	40.88
227.936	47.06
228.155	35.69
228.374	30.55
228.593	37.65
228.812	29.07
229.031	12.87
229.25	24.73
229.469	23.37
229.688	22.35
229.907	15.91
230.125	22.65
230.344	21.57
230.563	36.36
230.782	25.4
231.001	31.36
231.22	31.03
231.438	40.38
231.657	36.25
231.876	31.86
232.095	22.35
232.313	39.53
232.532	35.41
232.751	35.57
232.969	34.02
233.188	31.42
233.407	33.19
233.625	30.74
233.844	29.65
234.063	27.44
234.281	27.79
234.5	24.79
234.719	24.4
234.937	36.09
235.156	32.91
235.374	21.93
235.593	19.01
235.811	10.9
236.03	11.92
236.249	28.58
236.467	24.41
236.686	38.31
236.904	33.06
237.123	33.29
237.341	40.9
237.559	39.89
237.778	38.63
237.996	37.02
238.215	24.48
238.433	31.94
238.652	27.67
238.87	20.86
239.088	16.7
239.307	17.05
239.525	10.08
239.743	9.87
239.962	12.31
240.18	16.24
240.398	11.48
240.617	17.45
240.835	9.53
241.053	18.6
241.271	26.75
241.49	13.02
241.708	14.94
241.926	17.28
242.144	16.37
242.363	20.69
242.581	14.34
242.799	2.5
243.017	12.97
243.235	15.63
243.453	10.64
243.672	11.15
243.89	12.58
244.108	21.97
244.326	25.4
244.544	19.66
244.762	14.19
244.98	29.04
245.198	24.82
245.416	22.56
245.634	24.15
245.852	29.72
246.07	33.08
246.288	36.9
246.506	32.1
246.724	39.28
246.942	37.82
247.16	24.01
247.378	17.31
247.596	15.78
247.814	5.59
248.032	4.42
248.25	-2.43
248.468	3.03
248.685	11.7
248.903	17.35
249.121	15.9
249.339	30.12
249.557	30.31
249.775	19.34
249.992	15.54
250.21	6.21
250.428	5.25
250.646	3.52
250.863	-0.97
251.081	-12.42
251.299	6.84
251.517	2.17
251.734	15.34
251.952	15.52
252.17	5.63
252.387	11.1
252.605	25.27
252.823	0.43
253.04	4.77
253.258	3.96
253.475	13.52
253.693	30.46
253.911	28.93
254.128	22.37
254.346	24.56
254.563	23.74
254.781	21.02
254.998	17.03
255.216	20.11
255.433	18.71
255.651	17.42
255.868	20.88
256.086	27.43
256.303	33.83
256.521	17.19
256.738	2.71
256.956	-0.16
257.173	4.85
257.39	11.96
257.608	4.82
257.825	1.32
258.043	12.78
258.26	8.72
258.477	16.96
258.695	14.03
258.912	13.38
259.129	19.11
259.346	19.64
259.564	17.8
259.781	24.46
259.998	17.16
260.216	24.91
260.433	18.89
260.65	19.84
260.867	9.06
261.084	20.32
261.302	6.34
261.519	-8.06
261.736	-12.51
261.953	9.19
262.17	12.84
262.387	12.78
262.604	3.23
262.822	14.67
263.039	23.78
263.256	23.8
263.473	10.77
263.69	8.87
263.907	14.32
264.124	18.9
264.341	23.77
264.558	29.42
264.775	22.89
264.992	26.18
265.209	20.9
265.426	16.83
265.643	12
265.86	10.08
266.077	7.01
266.294	8.48
266.51	7.92
266.727	-5.85
266.944	-46.46
267.161	-55.07
267.378	-62.05
267.595	-60.75
267.812	-59.62
268.028	-57.94
268.245	-34.67
268.462	9.41
268.679	11.62
268.896	5.95
269.112	18.87
269.329	30.14
269.546	29.02
269.763	22.68
269.979	17.72
270.196	21.78
270.413	27.04
270.629	18.01
270.846	17.07
271.063	19
271.279	26.82
271.496	20.26
271.712	25.34
271.929	27.25
272.146	27.51
272.362	3.26
272.579	3.94
272.795	-3.78
273.012	4.34
273.228	-1.23
273.445	-2.34
273.661	-4.51
273.878	12.81
274.094	18.78
274.311	23.23
274.527	18.45
274.744	18.34
274.96	14.53
275.177	27.26
275.393	27.39
275.609	20.62
275.826	19.57
276.042	36.25
276.259	35.27
276.475	33.11
276.691	30.84
276.908	27.53
277.124	33.9
277.34	29.19
277.557	19.98
277.773	23.05
277.989	27.56
278.205	-0.47
278.422	-2.78
278.638	0.76
278.854	9.35
279.07	1.02
279.286	-3.92
279.503	-2.19
279.719	25.15
279.935	14.13
280.151	12.77
280.367	4.11
280.583	14.72
280.799	16.99
281.016	9.99
281.232	-1.84
281.448	6.69
281.664	2.99
281.88	12.78
282.096	12.13
282.312	9.67
282.528	15.71
282.744	25.34
282.96	24.34
283.176	24.46
283.392	27.34
283.608	32.72
283.824	30.01
284.04	32
284.256	32.77
284.471	35.83
284.687	33.69
284.903	35.37
285.119	23.47
285.335	18.83
285.551	28.3
285.767	20.97
285.982	18.23
286.198	13.91
286.414	10.11
286.63	15.05
286.846	24.32
287.061	25.4
287.277	22.52
287.493	27.44
287.709	22.11
287.924	27.71
288.14	30.86
288.356	33.53
288.571	14.67
288.787	26.56
289.003	28.14
289.218	36.78
289.434	32.88
289.65	25.79
289.865	23.15
290.081	27.25
290.296	27.26
290.512	27.91
290.727	30.73
290.943	21.65
291.159	26.15
291.374	30.04
291.59	30.36
291.805	27.6
292.021	2.38
292.236	1.11
292.451	9.42
292.667	15.7
292.882	4.75
293.098	1.54
293.313	0.56
293.529	20.04
293.744	20.33
293.959	17.9
294.175	13.88
294.39	22.66
294.605	20.16
294.821	12.95
295.036	15.02
295.251	23.58
295.467	23.58
295.682	21.64
295.897	20.71
296.112	25.69
296.328	37.74
296.543	23.05
296.758	15.77
296.973	20.5
297.188	17.28
297.404	13.22
297.619	11.59
297.834	11.32
298.049	22.31
298.264	18.36
298.479	8.03
298.694	18.64
298.909	16.25
299.125	25.48
299.34	21.65
299.555	24.55
299.77	25.46
299.985	33.37
300.2	28.72
300.415	32.97
300.63	23.68
300.845	24.26
301.06	22.14
301.275	27.32
301.49	23.55
301.704	18.82
301.919	10.75
302.134	15.17
302.349	9.48
302.564	7.14
302.779	5.65
302.994	8.09
303.209	8.33
303.423	16.98
303.638	18.12
303.853	23.86
304.068	15.12
304.283	16.01
304.497	14.5
304.712	20.6
304.927	19.18
305.142	21.47
305.356	23.51
305.571	35.81
305.786	29.82
306	34.42
306.215	31.32
306.43	34.95
306.644	32.23
306.859	33.11
307.074	25.2
307.288	22.53
307.503	15.59
307.717	11.58
307.932	8.15
308.147	4.44
308.361	1.89
308.576	6.29
308.79	13.3
309.005	19.59
309.219	22.71
309.434	16.99
309.648	10.56
309.863	6.76
310.077	1.8
310.292	3.49
310.506	11.99
310.72	12.25
310.935	15.47
311.149	25.86
311.364	32.5
311.578	32.56
311.792	29.82
312.007	23.46
312.221	23.72
312.435	27.41
312.649	10.77
312.864	-8.52
313.078	2.26
313.292	-11.87
313.507	-6.62
313.721	-11.21
313.935	12.27
314.149	23.05
314.363	33.65
314.578	32.3
314.792	42.78
315.006	39.21
315.22	44.74
315.434	27.75
315.648	28.73
315.862	25.54
316.077	26.53
316.291	23.5
316.505	23.75
316.719	3.89
316.933	8.18
317.147	1.4
317.361	4.13
317.575	4.37
317.789	11.04
318.003	18.72
318.217	28.18
318.431	30.36
318.645	36.71
318.859	24.25
319.073	16.71
319.287	18.38
319.5	18.29
319.714	21.01
319.928	24
320.142	22.26
320.356	45.16
320.57	48.68
320.784	41.63
320.997	37.09
321.211	37.78
321.425	26.31
321.639	24.87
321.853	4.11
322.066	2.99
322.28	8.78
322.494	8.84
322.707	4.62
322.921	10.51
323.135	17.27
323.349	24.73
323.562	28.55
323.776	24.32
323.989	23.63
324.203	32.81
324.417	28.82
324.63	27.99
324.844	18.49
325.057	21.19
325.271	11.98
325.485	7.71
325.698	3.43
325.912	12.78
326.125	16.34
326.339	20.95
326.552	13.63
326.766	26.22
326.979	28.09
327.193	19.48
327.406	10.23
327.619	-10.78
327.833	-0.25
328.046	-1.48
328.26	-9.99
328.473	-10.5
328.686	-4.1
328.9	-4.53
329.113	5.94
329.326	10.68
329.54	11.79
329.753	13.73
329.966	14.51
330.179	21.22
330.393	35.43
330.606	37.01
330.819	35.33
331.032	37.02
331.246	43.07
331.459	47.4
331.672	46.05
331.885	36.94
332.098	34.98
332.311	19.14
332.525	29.88
332.738	17.38
332.951	11.81
333.164	0.76
333.377	-18.1
333.59	-9.39
333.803	8.59
334.016	-12.61
334.229	0.45
334.442	10.31
334.655	15.27
334.868	29.37
335.081	31.78
335.294	18.93
335.507	21.88
335.72	9.76
335.933	7.46
336.146	18.78
336.359	12.27
336.572	2.68
336.785	12.97
336.997	12.95
337.21	26.57
337.423	28.5
337.636	24.98
337.849	30.1
338.062	39.63
338.274	37.6
338.487	27.86
338.7	23.76
338.913	23.7
339.125	15.03
339.338	21.09
339.551	21.34
339.763	22.09
339.976	28.09
340.189	30.41
340.402	27.81
340.614	31.66
340.827	15.93
341.039	16.85
341.252	15.41
341.465	12.51
341.677	1.94
341.89	0.17
342.102	6.8
342.315	20.46
342.527	8.99
342.74	9.88
342.952	14.37
343.165	29.88
343.377	39.13
343.59	35.25
343.802	31.59
344.015	32.19
344.227	24.02
344.44	21.4
344.652	14.14
344.864	3.99
345.077	-6.06
345.289	-5.05
345.502	-0.13
345.714	2.28
345.926	-4.16
346.139	-0.76
346.351	-9.39
346.563	1.18
346.775	-2.94
346.988	-4.9
347.2	4.05
347.412	7.96
347.624	15.38
347.837	19.38
348.049	19.69
348.261	22.61
348.473	18.1
348.685	20.52
348.897	24.09
349.11	17.19
349.322	14.97
349.534	6.94
349.746	8.3
349.958	11.37
350.17	8.04
350.382	-7.82
350.594	-12.8
350.806	0.66
351.018	8.36
351.23	5.11
351.442	10.87
351.654	15.9
351.866	24.52
352.078	27.95
352.29	27.89
352.502	28.41
352.714	32.79
352.926	32.99
353.138	31.31
353.35	33.28
353.561	27.2
353.773	28.13
353.985	27.6
354.197	18.56
354.409	25.96
354.621	21.65
354.832	19.9
355.044	29.45
355.256	20.44
355.468	15.91
355.679	28.71
355.891	21.24
356.103	27.27
356.314	20.42
356.526	9.71
356.738	9.45
356.949	14.44
357.161	9.6
357.373	4.36
357.584	6.26
357.796	15.23
358.008	20.34
358.219	30.31
358.431	23.87
358.642	19.65
358.854	25.12
359.065	18.2
359.277	13.17
359.488	8.03
359.7	5.02
359.911	-0.45
360.123	12.74
360.334	13.94
360.546	13.53
360.757	17.28
360.969	28.74
361.18	25.96
361.391	29.8
361.603	26.61
361.814	24.95
362.025	24.46
362.237	26.59
362.448	20.81
362.659	11.09
362.871	11.72
363.082	18.07
363.293	16.93
363.504	13.18
363.716	14.98
363.927	14.98
364.138	23.32
364.349	30.48
364.56	25.3
364.772	26.77
364.983	26.55
365.194	25.89
365.405	23.34
365.616	18.49
365.827	4
366.038	10.75
366.25	8.27
366.461	13.48
366.672	9.15
366.883	19.04
367.094	21.37
367.305	22.63
367.516	14.59
367.727	9.72
367.938	12.75
368.149	12.67
368.36	4.04
368.571	4.43
368.781	5.19
368.992	7.33
369.203	6.46
369.414	-1.03
369.625	2.08
369.836	4.02
370.047	4.59
370.258	1.98
370.468	1.98
370.679	3.38
370.89	11.92
371.101	8.53
371.312	5.52
371.522	8.8
371.733	10.61
371.944	10.78
372.155	3.35
372.365	-5.56
372.576	-4.41
372.787	-1.44
372.997	-3.19
373.208	1.85
373.419	-0.42
373.629	15.18
373.84	12.24
374.05	19.52
374.261	15.39
374.472	12.34
374.682	10.58
374.893	6.01
375.103	5.79
375.314	7.1
375.524	-1.28
375.735	4.12
375.945	3.27
376.156	0.81
376.366	9.22
376.577	8.56
376.787	11.81
376.997	17.16
377.208	14.23
377.418	12.31
377.629	11.29
377.839	15.38
378.049	16.51
378.26	19.27
378.47	18.75
378.68	20.66
378.89	18.33
379.101	13.77
379.311	4.04
379.521	4.35
379.732	-2.72
379.942	-0.85
380.152	4.35
380.362	12.5
380.572	21.08
380.783	22.1
380.993	19.37
381.203	21.65
381.413	21.87
381.623	16.02
381.833	10.67
382.043	7.94
382.253	6.43
382.463	3.51
382.674	3.95
382.884	-1.46
383.094	-0.61
383.304	-2.53
383.514	2.24
383.724	0.26
383.934	5.5
384.144	10.12
384.353	10.59
384.563	7.73
384.773	12.95
384.983	10.73
385.193	16.72
385.403	17.54
385.613	10.99
385.823	11.67
386.033	12.83
386.242	8.76
386.452	7.12
386.662	5.28
386.872	0.49
387.082	2.15
387.291	2.7
387.501	7.34
387.711	8.58
387.921	8.49
388.13	6.62
388.34	5.63
388.55	8.11
388.759	7.4
388.969	3.19
389.179	6.43
389.388	5.84
389.598	4.87
389.807	5.05
390.017	3.55
390.227	3.44
390.436	2.49
390.646	1.42
390.855	2.46
391.065	2.78
391.274	3.75
391.484	3.59
391.693	3.56
391.903	4.65
392.112	4.15
392.322	5.18
392.531	5.28
392.74	5.22
392.95	5.83
393.159	6.88
393.369	6.59
393.578	6.03
393.787	4.35
393.997	5.5
394.206	4.82
394.415	4.25
394.625	2.57
394.834	1.71
395.043	1.98
395.252	3.34
395.462	2.97
395.671	4.14
395.88	4.31
396.089	4.81
396.298	4.77
396.508	4.52
396.717	3.66
396.926	3.14
397.135	2.11
397.344	2.29
397.553	2.22
397.762	2.46
397.971	2.44
398.181	2.18
398.39	2.7
398.599	3.13
398.808	2.85
399.017	3.26
399.226	3.68
399.435	3.55
399.644	3.65
399.853	3.52
400.062	3.29
400.27	3.3
400.479	3.15
400.688	2.95
400.897	3.36
401.106	3.47
401.315	3.31
401.524	3.34
401.733	3.55
401.941	3.47
402.15	3.23
402.359	2.99
402.568	2.92
402.777	2.88
402.985	2.94
403.194	2.77
403.403	2.66
403.612	2.78
403.82	2.79
404.029	2.81
404.238	2.96
404.446	2.95
404.655	2.77
404.864	2.86
405.072	2.77
405.281	2.72
405.489	2.72
405.698	2.61
405.906	2.53
406.115	2.67
406.324	2.57
406.532	2.62
406.741	2.65
406.949	2.53
407.158	2.56
407.366	2.59
407.574	2.57
407.783	2.48
407.991	2.4
408.2	2.36
408.408	2.41
408.617	2.35
408.825	2.3
409.033	2.26
409.242	2.35
409.45	2.36
409.658	2.28
409.867	2.26
410.075	2.22
410.283	2.2
410.491	2.22
410.7	2.22
410.908	2.27
411.116	2.26
411.324	2.34
411.533	2.26
411.741	2.29
411.949	2.3
412.157	2.3
412.365	2.2
412.573	2.22
412.781	2.16
412.99	2.25
413.198	2.24
413.406	2.2
413.614	2.27
413.822	2.27
414.03	2.22
414.238	2.27
414.446	2.21
414.654	2.19
414.862	2.16
415.07	2.11
415.278	2.09
415.486	2.24
415.694	2.16
415.902	2.14
416.109	2.23
416.317	2.21
416.525	2.26
416.733	2.38
416.941	2.29
417.149	2.41
417.357	2.51
417.564	2.39
417.772	2.44
417.98	2.37
418.188	2.23
418.395	2.3
418.603	2.18
418.811	2.05
419.019	2.14
419.226	2.18
419.434	2.12
419.642	2.18
419.849	2.1
420.057	2.11
420.265	2.18
420.472	2.11
420.68	2.05
420.887	2.07
421.095	2.06
421.302	2.13
421.51	2.19
421.717	2.2
421.925	2.14
422.132	2.06
422.34	2.07
422.547	1.97
422.755	1.87
422.962	1.76
423.17	1.73
423.377	1.94
423.585	1.99
423.792	1.95
423.999	2.01
424.207	2.01
424.414	2.05
424.621	2.16
424.829	1.92
425.036	1.91
425.243	1.97
425.451	1.97
425.658	1.98
425.865	1.88
426.072	1.88
426.28	1.89
426.487	1.86
426.694	1.87
426.901	1.83
427.108	1.8
427.315	1.82
427.523	1.68
427.73	1.76
427.937	1.78
428.144	1.78
428.351	1.82
428.558	1.77
428.765	1.76
428.972	1.8
429.179	1.74
429.386	1.86
429.593	1.83
429.8	1.89
430.007	2.03
430.214	2.18
430.421	2.18
430.628	2.11
430.835	2.01
431.042	2.07
431.249	2.07
431.456	2.08
431.662	2.05
431.869	2.2
432.076	2.34
432.283	2.33
432.49	2.29
432.697	2.28
432.903	2.25
433.11	2.29
433.317	2.23
433.524	2.13
433.73	2.18
433.937	2.13
434.144	2.21
434.35	2.22
434.557	2.12
434.764	2.1
434.97	2.24
435.177	2.17
435.384	2.28
435.59	2.18
435.797	2.14
436.003	2.23
436.21	2.19
436.416	2.16
436.623	2.34
436.829	2.28
437.036	2.33
437.242	2.39
437.449	2.4
437.655	2.44
437.862	2.4
438.068	2.31
438.275	2.31
438.481	2.36
438.687	2.41
438.894	2.38
439.1	2.43
439.307	2.49
439.513	2.47
439.719	2.56
439.926	2.62
440.132	2.58
440.338	2.57
440.544	2.55
440.751	2.56
440.957	2.55
441.163	2.59
441.369	2.53
441.575	2.54
441.782	2.58
441.988	2.57
442.194	2.62
442.4	2.71
442.606	2.65
442.812	2.7
443.018	2.67
443.224	2.64
443.431	2.68
443.637	2.62
443.843	2.6
444.049	2.57
444.255	2.5
444.461	2.53
444.667	2.6
444.873	2.57
445.079	2.63
445.284	2.6
445.49	2.63
445.696	2.71
445.902	2.77
446.108	2.71
446.314	2.74
446.52	2.71
446.726	2.75
446.931	2.77
447.137	2.75
447.343	2.69
447.549	2.75
447.755	2.72
447.96	2.76
448.166	2.73
448.372	2.76
448.578	2.77
448.783	2.77
448.989	2.75
449.195	2.79
449.4	2.77
449.606	2.77
449.812	2.77
450.017	2.77
450.223	2.77
450.428	2.78
450.634	2.79
450.84	2.82
451.045	2.88
451.251	2.86
451.456	2.84
451.662	2.86
451.867	2.92
452.073	2.89
452.278	2.89
452.483	2.86
452.689	2.88
452.894	2.89
453.1	2.84
453.305	2.84
453.51	2.88
453.716	2.86
453.921	2.89
454.127	2.9
454.332	2.93
454.537	3
454.742	2.93
454.948	2.89
455.153	2.89
455.358	2.94
455.563	2.96
455.769	2.97
455.974	2.91
456.179	2.89
456.384	2.94
456.589	3.04
456.795	2.94
457	2.95
457.205	2.94
457.41	3.01
457.615	3.12
457.82	3.18
458.025	3.13
458.23	3.21
458.435	3.19
458.64	3.25
458.845	3.21
459.05	3.18
459.255	3.11
459.46	3.09
459.665	3.12
459.87	3.12
460.075	3.12
460.28	3.15
460.485	3.18
460.69	3.14
460.895	3.17
461.099	3.14
461.304	3.19
461.509	3.13
461.714	3.14
461.919	3.11
462.123	3.21
462.328	3.21
462.533	3.2
462.738	3.19
462.942	3.25
463.147	3.27
463.352	3.33
463.556	3.31
463.761	3.35
463.966	3.39
464.17	3.42
464.375	3.38
464.58	3.34
464.784	3.36
464.989	3.37
465.193	3.4
465.398	3.39
465.602	3.38
465.807	3.45
466.011	3.52
466.216	3.51
466.42	3.56
466.625	3.52
466.829	3.54
467.034	3.55
467.238	3.57
467.443	3.58
467.647	3.64
467.851	3.64
468.056	3.67
468.26	3.67
468.464	3.7
468.669	3.72
468.873	3.67
469.077	3.62
469.282	3.63
469.486	3.68
469.69	3.71
469.894	3.78
470.099	3.82
470.303	3.89
