Data from Ofra_PS_T2_2A_9CX05_Reflection_1.txt Node
Date: Wed Jul 21 17:24:40 EDT 2021
User: Adam
Spectrometer: FLMT01687
Trigger mode: 0
Integration Time (sec): 1.100000E0
Scans to average: 2
Electric dark correction enabled: true
Nonlinearity correction enabled: false
Boxcar width: 2
XAxis mode: Wavelengths
Number of Pixels in Spectrum: 3648
>>>>>Begin Spectral Data<<<<<
179.494	501.2
179.716	597.41
179.937	540.83
180.158	542.37
180.38	778.44
180.601	209.12
180.823	-11.38
181.044	-210.19
181.265	-147.43
181.486	8.18
181.708	54.16
181.929	790.82
182.15	-562.68
182.372	55.57
182.593	-53.48
182.814	-19.19
183.035	25.48
183.257	17.78
183.478	-59.47
183.699	42.99
183.92	37.37
184.141	48.45
184.363	-6.02
184.584	44.82
184.805	37.53
185.026	57.27
185.247	68.45
185.468	54.74
185.689	70.5
185.91	61.3
186.132	60.34
186.353	36.38
186.574	106.87
186.795	62.54
187.016	31.47
187.237	1.36
187.458	-11.47
187.679	-51.18
187.9	-30.76
188.121	-26.18
188.342	-12.23
188.563	-5.04
188.784	22.96
189.005	19.29
189.226	71.22
189.447	40.65
189.667	12.86
189.888	-106.65
190.109	-760.39
190.33	-557.74
190.551	-1083.63
190.772	-252.18
190.993	-235.68
191.214	-184.83
191.434	-131.33
191.655	-31.35
191.876	-64.03
192.097	-100.26
192.318	-136.58
192.538	-162.9
192.759	-125.76
192.98	-12.48
193.201	13
193.421	28.42
193.642	38.39
193.863	41.6
194.083	15.18
194.304	6.96
194.525	12.78
194.745	3.2
194.966	-9.07
195.187	-34.32
195.407	-60.28
195.628	-143.65
195.848	-152.12
196.069	-188.42
196.29	-100.6
196.51	-84.82
196.731	-58.97
196.951	-46.83
197.172	-20.97
197.392	-79.35
197.613	-102.08
197.833	-143.09
198.054	-139.95
198.274	-90.3
198.495	-83.77
198.715	-37.14
198.936	-35.89
199.156	-15.79
199.377	-118.02
199.597	-135.8
199.817	-160.93
200.038	-106.7
200.258	-171.72
200.479	-56.37
200.699	-77.47
200.919	-6.25
201.14	-2.83
201.36	-43.21
201.58	-0.43
201.801	44.69
202.021	5.47
202.241	5.78
202.461	15.39
202.682	-88.46
202.902	-152.46
203.122	-74.42
203.342	-58.07
203.563	-4.07
203.783	29.35
204.003	9.63
204.223	14.98
204.443	57.41
204.663	30.92
204.884	34.06
205.104	54.65
205.324	75.74
205.544	50.63
205.764	59.43
205.984	45.99
206.204	57.12
206.424	44.63
206.644	16.55
206.864	34.29
207.084	39.54
207.304	55.01
207.525	20.47
207.745	42.12
207.964	24.04
208.184	-36.85
208.404	-91.39
208.624	-99.58
208.844	-107.49
209.064	-417.63
209.284	-406.61
209.504	-149.25
209.724	-16.96
209.944	-7.72
210.164	31.48
210.384	42.8
210.604	32.75
210.823	-12.59
211.043	-28.67
211.263	-11.73
211.483	-18.44
211.703	-95.77
211.922	-71.26
212.142	8.81
212.362	-3.67
212.582	-15.24
212.801	-2.69
213.021	-13.72
213.241	-36.88
213.461	-70
213.68	-81.89
213.9	-21.1
214.12	-9.05
214.339	-84.52
214.559	-40.53
214.779	5.97
214.998	-19.33
215.218	-53.81
215.438	-15.59
215.657	-24.17
215.877	-28.01
216.096	3.49
216.316	12.93
216.535	-4.26
216.755	-8.45
216.974	-50.58
217.194	-86.28
217.413	-90.14
217.633	-86.77
217.852	-184.36
218.072	-82.87
218.291	-45.98
218.511	0.59
218.73	-4.5
218.95	-2.89
219.169	-12.63
219.389	-56.49
219.608	-55.63
219.827	-53.69
220.047	-25.16
220.266	-10.33
220.485	4.51
220.705	18.14
220.924	-10.87
221.143	11.26
221.363	-17.07
221.582	-4.28
221.801	-10.06
222.021	4.35
222.24	-66.27
222.459	-22.29
222.678	-78.51
222.897	-131.57
223.117	-163.12
223.336	-133.47
223.555	-83.67
223.774	-17.87
223.993	-0.86
224.213	85.66
224.432	52.73
224.651	67.83
224.87	39.22
225.089	59.63
225.308	41.85
225.527	55.28
225.746	56.65
225.965	49.15
226.184	32.58
226.404	28.24
226.623	7.81
226.842	8.93
227.061	44.26
227.28	34.4
227.499	33.27
227.718	54.13
227.936	38.61
228.155	36.61
228.374	22.69
228.593	31.63
228.812	12.39
229.031	10.62
229.25	-33.02
229.469	-14.88
229.688	-13.88
229.907	23.5
230.125	33.17
230.344	42.21
230.563	43.41
230.782	45.6
231.001	-33.23
231.22	-22.9
231.438	2.85
231.657	2.23
231.876	-15.58
232.095	35.46
232.313	28.53
232.532	-14.07
232.751	-35.69
232.969	-28.65
233.188	-86.73
233.407	10.06
233.625	6.53
233.844	-19.85
234.063	-12.67
234.281	-2.27
234.5	-29.69
234.719	-3.63
234.937	30.56
235.156	23.57
235.374	26.57
235.593	37.08
235.811	15.64
236.03	6.98
236.249	-20.72
236.467	-21.23
236.686	-7.43
236.904	9.36
237.123	-20.82
237.341	-9.11
237.559	-0.69
237.778	-20.97
237.996	-45.49
238.215	15.25
238.433	24.17
238.652	27.54
238.87	4.26
239.088	22.99
239.307	10.78
239.525	-4.66
239.743	-37.59
239.962	-18.92
240.18	-54.1
240.398	-105.08
240.617	-106.58
240.835	-94.31
241.053	-58.1
241.271	17.44
241.49	33.03
241.708	49.38
241.926	38.45
242.144	28.29
242.363	-48.8
242.581	-60.82
242.799	-29.53
243.017	11.8
243.235	-12.27
243.453	-3.27
243.672	-10.58
243.89	-18.02
244.108	-23.96
244.326	2.56
244.544	11.15
244.762	17.62
244.98	42.73
245.198	33.81
245.416	-6.33
245.634	-9.42
245.852	-16.6
246.07	-23.58
246.288	-8.93
246.506	-11.94
246.724	1.86
246.942	5.91
247.16	7.25
247.378	-2.71
247.596	27.28
247.814	33.69
248.032	11.16
248.25	32.42
248.468	38.31
248.685	35.48
248.903	39.9
249.121	42.97
249.339	1.36
249.557	-10.2
249.775	-3.81
249.992	-57.74
250.21	-54.28
250.428	-27.42
250.646	-56.34
250.863	-70.49
251.081	-47.71
251.299	-44.73
251.517	-44.19
251.734	-23.17
251.952	-22.87
252.17	-14.7
252.387	0.68
252.605	-12.34
252.823	-11.09
253.04	0.42
253.258	22.83
253.475	-7.6
253.693	24.88
253.911	38.18
254.128	51.84
254.346	48.39
254.563	41.1
254.781	17.27
254.998	-8.36
255.216	8.08
255.433	22.49
255.651	70.41
255.868	83.41
256.086	90.58
256.303	65.76
256.521	35.08
256.738	10.75
256.956	-22.5
257.173	-48.18
257.39	-83.07
257.608	-105.04
257.825	-10.5
258.043	48.44
258.26	58.15
258.477	99.66
258.695	86.38
258.912	12.41
259.129	13.78
259.346	-8.17
259.564	-48.62
259.781	-50.24
259.998	13.44
260.216	20.62
260.433	46.3
260.65	49.71
260.867	63.87
261.084	32.26
261.302	4.89
261.519	0.22
261.736	-39.02
261.953	-68.54
262.17	-31.01
262.387	-49.96
262.604	-95.73
262.822	-95.65
263.039	-72.27
263.256	-124.08
263.473	-62.4
263.69	-13.24
263.907	27.3
264.124	50.8
264.341	64.24
264.558	36.98
264.775	34.03
264.992	27.83
265.209	18.23
265.426	27.14
265.643	39.93
265.86	50.56
266.077	50.6
266.294	36.11
266.51	0.22
266.727	-20.1
266.944	-17.67
267.161	-33.94
267.378	-16.95
267.595	14
267.812	-3.2
268.028	-20.9
268.245	-10.39
268.462	-40.72
268.679	-46.44
268.896	0.14
269.112	1.1
269.329	11.73
269.546	33.12
269.763	21.48
269.979	-2.48
270.196	1.16
270.413	-41.99
270.629	-78.15
270.846	-87.18
271.063	-67.91
271.279	-85.91
271.496	-67.39
271.712	-13.72
271.929	-8.14
272.146	-26.66
272.362	-0.59
272.579	42.64
272.795	31.36
273.012	48.05
273.228	55.89
273.445	23.74
273.661	-5.58
273.878	-40.14
274.094	-47.15
274.311	-71.89
274.527	9.8
274.744	13.09
274.96	12.1
275.177	26.22
275.393	50.08
275.609	33.14
275.826	53.34
276.042	49.14
276.259	33.32
276.475	39.29
276.691	38.21
276.908	13.26
277.124	31.19
277.34	44.55
277.557	18.07
277.773	11.67
277.989	6.05
278.205	-4.96
278.422	10.28
278.638	20.92
278.854	29.1
279.07	39.37
279.286	21.65
279.503	-19.57
279.719	-23.69
279.935	-48.41
280.151	-67.58
280.367	-22.85
280.583	-54.61
280.799	-50.15
281.016	-65.61
281.232	-28.84
281.448	-34.06
281.664	7.02
281.88	-5.15
282.096	17.97
282.312	48.76
282.528	52.96
282.744	45.36
282.96	40.53
283.176	28.97
283.392	-1.29
283.608	-11.37
283.824	-4.59
284.04	-5.05
284.256	-13.55
284.471	-6.33
284.687	-1.82
284.903	10.96
285.119	38.9
285.335	17.73
285.551	29.8
285.767	28.65
285.982	6.25
286.198	-31.94
286.414	36.56
286.63	40.09
286.846	41.65
287.061	28.04
287.277	59.23
287.493	28.56
287.709	42.13
287.924	31.38
288.14	54.01
288.356	34.74
288.571	50.72
288.787	15.82
289.003	28.44
289.218	21.73
289.434	-5.92
289.65	8.66
289.865	15.66
290.081	18.97
290.296	12.42
290.512	18.64
290.727	-20.32
290.943	-24.4
291.159	-39.75
291.374	-33.12
291.59	-58.31
291.805	-42.72
292.021	-21.02
292.236	-9.48
292.451	-0.34
292.667	15.28
292.882	20.37
293.098	4.47
293.313	-13.51
293.529	-49.49
293.744	-68.87
293.959	-69.32
294.175	-54.14
294.39	-14.86
294.605	4.02
294.821	39.18
295.036	51.28
295.251	59.68
295.467	43.34
295.682	43.22
295.897	-5.43
296.112	-17.67
296.328	-22.3
296.543	-62.95
296.758	-63.09
296.973	-13.13
297.188	33.93
297.404	17.48
297.619	30.38
297.834	15.5
298.049	-9.64
298.264	-66.04
298.479	-7.1
298.694	-1.55
298.909	21.08
299.125	29.29
299.34	42.59
299.555	-1.61
299.77	14.68
299.985	-30.53
300.2	-75.58
300.415	-97.16
300.63	-45.24
300.845	-49.07
301.06	-32.35
301.275	7.87
301.49	16.62
301.704	0.95
301.919	-22
302.134	-38.15
302.349	-54.67
302.564	-92.31
302.779	-142.73
302.994	-94.59
303.209	-56.59
303.423	-5.93
303.638	32.11
303.853	8.07
304.068	-8.93
304.283	0.47
304.497	-10.66
304.712	-23.77
304.927	1.87
305.142	-4.56
305.356	3.38
305.571	-6.99
305.786	-20.47
306	-51.03
306.215	-39.98
306.43	-71.76
306.644	-69.35
306.859	-16.33
307.074	17.26
307.288	-19.43
307.503	-17.15
307.717	-11.23
307.932	-13.69
308.147	-30.52
308.361	0.51
308.576	-9.44
308.79	-60.28
309.005	-64.57
309.219	-45.8
309.434	-49.27
309.648	-43.44
309.863	-3.8
310.077	2.08
310.292	1.77
310.506	2.74
310.72	18.02
310.935	12.66
311.149	9.15
311.364	40.55
311.578	42.51
311.792	32.57
312.007	43.58
312.221	32.63
312.435	24.23
312.649	12.08
312.864	57.74
313.078	73.16
313.292	139.64
313.507	94.9
313.721	141.59
313.935	47.76
314.149	23.93
314.363	18.01
314.578	20.52
314.792	17.21
315.006	16.39
315.22	25.52
315.434	20.3
315.648	28.73
315.862	28.25
316.077	18.6
316.291	-5.34
316.505	10.86
316.719	-4.93
316.933	-37.48
317.147	-23.71
317.361	-64.76
317.575	-83.81
317.789	-86.12
318.003	-112.04
318.217	-78.29
318.431	-4.08
318.645	26.73
318.859	10.8
319.073	29.37
319.287	2.77
319.5	-21.49
319.714	-76.76
319.928	-102.85
320.142	-131.28
320.356	-53.69
320.57	-7.58
320.784	-17.77
320.997	-16.74
321.211	11.51
321.425	-60.91
321.639	-93.83
321.853	-18
322.066	-8.43
322.28	-26.6
322.494	-9.44
322.707	-4.63
322.921	-22.9
323.135	-7.42
323.349	17.91
323.562	-1.55
323.776	-4.7
323.989	-8.78
324.203	-42.24
324.417	-65.8
324.63	-85.69
324.844	-82.49
325.057	-84.61
325.271	-41.92
325.485	-0.6
325.698	31.97
325.912	38.03
326.125	23.55
326.339	12.08
326.552	-19.89
326.766	-33.06
326.979	-16.48
327.193	23.39
327.406	3.43
327.619	1
327.833	9.7
328.046	-16.24
328.26	-49.01
328.473	-8.96
328.686	-23.76
328.9	-2.28
329.113	12.58
329.326	-4.76
329.54	-2.56
329.753	-9.29
329.966	-66.2
330.179	-41.93
330.393	-14.47
330.606	-15.09
330.819	14.97
331.032	29.77
331.246	29.51
331.459	56.08
331.672	53.6
331.885	33.23
332.098	13.2
332.311	6.44
332.525	-54.31
332.738	-56.86
332.951	-30.56
333.164	-2.66
333.377	2.04
333.59	19.82
333.803	21.66
334.016	11.75
334.229	2.6
334.442	9.88
334.655	33.11
334.868	33.46
335.081	22.8
335.294	20.85
335.507	21.47
335.72	-0.03
335.933	-8.57
336.146	-8.59
336.359	2.97
336.572	-37.66
336.785	-62.84
336.997	-41.36
337.21	-3.93
337.423	-26.18
337.636	-18.32
337.849	9.66
338.062	-16.65
338.274	-2.13
338.487	7.85
338.7	18.49
338.913	-14.81
339.125	-32.82
339.338	-110.88
339.551	-90.81
339.763	-51.85
339.976	-24.36
340.189	14.95
340.402	40.22
340.614	32.29
340.827	15.16
341.039	-7
341.252	-14.46
341.465	-6.14
341.677	-11.41
341.89	-45.35
342.102	-4.89
342.315	-28.27
342.527	-60.23
342.74	-45.78
342.952	1.37
343.165	-8.48
343.377	17.97
343.59	12.73
343.802	23.31
344.015	28.18
344.227	35.57
344.44	27.46
344.652	25.59
344.864	16.52
345.077	25.22
345.289	23.01
345.502	22.75
345.714	21.5
345.926	28.22
346.139	21.51
346.351	24.75
346.563	35.68
346.775	51.67
346.988	33.33
347.2	10.88
347.412	-27.29
347.624	-53.85
347.837	-86.81
348.049	-61.85
348.261	-25.05
348.473	-5.62
348.685	-1.57
348.897	-8.24
349.11	-20.42
349.322	-46.16
349.534	-35.16
349.746	-26.75
349.958	-11.82
350.17	-5.52
350.382	13.82
350.594	13.67
350.806	30.57
351.018	24.6
351.23	2.19
351.442	-38.18
351.654	-31.79
351.866	-53.62
352.078	-24.11
352.29	3.29
352.502	24.26
352.714	29.18
352.926	21.08
353.138	6.81
353.35	-11.46
353.561	-20.77
353.773	-51.57
353.985	-33.09
354.197	-46.85
354.409	-37.1
354.621	-41.98
354.832	-26.02
355.044	-41.78
355.256	-41.97
355.468	-24.82
355.679	-27.59
355.891	-20.58
356.103	-31.7
356.314	-18.19
356.526	-25.23
356.738	-5.45
356.949	-7.99
357.161	12.41
357.373	-4.05
357.584	-9.26
357.796	-1.82
358.008	-4.81
358.219	6.74
358.431	14.54
358.642	9.28
358.854	0.96
359.065	-16.81
359.277	-47.93
359.488	-45.11
359.7	-54.07
359.911	-82.38
360.123	-45.93
360.334	-52.34
360.546	-70.93
360.757	-66.8
360.969	-29.46
361.18	-41.04
361.391	-13.34
361.603	-20.87
361.814	-19.68
362.025	-30.41
362.237	-34.97
362.448	-20.38
362.659	-0.46
362.871	-0.71
363.082	-1.59
363.293	4.22
363.504	-20.76
363.716	-48.57
363.927	-51.3
364.138	-82.11
364.349	-96.97
364.56	-80.7
364.772	-65.33
364.983	-30.55
365.194	-14.7
365.405	5.37
365.616	15.59
365.827	23.51
366.038	-17.88
366.25	-22.8
366.461	-74.37
366.672	-38.28
366.883	-16.05
367.094	6.2
367.305	-4.13
367.516	10.86
367.727	-17.27
367.938	-32.14
368.149	-40.99
368.36	-22.42
368.571	-12.88
368.781	-22.12
368.992	-36.22
369.203	-52.18
369.414	-77.48
369.625	-67.81
369.836	-58.03
370.047	-77.09
370.258	-63.47
370.468	-62.56
370.679	-91.49
370.89	-87.09
371.101	-58.85
371.312	-57.48
371.522	-40.95
371.733	-24.69
371.944	-9.4
372.155	-3.89
372.365	-6.23
372.576	-9.88
372.787	-5.42
372.997	-33.27
373.208	-35.11
373.419	-8.9
373.629	-42.47
373.84	-56.79
374.05	-54.8
374.261	-51.24
374.472	-68.01
374.682	-10.24
374.893	0.41
375.103	26.04
375.314	19.53
375.524	22.11
375.735	13.95
375.945	17.18
376.156	-2.76
376.366	4.91
376.577	9.35
376.787	5.09
376.997	0.73
377.208	2.64
377.418	-11.98
377.629	-20.48
377.839	-14.81
378.049	-9.78
378.26	5.39
378.47	14.95
378.68	8.79
378.89	1.04
379.101	-2.15
379.311	-28.72
379.521	-61.37
379.732	-53.52
379.942	-46.74
380.152	-65.42
380.362	-30.96
380.572	-19.14
380.783	-3.95
380.993	1.09
381.203	15.79
381.413	14.88
381.623	26.78
381.833	20.05
382.043	18.05
382.253	12.6
382.463	8.3
382.674	-2.43
382.884	-21.98
383.094	-18.88
383.304	-10.85
383.514	2.4
383.724	13.19
383.934	9.42
384.144	-4.84
384.353	-17.95
384.563	-28.2
384.773	-20.54
384.983	-21.12
385.193	-2.47
385.403	1.52
385.613	1.96
385.823	-11.49
386.033	-2.69
386.242	-10.08
386.452	-12.59
386.662	-22.71
386.872	-9.3
387.082	-14.95
387.291	-23.12
387.501	-20.87
387.711	-11.05
387.921	-22.22
388.13	-19.76
388.34	-3.3
388.55	-5.93
388.759	-8.88
388.969	0.95
389.179	-0.8
389.388	-7.55
389.598	-2.78
389.807	-6.42
390.017	-13.45
390.227	-12.12
390.436	-13.8
390.646	-12.54
390.855	-7.54
391.065	-7.03
391.274	-7.4
391.484	-6.28
391.693	-5.99
391.903	-7.41
392.112	-2.35
392.322	1.6
392.531	5.61
392.74	5.8
392.95	3.47
393.159	0.6
393.369	-2.19
393.578	-3.97
393.787	-5.71
393.997	-4.08
394.206	-5.12
394.415	-3.21
394.625	-3.5
394.834	-3.34
395.043	-1.94
395.252	1.16
395.462	2.66
395.671	3.86
395.88	4.13
396.089	4.15
396.298	1.43
396.508	0.93
396.717	-0.15
396.926	0.31
397.135	0.08
397.344	0.48
397.553	0.74
397.762	2.28
397.971	1.49
398.181	1.64
398.39	1.03
398.599	0.68
398.808	0.1
399.017	1.39
399.226	1.99
399.435	3.28
399.644	3.26
399.853	2.56
400.062	1.66
400.27	1.31
400.479	0.89
400.688	0.17
400.897	0.57
401.106	0.74
401.315	0.69
401.524	0.79
401.733	1.48
401.941	1.82
402.15	1.95
402.359	1.98
402.568	2.4
402.777	2.43
402.985	2.19
403.194	2.13
403.403	2.08
403.612	1.62
403.82	1.37
404.029	1.39
404.238	1.27
404.446	1.57
404.655	1.36
404.864	1.46
405.072	1.33
405.281	1.59
405.489	1.17
405.698	1.2
405.906	1.21
406.115	1.2
406.324	0.99
406.532	1.24
406.741	1.56
406.949	1.5
407.158	1.59
407.366	1.71
407.574	1.65
407.783	1.54
407.991	1.5
408.2	1.67
408.408	1.61
408.617	1.47
408.825	1.33
409.033	1.31
409.242	1.3
409.45	1.44
409.658	1.48
409.867	1.68
410.075	1.58
410.283	1.43
410.491	1.22
410.7	1.14
410.908	1.06
411.116	1.45
411.324	1.47
411.533	1.48
411.741	1.74
411.949	1.73
412.157	1.33
412.365	1.32
412.573	1.32
412.781	1.3
412.99	1.27
413.198	1.58
413.406	1.6
413.614	1.61
413.822	1.45
414.03	1.4
414.238	1.1
414.446	1.22
414.654	1.04
414.862	1.09
415.07	1.2
415.278	1.5
415.486	1.16
415.694	1.32
415.902	1.33
416.109	1.19
416.317	1.01
416.525	1.02
416.733	1.06
416.941	1.22
417.149	1.16
417.357	1.26
417.564	1.45
417.772	1.56
417.98	1.28
418.188	1.4
418.395	1.46
418.603	1.61
418.811	1.21
419.019	1.33
419.226	1.42
419.434	1.44
419.642	1.11
419.849	1.35
420.057	1.31
420.265	1.22
420.472	0.92
420.68	1.05
420.887	1.02
421.095	1.16
421.302	1.1
421.51	1.4
421.717	1.55
421.925	1.63
422.132	1.47
422.34	1.32
422.547	1.31
422.755	1.03
422.962	0.88
423.17	0.77
423.377	0.89
423.585	0.8
423.792	0.84
423.999	0.91
424.207	0.89
424.414	1.01
424.621	0.94
424.829	0.96
425.036	0.97
425.243	1.14
425.451	0.91
425.658	0.83
425.865	1.11
426.072	1.08
426.28	1.27
426.487	1.3
426.694	1.52
426.901	1.23
427.108	1.32
427.315	1.13
427.523	1.46
427.73	1.31
427.937	1.26
428.144	1.05
428.351	1.04
428.558	1.15
428.765	1.03
428.972	1.09
429.179	1.32
429.386	1.61
429.593	1.28
429.8	1.31
430.007	1.37
430.214	1.47
430.421	1.14
430.628	1.01
430.835	1.02
431.042	1.24
431.249	1.16
431.456	1.19
431.662	1.33
431.869	1.49
432.076	1.41
432.283	1.58
432.49	1.59
432.697	1.65
432.903	1.39
433.11	1.28
433.317	1.28
433.524	1.56
433.73	1.44
433.937	1.71
434.144	1.61
434.35	1.56
434.557	1.28
434.764	1.29
434.97	1.2
435.177	1.38
435.384	1.18
435.59	1.3
435.797	1.51
436.003	1.53
436.21	1.43
436.416	1.6
436.623	1.56
436.829	1.52
437.036	1.64
437.242	1.67
437.449	1.66
437.655	1.64
437.862	1.63
438.068	1.47
438.275	1.55
438.481	1.61
438.687	1.56
438.894	1.54
439.1	1.64
439.307	1.82
439.513	1.8
439.719	1.89
439.926	1.98
440.132	1.91
440.338	1.63
440.544	1.66
440.751	1.57
440.957	1.66
441.163	1.62
441.369	1.81
441.575	1.54
441.782	1.58
441.988	1.39
442.194	1.42
442.4	1.34
442.606	1.68
442.812	1.72
443.018	1.86
443.224	1.86
443.431	1.96
443.637	1.77
443.843	1.63
444.049	1.63
444.255	1.61
444.461	1.54
444.667	1.54
444.873	1.76
445.079	1.72
445.284	1.78
445.49	1.58
445.696	1.4
445.902	1.29
446.108	1.22
446.314	1.18
446.52	1.31
446.726	1.62
446.931	1.61
447.137	1.67
447.343	1.72
447.549	1.62
447.755	1.47
447.96	1.44
448.166	1.38
448.372	1.27
448.578	1.4
448.783	1.4
448.989	1.5
449.195	1.66
449.4	1.74
449.606	1.74
449.812	1.67
450.017	1.69
450.223	1.56
450.428	1.52
450.634	1.58
450.84	1.74
451.045	1.74
451.251	1.69
451.456	1.95
451.662	2.01
451.867	2.04
452.073	1.95
452.278	2.13
452.483	2.17
452.689	2.05
452.894	2.08
453.1	2.1
453.305	2.01
453.51	1.81
453.716	1.77
453.921	1.75
454.127	1.75
454.332	1.68
454.537	1.62
454.742	1.62
454.948	1.59
455.153	1.63
455.358	1.75
455.563	1.9
455.769	1.99
455.974	1.98
456.179	1.9
456.384	1.77
456.589	1.72
456.795	1.54
457	1.53
457.205	1.73
457.41	1.79
457.615	1.73
457.82	1.84
458.025	1.84
458.23	1.69
458.435	1.7
458.64	1.58
458.845	1.77
459.05	1.76
459.255	1.75
459.46	1.83
459.665	1.97
459.87	1.8
460.075	1.83
460.28	1.82
460.485	1.87
460.69	1.86
460.895	1.69
461.099	1.55
461.304	1.76
461.509	1.74
461.714	1.77
461.919	2.05
