Data from Ofra_PS_T2_2A_8HS24_Reflection_3.txt Node
Date: Wed Jul 21 17:22:41 EDT 2021
User: Adam
Spectrometer: FLMT01687
Trigger mode: 0
Integration Time (sec): 1.100000E0
Scans to average: 2
Electric dark correction enabled: true
Nonlinearity correction enabled: false
Boxcar width: 2
XAxis mode: Wavelengths
Number of Pixels in Spectrum: 3648
>>>>>Begin Spectral Data<<<<<
179.494	495.2
179.716	576.94
179.937	552.02
180.158	603.5
180.38	963.12
180.601	531.49
180.823	150.13
181.044	-57.35
181.265	-29.41
181.486	-5.9
181.708	11.55
181.929	451.02
182.15	-560.56
182.372	144.26
182.593	6.62
182.814	40.45
183.035	100.87
183.257	71.55
183.478	-64.26
183.699	5.88
183.92	-27.72
184.141	-4.14
184.363	-51.07
184.584	5.5
184.805	19.2
185.026	56.03
185.247	56.75
185.468	52.11
185.689	73.68
185.91	61.67
186.132	40.9
186.353	34.85
186.574	89.67
186.795	68.1
187.016	27.41
187.237	32.34
187.458	28.63
187.679	-1.66
187.9	-0.85
188.121	24
188.342	51.62
188.563	62.2
188.784	110.48
189.005	99.13
189.226	128.71
189.447	94.09
189.667	33.98
189.888	-354.19
190.109	-1031.17
190.33	-651.61
190.551	-1079.65
190.772	-246
190.993	-168.02
191.214	-154.37
191.434	-71.65
191.655	10.8
191.876	-13.14
192.097	-41.78
192.318	-72.95
192.538	-158.94
192.759	-172.23
192.98	-58.34
193.201	-16.92
193.421	3.64
193.642	14.4
193.863	31.28
194.083	-2.08
194.304	-21.7
194.525	-36.34
194.745	-51.57
194.966	-80.16
195.187	-64.63
195.407	-51.75
195.628	-94.68
195.848	-103.74
196.069	-82.1
196.29	-48.12
196.51	-57.29
196.731	-45.89
196.951	-71.13
197.172	-82.03
197.392	-127.04
197.613	-138.16
197.833	-133.74
198.054	-88.71
198.274	-43.26
198.495	-47.76
198.715	-32.67
198.936	-56.71
199.156	-67.7
199.377	-165.99
199.597	-130.88
199.817	-136.94
200.038	-60.65
200.258	-65.03
200.479	3.75
200.699	-15.72
200.919	68.17
201.14	11.89
201.36	-48.91
201.58	0.86
201.801	26.85
202.021	-19.3
202.241	-23.8
202.461	-3.98
202.682	-102.49
202.902	-139.89
203.122	-61.09
203.342	-41.08
203.563	-11.78
203.783	15.89
204.003	-25.3
204.223	-22.6
204.443	22.32
204.663	-6.74
204.884	-1.29
205.104	39.57
205.324	42.42
205.544	45.41
205.764	59.54
205.984	56.86
206.204	65.12
206.424	44.71
206.644	14.27
206.864	21.21
207.084	29.97
207.304	24.21
207.525	-45.63
207.745	11.44
207.964	38.69
208.184	-24.84
208.404	-71.98
208.624	-60.64
208.844	-56.96
209.064	-328.11
209.284	-348.7
209.504	-161.35
209.724	-12.89
209.944	-10.48
210.164	21.9
210.384	40.4
210.604	22.5
210.823	-28.92
211.043	-41.22
211.263	-31.12
211.483	-37.17
211.703	-70.23
211.922	-46.38
212.142	-1.09
212.362	-1.41
212.582	-19.93
212.801	-9.54
213.021	-33.5
213.241	-59.96
213.461	-84.07
213.68	-85.17
213.9	-49.13
214.12	-17.67
214.339	-51.4
214.559	-38.45
214.779	5.19
214.998	-13.39
215.218	-49.8
215.438	-17.47
215.657	-2.13
215.877	4.85
216.096	40.19
216.316	51.3
216.535	46.72
216.755	33.51
216.974	-35.12
217.194	-121.67
217.413	-151.42
217.633	-137.04
217.852	-223.22
218.072	-80.34
218.291	-24.94
218.511	22.03
218.73	-9.92
218.95	-6.47
219.169	-22.77
219.389	-76.77
219.608	-66.86
219.827	-51.06
220.047	-53.46
220.266	-25.39
220.485	-12.57
220.705	10.36
220.924	-25.87
221.143	25.55
221.363	-6.96
221.582	9.08
221.801	6.34
222.021	36.84
222.24	-26.26
222.459	15.66
222.678	-16.25
222.897	-59.65
223.117	-114.82
223.336	-71.99
223.555	-15.31
223.774	52.49
223.993	68.87
224.213	144.06
224.432	109
224.651	104.75
224.87	58.96
225.089	63.15
225.308	38.26
225.527	52.97
225.746	47.14
225.965	47.54
226.184	16.52
226.404	39.16
226.623	0.26
226.842	13.58
227.061	35.54
227.28	44.78
227.499	22.43
227.718	42.7
227.936	33.35
228.155	29.26
228.374	5.54
228.593	15.29
228.812	4.22
229.031	-1.81
229.25	-50.98
229.469	-42.54
229.688	-22.14
229.907	13.33
230.125	9.07
230.344	40.26
230.563	48.55
230.782	40.93
231.001	-27.87
231.22	-18.58
231.438	-16.38
231.657	-17.43
231.876	-21.63
232.095	31.66
232.313	39.6
232.532	13.83
232.751	-15.7
232.969	-26.12
233.188	-124.04
233.407	-46.98
233.625	-13.51
233.844	-14.7
234.063	-1.83
234.281	21.53
234.5	20.04
234.719	41.68
234.937	51.73
235.156	44.53
235.374	40.58
235.593	23.86
235.811	-13.18
236.03	-18.98
236.249	-36.38
236.467	-53.29
236.686	-29.04
236.904	-6.82
237.123	-32.04
237.341	-29.25
237.559	-7.17
237.778	-14.08
237.996	-46.85
238.215	4.26
238.433	13.37
238.652	8.84
238.87	-4.81
239.088	35.41
239.307	31.18
239.525	32.9
239.743	-9.04
239.962	-0.17
240.18	-53.98
240.398	-93.04
240.617	-94.58
240.835	-69.94
241.053	-52.24
241.271	-20.1
241.49	0.73
241.708	-26.01
241.926	-57.64
242.144	-39.4
242.363	-75.33
242.581	-103.11
242.799	-59.69
243.017	-1.94
243.235	-9.21
243.453	12.43
243.672	12.54
243.89	13.01
244.108	-22.71
244.326	-5.59
244.544	-0.84
244.762	-7.22
244.98	-4.21
245.198	17.72
245.416	-12.07
245.634	-14.11
245.852	-1.84
246.07	-4.67
246.288	8.98
246.506	-10.22
246.724	-17.43
246.942	-23.73
247.16	-1.47
247.378	-7.26
247.596	11.74
247.814	-1.47
248.032	-17.84
248.25	-7.14
248.468	4.01
248.685	25.56
248.903	56.11
249.121	64.06
249.339	30.23
249.557	17.01
249.775	17.08
249.992	-40.56
250.21	-47.72
250.428	-28.19
250.646	-52.33
250.863	-85.83
251.081	-42.88
251.299	-45.12
251.517	-29.43
251.734	-4.73
251.952	-0.78
252.17	-13.95
252.387	2.31
252.605	-12.55
252.823	-5.63
253.04	12.33
253.258	28.55
253.475	26.76
253.693	49.09
253.911	52.49
254.128	50.83
254.346	56.57
254.563	28.52
254.781	2.57
254.998	-25.12
255.216	-19.04
255.433	-9.64
255.651	31.41
255.868	73.23
256.086	82.63
256.303	47.24
256.521	27.71
256.738	5.28
256.956	-31.47
257.173	-55.87
257.39	-59.88
257.608	-71.55
257.825	33.28
258.043	76.4
258.26	83.63
258.477	127.21
258.695	126.66
258.912	40.66
259.129	22.47
259.346	-13.43
259.564	-72.17
259.781	-95.1
259.998	-19.37
260.216	7.19
260.433	35.82
260.65	39.86
260.867	48.33
261.084	17.28
261.302	0.75
261.519	-4.41
261.736	-30.93
261.953	-54.95
262.17	-20.07
262.387	-49.56
262.604	-74.66
262.822	-62.15
263.039	-36.54
263.256	-101.89
263.473	-62.26
263.69	-30.67
263.907	12.87
264.124	28.67
264.341	44.93
264.558	32.18
264.775	45.91
264.992	16.14
265.209	27.61
265.426	33.89
265.643	51.52
265.86	67.39
266.077	81.99
266.294	80.53
266.51	48.83
266.727	4.43
266.944	-9.93
267.161	-23.09
267.378	-32.82
267.595	8.69
267.812	-18.47
268.028	-27.98
268.245	-7.93
268.462	-37.53
268.679	-51.89
268.896	12.5
269.112	12.78
269.329	3.76
269.546	6.71
269.763	4.88
269.979	-17.65
270.196	-22.1
270.413	-38.74
270.629	-38.56
270.846	-44.84
271.063	-33.97
271.279	-56.95
271.496	-41.63
271.712	-17.9
271.929	-7.52
272.146	-13.22
272.362	9.09
272.579	32.03
272.795	25.6
273.012	36.46
273.228	38.34
273.445	6.2
273.661	-19.4
273.878	-39.17
274.094	-53.59
274.311	-80.84
274.527	-10.73
274.744	-13.25
274.96	-24.4
275.177	-6.88
275.393	14.3
275.609	21.86
275.826	38.96
276.042	28.16
276.259	-4.64
276.475	11.56
276.691	-4.41
276.908	-23.24
277.124	7.21
277.34	20.07
277.557	0.25
277.773	0.84
277.989	-6.19
278.205	-16.9
278.422	2.29
278.638	3.97
278.854	24.21
279.07	47.27
279.286	44.19
279.503	0.72
279.719	16
279.935	-12.35
280.151	-26.1
280.367	-7.89
280.583	4.61
280.799	-27.6
281.016	-40.43
281.232	-19.1
281.448	-27.53
281.664	1.95
281.88	-23.54
282.096	-12.41
282.312	7.3
282.528	34.59
282.744	25.37
282.96	41.68
283.176	27.88
283.392	13.6
283.608	-3.15
283.824	-6.46
284.04	-1.87
284.256	7.34
284.471	-3.6
284.687	2.57
284.903	24.32
285.119	49.03
285.335	18.17
285.551	30.83
285.767	8.12
285.982	-8.04
286.198	-62.01
286.414	-4.78
286.63	5.05
286.846	30.11
287.061	-1.86
287.277	43.89
287.493	12.03
287.709	25.37
287.924	3.4
288.14	48.85
288.356	31.12
288.571	51.52
288.787	38.34
289.003	49
289.218	33.65
289.434	-1.03
289.65	2.23
289.865	-8.9
290.081	16.34
290.296	5.23
290.512	9.2
290.727	-16.51
290.943	-22.93
291.159	-38.09
291.374	-38.66
291.59	-48.69
291.805	-26.18
292.021	-12.41
292.236	-10.26
292.451	20.12
292.667	25.98
292.882	44.18
293.098	36.48
293.313	21.67
293.529	-9.95
293.744	-25.29
293.959	-53.93
294.175	-39.97
294.39	-9.42
294.605	2.77
294.821	34.47
295.036	48.12
295.251	50.07
295.467	40.01
295.682	40.72
295.897	-12.07
296.112	-26.6
296.328	-34.26
296.543	-55.2
296.758	-44.69
296.973	-6.58
297.188	25.93
297.404	9.06
297.619	-11.12
297.834	-14.21
298.049	-9.54
298.264	-28.28
298.479	28.94
298.694	38.1
298.909	52.02
299.125	45.45
299.34	44.85
299.555	10.92
299.77	23.68
299.985	-29.55
300.2	-81.81
300.415	-94.7
300.63	-72.38
300.845	-74.58
301.06	-82.87
301.275	-34.07
301.49	-9.02
301.704	-6.92
301.919	-12.64
302.134	-12.82
302.349	-17.86
302.564	-77.76
302.779	-97.43
302.994	-69.91
303.209	-39.41
303.423	-16.11
303.638	61.57
303.853	29.37
304.068	23.78
304.283	23.7
304.497	11.41
304.712	-19.79
304.927	-15.1
305.142	-32.02
305.356	-27.98
305.571	-35.73
305.786	-41.66
306	-57.53
306.215	-22.78
306.43	-55.47
306.644	-62.09
306.859	-19.86
307.074	3.54
307.288	-45.55
307.503	-50.21
307.717	-44.37
307.932	-48.2
308.147	-50.58
308.361	-15.11
308.576	-13.32
308.79	-43.92
309.005	-38.25
309.219	-23.66
309.434	-29.35
309.648	-26.24
309.863	2.41
310.077	-4.87
310.292	-10.22
310.506	-14.8
310.72	5.33
310.935	-2.52
311.149	-1.99
311.364	12.68
311.578	24
311.792	5.01
312.007	26.93
312.221	18.59
312.435	21.66
312.649	5.07
312.864	43.24
313.078	53.84
313.292	98.81
313.507	56.76
313.721	70.15
313.935	29.37
314.149	2.36
314.363	4.29
314.578	22.79
314.792	38.26
315.006	15.31
315.22	28.21
315.434	34.72
315.648	29.82
315.862	13.68
316.077	28.14
316.291	16.41
316.505	2.75
316.719	24.16
316.933	13.96
317.147	6.35
317.361	-50.22
317.575	-73.06
317.789	-136.17
318.003	-236.82
318.217	-170.28
318.431	-58.91
318.645	1.62
318.859	13.97
319.073	48.85
319.287	29.18
319.5	-5.92
319.714	-52.25
319.928	-89.74
320.142	-112.51
320.356	-46.62
320.57	7.11
320.784	9.74
320.997	-9.08
321.211	-19.07
321.425	-88.91
321.639	-122.85
321.853	-53.83
322.066	-13.59
322.28	-9.13
322.494	14.72
322.707	36.83
322.921	14.38
323.135	14.84
323.349	36.26
323.562	2.19
323.776	-22.99
323.989	-17.78
324.203	-40.55
324.417	-63.26
324.63	-70.13
324.844	-58.77
325.057	-48.08
325.271	-15.64
325.485	14.95
325.698	50.75
325.912	64.75
326.125	45.3
326.339	32.9
326.552	5.03
326.766	-18.89
326.979	-3.42
327.193	33.05
327.406	18.41
327.619	16.36
327.833	28.36
328.046	-2.73
328.26	-35.4
328.473	-3.3
328.686	-38.75
328.9	-24.64
329.113	-7.34
329.326	-25.75
329.54	-8.4
329.753	23.46
329.966	11.41
330.179	27.29
330.393	37.52
330.606	28.27
330.819	33.21
331.032	44.73
331.246	41.61
331.459	61.87
331.672	52.64
331.885	37.94
332.098	7.2
332.311	-6.4
332.525	-75.5
332.738	-73.81
332.951	-31.76
333.164	9.19
333.377	33.09
333.59	54.12
333.803	60.17
334.016	45.68
334.229	37.23
334.442	34.46
334.655	59.73
334.868	66.03
335.081	58.28
335.294	39.65
335.507	30.55
335.72	11.34
335.933	-11.21
336.146	-9.26
336.359	4.47
336.572	-41.22
336.785	-77.81
336.997	-56.69
337.21	-32.61
337.423	-30.1
337.636	-3.81
337.849	25.78
338.062	21.21
338.274	13.55
338.487	0.44
338.7	-1.95
338.913	-45.37
339.125	-57.94
339.338	-94.2
339.551	-83.88
339.763	-56.94
339.976	-18.92
340.189	-10.52
340.402	-3.16
340.614	-11.35
340.827	-22.48
341.039	-46.11
341.252	-39.48
341.465	-18.3
341.677	-11.16
341.89	-34.97
342.102	-2.2
342.315	-14.71
342.527	-33.91
342.74	-26.28
342.952	13.88
343.165	-4.68
343.377	20.53
343.59	11.95
343.802	21.32
344.015	13.56
344.227	34.81
344.44	23.61
344.652	33.5
344.864	27.63
345.077	40.55
345.289	41.93
345.502	40.93
345.714	21.22
345.926	18.24
346.139	2.93
346.351	2.26
346.563	9.46
346.775	18.77
346.988	4.75
347.2	-1.69
347.412	-57.06
347.624	-70.33
347.837	-71.15
348.049	-34.87
348.261	5.6
348.473	33.42
348.685	39.59
348.897	32.89
349.11	19.42
349.322	-2.46
349.534	9.72
349.746	0.07
349.958	8.3
350.17	18.35
350.382	20.83
350.594	10.81
350.806	20.46
351.018	22.29
351.23	-6.99
351.442	-42.67
351.654	-32.74
351.866	-37.07
352.078	-38.05
352.29	-15.82
352.502	9.02
352.714	-2.65
352.926	-10.16
353.138	-3.81
353.35	-3.85
353.561	-9.07
353.773	-25.66
353.985	-9.88
354.197	-25
354.409	-23.32
354.621	-28.78
354.832	-5.87
355.044	-17.93
355.256	-10.3
355.468	0.29
355.679	3.08
355.891	17.86
356.103	4.15
356.314	3.08
356.526	6.59
356.738	-2.83
356.949	-25.89
357.161	0.77
357.373	-3.65
357.584	-18.89
357.796	5.57
358.008	2.83
358.219	17.89
358.431	20.67
358.642	32.62
358.854	32.6
359.065	23.96
359.277	-18.35
359.488	-26.76
359.7	-53.6
359.911	-84.55
360.123	-54.1
360.334	-49.32
360.546	-48.95
360.757	-54.86
360.969	-27.8
361.18	-6.52
361.391	7.78
361.603	-15.03
361.814	10.71
362.025	16.36
362.237	0.91
362.448	14.08
362.659	26.5
362.871	27.36
363.082	18.15
363.293	16.86
363.504	-9.67
363.716	-20.09
363.927	-49.62
364.138	-86.2
364.349	-86.76
364.56	-61.41
364.772	-54.98
364.983	-26.22
365.194	-10.2
365.405	3.18
365.616	22.74
365.827	26.61
366.038	-2.77
366.25	-13.61
366.461	-56.91
366.672	-37.68
366.883	-10.28
367.094	14.3
367.305	9.35
367.516	20.65
367.727	-10.77
367.938	-37.69
368.149	-42.09
368.36	-22.08
368.571	-11
368.781	-20.1
368.992	-28.65
369.203	-43.28
369.414	-69.86
369.625	-86.91
369.836	-69.68
370.047	-94.2
370.258	-69.02
370.468	-66.35
370.679	-81.06
370.89	-71.4
371.101	-35.44
371.312	-49.06
371.522	-39.94
371.733	-22.02
371.944	-22.46
372.155	-20.9
372.365	-24.68
372.576	-25.72
372.787	-31.01
372.997	-52.84
373.208	-49.25
373.419	-8.97
373.629	-40.12
373.84	-39.71
374.05	-40.14
374.261	-29.18
374.472	-61.16
374.682	6.36
374.893	0.92
375.103	34.36
375.314	27.94
375.524	33.55
375.735	23.45
375.945	32.68
376.156	0.16
376.366	1.53
376.577	2.66
376.787	-9.02
376.997	-2.47
377.208	5.81
377.418	-9.9
377.629	2.05
377.839	9.59
378.049	3.12
378.26	13.59
378.47	31.02
378.68	17.2
378.89	6.18
379.101	4.6
379.311	-21.52
379.521	-65.46
379.732	-66.7
379.942	-58.07
380.152	-82.6
380.362	-49.6
380.572	-37.87
380.783	-23.8
380.993	-11.36
381.203	10.35
381.413	26.96
381.623	33.78
381.833	30.09
382.043	15.18
382.253	4.52
382.463	-9.58
382.674	-15.94
382.884	-33.99
383.094	-26.43
383.304	-19.27
383.514	-14.56
383.724	0.63
383.934	-1.69
384.144	-15.68
384.353	-17.45
384.563	-17.17
384.773	-16.53
384.983	-19.46
385.193	-0.46
385.403	-0.67
385.613	-0.51
385.823	-10.11
386.033	-1.64
386.242	-7.3
386.452	-7.87
386.662	-15.11
386.872	-11.17
387.082	-20.07
387.291	-25.24
387.501	-30.34
387.711	-14.45
387.921	-19.57
388.13	-13.13
388.34	-5
388.55	-8.15
388.759	-12.08
388.969	-3.68
389.179	-6.81
389.388	-8.63
389.598	0.64
389.807	-6.3
390.017	-9.11
390.227	-6.78
390.436	-8.96
390.646	-11.77
390.855	-5.07
391.065	-6.03
391.274	-7.38
391.484	-5.26
391.693	-1.63
391.903	-2.83
392.112	2.75
392.322	3.19
392.531	5.68
392.74	6.86
392.95	4.21
393.159	1.66
393.369	2.96
393.578	0.79
393.787	-3.88
393.997	-3.08
394.206	-4.72
394.415	-3.63
394.625	-3.08
394.834	-3.62
395.043	-1.34
395.252	1.62
395.462	3.02
395.671	3.68
395.88	5.33
396.089	5.64
396.298	3.15
396.508	1.34
396.717	0.3
396.926	1.25
397.135	0.42
397.344	0.26
397.553	1.15
397.762	3.09
397.971	2.04
398.181	2.19
398.39	1.97
398.599	1.86
398.808	0.88
399.017	2.11
399.226	3.41
399.435	4.77
399.644	4.9
399.853	4.36
400.062	3.59
400.27	2.81
400.479	2.25
400.688	1.49
400.897	1.96
401.106	1.99
401.315	1.66
401.524	1.69
401.733	2.22
401.941	2.44
402.15	2.52
402.359	2.39
402.568	2.59
402.777	2.88
402.985	2.7
403.194	2.63
403.403	2.71
403.612	2.28
403.82	2.01
404.029	2.2
404.238	2.11
404.446	2.52
404.655	2.59
404.864	2.63
405.072	2.4
405.281	2.58
405.489	2.18
405.698	2.09
405.906	2.02
406.115	2
406.324	1.9
406.532	2.15
406.741	2.55
406.949	2.47
407.158	2.58
407.366	2.71
407.574	2.53
407.783	2.41
407.991	2.26
408.2	2.4
408.408	2.21
408.617	2.19
408.825	1.95
409.033	2.13
409.242	2.09
409.45	2.32
409.658	2.25
409.867	2.42
410.075	2.13
410.283	1.93
410.491	1.75
410.7	1.75
410.908	1.76
411.116	2.27
411.324	2.24
411.533	2.19
411.741	2.41
411.949	2.46
412.157	2.02
412.365	2.13
412.573	2.16
412.781	2.07
412.99	1.91
413.198	2.18
413.406	2.22
413.614	2.24
413.822	2.14
414.03	2.07
414.238	1.85
414.446	1.9
414.654	1.63
414.862	1.67
415.07	1.83
415.278	2
415.486	1.63
415.694	1.76
415.902	1.7
416.109	1.52
416.317	1.48
416.525	1.45
416.733	1.55
416.941	1.62
417.149	1.63
417.357	1.59
417.564	1.89
417.772	2.16
417.98	2.09
418.188	2.05
418.395	2.08
418.603	2.14
418.811	1.69
419.019	1.62
419.226	1.96
419.434	2.02
419.642	1.68
419.849	1.85
420.057	1.95
420.265	1.73
420.472	1.42
420.68	1.53
420.887	1.44
421.095	1.6
421.302	1.57
421.51	1.88
421.717	2.04
421.925	2.15
422.132	1.91
422.34	1.68
422.547	1.67
422.755	1.5
422.962	1.32
423.17	1.23
423.377	1.47
423.585	1.41
423.792	1.44
423.999	1.6
424.207	1.77
424.414	1.82
424.621	1.79
424.829	1.76
425.036	1.65
425.243	1.84
425.451	1.73
425.658	1.59
425.865	1.88
426.072	2.01
426.28	2.06
426.487	1.99
426.694	2.16
426.901	1.9
427.108	1.75
427.315	1.54
427.523	1.83
427.73	1.72
427.937	1.75
428.144	1.68
428.351	1.58
428.558	1.68
428.765	1.69
428.972	1.58
429.179	1.74
429.386	2.03
429.593	1.68
429.8	1.55
430.007	1.78
430.214	1.94
430.421	1.74
430.628	1.6
430.835	1.49
431.042	1.55
431.249	1.42
431.456	1.47
431.662	1.71
431.869	1.99
432.076	2.03
432.283	2.21
432.49	2.19
432.697	2.2
432.903	1.91
433.11	1.79
433.317	1.72
433.524	1.94
433.73	1.84
433.937	2.16
434.144	2.03
434.35	2.01
434.557	1.77
434.764	1.74
434.97	1.64
435.177	1.85
435.384	1.76
435.59	1.83
435.797	2.17
436.003	2.29
436.21	2.24
436.416	2.38
436.623	2.26
436.829	2.2
437.036	2.22
437.242	2.12
437.449	2.04
437.655	2.11
437.862	2.01
438.068	1.92
438.275	2.11
438.481	2.27
438.687	2.26
438.894	2.22
439.1	2.3
439.307	2.42
439.513	2.32
439.719	2.42
439.926	2.53
440.132	2.41
440.338	2.17
440.544	2.27
440.751	2.18
440.957	2.27
441.163	2.24
441.369	2.39
441.575	2.17
441.782	2.18
441.988	1.92
442.194	2.06
442.4	2.03
442.606	2.31
442.812	2.4
443.018	2.57
443.224	2.51
443.431	2.57
443.637	2.38
443.843	2.17
444.049	2.19
444.255	2.11
444.461	2.14
444.667	2.1
444.873	2.4
445.079	2.4
445.284	2.58
445.49	2.3
445.696	2.17
445.902	1.99
446.108	1.92
446.314	1.8
446.52	1.9
446.726	2.2
446.931	2.23
447.137	2.25
447.343	2.26
447.549	2.23
447.755	2.09
447.96	2.13
448.166	2.07
448.372	2.05
448.578	2.17
448.783	2.18
448.989	2.22
449.195	2.46
449.4	2.49
449.606	2.38
449.812	2.36
450.017	2.41
450.223	2.26
450.428	2.22
450.634	2.45
450.84	2.69
451.045	2.57
451.251	2.45
451.456	2.69
451.662	2.65
451.867	2.53
452.073	2.52
452.278	2.72
452.483	2.69
452.689	2.55
452.894	2.57
453.1	2.62
453.305	2.48
453.51	2.37
453.716	2.33
453.921	2.32
454.127	2.22
454.332	2.22
454.537	2.16
454.742	2.19
454.948	2.18
455.153	2.27
455.358	2.42
455.563	2.64
455.769	2.73
455.974	2.64
456.179	2.54
456.384	2.48
456.589	2.43
456.795	2.2
457	2.24
457.205	2.49
457.41	2.45
457.615	2.35
457.82	2.52
458.025	2.58
458.23	2.34
458.435	2.43
458.64	2.35
458.845	2.52
459.05	2.51
459.255	2.59
459.46	2.53
459.665	2.57
459.87	2.52
460.075	2.5
460.28	2.56
460.485	2.67
460.69	2.76
460.895	2.51
461.099	2.48
461.304	2.54
461.509	2.46
461.714	2.33
461.919	2.57
462.123	2.5
462.328	2.5
462.533	2.4
