Data from Ofra_1a_PS_6CX18_Reflection_1.txt Node
Date: Tue Jul 20 10:58:48 EDT 2021
User: Adam
Spectrometer: FLMT01687
Trigger mode: 0
Integration Time (sec): 1.004000E0
Scans to average: 2
Electric dark correction enabled: true
Nonlinearity correction enabled: false
Boxcar width: 2
XAxis mode: Wavelengths
Number of Pixels in Spectrum: 3648
>>>>>Begin Spectral Data<<<<<
179.494	-248.73
179.716	-406.11
179.937	795.32
180.158	-1239.49
180.38	129.61
180.601	47.08
180.823	-48.25
181.044	-10.43
181.265	-202.86
181.486	72.56
181.708	-3.2
181.929	9509.09
182.15	6.49
182.372	30.54
182.593	114.21
182.814	15.96
183.035	44.02
183.257	41.02
183.478	11.92
183.699	-5.34
183.92	-45.25
184.141	-59.76
184.363	-39.14
184.584	-56.39
184.805	-4.9
185.026	41.75
185.247	38.19
185.468	14.01
185.689	19.12
185.91	-3.74
186.132	-23.42
186.353	-17.48
186.574	-4.88
186.795	8.75
187.016	33.29
187.237	47.12
187.458	59.88
187.679	56.58
187.9	46.47
188.121	39.39
188.342	42.96
188.563	67.61
188.784	48.25
189.005	37.27
189.226	36.89
189.447	22.02
189.667	-4.59
189.888	-11.66
190.109	-30.43
190.33	-20.04
190.551	-11.56
190.772	8.25
190.993	4.9
191.214	8.48
191.434	-25.07
191.655	-30.03
191.876	13.6
192.097	48.65
192.318	57.58
192.538	48.51
192.759	29.96
192.98	18.35
193.201	1.53
193.421	-10.48
193.642	3.19
193.863	14.09
194.083	-18.55
194.304	2.93
194.525	-16.49
194.745	-22.31
194.966	-21.81
195.187	-10.6
195.407	-24.72
195.628	0.69
195.848	-4.03
196.069	-23.75
196.29	-15.8
196.51	-18.97
196.731	-19.2
196.951	-0.05
197.172	9.32
197.392	-15.25
197.613	1.06
197.833	-4.64
198.054	-18.26
198.274	-18.77
198.495	4.54
198.715	11.54
198.936	28.78
199.156	21.8
199.377	26.5
199.597	32.96
199.817	19.46
200.038	-7.47
200.258	16.37
200.479	14.91
200.699	9.24
200.919	8.52
201.14	-2.83
201.36	-9.62
201.58	-3.91
201.801	-27.94
202.021	-35.62
202.241	-10.59
202.461	-22.88
202.682	-33.97
202.902	-2.13
203.122	4.02
203.342	-3.03
203.563	5.03
203.783	14.09
204.003	2.52
204.223	9.97
204.443	25.55
204.663	10.79
204.884	11.57
205.104	9.09
205.324	38.42
205.544	31.34
205.764	78.01
205.984	61.38
206.204	71.21
206.424	25.16
206.644	-4.82
206.864	-54.62
207.084	-18.31
207.304	-50.7
207.525	-28.08
207.745	2.41
207.964	18.94
208.184	21.82
208.404	16.85
208.624	25.33
208.844	7.43
209.064	-12.9
209.284	-9.31
209.504	-11.3
209.724	-19.27
209.944	-21.27
210.164	-8.84
210.384	-15.47
210.604	-43.41
210.823	-31.84
211.043	-10.58
211.263	-96.02
211.483	-77.81
211.703	-40.19
211.922	-88.7
212.142	-64.89
212.362	-22.34
212.582	-12.96
212.801	-28.4
213.021	-18.91
213.241	-37.37
213.461	-26.9
213.68	-10.13
213.9	-1.72
214.12	-2.41
214.339	5.2
214.559	0.58
214.779	-10.93
214.998	7.46
215.218	25.55
215.438	25.15
215.657	32.72
215.877	14.98
216.096	27.7
216.316	22.38
216.535	15.29
216.755	14.33
216.974	21.39
217.194	-24.5
217.413	-20.64
217.633	-28.07
217.852	-19.77
218.072	-11.68
218.291	4.46
218.511	-3.88
218.73	9.36
218.95	-4.33
219.169	-7.51
219.389	-12.04
219.608	-5.8
219.827	-6.31
220.047	5.63
220.266	3.94
220.485	-24.28
220.705	-9.06
220.924	-24.16
221.143	-3.18
221.363	9.15
221.582	28.72
221.801	28.22
222.021	35.81
222.24	30.62
222.459	41.83
222.678	45.48
222.897	39.73
223.117	44.38
223.336	51.78
223.555	59.81
223.774	76.69
223.993	71.16
224.213	62.72
224.432	50.42
224.651	31.71
224.87	22.29
225.089	36.23
225.308	36.43
225.527	17.15
225.746	9.42
225.965	18.57
226.184	-5.73
226.404	-17
226.623	1.79
226.842	9.42
227.061	-3.02
227.28	16.14
227.499	28.76
227.718	39.67
227.936	37.81
228.155	38.49
228.374	34.41
228.593	36.73
228.812	24.61
229.031	26.96
229.25	18.77
229.469	35.07
229.688	23.49
229.907	35.39
230.125	35.19
230.344	38.37
230.563	25.62
230.782	17.35
231.001	-3.5
231.22	-5.52
231.438	4.41
231.657	1.47
231.876	2.31
232.095	18.34
232.313	6.05
232.532	-0.54
232.751	9.97
232.969	17.9
233.188	2.29
233.407	13.54
233.625	9.95
233.844	-7.09
234.063	-5.07
234.281	-1.25
234.5	8.13
234.719	-1.58
234.937	-6.45
235.156	-0.25
235.374	-8.74
235.593	-15.35
235.811	3.8
236.03	16.95
236.249	18.07
236.467	21.4
236.686	12.2
236.904	12.07
237.123	2.7
237.341	-3.79
237.559	-9.83
237.778	13.73
237.996	-8.79
238.215	-34.39
238.433	-54.77
238.652	-1.96
238.87	-20.04
239.088	-7.26
239.307	15.72
239.525	5.55
239.743	-17.95
239.962	-28.51
240.18	-11.99
240.398	-13.73
240.617	-3.55
240.835	14.89
241.053	24.65
241.271	21.57
241.49	27.57
241.708	17.75
241.926	21.42
242.144	29.83
242.363	23.78
242.581	20.47
242.799	57.42
243.017	14.28
243.235	9.3
243.453	10.9
243.672	9.98
243.89	0.16
244.108	25.8
244.326	42.96
244.544	41.93
244.762	28.58
244.98	39.71
245.198	32.8
245.416	19.88
245.634	17.74
245.852	13.85
246.07	14.64
246.288	17.08
246.506	2.69
246.724	0.15
246.942	5.48
247.16	-2.08
247.378	-21.17
247.596	-7.72
247.814	-13.22
248.032	10.75
248.25	41.64
248.468	37.87
248.685	36.02
248.903	39.19
249.121	28.73
249.339	22.09
249.557	24.8
249.775	24.4
249.992	15.99
250.21	29.31
250.428	26.76
250.646	26.21
250.863	10.23
251.081	17.9
251.299	21.1
251.517	30.36
251.734	31.9
251.952	35.23
252.17	30.14
252.387	4.74
252.605	-24.07
252.823	-48.73
253.04	-3.14
253.258	14.85
253.475	26.52
253.693	18.57
253.911	16.28
254.128	-4.85
254.346	-6.26
254.563	12.98
254.781	19.37
254.998	14.08
255.216	-4.73
255.433	-22.75
255.651	-9.06
255.868	6.24
256.086	14.39
256.303	26.05
256.521	37.61
256.738	27.24
256.956	31.32
257.173	29.97
257.39	23.73
257.608	10.29
257.825	6.99
258.043	8.56
258.26	9.85
258.477	14.32
258.695	13.9
258.912	2.99
259.129	0.17
259.346	-18.71
259.564	-11.16
259.781	-4.07
259.998	14.25
260.216	15.04
260.433	11.12
260.65	17.78
260.867	23.71
261.084	17.82
261.302	7.38
261.519	26.86
261.736	-0.44
261.953	-9.15
262.17	-1.7
262.387	7.46
262.604	5.38
262.822	20
263.039	21
263.256	19.98
263.473	16.44
263.69	11.21
263.907	10.14
264.124	33.6
264.341	36.54
264.558	26.42
264.775	34.19
264.992	43.73
265.209	23.67
265.426	8.77
265.643	35.93
265.86	49.93
266.077	21.68
266.294	9.98
266.51	35.65
266.727	20.59
266.944	10.66
267.161	14.74
267.378	26.69
267.595	3.64
267.812	-6.87
268.028	0.38
268.245	-11.07
268.462	-20.66
268.679	2.34
268.896	21.84
269.112	22.38
269.329	16.97
269.546	43.26
269.763	22.19
269.979	11.43
270.196	13.45
270.413	13.21
270.629	-23.03
270.846	-15.95
271.063	-18.31
271.279	-35.47
271.496	-41.34
271.712	-13.63
271.929	-0.68
272.146	9.51
272.362	43.28
272.579	43.98
272.795	53.34
273.012	40.4
273.228	44.38
273.445	30.8
273.661	22.96
273.878	8.75
274.094	16.94
274.311	11.19
274.527	-7.77
274.744	12.86
274.96	16.08
275.177	17.61
275.393	21.43
275.609	26.99
275.826	23.77
276.042	28.13
276.259	32.55
276.475	20.54
276.691	19.66
276.908	7.26
277.124	7.73
277.34	-10.75
277.557	-1.05
277.773	0.94
277.989	11.39
278.205	12.47
278.422	8.29
278.638	4.14
278.854	-7.46
279.07	-2.31
279.286	-5.72
279.503	3.45
279.719	18.12
279.935	32.1
280.151	27.58
280.367	35.76
280.583	35.63
280.799	14.52
281.016	-14.29
281.232	-9.05
281.448	-18.44
281.664	-5.5
281.88	11.7
282.096	27.17
282.312	25.66
282.528	22.73
282.744	27.02
282.96	4.99
283.176	-13.66
283.392	-48.17
283.608	-13.71
283.824	-27.66
284.04	-33.26
284.256	-5.61
284.471	3.52
284.687	-6.03
284.903	0.4
285.119	23.42
285.335	25.27
285.551	34.19
285.767	33.67
285.982	28.39
286.198	-11.03
286.414	-18.08
286.63	-5.12
286.846	-4.8
287.061	-11.86
287.277	-0.04
287.493	-7.94
287.709	-20.14
287.924	-15.18
288.14	0.32
288.356	10.26
288.571	20.48
288.787	9.72
289.003	22.94
289.218	4.83
289.434	5.2
289.65	9.25
289.865	13.18
290.081	2.72
290.296	16.26
290.512	18.36
290.727	-1.48
290.943	-1.09
291.159	3.63
291.374	-17.67
291.59	-21.34
291.805	-22.23
292.021	-15.46
292.236	-20.21
292.451	-6.68
292.667	-19.74
292.882	-5.54
293.098	-0.03
293.313	-7.64
293.529	-2.07
293.744	3.54
293.959	4.14
294.175	-5.04
294.39	6.14
294.605	0.9
294.821	-6.76
295.036	-8.12
295.251	-1.49
295.467	-11.33
295.682	2.05
295.897	6.95
296.112	7.42
296.328	17.11
296.543	11.94
296.758	-0.21
296.973	13.59
297.188	20.89
297.404	-2.61
297.619	6.7
297.834	-21.5
298.049	-30.05
298.264	-41.83
298.479	-27.29
298.694	13.43
298.909	27.08
299.125	28.96
299.34	43.62
299.555	35.2
299.77	29.6
299.985	22.5
300.2	20.8
300.415	21.9
300.63	25.3
300.845	14.56
301.06	9.64
301.275	10.14
301.49	5.4
301.704	2.48
301.919	-4.46
302.134	10.71
302.349	5.2
302.564	-0.67
302.779	-6.39
302.994	16.72
303.209	8.22
303.423	13.55
303.638	32.98
303.853	36.34
304.068	6.1
304.283	11.37
304.497	17.91
304.712	5.71
304.927	0.81
305.142	11.99
305.356	18.03
305.571	9.01
305.786	-0.78
306	3.78
306.215	-4.33
306.43	-15.69
306.644	-14.39
306.859	-22.95
307.074	7.15
307.288	18.13
307.503	28.34
307.717	24.21
307.932	27.22
308.147	15.84
308.361	16.24
308.576	1.51
308.79	5.81
309.005	-0.64
309.219	7.62
309.434	6.62
309.648	18.7
309.863	21.61
310.077	27.7
310.292	14.91
310.506	-4.41
310.72	-6.34
310.935	11.83
311.149	9.25
311.364	20.77
311.578	42.19
311.792	40.96
312.007	21.69
312.221	22
312.435	20.39
312.649	11.08
312.864	-9.72
313.078	-3.19
313.292	-0.02
313.507	-2.34
313.721	-8.47
313.935	28.35
314.149	14.67
314.363	12
314.578	9.01
314.792	3.1
315.006	-38.09
315.22	-8.96
315.434	-0.2
315.648	-3.09
315.862	8.28
316.077	20.5
316.291	14.05
316.505	1.28
316.719	22.53
316.933	21.57
317.147	14.18
317.361	13.92
317.575	14.12
317.789	18.54
318.003	18.38
318.217	33.75
318.431	36.41
318.645	42.8
318.859	24.97
319.073	27.76
319.287	9.5
319.5	8.4
319.714	-2.14
319.928	-2.58
320.142	-7.97
320.356	10.86
320.57	4.34
320.784	6.47
320.997	6.71
321.211	9.04
321.425	-23.97
321.639	5.63
321.853	20.24
322.066	20.52
322.28	6.95
322.494	28.84
322.707	23.38
322.921	0.59
323.135	-7.03
323.349	1.82
323.562	-9.61
323.776	-13.73
323.989	13.53
324.203	10.6
324.417	17.2
324.63	19.58
324.844	1.57
325.057	-36.8
325.271	-25.68
325.485	-29.79
325.698	-9.91
325.912	12
326.125	16.51
326.339	14.45
326.552	10.71
326.766	-6.58
326.979	-5.19
327.193	-4.77
327.406	-12.51
327.619	-7.77
327.833	-10.6
328.046	3.61
328.26	1.95
328.473	-3.97
328.686	-3.74
328.9	11.73
329.113	-1.53
329.326	11.81
329.54	41.35
329.753	46.68
329.966	43.04
330.179	39.01
330.393	37.52
330.606	30.74
330.819	20.87
331.032	23.67
331.246	27.45
331.459	46.12
331.672	43.23
331.885	35.53
332.098	40.9
332.311	27.82
332.525	8.29
332.738	7
332.951	3.98
333.164	10.23
333.377	8.52
333.59	8.13
333.803	7.09
334.016	7.12
334.229	-3.76
334.442	3.87
334.655	2.69
334.868	-4.49
335.081	-1.19
335.294	-10.06
335.507	-12.59
335.72	-12.32
335.933	0.13
336.146	-1.63
336.359	12.85
336.572	8.16
336.785	11.36
336.997	7.4
337.21	8.91
337.423	-16.62
337.636	12.63
337.849	8.01
338.062	3.38
338.274	17.62
338.487	18.25
338.7	1.59
338.913	9.77
339.125	10.1
339.338	-15.07
339.551	1.94
339.763	2.5
339.976	-8.3
340.189	-6.46
340.402	22.01
340.614	10.81
340.827	5.06
341.039	12.81
341.252	13.5
341.465	-9.3
341.677	-11.91
341.89	-16.77
342.102	-12.06
342.315	-14.82
342.527	-5.72
342.74	-25.52
342.952	-6.62
343.165	-18.64
343.377	-14.31
343.59	-9.51
343.802	17.78
344.015	18.29
344.227	24.25
344.44	19.09
344.652	15.55
344.864	9.19
345.077	5.77
345.289	8.65
345.502	28.18
345.714	22.38
345.926	19.47
346.139	17.3
346.351	9.76
346.563	21.79
346.775	54.35
346.988	56.65
347.2	45.93
347.412	48.2
347.624	17.15
347.837	2.84
348.049	-2.02
348.261	-6.82
348.473	-18.61
348.685	-20.68
348.897	-23.76
349.11	-7.67
349.322	-4.74
349.534	-12.51
349.746	-4.21
349.958	-23.57
350.17	-35.12
350.382	-30.49
350.594	6.42
350.806	13.94
351.018	30.14
351.23	26.81
351.442	36.85
351.654	28.38
351.866	12.56
352.078	20.25
352.29	22.76
352.502	16.3
352.714	24.06
352.926	37.1
353.138	35.57
353.35	16.43
353.561	12.9
353.773	5.5
353.985	7.49
354.197	-0.81
354.409	9.14
354.621	-1.33
354.832	-0.18
355.044	-13.1
355.256	-15.26
355.468	-17.11
355.679	8.28
355.891	4.78
356.103	12.78
356.314	15.45
356.526	-1.04
356.738	-5.03
356.949	-14.06
357.161	-5.56
357.373	-3.48
357.584	11.79
357.796	9.65
358.008	12
358.219	4.69
358.431	3.09
358.642	11.54
358.854	9.96
359.065	10.27
359.277	5.44
359.488	4.71
359.7	-11.35
359.911	-28.57
360.123	-3.22
360.334	-5.33
360.546	-12.17
360.757	-10.15
360.969	0.66
361.18	-26.58
361.391	-10.56
361.603	-0.33
361.814	13.08
362.025	13.55
362.237	24.22
362.448	31.59
362.659	18.9
362.871	1.12
363.082	8.74
363.293	11.7
363.504	-24.36
363.716	-6.94
363.927	10.06
364.138	-8.66
364.349	-28.78
364.56	-29.29
364.772	-16.96
364.983	-11.75
365.194	0.27
365.405	9.77
365.616	22.64
365.827	11.96
366.038	13.5
366.25	28.47
366.461	31.71
366.672	23.42
366.883	25.26
367.094	13.03
367.305	-15.89
367.516	-18.48
367.727	-29.23
367.938	-31.44
368.149	-30.94
368.36	-24.54
368.571	-40.02
368.781	-25.03
368.992	-16.09
369.203	-12.18
369.414	-8.49
369.625	-7.37
369.836	15.3
370.047	17.72
370.258	21.1
370.468	14.34
370.679	15.02
370.89	-1.85
371.101	8.37
371.312	7.73
371.522	6.8
371.733	4.02
371.944	-5.23
372.155	-7.15
372.365	6.16
372.576	7.63
372.787	25.04
372.997	22.98
373.208	19.46
373.419	12.85
373.629	6.3
373.84	-9.7
374.05	-8.89
374.261	-16.48
374.472	-11.44
374.682	6.19
374.893	-3.65
375.103	11.35
375.314	10.57
375.524	9.74
375.735	4.82
375.945	23.08
376.156	17.8
376.366	22.39
376.577	15.91
376.787	19.4
376.997	15.51
377.208	17.17
377.418	10.68
377.629	14.51
377.839	5.34
378.049	4.32
378.26	-11.91
378.47	-18.29
378.68	-21.6
378.89	-12.06
379.101	-19.07
379.311	-6.84
379.521	-9.69
379.732	-10.6
379.942	-14.14
380.152	-17.81
380.362	-19.31
380.572	5.2
380.783	11.56
380.993	22.92
381.203	23.86
381.413	26.92
381.623	14.28
381.833	10.83
382.043	-4.72
382.253	11.14
382.463	15.85
382.674	12.2
382.884	11.84
383.094	12.66
383.304	2.25
383.514	-1.34
383.724	-0.17
383.934	-4.38
384.144	0.88
384.353	4.31
384.563	5.31
384.773	15.61
384.983	16.18
385.193	15.13
385.403	15.84
385.613	19.7
385.823	9.72
386.033	9.87
386.242	6.89
386.452	3.75
386.662	-1.29
386.872	3.37
387.082	2.9
387.291	3.88
387.501	8.65
387.711	7.65
387.921	7.14
388.13	11.66
388.34	12.71
388.55	5.04
388.759	0.62
388.969	-0.32
389.179	-2.45
389.388	-5.53
389.598	-5.48
389.807	-5.48
390.017	-6.42
390.227	-5.87
390.436	-0.36
390.646	0.26
390.855	3.16
391.065	4.67
391.274	2.22
391.484	-0.36
391.693	3.41
391.903	2.94
392.112	3.71
392.322	4.62
392.531	3.88
392.74	2.55
392.95	0.58
393.159	-0.36
393.369	0.18
393.578	1.93
393.787	0.69
393.997	3.31
394.206	3.36
394.415	4.59
394.625	4.18
394.834	5.54
395.043	5.72
395.252	7.5
395.462	7.79
395.671	7.85
395.88	8.08
396.089	8.09
396.298	7.58
396.508	7.6
396.717	7.43
396.926	7.16
397.135	7.36
397.344	6.6
397.553	6.12
397.762	7.07
397.971	7.02
398.181	6.93
398.39	6.71
398.599	6.97
398.808	6.04
399.017	6.67
399.226	6.53
399.435	6.6
399.644	6.84
399.853	7.34
400.062	6.94
400.27	6.43
400.479	6.64
400.688	6.4
400.897	5.87
401.106	6.07
401.315	6.23
401.524	6.33
401.733	5.87
401.941	6.39
402.15	6.18
402.359	6.34
402.568	6.19
402.777	6.65
402.985	6.16
403.194	6.1
403.403	6.31
403.612	6.12
403.82	5.7
404.029	5.94
404.238	5.99
404.446	5.99
404.655	6.15
404.864	6.41
405.072	6.22
405.281	6.17
405.489	5.84
405.698	5.92
405.906	6.05
406.115	6.2
406.324	6.23
406.532	6.43
406.741	6.41
406.949	6.31
407.158	6.4
407.366	6.33
407.574	6.26
407.783	6.22
407.991	6.18
408.2	6.21
408.408	6.07
408.617	6.03
408.825	5.86
409.033	5.76
409.242	5.6
409.45	5.8
409.658	5.72
409.867	5.84
410.075	5.92
410.283	5.84
410.491	5.62
410.7	5.54
410.908	5.62
411.116	5.72
411.324	5.77
411.533	5.83
411.741	5.96
411.949	5.96
412.157	5.7
412.365	5.66
412.573	5.66
412.781	5.6
412.99	5.46
413.198	5.59
413.406	5.71
413.614	5.88
413.822	5.97
414.03	5.95
414.238	5.83
414.446	5.84
414.654	5.61
414.862	5.46
415.07	5.48
415.278	5.61
415.486	5.31
415.694	5.27
415.902	5.19
416.109	5.19
416.317	4.98
416.525	5.03
416.733	5.21
416.941	5.39
417.149	5.27
417.357	5.49
417.564	5.6
417.772	5.46
417.98	5.3
418.188	5.38
418.395	5.04
418.603	4.83
418.811	4.71
419.019	4.89
419.226	4.89
419.434	5.08
419.642	5.04
419.849	5.1
420.057	5.05
420.265	4.96
420.472	4.99
420.68	5.13
420.887	5.15
421.095	5
421.302	5.08
421.51	4.9
421.717	4.97
421.925	5.03
422.132	5.18
422.34	5.01
422.547	5.17
422.755	5.08
422.962	5.14
423.17	5.02
423.377	4.99
423.585	5.03
423.792	5.14
423.999	5.04
424.207	4.9
424.414	4.96
424.621	4.99
424.829	4.8
425.036	4.88
425.243	5.06
425.451	5.14
425.658	4.92
425.865	5
426.072	5
426.28	5.18
426.487	5.19
426.694	5.22
426.901	5.3
427.108	5.27
427.315	5.09
427.523	4.95
427.73	5.12
427.937	4.91
428.144	4.81
428.351	4.8
428.558	4.9
428.765	4.87
428.972	5.03
429.179	5.09
429.386	5.08
429.593	4.91
429.8	4.88
430.007	5.03
430.214	5.09
430.421	5.24
430.628	5.36
430.835	5.36
431.042	5.14
431.249	5.09
431.456	4.95
431.662	5.14
431.869	5.33
432.076	5.48
432.283	5.55
432.49	5.51
432.697	5.53
432.903	5.33
433.11	5.45
433.317	5.35
433.524	5.64
433.73	5.49
433.937	5.61
434.144	5.42
434.35	5.5
434.557	5.34
434.764	5.37
434.97	5.28
435.177	5.44
435.384	5.47
435.59	5.55
435.797	5.68
436.003	5.89
436.21	5.84
436.416	5.95
436.623	5.94
436.829	5.94
437.036	5.86
437.242	5.98
437.449	5.89
437.655	6.03
437.862	5.99
438.068	5.97
438.275	6.02
438.481	6.09
438.687	5.96
438.894	6.09
439.1	6.09
439.307	6.15
439.513	6.18
439.719	6.25
439.926	6.25
440.132	6.36
440.338	6.11
440.544	6.05
440.751	6.07
440.957	6.15
441.163	6.03
441.369	6.2
441.575	6.22
441.782	6.24
441.988	6.12
442.194	6.16
442.4	6.09
442.606	6.25
442.812	6.18
443.018	6.27
443.224	6.37
443.431	6.51
443.637	6.44
443.843	6.52
444.049	6.56
444.255	6.54
444.461	6.38
444.667	6.37
444.873	6.28
445.079	6.3
445.284	6.32
445.49	6.36
445.696	6.33
445.902	6.45
446.108	6.36
446.314	6.28
446.52	6.4
446.726	6.57
446.931	6.46
447.137	6.56
447.343	6.69
447.549	6.64
447.755	6.51
447.96	6.64
448.166	6.64
448.372	6.56
448.578	6.54
448.783	6.57
448.989	6.69
449.195	6.61
449.4	6.77
449.606	6.78
449.812	6.77
450.017	6.71
450.223	6.76
450.428	6.67
450.634	6.77
450.84	6.82
451.045	6.74
451.251	6.82
451.456	6.85
451.662	6.85
451.867	6.9
452.073	6.97
452.278	6.87
452.483	6.94
452.689	6.92
452.894	6.95
453.1	6.89
453.305	6.87
453.51	6.92
453.716	6.9
453.921	6.94
454.127	7.01
454.332	7.04
454.537	7.03
454.742	7.06
454.948	7.03
455.153	7.11
455.358	7.2
455.563	7.28
455.769	7.28
455.974	7.24
456.179	7.16
456.384	7.05
456.589	6.99
456.795	7.02
457	7.05
457.205	7
457.41	7.09
457.615	7.01
457.82	7.03
458.025	7.1
458.23	7.22
458.435	7.3
458.64	7.42
458.845	7.56
459.05	7.55
459.255	7.56
459.46	7.52
459.665	7.52
459.87	7.36
460.075	7.48
460.28	7.58
460.485	7.65
460.69	7.63
460.895	7.87
461.099	7.65
461.304	7.56
461.509	7.56
461.714	7.65
461.919	7.5
462.123	7.68
462.328	7.67
462.533	7.63
462.738	7.64
462.942	7.63
463.147	7.64
463.352	7.75
463.556	7.78
463.761	7.67
463.966	7.71
464.17	7.75
464.375	7.76
464.58	7.75
464.784	7.82
464.989	7.85
465.193	7.94
465.398	7.92
465.602	8.08
465.807	8.13
466.011	8.18
466.216	8.06
466.42	8.14
466.625	8.16
466.829	8.21
467.034	8.3
467.238	8.38
467.443	8.39
467.647	8.3
467.851	8.34
468.056	8.33
468.26	8.41
468.464	8.39
