Data from Ofra_1a_PS_1GT43_Reflection_3.txt Node
Date: Tue Jul 20 10:46:07 EDT 2021
User: Adam
Spectrometer: FLMT01687
Trigger mode: 0
Integration Time (sec): 1.004000E0
Scans to average: 2
Electric dark correction enabled: true
Nonlinearity correction enabled: false
Boxcar width: 2
XAxis mode: Wavelengths
Number of Pixels in Spectrum: 3648
>>>>>Begin Spectral Data<<<<<
179.494	-408.12
179.716	-565.65
179.937	1079.6
180.158	-1322.29
180.38	233.21
180.601	64.66
180.823	87.17
181.044	93
181.265	191.89
181.486	155.4
181.708	12.11
181.929	-7745.45
182.15	86.32
182.372	-401.97
182.593	23.4
182.814	-40.75
183.035	-24.01
183.257	-16.52
183.478	-30.23
183.699	-39.11
183.92	-84.22
184.141	-71.71
184.363	-37.3
184.584	-42.52
184.805	-18.06
185.026	25.15
185.247	10.37
185.468	-12.7
185.689	2.95
185.91	-19.38
186.132	-12.39
186.353	-7.44
186.574	-0.73
186.795	-14.82
187.016	-5.26
187.237	-19.49
187.458	-25.48
187.679	-62.64
187.9	-18.9
188.121	-25.5
188.342	5.7
188.563	23.26
188.784	58.96
189.005	28.85
189.226	40.51
189.447	28.12
189.667	13.12
189.888	-7.55
190.109	-13.24
190.33	-9.65
190.551	-17.51
190.772	-4.66
190.993	-3.71
191.214	1.07
191.434	-11.73
191.655	14.01
191.876	47.42
192.097	54.89
192.318	46.24
192.538	18
192.759	4.65
192.98	3.03
193.201	0.17
193.421	1.08
193.642	12.84
193.863	23.04
194.083	20.91
194.304	42.15
194.525	24.05
194.745	22.5
194.966	16.15
195.187	14.71
195.407	-24.26
195.628	-7.51
195.848	-15.2
196.069	-36.67
196.29	-50.24
196.51	-24.99
196.731	-31.23
196.951	-51.5
197.172	-37.92
197.392	-42
197.613	-18.15
197.833	-30.33
198.054	-18.94
198.274	-16.34
198.495	-8.28
198.715	-3.02
198.936	24.08
199.156	13.26
199.377	17.39
199.597	9.74
199.817	-15.42
200.038	-55.13
200.258	-13.13
200.479	-30.39
200.699	-46.67
200.919	-38.53
201.14	-23.87
201.36	-34.11
201.58	-41.74
201.801	-35.1
202.021	-17.3
202.241	-29.07
202.461	-20.8
202.682	1.55
202.902	18.24
203.122	-9.4
203.342	5.57
203.563	-12.14
203.783	-19.73
204.003	-23.77
204.223	7.65
204.443	4.78
204.663	6.1
204.884	21.92
205.104	19.6
205.324	1.89
205.544	-11.49
205.764	18.71
205.984	12.34
206.204	-6.77
206.424	-14.56
206.644	-22.47
206.864	-74.98
207.084	-51.6
207.304	-59.77
207.525	-37.8
207.745	-12.04
207.964	19.38
208.184	42.92
208.404	36.02
208.624	35.21
208.844	28.42
209.064	26.16
209.284	3.22
209.504	-11.03
209.724	-0.42
209.944	-16.59
210.164	-17.62
210.384	-9.31
210.604	-29.29
210.823	-80.59
211.043	-42.09
211.263	-91.92
211.483	-60.56
211.703	-27.87
211.922	-21.66
212.142	-12.78
212.362	8.58
212.582	2.07
212.801	2.09
213.021	-3.5
213.241	-26.63
213.461	-26.4
213.68	-5.52
213.9	-10.32
214.12	-11.17
214.339	-1.74
214.559	-15.46
214.779	-30.93
214.998	-22.5
215.218	-0.85
215.438	-6.48
215.657	-16.59
215.877	-31.27
216.096	-2.18
216.316	-13.92
216.535	-18.07
216.755	-15.26
216.974	-10.82
217.194	-25.89
217.413	-23.42
217.633	-21.3
217.852	-4.65
218.072	-2.3
218.291	-8.44
218.511	-2.12
218.73	-2.99
218.95	-25.42
219.169	-6.86
219.389	-27.74
219.608	-33.24
219.827	-23.85
220.047	-11.7
220.266	-42.81
220.485	-25.76
220.705	-33.32
220.924	-34.13
221.143	-22.79
221.363	-1.97
221.582	-8.45
221.801	-5.35
222.021	0.38
222.24	7.55
222.459	17.29
222.678	29.4
222.897	26.9
223.117	27.78
223.336	29.89
223.555	28.16
223.774	29.04
223.993	64.09
224.213	65.89
224.432	59.19
224.651	26.39
224.87	16.23
225.089	5.68
225.308	6.32
225.527	-7.23
225.746	4.95
225.965	-6.75
226.184	-30.59
226.404	-40.28
226.623	-17.82
226.842	-16.79
227.061	-1.41
227.28	20.56
227.499	22.59
227.718	13.41
227.936	14.63
228.155	5.56
228.374	-0.16
228.593	2.61
228.812	3.04
229.031	11.42
229.25	12.15
229.469	5.51
229.688	4.01
229.907	9.47
230.125	8.35
230.344	12.8
230.563	18.04
230.782	26.95
231.001	33.63
231.22	34.24
231.438	27.47
231.657	22.63
231.876	15.24
232.095	17.88
232.313	-14.55
232.532	-15.23
232.751	-25
232.969	-23.39
233.188	-59.1
233.407	-22.61
233.625	-6.48
233.844	6.89
234.063	13.78
234.281	39.44
234.5	37.07
234.719	27.13
234.937	3.11
235.156	-12.8
235.374	-27.99
235.593	-29.36
235.811	-16.93
236.03	1.84
236.249	5.09
236.467	5.46
236.686	5.62
236.904	9
237.123	2.88
237.341	-6.92
237.559	-17.48
237.778	1.21
237.996	-46.05
238.215	-48.05
238.433	-68.84
238.652	-13.97
238.87	-33.13
239.088	-6
239.307	-5.86
239.525	1.35
239.743	-3.87
239.962	-20.99
240.18	-12.79
240.398	-13.7
240.617	-16.39
240.835	-50.85
241.053	-30.24
241.271	-44.03
241.49	-24.65
241.708	-26.51
241.926	-12.68
242.144	8.19
242.363	10.68
242.581	-21.95
242.799	-22.31
243.017	-7.3
243.235	-20.12
243.453	-21.89
243.672	-2.89
243.89	-8.87
244.108	2.03
244.326	31.68
244.544	32.84
244.762	19.87
244.98	27.2
245.198	13.99
245.416	0.31
245.634	-3.93
245.852	-17.92
246.07	7.92
246.288	13.48
246.506	0
246.724	12.41
246.942	24.95
247.16	8.55
247.378	-5.15
247.596	26.98
247.814	-15.65
248.032	-10.47
248.25	1.28
248.468	21.92
248.685	11.92
248.903	31.53
249.121	38.96
249.339	37.41
249.557	34.83
249.775	36.89
249.992	18.11
250.21	7.25
250.428	15.18
250.646	15.6
250.863	7.66
251.081	22.32
251.299	14.03
251.517	20.46
251.734	13.61
251.952	0.47
252.17	-8.42
252.387	-18.09
252.605	-31.1
252.823	-47.91
253.04	10.42
253.258	7.32
253.475	35.61
253.693	41.3
253.911	44.32
254.128	17.32
254.346	23.84
254.563	30.56
254.781	28.28
254.998	25.8
255.216	18.49
255.433	2.09
255.651	-11.78
255.868	-17.53
256.086	-15.85
256.303	-5.65
256.521	-5.88
256.738	-16.54
256.956	-14.41
257.173	-19.65
257.39	-13.24
257.608	-11.09
257.825	-3.65
258.043	12.05
258.26	11.52
258.477	11.98
258.695	11.36
258.912	-3.18
259.129	-30.68
259.346	-24.29
259.564	-16.81
259.781	-10.63
259.998	17.14
260.216	49.64
260.433	30.01
260.65	26.09
260.867	29.29
261.084	30.96
261.302	-2.09
261.519	21.97
261.736	22.38
261.953	19.74
262.17	33.22
262.387	24.67
262.604	20.47
262.822	22.68
263.039	32.03
263.256	26.02
263.473	23.41
263.69	24.15
263.907	30.04
264.124	39.78
264.341	23.46
264.558	37.52
264.775	34.76
264.992	27.76
265.209	14.15
265.426	23.14
265.643	4.96
265.86	-20.77
266.077	-29.76
266.294	-36.93
266.51	-9.06
266.727	-5.45
266.944	20.79
267.161	22.8
267.378	39.86
267.595	28.5
267.812	14.91
268.028	-8.54
268.245	5.98
268.462	-15.91
268.679	-12.47
268.896	1.23
269.112	-8.27
269.329	-27.53
269.546	-13.4
269.763	3.28
269.979	4.32
270.196	23.59
270.413	13.55
270.629	-10.11
270.846	-31.85
271.063	-38.99
271.279	-45.89
271.496	-39.67
271.712	-30.33
271.929	-11.24
272.146	-3.18
272.362	4.52
272.579	-2.59
272.795	12.96
273.012	7.47
273.228	9.13
273.445	5.17
273.661	9.2
273.878	-15.38
274.094	-6.54
274.311	-19.09
274.527	-52.11
274.744	-32.02
274.96	-17.77
275.177	-13.97
275.393	15.01
275.609	31.93
275.826	24.68
276.042	19.01
276.259	11.81
276.475	-20.9
276.691	-30.82
276.908	-36.44
277.124	-35.11
277.34	-41.17
277.557	-41.05
277.773	-43.86
277.989	-32.96
278.205	-14.96
278.422	-15.47
278.638	2.08
278.854	-3.16
279.07	13.11
279.286	4.11
279.503	9.26
279.719	19.8
279.935	30.44
280.151	21.58
280.367	31.68
280.583	33.59
280.799	10.15
281.016	-21.68
281.232	-11.68
281.448	-5.32
281.664	-13.43
281.88	9.04
282.096	19.97
282.312	18.11
282.528	15.6
282.744	12.08
282.96	-20.46
283.176	-28.53
283.392	-70.63
283.608	-72.65
283.824	-63.96
284.04	-71.35
284.256	-27.14
284.471	-4.39
284.687	-1.14
284.903	8.76
285.119	28.89
285.335	25.95
285.551	20.59
285.767	18.43
285.982	-4.19
286.198	-60.83
286.414	-72.77
286.63	-76.24
286.846	-58.97
287.061	-25.93
287.277	8.29
287.493	11.11
287.709	20.85
287.924	30.7
288.14	34.45
288.356	41.61
288.571	39.1
288.787	27.27
289.003	22.79
289.218	6.69
289.434	-10.66
289.65	17.28
289.865	19.3
290.081	26.75
290.296	34.76
290.512	43.95
290.727	28.99
290.943	29.93
291.159	21.16
291.374	1.7
291.59	1.05
291.805	-16.28
292.021	-13.38
292.236	-25.55
292.451	-3.99
292.667	-4.22
292.882	12.75
293.098	13.02
293.313	12.86
293.529	6.28
293.744	-3.06
293.959	-18.87
294.175	-21.93
294.39	-27.22
294.605	0.46
294.821	5.71
295.036	17.18
295.251	25.1
295.467	28.8
295.682	16.69
295.897	0.49
296.112	-1.62
296.328	1.97
296.543	-12.79
296.758	-2.95
296.973	7.64
297.188	2.41
297.404	-40.16
297.619	-30.86
297.834	-86.44
298.049	-59.34
298.264	-48.4
298.479	-24.33
298.694	9.57
298.909	16.41
299.125	5.27
299.34	-2.99
299.555	-9.23
299.77	-0.72
299.985	9.01
300.2	20.7
300.415	34.47
300.63	36.04
300.845	34.73
301.06	27.82
301.275	19.66
301.49	5.26
301.704	2.79
301.919	-14.74
302.134	-15.49
302.349	-2.3
302.564	-4.66
302.779	-18.11
302.994	1.29
303.209	13.92
303.423	5.94
303.638	27.67
303.853	22.56
304.068	15.68
304.283	8.09
304.497	-1
304.712	-11.29
304.927	11.67
305.142	26.3
305.356	27.36
305.571	24.1
305.786	19.09
306	9.98
306.215	-1.37
306.43	-13.48
306.644	-22.83
306.859	-34.36
307.074	-8.24
307.288	-12.29
307.503	5.43
307.717	6.71
307.932	25.54
308.147	19.35
308.361	26.36
308.576	13.65
308.79	28.04
309.005	0.6
309.219	2.19
309.434	-4.75
309.648	6.35
309.863	10.73
310.077	20.62
310.292	27.33
310.506	19.08
310.72	16.76
310.935	20.75
311.149	17.44
311.364	16.42
311.578	30.08
311.792	27.57
312.007	17.39
312.221	8.2
312.435	-3.47
312.649	-12.48
312.864	-7.13
313.078	-18.85
313.292	-12.43
313.507	-18.8
313.721	-19.21
313.935	-16.32
314.149	-9.4
314.363	-3.76
314.578	4.16
314.792	-19.11
315.006	-19.38
315.22	-0.19
315.434	12.74
315.648	2.16
315.862	16.61
316.077	-8.21
316.291	-7.22
316.505	-52.51
316.719	-19.62
316.933	-20.29
317.147	4.91
317.361	13.59
317.575	27.18
317.789	15.24
318.003	9.83
318.217	9.96
318.431	-8.01
318.645	-15.15
318.859	-6.63
319.073	9.53
319.287	8.33
319.5	16.94
319.714	19.67
319.928	25
320.142	15.49
320.356	31.2
320.57	2.35
320.784	3.33
320.997	-29.53
321.211	-3.66
321.425	-34.45
321.639	12.18
321.853	21.32
322.066	23.96
322.28	10.46
322.494	7.15
322.707	-3.05
322.921	-21.11
323.135	-19.05
323.349	-15.62
323.562	-8.85
323.776	-13.86
323.989	1.74
324.203	-5.06
324.417	5.97
324.63	-2.29
324.844	-14.53
325.057	-29.54
325.271	-24.85
325.485	-31.5
325.698	-7.15
325.912	17.5
326.125	17.75
326.339	34.73
326.552	35.99
326.766	24.31
326.979	28.91
327.193	26.77
327.406	-1.7
327.619	-4.78
327.833	-0.33
328.046	1.6
328.26	3.66
328.473	17.69
328.686	17.23
328.9	18.77
329.113	7.54
329.326	1.52
329.54	-1.68
329.753	13.98
329.966	13.87
330.179	1.49
330.393	11.12
330.606	15.51
330.819	-15.82
331.032	-6.27
331.246	10.91
331.459	20.17
331.672	8.75
331.885	28.17
332.098	26.72
332.311	11.24
332.525	1.58
332.738	7.37
332.951	-6.4
333.164	-7.62
333.377	1.84
333.59	-1.54
333.803	-4.24
334.016	-4.81
334.229	-22.43
334.442	-27.96
334.655	-27.11
334.868	-15.85
335.081	-10.63
335.294	-18.96
335.507	-0.17
335.72	7.89
335.933	4.03
336.146	7.13
336.359	30.35
336.572	21.15
336.785	6.8
336.997	3.72
337.21	16.81
337.423	-30.82
337.636	-39.99
337.849	-29.88
338.062	-14.16
338.274	-20.75
338.487	-15.25
338.7	-19.45
338.913	-1.34
339.125	-22.94
339.338	-18.12
339.551	2.62
339.763	12.14
339.976	5.4
340.189	4.23
340.402	13.08
340.614	21.15
340.827	28.47
341.039	24.05
341.252	28.66
341.465	17.93
341.677	5.77
341.89	-12.48
342.102	9.22
342.315	13.66
342.527	24.36
342.74	3.95
342.952	3.1
343.165	-12.41
343.377	-4.01
343.59	-8.2
343.802	18.26
344.015	34.55
344.227	35.54
344.44	30.95
344.652	31.57
344.864	33.91
345.077	36.73
345.289	43.93
345.502	53.99
345.714	50.07
345.926	38.99
346.139	10.09
346.351	0.19
346.563	-9.51
346.775	-10.63
346.988	3.53
347.2	6.57
347.412	7.37
347.624	12.64
347.837	15.67
348.049	3.47
348.261	9.51
348.473	-3.45
348.685	-13.28
348.897	-23.91
349.11	-0.8
349.322	3.09
349.534	14.1
349.746	21.39
349.958	11.01
350.17	-19.02
350.382	-16.23
350.594	-9
350.806	18.62
351.018	30.57
351.23	43.32
351.442	42.3
351.654	41.77
351.866	34.94
352.078	28.41
352.29	31.21
352.502	31.26
352.714	31.68
352.926	-0.49
353.138	9.2
353.35	-10.6
353.561	-11.24
353.773	-15.63
353.985	-6.79
354.197	-5.85
354.409	4.14
354.621	-5.79
354.832	0.15
355.044	-18.3
355.256	-30.09
355.468	-31.27
355.679	5.14
355.891	7.07
356.103	19.07
356.314	19.89
356.526	8.16
356.738	-18.81
356.949	-24.96
357.161	-13.76
357.373	-15.02
357.584	-3.01
357.796	6.72
358.008	7.03
358.219	-0.36
358.431	14.38
358.642	13.71
358.854	15.77
359.065	14.09
359.277	7.35
359.488	-4.37
359.7	-5.85
359.911	-22.98
360.123	-10.5
360.334	-7.95
360.546	-10.96
360.757	-10.63
360.969	5.3
361.18	2.13
361.391	11.71
361.603	19.51
361.814	30.72
362.025	23.51
362.237	34.38
362.448	34.51
362.659	33.02
362.871	24.35
363.082	23.54
363.293	2.71
363.504	-19.38
363.716	-25.1
363.927	-3.12
364.138	-23.82
364.349	-21.15
364.56	-10.85
364.772	4.81
364.983	3.91
365.194	22.33
365.405	26.38
365.616	36.44
365.827	23.82
366.038	31.57
366.25	21.77
366.461	22.42
366.672	10.7
366.883	10.11
367.094	5.64
367.305	-7.62
367.516	-4.54
367.727	-10.95
367.938	-5.01
368.149	-21.57
368.36	-17.85
368.571	-42.03
368.781	-47.44
368.992	-50.08
369.203	-43.46
369.414	-46.55
369.625	-40.32
369.836	-10.47
370.047	-10.84
370.258	-1.03
370.468	6.49
370.679	7.66
370.89	-15.37
371.101	9.79
371.312	7.76
371.522	6.52
371.733	14.07
371.944	16.06
372.155	11.55
372.365	13.33
372.576	19.91
372.787	16.52
372.997	15.04
373.208	2.29
373.419	2.32
373.629	-9.35
373.84	-19.94
374.05	-14.68
374.261	-24.03
374.472	-26.33
374.682	-11.97
374.893	-24.44
375.103	-22.46
375.314	-14.07
375.524	-10.81
375.735	-8.45
375.945	9.17
376.156	11.84
376.366	9.01
376.577	12.5
376.787	5.44
376.997	9.64
377.208	5.63
377.418	3.62
377.629	-6.92
377.839	-1.91
378.049	-1.98
378.26	-10.24
378.47	-16.17
378.68	0.33
378.89	-1.33
379.101	-8.61
379.311	4.26
379.521	10.38
379.732	7.79
379.942	10.41
380.152	5.35
380.362	4.58
380.572	15.17
380.783	22.86
380.993	12.75
381.203	9.78
381.413	10.68
381.623	5.38
381.833	-2.17
382.043	-4.09
382.253	8.72
382.463	14.55
382.674	20.27
382.884	22.3
383.094	21.85
383.304	23.48
383.514	13.71
383.724	8.74
383.934	2.14
384.144	8.5
384.353	5.38
384.563	12.68
384.773	17.63
384.983	16.57
385.193	9.48
385.403	7.45
385.613	9.15
385.823	3.47
386.033	3.06
386.242	7.87
386.452	7.1
386.662	1.85
386.872	4.55
387.082	3.38
387.291	-2.07
387.501	-0.72
387.711	-0.84
387.921	-1.58
388.13	2.49
388.34	4.84
388.55	1.53
388.759	-2.36
388.969	-3.79
389.179	-4.13
389.388	-4.86
389.598	-5.62
389.807	-4.02
390.017	-2.5
390.227	-5.87
390.436	-3.44
390.646	0.19
390.855	1.62
391.065	-0.21
391.274	3.27
391.484	3.06
391.693	1.35
391.903	0.47
392.112	0.31
392.322	0.38
392.531	0.74
392.74	1.64
392.95	2.87
393.159	2.21
393.369	1.69
393.578	1.12
393.787	0.07
393.997	0.83
394.206	1.38
394.415	2.05
394.625	3.05
394.834	2.94
395.043	2.11
395.252	4.87
395.462	5.06
395.671	4.16
395.88	6.5
396.089	6.28
396.298	5.99
396.508	6.59
396.717	7.15
396.926	6.17
397.135	7.13
397.344	5.98
397.553	5.76
397.762	6.61
397.971	6.59
398.181	6.14
398.39	5.78
398.599	5.42
398.808	4.79
399.017	5.7
399.226	5.86
399.435	6.45
399.644	6.62
399.853	6.77
400.062	6.23
400.27	5.46
400.479	5.43
400.688	5.6
400.897	5.28
401.106	5.07
401.315	5.5
401.524	5.75
401.733	5.48
401.941	6.03
402.15	6.11
402.359	5.92
402.568	5.77
402.777	6.04
402.985	5.69
403.194	5.76
403.403	6.13
403.612	5.93
403.82	5.56
404.029	5.67
404.238	5.7
404.446	5.84
404.655	5.87
404.864	6.09
405.072	5.99
405.281	6.06
405.489	5.81
405.698	6.08
405.906	6.14
406.115	6.11
406.324	6.11
406.532	6.1
406.741	5.84
406.949	5.8
407.158	5.98
407.366	5.79
407.574	5.91
407.783	6.05
407.991	6.04
408.2	5.96
408.408	6.05
408.617	5.98
408.825	5.91
409.033	5.86
409.242	5.82
409.45	5.68
409.658	5.62
409.867	5.6
410.075	5.68
410.283	5.7
410.491	5.71
410.7	5.66
410.908	5.83
411.116	5.87
411.324	5.78
411.533	5.76
411.741	5.75
411.949	5.65
412.157	5.47
412.365	5.57
412.573	5.63
412.781	5.62
412.99	5.45
413.198	5.57
413.406	5.61
413.614	5.6
413.822	5.63
414.03	5.69
414.238	5.61
414.446	5.59
414.654	5.5
414.862	5.49
415.07	5.42
415.278	5.49
415.486	5.23
415.694	5.22
415.902	5.13
416.109	5.18
416.317	5.12
416.525	5.25
416.733	5.24
416.941	5.28
417.149	5.19
417.357	5.19
417.564	5.19
417.772	5.29
417.98	5.25
418.188	5.3
418.395	4.99
418.603	4.9
418.811	4.82
419.019	4.88
419.226	4.91
419.434	5.11
419.642	5.05
419.849	4.98
420.057	4.95
420.265	4.92
420.472	4.91
420.68	5.01
420.887	5.09
421.095	5.18
421.302	5.14
421.51	5.06
421.717	4.99
421.925	4.96
422.132	4.84
422.34	4.7
422.547	4.7
422.755	4.84
422.962	4.85
423.17	4.74
423.377	4.85
423.585	4.88
423.792	4.7
423.999	4.73
424.207	4.79
424.414	4.65
424.621	4.71
424.829	4.82
425.036	4.93
425.243	4.93
425.451	4.94
425.658	4.85
425.865	4.92
426.072	4.65
426.28	4.68
426.487	4.82
426.694	4.78
426.901	4.81
427.108	4.89
427.315	4.8
427.523	4.8
427.73	4.82
427.937	4.61
428.144	4.69
428.351	4.66
428.558	4.73
428.765	4.66
428.972	4.67
429.179	4.58
429.386	4.72
429.593	4.49
429.8	4.65
430.007	4.88
430.214	5
430.421	4.97
430.628	5.2
430.835	5.18
431.042	4.99
431.249	5.04
431.456	5.1
431.662	5.18
431.869	5.28
432.076	5.46
432.283	5.47
432.49	5.32
432.697	5.27
432.903	5.23
433.11	5.16
433.317	5.17
433.524	5.4
433.73	5.33
433.937	5.42
434.144	5.37
434.35	5.27
434.557	5.15
434.764	5.24
434.97	5.06
435.177	5.2
435.384	5.3
435.59	5.45
435.797	5.47
436.003	5.62
436.21	5.42
436.416	5.51
436.623	5.43
436.829	5.34
437.036	5.25
437.242	5.48
437.449	5.24
437.655	5.43
437.862	5.48
438.068	5.53
438.275	5.61
438.481	5.82
438.687	5.67
438.894	5.79
439.1	5.74
439.307	5.7
439.513	5.77
439.719	5.83
439.926	5.85
440.132	5.99
440.338	5.96
440.544	5.82
440.751	5.82
440.957	5.81
441.163	5.64
441.369	5.63
441.575	5.64
441.782	5.7
441.988	5.71
442.194	5.81
442.4	5.78
442.606	5.95
442.812	5.9
443.018	5.86
443.224	6.07
443.431	6.08
443.637	5.96
443.843	6.08
444.049	6.17
444.255	6.08
444.461	6.02
444.667	6.1
444.873	5.97
445.079	5.95
445.284	5.97
445.49	6.06
445.696	6
445.902	6.1
446.108	6.11
446.314	6.05
446.52	6.21
446.726	6.33
446.931	6.24
447.137	6.21
447.343	6.24
447.549	6.23
447.755	6.16
447.96	6.25
448.166	6.31
448.372	6.26
448.578	6.14
448.783	6.31
448.989	6.34
449.195	6.32
449.4	6.43
449.606	6.48
449.812	6.33
450.017	6.27
450.223	6.25
450.428	6.24
450.634	6.22
450.84	6.22
451.045	6.29
451.251	6.35
451.456	6.32
451.662	6.34
451.867	6.33
452.073	6.34
452.278	6.33
452.483	6.39
452.689	6.45
452.894	6.57
453.1	6.46
453.305	6.51
453.51	6.58
453.716	6.52
453.921	6.48
454.127	6.56
454.332	6.55
454.537	6.45
454.742	6.47
454.948	6.46
455.153	6.48
455.358	6.5
455.563	6.58
455.769	6.56
455.974	6.57
456.179	6.52
456.384	6.45
456.589	6.39
456.795	6.36
457	6.29
457.205	6.29
457.41	6.3
457.615	6.3
457.82	6.44
458.025	6.48
458.23	6.56
458.435	6.52
458.64	6.56
458.845	6.52
459.05	6.53
459.255	6.52
459.46	6.57
459.665	6.57
459.87	6.5
460.075	6.6
460.28	6.64
460.485	6.71
460.69	6.69
460.895	6.82
461.099	6.71
461.304	6.57
461.509	6.57
461.714	6.63
461.919	6.57
462.123	6.66
462.328	6.65
462.533	6.59
462.738	6.54
462.942	6.44
463.147	6.39
463.352	6.58
463.556	6.67
463.761	6.72
463.966	6.84
464.17	6.95
464.375	6.99
464.58	6.94
464.784	6.95
464.989	7.04
465.193	7.01
465.398	7
465.602	7.14
465.807	7.17
466.011	7.11
466.216	7.11
