Data from Ofra_2a_PS_OCX4_Reflection_2.txt Node
Date: Tue Jul 20 09:22:21 EDT 2021
User: Adam
Spectrometer: FLMT01687
Trigger mode: 0
Integration Time (sec): 9.450000E-1
Scans to average: 3
Electric dark correction enabled: true
Nonlinearity correction enabled: false
Boxcar width: 3
XAxis mode: Wavelengths
Number of Pixels in Spectrum: 3648
>>>>>Begin Spectral Data<<<<<
179.494	15.98
179.716	24.03
179.937	23.63
180.158	-186.33
180.38	459.59
180.601	161.43
180.823	111.58
181.044	134.76
181.265	65.67
181.486	43.28
181.708	466.3
181.929	-8.72
182.15	-172.16
182.372	110.74
182.593	160.53
182.814	119.91
183.035	108.78
183.257	53.96
183.478	30.24
183.699	40.77
183.92	43.5
184.141	42.39
184.363	12.03
184.584	10.91
184.805	13.09
185.026	-1.47
185.247	-1.51
185.468	-1.12
185.689	16.25
185.91	33.32
186.132	42.01
186.353	29.48
186.574	29.6
186.795	14.02
187.016	7.13
187.237	1.29
187.458	-21.52
187.679	-43.69
187.9	-20.1
188.121	-11.79
188.342	19.2
188.563	25.5
188.784	19.92
189.005	43.15
189.226	29.19
189.447	19.72
189.667	21.6
189.888	25.95
190.109	32.95
190.33	44.29
190.551	25.07
190.772	25.91
190.993	32.23
191.214	30.6
191.434	32.26
191.655	30.22
191.876	25.94
192.097	33.12
192.318	45.33
192.538	55.31
192.759	61.73
192.98	43.52
193.201	48.03
193.421	45.95
193.642	41.7
193.863	23.91
194.083	3.23
194.304	-16.78
194.525	18.44
194.745	10.62
194.966	11.89
195.187	16.76
195.407	24.28
195.628	18.01
195.848	23.64
196.069	8.43
196.29	-1.54
196.51	-11.44
196.731	-1.39
196.951	-1.08
197.172	6.2
197.392	16.36
197.613	20.33
197.833	28.57
198.054	27.68
198.274	8.2
198.495	0.69
198.715	-4.42
198.936	-20.07
199.156	-18.1
199.377	-11.48
199.597	-7.14
199.817	3.94
200.038	16.5
200.258	23.82
200.479	27.86
200.699	26.9
200.919	18.07
201.14	18.53
201.36	18.87
201.58	20.81
201.801	10.53
202.021	18.17
202.241	26.84
202.461	24.61
202.682	22.78
202.902	29.98
203.122	27.66
203.342	36.33
203.563	37.43
203.783	34.78
204.003	40.84
204.223	42.48
204.443	34.09
204.663	34.07
204.884	23.98
205.104	18.68
205.324	24.7
205.544	25.83
205.764	18.94
205.984	32.45
206.204	20.94
206.424	34.68
206.644	30.48
206.864	24.91
207.084	32.03
207.304	32.11
207.525	26.15
207.745	45.79
207.964	46.06
208.184	46.16
208.404	37.06
208.624	16.55
208.844	13.07
209.064	12.73
209.284	11.47
209.504	-3.11
209.724	-38.62
209.944	-48.15
210.164	-27.08
210.384	-26.4
210.604	-42.73
210.823	-33.24
211.043	-25.08
211.263	7.05
211.483	14.45
211.703	9.74
211.922	19.14
212.142	23.89
212.362	28.26
212.582	33.83
212.801	29.79
213.021	28.17
213.241	31.93
213.461	29.09
213.68	32.43
213.9	17.67
214.12	11.18
214.339	8.19
214.559	4.19
214.779	10.44
214.998	19.05
215.218	17.54
215.438	24.86
215.657	25.93
215.877	26.6
216.096	28.07
216.316	20.43
216.535	9.69
216.755	-11.54
216.974	-13.39
217.194	-17.18
217.413	-12.65
217.633	4.19
217.852	-2.85
218.072	-7.71
218.291	24.72
218.511	21.57
218.73	21.12
218.95	31
219.169	30.83
219.389	32.06
219.608	35.45
219.827	26.31
220.047	40.16
220.266	39.16
220.485	24.29
220.705	12.66
220.924	21.96
221.143	25.03
221.363	29.29
221.582	24.13
221.801	25.75
222.021	29.73
222.24	40.66
222.459	32.56
222.678	26.42
222.897	21.91
223.117	22.48
223.336	25.21
223.555	27.56
223.774	33.66
223.993	41.66
224.213	38.29
224.432	57.52
224.651	51.18
224.87	42.8
225.089	54.93
225.308	44.45
225.527	44.33
225.746	39.47
225.965	21.46
226.184	26.25
226.404	29.35
226.623	18.82
226.842	20.37
227.061	12.07
227.28	18.58
227.499	25.99
227.718	20.64
227.936	21.4
228.155	24
228.374	22.48
228.593	27.86
228.812	29.75
229.031	24.28
229.25	30.4
229.469	37.07
229.688	32.18
229.907	34.31
230.125	30.83
230.344	32.94
230.563	41.44
230.782	37.15
231.001	29.69
231.22	26.2
231.438	29.54
231.657	32.92
231.876	22.44
232.095	21.41
232.313	29.58
232.532	20.32
232.751	14.91
232.969	12.17
233.188	9.84
233.407	21.34
233.625	15.47
233.844	10.48
234.063	17.08
234.281	17.67
234.5	17.88
234.719	11.08
234.937	6.94
235.156	0.55
235.374	-10.23
235.593	-3.9
235.811	-4.37
236.03	-19.04
236.249	-4.6
236.467	-3.38
236.686	-2.05
236.904	2.25
237.123	-5.36
237.341	-7.05
237.559	-0.99
237.778	3.16
237.996	1.5
238.215	4.72
238.433	13.39
238.652	22.04
238.87	32.07
239.088	29.16
239.307	25.75
239.525	27.11
239.743	18.86
239.962	15.84
240.18	27.28
240.398	27.73
240.617	36.15
240.835	36.31
241.053	37.54
241.271	54.2
241.49	46.73
241.708	37.13
241.926	24.22
242.144	13.83
242.363	6.16
242.581	6.7
242.799	-8.23
243.017	2.79
243.235	-8.48
243.453	-6.81
243.672	-2.25
243.89	5.39
244.108	13.75
244.326	15.64
244.544	23.47
244.762	32.9
244.98	30.25
245.198	21.61
245.416	17.76
245.634	14.82
245.852	27.91
246.07	21.24
246.288	4.79
246.506	21.38
246.724	28.09
246.942	32.04
247.16	29.49
247.378	11.04
247.596	17.58
247.814	17.73
248.032	8.82
248.25	2.34
248.468	10.19
248.685	6.86
248.903	20.23
249.121	15.83
249.339	21.22
249.557	24.69
249.775	18.33
249.992	14.03
250.21	10.42
250.428	-1.13
250.646	-0.38
250.863	4.03
251.081	2.91
251.299	26.35
251.517	30.58
251.734	38.25
251.952	53.24
252.17	48.63
252.387	48.7
252.605	51.73
252.823	41.01
253.04	27.62
253.258	27.94
253.475	14
253.693	26.88
253.911	15.16
254.128	20.39
254.346	20.17
254.563	25.72
254.781	21.72
254.998	26.5
255.216	23.32
255.433	21.85
255.651	13.85
255.868	15.53
256.086	5.29
256.303	4.11
256.521	-11.99
256.738	-12.03
256.956	-13.85
257.173	-2.43
257.39	2.05
257.608	11.95
257.825	10.81
258.043	26.04
258.26	28.64
258.477	39.21
258.695	35.02
258.912	35.06
259.129	28.49
259.346	34.6
259.564	26.35
259.781	27.57
259.998	22.8
260.216	21.77
260.433	20.87
260.65	20.15
260.867	6.09
261.084	10.56
261.302	-4.35
261.519	-10.8
261.736	-3.06
261.953	-14.75
262.17	-1.53
262.387	8.06
262.604	-2.3
262.822	13.57
263.039	24.22
263.256	17.69
263.473	22.41
263.69	13.85
263.907	7.91
264.124	10.06
264.341	13.71
264.558	9.53
264.775	11.68
264.992	14.84
265.209	28.48
265.426	31.27
265.643	31.74
265.86	26.79
266.077	28.49
266.294	32.01
266.51	35.02
266.727	17.97
266.944	13.94
267.161	11.69
267.378	-1
267.595	-6.3
267.812	-8.78
268.028	-5.33
268.245	12.82
268.462	19.64
268.679	17.87
268.896	17.98
269.112	27.02
269.329	33.24
269.546	27.51
269.763	26.32
269.979	17.68
270.196	27.38
270.413	25.22
270.629	22.62
270.846	22.3
271.063	21.57
271.279	15.44
271.496	16.72
271.712	4.6
271.929	14.01
272.146	9.03
272.362	-2.67
272.579	1.09
272.795	2.03
273.012	7.3
273.228	16.47
273.445	13.97
273.661	15.35
273.878	17.97
274.094	19.94
274.311	14.44
274.527	8.74
274.744	0.68
274.96	-0.1
275.177	1.5
275.393	-3.44
275.609	-4.95
275.826	3.4
276.042	7.27
276.259	19.93
276.475	16.32
276.691	13.19
276.908	11.83
277.124	14.27
277.34	10.45
277.557	15.19
277.773	7.02
277.989	7.6
278.205	1.65
278.422	10.03
278.638	13.38
278.854	25.57
279.07	20.03
279.286	18.74
279.503	18.59
279.719	28.66
279.935	20.28
280.151	22.08
280.367	8.69
280.583	8
280.799	17.65
281.016	21.93
281.232	18.14
281.448	15.89
281.664	14.17
281.88	27.7
282.096	33.01
282.312	21.99
282.528	4.7
282.744	-12.31
282.96	-1.02
283.176	-11.33
283.392	-11
283.608	-10.03
283.824	-2.71
284.04	16.35
284.256	25.76
284.471	31.39
284.687	36.04
284.903	31.77
285.119	26.9
285.335	24.65
285.551	33.86
285.767	37.21
285.982	25.88
286.198	22.89
286.414	24.89
286.63	28.37
286.846	28.8
287.061	27.01
287.277	29.26
287.493	38.15
287.709	36.93
287.924	25.42
288.14	23.65
288.356	29.37
288.571	22.89
288.787	24.63
289.003	26.03
289.218	33.24
289.434	33.96
289.65	37.93
289.865	36.74
290.081	34.89
290.296	30.65
290.512	26.88
290.727	32.86
290.943	32.04
291.159	19.55
291.374	21.3
291.59	27.23
291.805	28.71
292.021	20.55
292.236	5.33
292.451	13.37
292.667	18.7
292.882	2.46
293.098	-13.9
293.313	-16.99
293.529	-6.24
293.744	-10.47
293.959	-5.6
294.175	-1.1
294.39	15.4
294.605	23.01
294.821	24.22
295.036	24.54
295.251	32.54
295.467	26.88
295.682	28.18
295.897	24.07
296.112	20.87
296.328	25.68
296.543	21.65
296.758	21.26
296.973	29.35
297.188	17.59
297.404	17.7
297.619	18.22
297.834	21.52
298.049	21.68
298.264	17.93
298.479	-1.4
298.694	9.09
298.909	8.37
299.125	16.85
299.34	6.79
299.555	11.12
299.77	17.03
299.985	28.34
300.2	29.67
300.415	31.97
300.63	25.53
300.845	35.1
301.06	28.65
301.275	29.72
301.49	28.35
301.704	23.41
301.919	16.71
302.134	14.78
302.349	8.32
302.564	4.31
302.779	0.79
302.994	0.45
303.209	0.19
303.423	13.53
303.638	25.17
303.853	35.29
304.068	35.65
304.283	37.53
304.497	32.56
304.712	24.47
304.927	17.44
305.142	11.1
305.356	5.99
305.571	13.77
305.786	5.85
306	17.18
306.215	28.18
306.43	27.22
306.644	31.53
306.859	29.92
307.074	25.88
307.288	38.14
307.503	28.74
307.717	25.24
307.932	34.38
308.147	35.79
308.361	42.93
308.576	43.4
308.79	37.49
309.005	40.41
309.219	41.4
309.434	33.98
309.648	29.48
309.863	19.79
310.077	16.06
310.292	15.71
310.506	22.93
310.72	18.88
310.935	17.8
311.149	25.88
311.364	23.3
311.578	22.06
311.792	15.82
312.007	11.41
312.221	10.54
312.435	13.71
312.649	-6.76
312.864	-10.99
313.078	-6.66
313.292	12.42
313.507	9.86
313.721	14.41
313.935	12.1
314.149	21.99
314.363	33.74
314.578	42.68
314.792	30.62
315.006	26.26
315.22	40.12
315.434	37.51
315.648	35.19
315.862	24.41
316.077	16.94
316.291	21.62
316.505	25.03
316.719	5.84
316.933	10.9
317.147	20.74
317.361	32.3
317.575	28.1
317.789	24.4
318.003	29.56
318.217	24.48
318.431	20.89
318.645	24.17
318.859	13.77
319.073	19.02
319.287	24.23
319.5	21.63
319.714	27.16
319.928	31.44
320.142	24.05
320.356	33.43
320.57	30.97
320.784	26.99
320.997	29.49
321.211	33.59
321.425	31.59
321.639	30.44
321.853	19.51
322.066	17.4
322.28	15.63
322.494	10.01
322.707	6.47
322.921	8.96
323.135	12.88
323.349	19.62
323.562	20.23
323.776	21.08
323.989	20.6
324.203	28.17
324.417	19.78
324.63	17.53
324.844	10.79
325.057	17.85
325.271	7.51
325.485	11.93
325.698	3.81
325.912	14.12
326.125	2.38
326.339	6.63
326.552	6.13
326.766	20.16
326.979	18.06
327.193	11.48
327.406	2.4
327.619	-1.08
327.833	5.42
328.046	5.28
328.26	-4.28
328.473	-4.87
328.686	3.37
328.9	1.03
329.113	11.63
329.326	14.03
329.54	13.9
329.753	23.75
329.966	22.85
330.179	23.02
330.393	22.75
330.606	23.82
330.819	24.09
331.032	20.8
331.246	19.58
331.459	23.48
331.672	23.69
331.885	25.83
332.098	26.46
332.311	16.61
332.525	25.27
332.738	14.42
332.951	7.28
333.164	5.63
333.377	-4.56
333.59	5.02
333.803	12.59
334.016	1.77
334.229	0.68
334.442	14.41
334.655	17.05
334.868	25.96
335.081	24.66
335.294	16.24
335.507	27.12
335.72	27.15
335.933	27.36
336.146	29.09
336.359	29.63
336.572	21.58
336.785	29.48
336.997	23.93
337.21	28.34
337.423	23.49
337.636	18.75
337.849	15.27
338.062	19.48
338.274	25.75
338.487	23.79
338.7	29.71
338.913	32.24
339.125	32.16
339.338	38.65
339.551	33.71
339.763	27.03
339.976	23.17
340.189	18.42
340.402	19.01
340.614	22.44
340.827	7.6
341.039	9.8
341.252	11.54
341.465	7.5
341.677	3.08
341.89	2.44
342.102	7.04
342.315	14.34
342.527	15.43
342.74	9.29
342.952	11.1
343.165	25.58
343.377	31.63
343.59	20.28
343.802	31.1
344.015	27.45
344.227	29
344.44	31.09
344.652	22.65
344.864	20.81
345.077	25.62
345.289	22.97
345.502	34.43
345.714	28.25
345.926	32.21
346.139	27.34
346.351	18.46
346.563	22.02
346.775	14.51
346.988	9.6
347.2	13.26
347.412	13.43
347.624	23.85
347.837	24.24
348.049	16.35
348.261	15.54
348.473	9.53
348.685	11.5
348.897	10.79
349.11	0.59
349.322	3.95
349.534	10.46
349.746	22.96
349.958	26.2
350.17	30.48
350.382	27.05
350.594	25.57
350.806	23.48
351.018	29.43
351.23	29.1
351.442	29.71
351.654	29.41
351.866	38.1
352.078	38.44
352.29	39.94
352.502	35.14
352.714	30.32
352.926	24.97
353.138	28.35
353.35	13.92
353.561	19.28
353.773	20.45
353.985	24.55
354.197	20.31
354.409	27.7
354.621	24.43
354.832	21.42
355.044	23.56
355.256	16.71
355.468	6.08
355.679	16.5
355.891	17.87
356.103	16.52
356.314	13.51
356.526	8.26
356.738	1.68
356.949	15.54
357.161	5.46
357.373	0.85
357.584	-3.21
357.796	4.92
358.008	5.15
358.219	20.32
358.431	6.29
358.642	12.66
358.854	9.82
359.065	15.62
359.277	19.04
359.488	16.19
359.7	15.9
359.911	21.83
360.123	20.29
360.334	20.48
360.546	14.02
360.757	21.24
360.969	27.93
361.18	23.36
361.391	23.89
361.603	22.83
361.814	24.23
362.025	26.99
362.237	22.91
362.448	20.36
362.659	5.11
362.871	4.43
363.082	7.85
363.293	12.41
363.504	12.15
363.716	12.56
363.927	12.65
364.138	24.89
364.349	26.52
364.56	24.42
364.772	21.34
364.983	22.27
365.194	14.92
365.405	15.03
365.616	8.58
365.827	-1.24
366.038	5.34
366.25	10.84
366.461	11.92
366.672	17.85
366.883	22.48
367.094	29.57
367.305	32.37
367.516	25.29
367.727	19.17
367.938	21.49
368.149	21.35
368.36	18.5
368.571	18.9
368.781	20.32
368.992	21.7
369.203	27.94
369.414	13.48
369.625	10.94
369.836	15.76
370.047	9.88
370.258	6.03
370.468	10.9
370.679	4.76
370.89	11.89
371.101	13.62
371.312	2.03
371.522	4.96
371.733	1.7
371.944	6.29
372.155	-1.37
372.365	0.82
372.576	4.54
372.787	5.61
372.997	3.51
373.208	8.86
373.419	-0.53
373.629	8.49
373.84	12.57
374.05	13.06
374.261	22.47
374.472	23.69
374.682	23.61
374.893	26.21
375.103	34.11
375.314	28.29
375.524	25.52
375.735	18.01
375.945	18.85
376.156	24.19
376.366	23.67
376.577	20.24
376.787	25.56
376.997	23.57
377.208	25.24
377.418	23.73
377.629	18.36
377.839	22.74
378.049	26.28
378.26	23.06
378.47	22.94
378.68	20.28
378.89	18.2
379.101	15.74
379.311	8.9
379.521	6.48
379.732	4.19
379.942	7.95
380.152	17.42
380.362	22
380.572	24.11
380.783	22.12
380.993	13.92
381.203	12.09
381.413	16.56
381.623	12.73
381.833	9.5
382.043	7.61
382.253	12.75
382.463	17.36
382.674	21.88
382.884	10.2
383.094	10.23
383.304	5.59
383.514	10.73
383.724	9.25
383.934	8.86
384.144	6.85
384.353	12.47
384.563	8.93
384.773	13.86
384.983	13.89
385.193	16.87
385.403	15.33
385.613	13.97
385.823	14.59
386.033	16.77
386.242	16.39
386.452	14.98
386.662	12.09
386.872	10.93
387.082	15.71
387.291	10.42
387.501	12.77
387.711	11.25
387.921	10.05
388.13	9.76
388.34	8.51
388.55	6.24
388.759	8.99
388.969	4.92
389.179	7.72
389.388	7.38
389.598	6.19
389.807	7.83
390.017	6.1
390.227	4.79
390.436	4.98
390.646	3.66
390.855	5.43
391.065	6.28
391.274	6.18
391.484	7.5
391.693	8.22
391.903	7.36
392.112	7.09
392.322	5.93
392.531	5.91
392.74	5.46
392.95	5.59
393.159	6.48
393.369	7.79
393.578	7.55
393.787	7.3
393.997	7.45
394.206	7.41
394.415	6.95
394.625	4.65
394.834	3.61
395.043	3.73
395.252	3.59
395.462	3.39
395.671	4.08
395.88	4.09
396.089	4.81
396.298	5.3
396.508	4.67
396.717	4.44
396.926	4.19
397.135	3.56
397.344	3.32
397.553	3.66
397.762	3.47
397.971	3.54
398.181	3.51
398.39	4.25
398.599	4.56
398.808	4.74
399.017	4.44
399.226	4.54
399.435	4.72
399.644	4.46
399.853	4.14
400.062	4.07
400.27	3.92
400.479	4.02
400.688	4.19
400.897	4.4
401.106	4.59
401.315	4.48
401.524	4.4
401.733	4.56
401.941	4.54
402.15	4.22
402.359	3.95
402.568	3.85
402.777	3.84
402.985	3.74
403.194	3.55
403.403	3.44
403.612	3.51
403.82	3.66
404.029	3.74
404.238	3.82
404.446	3.82
404.655	3.77
404.864	3.77
405.072	3.68
405.281	3.6
405.489	3.65
405.698	3.48
405.906	3.46
406.115	3.53
406.324	3.44
406.532	3.46
406.741	3.44
406.949	3.29
407.158	3.38
407.366	3.48
407.574	3.37
407.783	3.33
407.991	3.32
408.2	3.25
408.408	3.28
408.617	3.21
408.825	3.15
409.033	3.19
409.242	3.18
409.45	3.15
409.658	3.17
409.867	3.18
410.075	3.17
410.283	3.13
410.491	3.13
410.7	3.2
410.908	3.19
411.116	3.14
411.324	3.17
411.533	3.12
411.741	3.11
411.949	3.13
412.157	3.09
412.365	3.08
412.573	3.13
412.781	3.07
412.99	3.16
413.198	3.12
413.406	3.07
413.614	3.09
413.822	3.11
414.03	3.03
414.238	3.06
414.446	2.98
414.654	3.02
414.862	3.03
415.07	3.05
415.278	3
415.486	3.08
415.694	2.99
415.902	2.96
416.109	2.97
416.317	2.91
416.525	2.85
416.733	2.9
416.941	2.83
417.149	2.95
417.357	2.99
417.564	2.95
417.772	2.97
417.98	3
418.188	2.89
418.395	2.88
418.603	2.76
418.811	2.68
419.019	2.65
419.226	2.71
419.434	2.62
419.642	2.59
419.849	2.61
420.057	2.6
420.265	2.66
420.472	2.68
420.68	2.67
420.887	2.7
421.095	2.84
421.302	2.84
421.51	2.94
421.717	2.98
421.925	2.91
422.132	2.86
422.34	2.83
422.547	2.71
422.755	2.73
422.962	2.59
423.17	2.45
423.377	2.53
423.585	2.56
423.792	2.56
423.999	2.56
424.207	2.44
424.414	2.57
424.621	2.68
424.829	2.6
425.036	2.5
425.243	2.59
425.451	2.61
425.658	2.69
425.865	2.61
426.072	2.65
426.28	2.73
426.487	2.69
426.694	2.64
426.901	2.59
427.108	2.54
427.315	2.52
427.523	2.36
427.73	2.35
427.937	2.47
428.144	2.44
428.351	2.6
428.558	2.56
428.765	2.53
428.972	2.59
429.179	2.53
429.386	2.57
429.593	2.6
429.8	2.56
430.007	2.62
430.214	2.78
430.421	2.77
430.628	2.72
430.835	2.66
431.042	2.66
431.249	2.6
431.456	2.61
431.662	2.49
431.869	2.53
432.076	2.61
432.283	2.52
432.49	2.48
432.697	2.46
432.903	2.49
433.11	2.56
433.317	2.56
433.524	2.53
433.73	2.6
433.937	2.6
434.144	2.76
434.35	2.79
434.557	2.75
434.764	2.74
434.97	2.82
435.177	2.85
435.384	2.97
435.59	2.87
435.797	2.89
436.003	2.91
436.21	2.88
436.416	2.86
436.623	2.94
436.829	2.9
437.036	2.92
437.242	2.94
437.449	2.98
437.655	3.07
437.862	3.07
438.068	3.03
438.275	3
438.481	3.07
438.687	3.1
438.894	3.07
439.1	3.08
439.307	3.05
439.513	3.03
439.719	3.09
439.926	3.05
440.132	3
440.338	3.08
440.544	3.04
440.751	3.1
440.957	3.1
441.163	3.16
441.369	3.17
441.575	3.22
441.782	3.18
441.988	3.21
442.194	3.28
442.4	3.32
442.606	3.31
442.812	3.33
443.018	3.3
443.224	3.34
443.431	3.37
443.637	3.34
443.843	3.36
444.049	3.32
444.255	3.33
444.461	3.38
444.667	3.39
444.873	3.38
445.079	3.41
445.284	3.44
445.49	3.47
445.696	3.5
445.902	3.53
446.108	3.58
446.314	3.63
446.52	3.63
446.726	3.62
446.931	3.64
447.137	3.67
447.343	3.67
447.549	3.59
447.755	3.56
447.96	3.56
448.166	3.59
448.372	3.54
448.578	3.55
448.783	3.47
448.989	3.53
449.195	3.55
449.4	3.58
449.606	3.57
449.812	3.65
450.017	3.64
450.223	3.75
450.428	3.74
450.634	3.75
450.84	3.77
451.045	3.75
451.251	3.78
451.456	3.79
451.662	3.75
451.867	3.77
452.073	3.76
452.278	3.69
452.483	3.71
452.689	3.67
452.894	3.66
453.1	3.66
453.305	3.65
453.51	3.68
453.716	3.72
453.921	3.74
454.127	3.74
454.332	3.74
454.537	3.8
454.742	3.76
454.948	3.78
455.153	3.8
455.358	3.83
455.563	3.83
455.769	3.82
455.974	3.75
456.179	3.76
456.384	3.71
456.589	3.77
456.795	3.76
457	3.76
457.205	3.73
457.41	3.81
457.615	3.93
457.82	3.99
458.025	3.95
458.23	3.95
458.435	3.99
458.64	4.07
458.845	4.02
459.05	3.96
459.255	3.94
459.46	3.93
459.665	3.95
459.87	3.94
460.075	3.97
460.28	3.97
460.485	4.02
460.69	3.98
460.895	4.03
461.099	4.01
461.304	4
461.509	3.94
461.714	3.98
461.919	3.95
462.123	3.95
462.328	3.91
462.533	3.91
462.738	3.9
462.942	3.99
463.147	3.97
463.352	3.99
463.556	4.03
463.761	4.03
463.966	4.08
464.17	4.1
464.375	4.09
464.58	4.1
464.784	4.12
464.989	4.15
465.193	4.2
465.398	4.2
465.602	4.24
465.807	4.24
466.011	4.25
466.216	4.27
466.42	4.31
466.625	4.34
466.829	4.38
467.034	4.42
467.238	4.48
467.443	4.55
467.647	4.54
467.851	4.59
468.056	4.6
468.26	4.62
468.464	4.63
468.669	4.6
468.873	4.59
469.077	4.62
469.282	4.64
469.486	4.66
469.69	4.67
469.894	4.69
