Data from Ofra_PS_T2_1A_0GT14_Reflection_3.txt Node
Date: Wed Jul 21 17:44:55 EDT 2021
User: Adam
Spectrometer: FLMT01687
Trigger mode: 0
Integration Time (sec): 1.100000E0
Scans to average: 2
Electric dark correction enabled: true
Nonlinearity correction enabled: false
Boxcar width: 2
XAxis mode: Wavelengths
Number of Pixels in Spectrum: 3648
>>>>>Begin Spectral Data<<<<<
179.494	629.2
179.716	693.65
179.937	629.54
180.158	587.87
180.38	854.69
180.601	173.76
180.823	19.05
181.044	-185.07
181.265	26.1
181.486	69.84
181.708	123.21
181.929	1064.29
182.15	-582.39
182.372	117.74
182.593	27.35
182.814	34.17
183.035	78.87
183.257	45.36
183.478	-56.06
183.699	25.52
183.92	-6.02
184.141	18.31
184.363	-38.8
184.584	25.38
184.805	44.4
185.026	62.84
185.247	61.78
185.468	54.81
185.689	59.63
185.91	55.17
186.132	49.4
186.353	35.63
186.574	85.19
186.795	61.08
187.016	8.18
187.237	5.09
187.458	-36.57
187.679	-41.12
187.9	-16.9
188.121	2.83
188.342	20.34
188.563	82.67
188.784	141.11
189.005	148.57
189.226	179.14
189.447	157.27
189.667	150.24
189.888	-227.34
190.109	-1238.31
190.33	-754.52
190.551	-1382.74
190.772	-312.23
190.993	-285.56
191.214	-250.11
191.434	-154.5
191.655	-55.52
191.876	-135.79
192.097	-144.67
192.318	-215.06
192.538	-349.12
192.759	-240.21
192.98	-117.6
193.201	-44.75
193.421	-15.38
193.642	22.91
193.863	41.48
194.083	30.07
194.304	6.64
194.525	13.86
194.745	-5.8
194.966	-25.8
195.187	-40.81
195.407	-65.6
195.628	-150.59
195.848	-151.25
196.069	-173.37
196.29	-105.29
196.51	-129.42
196.731	-101.85
196.951	-133.68
197.172	-117.67
197.392	-191.41
197.613	-151.45
197.833	-187.71
198.054	-134.5
198.274	-89.51
198.495	-91.74
198.715	-66.15
198.936	-81.3
199.156	-83.23
199.377	-218.77
199.597	-181.17
199.817	-183.6
200.038	-87.5
200.258	-144.17
200.479	-32.91
200.699	-25.35
200.919	24.81
201.14	-18.65
201.36	-0.98
201.58	18.37
201.801	40.3
202.021	9.34
202.241	7.05
202.461	-13.66
202.682	-86.92
202.902	-165.49
203.122	-106.96
203.342	-84.72
203.563	-27
203.783	-8.8
204.003	-44.71
204.223	-41.52
204.443	42.43
204.663	5.27
204.884	25.55
205.104	87.17
205.324	116.89
205.544	87.17
205.764	94.79
205.984	76.04
206.204	51.91
206.424	44.68
206.644	7
206.864	3.21
207.084	-22.63
207.304	27.63
207.525	-76.72
207.745	-4.41
207.964	49.01
208.184	-18.35
208.404	-79.62
208.624	-82.05
208.844	-96.23
209.064	-446.43
209.284	-439.77
209.504	-221.67
209.724	-76
209.944	-42.68
210.164	0.92
210.384	14.05
210.604	17.29
210.823	-17.73
211.043	-44.55
211.263	-39.6
211.483	-38.11
211.703	-94.14
211.922	-81.62
212.142	-17.42
212.362	-13.22
212.582	-37.71
212.801	-28.11
213.021	-63.47
213.241	-90.44
213.461	-126.93
213.68	-129.71
213.9	-111.8
214.12	-52.96
214.339	-111.62
214.559	-49.86
214.779	6.71
214.998	2.73
215.218	-21.04
215.438	-1.96
215.657	-35.44
215.877	-52.8
216.096	-8.12
216.316	4.36
216.535	4.49
216.755	11.87
216.974	-56.97
217.194	-119.82
217.413	-151.48
217.633	-152.17
217.852	-278.02
218.072	-120.31
218.291	-50.68
218.511	14.54
218.73	-11.01
218.95	-7.29
219.169	-14.18
219.389	-70.69
219.608	-69.48
219.827	-57.25
220.047	-44.76
220.266	-41.94
220.485	-40.23
220.705	-37.19
220.924	-59
221.143	-3.04
221.363	-21.35
221.582	-14.78
221.801	-13.13
222.021	11.73
222.24	-105.52
222.459	-44.84
222.678	-56.65
222.897	-132.83
223.117	-180.32
223.336	-137.1
223.555	-91.81
223.774	-23.81
223.993	-11.46
224.213	57.31
224.432	34.02
224.651	36.16
224.87	-0.39
225.089	19.63
225.308	0.73
225.527	18.61
225.746	9.82
225.965	6.46
226.184	-25.47
226.404	-9.79
226.623	-25.41
226.842	-11.13
227.061	22.84
227.28	29.1
227.499	21.88
227.718	35.15
227.936	25.56
228.155	33.26
228.374	34.12
228.593	40.32
228.812	16.61
229.031	0.66
229.25	-81.06
229.469	-104.63
229.688	-92.84
229.907	-25.55
230.125	-5.73
230.344	23.21
230.563	59.57
230.782	59.41
231.001	-24.78
231.22	-13.26
231.438	8.27
231.657	-9.75
231.876	-31.72
232.095	27.24
232.313	24.24
232.532	22.76
232.751	4.39
232.969	1.54
233.188	-61.02
233.407	-11.1
233.625	-21.02
233.844	-47.23
234.063	-22.6
234.281	7.13
234.5	-4
234.719	10.81
234.937	29.23
235.156	15.42
235.374	22.75
235.593	13.77
235.811	12.58
236.03	-14.01
236.249	-32.56
236.467	-30.42
236.686	-1.99
236.904	1.14
237.123	-17.66
237.341	-10.23
237.559	-12.93
237.778	-23.06
237.996	-46.4
238.215	17.98
238.433	18.22
238.652	14.03
238.87	-14.6
239.088	12.54
239.307	4.32
239.525	0.5
239.743	-14.07
239.962	5.73
240.18	-34.54
240.398	-92.79
240.617	-111.91
240.835	-101.22
241.053	-78.31
241.271	-18.34
241.49	3.08
241.708	13.42
241.926	23.56
242.144	37.44
242.363	-31.21
242.581	-44.48
242.799	-15.37
243.017	4.65
243.235	-19.11
243.453	-2.63
243.672	-0.85
243.89	-14.77
244.108	-31.55
244.326	-12.4
244.544	-12.95
244.762	-5.25
244.98	14.15
245.198	15.19
245.416	-20.2
245.634	-16.85
245.852	-15.8
246.07	-43.74
246.288	-39.44
246.506	-64.7
246.724	-60.52
246.942	-63.7
247.16	-7.03
247.378	-6.63
247.596	17.34
247.814	8.85
248.032	-8.02
248.25	-5.6
248.468	7.25
248.685	18
248.903	54.45
249.121	57.89
249.339	21.36
249.557	7.81
249.775	9.83
249.992	-86.64
250.21	-93.37
250.428	-62.08
250.646	-94.69
250.863	-114.42
251.081	-52.16
251.299	-36.28
251.517	-36.79
251.734	-9.81
251.952	-13.41
252.17	-8.64
252.387	-1.25
252.605	-18.32
252.823	-15.41
253.04	0.32
253.258	12.95
253.475	15.6
253.693	46.02
253.911	40.55
254.128	43.26
254.346	29.32
254.563	-14.47
254.781	-52.5
254.998	-67.01
255.216	-72.79
255.433	-54.03
255.651	5.64
255.868	58.84
256.086	77.98
256.303	61.23
256.521	40.96
256.738	17.55
256.956	-25.08
257.173	-61.48
257.39	-67.04
257.608	-91.51
257.825	-32.49
258.043	20.68
258.26	27.27
258.477	65.67
258.695	48.02
258.912	15.03
259.129	11.51
259.346	-33.92
259.564	-73.92
259.781	-47.55
259.998	1.14
260.216	18.86
260.433	62.35
260.65	62.21
260.867	59.36
261.084	23.83
261.302	-3.54
261.519	-5.25
261.736	-42.14
261.953	-54.99
262.17	-17.94
262.387	-22.11
262.604	-50.91
262.822	-59.11
263.039	-47.42
263.256	-94.39
263.473	-82.15
263.69	-55.06
263.907	-11.86
264.124	-3.7
264.341	-0.33
264.558	8.1
264.775	21.32
264.992	24.64
265.209	34.68
265.426	49.6
265.643	51.49
265.86	55.46
266.077	58.44
266.294	23.5
266.51	-9.08
266.727	-44.68
266.944	-41.18
267.161	-69.02
267.378	-53.71
267.595	-22.03
267.812	-28.41
268.028	-43.42
268.245	-1.77
268.462	-26.06
268.679	-39.09
268.896	13.68
269.112	11.47
269.329	8.38
269.546	15.05
269.763	5.48
269.979	-9.39
270.196	-17.7
270.413	-58.08
270.629	-79.98
270.846	-79.73
271.063	-87.32
271.279	-97.11
271.496	-63.26
271.712	-32.85
271.929	-11.49
272.146	-16.19
272.362	4.68
272.579	55.7
272.795	48.61
273.012	46.17
273.228	42.15
273.445	15.11
273.661	-63.97
273.878	-101.71
274.094	-93.01
274.311	-132.06
274.527	-45.85
274.744	-38.78
274.96	-16.88
275.177	-2.61
275.393	20.71
275.609	15.5
275.826	31.95
276.042	25.04
276.259	4.55
276.475	22.24
276.691	11.5
276.908	-11.39
277.124	7.03
277.34	-6.16
277.557	-16.36
277.773	-22.1
277.989	-8.58
278.205	-24.49
278.422	7.34
278.638	4.1
278.854	43.03
279.07	23.83
279.286	24.03
279.503	-7.56
279.719	-1.55
279.935	-51
280.151	-48.65
280.367	-31.37
280.583	-46.9
280.799	-42.85
281.016	-61.68
281.232	-15.49
281.448	-18.36
281.664	14.81
281.88	-9.46
282.096	22.95
282.312	47.7
282.528	79.91
282.744	79.75
282.96	75.14
283.176	46.45
283.392	24.13
283.608	0.9
283.824	-3.99
284.04	1.5
284.256	8.7
284.471	-3.79
284.687	3.26
284.903	22.39
285.119	37.9
285.335	5.83
285.551	37.68
285.767	14.48
285.982	-18.8
286.198	-67.9
286.414	3.27
286.63	-2.8
286.846	26.16
287.061	12.81
287.277	48.57
287.493	15.18
287.709	34.61
287.924	13.22
288.14	58
288.356	54.56
288.571	74.84
288.787	34.79
289.003	29.63
289.218	8.31
289.434	-23.86
289.65	-28.92
289.865	-19.12
290.081	11.72
290.296	18.07
290.512	16.07
290.727	-11.28
290.943	-19.5
291.159	-27.82
291.374	-34.94
291.59	-51.47
291.805	-36.96
292.021	-22.07
292.236	-35.56
292.451	-14.45
292.667	-3.38
292.882	11.98
293.098	-0.53
293.313	-2.52
293.529	-32.85
293.744	-39.19
293.959	-49.06
294.175	-41.12
294.39	3.35
294.605	18.53
294.821	44.34
295.036	52.39
295.251	60.02
295.467	11.42
295.682	6.9
295.897	-67.2
296.112	-69.18
296.328	-56.55
296.543	-51.19
296.758	-50.12
296.973	10.2
297.188	24.23
297.404	-0.97
297.619	-7.03
297.834	-18.75
298.049	-41.54
298.264	-66.4
298.479	-18.03
298.694	-7.31
298.909	12.53
299.125	26.34
299.34	34.05
299.555	19.3
299.77	41.84
299.985	-5.14
300.2	-60.88
300.415	-72.37
300.63	-30.61
300.845	-50.33
301.06	-57.01
301.275	-16.14
301.49	8.1
301.704	-8.73
301.919	-24.17
302.134	-5.97
302.349	-6
302.564	-72.83
302.779	-78.79
302.994	-34.72
303.209	-56.1
303.423	-44.82
303.638	28.75
303.853	-5.94
304.068	-11.27
304.283	-2.62
304.497	-12.06
304.712	-27.28
304.927	-16
305.142	-14.7
305.356	-8.18
305.571	-20.86
305.786	-31.88
306	-48.45
306.215	-42.79
306.43	-67.23
306.644	-25.12
306.859	4.96
307.074	35.63
307.288	-12.09
307.503	-11.45
307.717	-27.69
307.932	-19.84
308.147	-34.49
308.361	-3.22
308.576	-8.39
308.79	-38.53
309.005	-53.16
309.219	-28.51
309.434	-51.2
309.648	-47.79
309.863	-20.11
310.077	0.38
310.292	-14.21
310.506	5.73
310.72	10.15
310.935	13.52
311.149	5.7
311.364	21.71
311.578	35.12
311.792	32.19
312.007	32.66
312.221	21.05
312.435	24.13
312.649	4.24
312.864	55.85
313.078	61.94
313.292	143.31
313.507	125.59
313.721	153.12
313.935	57.34
314.149	56.96
314.363	18.22
314.578	16.02
314.792	25.31
315.006	5.06
315.22	17.17
315.434	26.31
315.648	31.35
315.862	18.58
316.077	27.97
316.291	10.04
316.505	8.76
316.719	-8.72
316.933	-24.35
317.147	-6.75
317.361	-54.72
317.575	-94.11
317.789	-109.86
318.003	-171.91
318.217	-181.6
318.431	-78.61
318.645	4.69
318.859	-3.22
319.073	26.5
319.287	25.48
319.5	-5.94
319.714	-61.76
319.928	-75.87
320.142	-115.99
320.356	-60.28
320.57	-24.13
320.784	-26.99
320.997	-31.95
321.211	-14.55
321.425	-94.36
321.639	-126.31
321.853	-46.14
322.066	-35.31
322.28	-33.93
322.494	-6.3
322.707	23.9
322.921	-17.61
323.135	-9.73
323.349	1.01
323.562	-19.68
323.776	-34.45
323.989	-21.27
324.203	-49.11
324.417	-48.88
324.63	-68.49
324.844	-65.21
325.057	-56.7
325.271	-21.3
325.485	0.31
325.698	23.26
325.912	33.23
326.125	8.31
326.339	4.72
326.552	-18.83
326.766	-15.8
326.979	0.03
327.193	39.56
327.406	15.09
327.619	7.6
327.833	22.53
328.046	-9.08
328.26	-50.53
328.473	-11.14
328.686	-43.31
328.9	-50
329.113	-36.59
329.326	-59.31
329.54	-44.39
329.753	-22.36
329.966	-57.98
330.179	-48.91
330.393	-23.96
330.606	-24.03
330.819	-6.9
331.032	19.76
331.246	28.5
331.459	47.63
331.672	35.64
331.885	27.15
332.098	4.59
332.311	-21.66
332.525	-62.94
332.738	-21.01
332.951	13.99
333.164	35.66
333.377	51.48
333.59	64.72
333.803	47.73
334.016	29.25
334.229	17.87
334.442	24.71
334.655	36.6
334.868	35.79
335.081	32.18
335.294	19.82
335.507	13.71
335.72	-3.55
335.933	-7.31
336.146	-8.91
336.359	5.64
336.572	-33.12
336.785	-44.56
336.997	-29.43
337.21	-6.65
337.423	-20.19
337.636	-2.78
337.849	11.39
338.062	-2.99
338.274	6.86
338.487	-12.73
338.7	-3.59
338.913	-53.69
339.125	-70.27
339.338	-134.86
339.551	-65.27
339.763	-39.24
339.976	6.86
340.189	29.99
340.402	47.69
340.614	16.96
340.827	4.02
341.039	-18.44
341.252	-23.95
341.465	-18.48
341.677	-14.63
341.89	-42.55
342.102	-8.83
342.315	-30.83
342.527	-73.6
342.74	-64.91
342.952	-28.83
343.165	-29.72
343.377	-2.15
343.59	-1.25
343.802	22.53
344.015	23.63
344.227	28.54
344.44	26.1
344.652	36.64
344.864	16.73
345.077	24.35
345.289	21.73
345.502	24.37
345.714	20.63
345.926	25.83
346.139	11.97
346.351	23.69
346.563	28.4
346.775	28.37
346.988	11.37
347.2	-3.29
347.412	-58.03
347.624	-85.5
347.837	-108.6
348.049	-74.6
348.261	-13.5
348.473	1.89
348.685	-1.7
348.897	-1.37
349.11	-18.82
349.322	-49.31
349.534	-31.64
349.746	-20.33
349.958	-13.08
350.17	-27.38
350.382	-5.86
350.594	-11.76
350.806	-7.36
351.018	-2.37
351.23	-15.9
351.442	-54.37
351.654	-52.96
351.866	-54.55
352.078	-45.23
352.29	-9.2
352.502	8.72
352.714	18.34
352.926	4.65
353.138	3.25
353.35	-9.35
353.561	-22.71
353.773	-47.42
353.985	-20.18
354.197	-36.18
354.409	-31.46
354.621	-30.11
354.832	-15.01
355.044	-27.86
355.256	-20.26
355.468	-5.38
355.679	-7.31
355.891	3.93
356.103	-11.95
356.314	-12.84
356.526	-17.19
356.738	-19.11
356.949	-55.02
357.161	-26.1
357.373	-23.66
357.584	-37.87
357.796	-16.97
358.008	-7.68
358.219	9.22
358.431	15.93
358.642	27.67
358.854	27.08
359.065	10.32
359.277	-22.81
359.488	-29.13
359.7	-46.56
359.911	-62.91
360.123	-33.27
360.334	-37.74
360.546	-54.66
360.757	-59.4
360.969	-42.15
361.18	-16.54
361.391	-3.82
361.603	-6.8
361.814	6.64
362.025	-11.13
362.237	-37.98
362.448	-22.21
362.659	2.18
362.871	-3.82
363.082	8.43
363.293	10.76
363.504	-14.77
363.716	-41.08
363.927	-45.03
364.138	-76.97
364.349	-81.82
364.56	-62.55
364.772	-60.84
364.983	-26.95
365.194	-22.92
365.405	-9.64
365.616	8.3
365.827	17.36
366.038	-22.52
366.25	-25.19
366.461	-48.57
366.672	-24.05
366.883	-1.32
367.094	16.35
367.305	12.36
367.516	15.42
367.727	-25.02
367.938	-50.15
368.149	-55.38
368.36	-39.01
368.571	-29.34
368.781	-27.96
368.992	-36.05
369.203	-54.71
369.414	-82.68
369.625	-91.06
369.836	-90.04
370.047	-117.05
370.258	-91.25
370.468	-80.07
370.679	-100.91
370.89	-89.7
371.101	-62.49
371.312	-60.68
371.522	-43.85
371.733	-23.82
371.944	-6.27
372.155	3.49
372.365	-11.24
372.576	-19.57
372.787	-14.69
372.997	-48.99
373.208	-53.19
373.419	-6.46
373.629	-33.32
373.84	-36.85
374.05	-46.1
374.261	-16.2
374.472	-41.94
374.682	18.04
374.893	6.26
375.103	52.65
375.314	36.03
375.524	27.47
375.735	18.9
375.945	29.36
376.156	0.14
376.366	-1.81
376.577	8.47
376.787	-10.9
376.997	-7.66
377.208	-7.6
377.418	-15.21
377.629	-11.81
377.839	-3.01
378.049	-5.02
378.26	13.57
378.47	20.53
378.68	8.12
378.89	0.59
379.101	-3.48
379.311	-37.53
379.521	-58.6
379.732	-44.16
379.942	-33.75
380.152	-50.82
380.362	-17.94
380.572	-17.65
380.783	-11.9
380.993	-2.86
381.203	18.24
381.413	25.94
381.623	37.86
381.833	33.71
382.043	17.04
382.253	5.34
382.463	-0.54
382.674	-13.44
382.884	-30.24
383.094	-30.89
383.304	-15.23
383.514	-11.81
383.724	-1.44
383.934	-9.33
384.144	-15.52
384.353	-28.38
384.563	-28.08
384.773	-26.09
384.983	-28.18
385.193	-8.08
385.403	-6.29
385.613	-11.22
385.823	-23.72
386.033	-11.73
386.242	-19.22
386.452	-19.82
386.662	-21.23
386.872	-1.76
387.082	-6.71
387.291	-14.18
387.501	-18.99
387.711	-16.29
387.921	-30.65
388.13	-29.3
388.34	-15.7
388.55	-16.18
388.759	-18.45
388.969	-14.11
389.179	-14.05
389.388	-14.41
389.598	-8.79
389.807	-13.24
390.017	-17.15
390.227	-18.18
390.436	-22.92
390.646	-21.18
390.855	-14.66
391.065	-13.35
391.274	-11.97
391.484	-11.27
391.693	-9.63
391.903	-10.62
392.112	-3
392.322	-0.6
392.531	3.16
392.74	3.74
392.95	0.48
393.159	-2.85
393.369	-2.12
393.578	-4.51
393.787	-7.06
393.997	-4.39
394.206	-6.04
394.415	-6.17
394.625	-4.61
394.834	-5.64
395.043	-4.25
395.252	-0.92
395.462	1.45
395.671	2.5
395.88	3.96
396.089	4.46
396.298	2.66
396.508	1.41
396.717	-0.34
396.926	0.47
397.135	-0.22
397.344	-0.14
397.553	0.48
397.762	2.85
397.971	2.13
398.181	2.35
398.39	1.8
398.599	1.06
398.808	0.51
399.017	1.79
399.226	3.25
399.435	4.97
399.644	5.28
399.853	4.23
400.062	3.44
400.27	2.32
400.479	1.62
400.688	0.56
400.897	1.2
401.106	1.18
401.315	1.13
401.524	0.93
401.733	1.95
401.941	1.9
402.15	1.96
402.359	1.71
402.568	1.89
402.777	1.57
402.985	1.44
403.194	1.28
403.403	1.47
403.612	0.96
403.82	0.97
404.029	1.16
404.238	1
404.446	1.26
404.655	1.2
404.864	1.32
405.072	0.97
405.281	1.31
405.489	0.86
405.698	0.99
405.906	0.86
406.115	1.02
406.324	0.95
406.532	1.17
406.741	1.58
406.949	1.67
407.158	1.62
407.366	1.74
407.574	1.73
407.783	1.55
407.991	1.28
408.2	1.61
408.408	1.56
408.617	1.41
408.825	1.27
409.033	1.44
409.242	1.38
409.45	1.4
409.658	1.37
409.867	1.54
410.075	1.41
410.283	1.22
410.491	1.09
410.7	1.12
410.908	1.06
411.116	1.28
411.324	1.21
411.533	1.21
411.741	1.52
411.949	1.52
412.157	1.28
412.365	1.32
412.573	1.35
412.781	1.28
412.99	1.14
413.198	1.45
413.406	1.46
413.614	1.5
413.822	1.3
414.03	1.28
414.238	0.93
414.446	0.96
414.654	0.69
414.862	0.84
415.07	0.98
415.278	1.25
415.486	1.03
415.694	1.21
415.902	0.97
416.109	0.87
416.317	0.88
416.525	0.86
416.733	0.84
416.941	1.07
417.149	1.05
417.357	1.02
417.564	1.29
417.772	1.59
417.98	1.52
418.188	1.52
418.395	1.55
418.603	1.65
418.811	1.24
419.019	1.1
419.226	1.38
419.434	1.39
419.642	1.14
419.849	1.33
420.057	1.38
420.265	1.21
420.472	1.06
420.68	1.14
420.887	0.97
421.095	1.07
421.302	1
421.51	1.23
421.717	1.25
421.925	1.39
422.132	1.18
422.34	0.95
422.547	1.01
422.755	0.96
422.962	0.81
423.17	0.85
423.377	1.12
423.585	0.98
423.792	0.86
423.999	1.04
424.207	1.06
424.414	1.14
424.621	1.08
424.829	1.16
425.036	1.02
425.243	1.15
425.451	0.97
425.658	0.73
425.865	0.86
426.072	0.92
426.28	1.18
426.487	1.2
426.694	1.55
426.901	1.34
427.108	1.26
427.315	0.92
427.523	1.24
427.73	1.15
427.937	1.2
428.144	1.08
428.351	1.13
428.558	1.14
428.765	1.05
428.972	1
429.179	1.16
429.386	1.47
429.593	1.25
429.8	1.17
430.007	1.29
430.214	1.4
430.421	1.13
430.628	0.92
430.835	0.9
431.042	1.08
431.249	1.16
431.456	1.11
431.662	1.3
431.869	1.47
432.076	1.42
432.283	1.47
432.49	1.57
432.697	1.56
432.903	1.31
433.11	1.25
433.317	1.31
433.524	1.47
433.73	1.4
433.937	1.77
434.144	1.67
434.35	1.49
434.557	1.26
434.764	1.3
434.97	1.1
435.177	1.29
435.384	1.21
435.59	1.28
435.797	1.46
436.003	1.55
436.21	1.5
436.416	1.65
436.623	1.66
436.829	1.76
437.036	1.79
437.242	1.77
437.449	1.66
437.655	1.72
437.862	1.61
438.068	1.6
438.275	1.68
438.481	1.98
438.687	1.88
438.894	1.76
439.1	1.8
439.307	2.05
439.513	1.85
439.719	1.93
439.926	2.02
440.132	1.92
440.338	1.66
440.544	1.76
440.751	1.77
440.957	1.9
441.163	1.85
441.369	1.94
441.575	1.69
441.782	1.58
441.988	1.39
442.194	1.43
442.4	1.33
442.606	1.64
442.812	1.8
443.018	1.97
443.224	2.09
443.431	2.24
443.637	2.04
443.843	1.87
444.049	1.81
444.255	1.82
444.461	1.84
444.667	1.81
444.873	2.07
445.079	2.05
445.284	2.09
445.49	1.83
445.696	1.73
445.902	1.58
446.108	1.53
446.314	1.45
446.52	1.55
446.726	1.76
446.931	1.7
447.137	1.76
447.343	1.8
447.549	1.71
447.755	1.65
447.96	1.76
448.166	1.71
448.372	1.62
448.578	1.76
448.783	1.72
448.989	1.81
449.195	1.99
449.4	1.99
449.606	1.94
449.812	1.94
450.017	1.96
450.223	1.81
450.428	1.82
450.634	2.01
450.84	2.21
451.045	2.14
451.251	2.12
451.456	2.38
451.662	2.29
451.867	2.29
452.073	2.26
452.278	2.38
452.483	2.34
452.689	2.25
452.894	2.21
453.1	2.26
453.305	2.19
453.51	2.13
453.716	2.16
453.921	2.16
454.127	2.1
454.332	2.06
454.537	1.99
454.742	2.04
454.948	2.02
455.153	2.09
455.358	2.23
455.563	2.42
455.769	2.47
455.974	2.48
456.179	2.36
456.384	2.36
456.589	2.25
456.795	2.09
457	2.05
457.205	2.3
457.41	2.22
457.615	2.14
457.82	2.23
458.025	2.22
458.23	2.04
458.435	2.07
458.64	1.97
458.845	2.18
459.05	2.22
459.255	2.28
459.46	2.31
459.665	2.38
459.87	2.24
460.075	2.15
460.28	2.15
460.485	2.24
460.69	2.34
