Data from Ofra_PS_T2_2A_2HS09_Reflection_3.txt Node
Date: Wed Jul 21 17:10:42 EDT 2021
User: Adam
Spectrometer: FLMT01687
Trigger mode: 0
Integration Time (sec): 1.100000E0
Scans to average: 2
Electric dark correction enabled: true
Nonlinearity correction enabled: false
Boxcar width: 2
XAxis mode: Wavelengths
Number of Pixels in Spectrum: 3648
>>>>>Begin Spectral Data<<<<<
179.494	661
179.716	751.53
179.937	679.28
180.158	640.56
180.38	1104.53
180.601	460.91
180.823	106.71
181.044	-38.27
181.265	141.36
181.486	44.3
181.708	99.13
181.929	820.92
182.15	-520.07
182.372	68.83
182.593	75.17
182.814	77.93
183.035	150.22
183.257	121.88
183.478	71.44
183.699	39.4
183.92	-23.55
184.141	-16.33
184.363	-78.7
184.584	-30.34
184.805	7.67
185.026	61.95
185.247	45.8
185.468	34.53
185.689	33.85
185.91	33.01
186.132	23.97
186.353	20.27
186.574	52.07
186.795	51.44
187.016	19.15
187.237	2.22
187.458	-21.61
187.679	-29.5
187.9	-31.69
188.121	-16.98
188.342	-0.84
188.563	60.14
188.784	93.88
189.005	125.4
189.226	172.67
189.447	157.15
189.667	55.22
189.888	-217.36
190.109	-1262.66
190.33	-813.06
190.551	-1449.78
190.772	-328.39
190.993	-259.25
191.214	-201.15
191.434	-123.97
191.655	-19.54
191.876	-82.64
192.097	-130.11
192.318	-188.78
192.538	-338.78
192.759	-261.04
192.98	-112.94
193.201	-65.24
193.421	-34.41
193.642	3.91
193.863	11.67
194.083	-14.65
194.304	-14.39
194.525	-30.93
194.745	-65.36
194.966	-89.3
195.187	-73.79
195.407	-106.68
195.628	-123.67
195.848	-129.67
196.069	-110.83
196.29	-88.51
196.51	-88.13
196.731	-65.86
196.951	-87
197.172	-105.29
197.392	-146.56
197.613	-138.7
197.833	-201.38
198.054	-164.58
198.274	-91.96
198.495	-105.72
198.715	-70.78
198.936	-62.06
199.156	-53.94
199.377	-146.05
199.597	-117.11
199.817	-129.83
200.038	-73.6
200.258	-131.16
200.479	-74.43
200.699	-59.94
200.919	-5.83
201.14	-35.36
201.36	-34.55
201.58	11.15
201.801	25.83
202.021	-15.59
202.241	-21.07
202.461	-14.67
202.682	-136.01
202.902	-200.3
203.122	-106.09
203.342	-85.1
203.563	-37.49
203.783	-5.77
204.003	-41.15
204.223	-45.76
204.443	8.09
204.663	-23.83
204.884	-2.24
205.104	19.15
205.324	38.5
205.544	24.68
205.764	47.91
205.984	48.54
206.204	58.37
206.424	45.3
206.644	28.35
206.864	10.28
207.084	-13.39
207.304	-11.06
207.525	-121.95
207.745	-79.97
207.964	-37.48
208.184	-92.65
208.404	-125.22
208.624	-131.33
208.844	-139.03
209.064	-452.13
209.284	-460.17
209.504	-258.96
209.724	-71.53
209.944	-43.22
210.164	-8.39
210.384	10.93
210.604	3.22
210.823	-53.07
211.043	-49.94
211.263	-31.43
211.483	-21.78
211.703	-53.4
211.922	-6.35
212.142	40.71
212.362	48.22
212.582	7.33
212.801	9.6
213.021	-29.53
213.241	-61.94
213.461	-104.83
213.68	-109.53
213.9	-106.68
214.12	-80.81
214.339	-148.43
214.559	-100.12
214.779	-52.72
214.998	-40.18
215.218	-90.32
215.438	-49.18
215.657	-77.1
215.877	-72.44
216.096	-30.22
216.316	-17.96
216.535	-26.74
216.755	-2.52
216.974	-94.52
217.194	-135.35
217.413	-133.41
217.633	-127.04
217.852	-220.59
218.072	-107.27
218.291	-72.8
218.511	-15.14
218.73	-49.95
218.95	-46.46
219.169	-36.4
219.389	-74.2
219.608	-67.58
219.827	-58.93
220.047	-32.79
220.266	-29.94
220.485	-32.38
220.705	-24.98
220.924	-42.98
221.143	-13.11
221.363	-26.07
221.582	-4.95
221.801	-8.58
222.021	15.44
222.24	-60.79
222.459	-37.22
222.678	-87.33
222.897	-132.95
223.117	-172.27
223.336	-103.05
223.555	-81.13
223.774	-6.8
223.993	-16.72
224.213	58.21
224.432	23.94
224.651	42.31
224.87	-4.07
225.089	17.69
225.308	14.35
225.527	37.6
225.746	41.89
225.965	39.14
226.184	2.19
226.404	-2.05
226.623	-44.4
226.842	-54.27
227.061	-9.7
227.28	4.96
227.499	1.37
227.718	23.3
227.936	31.04
228.155	24.35
228.374	36.03
228.593	24.87
228.812	23.53
229.031	4.79
229.25	-47.23
229.469	-53.17
229.688	-45.72
229.907	-40.46
230.125	-15.47
230.344	15.77
230.563	28.49
230.782	39.2
231.001	-1.85
231.22	-1.89
231.438	13.32
231.657	5.06
231.876	-20.13
232.095	28.89
232.313	35.17
232.532	17.92
232.751	-12.73
232.969	-23.26
233.188	-97.2
233.407	-20.26
233.625	-23.11
233.844	-33.56
234.063	5.94
234.281	33.21
234.5	6.44
234.719	11.52
234.937	28.15
235.156	6.83
235.374	-10.41
235.593	-29.96
235.811	-44.15
236.03	-54.7
236.249	-87.54
236.467	-67.05
236.686	-20.36
236.904	-1.69
237.123	-13.11
237.341	-7.48
237.559	-0.41
237.778	-15.59
237.996	-26.1
238.215	-1.16
238.433	6.97
238.652	-6.28
238.87	-21.47
239.088	-21.59
239.307	-27.22
239.525	-15.5
239.743	-34.32
239.962	-15.8
240.18	-17.31
240.398	-53.41
240.617	-79.99
240.835	-46.72
241.053	-13.75
241.271	23.19
241.49	39.14
241.708	21.11
241.926	2.28
242.144	12.34
242.363	-11.5
242.581	-31.79
242.799	19.18
243.017	28.86
243.235	-14.42
243.453	-20.94
243.672	-15.31
243.89	-29.75
244.108	-35.08
244.326	-7.44
244.544	-7.23
244.762	7.99
244.98	34.84
245.198	35.9
245.416	-4.07
245.634	7.07
245.852	-14.66
246.07	-32.2
246.288	-46.25
246.506	-48.51
246.724	-41.47
246.942	-27.43
247.16	-8.63
247.378	-8.25
247.596	18.12
247.814	15.19
248.032	-23.75
248.25	-17.15
248.468	-4.83
248.685	1.44
248.903	16.61
249.121	42.66
249.339	15.94
249.557	1.58
249.775	6.17
249.992	-46.7
250.21	-66.4
250.428	-46.98
250.646	-49.13
250.863	-58.2
251.081	-20.15
251.299	-4.46
251.517	7.01
251.734	-5.97
251.952	-1.08
252.17	-1.68
252.387	9.6
252.605	2.04
252.823	11.64
253.04	5.38
253.258	4.96
253.475	-5.8
253.693	19.63
253.911	20.78
254.128	29.05
254.346	37.11
254.563	10.82
254.781	-26.91
254.998	-50.92
255.216	-51.64
255.433	-53.62
255.651	-1.42
255.868	25.5
256.086	39.87
256.303	28.74
256.521	20.18
256.738	-7.26
256.956	-29.47
257.173	-57.75
257.39	-71.84
257.608	-109.94
257.825	-11.16
258.043	18.7
258.26	41.04
258.477	72.59
258.695	90.1
258.912	5.28
259.129	11.64
259.346	-30
259.564	-57.63
259.781	-72.72
259.998	-28.52
260.216	-10.12
260.433	31.54
260.65	24.67
260.867	28.42
261.084	8.27
261.302	-18.6
261.519	-27.82
261.736	-66.58
261.953	-86.63
262.17	-45.29
262.387	-90.24
262.604	-152.35
262.822	-141.89
263.039	-116.36
263.256	-178.2
263.473	-125
263.69	-56.76
263.907	-5.26
264.124	2.83
264.341	-1.08
264.558	-0.93
264.775	-0.5
264.992	-18.12
265.209	-5.25
265.426	19.43
265.643	19.97
265.86	45.74
266.077	26.5
266.294	17.7
266.51	-8.36
266.727	-10.41
266.944	-18.84
267.161	-16.76
267.378	-21.56
267.595	4.8
267.812	-17.71
268.028	-46.71
268.245	-7.26
268.462	-21.59
268.679	-20.76
268.896	29.71
269.112	46.71
269.329	36.95
269.546	50.79
269.763	31.16
269.979	10.91
270.196	-14.16
270.413	-57.73
270.629	-85.31
270.846	-87.58
271.063	-80.81
271.279	-82.74
271.496	-49.84
271.712	-14.31
271.929	28.43
272.146	13.55
272.362	28.89
272.579	39.91
272.795	44.26
273.012	15.79
273.228	24.89
273.445	-9.91
273.661	-43.38
273.878	-106.2
274.094	-88.85
274.311	-123.3
274.527	-34.91
274.744	-29.69
274.96	-16.73
275.177	2.3
275.393	19.14
275.609	9.11
275.826	27.94
276.042	24.66
276.259	-13.95
276.475	4.94
276.691	3.81
276.908	-18.62
277.124	-6.87
277.34	5.03
277.557	-17.17
277.773	-30.99
277.989	-26.17
278.205	-34.74
278.422	-2.85
278.638	-3.07
278.854	31.51
279.07	32.95
279.286	32.89
279.503	-26.94
279.719	-20.03
279.935	-63.48
280.151	-87.13
280.367	-55.7
280.583	-54.11
280.799	-44.2
281.016	-58.52
281.232	-19.64
281.448	-33.31
281.664	-12.91
281.88	-46.04
282.096	-24.57
282.312	-6.34
282.528	20.19
282.744	30.67
282.96	37.85
283.176	27.14
283.392	1.72
283.608	-11.06
283.824	-22.01
284.04	-21
284.256	-33.83
284.471	-36.85
284.687	-39.29
284.903	-19.54
285.119	-0.9
285.335	-10.92
285.551	-4.84
285.767	-12.4
285.982	-19.06
286.198	-55.54
286.414	10.29
286.63	20.63
286.846	47.04
287.061	34.07
287.277	57.36
287.493	30.88
287.709	47.7
287.924	29.22
288.14	63.69
288.356	71.46
288.571	74.52
288.787	38.13
289.003	42.11
289.218	13.6
289.434	-39.1
289.65	-28.42
289.865	-12.25
290.081	-4.14
290.296	1.49
290.512	26.78
290.727	-16.99
290.943	-18.68
291.159	-29.3
291.374	-23.89
291.59	-37.58
291.805	-20.22
292.021	-13.74
292.236	-9.47
292.451	7.46
292.667	19.83
292.882	38.22
293.098	32.84
293.313	-0.95
293.529	-47.61
293.744	-76.61
293.959	-70.06
294.175	-57.8
294.39	-9.99
294.605	8.89
294.821	39.42
295.036	39.07
295.251	47.96
295.467	27.81
295.682	10.38
295.897	-48.37
296.112	-59.75
296.328	-53.28
296.543	-77.94
296.758	-48.07
296.973	-2.56
297.188	15.99
297.404	-5.68
297.619	-6.69
297.834	-20.61
298.049	-44.93
298.264	-44.23
298.479	-6.33
298.694	-5.55
298.909	17.18
299.125	22.07
299.34	24.18
299.555	-11.05
299.77	11.21
299.985	-40.86
300.2	-93.75
300.415	-121.66
300.63	-70.57
300.845	-83.34
301.06	-78.47
301.275	-26.06
301.49	5.87
301.704	-6.82
301.919	-29.02
302.134	-42.37
302.349	-58.91
302.564	-130.15
302.779	-185.61
302.994	-151.45
303.209	-68.38
303.423	-38.69
303.638	20.55
303.853	-12.36
304.068	-14.1
304.283	-9.28
304.497	-8.17
304.712	-11.72
304.927	9.6
305.142	5.36
305.356	6.65
305.571	-2.44
305.786	-18.3
306	-33.18
306.215	-29.75
306.43	-60.02
306.644	-41.19
306.859	-27.05
307.074	-21.52
307.288	-58.65
307.503	-72.79
307.717	-68.56
307.932	-53.24
308.147	-48.9
308.361	-7.06
308.576	-10.58
308.79	-25.66
309.005	-31.08
309.219	-25.77
309.434	-38.04
309.648	-36.25
309.863	-24.24
310.077	-30.14
310.292	-17.68
310.506	-16.26
310.72	10.11
310.935	6.09
311.149	1.3
311.364	16.62
311.578	28.38
311.792	8.77
312.007	20.85
312.221	9.39
312.435	-0.15
312.649	-11.02
312.864	-25.53
313.078	-9.73
313.292	56.35
313.507	41.5
313.721	50.03
313.935	63.46
314.149	41.01
314.363	15.83
314.578	8.46
314.792	10.55
315.006	-9.51
315.22	10.13
315.434	11.22
315.648	17.91
315.862	4.92
316.077	10.65
316.291	-22.48
316.505	-21.34
316.719	-20.18
316.933	-28.86
317.147	-27.22
317.361	-80.72
317.575	-93.43
317.789	-147.22
318.003	-221.31
318.217	-172.73
318.431	-59.26
318.645	-6.22
318.859	2.46
319.073	29.08
319.287	10.14
319.5	-15.67
319.714	-67.09
319.928	-91.2
320.142	-106.48
320.356	-48.6
320.57	-13.54
320.784	-22.1
320.997	-38.85
321.211	-37.45
321.425	-102.28
321.639	-123.75
321.853	-55.8
322.066	-27.83
322.28	-36.26
322.494	-19.56
322.707	10.59
322.921	-0.36
323.135	5.81
323.349	20.72
323.562	-2.76
323.776	-28.21
323.989	-37.33
324.203	-70.16
324.417	-81.21
324.63	-90.27
324.844	-82.07
325.057	-82.29
325.271	-56.84
325.485	-24.38
325.698	1.65
325.912	15.1
326.125	-0.65
326.339	13.31
326.552	7.33
326.766	-7.05
326.979	14.11
327.193	48.34
327.406	39.11
327.619	32.61
327.833	50.23
328.046	15.27
328.26	-26.17
328.473	-13.58
328.686	-51.56
328.9	-45.15
329.113	-22.43
329.326	-31.06
329.54	-20.86
329.753	-33.14
329.966	-77.78
330.179	-67.2
330.393	-30.64
330.606	-23.21
330.819	11.09
331.032	34.87
331.246	39.82
331.459	66.41
331.672	60.17
331.885	45.24
332.098	4.4
332.311	-14.09
332.525	-80.86
332.738	-90.74
332.951	-52.78
333.164	5.6
333.377	3.32
333.59	14.94
333.803	16.14
334.016	12.36
334.229	-10.34
334.442	9.89
334.655	24.79
334.868	42.93
335.081	10.64
335.294	1.62
335.507	-6.47
335.72	-8.25
335.933	-31.94
336.146	-26.08
336.359	-19.83
336.572	-57.58
336.785	-83.55
336.997	-65.08
337.21	-30.09
337.423	-49.17
337.636	-30.44
337.849	-9.37
338.062	-25.69
338.274	-26.65
338.487	-15.22
338.7	-32.84
338.913	-81.74
339.125	-98.8
339.338	-172.94
339.551	-158.65
339.763	-97.02
339.976	-52.93
340.189	-15.4
340.402	11.19
340.614	6.03
340.827	0.15
341.039	-5.29
341.252	-15.19
341.465	-1.42
341.677	-0.19
341.89	-46.17
342.102	-29.2
342.315	-39.11
342.527	-68.23
342.74	-66.39
342.952	-7.01
343.165	-11.85
343.377	22.32
343.59	5.37
343.802	27.16
344.015	17.5
344.227	30.19
344.44	10.82
344.652	25.75
344.864	6.58
345.077	20.36
345.289	20.49
345.502	23.08
345.714	8.1
345.926	13.34
346.139	1.7
346.351	12.17
346.563	14.64
346.775	18.46
346.988	3.45
347.2	-15.19
347.412	-66.47
347.624	-77.37
347.837	-91.98
348.049	-47.09
348.261	-2.27
348.473	4.27
348.685	-5.99
348.897	1.73
349.11	-24
349.322	-50.75
349.534	-17.69
349.746	-20.6
349.958	-23.59
350.17	-18.07
350.382	0.16
350.594	-26.03
350.806	-15.31
351.018	-0.53
351.23	-14.95
351.442	-68.04
351.654	-37.15
351.866	-26.56
352.078	-25.04
352.29	-1.86
352.502	24.41
352.714	33.17
352.926	19.59
353.138	12.91
353.35	-0.01
353.561	-9.26
353.773	-44.53
353.985	-27.65
354.197	-30.23
354.409	-34.29
354.621	-34.75
354.832	-18.37
355.044	-34.9
355.256	-37.68
355.468	-19.53
355.679	-25.43
355.891	-17.82
356.103	-22.07
356.314	-16.66
356.526	-8.72
356.738	4.32
356.949	-16.14
357.161	4.43
357.373	-8.23
357.584	-37.12
357.796	-26.54
358.008	-22.86
358.219	-17.45
358.431	-10.39
358.642	6.97
358.854	5.2
359.065	-9.83
359.277	-38.2
359.488	-59.34
359.7	-79.07
359.911	-87.64
360.123	-55.25
360.334	-59.2
360.546	-62.2
360.757	-60.96
360.969	-41.22
361.18	-34.01
361.391	-11.78
361.603	-15.46
361.814	-1.48
362.025	-17.52
362.237	-20.64
362.448	-9.93
362.659	20.69
362.871	10.83
363.082	10.53
363.293	14.12
363.504	2.16
363.716	-26.43
363.927	-37.27
364.138	-65.75
364.349	-77.82
364.56	-69.57
364.772	-56.43
364.983	-26.98
365.194	-15.68
365.405	-0.46
365.616	18.32
365.827	21.46
366.038	1.24
366.25	4.05
366.461	-30.04
366.672	-13.67
366.883	-6.6
367.094	5.04
367.305	-6.42
367.516	-1.51
367.727	-38.74
367.938	-43.08
368.149	-50.26
368.36	-26.26
368.571	-12.87
368.781	-30.87
368.992	-43.45
369.203	-51.56
369.414	-75.89
369.625	-94.52
369.836	-74.66
370.047	-98.96
370.258	-78.37
370.468	-75.35
370.679	-78.01
370.89	-64.9
371.101	-41.5
371.312	-46.85
371.522	-41.71
371.733	-29.75
371.944	-15.28
372.155	-3.48
372.365	-11.27
372.576	-6.72
372.787	-10.95
372.997	-38.83
373.208	-44.82
373.419	-15.51
373.629	-40.64
373.84	-37.37
374.05	-37.32
374.261	-20.97
374.472	-40.25
374.682	-4.45
374.893	-11.47
375.103	23.76
375.314	13.94
375.524	4.57
375.735	10.43
375.945	14.25
376.156	-11.68
376.366	-5.28
376.577	1.36
376.787	-14.77
376.997	-5.17
377.208	-3.48
377.418	-17.63
377.629	-16.21
377.839	-5.02
378.049	-4.53
378.26	9.09
378.47	13.99
378.68	9.24
378.89	-2.79
379.101	-13.03
379.311	-46.28
379.521	-77.13
379.732	-82.08
379.942	-70.23
380.152	-84.16
380.362	-46.54
380.572	-26.57
380.783	-10.72
380.993	-8.86
381.203	6.18
381.413	9.76
381.623	6.92
381.833	4.25
382.043	-1.05
382.253	-8.25
382.463	-11.09
382.674	-24.82
382.884	-36.62
383.094	-32.69
383.304	-28.91
383.514	-25.38
383.724	-10.81
383.934	-15.91
384.144	-32.3
384.353	-38.69
384.563	-31.52
384.773	-25.47
384.983	-22.46
385.193	-0.74
385.403	9.83
385.613	1.51
385.823	-12.89
386.033	-9.21
386.242	-14.87
386.452	-21.62
386.662	-27.29
386.872	-8.47
387.082	-15.02
387.291	-22.45
387.501	-23.2
387.711	-10.68
387.921	-24.82
388.13	-23.34
388.34	-4.39
388.55	-8.94
388.759	-11.64
388.969	-1.62
389.179	-1.54
389.388	-5.11
389.598	-1.63
389.807	-7.62
390.017	-14.58
390.227	-11.18
390.436	-13.88
390.646	-7.59
390.855	-2.9
391.065	-1.64
391.274	-5.43
391.484	-7.81
391.693	-7.73
391.903	-6.94
392.112	-1.88
392.322	1.63
392.531	3.98
392.74	5.26
392.95	-0.33
393.159	-3.39
393.369	-2.78
393.578	-1.68
393.787	-4.03
393.997	-0.88
394.206	-1.88
394.415	-1.04
394.625	-2
394.834	-3.23
395.043	-2.25
395.252	0.9
395.462	2.58
395.671	4.21
395.88	5.36
396.089	6.07
396.298	4.2
396.508	3.85
396.717	2.08
396.926	2.45
397.135	1.92
397.344	1.72
397.553	1.67
397.762	3.82
397.971	3.05
398.181	3.22
398.39	2.57
398.599	2.26
398.808	1.29
399.017	2.32
399.226	3.51
399.435	5.51
399.644	5.68
399.853	5.12
400.062	4.39
400.27	3.34
400.479	2.41
400.688	1.85
400.897	2.19
401.106	2.39
401.315	2.37
401.524	2.37
401.733	2.66
401.941	3.28
402.15	3.21
402.359	3.23
402.568	3.56
402.777	3.94
402.985	3.3
403.194	3.15
403.403	3.1
403.612	2.66
403.82	2.29
404.029	2.53
404.238	2.64
404.446	3
404.655	2.91
404.864	3.07
405.072	2.85
405.281	2.93
405.489	2.58
405.698	2.63
405.906	2.5
406.115	2.5
406.324	2.32
406.532	2.53
406.741	2.78
406.949	2.77
407.158	2.77
407.366	2.94
407.574	2.86
407.783	2.84
407.991	2.66
408.2	2.87
408.408	2.83
408.617	2.76
408.825	2.5
409.033	2.63
409.242	2.62
409.45	2.82
409.658	2.76
409.867	2.93
410.075	2.85
410.283	2.65
410.491	2.48
410.7	2.33
410.908	2.38
411.116	2.65
411.324	2.7
411.533	2.6
411.741	2.93
411.949	2.89
412.157	2.64
412.365	2.79
412.573	2.9
412.781	2.9
412.99	2.67
413.198	2.83
413.406	2.67
413.614	2.55
413.822	2.35
414.03	2.44
414.238	2.24
414.446	2.38
414.654	2.22
414.862	2.37
415.07	2.48
415.278	2.61
415.486	2.35
415.694	2.52
415.902	2.29
416.109	2.31
416.317	2.34
416.525	2.29
416.733	2.28
416.941	2.45
417.149	2.42
417.357	2.48
417.564	2.64
417.772	2.78
417.98	2.7
418.188	2.46
418.395	2.43
418.603	2.54
418.811	2.26
419.019	2.19
419.226	2.59
419.434	2.6
419.642	2.32
419.849	2.39
420.057	2.48
420.265	2.2
420.472	1.93
420.68	2.08
420.887	2.04
421.095	2.06
421.302	2.18
421.51	2.36
421.717	2.36
421.925	2.41
422.132	2.22
422.34	1.87
422.547	1.86
422.755	1.85
422.962	1.77
423.17	1.75
423.377	1.92
423.585	1.9
423.792	1.8
423.999	1.92
424.207	1.99
424.414	2.15
424.621	2.1
424.829	2.17
425.036	2.14
425.243	2.31
425.451	2.07
425.658	1.95
425.865	2.13
426.072	2.22
426.28	2.35
426.487	2.33
426.694	2.47
426.901	2.13
427.108	2
427.315	1.81
427.523	2.11
427.73	2.09
427.937	2.21
428.144	2.09
428.351	2.01
428.558	2.12
428.765	2.03
428.972	1.86
429.179	2.1
429.386	2.34
429.593	1.94
429.8	1.9
430.007	2.16
430.214	2.26
430.421	2.11
430.628	2.01
430.835	1.94
431.042	1.99
431.249	1.96
431.456	1.97
431.662	2.26
431.869	2.46
432.076	2.48
432.283	2.55
432.49	2.57
432.697	2.52
432.903	2.29
433.11	2.21
433.317	2.08
433.524	2.25
433.73	2.15
433.937	2.47
434.144	2.46
434.35	2.51
434.557	2.23
434.764	2.28
434.97	2.07
435.177	2.22
435.384	2.12
435.59	2.34
435.797	2.5
436.003	2.67
436.21	2.59
436.416	2.73
436.623	2.72
436.829	2.83
437.036	2.86
437.242	2.83
437.449	2.68
437.655	2.61
437.862	2.51
438.068	2.43
438.275	2.63
438.481	2.88
438.687	2.92
438.894	2.88
439.1	2.87
439.307	2.97
439.513	2.83
439.719	2.83
439.926	2.94
440.132	2.93
440.338	2.67
440.544	2.84
440.751	2.86
440.957	2.9
441.163	2.9
441.369	3.13
441.575	2.81
441.782	2.78
441.988	2.58
442.194	2.56
442.4	2.41
442.606	2.69
442.812	2.79
443.018	2.99
443.224	2.99
443.431	3.16
443.637	2.97
443.843	2.88
444.049	2.89
444.255	2.95
444.461	2.93
444.667	2.94
444.873	3.09
445.079	3.01
445.284	3.06
445.49	2.85
445.696	2.73
445.902	2.7
446.108	2.72
446.314	2.62
446.52	2.76
446.726	3.12
446.931	3.03
447.137	3.03
447.343	3.13
447.549	3.02
447.755	2.82
447.96	2.9
448.166	2.8
448.372	2.84
448.578	2.9
448.783	2.93
448.989	2.97
449.195	3.22
449.4	3.15
449.606	3.16
449.812	3.12
450.017	3.11
450.223	3
450.428	2.91
450.634	3.06
450.84	3.15
451.045	3.11
451.251	3.08
451.456	3.4
451.662	3.4
451.867	3.5
452.073	3.53
452.278	3.59
452.483	3.57
452.689	3.54
452.894	3.49
453.1	3.45
453.305	3.41
453.51	3.37
453.716	3.27
453.921	3.3
454.127	3.33
454.332	3.3
454.537	3.22
454.742	3.28
454.948	3.27
455.153	3.29
455.358	3.37
455.563	3.51
455.769	3.59
455.974	3.53
456.179	3.4
456.384	3.39
456.589	3.32
456.795	3.07
457	3.07
457.205	3.31
457.41	3.3
457.615	3.21
457.82	3.36
458.025	3.42
458.23	3.33
458.435	3.27
458.64	3.27
458.845	3.35
459.05	3.28
459.255	3.21
459.46	3.25
459.665	3.29
459.87	3.29
