Data from Ofra_1a_PS_2HS9_Reflection_1.txt Node
Date: Tue Jul 20 10:54:25 EDT 2021
User: Adam
Spectrometer: FLMT01687
Trigger mode: 0
Integration Time (sec): 1.004000E0
Scans to average: 2
Electric dark correction enabled: true
Nonlinearity correction enabled: false
Boxcar width: 2
XAxis mode: Wavelengths
Number of Pixels in Spectrum: 3648
>>>>>Begin Spectral Data<<<<<
179.494	-827.41
179.716	-1017.56
179.937	1818.73
180.158	-2240.76
180.38	216.83
180.601	100.96
180.823	16.32
181.044	39.64
181.265	29.12
181.486	103.39
181.708	58.37
181.929	2963.64
182.15	-7.05
182.372	-28.57
182.593	97.49
182.814	-24.79
183.035	17.78
183.257	25.34
183.478	2.34
183.699	17.59
183.92	3.71
184.141	34.91
184.363	39.94
184.584	68.95
184.805	57.62
185.026	86.64
185.247	55.46
185.468	35.35
185.689	42.7
185.91	16.87
186.132	2.77
186.353	18.56
186.574	29.74
186.795	17.04
187.016	35.7
187.237	36.67
187.458	34.96
187.679	31.27
187.9	56.17
188.121	67.27
188.342	87.97
188.563	105.36
188.784	93.96
189.005	76.31
189.226	55.52
189.447	37.28
189.667	26.2
189.888	24.45
190.109	-2.38
190.33	24.43
190.551	29.45
190.772	35.44
190.993	12.95
191.214	20.22
191.434	-3.65
191.655	-0.74
191.876	6.76
192.097	56.65
192.318	77.43
192.538	64.22
192.759	45.3
192.98	49.25
193.201	42.97
193.421	30.96
193.642	34.07
193.863	41.23
194.083	35.29
194.304	31.84
194.525	25.02
194.745	10.17
194.966	9.59
195.187	10.38
195.407	9.38
195.628	11.24
195.848	19.36
196.069	20
196.29	29.76
196.51	18.89
196.731	26.72
196.951	34.66
197.172	32.46
197.392	6.66
197.613	22.47
197.833	3.94
198.054	-6.99
198.274	-8.75
198.495	16.08
198.715	-6.09
198.936	33.08
199.156	44.86
199.377	48.92
199.597	38.13
199.817	45.76
200.038	7.66
200.258	22.28
200.479	20.3
200.699	8.71
200.919	13.05
201.14	31.14
201.36	22.85
201.58	22.37
201.801	29.41
202.021	34.23
202.241	23.26
202.461	17
202.682	30
202.902	36.86
203.122	34.79
203.342	45.78
203.563	20.21
203.783	11.4
204.003	11.38
204.223	13.1
204.443	5.94
204.663	13.16
204.884	18.54
205.104	10.73
205.324	27.85
205.544	19.47
205.764	57.96
205.984	65.5
206.204	99.12
206.424	71.09
206.644	63.98
206.864	49.93
207.084	38.88
207.304	34.8
207.525	61.41
207.745	70.97
207.964	83.01
208.184	86.07
208.404	49.68
208.624	59.63
208.844	53.9
209.064	35.4
209.284	27.8
209.504	29.3
209.724	5.46
209.944	-10.88
210.164	6.52
210.384	20.16
210.604	1.89
210.823	-14.79
211.043	11.13
211.263	-23.19
211.483	-30.16
211.703	-0.3
211.922	7.94
212.142	32.21
212.362	37.45
212.582	40.26
212.801	30.39
213.021	-4.9
213.241	-30.85
213.461	-33.91
213.68	-16.41
213.9	-15.25
214.12	-1.31
214.339	3.84
214.559	14.19
214.779	23.96
214.998	36.45
215.218	38.55
215.438	44.96
215.657	44.57
215.877	34.32
216.096	46.69
216.316	41.22
216.535	27.86
216.755	33.9
216.974	23.34
217.194	6.85
217.413	11.46
217.633	19.96
217.852	20.45
218.072	43.37
218.291	42.69
218.511	39.77
218.73	39.06
218.95	14.52
219.169	-34.97
219.389	-15.04
219.608	-1.35
219.827	1.85
220.047	2.42
220.266	-3.5
220.485	-14.16
220.705	-2.15
220.924	-4.08
221.143	25.87
221.363	40.22
221.582	61.59
221.801	59.05
222.021	66.75
222.24	62.84
222.459	61.41
222.678	47.81
222.897	41.09
223.117	45.17
223.336	52
223.555	74.36
223.774	92.89
223.993	106.2
224.213	96.52
224.432	104.89
224.651	82.22
224.87	65.64
225.089	49.96
225.308	62.05
225.527	48.61
225.746	50.28
225.965	40.04
226.184	27.81
226.404	-9.23
226.623	3.61
226.842	4.62
227.061	18.98
227.28	40.82
227.499	58.51
227.718	53.22
227.936	57.49
228.155	51.75
228.374	44.68
228.593	34.61
228.812	37.11
229.031	28.11
229.25	4.51
229.469	2.73
229.688	6.42
229.907	10.91
230.125	10.32
230.344	23.32
230.563	32.81
230.782	36.05
231.001	39.82
231.22	56.37
231.438	80.56
231.657	58.53
231.876	43.83
232.095	45.01
232.313	28.88
232.532	8.77
232.751	8.04
232.969	38.36
233.188	28.06
233.407	35.81
233.625	56.71
233.844	47.02
234.063	42.15
234.281	38.2
234.5	36.59
234.719	29.74
234.937	38.47
235.156	43.77
235.374	53.6
235.593	39.11
235.811	25.16
236.03	20.77
236.249	11.37
236.467	18.6
236.686	21.62
236.904	30.21
237.123	36.19
237.341	34.15
237.559	25.6
237.778	32.15
237.996	13.94
238.215	-34.82
238.433	-63.26
238.652	-14.29
238.87	-21.19
239.088	-2.15
239.307	34.51
239.525	40.51
239.743	20.53
239.962	8.07
240.18	11.43
240.398	-7.66
240.617	-18.3
240.835	-10.39
241.053	11.49
241.271	0.99
241.49	17.16
241.708	10.88
241.926	14.89
242.144	19.47
242.363	22.41
242.581	-8.49
242.799	-24.1
243.017	-9.6
243.235	-9.58
243.453	-20.19
243.672	7.53
243.89	20.08
244.108	19.52
244.326	27.2
244.544	37.91
244.762	22.63
244.98	33.04
245.198	35.29
245.416	31.63
245.634	35.82
245.852	38.63
246.07	29.31
246.288	22.67
246.506	17.36
246.724	8.86
246.942	23.2
247.16	26.29
247.378	26.5
247.596	49.37
247.814	55.8
248.032	59.72
248.25	70.53
248.468	54.91
248.685	61.82
248.903	59
249.121	55.71
249.339	48.93
249.557	49.3
249.775	43.66
249.992	37.55
250.21	23.95
250.428	28.99
250.646	36.57
250.863	22.79
251.081	26.23
251.299	39.22
251.517	34.95
251.734	25.8
251.952	21.03
252.17	8.74
252.387	-8.78
252.605	-14.15
252.823	-30.51
253.04	-0.33
253.258	24.45
253.475	16.26
253.693	19.8
253.911	5.64
254.128	-4.67
254.346	23.28
254.563	45.33
254.781	47.28
254.998	68.3
255.216	41.09
255.433	-26.15
255.651	-28.11
255.868	-23.62
256.086	-8.98
256.303	11.43
256.521	35.93
256.738	16.88
256.956	29.52
257.173	13.93
257.39	23.26
257.608	19.03
257.825	27.17
258.043	29.34
258.26	42.36
258.477	26.3
258.695	21
258.912	21.74
259.129	-3.17
259.346	-21.01
259.564	-11.73
259.781	-4.93
259.998	22.38
260.216	42.69
260.433	43.06
260.65	57.15
260.867	72.58
261.084	62.26
261.302	73.27
261.519	76.63
261.736	74.29
261.953	63.65
262.17	68.74
262.387	52.69
262.604	48.22
262.822	43.45
263.039	36.46
263.256	27.69
263.473	27.66
263.69	25.1
263.907	21.62
264.124	29.8
264.341	34.27
264.558	27.9
264.775	29.18
264.992	45.83
265.209	46.61
265.426	61.37
265.643	68.68
265.86	69.99
266.077	57.79
266.294	43.75
266.51	28.77
266.727	25.84
266.944	48.73
267.161	43.76
267.378	39.03
267.595	29.91
267.812	20.32
268.028	3.92
268.245	17.66
268.462	30.41
268.679	66.49
268.896	73.15
269.112	50.48
269.329	25.27
269.546	31.51
269.763	13.45
269.979	16.25
270.196	23.57
270.413	31.59
270.629	6.5
270.846	4.23
271.063	1.46
271.279	14.71
271.496	0.17
271.712	15.41
271.929	26.68
272.146	30.38
272.362	29.94
272.579	33.14
272.795	24.14
273.012	17.1
273.228	23.09
273.445	1.75
273.661	-5.43
273.878	-7.29
274.094	1.19
274.311	-12.04
274.527	9.43
274.744	27.15
274.96	27.04
275.177	28.92
275.393	43.31
275.609	45.47
275.826	44.02
276.042	45.25
276.259	31.12
276.475	15.52
276.691	6.13
276.908	-8.67
277.124	0.89
277.34	11.73
277.557	5.45
277.773	1.18
277.989	15.35
278.205	10.57
278.422	10.62
278.638	19.76
278.854	15.32
279.07	16.59
279.286	14.53
279.503	9.38
279.719	17.01
279.935	11.85
280.151	1.15
280.367	9.73
280.583	4.57
280.799	-9.12
281.016	-17.9
281.232	-5.36
281.448	-14.55
281.664	7.77
281.88	30.29
282.096	38.51
282.312	44.76
282.528	50.82
282.744	51.66
282.96	39.34
283.176	50.33
283.392	23.49
283.608	18.58
283.824	-0.73
284.04	-61.49
284.256	-49.45
284.471	-17.76
284.687	-24.05
284.903	-10.76
285.119	19.12
285.335	29.62
285.551	32.71
285.767	37.39
285.982	27
286.198	2.77
286.414	2.9
286.63	-5.51
286.846	-14.63
287.061	0.82
287.277	5.74
287.493	-23.99
287.709	-19.13
287.924	4.94
288.14	12.51
288.356	23.55
288.571	28.66
288.787	26.25
289.003	20
289.218	-7.74
289.434	-19.8
289.65	14.37
289.865	3.89
290.081	3.54
290.296	22.74
290.512	25.3
290.727	8.22
290.943	16.37
291.159	19.75
291.374	4.46
291.59	11.38
291.805	-8.74
292.021	-27.47
292.236	-41.32
292.451	-37.63
292.667	-38.4
292.882	-19.39
293.098	-12.11
293.313	-2.57
293.529	14.4
293.744	3.37
293.959	3.6
294.175	15.86
294.39	-11.81
294.605	7.07
294.821	3.34
295.036	22.18
295.251	17.2
295.467	27.3
295.682	16.11
295.897	20.59
296.112	-17.18
296.328	-16.45
296.543	-20.19
296.758	-20.29
296.973	-17.3
297.188	8.82
297.404	3.66
297.619	-1.02
297.834	-45.92
298.049	0.27
298.264	8.16
298.479	8.47
298.694	45.26
298.909	53.58
299.125	33.94
299.34	25.83
299.555	16.75
299.77	9.66
299.985	14.25
300.2	20.33
300.415	18.86
300.63	32.84
300.845	25.23
301.06	33.5
301.275	35.13
301.49	40
301.704	32.32
301.919	34.52
302.134	14.41
302.349	13.8
302.564	-4.21
302.779	-4.85
302.994	9.47
303.209	28.66
303.423	29.34
303.638	52.63
303.853	37.36
304.068	9.73
304.283	5.15
304.497	-6.03
304.712	-1.88
304.927	8.59
305.142	24.94
305.356	27.2
305.571	39.28
305.786	37.09
306	47.69
306.215	31.99
306.43	34.57
306.644	15.8
306.859	-2.43
307.074	1.02
307.288	4.92
307.503	0.28
307.717	2.41
307.932	19.35
308.147	6.56
308.361	10.63
308.576	-6.95
308.79	-10.56
309.005	-28.94
309.219	-13.69
309.434	-15.24
309.648	5.66
309.863	17.59
310.077	25.7
310.292	48.35
310.506	49.06
310.72	49.66
310.935	47.58
311.149	39.97
311.364	49.96
311.578	57.57
311.792	44.45
312.007	43.43
312.221	33.54
312.435	19.23
312.649	11.25
312.864	-21.13
313.078	-16.86
313.292	-14.41
313.507	-18.67
313.721	-19.09
313.935	16.66
314.149	17.4
314.363	33.23
314.578	11.54
314.792	-4.23
315.006	0.43
315.22	-6.63
315.434	-13.64
315.648	-5.6
315.862	0.65
316.077	0.47
316.291	11.41
316.505	-6.38
316.719	1.44
316.933	10.21
317.147	8.6
317.361	10.52
317.575	28.27
317.789	26.64
318.003	25.87
318.217	46.25
318.431	37.56
318.645	27.98
318.859	28.28
319.073	31.79
319.287	20.34
319.5	22.38
319.714	18.59
319.928	24.49
320.142	15.74
320.356	26.39
320.57	15.6
320.784	17.64
320.997	9.46
321.211	17.42
321.425	6.9
321.639	26.9
321.853	24.45
322.066	7.25
322.28	-1.02
322.494	-0.02
322.707	-9.44
322.921	-10.96
323.135	9.09
323.349	17.16
323.562	22.54
323.776	35.4
323.989	50.17
324.203	27.28
324.417	32.47
324.63	34.12
324.844	16.11
325.057	-18.83
325.271	1.77
325.485	-8.79
325.698	0.31
325.912	12.47
326.125	20.61
326.339	21.54
326.552	27.84
326.766	12.21
326.979	15.07
327.193	37.12
327.406	26.05
327.619	24.68
327.833	32.53
328.046	34.86
328.26	22.9
328.473	37.52
328.686	42.76
328.9	41.35
329.113	34.66
329.326	28.2
329.54	25.22
329.753	27.48
329.966	27.6
330.179	25.01
330.393	25.77
330.606	16.4
330.819	-4.95
331.032	7.31
331.246	21.93
331.459	29.87
331.672	43.06
331.885	43.78
332.098	30.24
332.311	14.9
332.525	5.78
332.738	9.92
332.951	9.04
333.164	18.23
333.377	18.5
333.59	15.66
333.803	3.19
334.016	9.13
334.229	6.67
334.442	14.12
334.655	26.78
334.868	18
335.081	15.15
335.294	14.39
335.507	32.56
335.72	29.56
335.933	41.58
336.146	48.45
336.359	52.41
336.572	41.58
336.785	45
336.997	49.25
337.21	43.19
337.423	0.99
337.636	-3.15
337.849	-4.44
338.062	-0.17
338.274	20.72
338.487	13.87
338.7	6.29
338.913	15.7
339.125	-5.19
339.338	-17.5
339.551	-3.47
339.763	3.29
339.976	2.84
340.189	8.09
340.402	14.84
340.614	14.13
340.827	17.77
341.039	8.11
341.252	12.21
341.465	0.9
341.677	15.15
341.89	-8.24
342.102	5.6
342.315	12.03
342.527	25.6
342.74	12.47
342.952	47.25
343.165	39.01
343.377	42.5
343.59	29.23
343.802	26.46
344.015	21.47
344.227	37.37
344.44	35.63
344.652	43.4
344.864	42.43
345.077	43.11
345.289	22.95
345.502	34.66
345.714	29.6
345.926	24.3
346.139	10.25
346.351	11.27
346.563	2.02
346.775	-1.87
346.988	10.38
347.2	12.91
347.412	17.44
347.624	15.36
347.837	11.83
348.049	8.52
348.261	5.28
348.473	-10.37
348.685	-17.4
348.897	-9.27
349.11	2.52
349.322	2.77
349.534	16.02
349.746	26.48
349.958	11.9
350.17	7.61
350.382	22.61
350.594	27.47
350.806	40.66
351.018	52.15
351.23	54.13
351.442	52.69
351.654	45.84
351.866	45.59
352.078	47.66
352.29	34.09
352.502	30.3
352.714	32.22
352.926	18.21
353.138	10.98
353.35	7.93
353.561	6.83
353.773	-0.02
353.985	12.14
354.197	18.76
354.409	18.52
354.621	12.71
354.832	20.46
355.044	1.44
355.256	-18.93
355.468	-17.52
355.679	-1.34
355.891	5.41
356.103	-2.39
356.314	4.92
356.526	-7.31
356.738	-0.03
356.949	-7.36
357.161	22.28
357.373	17
357.584	33.77
357.796	38.3
358.008	40.11
358.219	32.59
358.431	37.02
358.642	37.34
358.854	29.02
359.065	29.38
359.277	26.59
359.488	19.03
359.7	14.92
359.911	8.61
360.123	24.43
360.334	15.88
360.546	17.02
360.757	22.51
360.969	34.08
361.18	12.43
361.391	19.74
361.603	29.24
361.814	24.07
362.025	25.8
362.237	27.04
362.448	32.99
362.659	25.09
362.871	13.01
363.082	16.59
363.293	36.97
363.504	11.51
363.716	16.28
363.927	41.81
364.138	21.92
364.349	-6.97
364.56	-5.85
364.772	5.5
364.983	-10.29
365.194	4.65
365.405	15.45
365.616	39.28
365.827	30.32
366.038	48.49
366.25	48.63
366.461	45.19
366.672	27.26
366.883	25.64
367.094	11.25
367.305	-6.71
367.516	-6.08
367.727	-7.64
367.938	-7.25
368.149	-9.07
368.36	-5.71
368.571	-13.73
368.781	-15.72
368.992	-14.56
369.203	-11.73
369.414	-1.75
369.625	9.87
369.836	34.59
370.047	40.54
370.258	47.24
370.468	31.05
370.679	24.9
370.89	8.07
371.101	6.41
371.312	1.15
371.522	-7.61
371.733	-8.66
371.944	-25.64
372.155	-13.32
372.365	-10.98
372.576	-14.57
372.787	-4.15
372.997	5.87
373.208	-3.75
373.419	-3.06
373.629	12.77
373.84	-2.41
374.05	-5.84
374.261	-6.8
374.472	-9.31
374.682	-3.06
374.893	-7.12
375.103	-4.12
375.314	1.05
375.524	1.02
375.735	8.92
375.945	14.25
376.156	12.85
376.366	10.33
376.577	13.48
376.787	11.41
376.997	20.32
377.208	25.9
377.418	20.38
377.629	26.48
377.839	30.5
378.049	33.82
378.26	22.32
378.47	24.3
378.68	14.22
378.89	10.81
379.101	6.87
379.311	6.7
379.521	3.01
379.732	10.78
379.942	-0.53
380.152	-10.72
380.362	-3.86
380.572	12.64
380.783	11.17
380.993	16.68
381.203	21.75
381.413	28.11
381.623	20.46
381.833	26.2
382.043	23.93
382.253	23.61
382.463	29.78
382.674	33.47
382.884	28.38
383.094	31.67
383.304	36.33
383.514	33.24
383.724	32.39
383.934	24.72
384.144	21.98
384.353	18.94
384.563	12.11
384.773	8.39
384.983	9.01
385.193	6.92
385.403	5.59
385.613	4.74
385.823	6.7
386.033	5.11
386.242	-0.5
386.452	2.3
386.662	0.2
386.872	0.82
387.082	4.56
387.291	7.2
387.501	2.92
387.711	9.27
387.921	9.61
388.13	10.09
388.34	13.43
388.55	15.03
388.759	11.49
388.969	12.69
389.179	11.4
389.388	9.56
389.598	6.15
389.807	1.53
390.017	-2.64
390.227	-2.22
390.436	-0.99
390.646	0.41
390.855	3.99
391.065	4.78
391.274	4.18
391.484	4.08
391.693	2.7
391.903	0.55
392.112	0.78
392.322	-0.74
392.531	-2.18
392.74	-2.24
392.95	0.02
393.159	0.44
393.369	2.59
393.578	3.13
393.787	3.73
393.997	3.69
394.206	2.19
394.415	0.82
394.625	0.54
394.834	-0.76
395.043	0.01
395.252	2.43
395.462	3.27
395.671	3.38
395.88	4.8
396.089	3.82
396.298	2.92
396.508	2.54
396.717	2.87
396.926	2.87
397.135	3.63
397.344	2.99
397.553	2.8
397.762	3.59
397.971	3.03
398.181	2.62
398.39	2.72
398.599	3.34
398.808	2.93
399.017	3.89
399.226	4.02
399.435	4.33
399.644	4.48
399.853	4.41
400.062	3.77
400.27	3.51
400.479	3.39
400.688	2.98
400.897	2.56
401.106	2.65
401.315	2.42
401.524	2.73
401.733	2.45
401.941	3
402.15	2.91
402.359	3.01
402.568	3.11
402.777	3.48
402.985	3.15
403.194	3.02
403.403	3.23
403.612	2.83
403.82	2.19
404.029	2.34
404.238	2.55
404.446	2.58
404.655	2.71
404.864	3.01
405.072	3.08
405.281	3.07
405.489	2.92
405.698	2.91
405.906	3.08
406.115	2.88
406.324	2.87
406.532	2.96
406.741	3.06
406.949	3.03
407.158	3.08
407.366	2.94
407.574	2.92
407.783	2.91
407.991	2.92
408.2	3.01
408.408	3.1
408.617	3.12
408.825	2.91
409.033	2.82
409.242	2.87
409.45	2.87
409.658	2.8
409.867	2.77
410.075	2.79
410.283	2.48
410.491	2.22
410.7	2.16
410.908	2.33
411.116	2.36
411.324	2.61
411.533	2.64
411.741	2.66
411.949	2.59
412.157	2.47
412.365	2.41
412.573	2.62
412.781	2.63
412.99	2.68
413.198	2.9
413.406	2.98
413.614	3.02
413.822	3.09
414.03	2.99
414.238	2.82
414.446	2.74
414.654	2.58
414.862	2.54
415.07	2.57
415.278	2.81
415.486	2.64
415.694	2.71
415.902	2.77
416.109	2.71
416.317	2.48
416.525	2.62
416.733	2.59
416.941	2.55
417.149	2.48
417.357	2.52
417.564	2.34
417.772	2.45
417.98	2.34
418.188	2.39
418.395	2.25
418.603	2.17
418.811	2.03
419.019	2.09
419.226	2.09
419.434	2.12
419.642	2.25
419.849	2.26
420.057	2.33
420.265	2.42
420.472	2.45
420.68	2.48
420.887	2.41
421.095	2.41
421.302	2.54
421.51	2.59
421.717	2.64
421.925	2.86
422.132	2.86
422.34	2.61
422.547	2.61
422.755	2.57
422.962	2.53
423.17	2.28
423.377	2.37
423.585	2.47
423.792	2.41
423.999	2.27
424.207	2.36
424.414	2.34
424.621	2.25
424.829	2.34
425.036	2.37
425.243	2.41
425.451	2.55
425.658	2.46
425.865	2.57
426.072	2.49
426.28	2.56
426.487	2.41
426.694	2.41
426.901	2.29
427.108	2.22
427.315	2.14
427.523	2.14
427.73	2.2
427.937	2.16
428.144	2.25
428.351	2.29
428.558	2.36
428.765	2.38
428.972	2.48
429.179	2.43
429.386	2.48
429.593	2.36
429.8	2.32
430.007	2.38
430.214	2.4
430.421	2.39
430.628	2.44
430.835	2.42
431.042	2.23
431.249	2.3
431.456	2.19
431.662	2.31
431.869	2.46
432.076	2.62
432.283	2.72
432.49	2.84
432.697	2.79
432.903	2.72
433.11	2.76
433.317	2.78
433.524	2.82
433.73	2.77
433.937	2.85
434.144	2.67
434.35	2.53
434.557	2.5
434.764	2.54
434.97	2.29
435.177	2.46
435.384	2.57
435.59	2.62
435.797	2.75
436.003	2.96
436.21	2.88
436.416	2.9
436.623	2.84
436.829	2.7
437.036	2.76
437.242	2.86
437.449	2.84
437.655	2.99
437.862	3.15
438.068	3.06
438.275	3.12
438.481	3.11
438.687	3
438.894	2.92
439.1	2.89
439.307	2.96
439.513	3
439.719	3.01
439.926	3.01
440.132	3.12
440.338	3
440.544	3.05
440.751	3.03
440.957	3.12
441.163	3.05
441.369	3.09
441.575	2.96
441.782	3.01
441.988	3.01
442.194	2.99
442.4	2.84
442.606	3.01
442.812	2.96
443.018	2.85
443.224	2.98
443.431	3.06
443.637	2.97
443.843	3.02
444.049	3.19
444.255	3.15
444.461	3.08
444.667	3.14
444.873	3.12
445.079	3.1
445.284	3.03
445.49	3.09
445.696	3.06
445.902	3.08
446.108	3.1
446.314	3.11
446.52	3.25
446.726	3.28
446.931	3.25
447.137	3.16
447.343	3.23
447.549	3.14
447.755	3.11
447.96	3.17
448.166	3.22
448.372	3.28
448.578	3.28
448.783	3.34
448.989	3.43
449.195	3.42
449.4	3.43
449.606	3.45
449.812	3.39
450.017	3.36
450.223	3.27
450.428	3.18
450.634	3.21
450.84	3.21
451.045	3.19
451.251	3.27
451.456	3.44
451.662	3.45
451.867	3.55
452.073	3.58
452.278	3.53
452.483	3.38
452.689	3.41
452.894	3.39
453.1	3.25
453.305	3.3
453.51	3.35
453.716	3.24
453.921	3.28
454.127	3.38
454.332	3.4
454.537	3.43
454.742	3.46
454.948	3.42
455.153	3.4
455.358	3.43
455.563	3.45
455.769	3.43
455.974	3.45
456.179	3.36
456.384	3.29
456.589	3.21
456.795	3.29
457	3.22
457.205	3.28
457.41	3.29
457.615	3.24
457.82	3.29
458.025	3.29
458.23	3.27
458.435	3.25
458.64	3.33
458.845	3.27
459.05	3.29
459.255	3.26
459.46	3.33
459.665	3.34
459.87	3.28
460.075	3.44
460.28	3.61
460.485	3.71
460.69	3.73
460.895	3.84
461.099	3.66
461.304	3.5
461.509	3.4
461.714	3.42
461.919	3.33
462.123	3.44
462.328	3.4
462.533	3.35
462.738	3.3
462.942	3.32
463.147	3.25
463.352	3.35
463.556	3.47
463.761	3.46
463.966	3.49
464.17	3.58
464.375	3.61
464.58	3.6
464.784	3.66
464.989	3.69
465.193	3.66
465.398	3.75
465.602	3.76
465.807	3.82
466.011	3.84
466.216	3.8
466.42	3.73
466.625	3.84
466.829	3.85
467.034	3.94
467.238	4.03
467.443	4.04
467.647	3.96
467.851	3.87
468.056	3.78
468.26	3.77
468.464	3.84
468.669	3.86
468.873	3.95
469.077	3.94
