Data from Ofra_1a_PS_8HS24_Reflection_2.txt Node
Date: Tue Jul 20 11:03:36 EDT 2021
User: Adam
Spectrometer: FLMT01687
Trigger mode: 0
Integration Time (sec): 1.004000E0
Scans to average: 2
Electric dark correction enabled: true
Nonlinearity correction enabled: false
Boxcar width: 2
XAxis mode: Wavelengths
Number of Pixels in Spectrum: 3648
>>>>>Begin Spectral Data<<<<<
179.494	85.79
179.716	-111.45
179.937	447.83
180.158	-837.58
180.38	193.34
180.601	115.14
180.823	4.93
181.044	-129.51
181.265	-359.19
181.486	207.71
181.708	95.29
181.929	3118.18
182.15	-146.54
182.372	789.66
182.593	326.18
182.814	-319.02
183.035	-47.79
183.257	-3.21
183.478	-23.22
183.699	-40.16
183.92	-81.68
184.141	-97.7
184.363	-73.59
184.584	-77.43
184.805	-39.77
185.026	23.58
185.247	12.18
185.468	-5.56
185.689	11.65
185.91	2.59
186.132	4.06
186.353	25.21
186.574	31.81
186.795	31
187.016	31.66
187.237	22.99
187.458	26.44
187.679	-7.78
187.9	-9.6
188.121	-15.84
188.342	-6.15
188.563	9.19
188.784	47.52
189.005	34.79
189.226	39.89
189.447	34.63
189.667	15.29
189.888	1.51
190.109	0.89
190.33	1.98
190.551	-10.27
190.772	9.69
190.993	-1.73
191.214	4.42
191.434	-13.05
191.655	-20.11
191.876	-1.1
192.097	35.41
192.318	44.64
192.538	27.54
192.759	21.72
192.98	25.13
193.201	7.32
193.421	-0.65
193.642	19.02
193.863	31.11
194.083	16.44
194.304	42
194.525	8.96
194.745	-13.13
194.966	-8.63
195.187	-1.09
195.407	-28.99
195.628	2.4
195.848	12.68
196.069	-3.32
196.29	6.51
196.51	1.8
196.731	-3.04
196.951	-48.36
197.172	-26.25
197.392	-49.37
197.613	-16.44
197.833	-25.22
198.054	-8.77
198.274	2.27
198.495	-5.79
198.715	-4.93
198.936	-0.99
199.156	15.18
199.377	-0.59
199.597	11.61
199.817	-12.6
200.038	-28.73
200.258	-18.94
200.479	-0.88
200.699	-4.93
200.919	13.2
201.14	16.43
201.36	11.08
201.58	-6.33
201.801	-10.84
202.021	-28.38
202.241	-34.04
202.461	-33.98
202.682	-30.71
202.902	-11.65
203.122	9.49
203.342	34.13
203.563	21.13
203.783	31.93
204.003	18.74
204.223	21.65
204.443	4.41
204.663	31.66
204.884	40.99
205.104	36.73
205.324	45.8
205.544	35.78
205.764	38.61
205.984	22.98
206.204	52.95
206.424	13.56
206.644	7.42
206.864	-20.62
207.084	-13.46
207.304	-38.49
207.525	-13.8
207.745	7.84
207.964	23.55
208.184	46.77
208.404	36.66
208.624	39.67
208.844	27.05
209.064	19.28
209.284	-19.05
209.504	-29.94
209.724	-23.16
209.944	-29.33
210.164	-36.59
210.384	-12.92
210.604	-41.62
210.823	-62.22
211.043	-44.92
211.263	-99.75
211.483	-47.15
211.703	-40.04
211.922	-47.18
212.142	-21.91
212.362	13.58
212.582	16.12
212.801	37.13
213.021	39.73
213.241	35.09
213.461	27.43
213.68	20.27
213.9	15.47
214.12	9.42
214.339	10.35
214.559	9.16
214.779	-0.64
214.998	16.1
215.218	23.54
215.438	22.11
215.657	25.3
215.877	27.45
216.096	30.15
216.316	17.39
216.535	8.14
216.755	10.13
216.974	-0.34
217.194	-7.74
217.413	7.25
217.633	5.31
217.852	-4.95
218.072	6.04
218.291	0.07
218.511	-11.07
218.73	-22.56
218.95	-40.16
219.169	-46.43
219.389	-17.39
219.608	-17.43
219.827	12.22
220.047	18.75
220.266	3.57
220.485	-42.19
220.705	-10.68
220.924	-50.82
221.143	-1.59
221.363	13.44
221.582	30.68
221.801	32.85
222.021	35.73
222.24	42.75
222.459	49.45
222.678	48.4
222.897	37.7
223.117	46.45
223.336	40.51
223.555	28.26
223.774	38.04
223.993	52.24
224.213	46.41
224.432	43.72
224.651	39.87
224.87	39.55
225.089	39.08
225.308	54.76
225.527	40.58
225.746	54.49
225.965	31.37
226.184	13.59
226.404	-7.28
226.623	1.53
226.842	-0.09
227.061	10.81
227.28	26.86
227.499	32.97
227.718	31.04
227.936	21.86
228.155	20.6
228.374	7.96
228.593	4.32
228.812	4.36
229.031	13.31
229.25	-10.95
229.469	-1.95
229.688	-5.15
229.907	4
230.125	4.24
230.344	21.86
230.563	21.63
230.782	25.54
231.001	29.14
231.22	40
231.438	43.31
231.657	35.01
231.876	29.61
232.095	32.58
232.313	23.83
232.532	29.17
232.751	18.35
232.969	26.2
233.188	6.48
233.407	9.11
233.625	-0.1
233.844	16.03
234.063	8.98
234.281	15.05
234.5	21.45
234.719	23.32
234.937	24.72
235.156	32.19
235.374	45.03
235.593	42.85
235.811	55.52
236.03	34.85
236.249	44.55
236.467	45.99
236.686	33.62
236.904	18.2
237.123	19.62
237.341	-3.67
237.559	-20.41
237.778	1.3
237.996	-27.86
238.215	-87.34
238.433	-108.25
238.652	-34.67
238.87	-42.73
239.088	-8.88
239.307	7.15
239.525	13.92
239.743	0.42
239.962	-17.79
240.18	-22.19
240.398	-13.42
240.617	-21.44
240.835	-29.18
241.053	-5.26
241.271	12.84
241.49	16.04
241.708	4.77
241.926	6.23
242.144	9.98
242.363	-5.36
242.581	-42.31
242.799	-22.13
243.017	-1.85
243.235	7.35
243.453	3.09
243.672	13.68
243.89	18.42
244.108	19.08
244.326	29.84
244.544	38.79
244.762	31.95
244.98	41.78
245.198	52.13
245.416	37.52
245.634	36.38
245.852	32.05
246.07	28.57
246.288	6.15
246.506	4.24
246.724	-15.85
246.942	-0.27
247.16	-7.62
247.378	-16.64
247.596	13.75
247.814	42.13
248.032	28.17
248.25	53.04
248.468	43.44
248.685	36.94
248.903	27.82
249.121	23.88
249.339	19.67
249.557	25.07
249.775	41.65
249.992	47.96
250.21	38.23
250.428	38.6
250.646	42.75
250.863	16.75
251.081	18.77
251.299	42.7
251.517	50.93
251.734	30.78
251.952	33.29
252.17	25.33
252.387	18.17
252.605	10
252.823	14.95
253.04	44.05
253.258	46.06
253.475	23.62
253.693	16.03
253.911	12.66
254.128	-5.1
254.346	-0.1
254.563	24.29
254.781	30.39
254.998	30.93
255.216	-2.23
255.433	-18.16
255.651	-9.42
255.868	-16.57
256.086	11.06
256.303	35.94
256.521	41.41
256.738	35.34
256.956	44.57
257.173	19.03
257.39	10.27
257.608	6.63
257.825	7.08
258.043	20.14
258.26	30.92
258.477	45.6
258.695	54.88
258.912	42.78
259.129	21.8
259.346	-11.91
259.564	-39.19
259.781	-52.45
259.998	-21.66
260.216	3.44
260.433	8.68
260.65	18.34
260.867	18.27
261.084	23.57
261.302	9.84
261.519	42.01
261.736	32.11
261.953	27.45
262.17	39.3
262.387	43.52
262.604	35.88
262.822	43.39
263.039	47.87
263.256	41.73
263.473	39.07
263.69	29.4
263.907	22.74
264.124	23.58
264.341	27.57
264.558	19.57
264.775	15.31
264.992	14.13
265.209	3.52
265.426	-35.41
265.643	-30.91
265.86	-4.08
266.077	-13.9
266.294	-4.9
266.51	32.68
266.727	36.65
266.944	27.44
267.161	26.61
267.378	25.15
267.595	-1.21
267.812	-19.75
268.028	-34.07
268.245	-19.9
268.462	-3.45
268.679	10.97
268.896	23.17
269.112	16.28
269.329	-2.55
269.546	2.97
269.763	13.74
269.979	14.19
270.196	26.55
270.413	24.67
270.629	11
270.846	6
271.063	2.5
271.279	15.93
271.496	3.97
271.712	5.77
271.929	10.16
272.146	25.13
272.362	8.3
272.579	25.14
272.795	16.33
273.012	12.84
273.228	12.66
273.445	10.77
273.661	13.88
273.878	25.36
274.094	27.69
274.311	25.67
274.527	18.06
274.744	42.71
274.96	36.61
275.177	41.99
275.393	44.51
275.609	55.75
275.826	45.11
276.042	37.94
276.259	28.22
276.475	4.92
276.691	-8.49
276.908	-7.39
277.124	22.25
277.34	31.59
277.557	25.49
277.773	28.77
277.989	17.67
278.205	-5.41
278.422	-12.57
278.638	2.16
278.854	-8.16
279.07	7.99
279.286	1.02
279.503	5.99
279.719	8.78
279.935	17.51
280.151	-0.67
280.367	8.4
280.583	4.03
280.799	5.67
281.016	-12.97
281.232	4.18
281.448	1.31
281.664	11.84
281.88	13.13
282.096	18.48
282.312	23.62
282.528	16.7
282.744	15.36
282.96	4.13
283.176	-0.41
283.392	-46.6
283.608	0.13
283.824	-39.24
284.04	-75.77
284.256	-24.49
284.471	-12.43
284.687	-24.93
284.903	-6.3
285.119	11.84
285.335	6.77
285.551	16.21
285.767	20.74
285.982	19.21
286.198	2.37
286.414	12.92
286.63	13
286.846	2.85
287.061	-13.13
287.277	-14.21
287.493	-29.27
287.709	-36.57
287.924	-16.3
288.14	9.44
288.356	43.41
288.571	37.24
288.787	33.29
289.003	46.87
289.218	19.15
289.434	-19.68
289.65	13.82
289.865	18.06
290.081	10.48
290.296	30.53
290.512	32.31
290.727	16.81
290.943	13.59
291.159	4.21
291.374	-12.63
291.59	7.42
291.805	9.28
292.021	20.48
292.236	20.07
292.451	31.85
292.667	33.34
292.882	32.34
293.098	28.19
293.313	32.13
293.529	29.44
293.744	0.41
293.959	-13.9
294.175	-3.38
294.39	-9.96
294.605	11.95
294.821	22.17
295.036	29.11
295.251	26.22
295.467	27.64
295.682	14.68
295.897	8.02
296.112	1.2
296.328	9.61
296.543	1.05
296.758	6.71
296.973	10.03
297.188	39.11
297.404	23.76
297.619	27.78
297.834	-3.49
298.049	7.23
298.264	-20.26
298.479	8.86
298.694	34.14
298.909	44.03
299.125	36.22
299.34	44.15
299.555	27.58
299.77	27.66
299.985	21.08
300.2	27.93
300.415	28.92
300.63	34.44
300.845	26.38
301.06	32.71
301.275	45.06
301.49	39.61
301.704	31.97
301.919	31.28
302.134	28.24
302.349	13.73
302.564	-1.22
302.779	-27.66
302.994	-13.78
303.209	-18.48
303.423	-14.36
303.638	-4.5
303.853	4.15
304.068	-23.08
304.283	-16.3
304.497	-31.06
304.712	-14.37
304.927	-0.5
305.142	16.48
305.356	22.42
305.571	21.72
305.786	25.06
306	41.99
306.215	28.98
306.43	17.74
306.644	12.97
306.859	2.25
307.074	3.68
307.288	17.32
307.503	33.08
307.717	36.64
307.932	33.34
308.147	22.63
308.361	28.25
308.576	-2.03
308.79	-5.77
309.005	-7.95
309.219	2.63
309.434	2.93
309.648	15.79
309.863	25.55
310.077	20.88
310.292	32.32
310.506	18.17
310.72	7.77
310.935	20.49
311.149	23.26
311.364	21.97
311.578	36.99
311.792	58.71
312.007	76.17
312.221	71.12
312.435	51.71
312.649	37.33
312.864	0.34
313.078	-18.07
313.292	-15.72
313.507	-10.87
313.721	-14.49
313.935	13.43
314.149	28.79
314.363	37.1
314.578	26.11
314.792	28.38
315.006	7.9
315.22	20.08
315.434	32.88
315.648	26.15
315.862	18.54
316.077	19.11
316.291	11.87
316.505	-33.38
316.719	-18.05
316.933	-2.9
317.147	14.96
317.361	5.44
317.575	19.14
317.789	8.16
318.003	-2.12
318.217	-1.96
318.431	-10.42
318.645	-5.86
318.859	6.09
319.073	25.56
319.287	20.4
319.5	18.08
319.714	18.54
319.928	9.81
320.142	-3.26
320.356	1.66
320.57	-7.16
320.784	-15.43
320.997	-30.5
321.211	-4.99
321.425	-21.6
321.639	0.07
321.853	12.97
322.066	14.47
322.28	-11.39
322.494	-7.86
322.707	-7.84
322.921	-18.27
323.135	-18.33
323.349	-13.15
323.562	-7.46
323.776	-6.23
323.989	7.84
324.203	6.12
324.417	18.67
324.63	14.45
324.844	6.3
325.057	-23.26
325.271	-9.13
325.485	-17.63
325.698	-6.91
325.912	16.47
326.125	24.49
326.339	30.74
326.552	30.25
326.766	11.62
326.979	-9.13
327.193	8.27
327.406	-2.76
327.619	1.22
327.833	17.92
328.046	15.9
328.26	6.11
328.473	10.94
328.686	6.6
328.9	20.23
329.113	13.79
329.326	17.51
329.54	24.18
329.753	38
329.966	25.74
330.179	33.63
330.393	41.39
330.606	32.65
330.819	11.55
331.032	17.49
331.246	27.26
331.459	21.1
331.672	11.35
331.885	9.69
332.098	12.23
332.311	-14.36
332.525	-1.26
332.738	8.82
332.951	7.65
333.164	13.68
333.377	31.59
333.59	23.45
333.803	22.1
334.016	28.94
334.229	22.34
334.442	23.8
334.655	17.68
334.868	10.08
335.081	9.65
335.294	-1.5
335.507	1.94
335.72	17.06
335.933	17.65
336.146	15.22
336.359	37.72
336.572	27.84
336.785	21.58
336.997	12.65
337.21	24.76
337.423	-20.35
337.636	-17.68
337.849	-14.86
338.062	8.84
338.274	12.48
338.487	8.52
338.7	11.9
338.913	7.18
339.125	-8.52
339.338	-13.85
339.551	-6.16
339.763	-6.72
339.976	4.12
340.189	10.9
340.402	22.83
340.614	29.44
340.827	31.76
341.039	27.02
341.252	19.55
341.465	-6.58
341.677	-10.99
341.89	-30.96
342.102	-28.21
342.315	-23.56
342.527	4.18
342.74	-22.95
342.952	-4.76
343.165	-8.86
343.377	1.99
343.59	-9.74
343.802	16.5
344.015	23.74
344.227	31.48
344.44	23.28
344.652	34.77
344.864	35.7
345.077	31
345.289	34.88
345.502	47.42
345.714	36
345.926	43.36
346.139	34.93
346.351	33.41
346.563	40.56
346.775	47.32
346.988	41.89
347.2	43.22
347.412	36.6
347.624	12.56
347.837	9.59
348.049	5.53
348.261	-1.17
348.473	-11.63
348.685	2.53
348.897	-3.73
349.11	5.8
349.322	15.97
349.534	28.43
349.746	16.65
349.958	14.89
350.17	1.65
350.382	5.49
350.594	-0.27
350.806	19.58
351.018	24.92
351.23	26.28
351.442	31.17
351.654	33.03
351.866	21.14
352.078	23.08
352.29	27.26
352.502	24.79
352.714	31.95
352.926	29.22
353.138	21.63
353.35	9.4
353.561	10.26
353.773	0.17
353.985	8.39
354.197	19.28
354.409	21.42
354.621	5.85
354.832	9.47
355.044	-9.57
355.256	-20.1
355.468	-6.29
355.679	23.11
355.891	25.43
356.103	22.09
356.314	15.53
356.526	0.5
356.738	-15.72
356.949	-15.07
357.161	11.46
357.373	14.28
357.584	21
357.796	19.98
358.008	29.3
358.219	24.56
358.431	20.39
358.642	24.78
358.854	29.62
359.065	10.08
359.277	4.83
359.488	8.3
359.7	-0.45
359.911	-6.77
360.123	1.08
360.334	-2.44
360.546	-1.53
360.757	5.87
360.969	7.26
361.18	6.46
361.391	20.12
361.603	16.07
361.814	15.72
362.025	18.23
362.237	17.97
362.448	14.24
362.659	6.24
362.871	-6.1
363.082	-12.09
363.293	-17.79
363.504	-30.22
363.716	-14.14
363.927	9.56
364.138	-6.3
364.349	-13.65
364.56	-17.55
364.772	-12.22
364.983	-15.57
365.194	-0.23
365.405	10.33
365.616	19.71
365.827	10.08
366.038	24.94
366.25	19.27
366.461	17.18
366.672	7.74
366.883	12.82
367.094	7.03
367.305	4.89
367.516	13.83
367.727	23.87
367.938	22.77
368.149	10.47
368.36	13.38
368.571	-3.26
368.781	-16.34
368.992	-12.23
369.203	-5.41
369.414	-12.79
369.625	-10.43
369.836	10.01
370.047	7.52
370.258	2.42
370.468	-3.12
370.679	2.84
370.89	-13.32
371.101	8.03
371.312	-1.84
371.522	15.08
371.733	4.51
371.944	-1.39
372.155	-3.26
372.365	0.38
372.576	-4.53
372.787	9.89
372.997	20.27
373.208	0.49
373.419	15.4
373.629	7.62
373.84	-2.47
374.05	-10.88
374.261	-17.51
374.472	-28.4
374.682	-15.39
374.893	-19.02
375.103	0.37
375.314	11.85
375.524	18.02
375.735	24.77
375.945	31.53
376.156	10.51
376.366	6.87
376.577	9.56
376.787	3.49
376.997	10.64
377.208	23.44
377.418	22.32
377.629	21.06
377.839	28.01
378.049	24.92
378.26	20.21
378.47	23.38
378.68	17.17
378.89	12.97
379.101	11.56
379.311	7.72
379.521	6.39
379.732	10.96
379.942	7.16
380.152	-2.14
380.362	1.96
380.572	8.64
380.783	12.88
380.993	14.72
381.203	12.46
381.413	24.42
381.623	28.1
381.833	28.06
382.043	29.42
382.253	32.29
382.463	29.48
382.674	25.01
382.884	24.56
383.094	25.54
383.304	29.13
383.514	20.98
383.724	16.95
383.934	10.01
384.144	11.29
384.353	13.22
384.563	15.99
384.773	21.61
384.983	22.14
385.193	21.15
385.403	13.67
385.613	15.28
385.823	3.94
386.033	5.86
386.242	1.49
386.452	2.06
386.662	1.1
386.872	9.48
387.082	6.98
387.291	4.92
387.501	10.23
387.711	9.55
387.921	7.34
388.13	10.5
388.34	11.45
388.55	6.29
388.759	0.28
388.969	-0.61
389.179	-3.95
389.388	-5.14
389.598	-2.94
389.807	-4
390.017	-2.09
390.227	-3.77
390.436	-0.18
390.646	0.32
390.855	1.64
391.065	1.49
391.274	4.4
391.484	5.21
391.693	2.59
391.903	3.57
392.112	3.39
392.322	3.1
392.531	0.77
392.74	0.99
392.95	0.95
393.159	0.13
393.369	-0.88
393.578	-1.11
393.787	-0.47
393.997	0.15
394.206	-0.4
394.415	1.77
394.625	2.31
394.834	1.13
395.043	1.68
395.252	5.31
395.462	5.15
395.671	5.11
395.88	6.7
396.089	5.92
396.298	3.92
396.508	3.23
396.717	2.37
396.926	1.89
397.135	2.25
397.344	1.57
397.553	1.66
397.762	2.9
397.971	3.2
398.181	3.79
398.39	4.11
398.599	4.64
398.808	4.45
399.017	5.54
399.226	5.26
399.435	5.83
399.644	5.8
399.853	5.88
400.062	5.01
400.27	4.93
400.479	4.81
400.688	4.67
400.897	4.53
401.106	4.64
401.315	4.55
401.524	4.44
401.733	4.17
401.941	4.66
402.15	4.44
402.359	4.38
402.568	4.52
402.777	4.99
402.985	4.28
403.194	4.13
403.403	4.43
403.612	4.11
403.82	3.68
404.029	3.94
404.238	4.03
404.446	3.96
404.655	4.2
404.864	4.28
405.072	4.34
405.281	4.43
405.489	4.28
405.698	4.29
405.906	4.52
406.115	4.46
406.324	4.57
406.532	4.79
406.741	4.77
406.949	4.63
407.158	4.78
407.366	4.57
407.574	4.43
407.783	4.47
407.991	4.4
408.2	4.36
408.408	4.48
408.617	4.34
408.825	4.07
409.033	4.01
409.242	4
409.45	3.9
409.658	3.94
409.867	4
410.075	4.07
410.283	3.86
410.491	3.81
410.7	3.67
410.908	3.8
411.116	3.89
411.324	3.87
411.533	3.87
411.741	4.01
411.949	3.95
412.157	3.7
412.365	3.84
412.573	3.93
412.781	3.9
412.99	3.92
413.198	4.14
413.406	4.14
413.614	4.23
413.822	4.35
414.03	4.3
414.238	4.28
414.446	4.24
414.654	4.03
414.862	3.91
415.07	3.78
415.278	3.86
415.486	3.67
415.694	3.7
415.902	3.75
416.109	3.76
416.317	3.63
416.525	3.74
416.733	3.67
416.941	3.7
417.149	3.65
417.357	3.7
417.564	3.65
417.772	3.69
417.98	3.66
418.188	3.7
418.395	3.36
418.603	3.43
418.811	3.48
419.019	3.41
419.226	3.46
419.434	3.74
419.642	3.65
419.849	3.58
420.057	3.58
420.265	3.5
420.472	3.37
420.68	3.53
420.887	3.48
421.095	3.43
421.302	3.43
421.51	3.47
421.717	3.49
421.925	3.62
422.132	3.71
422.34	3.59
422.547	3.48
422.755	3.35
422.962	3.32
423.17	3.1
423.377	3.18
423.585	3.42
423.792	3.45
423.999	3.33
424.207	3.29
424.414	3.46
424.621	3.39
424.829	3.39
425.036	3.45
425.243	3.59
425.451	3.55
425.658	3.44
425.865	3.44
426.072	3.47
426.28	3.52
426.487	3.4
426.694	3.26
426.901	3.27
427.108	3.29
427.315	3.27
427.523	3.23
427.73	3.41
427.937	3.3
428.144	3.27
428.351	3.3
428.558	3.48
428.765	3.41
428.972	3.42
429.179	3.35
429.386	3.31
429.593	3.18
429.8	3.2
430.007	3.28
430.214	3.4
430.421	3.45
430.628	3.44
430.835	3.42
431.042	3.32
431.249	3.24
431.456	3.33
431.662	3.49
431.869	3.65
432.076	3.73
432.283	3.92
432.49	3.81
432.697	3.77
432.903	3.69
433.11	3.86
433.317	3.8
433.524	3.83
433.73	3.75
433.937	3.88
434.144	3.64
434.35	3.58
434.557	3.62
434.764	3.7
434.97	3.52
435.177	3.73
435.384	3.78
435.59	3.85
435.797	3.91
436.003	4.03
436.21	3.93
436.416	3.89
436.623	3.81
436.829	3.8
437.036	3.77
437.242	3.92
437.449	3.9
437.655	4.08
437.862	4.07
438.068	4.01
438.275	4.01
438.481	4.1
438.687	3.99
438.894	4.11
439.1	4.23
439.307	4.26
439.513	4.37
439.719	4.38
439.926	4.43
440.132	4.54
440.338	4.5
440.544	4.48
440.751	4.47
440.957	4.55
441.163	4.41
441.369	4.35
441.575	4.24
441.782	4.39
441.988	4.24
442.194	4.23
442.4	4.23
442.606	4.4
442.812	4.34
443.018	4.37
443.224	4.5
443.431	4.57
443.637	4.41
443.843	4.44
444.049	4.55
444.255	4.51
444.461	4.5
444.667	4.59
444.873	4.63
445.079	4.56
445.284	4.49
445.49	4.54
445.696	4.46
445.902	4.39
446.108	4.41
446.314	4.44
446.52	4.51
446.726	4.69
446.931	4.69
447.137	4.72
447.343	4.83
447.549	4.75
447.755	4.72
447.96	4.74
448.166	4.71
448.372	4.66
448.578	4.66
448.783	4.64
448.989	4.71
449.195	4.74
449.4	4.8
449.606	4.86
449.812	4.78
450.017	4.79
450.223	4.76
450.428	4.68
450.634	4.68
450.84	4.74
451.045	4.7
451.251	4.75
451.456	4.81
451.662	4.86
451.867	4.98
452.073	4.95
452.278	4.97
452.483	4.91
452.689	4.87
452.894	4.88
453.1	4.88
453.305	4.86
453.51	4.95
453.716	4.96
453.921	4.94
454.127	5.04
454.332	5.02
454.537	4.97
454.742	4.96
454.948	4.98
455.153	4.88
455.358	4.89
455.563	5.04
455.769	5.01
455.974	4.92
456.179	5.01
456.384	4.98
456.589	4.82
456.795	4.88
457	4.88
457.205	4.79
457.41	4.78
457.615	4.79
457.82	4.85
458.025	4.82
458.23	4.9
458.435	4.97
458.64	5.01
458.845	4.96
459.05	5
459.255	4.94
459.46	4.91
459.665	4.89
459.87	4.89
460.075	4.89
460.28	4.93
460.485	4.96
460.69	4.94
460.895	4.94
461.099	4.86
461.304	4.8
461.509	4.87
461.714	4.97
461.919	4.91
462.123	5.05
462.328	5.02
462.533	4.9
462.738	4.81
462.942	4.86
463.147	4.81
463.352	4.91
463.556	5
463.761	5.05
463.966	5.05
464.17	5.14
464.375	5.2
464.58	5.15
464.784	5.17
464.989	5.22
465.193	5.16
465.398	5.11
465.602	5.16
465.807	5.21
466.011	5.22
466.216	5.23
466.42	5.27
466.625	5.38
466.829	5.32
467.034	5.44
467.238	5.59
467.443	5.59
467.647	5.56
467.851	5.6
468.056	5.52
468.26	5.51
