Data from Ofra_PS_T2_2A_2GT41_Reflection_2.txt Node
Date: Wed Jul 21 17:04:54 EDT 2021
User: Adam
Spectrometer: FLMT01687
Trigger mode: 0
Integration Time (sec): 1.100000E0
Scans to average: 2
Electric dark correction enabled: true
Nonlinearity correction enabled: false
Boxcar width: 2
XAxis mode: Wavelengths
Number of Pixels in Spectrum: 3648
>>>>>Begin Spectral Data<<<<<
179.494	401.4
179.716	532.24
179.937	503.38
180.158	476.44
180.38	667.97
180.601	351.8
180.823	110.68
181.044	-32.35
181.265	327.02
181.486	154.62
181.708	149.83
181.929	399.49
182.15	-263.03
182.372	179.14
182.593	53.05
182.814	75.26
183.035	105.78
183.257	61.28
183.478	-11.65
183.699	65.79
183.92	36.03
184.141	11.93
184.363	-42.19
184.584	-6.62
184.805	-24.41
185.026	4.87
185.247	15.86
185.468	28.6
185.689	32.02
185.91	36.2
186.132	1.86
186.353	-5.35
186.574	25.79
186.795	26.83
187.016	-19.91
187.237	-0.63
187.458	-10.28
187.679	-27.43
187.9	-2.32
188.121	17.45
188.342	44.09
188.563	76.18
188.784	132.55
189.005	118.27
189.226	149.26
189.447	122.08
189.667	21.48
189.888	-288.55
190.109	-1013.96
190.33	-383.71
190.551	-667.04
190.772	-120.04
190.993	-81.8
191.214	-140.34
191.434	-124.05
191.655	-47.94
191.876	-144.54
192.097	-154.85
192.318	-139.09
192.538	-252.71
192.759	-169.62
192.98	-39.92
193.201	-28.71
193.421	-17.37
193.642	12.08
193.863	13.1
194.083	-14.87
194.304	0.92
194.525	10.93
194.745	-0.08
194.966	-15.71
195.187	0.48
195.407	1
195.628	-72.78
195.848	-88.64
196.069	-95.56
196.29	-62.43
196.51	-101.2
196.731	-72.82
196.951	-58.92
197.172	-69.41
197.392	-80.12
197.613	-75.66
197.833	-102.78
198.054	-85.32
198.274	-32.14
198.495	-60.84
198.715	-22.96
198.936	-22.68
199.156	-27.02
199.377	-137.77
199.597	-111.06
199.817	-106.42
200.038	-56.82
200.258	-106.59
200.479	-19
200.699	-7.55
200.919	33.15
201.14	-0.78
201.36	2.33
201.58	30.45
201.801	54.98
202.021	22.17
202.241	34.04
202.461	24.24
202.682	-44.11
202.902	-147.31
203.122	-91.4
203.342	-80.04
203.563	-34.21
203.783	0.98
204.003	-20.94
204.223	-20.55
204.443	32.84
204.663	7.09
204.884	16.29
205.104	46.73
205.324	64.97
205.544	39.84
205.764	50.76
205.984	27.81
206.204	34.42
206.424	17.16
206.644	-15.59
206.864	-11.42
207.084	-33.94
207.304	-14.15
207.525	-93.98
207.745	-28.28
207.964	21.42
208.184	-6.63
208.404	-35.09
208.624	-18.91
208.844	-34.51
209.064	-248.33
209.284	-264.44
209.504	-146.48
209.724	-34.53
209.944	-19.02
210.164	10.3
210.384	15.7
210.604	-11.27
210.823	-71.93
211.043	-79.37
211.263	-62
211.483	-50.09
211.703	-72.95
211.922	-49.84
212.142	11.35
212.362	23.44
212.582	6.27
212.801	19.43
213.021	1.66
213.241	-1.94
213.461	-37.9
213.68	-49.12
213.9	-27.96
214.12	-9.84
214.339	-78.47
214.559	-75.49
214.779	-17.4
214.998	-13.52
215.218	-53.84
215.438	-15.11
215.657	-7.56
215.877	-36.98
216.096	-20.55
216.316	11.83
216.535	1.35
216.755	0.85
216.974	-35.38
217.194	-49.72
217.413	-76.26
217.633	-72.96
217.852	-115.88
218.072	-59.36
218.291	-24.17
218.511	9.69
218.73	-12.8
218.95	-12.29
219.169	-21.1
219.389	-73.62
219.608	-54.51
219.827	-46.09
220.047	-41.13
220.266	-11.51
220.485	6.66
220.705	15.27
220.924	-11.27
221.143	19.05
221.363	-5.55
221.582	0.3
221.801	-9.45
222.021	21.26
222.24	-41.17
222.459	-8.91
222.678	-51.07
222.897	-102.18
223.117	-176.96
223.336	-183.82
223.555	-116.36
223.774	-64.93
223.993	-55.73
224.213	26.74
224.432	28.13
224.651	54.47
224.87	36.65
225.089	43.11
225.308	28.87
225.527	31.63
225.746	19.15
225.965	18.11
226.184	-19.69
226.404	5.21
226.623	-3.3
226.842	-6.46
227.061	12.64
227.28	28.43
227.499	11.4
227.718	28.89
227.936	25.83
228.155	29.14
228.374	10
228.593	24.17
228.812	21.31
229.031	10.18
229.25	-42.98
229.469	-44.31
229.688	-55.09
229.907	-20.85
230.125	-15.05
230.344	18.81
230.563	30.59
230.782	37.34
231.001	-40.83
231.22	-24.32
231.438	-29.86
231.657	-16.79
231.876	-18.11
232.095	33.59
232.313	34.57
232.532	30.77
232.751	18.52
232.969	4.69
233.188	-69.74
233.407	-9.16
233.625	-12.74
233.844	-35.98
234.063	-38.66
234.281	5.37
234.5	-8.73
234.719	10.17
234.937	26.22
235.156	20.14
235.374	14.4
235.593	15.12
235.811	6.93
236.03	-13.86
236.249	-30.76
236.467	-20.38
236.686	-13.16
236.904	3.61
237.123	-9.38
237.341	-7.36
237.559	-2.44
237.778	-9.35
237.996	-31.35
238.215	3.2
238.433	15.39
238.652	7.89
238.87	-14.68
239.088	7.21
239.307	-0.79
239.525	-19.7
239.743	-44.34
239.962	-27.48
240.18	-63.13
240.398	-96.69
240.617	-84.16
240.835	-53.19
241.053	-30.39
241.271	20.43
241.49	33.01
241.708	38.47
241.926	2.21
242.144	-23.29
242.363	-90.42
242.581	-101.58
242.799	-63.64
243.017	-11.68
243.235	-19.39
243.453	-4.8
243.672	1.54
243.89	0.88
244.108	-15.17
244.326	15.94
244.544	27.54
244.762	27.06
244.98	43.35
245.198	51.85
245.416	27.16
245.634	14.12
245.852	-1.5
246.07	-15.27
246.288	-23.04
246.506	-60.45
246.724	-43.12
246.942	-38.8
247.16	-4.03
247.378	5.95
247.596	31.43
247.814	34.33
248.032	-3.41
248.25	-13.81
248.468	-16.2
248.685	-5.69
248.903	10.55
249.121	30.19
249.339	-1.78
249.557	-13.01
249.775	-16.72
249.992	-69.22
250.21	-57.42
250.428	-30.33
250.646	-48.75
250.863	-64.16
251.081	-34.98
251.299	-35.61
251.517	-24.53
251.734	-10.13
251.952	-6.88
252.17	-12.22
252.387	-9.64
252.605	-9.48
252.823	-1.64
253.04	2.81
253.258	22.32
253.475	16.62
253.693	32.97
253.911	34.08
254.128	37.84
254.346	37.07
254.563	23.27
254.781	0.57
254.998	-14.5
255.216	-7.4
255.433	-0.53
255.651	51.65
255.868	63.31
256.086	72.81
256.303	57.69
256.521	46.35
256.738	6.53
256.956	-29.31
257.173	-52.88
257.39	-70.79
257.608	-92.91
257.825	7.22
258.043	46.26
258.26	54.21
258.477	81.39
258.695	77.97
258.912	-6.05
259.129	-4.17
259.346	-48.89
259.564	-90.87
259.781	-126.13
259.998	-38.94
260.216	-12.91
260.433	32.51
260.65	54.67
260.867	64.03
261.084	30.75
261.302	12.71
261.519	-14.36
261.736	-46.33
261.953	-53.7
262.17	-7.85
262.387	-29.16
262.604	-45.58
262.822	-50.54
263.039	-29.21
263.256	-77.52
263.473	-23.56
263.69	-9.96
263.907	23.89
264.124	29.99
264.341	43.93
264.558	21.43
264.775	34.51
264.992	28.63
265.209	12.63
265.426	27.13
265.643	22.66
265.86	39.57
266.077	30.25
266.294	22.45
266.51	-25.87
266.727	-20.61
266.944	-26.03
267.161	-29.62
267.378	-26
267.595	2.56
267.812	-15.43
268.028	-50.97
268.245	-26.19
268.462	-29.23
268.679	-33.84
268.896	16.55
269.112	34.44
269.329	29.81
269.546	30.78
269.763	16.64
269.979	-8.9
270.196	-16.24
270.413	-39.45
270.629	-53.04
270.846	-42.7
271.063	-26.91
271.279	-36.8
271.496	-31.7
271.712	7.3
271.929	23.73
272.146	0.47
272.362	25.84
272.579	45.61
272.795	59.13
273.012	57.35
273.228	74.21
273.445	24.43
273.661	7.49
273.878	-55.09
274.094	-51.15
274.311	-85.78
274.527	0.34
274.744	9.27
274.96	6.12
275.177	9.2
275.393	15.13
275.609	-0.05
275.826	20.29
276.042	21.37
276.259	-1.03
276.475	31.93
276.691	38.36
276.908	12.31
277.124	28.29
277.34	38.52
277.557	19.58
277.773	3.91
277.989	-1.39
278.205	-4.16
278.422	5.04
278.638	5.49
278.854	28.91
279.07	30.58
279.286	23.56
279.503	12.1
279.719	7.68
279.935	-19.8
280.151	-14.99
280.367	4.13
280.583	-17.45
280.799	-3.94
281.016	-31.77
281.232	-8.43
281.448	-23.41
281.664	0.47
281.88	-40.73
282.096	-9.26
282.312	1.98
282.528	28.53
282.744	44.3
282.96	60.49
283.176	37.5
283.392	28.48
283.608	21.92
283.824	10.48
284.04	8.68
284.256	23.54
284.471	14.56
284.687	6.05
284.903	28
285.119	46.64
285.335	20.18
285.551	20.37
285.767	2.63
285.982	-15.24
286.198	-66.05
286.414	-0.05
286.63	8.12
286.846	23.34
287.061	-1.36
287.277	39
287.493	-0.04
287.709	22.66
287.924	22.84
288.14	61.86
288.356	53.78
288.571	67.1
288.787	34.14
289.003	23.3
289.218	11.06
289.434	-36.03
289.65	-51.98
289.865	-46.52
290.081	-33.95
290.296	-26.68
290.512	0.15
290.727	-11.56
290.943	-19.92
291.159	-20.05
291.374	-24.54
291.59	-39.81
291.805	-16.01
292.021	1.85
292.236	-0.39
292.451	6.65
292.667	12.44
292.882	21.15
293.098	5.02
293.313	-11.9
293.529	-17.32
293.744	-18.85
293.959	-28.93
294.175	-18.61
294.39	20.69
294.605	24.89
294.821	33.82
295.036	41.6
295.251	35.46
295.467	12.69
295.682	4.04
295.897	-22.99
296.112	-50.97
296.328	-31.88
296.543	-55.1
296.758	-42.71
296.973	-19.59
297.188	27.24
297.404	-5.54
297.619	-13
297.834	-34.18
298.049	-38.07
298.264	-78.76
298.479	-8.46
298.694	2.87
298.909	25.37
299.125	27.54
299.34	38.98
299.555	11.17
299.77	8.66
299.985	-34.11
300.2	-64.91
300.415	-71.27
300.63	-48.28
300.845	-48.26
301.06	-31.98
301.275	-10.1
301.49	-4.75
301.704	-10.74
301.919	-20.29
302.134	-27.57
302.349	-30.03
302.564	-71.98
302.779	-85.18
302.994	-86.17
303.209	-55.51
303.423	-58.77
303.638	4.23
303.853	-17.79
304.068	-4.86
304.283	14.18
304.497	15.25
304.712	1.99
304.927	18.75
305.142	4.23
305.356	-12.89
305.571	-15.1
305.786	-26.97
306	-54.73
306.215	-44.66
306.43	-69.2
306.644	-75.59
306.859	-24.95
307.074	-9.95
307.288	-17.03
307.503	7.34
307.717	8.5
307.932	2.97
308.147	-0.57
308.361	5.37
308.576	-0.54
308.79	-39.87
309.005	-37.8
309.219	-11.16
309.434	-4.25
309.648	-18.81
309.863	20.88
310.077	16.87
310.292	8.43
310.506	9.98
310.72	32.24
310.935	16.82
311.149	17.44
311.364	31.36
311.578	37.71
311.792	24.91
312.007	37.55
312.221	23.87
312.435	10.22
312.649	-6.97
312.864	-26
313.078	-26.71
313.292	22.2
313.507	13.12
313.721	52
313.935	52.22
314.149	47.68
314.363	36.97
314.578	28.5
314.792	19.42
315.006	14.65
315.22	30.27
315.434	27.11
315.648	40.58
315.862	41
316.077	42.18
316.291	19.76
316.505	32.65
316.719	14.87
316.933	4.64
317.147	1.29
317.361	-52.21
317.575	-74.44
317.789	-106.89
318.003	-193.85
318.217	-155.55
318.431	-62.33
318.645	-17.89
318.859	-2.67
319.073	34.59
319.287	18.35
319.5	3.51
319.714	-27.57
319.928	-46.79
320.142	-77.09
320.356	-41.17
320.57	-13.58
320.784	-22.77
320.997	-29.71
321.211	-36.89
321.425	-65.53
321.639	-84.92
321.853	-38.28
322.066	-15.79
322.28	-8.41
322.494	-1.31
322.707	12.86
322.921	0.48
323.135	-7.43
323.349	4.57
323.562	-7.52
323.776	-9.87
323.989	-16.55
324.203	-23.43
324.417	-35.57
324.63	-46.22
324.844	-57.09
325.057	-38.57
325.271	-7.81
325.485	6.27
325.698	27.43
325.912	38.44
326.125	16.21
326.339	10.1
326.552	-9.38
326.766	2.49
326.979	9.44
327.193	28.7
327.406	11.73
327.619	5.35
327.833	10.27
328.046	-12.7
328.26	-32.87
328.473	-13.28
328.686	-22.7
328.9	-34.77
329.113	-7.05
329.326	-27.38
329.54	-17
329.753	2.86
329.966	-24.44
330.179	-34.34
330.393	-1.8
330.606	-6.45
330.819	0.11
331.032	24.19
331.246	32.16
331.459	53.66
331.672	55.39
331.885	42.63
332.098	25.81
332.311	11.18
332.525	-46.55
332.738	-49.86
332.951	-7.69
333.164	3.29
333.377	15.21
333.59	31.54
333.803	37.2
334.016	25.31
334.229	23.8
334.442	6.17
334.655	27.1
334.868	21.93
335.081	3.76
335.294	12.3
335.507	12.46
335.72	-0.4
335.933	-7.21
336.146	-1.95
336.359	-19.26
336.572	-28.93
336.785	-61.81
336.997	-44.15
337.21	-24.74
337.423	-35.6
337.636	-29.06
337.849	-1.88
338.062	-11.38
338.274	-14.76
338.487	-2.11
338.7	-1.06
338.913	-48.86
339.125	-72.95
339.338	-110.9
339.551	-73.87
339.763	-35.78
339.976	-4.75
340.189	17.53
340.402	13.05
340.614	-11.62
340.827	-22.26
341.039	-37.55
341.252	-41.08
341.465	-2.86
341.677	-11.43
341.89	-37.81
342.102	-8.73
342.315	-13.33
342.527	-54.11
342.74	-34.56
342.952	-12.29
343.165	-25.9
343.377	3.68
343.59	8.04
343.802	25.22
344.015	21.04
344.227	47.88
344.44	22.26
344.652	17.89
344.864	5.78
345.077	27.7
345.289	21.89
345.502	24.85
345.714	23.74
345.926	25.45
346.139	9.42
346.351	15.46
346.563	24.29
346.775	25.24
346.988	9.93
347.2	7.86
347.412	-45.22
347.624	-59.4
347.837	-80.97
348.049	-50.93
348.261	-27.94
348.473	-3.4
348.685	4.39
348.897	7.29
349.11	-9.47
349.322	-22.19
349.534	-5.34
349.746	-16.7
349.958	-7.62
350.17	-16.74
350.382	6.71
350.594	0.3
350.806	7.52
351.018	-2.78
351.23	-12.96
351.442	-68.56
351.654	-74.06
351.866	-64.51
352.078	-26.27
352.29	12.32
352.502	37.22
352.714	47.49
352.926	34.68
353.138	19.85
353.35	-0.03
353.561	-14.44
353.773	-43.76
353.985	-21.05
354.197	-31.89
354.409	-26.06
354.621	-34.49
354.832	-16.42
355.044	-30.43
355.256	-26.67
355.468	-3.1
355.679	1.74
355.891	1.56
356.103	-6.34
356.314	9.04
356.526	-7.66
356.738	5.55
356.949	8.11
357.161	26.61
357.373	13.82
357.584	-0.51
357.796	7.84
358.008	3.95
358.219	14.43
358.431	22.75
358.642	28.84
358.854	21.95
359.065	17.22
359.277	-8.22
359.488	-25.52
359.7	-31.17
359.911	-38.68
360.123	-18.56
360.334	-27.67
360.546	-40.77
360.757	-44.06
360.969	-31.25
361.18	-36.6
361.391	-17.4
361.603	-1.12
361.814	5.65
362.025	-5.88
362.237	-8.74
362.448	2.69
362.659	9.02
362.871	18.22
363.082	13.5
363.293	8.16
363.504	-4.97
363.716	-18.04
363.927	-34.82
364.138	-41.63
364.349	-28.92
364.56	-31.8
364.772	-31.16
364.983	-11.55
365.194	-14.22
365.405	-3.62
365.616	12.15
365.827	17.31
366.038	2
366.25	10.05
366.461	-16.39
366.672	-1.92
366.883	6.85
367.094	13.7
367.305	2.39
367.516	8.42
367.727	-17.01
367.938	-38.22
368.149	-38.05
368.36	-16.39
368.571	-10.56
368.781	-20.43
368.992	-36.76
369.203	-49.15
369.414	-70.84
369.625	-66.93
369.836	-48.41
370.047	-47.74
370.258	-41.29
370.468	-47.38
370.679	-66.93
370.89	-61.71
371.101	-34.57
371.312	-36.97
371.522	-19.18
371.733	-23.47
371.944	-11.82
372.155	-6.17
372.365	-7.93
372.576	-6.74
372.787	9.15
372.997	-14.27
373.208	-27.3
373.419	0.67
373.629	-35.36
373.84	-38.68
374.05	-42.95
374.261	-31.31
374.472	-48.25
374.682	2.66
374.893	10.84
375.103	39.5
375.314	34.55
375.524	24.95
375.735	24.13
375.945	19.53
376.156	-0.03
376.366	13.38
376.577	19.39
376.787	14.84
376.997	16.45
377.208	17.53
377.418	-8.97
377.629	-3.81
377.839	-4.45
378.049	-1.05
378.26	5.67
378.47	22.7
378.68	10.63
378.89	4.1
379.101	-6.25
379.311	-27.16
379.521	-50.92
379.732	-42.02
379.942	-46.61
380.152	-47.14
380.362	-21.24
380.572	-27.48
380.783	-5.38
380.993	12.81
381.203	16.59
381.413	21.13
381.623	31.65
381.833	18.17
382.043	2.9
382.253	6.23
382.463	2.1
382.674	-1.83
382.884	-14.35
383.094	-6.64
383.304	-9.72
383.514	-5.89
383.724	3.84
383.934	0.96
384.144	-13.45
384.353	-19.41
384.563	-15.51
384.773	-16.73
384.983	-20.76
385.193	-4.03
385.403	4.9
385.613	1.12
385.823	-8.58
386.033	-1.98
386.242	-5.23
386.452	-8.76
386.662	-18.06
386.872	-3.29
387.082	-7.53
387.291	-14.21
387.501	-13.71
387.711	-2.14
387.921	-9.25
388.13	-9.58
388.34	2.12
388.55	-0.98
388.759	-6.57
388.969	2.37
389.179	-2.24
389.388	-4.06
389.598	0.04
389.807	-3.19
390.017	-10.95
390.227	-6.09
390.436	-10.08
390.646	-9.5
390.855	-6.91
391.065	-6.38
391.274	-5.47
391.484	-6.83
391.693	-6.03
391.903	-2.15
392.112	1.47
392.322	4.6
392.531	10.45
392.74	10.09
392.95	6.77
393.159	5.2
393.369	3.04
393.578	2.46
393.787	2.16
393.997	2.52
394.206	1.95
394.415	3.4
394.625	1.5
394.834	0.75
395.043	2.56
395.252	5.95
395.462	7.01
395.671	8.33
395.88	8.68
396.089	9.24
396.298	6.46
396.508	5.7
396.717	5.68
396.926	6.25
397.135	5.33
397.344	5.83
397.553	6.69
397.762	7.64
397.971	7.33
398.181	7.99
398.39	7.4
398.599	7.01
398.808	6.6
399.017	7.52
399.226	8.42
399.435	9.2
399.644	9.29
399.853	8.73
400.062	8.45
400.27	7.4
400.479	6.86
400.688	6.16
400.897	6.43
401.106	6.39
401.315	6.54
401.524	6.77
401.733	7.29
401.941	7.71
402.15	7.71
402.359	7.49
402.568	7.65
402.777	7.8
402.985	7.31
403.194	7.09
403.403	7.31
403.612	7.08
403.82	6.75
404.029	6.81
404.238	6.74
404.446	7.02
404.655	6.85
404.864	6.96
405.072	6.93
405.281	7.16
405.489	6.92
405.698	7.1
405.906	6.99
406.115	7.04
406.324	6.91
406.532	6.95
406.741	7.12
406.949	7.17
407.158	7.09
407.366	7.1
407.574	6.97
407.783	6.95
407.991	6.83
408.2	7.1
408.408	7.16
408.617	7.24
408.825	6.98
409.033	7.07
409.242	7.01
409.45	7.01
409.658	6.86
409.867	7.03
410.075	6.78
410.283	6.58
410.491	6.38
410.7	6.36
410.908	6.24
411.116	6.63
411.324	6.64
411.533	6.64
411.741	6.78
411.949	6.78
412.157	6.44
412.365	6.41
412.573	6.55
412.781	6.49
412.99	6.37
413.198	6.67
413.406	6.61
413.614	6.48
413.822	6.4
414.03	6.45
414.238	6.09
414.446	6.23
414.654	6.01
414.862	6.08
415.07	6.02
415.278	6.25
415.486	6.03
415.694	6.27
415.902	6.1
416.109	6.1
416.317	6.04
416.525	5.87
416.733	5.88
416.941	6
417.149	6.01
417.357	6.01
417.564	6.28
417.772	6.36
417.98	6.26
418.188	6.17
418.395	6.14
418.603	6.27
418.811	5.86
419.019	5.85
419.226	5.95
419.434	6.05
419.642	5.9
419.849	6.06
420.057	6.04
420.265	6.08
420.472	5.79
420.68	5.67
420.887	5.64
421.095	5.65
421.302	5.65
421.51	5.91
421.717	6.05
421.925	6.08
422.132	6.05
422.34	5.67
422.547	5.66
422.755	5.56
422.962	5.49
423.17	5.23
423.377	5.52
423.585	5.44
423.792	5.38
423.999	5.57
424.207	5.7
424.414	5.71
424.621	5.59
424.829	5.63
425.036	5.62
425.243	5.86
425.451	5.71
425.658	5.72
425.865	5.77
426.072	5.77
426.28	5.8
426.487	5.86
426.694	5.96
426.901	5.84
427.108	5.68
427.315	5.53
427.523	5.78
427.73	5.54
427.937	5.49
428.144	5.46
428.351	5.5
428.558	5.5
428.765	5.64
428.972	5.59
429.179	5.65
429.386	5.95
429.593	5.73
429.8	5.77
430.007	6.03
430.214	6.14
430.421	5.92
430.628	5.92
430.835	5.79
431.042	5.8
431.249	5.84
431.456	5.87
431.662	5.99
431.869	6.14
432.076	6.11
432.283	6.18
432.49	6.17
432.697	6.12
432.903	5.98
433.11	6.09
433.317	6.24
433.524	6.43
433.73	6.42
433.937	6.67
434.144	6.62
434.35	6.47
434.557	6.32
434.764	6.32
434.97	6.25
435.177	6.39
435.384	6.45
435.59	6.46
435.797	6.68
436.003	6.89
436.21	6.77
436.416	6.75
436.623	6.8
436.829	6.77
437.036	6.74
437.242	6.78
437.449	6.81
437.655	6.97
437.862	7.04
438.068	6.92
438.275	7.07
438.481	7.11
438.687	7.04
438.894	6.97
439.1	7.02
439.307	7.18
439.513	7.2
439.719	7.19
439.926	7.23
440.132	7.25
440.338	7.02
440.544	7.15
440.751	7.12
440.957	7.3
441.163	7.27
441.369	7.3
441.575	7.13
441.782	7.17
441.988	6.99
442.194	6.99
442.4	7.04
442.606	7.34
442.812	7.4
443.018	7.55
443.224	7.61
443.431	7.63
443.637	7.35
443.843	7.27
444.049	7.2
444.255	7.18
444.461	7.26
444.667	7.25
444.873	7.38
445.079	7.39
445.284	7.42
445.49	7.12
445.696	7.01
445.902	6.95
446.108	6.9
446.314	6.93
446.52	7.12
446.726	7.42
446.931	7.42
447.137	7.48
447.343	7.47
447.549	7.34
447.755	7.19
447.96	7.23
448.166	7.26
448.372	7.23
448.578	7.33
448.783	7.35
448.989	7.38
449.195	7.51
449.4	7.54
449.606	7.57
449.812	7.61
450.017	7.68
450.223	7.54
450.428	7.45
450.634	7.52
450.84	7.64
451.045	7.56
451.251	7.46
451.456	7.8
451.662	7.83
451.867	7.86
452.073	7.89
452.278	8.06
452.483	8.02
452.689	7.98
452.894	7.98
453.1	7.9
453.305	7.78
453.51	7.66
453.716	7.6
453.921	7.55
454.127	7.55
454.332	7.57
454.537	7.55
454.742	7.63
454.948	7.59
455.153	7.67
455.358	7.78
455.563	7.89
455.769	7.95
455.974	7.96
456.179	7.84
456.384	7.74
456.589	7.69
456.795	7.54
457	7.51
457.205	7.74
457.41	7.77
457.615	7.77
457.82	7.81
458.025	7.85
458.23	7.68
458.435	7.68
458.64	7.58
458.845	7.76
459.05	7.8
459.255	7.82
459.46	7.79
459.665	7.82
459.87	7.71
460.075	7.71
460.28	7.75
460.485	7.95
460.69	8.06
460.895	7.94
461.099	7.96
461.304	8.01
461.509	7.91
461.714	7.81
461.919	7.98
462.123	7.81
462.328	7.84
462.533	7.75
462.738	7.9
462.942	7.8
