Data from Ofra_PS_T2_2A_4CX12_Reflection_1.txt Node
Date: Wed Jul 21 17:11:24 EDT 2021
User: Adam
Spectrometer: FLMT01687
Trigger mode: 0
Integration Time (sec): 1.100000E0
Scans to average: 2
Electric dark correction enabled: true
Nonlinearity correction enabled: false
Boxcar width: 2
XAxis mode: Wavelengths
Number of Pixels in Spectrum: 3648
>>>>>Begin Spectral Data<<<<<
179.494	518.8
179.716	589.18
179.937	549.09
180.158	507.62
180.38	790.94
180.601	377.62
180.823	89.64
181.044	46.68
181.265	341.54
181.486	83.51
181.708	56
181.929	592.86
182.15	13.38
182.372	183.61
182.593	52.44
182.814	43.98
183.035	84.61
183.257	72.35
183.478	56.28
183.699	96.11
183.92	71.04
184.141	55.95
184.363	5.11
184.584	19.63
184.805	0.98
185.026	19.79
185.247	22.71
185.468	6.99
185.689	3.1
185.91	12.46
186.132	-0.51
186.353	3.38
186.574	39.22
186.795	34.44
187.016	-35.7
187.237	-43.41
187.458	-103.32
187.679	-84.79
187.9	-71.59
188.121	-25.81
188.342	-27.5
188.563	28.88
188.784	38.79
189.005	49.57
189.226	88.76
189.447	58.07
189.667	-43.45
189.888	-283.5
190.109	-1269.48
190.33	-690.65
190.551	-1180.97
190.772	-357.99
190.993	-254.77
191.214	-197.05
191.434	-156.33
191.655	-48.53
191.876	-43.07
192.097	-101.14
192.318	-154.82
192.538	-237.39
192.759	-164.61
192.98	-59.87
193.201	-12.43
193.421	13.56
193.642	35.89
193.863	39.84
194.083	10.18
194.304	2.36
194.525	-12.58
194.745	-57.15
194.966	-78.71
195.187	-58.09
195.407	-73.22
195.628	-116.03
195.848	-110.52
196.069	-107.74
196.29	-79.56
196.51	-117.07
196.731	-85.62
196.951	-105.91
197.172	-116.93
197.392	-164.37
197.613	-151.07
197.833	-193.95
198.054	-154.11
198.274	-88.07
198.495	-97.36
198.715	-55.61
198.936	-72.2
199.156	-60.54
199.377	-146.71
199.597	-118.38
199.817	-121.12
200.038	-66.4
200.258	-129.87
200.479	-79.16
200.699	-84.19
200.919	-57.93
201.14	-34.93
201.36	-24.11
201.58	8.21
201.801	23.02
202.021	-6.23
202.241	-31.65
202.461	-27.54
202.682	-128.82
202.902	-165.89
203.122	-92.52
203.342	-61.57
203.563	-34.35
203.783	-7.57
204.003	-64.97
204.223	-59.12
204.443	3.75
204.663	-32.88
204.884	-14.65
205.104	46.01
205.324	67.95
205.544	63.73
205.764	83.91
205.984	84.27
206.204	64.74
206.424	48.32
206.644	14.76
206.864	0.57
207.084	-18.62
207.304	-16.44
207.525	-135.78
207.745	-56.75
207.964	22.68
208.184	-27.08
208.404	-57.15
208.624	-68.28
208.844	-69.13
209.064	-364.17
209.284	-372.93
209.504	-177.2
209.724	-35.37
209.944	-2.36
210.164	32.44
210.384	45.17
210.604	25.05
210.823	-4.4
211.043	-21.24
211.263	-17.51
211.483	-26.66
211.703	-58.21
211.922	-31.03
212.142	4.93
212.362	-0.55
212.582	-9.08
212.801	14.23
213.021	5.38
213.241	-6.36
213.461	-26.1
213.68	-51.57
213.9	-22.93
214.12	-38.55
214.339	-92.24
214.559	-65.11
214.779	-2.85
214.998	-21.28
215.218	-28.76
215.438	0.79
215.657	-24.08
215.877	-38.54
216.096	-4.81
216.316	1.98
216.535	-5.12
216.755	-2.46
216.974	-63.06
217.194	-99.12
217.413	-112.82
217.633	-105.36
217.852	-180.71
218.072	-89.03
218.291	-40.67
218.511	-11.77
218.73	-43.94
218.95	-24.79
219.169	-18.64
219.389	-67.22
219.608	-42.65
219.827	-21.54
220.047	-15.91
220.266	-11.04
220.485	-19.51
220.705	-24.05
220.924	-46.81
221.143	-0.95
221.363	-17.51
221.582	10.92
221.801	19.88
222.021	33.25
222.24	-45.18
222.459	2.67
222.678	-52.66
222.897	-111
223.117	-103.66
223.336	-47.39
223.555	-34.75
223.774	28.56
223.993	67.22
224.213	72.03
224.432	53.13
224.651	57.32
224.87	25.64
225.089	29.26
225.308	16.68
225.527	37.49
225.746	38.43
225.965	29.73
226.184	-0.94
226.404	34.06
226.623	5.2
226.842	5.27
227.061	29.1
227.28	38.92
227.499	16.85
227.718	27.62
227.936	17.8
228.155	20.97
228.374	23.2
228.593	29.83
228.812	32.3
229.031	15.49
229.25	-23.46
229.469	-37.99
229.688	-23.7
229.907	2.78
230.125	39.93
230.344	63.4
230.563	62.67
230.782	64.72
231.001	-8.58
231.22	-10.23
231.438	14.49
231.657	10.19
231.876	-6.13
232.095	43.8
232.313	42.59
232.532	-0.79
232.751	-44.89
232.969	-45.23
233.188	-124.12
233.407	-45.29
233.625	-21.47
233.844	-5.5
234.063	17.43
234.281	36.99
234.5	14.56
234.719	19.51
234.937	43.75
235.156	42.96
235.374	40.19
235.593	27.31
235.811	3.18
236.03	-8.99
236.249	-53.88
236.467	-58.56
236.686	-12.08
236.904	4.93
237.123	-23.88
237.341	-21.8
237.559	-12.13
237.778	-30.04
237.996	-52.11
238.215	-5.7
238.433	6.52
238.652	10.06
238.87	-10.11
239.088	1.12
239.307	0.03
239.525	12.29
239.743	-19.93
239.962	10.39
240.18	-12.13
240.398	-68.71
240.617	-91.01
240.835	-88.38
241.053	-62.58
241.271	-4.77
241.49	30.71
241.708	14.66
241.926	23.56
242.144	7.89
242.363	-40.97
242.581	-58.98
242.799	-25.92
243.017	3.24
243.235	-22.66
243.453	-7.77
243.672	-12.81
243.89	-8.97
244.108	-16.43
244.326	21.01
244.544	13.19
244.762	-3.43
244.98	-2.53
245.198	6.26
245.416	-35.94
245.634	-20.4
245.852	6.52
246.07	9.58
246.288	-6.99
246.506	-45.31
246.724	-35.65
246.942	-32.72
247.16	10.86
247.378	17.16
247.596	51.11
247.814	47.21
248.032	23.99
248.25	9.05
248.468	14.47
248.685	19.46
248.903	30.5
249.121	31.06
249.339	-12.63
249.557	-30.07
249.775	-20.77
249.992	-91.17
250.21	-67.33
250.428	-27.37
250.646	-44.76
250.863	-65.34
251.081	-30.38
251.299	-39.94
251.517	-50.28
251.734	-40.73
251.952	-43.28
252.17	-29.32
252.387	-9.59
252.605	-11.47
252.823	1.63
253.04	19.5
253.258	37.3
253.475	9.6
253.693	30.42
253.911	24.73
254.128	30.01
254.346	27.02
254.563	16.92
254.781	-14.98
254.998	-28.83
255.216	-31.66
255.433	-35.77
255.651	0.05
255.868	57.98
256.086	68.29
256.303	64.23
256.521	56.61
256.738	36.92
256.956	-10.16
257.173	-38.52
257.39	-66.39
257.608	-109.09
257.825	-6.1
258.043	33.16
258.26	56.77
258.477	83.35
258.695	99.71
258.912	21.94
259.129	19.4
259.346	-24.98
259.564	-45.36
259.781	-67.45
259.998	-27.36
260.216	-10.98
260.433	30.99
260.65	21.84
260.867	46.37
261.084	16.18
261.302	2.28
261.519	-14.25
261.736	-37.8
261.953	-72.64
262.17	-23.36
262.387	-84.56
262.604	-83.49
262.822	-82.66
263.039	-66.51
263.256	-104.77
263.473	-36.86
263.69	-42.68
263.907	3.11
264.124	5.72
264.341	-3.53
264.558	-6.22
264.775	17.88
264.992	9.59
265.209	26.39
265.426	43.52
265.643	53.89
265.86	58.06
266.077	48.87
266.294	30.45
266.51	-7.52
266.727	-20.75
266.944	-16.88
267.161	-26.02
267.378	-15.48
267.595	17.28
267.812	-11.76
268.028	-48.39
268.245	-0.99
268.462	-29.14
268.679	-36.32
268.896	6.77
269.112	26.13
269.329	7.45
269.546	9.32
269.763	11.25
269.979	8.7
270.196	0.54
270.413	-23.01
270.629	-28.04
270.846	-44.46
271.063	-45.28
271.279	-61.72
271.496	-54.7
271.712	-29.58
271.929	-14.68
272.146	-23.91
272.362	-14.14
272.579	4.78
272.795	11.56
273.012	18.01
273.228	15.66
273.445	-12.21
273.661	-48.84
273.878	-69.35
274.094	-53.63
274.311	-72.56
274.527	-3.63
274.744	9.73
274.96	8.39
275.177	11.25
275.393	26.38
275.609	13.63
275.826	44.02
276.042	31.21
276.259	-9.78
276.475	9.78
276.691	11.66
276.908	-18.58
277.124	-5.15
277.34	23.78
277.557	7.66
277.773	-3.77
277.989	-7.56
278.205	-4.91
278.422	14.66
278.638	16.46
278.854	45.95
279.07	53.28
279.286	30.42
279.503	-25.36
279.719	-7.47
279.935	-31.92
280.151	-32.75
280.367	7.57
280.583	8.14
280.799	-7.21
281.016	-22.68
281.232	2.72
281.448	-0.34
281.664	28.91
281.88	7.83
282.096	11.9
282.312	23.98
282.528	12.61
282.744	9.33
282.96	10.64
283.176	9.58
283.392	-1.08
283.608	10.06
283.824	1.41
284.04	13.47
284.256	17.37
284.471	7.49
284.687	0.03
284.903	42.1
285.119	51.47
285.335	29.04
285.551	40.9
285.767	32.02
285.982	-23.87
286.198	-51.58
286.414	-1.38
286.63	15.68
286.846	40.83
287.061	21.62
287.277	53.62
287.493	25.29
287.709	17.94
287.924	-7.82
288.14	30.49
288.356	4.09
288.571	44.68
288.787	25.4
289.003	31.62
289.218	19.86
289.434	-9.59
289.65	-18.97
289.865	-0.37
290.081	16.07
290.296	24.3
290.512	27.64
290.727	-5.04
290.943	-11.55
291.159	-35.79
291.374	-51.95
291.59	-87.57
291.805	-64.67
292.021	-60.42
292.236	-52.41
292.451	-22.38
292.667	0.59
292.882	12.13
293.098	9.79
293.313	-16.22
293.529	-50.35
293.744	-48.36
293.959	-59.06
294.175	-46.08
294.39	-4.07
294.605	9.87
294.821	33.64
295.036	42.05
295.251	42.71
295.467	29.77
295.682	31.4
295.897	-19.3
296.112	-32.59
296.328	-18.69
296.543	-47.86
296.758	-45.2
296.973	-1.14
297.188	28.97
297.404	-2.64
297.619	-7.42
297.834	-8.82
298.049	-25.24
298.264	-56.88
298.479	-8.25
298.694	-2.74
298.909	2.5
299.125	1.89
299.34	19.22
299.555	-10.48
299.77	18.61
299.985	-20.48
300.2	-64.63
300.415	-101.8
300.63	-59.74
300.845	-69.19
301.06	-54.48
301.275	-11.11
301.49	11.13
301.704	1.16
301.919	-23.66
302.134	-22.56
302.349	-22.15
302.564	-81.35
302.779	-82.09
302.994	-51.65
303.209	-23.95
303.423	-4.78
303.638	55.54
303.853	10.64
304.068	16.71
304.283	11.6
304.497	-2.89
304.712	-15.4
304.927	-4.93
305.142	-10.71
305.356	-4.62
305.571	-19.08
305.786	-28.56
306	-35.46
306.215	-27.7
306.43	-70.74
306.644	-37.56
306.859	2.2
307.074	10.17
307.288	-17.82
307.503	-0.72
307.717	-21.99
307.932	-35.81
308.147	-27.13
308.361	-22.37
308.576	-34.81
308.79	-79.4
309.005	-69.53
309.219	-73.35
309.434	-74.02
309.648	-59.38
309.863	-19.64
310.077	-23.58
310.292	-18.54
310.506	-4.64
310.72	9.12
310.935	22.83
311.149	23.18
311.364	41.13
311.578	43.99
311.792	36.02
312.007	36
312.221	23.4
312.435	9.45
312.649	-11.67
312.864	-31.58
313.078	-26.84
313.292	22.04
313.507	-1.56
313.721	33.85
313.935	54.54
314.149	43.35
314.363	23.55
314.578	24.18
314.792	29.62
315.006	9.96
315.22	21.93
315.434	24.04
315.648	32.51
315.862	21.63
316.077	18.95
316.291	-13.44
316.505	-11.59
316.719	-21.72
316.933	-40.71
317.147	-43.2
317.361	-71.22
317.575	-78.29
317.789	-103.69
318.003	-147.83
318.217	-66.57
318.431	13.4
318.645	39.79
318.859	26.31
319.073	60.67
319.287	37.54
319.5	7.45
319.714	-45.17
319.928	-66.07
320.142	-94.4
320.356	-14.37
320.57	27.86
320.784	45.44
320.997	61.69
321.211	43.86
321.425	-63.8
321.639	-92.43
321.853	-34.23
322.066	-18.86
322.28	-14.9
322.494	10.16
322.707	29.02
322.921	23.25
323.135	18.9
323.349	22.24
323.562	-9.14
323.776	-23.17
323.989	-37.12
324.203	-54.46
324.417	-55.38
324.63	-50.1
324.844	-56.4
325.057	-34.09
325.271	-18.97
325.485	1.74
325.698	28.4
325.912	40.5
326.125	5.92
326.339	5.17
326.552	-21.61
326.766	-35.34
326.979	-19.71
327.193	30.28
327.406	25.13
327.619	20.56
327.833	38.5
328.046	4.35
328.26	-42.45
328.473	-24.71
328.686	-53.67
328.9	-72.67
329.113	-39.59
329.326	-49.63
329.54	-50.8
329.753	-49.88
329.966	-58.27
330.179	-54.08
330.393	-18.3
330.606	-9.15
330.819	13.58
331.032	21.94
331.246	32.9
331.459	44.19
331.672	34.35
331.885	30.15
332.098	7.17
332.311	-30.41
332.525	-88.59
332.738	-76.66
332.951	-43.57
333.164	0.91
333.377	32.74
333.59	54.94
333.803	61.94
334.016	35.51
334.229	27.25
334.442	6.64
334.655	23.13
334.868	30.03
335.081	22.48
335.294	7.48
335.507	18.4
335.72	-6.06
335.933	-24.56
336.146	-22.42
336.359	-9.77
336.572	-43.9
336.785	-70.1
336.997	-33.59
337.21	-1.64
337.423	-1.02
337.636	4.78
337.849	35.61
338.062	9.28
338.274	-1.37
338.487	-18.37
338.7	-17.08
338.913	-56.16
339.125	-74.8
339.338	-128.48
339.551	-108.53
339.763	-71.65
339.976	-34.96
340.189	1.03
340.402	21.49
340.614	15.93
340.827	12.01
341.039	-1.1
341.252	-6.9
341.465	10.69
341.677	13.14
341.89	-18.01
342.102	16.36
342.315	5.64
342.527	-23.33
342.74	-24.06
342.952	14.72
343.165	0.37
343.377	22.52
343.59	17.31
343.802	39.82
344.015	31.35
344.227	49.3
344.44	37.88
344.652	38.6
344.864	8.61
345.077	31.82
345.289	22.64
345.502	25.63
345.714	18.49
345.926	33.55
346.139	15.78
346.351	27.56
346.563	21.47
346.775	24.52
346.988	8.46
347.2	-2.5
347.412	-56.16
347.624	-67.7
347.837	-71.19
348.049	-23.26
348.261	10.49
348.473	26.3
348.685	36.86
348.897	37.22
349.11	11.68
349.322	1.42
349.534	11.29
349.746	-2.81
349.958	-14.2
350.17	-29.21
350.382	5.22
350.594	-3.79
350.806	-3.84
351.018	7.9
351.23	6.29
351.442	-48.54
351.654	-44.89
351.866	-36.6
352.078	-29.75
352.29	1.32
352.502	14.51
352.714	27.43
352.926	15.68
353.138	5.74
353.35	-10.45
353.561	-19.93
353.773	-43.44
353.985	-17.46
354.197	-14.54
354.409	-22.08
354.621	-21.17
354.832	-10.57
355.044	-17.42
355.256	-16.95
355.468	8.49
355.679	11.02
355.891	20
356.103	6.49
356.314	12.74
356.526	0.57
356.738	-1.05
356.949	-8.13
357.161	15.49
357.373	9.05
357.584	-0.13
357.796	10.8
358.008	22.48
358.219	28.82
358.431	27.66
358.642	39.3
358.854	33.7
359.065	0.5
359.277	-29.29
359.488	-49.58
359.7	-76.16
359.911	-82.32
360.123	-44.79
360.334	-52.29
360.546	-65.6
360.757	-64.86
360.969	-54.12
361.18	-40.76
361.391	-19.63
361.603	-6.8
361.814	18.57
362.025	10.84
362.237	-5.94
362.448	12.69
362.659	26.76
362.871	10.86
363.082	13.42
363.293	6.67
363.504	-15.78
363.716	-45.38
363.927	-52.13
364.138	-67.16
364.349	-66
364.56	-54.29
364.772	-44.86
364.983	-5.68
365.194	-6.39
365.405	1.37
365.616	11.02
365.827	8.69
366.038	-30.98
366.25	-25.52
366.461	-37.13
366.672	-18.75
366.883	11.41
367.094	17.13
367.305	5.83
367.516	8.47
367.727	-14.07
367.938	-43.49
368.149	-39.91
368.36	-15.92
368.571	-9.33
368.781	-24.3
368.992	-25.12
369.203	-46.65
369.414	-75.67
369.625	-83.53
369.836	-60.43
370.047	-91.99
370.258	-61.26
370.468	-56.55
370.679	-74.72
370.89	-71.56
371.101	-20.72
371.312	-23.89
371.522	-18.02
371.733	-7.24
371.944	11.94
372.155	3.76
372.365	-5.41
372.576	-0.11
372.787	0.97
372.997	-40.8
373.208	-47.68
373.419	-16.04
373.629	-46.36
373.84	-47.11
374.05	-41.86
374.261	-30.39
374.472	-39.34
374.682	8.49
374.893	11.19
375.103	45.02
375.314	34.84
375.524	30.19
375.735	25.57
375.945	37.84
376.156	7.17
376.366	8.96
376.577	4.24
376.787	0.6
376.997	-2.75
377.208	4.06
377.418	-4.01
377.629	4.63
377.839	-4.99
378.049	-10.47
378.26	6.75
378.47	17.27
378.68	9
378.89	4.14
379.101	-4.84
379.311	-42.73
379.521	-79.96
379.732	-78.88
379.942	-65.83
380.152	-69.88
380.362	-28.17
380.572	-17.32
380.783	-5.78
380.993	-0.2
381.203	14.11
381.413	12.04
381.623	11.44
381.833	7.61
382.043	4.82
382.253	-8.54
382.463	-8.76
382.674	-12.74
382.884	-30.03
383.094	-30.6
383.304	-21.05
383.514	-13.54
383.724	-2.3
383.934	-2.94
384.144	-16.31
384.353	-19.92
384.563	-30.24
384.773	-25.37
384.983	-33.3
385.193	-6.28
385.403	2.32
385.613	11.62
385.823	3.94
386.033	9.72
386.242	-3.37
386.452	-10.86
386.662	-16.21
386.872	-5.18
387.082	-7.64
387.291	-9.35
387.501	-7.07
387.711	-5.98
387.921	-12.89
388.13	-8.99
388.34	2.09
388.55	-3.05
388.759	-1.12
388.969	7.96
389.179	8.27
389.388	7.29
389.598	12.01
389.807	6.27
390.017	-0.99
390.227	-0.04
390.436	-4.77
390.646	-3.91
390.855	-1.78
391.065	-3.92
391.274	-6.3
391.484	-4.83
391.693	-1.41
391.903	0.57
392.112	7.2
392.322	10.6
392.531	12.15
392.74	12.58
392.95	10.2
393.159	8.14
393.369	10.25
393.578	9.43
393.787	6.07
393.997	7.35
394.206	6.46
394.415	5.91
394.625	5.99
394.834	5.31
395.043	7.2
395.252	9.69
395.462	10.05
395.671	11.76
395.88	12.69
396.089	12.69
396.298	10.2
396.508	9.66
396.717	8.51
396.926	9.46
397.135	8.92
397.344	9.33
397.553	10.35
397.762	12.28
397.971	11.54
398.181	12.06
398.39	11.85
398.599	11.59
398.808	10.63
399.017	11.7
399.226	12.19
399.435	13.34
399.644	13.1
399.853	12.65
400.062	12.28
400.27	11.44
400.479	10.75
400.688	10.22
400.897	10.65
401.106	10.7
401.315	10.63
401.524	10.8
401.733	11.32
401.941	11.62
402.15	11.64
402.359	11.72
402.568	12.02
402.777	12.16
402.985	11.77
403.194	11.52
403.403	11.74
403.612	11.3
403.82	11.02
404.029	11.15
404.238	11.02
404.446	11.03
404.655	10.84
404.864	10.88
405.072	10.63
405.281	10.94
405.489	10.65
405.698	10.59
405.906	10.36
406.115	10.36
406.324	10.14
406.532	10.29
406.741	10.66
406.949	10.64
407.158	10.71
407.366	10.75
407.574	10.69
407.783	10.42
407.991	10.33
408.2	10.47
408.408	10.47
408.617	10.45
408.825	10.43
409.033	10.68
409.242	10.61
409.45	10.73
409.658	10.61
409.867	10.76
410.075	10.54
410.283	10.35
410.491	10.15
410.7	10.05
410.908	9.97
411.116	10.25
411.324	10.29
411.533	10.24
411.741	10.39
411.949	10.49
412.157	10.21
412.365	10.2
412.573	10.16
412.781	10.19
412.99	9.98
413.198	10.07
413.406	10
413.614	10.07
413.822	9.94
414.03	9.81
414.238	9.49
414.446	9.52
414.654	9.17
414.862	9.22
415.07	9.29
415.278	9.47
415.486	9.24
415.694	9.46
415.902	9.26
416.109	9.17
416.317	9.2
416.525	9.06
416.733	9
416.941	9.13
417.149	9.25
417.357	9.3
417.564	9.68
417.772	9.97
417.98	9.91
418.188	9.83
418.395	9.69
418.603	9.69
418.811	9.19
419.019	9.05
419.226	9.19
419.434	9.41
419.642	9
419.849	9.05
420.057	9.13
420.265	9.05
420.472	8.64
420.68	8.77
420.887	8.71
421.095	8.69
421.302	8.65
421.51	8.87
421.717	8.97
421.925	9.17
422.132	8.92
422.34	8.64
422.547	8.61
422.755	8.46
422.962	8.4
423.17	8.44
423.377	8.6
423.585	8.75
423.792	8.78
423.999	8.8
424.207	8.91
424.414	9
424.621	8.82
424.829	8.96
425.036	9.09
425.243	9.11
425.451	8.92
425.658	8.71
425.865	8.82
426.072	8.62
426.28	8.92
426.487	9.06
426.694	9.23
426.901	8.93
427.108	8.92
427.315	8.64
427.523	8.82
427.73	8.71
427.937	8.65
428.144	8.54
428.351	8.56
428.558	8.58
428.765	8.64
428.972	8.76
429.179	8.99
429.386	9.23
429.593	8.92
429.8	8.71
430.007	8.77
430.214	8.72
430.421	8.51
430.628	8.42
430.835	8.47
431.042	8.69
431.249	8.88
431.456	8.79
431.662	9.01
431.869	9.29
432.076	9.13
432.283	9.1
432.49	9.23
432.697	9.23
432.903	9.06
433.11	9.1
433.317	9.22
433.524	9.34
433.73	9.29
433.937	9.65
434.144	9.5
434.35	9.35
434.557	9.26
434.764	9.33
434.97	9.03
435.177	9.3
435.384	9.27
435.59	9.24
435.797	9.44
436.003	9.59
436.21	9.52
436.416	9.72
436.623	9.82
436.829	9.91
437.036	9.98
437.242	10.01
437.449	9.83
437.655	9.89
437.862	9.85
438.068	9.72
438.275	9.83
438.481	10.26
438.687	10.18
438.894	10.06
439.1	10.19
439.307	10.32
439.513	10.02
439.719	10.04
439.926	10.17
440.132	10.09
440.338	9.84
440.544	10.07
440.751	10.04
440.957	10.22
441.163	10.15
441.369	10.32
441.575	10.01
441.782	10.08
441.988	9.89
442.194	9.98
442.4	10.06
442.606	10.37
442.812	10.43
443.018	10.5
443.224	10.57
443.431	10.68
443.637	10.41
443.843	10.23
444.049	10.25
444.255	10.14
444.461	9.97
444.667	10.05
444.873	10.34
445.079	10.31
445.284	10.52
445.49	10.38
445.696	10.31
445.902	10.25
446.108	10.22
446.314	10.13
446.52	10.26
446.726	10.51
446.931	10.51
447.137	10.57
447.343	10.58
447.549	10.46
447.755	10.36
447.96	10.41
448.166	10.33
448.372	10.26
448.578	10.37
448.783	10.41
448.989	10.41
449.195	10.69
449.4	10.9
449.606	10.87
449.812	10.77
450.017	10.75
450.223	10.56
450.428	10.37
450.634	10.48
450.84	10.58
451.045	10.54
451.251	10.48
451.456	10.77
451.662	10.92
451.867	10.97
452.073	11
452.278	11.2
452.483	11.13
452.689	10.87
452.894	10.78
453.1	10.81
453.305	10.69
453.51	10.69
453.716	10.8
453.921	10.88
454.127	10.87
454.332	10.79
454.537	10.74
454.742	10.67
454.948	10.66
455.153	10.75
455.358	10.93
455.563	11
455.769	11.11
455.974	11.1
456.179	10.92
456.384	10.83
456.589	10.85
456.795	10.77
457	10.87
457.205	11.13
457.41	11.1
457.615	10.98
457.82	11.06
458.025	11.04
458.23	10.91
458.435	11.04
458.64	10.93
458.845	11.01
459.05	10.96
459.255	11.05
459.46	10.91
459.665	11.05
459.87	11
