Data from Ofra_2a_PS_2CX80_Reflection_1.txt Node
Date: Tue Jul 20 09:38:50 EDT 2021
User: Adam
Spectrometer: FLMT01687
Trigger mode: 0
Integration Time (sec): 9.450000E-1
Scans to average: 3
Electric dark correction enabled: true
Nonlinearity correction enabled: false
Boxcar width: 3
XAxis mode: Wavelengths
Number of Pixels in Spectrum: 3648
>>>>>Begin Spectral Data<<<<<
179.494	995.27
179.716	631.25
179.937	751.1
180.158	3133.2
180.38	-1421.22
180.601	-275.93
180.823	-94.04
181.044	7.87
181.265	-93.9
181.486	71.2
181.708	1207.61
181.929	-17.33
182.15	-548.3
182.372	62.18
182.593	62.07
182.814	119.61
183.035	106.1
183.257	90.56
183.478	64.58
183.699	80.23
183.92	31.08
184.141	37.06
184.363	48.9
184.584	42.59
184.805	42.59
185.026	28.02
185.247	11.86
185.468	38.7
185.689	32.95
185.91	24.99
186.132	22.28
186.353	4.34
186.574	19.39
186.795	12.57
187.016	23.32
187.237	23.83
187.458	13.76
187.679	4.24
187.9	17.37
188.121	32.25
188.342	46.16
188.563	46.36
188.784	36.4
189.005	39.47
189.226	37.97
189.447	37.94
189.667	29.44
189.888	33.56
190.109	18.5
190.33	13.68
190.551	18.47
190.772	10.42
190.993	8.15
191.214	6.12
191.434	1.36
191.655	14.53
191.876	20.34
192.097	14.97
192.318	30.81
192.538	34.29
192.759	34.31
192.98	18.33
193.201	27.52
193.421	25.87
193.642	31.3
193.863	7.41
194.083	-0.69
194.304	4.45
194.525	33.6
194.745	19.9
194.966	21.89
195.187	34.6
195.407	28.03
195.628	26.53
195.848	22.69
196.069	2.77
196.29	-9.23
196.51	-13.74
196.731	-24.86
196.951	-9.31
197.172	-8
197.392	10.09
197.613	10.19
197.833	20.68
198.054	33.34
198.274	20.78
198.495	25.24
198.715	8.85
198.936	5.07
199.156	20.64
199.377	8.51
199.597	4.15
199.817	38.49
200.038	50.28
200.258	71.89
200.479	73.1
200.699	71.33
200.919	68.68
201.14	52.29
201.36	40.44
201.58	27.24
201.801	9.82
202.021	16.82
202.241	20.01
202.461	26.37
202.682	29.6
202.902	29.6
203.122	28.51
203.342	46.51
203.563	47.54
203.783	47.01
204.003	43.67
204.223	44.07
204.443	42.5
204.663	35.34
204.884	23.77
205.104	23.58
205.324	39.29
205.544	53.09
205.764	56.07
205.984	54.5
206.204	49.13
206.424	47.94
206.644	41.55
206.864	23.37
207.084	29.77
207.304	27.31
207.525	19.56
207.745	33.34
207.964	34.33
208.184	24.22
208.404	19.46
208.624	7.25
208.844	0.61
209.064	7.05
209.284	6.36
209.504	2.68
209.724	-5.96
209.944	5.67
210.164	11.3
210.384	10.28
210.604	-1.28
210.823	6.25
211.043	-5.7
211.263	6.3
211.483	2.59
211.703	5.76
211.922	10.6
212.142	20.74
212.362	9.21
212.582	14.38
212.801	8.19
213.021	19.44
213.241	3.89
213.461	11.28
213.68	11.31
213.9	28.88
214.12	23.67
214.339	29.33
214.559	26.41
214.779	34.27
214.998	32.44
215.218	27.15
215.438	34.12
215.657	42.9
215.877	31.7
216.096	30.66
216.316	23.8
216.535	21.12
216.755	5.99
216.974	-13.88
217.194	-9.46
217.413	17.32
217.633	11.13
217.852	14.18
218.072	10.83
218.291	40.07
218.511	41.69
218.73	34.17
218.95	25.49
219.169	31.33
219.389	27.93
219.608	34.33
219.827	25.93
220.047	39.69
220.266	31.09
220.485	34.47
220.705	33.15
220.924	42.27
221.143	27.78
221.363	28.97
221.582	14.3
221.801	16.46
222.021	14.29
222.24	0.63
222.459	-16.34
222.678	-21.89
222.897	-19.11
223.117	-10.42
223.336	-0.05
223.555	-8.63
223.774	7.89
223.993	38.57
224.213	37.57
224.432	41.27
224.651	31.58
224.87	25.3
225.089	42.7
225.308	31.63
225.527	21.33
225.746	20.87
225.965	19.05
226.184	25.14
226.404	16.45
226.623	15.79
226.842	9.29
227.061	23.1
227.28	32.8
227.499	33.92
227.718	36.55
227.936	40.2
228.155	32.48
228.374	45.46
228.593	31.66
228.812	26.82
229.031	22.9
229.25	27.61
229.469	36.59
229.688	42.69
229.907	26.13
230.125	29.57
230.344	32.35
230.563	44.21
230.782	35.32
231.001	34.87
231.22	21.13
231.438	30.33
231.657	28.44
231.876	27.96
232.095	16.95
232.313	25.64
232.532	20.31
232.751	32.17
232.969	37.71
233.188	32.96
233.407	30.91
233.625	29.53
233.844	27.42
234.063	26.16
234.281	22.52
234.5	22.82
234.719	22.8
234.937	23.64
235.156	24.67
235.374	16.84
235.593	15.97
235.811	9.23
236.03	-3.49
236.249	9.21
236.467	7.33
236.686	17.65
236.904	15.38
237.123	20.51
237.341	20.44
237.559	21.95
237.778	23.07
237.996	27.54
238.215	15.51
238.433	25.03
238.652	15.95
238.87	13.36
239.088	10.28
239.307	10.6
239.525	-0.03
239.743	-2.01
239.962	-11.97
240.18	-0.31
240.398	5.46
240.617	20.84
240.835	21.8
241.053	33.59
241.271	36.43
241.49	33.31
241.708	32.11
241.926	24.58
242.144	14.4
242.363	4.75
242.581	3.94
242.799	-0.15
243.017	14.83
243.235	2.03
243.453	5.45
243.672	5.71
243.89	17.25
244.108	22.86
244.326	33.3
244.544	26.8
244.762	31.16
244.98	42.58
245.198	35.79
245.416	36.25
245.634	41.51
245.852	44.12
246.07	40.39
246.288	41.18
246.506	34.06
246.724	50.19
246.942	47.72
247.16	30.36
247.378	18.2
247.596	32.81
247.814	26.96
248.032	20.47
248.25	9.94
248.468	6.22
248.685	15.11
248.903	14.41
249.121	9.7
249.339	15.87
249.557	24.86
249.775	12.63
249.992	12.23
250.21	5.44
250.428	6.97
250.646	2.02
250.863	10.64
251.081	9.59
251.299	36.01
251.517	43.25
251.734	64.52
251.952	60.74
252.17	46.27
252.387	37.74
252.605	31.05
252.823	16.91
253.04	7.08
253.258	6.25
253.475	-3.44
253.693	27.38
253.911	32.72
254.128	38.05
254.346	36.14
254.563	36.62
254.781	26.36
254.998	28.29
255.216	19.97
255.433	9.23
255.651	2.47
255.868	-1.46
256.086	-2.24
256.303	-2.82
256.521	0.27
256.738	-0.76
256.956	2.01
257.173	8.61
257.39	12.14
257.608	21.37
257.825	21.7
258.043	26.67
258.26	26.34
258.477	32.37
258.695	30.25
258.912	42.51
259.129	24.9
259.346	31.08
259.564	26.03
259.781	26.38
259.998	17.55
260.216	29.99
260.433	15.63
260.65	29.05
260.867	20.27
261.084	28.9
261.302	31.53
261.519	31.26
261.736	19.02
261.953	23.49
262.17	19.25
262.387	28.2
262.604	13.95
262.822	20.19
263.039	25.02
263.256	20.61
263.473	14.13
263.69	15
263.907	9.76
264.124	2.98
264.341	-6.48
264.558	0.56
264.775	8.41
264.992	15.72
265.209	18.32
265.426	26.01
265.643	33.23
265.86	29.46
266.077	27.49
266.294	22.25
266.51	16.78
266.727	4.59
266.944	-10.49
267.161	-11.55
267.378	-1.86
267.595	-6.55
267.812	-2.63
268.028	10.37
268.245	20.9
268.462	27.72
268.679	30.81
268.896	24.21
269.112	37.17
269.329	39.38
269.546	41.7
269.763	36.06
269.979	20.34
270.196	25.85
270.413	29.54
270.629	23.18
270.846	23.3
271.063	20.53
271.279	22.91
271.496	34.87
271.712	21.99
271.929	20.38
272.146	26.54
272.362	9.42
272.579	11.12
272.795	13.28
273.012	12.96
273.228	13.85
273.445	11.66
273.661	3.55
273.878	17.3
274.094	12.29
274.311	8.43
274.527	4.49
274.744	9.24
274.96	13.61
275.177	14.68
275.393	16.88
275.609	25.14
275.826	27.85
276.042	46.46
276.259	40.38
276.475	32.48
276.691	34
276.908	26.39
277.124	21.95
277.34	20.36
277.557	10.82
277.773	7.84
277.989	9.17
278.205	-3.21
278.422	4.48
278.638	12.96
278.854	18.99
279.07	16.06
279.286	24.45
279.503	32.65
279.719	41.43
279.935	27.43
280.151	18.15
280.367	15.39
280.583	10.38
280.799	13.22
281.016	7.59
281.232	0.19
281.448	1.23
281.664	8.54
281.88	9.26
282.096	11.55
282.312	-2.69
282.528	1.3
282.744	0.17
282.96	6.79
283.176	7.39
283.392	17.81
283.608	27.59
283.824	21.77
284.04	23.22
284.256	29.78
284.471	34.04
284.687	32.68
284.903	16.77
285.119	4.22
285.335	17.97
285.551	18.24
285.767	16.54
285.982	11.88
286.198	3.99
286.414	19.88
286.63	27.15
286.846	19.2
287.061	16.8
287.277	18.19
287.493	21.51
287.709	18.97
287.924	16.46
288.14	19.69
288.356	19.02
288.571	9.2
288.787	5.48
289.003	3.21
289.218	12.07
289.434	12.89
289.65	14.72
289.865	30.34
290.081	34.26
290.296	32.56
290.512	35.08
290.727	38.16
290.943	28.77
291.159	13.32
291.374	7.04
291.59	13.03
291.805	14.77
292.021	-1.74
292.236	-8.43
292.451	-4.14
292.667	10.81
292.882	11.48
293.098	9.51
293.313	2.07
293.529	11.8
293.744	18.73
293.959	16.22
294.175	6.52
294.39	1
294.605	-1.54
294.821	5.91
295.036	12.9
295.251	-0.43
295.467	5.44
295.682	8.56
295.897	5.18
296.112	5.29
296.328	1.28
296.543	-8.01
296.758	1.21
296.973	-0.72
297.188	-1.94
297.404	5.2
297.619	0.15
297.834	15.18
298.049	19.53
298.264	14.28
298.479	3.35
298.694	12.73
298.909	11.07
299.125	16.13
299.34	11.93
299.555	18.64
299.77	19.77
299.985	22.31
300.2	16.97
300.415	18.36
300.63	16.63
300.845	15.66
301.06	4.73
301.275	8.36
301.49	19.98
301.704	20.5
301.919	16.2
302.134	18.88
302.349	13.77
302.564	17.13
302.779	14.36
302.994	9.43
303.209	0.06
303.423	2.45
303.638	-9.14
303.853	1.51
304.068	3.55
304.283	-5.65
304.497	-3.69
304.712	5.23
304.927	0.45
305.142	8.28
305.356	5.77
305.571	14.24
305.786	24.39
306	29.29
306.215	31.09
306.43	41.1
306.644	34.5
306.859	34.59
307.074	21.92
307.288	24.03
307.503	12.1
307.717	4.16
307.932	5.2
308.147	6.59
308.361	11.44
308.576	17.54
308.79	20.4
309.005	26.1
309.219	38.07
309.434	36.69
309.648	28.24
309.863	23.89
310.077	20
310.292	9.21
310.506	22.59
310.72	19.54
310.935	20.41
311.149	30.06
311.364	31.13
311.578	33.13
311.792	31.04
312.007	18.72
312.221	24.35
312.435	21.12
312.649	-11.51
312.864	-28.37
313.078	-25.84
313.292	-21.12
313.507	-5.77
313.721	-9.48
313.935	8.07
314.149	33.96
314.363	43.62
314.578	63.45
314.792	67.15
315.006	61.59
315.22	54.63
315.434	39.87
315.648	37.82
315.862	31.03
316.077	20.79
316.291	20
316.505	18
316.719	0.97
316.933	13.83
317.147	17.2
317.361	24.78
317.575	19.78
317.789	18.22
318.003	16.5
318.217	28.47
318.431	23.54
318.645	21.2
318.859	13.75
319.073	12.19
319.287	14.68
319.5	19.7
319.714	22.29
319.928	25.34
320.142	31.66
320.356	40.8
320.57	34.15
320.784	32.95
320.997	33.95
321.211	28.28
321.425	19.25
321.639	24.82
321.853	19.82
322.066	32.33
322.28	35.95
322.494	27.99
322.707	28.9
322.921	37.94
323.135	27.11
323.349	33.79
323.562	35.15
323.776	26.92
323.989	26.89
324.203	26.18
324.417	17.94
324.63	10.6
324.844	-9.01
325.057	-7.81
325.271	-10.69
325.485	-0.04
325.698	2.4
325.912	15
326.125	31.74
326.339	40.76
326.552	38
326.766	39.93
326.979	34.93
327.193	29.45
327.406	18.35
327.619	-1.28
327.833	-4.91
328.046	-13.34
328.26	-10.07
328.473	-7.96
328.686	4.01
328.9	3.04
329.113	16.64
329.326	26.9
329.54	39.04
329.753	31.45
329.966	32.83
330.179	32.79
330.393	34.02
330.606	31.46
330.819	29.71
331.032	25.48
331.246	26.2
331.459	26.52
331.672	20.6
331.885	23.37
332.098	21.63
332.311	10.13
332.525	19.5
332.738	17.39
332.951	16.37
333.164	9.44
333.377	6.77
333.59	18.48
333.803	24.88
334.016	8.49
334.229	12.87
334.442	16.71
334.655	30.06
334.868	35.42
335.081	32.34
335.294	20.57
335.507	36.02
335.72	27.72
335.933	27.2
336.146	27.55
336.359	23.77
336.572	18.85
336.785	33.85
336.997	27.36
337.21	26.87
337.423	27.48
337.636	28.78
337.849	24.99
338.062	25.09
338.274	17.01
338.487	18.2
338.7	25.22
338.913	16.38
339.125	8.09
339.338	11.7
339.551	21.23
339.763	21.98
339.976	21.83
340.189	19.16
340.402	21.9
340.614	28.05
340.827	20.85
341.039	16.13
341.252	12.66
341.465	5.49
341.677	-1.68
341.89	-3.05
342.102	0.25
342.315	14.52
342.527	11.48
342.74	9.81
342.952	17.04
343.165	21.64
343.377	33.68
343.59	25.85
343.802	24.65
344.015	22.55
344.227	20.03
344.44	19.72
344.652	28.61
344.864	22.11
345.077	19.28
345.289	15.87
345.502	15.48
345.714	16.1
345.926	16.21
346.139	14.56
346.351	-3.97
346.563	6.11
346.775	2.85
346.988	7.81
347.2	13.18
347.412	17.36
347.624	14.41
347.837	25.19
348.049	25.76
348.261	25.48
348.473	14.13
348.685	17.74
348.897	14.41
349.11	21.72
349.322	14.11
349.534	7.38
349.746	14
349.958	27.89
350.17	24.05
350.382	15.59
350.594	12.22
350.806	28.79
351.018	30.67
351.23	30.41
351.442	31.2
351.654	33.69
351.866	38.51
352.078	37.63
352.29	35.66
352.502	33.67
352.714	25.18
352.926	20.76
353.138	18.31
353.35	13.69
353.561	6.8
353.773	3.88
353.985	2.82
354.197	2.63
354.409	4.74
354.621	7.56
354.832	7.64
355.044	19.87
355.256	14.89
355.468	21.42
355.679	27.78
355.891	24.32
356.103	18.26
356.314	22.67
356.526	14.86
356.738	16.18
356.949	12.04
357.161	5.85
357.373	3
357.584	15.85
357.796	14.94
358.008	17.74
358.219	23.94
358.431	24.29
358.642	24.16
358.854	22.95
359.065	19.15
359.277	17.99
359.488	11.54
359.7	13.46
359.911	16.17
360.123	18.7
360.334	19.15
360.546	6.59
360.757	9.41
360.969	11.5
361.18	6.47
361.391	11.82
361.603	14.65
361.814	9.79
362.025	15.72
362.237	9.28
362.448	15.62
362.659	13.12
362.871	6.57
363.082	2.97
363.293	17.71
363.504	19.5
363.716	21.39
363.927	19.8
364.138	25.53
364.349	28.83
364.56	29.28
364.772	25.1
364.983	16.61
365.194	12.87
365.405	9.89
365.616	-6.91
365.827	-1.9
366.038	10.91
366.25	4.27
366.461	13.49
366.672	16.22
366.883	29.5
367.094	33.75
367.305	32.81
367.516	26.44
367.727	30.1
367.938	31.15
368.149	34.67
368.36	23.42
368.571	29.45
368.781	23.59
368.992	20.71
369.203	26.56
369.414	26.77
369.625	24.54
369.836	27.3
370.047	23.14
370.258	24.82
370.468	21.16
370.679	8.72
370.89	19.02
371.101	15.33
371.312	7.4
371.522	6.54
371.733	-3.51
371.944	0.96
372.155	-4.77
372.365	-18.14
372.576	-17.06
372.787	-12.32
372.997	-20.82
373.208	-5.43
373.419	-5.89
373.629	1.23
373.84	-1.53
374.05	2.35
374.261	-0.22
374.472	8.46
374.682	0.04
374.893	-4.04
375.103	7.06
375.314	9.55
375.524	10.36
375.735	19.93
375.945	16.36
376.156	24.18
376.366	26.72
376.577	24.67
376.787	24.98
376.997	28.81
377.208	16.77
377.418	18.94
377.629	11.47
377.839	16.9
378.049	16.14
378.26	18.86
378.47	22
378.68	27.84
378.89	20.65
379.101	12.44
379.311	6.41
379.521	6.7
379.732	1.54
379.942	-4.97
380.152	-2.89
380.362	7.52
380.572	15.71
380.783	15.44
380.993	11.75
381.203	16.07
381.413	17.32
381.623	14.91
381.833	9.64
382.043	7.31
382.253	11.87
382.463	12.48
382.674	15.47
382.884	9.87
383.094	12.17
383.304	16.43
383.514	19.95
383.724	16.15
383.934	17.53
384.144	13.67
384.353	15.28
384.563	13.36
384.773	15.79
384.983	16.89
385.193	17.91
385.403	18.64
385.613	13.44
385.823	16.38
386.033	18.07
386.242	11.33
386.452	6.68
386.662	6.34
386.872	4.36
387.082	7.04
387.291	3.63
387.501	1.79
387.711	5.23
387.921	4.14
388.13	4.34
388.34	2.91
388.55	5.1
388.759	5.54
388.969	1.15
389.179	1.84
389.388	6.19
389.598	3.82
389.807	6.21
390.017	4.89
390.227	5.83
390.436	7.63
390.646	7.96
390.855	5.59
391.065	5.64
391.274	5.19
391.484	5.65
391.693	5.54
391.903	7.02
392.112	4.59
392.322	7.11
392.531	8.37
392.74	6.83
392.95	7.25
393.159	7.31
393.369	6.53
393.578	7.79
393.787	6.09
393.997	6.61
394.206	6.95
394.415	6.66
394.625	5.21
394.834	4.46
395.043	4.57
395.252	4.29
395.462	3.63
395.671	3.94
395.88	4.13
396.089	4.32
396.298	5.04
396.508	4.19
396.717	4.03
396.926	3.68
397.135	3.49
397.344	3.37
397.553	4.03
397.762	3.49
397.971	3.61
398.181	3.61
398.39	3.95
398.599	4.1
398.808	4
399.017	4.11
399.226	4.81
399.435	4.86
399.644	5.06
399.853	4.93
400.062	4.77
400.27	4.63
400.479	4.47
400.688	4.09
400.897	4.32
401.106	4.37
401.315	4.25
401.524	4.37
401.733	4.66
401.941	4.42
402.15	4.29
402.359	4.1
402.568	3.98
402.777	3.97
402.985	3.89
403.194	3.72
403.403	3.56
403.612	3.62
403.82	3.72
404.029	3.74
404.238	3.9
404.446	3.9
404.655	3.76
404.864	3.86
405.072	3.88
405.281	3.69
405.489	3.68
405.698	3.49
405.906	3.39
406.115	3.58
406.324	3.55
406.532	3.54
406.741	3.58
406.949	3.54
407.158	3.63
407.366	3.73
407.574	3.66
407.783	3.58
407.991	3.49
408.2	3.56
408.408	3.55
408.617	3.47
408.825	3.34
409.033	3.27
409.242	3.34
409.45	3.37
409.658	3.27
409.867	3.23
410.075	3.15
410.283	3.16
410.491	3.14
410.7	3.16
410.908	3.1
411.116	3.05
411.324	3.12
411.533	3.09
411.741	3.06
411.949	3.12
412.157	3.14
412.365	3.18
412.573	3.25
412.781	3.26
412.99	3.36
413.198	3.4
413.406	3.3
413.614	3.25
413.822	3.24
414.03	3.19
414.238	3.2
414.446	3.16
414.654	3.09
414.862	3.11
415.07	3.16
415.278	3.13
415.486	3.19
415.694	3.04
415.902	3.03
416.109	3.11
416.317	3.05
416.525	3.06
416.733	3.12
416.941	3.02
417.149	3.12
417.357	3.18
417.564	3.12
417.772	3.13
417.98	3.05
418.188	2.91
418.395	2.93
418.603	2.76
418.811	2.66
419.019	2.63
419.226	2.74
419.434	2.7
419.642	2.78
419.849	2.79
420.057	2.9
420.265	2.97
420.472	2.99
420.68	2.89
420.887	2.87
421.095	2.97
421.302	2.99
421.51	3.07
421.717	3.12
421.925	3.06
422.132	3.01
422.34	2.98
422.547	2.87
422.755	2.83
422.962	2.72
423.17	2.64
423.377	2.76
423.585	2.84
423.792	2.89
423.999	2.9
424.207	2.89
424.414	2.94
424.621	3.02
424.829	2.98
425.036	2.9
425.243	2.93
425.451	2.93
425.658	2.94
425.865	2.82
426.072	2.81
426.28	2.75
426.487	2.79
426.694	2.82
426.901	2.84
427.108	2.86
427.315	2.88
427.523	2.82
427.73	2.93
427.937	2.95
428.144	2.89
428.351	2.87
428.558	2.84
428.765	2.81
428.972	2.77
429.179	2.64
429.386	2.66
429.593	2.69
429.8	2.79
430.007	2.81
430.214	2.85
430.421	2.89
430.628	2.81
430.835	2.69
431.042	2.72
431.249	2.6
431.456	2.64
431.662	2.61
431.869	2.63
432.076	2.74
432.283	2.76
432.49	2.77
432.697	2.78
432.903	2.82
433.11	2.86
433.317	2.84
433.524	2.78
433.73	2.81
433.937	2.78
434.144	2.85
434.35	2.76
434.557	2.7
434.764	2.74
434.97	2.87
435.177	2.84
435.384	2.86
435.59	2.82
435.797	2.84
436.003	2.91
436.21	2.78
436.416	2.67
436.623	2.69
436.829	2.66
437.036	2.62
437.242	2.67
437.449	2.7
437.655	2.75
437.862	2.82
438.068	2.85
438.275	2.86
438.481	2.94
438.687	2.92
438.894	2.9
439.1	2.9
439.307	2.86
439.513	2.9
439.719	2.9
439.926	2.92
440.132	2.89
440.338	2.87
440.544	2.83
440.751	2.79
440.957	2.73
441.163	2.74
441.369	2.71
441.575	2.67
441.782	2.67
441.988	2.73
442.194	2.84
442.4	2.88
442.606	2.92
442.812	2.9
443.018	2.94
443.224	3
443.431	3.04
443.637	2.95
443.843	2.92
444.049	2.87
444.255	2.9
444.461	2.88
444.667	2.83
444.873	2.83
445.079	2.88
445.284	2.85
445.49	2.82
445.696	2.84
445.902	2.88
446.108	2.92
446.314	2.92
446.52	2.97
446.726	3.05
446.931	3.06
447.137	3.07
447.343	3.03
447.549	2.95
447.755	2.91
447.96	2.85
448.166	2.84
448.372	2.83
448.578	2.79
448.783	2.76
448.989	2.82
449.195	2.83
449.4	2.88
449.606	2.81
449.812	2.89
450.017	2.92
450.223	2.98
450.428	2.94
450.634	2.97
450.84	2.97
451.045	3.02
451.251	2.99
451.456	2.95
451.662	2.93
451.867	3.05
452.073	3.01
452.278	2.98
452.483	3
452.689	3
452.894	3
453.1	2.98
453.305	2.9
453.51	2.94
453.716	2.93
453.921	2.94
454.127	2.97
454.332	2.99
454.537	3.05
454.742	3.06
454.948	3.07
455.153	3.14
455.358	3.16
455.563	3.17
455.769	3.21
455.974	3.21
456.179	3.26
456.384	3.27
456.589	3.3
456.795	3.29
457	3.27
457.205	3.23
457.41	3.21
457.615	3.23
457.82	3.26
458.025	3.23
458.23	3.24
458.435	3.19
458.64	3.26
458.845	3.28
459.05	3.27
459.255	3.26
459.46	3.26
459.665	3.33
459.87	3.38
460.075	3.38
460.28	3.43
460.485	3.47
460.69	3.43
460.895	3.48
461.099	3.48
461.304	3.55
461.509	3.5
461.714	3.51
461.919	3.5
462.123	3.58
462.328	3.58
462.533	3.58
462.738	3.57
462.942	3.64
463.147	3.66
463.352	3.71
463.556	3.73
463.761	3.75
463.966	3.79
464.17	3.84
464.375	3.83
464.58	3.83
464.784	3.81
464.989	3.82
465.193	3.83
465.398	3.86
465.602	3.84
465.807	3.89
466.011	3.98
466.216	4.03
466.42	4.1
466.625	4.14
466.829	4.15
467.034	4.2
467.238	4.21
467.443	4.21
467.647	4.25
467.851	4.22
468.056	4.22
468.26	4.21
468.464	4.22
468.669	4.28
468.873	4.25
469.077	4.25
469.282	4.27
469.486	4.3
469.69	4.33
469.894	4.39
470.099	4.4
470.303	4.47
470.507	4.52
470.711	4.52
