Data from Ofra_PS_T2_1A_6CX18_Reflection_1.txt Node
Date: Wed Jul 21 18:08:56 EDT 2021
User: Adam
Spectrometer: FLMT01687
Trigger mode: 0
Integration Time (sec): 1.100000E0
Scans to average: 2
Electric dark correction enabled: true
Nonlinearity correction enabled: false
Boxcar width: 2
XAxis mode: Wavelengths
Number of Pixels in Spectrum: 3648
>>>>>Begin Spectral Data<<<<<
179.494	534.4
179.716	631.53
179.937	602.62
180.158	610.75
180.38	951.25
180.601	224.31
180.823	38.62
181.044	-145.97
181.265	-91.91
181.486	-27.08
181.708	107.62
181.929	651.02
182.15	-609.86
182.372	37.16
182.593	-80.84
182.814	-23.41
183.035	46.78
183.257	59.94
183.478	-30.21
183.699	-4.33
183.92	-16.69
184.141	-68.05
184.363	-86.13
184.584	-31.59
184.805	-4.11
185.026	42.96
185.247	67.68
185.468	29.42
185.689	46.01
185.91	45.12
186.132	31.07
186.353	9.36
186.574	63.9
186.795	41.29
187.016	-12.46
187.237	-27.01
187.458	-61.6
187.679	-85.68
187.9	-70.15
188.121	-54.87
188.342	-85.27
188.563	-6.75
188.784	37.88
189.005	26.67
189.226	72.84
189.447	77.48
189.667	-6.31
189.888	-359.61
190.109	-948.05
190.33	-598.71
190.551	-1009.73
190.772	-207.26
190.993	-161.34
191.214	-154.15
191.434	-122.71
191.655	-44.66
191.876	-104.62
192.097	-135.49
192.318	-203.69
192.538	-270.38
192.759	-190.37
192.98	-76.13
193.201	-22.5
193.421	5.85
193.642	25.04
193.863	30.25
194.083	7.74
194.304	10.82
194.525	14.98
194.745	29.47
194.966	9.82
195.187	4.57
195.407	-11.37
195.628	-59.53
195.848	-83.81
196.069	-88.35
196.29	-47.18
196.51	-58.84
196.731	-55.11
196.951	-66.63
197.172	-78.61
197.392	-118.15
197.613	-122.92
197.833	-170.66
198.054	-145.64
198.274	-85.32
198.495	-94.55
198.715	-56.18
198.936	-61.03
199.156	-74.56
199.377	-174.59
199.597	-167.42
199.817	-195.86
200.038	-102.47
200.258	-126.49
200.479	-43.16
200.699	-38.87
200.919	23.84
201.14	-26.79
201.36	-43.61
201.58	0.33
201.801	26.74
202.021	-8.42
202.241	-4.48
202.461	7.07
202.682	-75.03
202.902	-129.79
203.122	-46.23
203.342	-47.6
203.563	-36.36
203.783	-10.14
204.003	-52.12
204.223	-81.02
204.443	-9.34
204.663	-13.15
204.884	-12.57
205.104	32.89
205.324	56.11
205.544	47.41
205.764	57.17
205.984	66.64
206.204	49
206.424	37.98
206.644	7.4
206.864	-24.38
207.084	-88.28
207.304	-61.27
207.525	-269.38
207.745	-106.57
207.964	-2.35
208.184	-60.29
208.404	-109.24
208.624	-89.5
208.844	-107.86
209.064	-428.8
209.284	-406.74
209.504	-146.53
209.724	-2.06
209.944	-1.28
210.164	22.85
210.384	27.02
210.604	9.63
210.823	-35.63
211.043	-36.82
211.263	-27.36
211.483	-18.03
211.703	-59.88
211.922	-49.04
212.142	-2.4
212.362	0.2
212.582	-10.98
212.801	-0.08
213.021	-24.88
213.241	-25.44
213.461	-57.34
213.68	-64.26
213.9	-38.38
214.12	-11.15
214.339	-88.04
214.559	-46.67
214.779	4.37
214.998	-7.26
215.218	-33.07
215.438	4.93
215.657	3.79
215.877	-31.41
216.096	-6.02
216.316	-4.39
216.535	-11.8
216.755	-11.9
216.974	-71.55
217.194	-147.51
217.413	-134.28
217.633	-129.58
217.852	-227.64
218.072	-88.28
218.291	-29.64
218.511	12.15
218.73	-21.53
218.95	-26.62
219.169	-47.13
219.389	-93.82
219.608	-72.31
219.827	-55.89
220.047	-45.3
220.266	-12.89
220.485	-3.22
220.705	-8.61
220.924	-21.94
221.143	17.79
221.363	4.29
221.582	18.49
221.801	19.57
222.021	35.45
222.24	-0.56
222.459	48.36
222.678	0.3
222.897	-65.19
223.117	-96.25
223.336	-108.39
223.555	-71.53
223.774	-9.74
223.993	13.38
224.213	51.91
224.432	46.01
224.651	48.93
224.87	13.37
225.089	38.97
225.308	32.18
225.527	32.06
225.746	18.58
225.965	12.04
226.184	-15.54
226.404	10.78
226.623	4.91
226.842	11.77
227.061	34.24
227.28	31.28
227.499	5.32
227.718	25.04
227.936	3.39
228.155	0.13
228.374	-4.88
228.593	8.24
228.812	2.98
229.031	2.44
229.25	-46.84
229.469	-51.08
229.688	-46.99
229.907	-28.64
230.125	-10.91
230.344	9.16
230.563	9.63
230.782	20.83
231.001	-34.84
231.22	-30.64
231.438	-1.85
231.657	8.4
231.876	-10.13
232.095	21.92
232.313	35.69
232.532	0.47
232.751	-40.39
232.969	-28.1
233.188	-93.32
233.407	-54.88
233.625	-30.64
233.844	-48.15
234.063	-45.83
234.281	-24.14
234.5	-40.42
234.719	-26.54
234.937	-0.4
235.156	0.46
235.374	3.99
235.593	-8.89
235.811	-0.56
236.03	-11.87
236.249	-45.96
236.467	-36.65
236.686	2.13
236.904	-1.45
237.123	-23.96
237.341	-25.54
237.559	-20.35
237.778	-51.43
237.996	-98.43
238.215	-36.92
238.433	-7.36
238.652	-28.9
238.87	-22.89
239.088	-1.87
239.307	-17.95
239.525	-41.22
239.743	-54.12
239.962	-65
240.18	-76.3
240.398	-128.63
240.617	-117.97
240.835	-74.22
241.053	-36.42
241.271	-3.72
241.49	30.82
241.708	39.69
241.926	6.03
242.144	2.61
242.363	-25.33
242.581	-52.24
242.799	-14.16
243.017	0.13
243.235	-27.3
243.453	-26.32
243.672	-18
243.89	-29.18
244.108	-43.27
244.326	-24.42
244.544	-21.87
244.762	-20.62
244.98	-30.65
245.198	-13.36
245.416	-32.46
245.634	-26.55
245.852	-26
246.07	-22.44
246.288	-27.65
246.506	-49.84
246.724	-41.55
246.942	-42.7
247.16	2.58
247.378	6.38
247.596	38.08
247.814	35.86
248.032	4.18
248.25	-9.99
248.468	3.9
248.685	1.81
248.903	24.06
249.121	29.53
249.339	-3.87
249.557	-19.8
249.775	-23.78
249.992	-90.2
250.21	-73.89
250.428	-50.77
250.646	-81.03
250.863	-81.52
251.081	-43.84
251.299	-39.55
251.517	-16.12
251.734	1.53
251.952	2.7
252.17	-0.22
252.387	-0.33
252.605	-21.53
252.823	-9.66
253.04	-4.99
253.258	12.87
253.475	6.15
253.693	27.48
253.911	17
254.128	11.89
254.346	1.08
254.563	-8.69
254.781	-22.79
254.998	-42.66
255.216	-59.83
255.433	-61.03
255.651	-4.01
255.868	25.43
256.086	50.88
256.303	35.35
256.521	29.05
256.738	-13.19
256.956	-42.73
257.173	-80.09
257.39	-78.58
257.608	-113.1
257.825	-61.71
258.043	-46.88
258.26	-29.78
258.477	23.45
258.695	22.17
258.912	-14.6
259.129	0.12
259.346	-39.58
259.564	-85.03
259.781	-104.81
259.998	-41.83
260.216	-30.37
260.433	31.89
260.65	13.9
260.867	31.54
261.084	1.2
261.302	-9.7
261.519	-46.95
261.736	-57.07
261.953	-63.93
262.17	-23.9
262.387	-71.89
262.604	-103.02
262.822	-108.6
263.039	-107.14
263.256	-161.28
263.473	-90.4
263.69	-51.03
263.907	1.8
264.124	10.07
264.341	14.36
264.558	6.65
264.775	28.44
264.992	10.92
265.209	15.32
265.426	44.48
265.643	49.49
265.86	58.71
266.077	67.31
266.294	67.68
266.51	3.04
266.727	-18.94
266.944	-23.67
267.161	-25.09
267.378	-37.37
267.595	6.95
267.812	-11.45
268.028	-34.35
268.245	-26.47
268.462	-31.3
268.679	-40.27
268.896	10.31
269.112	16.7
269.329	12.32
269.546	20.86
269.763	9.77
269.979	-5.53
270.196	-10.28
270.413	-37.89
270.629	-70.8
270.846	-87.01
271.063	-86.4
271.279	-98.35
271.496	-80.9
271.712	-36.01
271.929	-13.08
272.146	-31.77
272.362	-24.64
272.579	-1.33
272.795	13.25
273.012	17.91
273.228	38.42
273.445	9.34
273.661	-9.41
273.878	-59.26
274.094	-61.02
274.311	-90.59
274.527	-13.37
274.744	-15.47
274.96	-11.01
275.177	-1.87
275.393	26
275.609	13.35
275.826	33.77
276.042	28.21
276.259	18.38
276.475	11.29
276.691	5.84
276.908	-13.34
277.124	-0.05
277.34	-1.36
277.557	-23.7
277.773	-21.39
277.989	-18.11
278.205	-15.36
278.422	2.19
278.638	19.73
278.854	43.8
279.07	46.16
279.286	33.42
279.503	-0.29
279.719	-10.08
279.935	-42.23
280.151	-66.88
280.367	-37.12
280.583	-55.36
280.799	-55.57
281.016	-78.5
281.232	-25.7
281.448	-36.48
281.664	-10.89
281.88	-40.75
282.096	-6.82
282.312	-7.98
282.528	2.14
282.744	11.52
282.96	13.87
283.176	-1.73
283.392	-2.73
283.608	-3.97
283.824	-1.71
284.04	12.51
284.256	10.87
284.471	4.76
284.687	-5.62
284.903	16.23
285.119	33.24
285.335	21.4
285.551	20.58
285.767	-0.69
285.982	-18.7
286.198	-68.02
286.414	-16.04
286.63	-2.55
286.846	28.27
287.061	-2.69
287.277	30.05
287.493	3.13
287.709	14.77
287.924	-9.24
288.14	38.92
288.356	29.94
288.571	54.18
288.787	22.25
289.003	30.98
289.218	1.28
289.434	-29.83
289.65	-24.85
289.865	-13.93
290.081	-0.76
290.296	14.96
290.512	15.36
290.727	-28.93
290.943	-31.68
291.159	-32.53
291.374	-30.49
291.59	-31.22
291.805	-26.94
292.021	-5.58
292.236	-18.45
292.451	-5.96
292.667	-7.56
292.882	13.01
293.098	-6.07
293.313	-16.56
293.529	-53.73
293.744	-52.23
293.959	-44.05
294.175	-42
294.39	1.62
294.605	16.46
294.821	38.23
295.036	37.15
295.251	39.27
295.467	7.5
295.682	17.2
295.897	-27.06
296.112	-35.12
296.328	-19.83
296.543	-22.24
296.758	-27.27
296.973	18.89
297.188	41
297.404	2.28
297.619	-14.39
297.834	-32.21
298.049	-62.33
298.264	-98.24
298.479	-23.82
298.694	-14.71
298.909	3.86
299.125	3.33
299.34	11.5
299.555	-7.59
299.77	-3.55
299.985	-39.12
300.2	-74.82
300.415	-86.79
300.63	-70.05
300.845	-64.02
301.06	-63.92
301.275	-31.5
301.49	-11.66
301.704	-28.27
301.919	-45.02
302.134	-55.12
302.349	-58.96
302.564	-105.84
302.779	-86.67
302.994	-41.07
303.209	-22.29
303.423	10.24
303.638	18.36
303.853	-17.99
304.068	-30.08
304.283	-18.08
304.497	-20.29
304.712	-32.45
304.927	-15.92
305.142	-21.24
305.356	-21.58
305.571	-33.08
305.786	-45.93
306	-82.09
306.215	-72.19
306.43	-63.36
306.644	-51.92
306.859	13.72
307.074	36.49
307.288	8.08
307.503	-28.68
307.717	-43.92
307.932	-50.27
308.147	-51.58
308.361	-31.31
308.576	-27.63
308.79	-60.95
309.005	-66.46
309.219	-54.91
309.434	-69.11
309.648	-56.35
309.863	-13.42
310.077	-4.64
310.292	8.41
310.506	13.77
310.72	19.9
310.935	18.09
311.149	6.36
311.364	18.85
311.578	31.35
311.792	20.36
312.007	29.92
312.221	27.25
312.435	18.66
312.649	-3.31
312.864	15.19
313.078	19.8
313.292	74.15
313.507	57.83
313.721	77.2
313.935	29.99
314.149	17.38
314.363	6.38
314.578	19.86
314.792	25.38
315.006	5.57
315.22	13.36
315.434	16.15
315.648	9.24
315.862	6.91
316.077	20.38
316.291	9.94
316.505	8.16
316.719	-10.51
316.933	-25.32
317.147	-11.79
317.361	-54.59
317.575	-69.03
317.789	-86.73
318.003	-140.76
318.217	-104.2
318.431	-18.74
318.645	10.6
318.859	14.02
319.073	38.28
319.287	18.2
319.5	-12.32
319.714	-63.49
319.928	-99.01
320.142	-136.71
320.356	-87.37
320.57	-49.74
320.784	-47.98
320.997	-53.58
321.211	-37.83
321.425	-94.23
321.639	-137.74
321.853	-67.55
322.066	-40.99
322.28	-31.88
322.494	-22.14
322.707	10.19
322.921	-9.31
323.135	-13.42
323.349	-18.65
323.562	-35.34
323.776	-51.77
323.989	-52.39
324.203	-63.28
324.417	-63.19
324.63	-64.83
324.844	-71.11
325.057	-63.92
325.271	-39.43
325.485	-3.92
325.698	16.25
325.912	32.3
326.125	9.19
326.339	-2.93
326.552	-32.83
326.766	-31.34
326.979	-30.65
327.193	10.44
327.406	5.48
327.619	-6.02
327.833	1.84
328.046	-16.26
328.26	-54.13
328.473	-25.9
328.686	-48.81
328.9	-49.49
329.113	-24.48
329.326	-28.64
329.54	-33.97
329.753	-16.64
329.966	-34.62
330.179	-38.17
330.393	-25.23
330.606	-5.25
330.819	12.49
331.032	25.76
331.246	30.53
331.459	61.91
331.672	43.29
331.885	27.49
332.098	16.07
332.311	11.92
332.525	-54.12
332.738	-31.18
332.951	0.15
333.164	6.09
333.377	5.51
333.59	24.55
333.803	17.3
334.016	13.22
334.229	1.44
334.442	13.54
334.655	43.98
334.868	50.89
335.081	44.26
335.294	53.15
335.507	42.74
335.72	7.82
335.933	4.72
336.146	-12.05
336.359	-16.48
336.572	-46.44
336.785	-68.74
336.997	-69.28
337.21	-32.74
337.423	-33.7
337.636	-29.6
337.849	-3.23
338.062	-16.68
338.274	-18.11
338.487	-41.55
338.7	-24.23
338.913	-56.04
339.125	-67.79
339.338	-138.49
339.551	-93.97
339.763	-72.24
339.976	-33.57
340.189	-12.65
340.402	10
340.614	-4.38
340.827	-15.72
341.039	-31.72
341.252	-33.79
341.465	-18.71
341.677	-16.62
341.89	-43.29
342.102	-22.47
342.315	-28.49
342.527	-68.76
342.74	-65.21
342.952	-21.92
343.165	-34.87
343.377	-6.26
343.59	5.76
343.802	24.25
344.015	21.47
344.227	39.76
344.44	25.24
344.652	9.29
344.864	-14.3
345.077	12.18
345.289	5.85
345.502	7.45
345.714	8.86
345.926	18.16
346.139	2.71
346.351	14.35
346.563	12.77
346.775	27.4
346.988	26.8
347.2	9.27
347.412	-22.46
347.624	-19.1
347.837	-51.24
348.049	-25.99
348.261	-7.86
348.473	-5.47
348.685	-21.47
348.897	-22.93
349.11	-48.72
349.322	-57.49
349.534	-47.13
349.746	-26.57
349.958	-16.53
350.17	-15.61
350.382	-0.92
350.594	11.21
350.806	12.6
351.018	24.4
351.23	17.48
351.442	-21.21
351.654	-25.38
351.866	-15
352.078	-11.04
352.29	8.25
352.502	22.86
352.714	29.55
352.926	7.44
353.138	1.7
353.35	-3.69
353.561	-1.5
353.773	-27.47
353.985	-10.43
354.197	-23.19
354.409	-31.53
354.621	-36.23
354.832	-21.11
355.044	-39.43
355.256	-34.13
355.468	-19.68
355.679	-26.1
355.891	-29.87
356.103	-32.35
356.314	-13.52
356.526	-18.19
356.738	-16.5
356.949	-26.66
357.161	-0.24
357.373	-18.58
357.584	-25.42
357.796	-3.64
358.008	-7.09
358.219	0.23
358.431	2.52
358.642	5.43
358.854	-3.29
359.065	-11.13
359.277	-44.89
359.488	-51.17
359.7	-68.62
359.911	-86.37
360.123	-53.73
360.334	-64.47
360.546	-85.35
360.757	-75.49
360.969	-65.4
361.18	-59.99
361.391	-37.85
361.603	-49.64
361.814	-38.07
362.025	-37.81
362.237	-38.41
362.448	-24.17
362.659	12.6
362.871	-0.87
363.082	-6.18
363.293	-3.01
363.504	-11.79
363.716	-42.82
363.927	-40.69
364.138	-57.45
364.349	-97.73
364.56	-81.21
364.772	-65.35
364.983	-32.48
365.194	-20.15
365.405	5.8
365.616	22.31
365.827	19.63
366.038	-11.8
366.25	-17.79
366.461	-61.54
366.672	-46.84
366.883	-20.27
367.094	2.29
367.305	-8.27
367.516	11.42
367.727	-17.29
367.938	-35.42
368.149	-45.58
368.36	-34.68
368.571	-35.12
368.781	-41.24
368.992	-47.7
369.203	-63
369.414	-76.11
369.625	-76.81
369.836	-61.39
370.047	-87.22
370.258	-60.68
370.468	-41.14
370.679	-46.97
370.89	-44.42
371.101	-27.07
371.312	-39.53
371.522	-50.16
371.733	-42.94
371.944	-28.17
372.155	-8.05
372.365	-18.42
372.576	-17
372.787	-31.64
372.997	-60.67
373.208	-61.67
373.419	-42.6
373.629	-68.57
373.84	-56.81
374.05	-59.92
374.261	-38.25
374.472	-44.8
374.682	1.03
374.893	-10.2
375.103	32.25
375.314	17.49
375.524	17.77
375.735	14.3
375.945	27.53
376.156	-10.04
376.366	-11.38
376.577	-6.78
376.787	-17.23
376.997	-13
377.208	-2.23
377.418	-3.31
377.629	4.69
377.839	7.18
378.049	4.08
378.26	9.64
378.47	11.33
378.68	1.47
378.89	-2.72
379.101	-8
379.311	-38.43
379.521	-60.54
379.732	-60.34
379.942	-57.6
380.152	-71.45
380.362	-31.23
380.572	-21.71
380.783	-7.47
380.993	-1.7
381.203	9.47
381.413	18.99
381.623	25.1
381.833	20.97
382.043	13.12
382.253	4.87
382.463	-5.67
382.674	-21.53
382.884	-38.37
383.094	-28.37
383.304	-16.86
383.514	-11.25
383.724	2.97
383.934	-1.34
384.144	-16.88
384.353	-33.89
384.563	-35.86
384.773	-30.58
384.983	-36.13
385.193	-11.8
385.403	-0.18
385.613	-1.16
385.823	-18.1
386.033	-4.08
386.242	-10.1
386.452	-14.88
386.662	-23.16
386.872	-5.42
387.082	-13.11
387.291	-18.9
387.501	-19.76
387.711	-8.07
387.921	-15.6
388.13	-15.87
388.34	-3.72
388.55	-5.79
388.759	-7.4
388.969	0.64
389.179	2.46
389.388	-5.28
389.598	0.85
389.807	-4.06
390.017	-10.09
390.227	-8.3
390.436	-8.09
390.646	-7.05
390.855	-3.65
391.065	-2.67
391.274	-3.65
391.484	-4.6
391.693	-4.35
391.903	-2.47
392.112	1.84
392.322	4.83
392.531	8.42
392.74	11.06
392.95	6.14
393.159	3.97
393.369	2.43
393.578	0.89
393.787	-2.62
393.997	1.9
394.206	1.65
394.415	1.35
394.625	1.27
394.834	1.59
395.043	1.22
395.252	3.51
395.462	6.31
395.671	8.83
395.88	10
396.089	10.39
396.298	8.6
396.508	7.39
396.717	5.9
396.926	5.66
397.135	5.64
397.344	5.02
397.553	5.8
397.762	8.11
397.971	7.88
398.181	7.65
398.39	7.32
398.599	6.69
398.808	5.69
399.017	6.72
399.226	8.14
399.435	9.65
399.644	9.48
399.853	8.77
400.062	8.03
400.27	7.29
400.479	6.67
400.688	6.3
400.897	6.39
401.106	6.57
401.315	6.27
401.524	6.39
401.733	7
401.941	7.39
402.15	7.37
402.359	7.49
402.568	7.72
402.777	7.78
402.985	7.71
403.194	7.71
403.403	7.33
403.612	6.81
403.82	6.58
404.029	6.66
404.238	6.64
404.446	7.12
404.655	7.16
404.864	7.02
405.072	6.77
405.281	6.89
405.489	6.43
405.698	6.57
405.906	6.57
406.115	6.56
406.324	6.47
406.532	6.8
406.741	6.91
406.949	7.1
407.158	7.12
407.366	7.1
407.574	7.05
407.783	7.01
407.991	6.75
408.2	6.91
408.408	6.8
408.617	6.61
408.825	6.39
409.033	6.53
409.242	6.45
409.45	6.58
409.658	6.68
409.867	6.82
410.075	6.74
410.283	6.64
410.491	6.52
410.7	6.45
410.908	6.44
411.116	6.64
411.324	6.69
411.533	6.68
411.741	6.79
411.949	6.87
412.157	6.65
412.365	6.63
412.573	6.68
412.781	6.69
412.99	6.5
413.198	6.6
413.406	6.56
413.614	6.49
413.822	6.33
414.03	6.34
414.238	6.07
414.446	6.09
414.654	5.96
414.862	6.11
415.07	6.07
415.278	6.38
415.486	6.2
415.694	6.33
415.902	5.98
416.109	5.98
416.317	5.88
416.525	5.83
416.733	5.75
416.941	6.02
417.149	5.91
417.357	5.95
417.564	6.05
417.772	6.18
417.98	6.07
418.188	6.14
418.395	6.05
418.603	6.18
418.811	5.9
419.019	5.84
419.226	6.06
419.434	6.14
419.642	5.92
419.849	6.08
420.057	6.15
420.265	5.94
420.472	5.68
420.68	5.75
420.887	5.67
421.095	5.69
421.302	5.69
421.51	6.06
421.717	6.12
421.925	6.29
422.132	6.07
422.34	5.85
422.547	5.72
422.755	5.6
422.962	5.3
423.17	5.37
423.377	5.44
423.585	5.35
423.792	5.28
423.999	5.51
424.207	5.52
424.414	5.82
424.621	5.88
424.829	5.83
425.036	5.72
425.243	5.82
425.451	5.49
425.658	5.31
425.865	5.54
426.072	5.6
426.28	5.77
426.487	5.86
426.694	5.94
426.901	5.74
427.108	5.62
427.315	5.43
427.523	5.59
427.73	5.51
427.937	5.56
428.144	5.55
428.351	5.56
428.558	5.69
428.765	5.64
428.972	5.59
429.179	5.74
429.386	5.98
429.593	5.62
429.8	5.62
430.007	5.7
430.214	5.81
430.421	5.58
430.628	5.63
430.835	5.62
431.042	5.82
431.249	5.78
431.456	5.82
431.662	5.94
431.869	6.24
432.076	6.09
432.283	6.23
432.49	6.18
432.697	6.17
432.903	5.88
433.11	5.91
433.317	5.97
433.524	6.25
433.73	6.29
433.937	6.61
434.144	6.57
434.35	6.37
434.557	6.08
434.764	6.05
434.97	5.88
435.177	6.13
435.384	6.13
435.59	6.27
435.797	6.52
436.003	6.62
436.21	6.49
436.416	6.64
436.623	6.63
436.829	6.57
437.036	6.6
437.242	6.66
437.449	6.48
437.655	6.52
437.862	6.46
438.068	6.33
438.275	6.34
438.481	6.56
438.687	6.48
438.894	6.4
439.1	6.47
439.307	6.64
439.513	6.48
439.719	6.48
439.926	6.69
440.132	6.66
440.338	6.48
440.544	6.61
440.751	6.54
440.957	6.53
441.163	6.46
441.369	6.5
441.575	6.23
441.782	6.32
441.988	6.24
442.194	6.3
442.4	6.33
442.606	6.76
442.812	6.84
443.018	6.94
443.224	7.01
443.431	7.09
443.637	6.8
443.843	6.66
444.049	6.65
444.255	6.53
444.461	6.46
444.667	6.49
444.873	6.71
445.079	6.62
445.284	6.78
445.49	6.65
445.696	6.52
445.902	6.41
446.108	6.41
446.314	6.35
446.52	6.44
446.726	6.79
446.931	6.82
447.137	6.95
447.343	7.05
447.549	6.94
447.755	6.71
447.96	6.66
448.166	6.55
448.372	6.45
448.578	6.64
448.783	6.69
448.989	6.82
449.195	7.01
449.4	6.99
449.606	6.89
449.812	6.87
450.017	6.9
450.223	6.73
450.428	6.7
450.634	6.92
450.84	7
451.045	6.94
451.251	6.97
451.456	7.31
451.662	7.21
451.867	7.27
452.073	7.29
452.278	7.45
452.483	7.45
452.689	7.37
452.894	7.47
453.1	7.47
453.305	7.36
453.51	7.28
453.716	7.27
453.921	7.23
454.127	7.28
454.332	7.23
454.537	7.13
454.742	7.24
454.948	7.32
455.153	7.26
455.358	7.44
455.563	7.66
455.769	7.75
455.974	7.68
456.179	7.64
456.384	7.54
456.589	7.39
456.795	7.2
457	7.21
457.205	7.49
457.41	7.48
457.615	7.53
457.82	7.7
458.025	7.71
458.23	7.58
458.435	7.73
458.64	7.71
458.845	7.81
459.05	7.88
459.255	7.97
459.46	7.94
459.665	7.9
459.87	7.91
460.075	7.88
460.28	7.89
460.485	8.03
460.69	8.18
460.895	8.04
