Data from Ofra_1a_PS_2HS9_Reflection_2.txt Node
Date: Tue Jul 20 10:54:35 EDT 2021
User: Adam
Spectrometer: FLMT01687
Trigger mode: 0
Integration Time (sec): 1.004000E0
Scans to average: 2
Electric dark correction enabled: true
Nonlinearity correction enabled: false
Boxcar width: 2
XAxis mode: Wavelengths
Number of Pixels in Spectrum: 3648
>>>>>Begin Spectral Data<<<<<
179.494	-420.81
179.716	-660.31
179.937	1466.56
180.158	-1516.56
180.38	194.11
180.601	141.18
180.823	55.34
181.044	-85.1
181.265	210.26
181.486	29.09
181.708	16.74
181.929	8227.27
182.15	-229.2
182.372	386.7
182.593	131.75
182.814	-114.94
183.035	-4.14
183.257	-3.14
183.478	-22.87
183.699	-71.87
183.92	-119.97
184.141	-129.44
184.363	-95.03
184.584	-126.98
184.805	-42.96
185.026	12.18
185.247	10.28
185.468	-20.65
185.689	-0.84
185.91	-63.19
186.132	-41.8
186.353	-34.28
186.574	-14.38
186.795	-14.17
187.016	11.97
187.237	-6.33
187.458	-20.28
187.679	-28.92
187.9	-31.44
188.121	-19.18
188.342	-13.79
188.563	1.99
188.784	26.62
189.005	27.67
189.226	15.31
189.447	9.11
189.667	-18.52
189.888	-46.81
190.109	-87.36
190.33	-78.44
190.551	-85.33
190.772	-59.42
190.993	-45.32
191.214	-38.57
191.434	-45.09
191.655	-51.19
191.876	-6.16
192.097	-15.78
192.318	14.42
192.538	-41.25
192.759	-25.67
192.98	-6.14
193.201	-3.35
193.421	-1.7
193.642	22.41
193.863	26.31
194.083	-2.26
194.304	14.21
194.525	-14.53
194.745	-21.67
194.966	-15.68
195.187	-21.55
195.407	-50.08
195.628	-26.73
195.848	-23.88
196.069	-47.04
196.29	-27.44
196.51	-25.82
196.731	-25.83
196.951	-41.15
197.172	-27.68
197.392	-52.67
197.613	-24.21
197.833	-31.46
198.054	-31.99
198.274	-19.91
198.495	2.31
198.715	-8.42
198.936	3.78
199.156	28.48
199.377	33.54
199.597	31.72
199.817	35.5
200.038	16.73
200.258	15.66
200.479	9.94
200.699	-12.04
200.919	-13.96
201.14	-12.13
201.36	-27.9
201.58	-57.83
201.801	-53.41
202.021	-51.4
202.241	-42.93
202.461	-40.57
202.682	-24.97
202.902	-20.84
203.122	-21.45
203.342	-30.7
203.563	-38.13
203.783	-31.25
204.003	-35.29
204.223	-23.61
204.443	-11.1
204.663	-21.49
204.884	-22.72
205.104	-13.2
205.324	10.41
205.544	-35.4
205.764	3.36
205.984	5.8
206.204	20.48
206.424	-1.52
206.644	12.24
206.864	-22.32
207.084	-17.29
207.304	-40.85
207.525	-48.87
207.745	-33.75
207.964	-19.67
208.184	-16.37
208.404	-19.77
208.624	-9.75
208.844	-9.21
209.064	-14.85
209.284	-14.66
209.504	-20.28
209.724	-24.61
209.944	-45.66
210.164	-34.3
210.384	-70.84
210.604	-121.61
210.823	-129.19
211.043	-73.8
211.263	-159.94
211.483	-62.14
211.703	-18.77
211.922	-30.46
212.142	-53.15
212.362	-15.54
212.582	-28.27
212.801	-49.66
213.021	-49.97
213.241	-49.18
213.461	-60.13
213.68	-45.98
213.9	-42.53
214.12	-41.46
214.339	-29.15
214.559	-28.12
214.779	-35
214.998	-11.35
215.218	-9.04
215.438	-8.04
215.657	-16.9
215.877	-26.01
216.096	-7.3
216.316	1.97
216.535	-4.6
216.755	6.21
216.974	11.38
217.194	-27.65
217.413	-20.04
217.633	-26.61
217.852	-21.68
218.072	-8.5
218.291	-13.54
218.511	-25.46
218.73	-36.62
218.95	-79.24
219.169	-85.18
219.389	-56.34
219.608	-50.1
219.827	-26.65
220.047	-16.68
220.266	-49.57
220.485	-53.8
220.705	-57.17
220.924	-95.72
221.143	-31.45
221.363	-2.06
221.582	-13.33
221.801	-10.58
222.021	-4.04
222.24	-15.87
222.459	-1.54
222.678	2.92
222.897	6.35
223.117	6.77
223.336	16.25
223.555	6
223.774	5.99
223.993	9.85
224.213	49.3
224.432	27.25
224.651	11.87
224.87	21.14
225.089	9.26
225.308	12.56
225.527	4.63
225.746	-5.25
225.965	-6.83
226.184	-24.77
226.404	-47.11
226.623	-40.98
226.842	-24.35
227.061	-15.74
227.28	12.42
227.499	15.23
227.718	17.92
227.936	22.44
228.155	10.5
228.374	8.31
228.593	9.24
228.812	8.32
229.031	1.59
229.25	-15.3
229.469	-27.46
229.688	-36.48
229.907	-7.49
230.125	-10.42
230.344	14.43
230.563	21.79
230.782	33.07
231.001	8.15
231.22	23
231.438	29
231.657	18.4
231.876	6
232.095	15.38
232.313	-5.78
232.532	-25.62
232.751	-23.15
232.969	-15.09
233.188	-33.21
233.407	-26.36
233.625	-25.11
233.844	-19.4
234.063	-19.06
234.281	-0.37
234.5	-5.45
234.719	-4.25
234.937	-38.38
235.156	-41.73
235.374	-67.85
235.593	-26.68
235.811	-12.58
236.03	12.25
236.249	18.31
236.467	31.03
236.686	10.34
236.904	12.77
237.123	-3.91
237.341	-1.27
237.559	-12.45
237.778	20.96
237.996	-9.45
238.215	-6.61
238.433	-55.83
238.652	-15.45
238.87	-60.68
239.088	-64.07
239.307	-40.89
239.525	-34.52
239.743	-46.29
239.962	-56
240.18	-27.47
240.398	-32.56
240.617	-49.74
240.835	-46.95
241.053	-20.25
241.271	-21.48
241.49	-10.49
241.708	-13.49
241.926	-11.27
242.144	4.48
242.363	2.08
242.581	-5.8
242.799	-5.33
243.017	-15.84
243.235	-28.71
243.453	-53.82
243.672	-36.83
243.89	-23.94
244.108	-8.93
244.326	-10.89
244.544	5.84
244.762	-4.74
244.98	-9.25
245.198	-14.32
245.416	-9.63
245.634	-13.59
245.852	-27.49
246.07	2.96
246.288	-5.5
246.506	-14.57
246.724	-13.78
246.942	1.48
247.16	-16.82
247.378	-41.34
247.596	-21.42
247.814	-34.3
248.032	-34.59
248.25	4.5
248.468	28.09
248.685	26.17
248.903	18.54
249.121	22.77
249.339	13.43
249.557	-2.24
249.775	3.01
249.992	2.48
250.21	-11.74
250.428	-9.73
250.646	-12.68
250.863	-40.33
251.081	-34.18
251.299	-18.9
251.517	-16.52
251.734	-11.94
251.952	1.81
252.17	2.73
252.387	-29.5
252.605	-39.77
252.823	-71.45
253.04	-57.85
253.258	-51.36
253.475	-19.2
253.693	-21.35
253.911	-7.17
254.128	-14
254.346	-11.99
254.563	-4.95
254.781	-5.62
254.998	0.92
255.216	-24.06
255.433	-33
255.651	-25.91
255.868	-25.63
256.086	-19.39
256.303	-3.56
256.521	13.88
256.738	2.83
256.956	9.65
257.173	-13.52
257.39	-15.06
257.608	-35.06
257.825	-24.18
258.043	-15.98
258.26	-0.47
258.477	7.88
258.695	15.71
258.912	4.12
259.129	-21.17
259.346	-53.8
259.564	-51.96
259.781	-69.64
259.998	-48.43
260.216	-6.1
260.433	-15.22
260.65	-33.5
260.867	-34.21
261.084	-34.31
261.302	-79.66
261.519	-28.12
261.736	-12.61
261.953	-9.95
262.17	8.28
262.387	14.33
262.604	-0.5
262.822	9.45
263.039	8.96
263.256	-5.11
263.473	1.9
263.69	5.75
263.907	-7.13
264.124	-9.66
264.341	-5.73
264.558	-27.67
264.775	-36.63
264.992	-38.03
265.209	-49.02
265.426	-83.84
265.643	-41.53
265.86	-53.65
266.077	-41.93
266.294	-30.71
266.51	15.68
266.727	6.53
266.944	24.39
267.161	20.54
267.378	35.11
267.595	13.79
267.812	-8.67
268.028	-39.04
268.245	-31.12
268.462	-25.03
268.679	-20.67
268.896	3.63
269.112	4.24
269.329	-14.86
269.546	-14.72
269.763	-7.54
269.979	-18.84
270.196	-12.59
270.413	-8.63
270.629	-16.38
270.846	-21.37
271.063	0.85
271.279	4.59
271.496	-1.52
271.712	-2.1
271.929	17.85
272.146	13.83
272.362	10.18
272.579	29.38
272.795	42.66
273.012	28.91
273.228	21.82
273.445	19.35
273.661	-0.88
273.878	-20.75
274.094	-22.78
274.311	-9.92
274.527	-3.1
274.744	1.29
274.96	9.4
275.177	11.58
275.393	18.59
275.609	22.16
275.826	24.5
276.042	5.6
276.259	13.59
276.475	-4.42
276.691	-5.72
276.908	-3.63
277.124	16.74
277.34	-6.81
277.557	-6.79
277.773	-25.1
277.989	-25.14
278.205	-26.97
278.422	-8.05
278.638	-8.06
278.854	-7.03
279.07	5.42
279.286	3.73
279.503	1.24
279.719	4.51
279.935	11.95
280.151	-5.2
280.367	3.05
280.583	-1.65
280.799	-12.49
281.016	-45.26
281.232	-30.41
281.448	-36.48
281.664	-27.1
281.88	-6.27
282.096	9.61
282.312	10.37
282.528	-0.18
282.744	-9.73
282.96	-31.93
283.176	-68.99
283.392	-113.42
283.608	-51.05
283.824	-68.13
284.04	-113.86
284.256	-40.69
284.471	-17.8
284.687	-19.22
284.903	-2.88
285.119	15.28
285.335	13.65
285.551	7.79
285.767	-8.83
285.982	-15.48
286.198	-42.36
286.414	-36.19
286.63	-53.45
286.846	-39.11
287.061	-29.22
287.277	-10.15
287.493	-37.38
287.709	-34.02
287.924	-9.01
288.14	0.99
288.356	22.24
288.571	27.17
288.787	22.41
289.003	23.24
289.218	4.58
289.434	-22.56
289.65	-5.35
289.865	-2.67
290.081	-10.76
290.296	-1.4
290.512	3.29
290.727	-12.55
290.943	-8.01
291.159	1.58
291.374	-14.46
291.59	-19.13
291.805	-23.59
292.021	-20.48
292.236	-41.92
292.451	-18.04
292.667	-15.39
292.882	-4
293.098	-15.93
293.313	-15.14
293.529	-17.39
293.744	-27.57
293.959	-15.14
294.175	-2.49
294.39	-11.66
294.605	-0.84
294.821	9.02
295.036	-3.41
295.251	-8.07
295.467	-1.4
295.682	-9.71
295.897	-19.71
296.112	-20.94
296.328	-13.26
296.543	-23.67
296.758	-28.43
296.973	-23.82
297.188	-33.68
297.404	-63.35
297.619	-66.68
297.834	-93.84
298.049	-69.79
298.264	-51.69
298.479	-42.92
298.694	7.71
298.909	21.92
299.125	17.21
299.34	25.35
299.555	33.48
299.77	32.02
299.985	24.85
300.2	27.95
300.415	23.58
300.63	20.09
300.845	-3.52
301.06	-7.09
301.275	-6.24
301.49	-7.56
301.704	-1.97
301.919	-6.56
302.134	-9.58
302.349	-5.9
302.564	-5.05
302.779	-3.16
302.994	9.92
303.209	11.95
303.423	0.61
303.638	4.69
303.853	-16.75
304.068	-41
304.283	-13.36
304.497	-30.02
304.712	-15.07
304.927	0.78
305.142	15.16
305.356	15.77
305.571	23.9
305.786	13.27
306	11.17
306.215	1.09
306.43	-9.36
306.644	-7.44
306.859	-19.9
307.074	-4.1
307.288	-2.28
307.503	3.35
307.717	-9.21
307.932	14.84
308.147	1.29
308.361	15.23
308.576	14.15
308.79	13.54
309.005	-5.1
309.219	6.48
309.434	-3.31
309.648	-13.78
309.863	-5.44
310.077	-15.58
310.292	-6.35
310.506	-14.39
310.72	-7.18
310.935	-0.56
311.149	8.09
311.364	0.65
311.578	6.94
311.792	-10.37
312.007	-25.7
312.221	-43.43
312.435	-46.89
312.649	-51.86
312.864	-39.43
313.078	-39.91
313.292	-32.6
313.507	-10.85
313.721	-8.79
313.935	-4.9
314.149	-4.34
314.363	16.27
314.578	-9.12
314.792	-46.7
315.006	-35.79
315.22	-22.99
315.434	-28.52
315.648	-22.37
315.862	-8.37
316.077	-7.62
316.291	-6.41
316.505	-26.56
316.719	-11.48
316.933	8.49
317.147	-4.3
317.361	-4.19
317.575	8.68
317.789	2.47
318.003	-8.18
318.217	-0.75
318.431	-11.72
318.645	-24.61
318.859	-20.09
319.073	-15.49
319.287	-16.95
319.5	-2.56
319.714	-2.88
319.928	-8.1
320.142	7.23
320.356	16.34
320.57	-6.29
320.784	-1.9
320.997	-14.43
321.211	-20.66
321.425	-34.09
321.639	-14.13
321.853	-1.56
322.066	-3.91
322.28	-23.49
322.494	-19.59
322.707	-25.4
322.921	-31.65
323.135	-28.24
323.349	-16.68
323.562	-5.52
323.776	-3.21
323.989	0.88
324.203	-9.41
324.417	-14.36
324.63	-31.76
324.844	-43.19
325.057	-78.38
325.271	-48.77
325.485	-51.72
325.698	-22.04
325.912	-0.22
326.125	-8.1
326.339	-11.35
326.552	-10.8
326.766	-30.24
326.979	-42.61
327.193	-19.56
327.406	-20.11
327.619	-6.66
327.833	-3.7
328.046	8.95
328.26	-0.62
328.473	0.9
328.686	-8.68
328.9	-1.46
329.113	-17.71
329.326	-11.14
329.54	-5.11
329.753	11.32
329.966	11.17
330.179	11.1
330.393	1.21
330.606	1.25
330.819	-24.98
331.032	-17.65
331.246	-12.25
331.459	2.55
331.672	0.43
331.885	8.35
332.098	-9.24
332.311	-11.31
332.525	-7.57
332.738	-1.69
332.951	-11.52
333.164	-5.68
333.377	-1.89
333.59	-19.91
333.803	-34.3
334.016	-15.12
334.229	-17.04
334.442	-19.74
334.655	-4.88
334.868	1.03
335.081	-6.8
335.294	-5.86
335.507	0.44
335.72	-5.37
335.933	-19.26
336.146	-12.02
336.359	4.01
336.572	3.61
336.785	1.21
336.997	10.6
337.21	12.13
337.423	-22.64
337.636	-17.2
337.849	-12.72
338.062	-2.04
338.274	-1.87
338.487	-15.32
338.7	-34.91
338.913	-17.86
339.125	-44.62
339.338	-40.68
339.551	-22.52
339.763	-17.89
339.976	-33
340.189	-34.75
340.402	-24.98
340.614	-14.41
340.827	-1.43
341.039	12.04
341.252	28.75
341.465	21.88
341.677	28.31
341.89	20.95
342.102	12.12
342.315	12.31
342.527	15.75
342.74	-16.02
342.952	-18.29
343.165	-13.4
343.377	-8.25
343.59	-10.52
343.802	14.85
344.015	18.75
344.227	19.7
344.44	7.22
344.652	-6.34
344.864	-7.26
345.077	-6.77
345.289	-4.54
345.502	7.03
345.714	14.97
345.926	7.62
346.139	-14.17
346.351	-8.18
346.563	0.85
346.775	-5.4
346.988	-1.01
347.2	8.18
347.412	11.63
347.624	-2.94
347.837	23.78
348.049	21.57
348.261	14.21
348.473	-9.81
348.685	-14.98
348.897	-42.82
349.11	-37.64
349.322	-28.63
349.534	-25.83
349.746	-9.37
349.958	-25.29
350.17	-43.41
350.382	-49.37
350.594	-31.98
350.806	-26.04
351.018	-15.14
351.23	5
351.442	20.78
351.654	23.04
351.866	15.57
352.078	23.35
352.29	14.31
352.502	-6.44
352.714	-6.72
352.926	-4.3
353.138	3.25
353.35	-10.24
353.561	-0.44
353.773	-11.92
353.985	-8.03
354.197	-2.18
354.409	9.77
354.621	-6.28
354.832	-6.13
355.044	-26.21
355.256	-43.19
355.468	-57.69
355.679	0.34
355.891	10.55
356.103	10.02
356.314	1.38
356.526	-5.45
356.738	-35.72
356.949	-39.06
357.161	-17.47
357.373	-13.09
357.584	0.41
357.796	13.98
358.008	14.01
358.219	6.83
358.431	5.77
358.642	13.11
358.854	22.02
359.065	9.29
359.277	9.31
359.488	6.62
359.7	-13.5
359.911	-50.47
360.123	-26.94
360.334	-35.26
360.546	-31.36
360.757	-15.11
360.969	0.76
361.18	-5.48
361.391	8.72
361.603	19.29
361.814	18.46
362.025	17.77
362.237	17.99
362.448	14.04
362.659	16.01
362.871	1.52
363.082	-4.68
363.293	-10.18
363.504	-28.74
363.716	-54.47
363.927	-30.33
364.138	-57.29
364.349	-52.46
364.56	-61.31
364.772	-44.1
364.983	-20.75
365.194	-5.75
365.405	-4.65
365.616	12.13
365.827	5.4
366.038	3.2
366.25	14.32
366.461	12.29
366.672	5.36
366.883	-0.94
367.094	-13.12
367.305	-26.34
367.516	-27.74
367.727	-37.36
367.938	-29.56
368.149	-41.99
368.36	-40
368.571	-56.36
368.781	-43.14
368.992	-37.84
369.203	-23.77
369.414	-38.62
369.625	-23.75
369.836	-14.48
370.047	-7.1
370.258	-2.72
370.468	-4.06
370.679	-10.92
370.89	-11.64
371.101	-16.28
371.312	-22.02
371.522	0.85
371.733	-5.35
371.944	-21.48
372.155	-13.04
372.365	-16.1
372.576	-32.68
372.787	-8.46
372.997	-6.7
373.208	-0.63
373.419	4.28
373.629	1.46
373.84	-8.39
374.05	-4.77
374.261	-21.84
374.472	-14.83
374.682	3.57
374.893	-16.47
375.103	-4.61
375.314	2.89
375.524	-8.13
375.735	-6.88
375.945	4.94
376.156	-0.51
376.366	-3.46
376.577	4.82
376.787	1.95
376.997	9.91
377.208	4.91
377.418	4
377.629	8.34
377.839	8.95
378.049	3.82
378.26	3.27
378.47	5.63
378.68	-2.49
378.89	-4.91
379.101	-2.95
379.311	1.23
379.521	-9.01
379.732	-11.29
379.942	-18.8
380.152	-24.5
380.362	-31.28
380.572	-12.99
380.783	-1.4
380.993	7.21
381.203	8.6
381.413	12.02
381.623	9.41
381.833	3.85
382.043	1.08
382.253	1.68
382.463	9.95
382.674	6.12
382.884	-0.2
383.094	5.41
383.304	7.38
383.514	5.11
383.724	8.15
383.934	5.41
384.144	0.64
384.353	-2.31
384.563	-3.79
384.773	-3.38
384.983	0.71
385.193	-5.45
385.403	-3.13
385.613	-6.84
385.823	-10.94
386.033	-15.38
386.242	-17.45
386.452	-20.52
386.662	-17.34
386.872	-9.14
387.082	-2.48
387.291	4.3
387.501	5.05
387.711	8.54
387.921	2.85
388.13	3
388.34	2.66
388.55	0.95
388.759	-5.32
388.969	-5.45
389.179	-7.25
389.388	-9.84
389.598	-13.33
389.807	-16.76
390.017	-15.88
390.227	-16.43
390.436	-13.61
390.646	-9.42
390.855	-4.41
391.065	-3.71
391.274	-3.52
391.484	-3.52
391.693	-3.15
391.903	-4.97
392.112	-5.06
392.322	-4.93
392.531	-5.16
392.74	-5.38
392.95	-2.84
393.159	-3.25
393.369	-2.61
393.578	-3.97
393.787	-4.78
393.997	-4.2
394.206	-4.51
394.415	-4.07
394.625	-3.32
394.834	-3.9
395.043	-4.25
395.252	-2.28
395.462	-1.08
395.671	-0.62
395.88	1.93
396.089	0.69
396.298	0.29
396.508	0.46
396.717	0.61
396.926	0.07
397.135	1.23
397.344	0.93
397.553	0.09
397.762	1.7
397.971	1.26
398.181	1.32
398.39	0.96
398.599	1.75
398.808	0.64
399.017	1.75
399.226	1.77
399.435	2.08
399.644	2.35
399.853	2.44
400.062	1.76
400.27	1.27
400.479	1.66
400.688	1.34
400.897	1.49
401.106	1.49
401.315	1.76
401.524	1.65
401.733	1.26
401.941	1.38
402.15	1.44
402.359	1.56
402.568	1.47
402.777	2.07
402.985	1.47
403.194	1.45
403.403	1.53
403.612	1.44
403.82	0.77
404.029	0.97
404.238	0.97
404.446	1.11
404.655	1.35
404.864	1.67
405.072	1.85
405.281	1.76
405.489	1.56
405.698	1.64
405.906	1.78
406.115	1.78
406.324	1.8
406.532	1.9
406.741	1.79
406.949	1.63
407.158	1.53
407.366	1.42
407.574	1.46
407.783	1.33
407.991	1.37
408.2	1.53
408.408	1.77
408.617	1.68
408.825	1.68
409.033	1.64
409.242	1.64
409.45	1.46
409.658	1.47
409.867	1.52
410.075	1.61
410.283	1.46
410.491	1.41
410.7	1.33
410.908	1.36
411.116	1.36
411.324	1.38
411.533	1.39
411.741	1.41
411.949	1.38
412.157	1.25
412.365	1.25
412.573	1.33
412.781	1.29
412.99	1.3
413.198	1.29
413.406	1.4
413.614	1.47
413.822	1.6
414.03	1.64
414.238	1.73
414.446	1.7
414.654	1.53
414.862	1.45
415.07	1.35
415.278	1.35
415.486	1.22
415.694	1.39
415.902	1.31
416.109	1.29
416.317	1.3
416.525	1.23
416.733	1.31
416.941	1.41
417.149	1.41
417.357	1.35
417.564	1.38
417.772	1.26
417.98	1.24
418.188	1.23
418.395	1.03
418.603	1.02
418.811	0.99
419.019	0.92
419.226	0.99
419.434	1.21
419.642	1.09
419.849	1.04
420.057	1.01
420.265	1.03
420.472	1.05
420.68	1.24
420.887	1.29
421.095	1.37
421.302	1.32
421.51	1.14
421.717	1.21
421.925	1.21
422.132	1.16
422.34	1.07
422.547	0.99
422.755	0.98
422.962	0.96
423.17	0.88
423.377	0.89
423.585	1.2
423.792	1.05
423.999	1.11
424.207	1.07
424.414	1.18
424.621	1.04
424.829	1.15
425.036	1.23
425.243	1.35
425.451	1.26
425.658	1.36
425.865	1.28
426.072	1.21
426.28	1.21
426.487	1.2
426.694	1.08
426.901	1.2
427.108	1.12
427.315	1.04
427.523	0.97
427.73	1.02
427.937	0.75
428.144	0.79
428.351	0.82
428.558	0.99
428.765	1.02
428.972	1.25
429.179	1.14
429.386	1.21
429.593	1.1
429.8	1.05
430.007	1.1
430.214	1.14
430.421	1.16
430.628	1.14
430.835	1.16
431.042	1.06
431.249	1.11
431.456	1.04
431.662	1.21
431.869	1.29
432.076	1.29
432.283	1.42
432.49	1.45
432.697	1.33
432.903	1.21
433.11	1.34
433.317	1.31
433.524	1.25
433.73	1.19
433.937	1.34
434.144	1.18
434.35	1.06
434.557	1.13
434.764	1.24
434.97	1.01
435.177	1.24
435.384	1.32
435.59	1.3
435.797	1.35
436.003	1.49
436.21	1.31
436.416	1.31
436.623	1.36
436.829	1.33
437.036	1.29
437.242	1.36
437.449	1.31
437.655	1.4
437.862	1.43
438.068	1.41
438.275	1.47
438.481	1.67
438.687	1.61
438.894	1.69
439.1	1.62
439.307	1.72
439.513	1.7
439.719	1.64
439.926	1.54
440.132	1.81
440.338	1.65
440.544	1.5
440.751	1.5
440.957	1.58
441.163	1.37
441.369	1.38
441.575	1.35
441.782	1.41
441.988	1.4
442.194	1.45
442.4	1.46
442.606	1.59
442.812	1.66
443.018	1.59
443.224	1.69
443.431	1.72
443.637	1.59
443.843	1.56
444.049	1.69
444.255	1.71
444.461	1.61
444.667	1.75
444.873	1.82
445.079	1.7
445.284	1.62
445.49	1.67
445.696	1.57
445.902	1.51
446.108	1.54
446.314	1.59
446.52	1.68
446.726	1.76
446.931	1.69
447.137	1.72
447.343	1.78
447.549	1.82
447.755	1.71
447.96	1.83
448.166	1.86
448.372	1.8
448.578	1.65
448.783	1.79
448.989	1.84
449.195	1.8
449.4	1.95
449.606	2.02
449.812	1.92
450.017	1.83
450.223	1.9
450.428	1.71
450.634	1.7
450.84	1.77
451.045	1.74
451.251	1.72
451.456	1.82
451.662	1.89
451.867	1.85
452.073	1.92
452.278	1.93
452.483	1.86
452.689	1.84
452.894	1.99
453.1	1.96
453.305	1.98
453.51	2.06
453.716	2
453.921	1.97
454.127	1.92
454.332	1.91
454.537	1.86
454.742	1.93
454.948	1.84
455.153	1.91
455.358	1.91
455.563	1.96
455.769	1.94
455.974	1.94
456.179	1.93
456.384	1.86
456.589	1.81
456.795	1.75
457	1.83
457.205	1.84
457.41	1.83
457.615	1.89
457.82	2.05
458.025	1.94
458.23	1.89
458.435	1.99
458.64	1.91
458.845	1.9
459.05	1.93
459.255	1.99
459.46	1.9
459.665	1.94
459.87	1.85
460.075	1.97
460.28	1.96
460.485	2.06
460.69	2
460.895	2.02
461.099	1.8
461.304	1.82
461.509	1.79
461.714	1.93
461.919	1.97
462.123	2.14
462.328	1.99
462.533	1.93
462.738	1.81
462.942	1.72
463.147	1.67
