Data from Ofra_1a_PS_6EV18_Reflection_1.txt Node
Date: Tue Jul 20 10:59:29 EDT 2021
User: Adam
Spectrometer: FLMT01687
Trigger mode: 0
Integration Time (sec): 1.004000E0
Scans to average: 2
Electric dark correction enabled: true
Nonlinearity correction enabled: false
Boxcar width: 2
XAxis mode: Wavelengths
Number of Pixels in Spectrum: 3648
>>>>>Begin Spectral Data<<<<<
179.494	-34.01
179.716	-161.07
179.937	453.18
180.158	-564.97
180.38	158.76
180.601	90.76
180.823	-14.08
181.044	-157.53
181.265	-160.62
181.486	153.03
181.708	39.44
181.929	11118.18
182.15	-260.51
182.372	809.36
182.593	176.88
182.814	-321.73
183.035	-55.23
183.257	-4.62
183.478	-17.64
183.699	-34.38
183.92	-40.71
184.141	-31.06
184.363	-23.55
184.584	-33.54
184.805	-6.18
185.026	34.11
185.247	29.82
185.468	0.02
185.689	24.09
185.91	-9.82
186.132	14.39
186.353	24.2
186.574	38.75
186.795	30.92
187.016	50.23
187.237	50.58
187.458	30.83
187.679	42.1
187.9	52.5
188.121	77.22
188.342	72.94
188.563	96.98
188.784	89.96
189.005	84.17
189.226	60.01
189.447	37.51
189.667	19.4
189.888	-3.66
190.109	-58.93
190.33	-39.97
190.551	-29.7
190.772	-19.92
190.993	-28.45
191.214	3.23
191.434	-8.63
191.655	-5.68
191.876	23.1
192.097	19.66
192.318	52.31
192.538	19.73
192.759	14.67
192.98	11.33
193.201	14.87
193.421	-0.17
193.642	7.81
193.863	7.64
194.083	-1.18
194.304	7.59
194.525	-16.94
194.745	-0.91
194.966	9.45
195.187	12.08
195.407	-5
195.628	29.89
195.848	29.81
196.069	30.58
196.29	26.37
196.51	19.92
196.731	-19.92
196.951	-21.46
197.172	-14.26
197.392	-21.11
197.613	17.07
197.833	21.14
198.054	-11.97
198.274	-34.18
198.495	-27.86
198.715	-73.52
198.936	-43.63
199.156	-19.16
199.377	-8.9
199.597	-3.16
199.817	4.78
200.038	-24.26
200.258	-0.64
200.479	-7.82
200.699	-4.49
200.919	7.58
201.14	7.97
201.36	7.03
201.58	-11.32
201.801	-33.19
202.021	-34.26
202.241	-25.21
202.461	-28.58
202.682	19.19
202.902	30.83
203.122	26.08
203.342	44.98
203.563	44.75
203.783	9.66
204.003	-5.81
204.223	14.13
204.443	2.41
204.663	-12.85
204.884	38.89
205.104	45.11
205.324	34.74
205.544	-16.44
205.764	33.7
205.984	34.46
206.204	17.9
206.424	-12.58
206.644	-6.72
206.864	-72.48
207.084	-44.71
207.304	-48.22
207.525	-18.02
207.745	22.26
207.964	37.97
208.184	34.95
208.404	41.47
208.624	51.83
208.844	43.99
209.064	37.14
209.284	36.37
209.504	20.2
209.724	-3.79
209.944	-33.38
210.164	-37.89
210.384	-53.42
210.604	-87.83
210.823	-118.92
211.043	-90.08
211.263	-167.73
211.483	-114.27
211.703	-86.66
211.922	-93.28
212.142	-50.12
212.362	-7.58
212.582	0.02
212.801	11.07
213.021	-2.13
213.241	-23.21
213.461	-24.98
213.68	-14.08
213.9	-2.69
214.12	14.12
214.339	29.27
214.559	27.85
214.779	4.97
214.998	23.52
215.218	21.34
215.438	24.27
215.657	34.28
215.877	24.7
216.096	10.77
216.316	1.88
216.535	-15.7
216.755	-17.4
216.974	-4.53
217.194	-18.27
217.413	9.78
217.633	6.32
217.852	1.51
218.072	16.88
218.291	16.71
218.511	-13.64
218.73	-18.35
218.95	-39.68
219.169	-81.75
219.389	-64.47
219.608	-65.93
219.827	-41.4
220.047	-13.57
220.266	3.21
220.485	13.52
220.705	31.55
220.924	33.76
221.143	15.69
221.363	6.8
221.582	-8.2
221.801	4.09
222.021	19.64
222.24	30.01
222.459	27.3
222.678	47.52
222.897	42.89
223.117	46.78
223.336	48.61
223.555	50.95
223.774	46.8
223.993	45.03
224.213	41.78
224.432	11.34
224.651	4.76
224.87	-1.28
225.089	11.92
225.308	16.44
225.527	13.39
225.746	24.74
225.965	22.1
226.184	12.88
226.404	-21.86
226.623	-2.71
226.842	-2.39
227.061	2.13
227.28	16.89
227.499	34.31
227.718	37.08
227.936	35.31
228.155	42.66
228.374	31.6
228.593	36.77
228.812	29.83
229.031	35.6
229.25	20.43
229.469	4.43
229.688	2.63
229.907	12.84
230.125	18.54
230.344	19.7
230.563	42.2
230.782	46.84
231.001	54.49
231.22	47.44
231.438	57.78
231.657	45.27
231.876	30.49
232.095	31.39
232.313	11.43
232.532	-0.49
232.751	-17.48
232.969	-18.5
233.188	-39.32
233.407	-8.86
233.625	-1.21
233.844	7.74
234.063	22.87
234.281	31.51
234.5	23.86
234.719	29.62
234.937	9.54
235.156	-17.33
235.374	-14.1
235.593	-15.72
235.811	-15.91
236.03	9.77
236.249	29.9
236.467	28.72
236.686	23.48
236.904	16.23
237.123	1.46
237.341	-13.02
237.559	-17.93
237.778	18.64
237.996	15.47
238.215	27.92
238.433	6.17
238.652	31.25
238.87	2.31
239.088	27.65
239.307	37.59
239.525	35.14
239.743	24.09
239.962	17.89
240.18	7.65
240.398	-6.05
240.617	-12.62
240.835	-36.75
241.053	-23.44
241.271	0.22
241.49	16.68
241.708	4.38
241.926	10.65
242.144	11.34
242.363	-32.85
242.581	-100.86
242.799	-95.21
243.017	-36.77
243.235	-14.92
243.453	-22.36
243.672	10.71
243.89	14.22
244.108	17.17
244.326	20.23
244.544	31.37
244.762	17.35
244.98	24.68
245.198	18.15
245.416	7.38
245.634	0.48
245.852	-9.83
246.07	-10.44
246.288	-4.76
246.506	-17.55
246.724	-16.09
246.942	-6.18
247.16	6
247.378	-7.71
247.596	38.65
247.814	45.57
248.032	33.46
248.25	49.37
248.468	37.76
248.685	36.61
248.903	37.74
249.121	33.05
249.339	22.96
249.557	16.18
249.775	17.33
249.992	12.89
250.21	17.52
250.428	24.86
250.646	21.85
250.863	-2.13
251.081	-2.66
251.299	5.7
251.517	-15.66
251.734	0.01
251.952	-0.14
252.17	-2.09
252.387	-10.92
252.605	7.65
252.823	1.06
253.04	26.5
253.258	29.56
253.475	26.77
253.693	0.43
253.911	-3.71
254.128	-6.23
254.346	7.13
254.563	11.39
254.781	13.69
254.998	19.97
255.216	-0.24
255.433	-15.9
255.651	-12.51
255.868	-12.75
256.086	0.22
256.303	21.44
256.521	20.85
256.738	23.28
256.956	21.09
257.173	1.74
257.39	1.93
257.608	-1.71
257.825	-5.84
258.043	16.08
258.26	22.51
258.477	18.53
258.695	17.77
258.912	10.57
259.129	-11.05
259.346	-27.08
259.564	-29.03
259.781	-23.53
259.998	-10.09
260.216	0.37
260.433	-3.26
260.65	7.04
260.867	0.19
261.084	8.39
261.302	13.47
261.519	40.82
261.736	33.89
261.953	32.6
262.17	24.22
262.387	16.02
262.604	3.08
262.822	7.99
263.039	16.25
263.256	20.73
263.473	17.33
263.69	21.26
263.907	15.77
264.124	13.39
264.341	10.69
264.558	-2.63
264.775	9.87
264.992	7.57
265.209	-2.85
265.426	-19.81
265.643	14.41
265.86	-4.55
266.077	11.4
266.294	21.13
266.51	37.33
266.727	36.98
266.944	40.42
267.161	37.7
267.378	40.41
267.595	30.74
267.812	6.68
268.028	-13.73
268.245	-11.01
268.462	-2.54
268.679	-4.74
268.896	30.52
269.112	18.8
269.329	-11.32
269.546	0.84
269.763	9.85
269.979	-1.65
270.196	12.53
270.413	19.64
270.629	-4.39
270.846	-7.21
271.063	2.07
271.279	-2.22
271.496	-1.82
271.712	-2.01
271.929	-2.59
272.146	-0.38
272.362	6.59
272.579	4.22
272.795	6.59
273.012	7.93
273.228	-1.61
273.445	-5.87
273.661	8.02
273.878	12.98
274.094	22.71
274.311	11.43
274.527	19.47
274.744	20.98
274.96	15.13
275.177	14.82
275.393	29.18
275.609	30.02
275.826	20.26
276.042	11.33
276.259	10.11
276.475	5.53
276.691	-5.64
276.908	-2.7
277.124	15.17
277.34	-3.97
277.557	-10.35
277.773	-19.83
277.989	-28.33
278.205	-28.01
278.422	-21.45
278.638	-29.5
278.854	-14.38
279.07	10.83
279.286	3.18
279.503	19.26
279.719	29.92
279.935	25.15
280.151	6.77
280.367	22.07
280.583	16.49
280.799	-8.02
281.016	-28.09
281.232	-7.36
281.448	-22.88
281.664	-15.9
281.88	12.74
282.096	21.27
282.312	12.91
282.528	10.67
282.744	13.7
282.96	-8.86
283.176	-31.08
283.392	-53.88
283.608	-55.86
283.824	-92.54
284.04	-139.24
284.256	-67.95
284.471	-33.43
284.687	-11.84
284.903	-1.4
285.119	25.48
285.335	22.54
285.551	7.12
285.767	-0.92
285.982	-16.06
286.198	-51.23
286.414	-53.4
286.63	-38.48
286.846	-12.17
287.061	5.5
287.277	24.89
287.493	34.83
287.709	49.01
287.924	23.66
288.14	33.58
288.356	23.27
288.571	20.36
288.787	5.3
289.003	11.07
289.218	-13.37
289.434	-4.05
289.65	22.09
289.865	29.33
290.081	28.4
290.296	37.09
290.512	37.92
290.727	9.45
290.943	7.49
291.159	2.4
291.374	-21.19
291.59	-9.15
291.805	-8.7
292.021	-14.91
292.236	-29.24
292.451	-7.14
292.667	-6.32
292.882	8.83
293.098	18.69
293.313	17.15
293.529	8.33
293.744	-4.06
293.959	-13.41
294.175	-0.68
294.39	13.33
294.605	28.25
294.821	12.46
295.036	22.08
295.251	17.9
295.467	8.49
295.682	-2.88
295.897	7.64
296.112	-10.5
296.328	-11.08
296.543	-16.54
296.758	-16
296.973	-10.95
297.188	-16.68
297.404	-53.52
297.619	-72.94
297.834	-78.83
298.049	-70.6
298.264	-37.54
298.479	-14.09
298.694	26.77
298.909	37.06
299.125	35.15
299.34	37.68
299.555	39.61
299.77	32.96
299.985	28.54
300.2	20.13
300.415	17.55
300.63	15.79
300.845	4.67
301.06	6.31
301.275	17.84
301.49	14.21
301.704	23.83
301.919	27.11
302.134	16.56
302.349	5.85
302.564	3.71
302.779	-16.17
302.994	8.71
303.209	19.94
303.423	26.33
303.638	28.45
303.853	21.76
304.068	-27.7
304.283	-27.16
304.497	-44.61
304.712	-19.06
304.927	-4.99
305.142	16.43
305.356	9.32
305.571	15.07
305.786	10.01
306	11.99
306.215	0.21
306.43	8.39
306.644	20.09
306.859	-7.62
307.074	3.19
307.288	2.03
307.503	22.49
307.717	-0.14
307.932	18.89
308.147	6.46
308.361	13.47
308.576	-15.37
308.79	0.01
309.005	-15.04
309.219	3.11
309.434	15.22
309.648	14.06
309.863	26.64
310.077	40.34
310.292	37.7
310.506	10.75
310.72	10.27
310.935	12.7
311.149	19.37
311.364	16.44
311.578	19.16
311.792	36.41
312.007	40.35
312.221	6.17
312.435	14.08
312.649	37.27
312.864	-0.27
313.078	-6.89
313.292	8.81
313.507	6.33
313.721	-8.14
313.935	15.6
314.149	19.67
314.363	1.14
314.578	14.3
314.792	6.83
315.006	-1.16
315.22	3.9
315.434	23.05
315.648	15.12
315.862	15.94
316.077	18.89
316.291	10.93
316.505	-14.86
316.719	-23.61
316.933	-8.74
317.147	-1.34
317.361	-7.5
317.575	13.52
317.789	26.68
318.003	17.17
318.217	7.11
318.431	2.11
318.645	-12.83
318.859	-10.38
319.073	3.63
319.287	6.68
319.5	21.43
319.714	23.8
319.928	18.3
320.142	12.59
320.356	40.36
320.57	16.31
320.784	24.34
320.997	13.73
321.211	27.76
321.425	-12.51
321.639	18.54
321.853	28.69
322.066	29.25
322.28	16.79
322.494	25.93
322.707	27.02
322.921	20.04
323.135	36.49
323.349	33.96
323.562	34.82
323.776	30.09
323.989	24.57
324.203	5.57
324.417	1.68
324.63	-8.65
324.844	-23.95
325.057	-45.22
325.271	-21.22
325.485	-20.11
325.698	6.49
325.912	24.23
326.125	29.9
326.339	32.71
326.552	34.99
326.766	16.91
326.979	26.53
327.193	19.14
327.406	-2.82
327.619	5.28
327.833	15.88
328.046	6.26
328.26	4.37
328.473	22.87
328.686	14.72
328.9	14.19
329.113	11.78
329.326	21.71
329.54	12.77
329.753	23.87
329.966	19.07
330.179	20.7
330.393	20.49
330.606	18.26
330.819	1.21
331.032	7.5
331.246	10.15
331.459	18.88
331.672	29.13
331.885	33.51
332.098	25.06
332.311	8.91
332.525	5.02
332.738	3.4
332.951	-9.32
333.164	7.38
333.377	14.07
333.59	5.09
333.803	-7.61
334.016	9.79
334.229	6.4
334.442	17.41
334.655	30.43
334.868	37.81
335.081	28.67
335.294	11.77
335.507	15.97
335.72	11.24
335.933	8.72
336.146	16.59
336.359	31.58
336.572	35.41
336.785	40.27
336.997	42.1
337.21	48.48
337.423	22.81
337.636	-3.54
337.849	-24.5
338.062	-16.28
338.274	-11.1
338.487	-11.92
338.7	-11.49
338.913	2.83
339.125	-6.29
339.338	-20.05
339.551	-5.07
339.763	-11.5
339.976	-10.12
340.189	-16.57
340.402	-7.87
340.614	-1.03
340.827	7.81
341.039	7.61
341.252	15.79
341.465	-6.32
341.677	-9.39
341.89	-28.88
342.102	-16.86
342.315	-17.35
342.527	-3.31
342.74	-18.73
342.952	2.92
343.165	-10.2
343.377	6.91
343.59	20.91
343.802	37.6
344.015	39.08
344.227	35.42
344.44	27.48
344.652	19.58
344.864	8.02
345.077	1.54
345.289	18.94
345.502	34.85
345.714	36.85
345.926	43.48
346.139	37.72
346.351	29.39
346.563	35.64
346.775	35.18
346.988	31.24
347.2	26.28
347.412	25.81
347.624	5.23
347.837	1.65
348.049	9.62
348.261	3.27
348.473	-12.28
348.685	-11.13
348.897	-11.94
349.11	-14.16
349.322	-2.05
349.534	12.98
349.746	10.24
349.958	7.2
350.17	-1.94
350.382	-12.41
350.594	-11.7
350.806	9.32
351.018	16.86
351.23	31.66
351.442	45.45
351.654	37.7
351.866	22.63
352.078	28.54
352.29	16.17
352.502	12.61
352.714	18.61
352.926	22.32
353.138	20.67
353.35	23.02
353.561	18.74
353.773	19.75
353.985	29.92
354.197	20.14
354.409	17.67
354.621	9.56
354.832	8.96
355.044	-10.28
355.256	-31.36
355.468	-52.03
355.679	-8.29
355.891	-7.69
356.103	-6.62
356.314	7.81
356.526	3.8
356.738	-24.26
356.949	-33.52
357.161	-16.76
357.373	-6.5
357.584	3.13
357.796	12.15
358.008	31.75
358.219	28.63
358.431	11.67
358.642	15.47
358.854	14.07
359.065	4.75
359.277	-1.99
359.488	-2.78
359.7	-4.97
359.911	-8.34
360.123	-7.54
360.334	-3.08
360.546	-0.39
360.757	7.86
360.969	6.53
361.18	7.55
361.391	23.58
361.603	22.88
361.814	26.36
362.025	30.31
362.237	35.07
362.448	32.05
362.659	32.12
362.871	19.64
363.082	13.24
363.293	-20.56
363.504	-37.71
363.716	-49.76
363.927	-25.21
364.138	-46.69
364.349	-25.77
364.56	-51.72
364.772	-27.61
364.983	-27.67
365.194	-16.34
365.405	-20.84
365.616	-0.56
365.827	-14.25
366.038	-2.48
366.25	13.58
366.461	24.94
366.672	25.01
366.883	29.34
367.094	19.89
367.305	-2.32
367.516	-6.79
367.727	-17.6
367.938	-11.93
368.149	-13.11
368.36	-5.99
368.571	-16.09
368.781	-8.2
368.992	-10.41
369.203	-10.62
369.414	-13.93
369.625	-3.14
369.836	9.21
370.047	13.25
370.258	30.29
370.468	29.15
370.679	23.55
370.89	16.21
371.101	30.08
371.312	11.28
371.522	8.81
371.733	3.77
371.944	-6.64
372.155	-18.34
372.365	-10.46
372.576	-7.49
372.787	-0.42
372.997	0.45
373.208	5.31
373.419	4.5
373.629	8.95
373.84	3.58
374.05	-0.96
374.261	-24.66
374.472	-23.58
374.682	-18.17
374.893	-23.17
375.103	-2.72
375.314	5.64
375.524	9.65
375.735	7.34
375.945	7.6
376.156	-7.23
376.366	3.05
376.577	-0.65
376.787	7.89
376.997	26.99
377.208	30.69
377.418	21.06
377.629	26.5
377.839	22.26
378.049	13.3
378.26	6.32
378.47	2.97
378.68	3.01
378.89	2.55
379.101	1.73
379.311	6.83
379.521	2.53
379.732	6.69
379.942	4.65
380.152	-1.08
380.362	3.85
380.572	21.46
380.783	21.41
380.993	23.58
381.203	19.57
381.413	24.57
381.623	16.78
381.833	19.45
382.043	14.54
382.253	15.52
382.463	16.48
382.674	15.75
382.884	9.06
383.094	4.07
383.304	6.95
383.514	2.11
383.724	9.46
383.934	-2.8
384.144	3.81
384.353	9.79
384.563	10.65
384.773	6.55
384.983	19.31
385.193	13.39
385.403	8.49
385.613	8.37
385.823	3.32
386.033	5.55
386.242	9.48
386.452	10.58
386.662	12.26
386.872	22.36
387.082	13.51
387.291	8.72
387.501	9.8
387.711	11.44
387.921	4.73
388.13	10.05
388.34	15.25
388.55	11.53
388.759	1.21
388.969	3.64
389.179	4.64
389.388	2.13
389.598	3.8
389.807	8.18
390.017	5.54
390.227	3.57
390.436	4.67
390.646	1.46
390.855	1.26
391.065	2.39
391.274	2.39
391.484	0.03
391.693	1.08
391.903	1.23
392.112	-1.03
392.322	-2.46
392.531	-1.21
392.74	-0.37
392.95	-0.09
393.159	0.02
393.369	1.57
393.578	1.75
393.787	1.25
393.997	2.02
394.206	1.42
394.415	0.35
394.625	0.27
394.834	-1.06
395.043	-1.46
395.252	2.06
395.462	2.57
395.671	3.27
395.88	5.62
396.089	4.97
396.298	3.48
396.508	4.37
396.717	4.24
396.926	4.18
397.135	4.93
397.344	4.16
397.553	3.57
397.762	3.68
397.971	3.14
398.181	2.93
398.39	3.05
398.599	3.38
398.808	3.75
399.017	3.94
399.226	4.23
399.435	4.38
399.644	4.32
399.853	4.13
400.062	4.21
400.27	3.57
400.479	3.86
400.688	3.81
400.897	3.5
401.106	3.34
401.315	3.21
401.524	3.02
401.733	2.98
401.941	3.27
402.15	3.01
402.359	3.26
402.568	3.35
402.777	3.4
402.985	3.1
403.194	3.13
403.403	3.23
403.612	3.02
403.82	2.76
404.029	2.95
404.238	2.96
404.446	3.2
404.655	3.25
404.864	3.3
405.072	3.21
405.281	3.19
405.489	2.96
405.698	3.11
405.906	3.13
406.115	3.09
406.324	3.26
406.532	3.29
406.741	3.23
406.949	3.35
407.158	3.47
407.366	3.36
407.574	3.41
407.783	3.31
407.991	3.13
408.2	3.11
408.408	3.1
408.617	2.99
408.825	2.93
409.033	2.93
409.242	2.91
409.45	2.99
409.658	2.92
409.867	3.03
410.075	3.13
410.283	2.94
410.491	2.75
410.7	2.61
410.908	2.66
411.116	2.59
411.324	2.72
411.533	2.72
411.741	2.99
411.949	2.86
412.157	2.86
412.365	2.95
412.573	2.98
412.781	2.82
412.99	2.94
413.198	2.94
413.406	2.87
413.614	2.97
413.822	3.02
414.03	2.88
414.238	2.9
414.446	3.06
414.654	2.95
414.862	2.96
415.07	2.98
415.278	3.1
415.486	2.89
415.694	2.88
415.902	2.84
416.109	2.79
416.317	2.75
416.525	2.54
416.733	2.74
416.941	2.82
417.149	2.79
417.357	2.67
417.564	2.75
417.772	2.64
417.98	2.62
418.188	2.67
418.395	2.54
418.603	2.56
418.811	2.34
419.019	2.2
419.226	2.29
419.434	2.36
419.642	2.34
419.849	2.49
420.057	2.57
420.265	2.47
420.472	2.38
420.68	2.49
420.887	2.48
421.095	2.54
421.302	2.65
421.51	2.64
421.717	2.54
421.925	2.66
422.132	2.68
422.34	2.43
422.547	2.39
422.755	2.55
422.962	2.48
423.17	2.19
423.377	2.14
423.585	2.25
423.792	2.15
423.999	2.14
424.207	2.24
424.414	2.36
424.621	2.38
424.829	2.36
425.036	2.36
425.243	2.44
425.451	2.46
425.658	2.54
425.865	2.62
426.072	2.59
426.28	2.61
426.487	2.55
426.694	2.35
426.901	2.36
427.108	2.38
427.315	2.32
427.523	2.57
427.73	2.68
427.937	2.55
428.144	2.46
428.351	2.46
428.558	2.41
428.765	2.51
428.972	2.55
429.179	2.52
429.386	2.55
429.593	2.35
429.8	2.28
430.007	2.39
430.214	2.49
430.421	2.67
430.628	2.77
430.835	2.73
431.042	2.58
431.249	2.55
431.456	2.32
431.662	2.41
431.869	2.54
432.076	2.61
432.283	2.67
432.49	2.77
432.697	2.68
432.903	2.76
433.11	2.83
433.317	2.8
433.524	2.83
433.73	2.79
433.937	2.63
434.144	2.46
434.35	2.48
434.557	2.48
434.764	2.57
434.97	2.49
435.177	2.72
435.384	2.75
435.59	2.75
435.797	2.83
436.003	3.01
436.21	2.78
436.416	2.76
436.623	2.85
436.829	2.73
437.036	2.67
437.242	2.85
437.449	2.91
437.655	2.87
437.862	2.94
438.068	2.99
438.275	3.05
438.481	3.03
438.687	3.01
438.894	3.08
439.1	3.03
439.307	3.04
439.513	3.03
439.719	3.01
439.926	3.01
440.132	3.11
440.338	3.05
440.544	3.09
440.751	3.08
440.957	3.08
441.163	2.89
441.369	3.03
441.575	2.92
441.782	3.09
441.988	3.14
442.194	3.25
442.4	3.12
442.606	3.29
442.812	3.09
443.018	3.07
443.224	3.19
443.431	3.27
443.637	3.19
443.843	3.34
444.049	3.42
444.255	3.34
444.461	3.18
444.667	3.15
444.873	3.05
445.079	2.94
445.284	2.88
445.49	2.93
445.696	2.95
445.902	2.98
446.108	3.11
446.314	3.17
446.52	3.26
446.726	3.38
446.931	3.4
447.137	3.33
447.343	3.35
447.549	3.31
447.755	3.26
447.96	3.27
448.166	3.29
448.372	3.29
448.578	3.19
448.783	3.18
448.989	3.24
449.195	3.23
449.4	3.19
449.606	3.22
449.812	3.17
450.017	3.21
450.223	3.21
450.428	3.23
450.634	3.29
450.84	3.31
451.045	3.22
451.251	3.22
451.456	3.34
451.662	3.39
451.867	3.44
452.073	3.42
452.278	3.5
452.483	3.48
452.689	3.48
452.894	3.51
453.1	3.54
453.305	3.51
453.51	3.51
453.716	3.51
453.921	3.56
454.127	3.54
454.332	3.5
454.537	3.47
454.742	3.48
454.948	3.35
455.153	3.43
455.358	3.4
455.563	3.48
455.769	3.45
455.974	3.51
456.179	3.42
456.384	3.38
456.589	3.3
456.795	3.23
457	3.15
457.205	3.11
457.41	3.11
457.615	3.02
457.82	3.12
458.025	3.18
458.23	3.25
458.435	3.35
458.64	3.38
458.845	3.33
459.05	3.35
459.255	3.32
459.46	3.3
459.665	3.28
459.87	3.26
460.075	3.36
460.28	3.41
460.485	3.44
460.69	3.5
460.895	3.61
461.099	3.47
461.304	3.4
461.509	3.49
461.714	3.55
461.919	3.45
462.123	3.55
462.328	3.53
462.533	3.44
462.738	3.36
462.942	3.35
463.147	3.29
463.352	3.36
463.556	3.36
463.761	3.35
463.966	3.38
464.17	3.5
464.375	3.6
464.58	3.48
464.784	3.51
464.989	3.51
465.193	3.39
465.398	3.39
465.602	3.64
465.807	3.67
466.011	3.65
466.216	3.68
466.42	3.73
466.625	3.74
466.829	3.75
