Data from Ofra_1a_PS_OGT3_Reflection_3.txt Node
Date: Tue Jul 20 10:43:19 EDT 2021
User: Adam
Spectrometer: FLMT01687
Trigger mode: 0
Integration Time (sec): 1.004000E0
Scans to average: 2
Electric dark correction enabled: true
Nonlinearity correction enabled: false
Boxcar width: 2
XAxis mode: Wavelengths
Number of Pixels in Spectrum: 3648
>>>>>Begin Spectral Data<<<<<
179.494	-315.23
179.716	-430.53
179.937	845.82
180.158	-984.08
180.38	205.43
180.601	111.42
180.823	81.52
181.044	46.05
181.265	-9.31
181.486	301.23
181.708	239.44
181.929	-18354.55
182.15	63.05
182.372	45.81
182.593	427.02
182.814	-188.96
183.035	-35.6
183.257	13.24
183.478	-4.71
183.699	-6.1
183.92	-61.54
184.141	-37.36
184.363	-13.95
184.584	-17.81
184.805	6.27
185.026	40.38
185.247	30.5
185.468	22.77
185.689	39.12
185.91	9.92
186.132	23.73
186.353	8.89
186.574	14.34
186.795	20.91
187.016	44.13
187.237	28.03
187.458	39.84
187.679	36.78
187.9	9.51
188.121	5.19
188.342	23.71
188.563	0.98
188.784	30.6
189.005	31.72
189.226	31.83
189.447	32.76
189.667	27.61
189.888	14.95
190.109	13.83
190.33	12.06
190.551	-4.78
190.772	13.79
190.993	-23.45
191.214	-25.88
191.434	-51.38
191.655	-74.32
191.876	-18.26
192.097	24.81
192.318	36.13
192.538	12.93
192.759	12.85
192.98	17.62
193.201	7.12
193.421	2.75
193.642	20.83
193.863	27.37
194.083	10.88
194.304	12.77
194.525	7.91
194.745	-2.03
194.966	6.03
195.187	4.34
195.407	1.73
195.628	12.21
195.848	9.85
196.069	-3.85
196.29	19.27
196.51	14.86
196.731	9.51
196.951	6.95
197.172	21.24
197.392	-10.76
197.613	6.4
197.833	-1.2
198.054	-0.9
198.274	-13.45
198.495	2.01
198.715	-16.56
198.936	3.92
199.156	4.34
199.377	0.06
199.597	0.05
199.817	10.49
200.038	-27.06
200.258	-2.79
200.479	9.13
200.699	13.59
200.919	-3.97
201.14	8.22
201.36	-26.1
201.58	-34.46
201.801	-54.77
202.021	-45.74
202.241	-45.28
202.461	-3.4
202.682	16.64
202.902	28.98
203.122	42.57
203.342	50.79
203.563	43.77
203.783	28.75
204.003	16.37
204.223	28.67
204.443	25.89
204.663	20.76
204.884	21.67
205.104	27.85
205.324	15.56
205.544	-21.35
205.764	13.17
205.984	2.89
206.204	-8.87
206.424	-35.22
206.644	-36.16
206.864	-93.9
207.084	-58.86
207.304	-49.52
207.525	-28.96
207.745	9.44
207.964	24.74
208.184	54.72
208.404	28.19
208.624	30.88
208.844	11.88
209.064	30.01
209.284	14.06
209.504	4.99
209.724	-8.19
209.944	-19.63
210.164	-38.88
210.384	-60.29
210.604	-132.67
210.823	-131.64
211.043	-79.17
211.263	-129.97
211.483	-67.99
211.703	-14.26
211.922	-19.91
212.142	4.55
212.362	8.39
212.582	14.02
212.801	7.24
213.021	7.61
213.241	-19.77
213.461	-11.15
213.68	4.62
213.9	5.12
214.12	7.19
214.339	-3.44
214.559	10.15
214.779	-18
214.998	-2.69
215.218	4.74
215.438	12.82
215.657	-21.92
215.877	-15.58
216.096	-12.23
216.316	-28.82
216.535	-41.01
216.755	-6.96
216.974	-15.96
217.194	-6.12
217.413	15.24
217.633	6.14
217.852	-7.77
218.072	4.33
218.291	-4.62
218.511	-12.26
218.73	14.15
218.95	3.21
219.169	0.67
219.389	4.81
219.608	12.1
219.827	2.35
220.047	11.93
220.266	2.19
220.485	5.9
220.705	7.28
220.924	-0.7
221.143	7.48
221.363	25.65
221.582	23.8
221.801	35.59
222.021	49.28
222.24	41.16
222.459	31.71
222.678	25.95
222.897	9.01
223.117	10.22
223.336	22.85
223.555	29.63
223.774	23.01
223.993	32.54
224.213	16.83
224.432	11.14
224.651	12.21
224.87	22.55
225.089	34.11
225.308	39.03
225.527	41.09
225.746	43.06
225.965	43.6
226.184	16.29
226.404	6.19
226.623	10.23
226.842	8.43
227.061	12.89
227.28	30.1
227.499	30.47
227.718	18.15
227.936	17.47
228.155	16.58
228.374	9.2
228.593	19.48
228.812	18.26
229.031	27.69
229.25	-2.23
229.469	-5.65
229.688	-9.89
229.907	6.6
230.125	-20.49
230.344	4.39
230.563	5.73
230.782	10.79
231.001	8.45
231.22	17.63
231.438	19.24
231.657	37.81
231.876	42.8
232.095	49.79
232.313	44.79
232.532	28.8
232.751	-0.34
232.969	-20.81
233.188	-45.87
233.407	-26.92
233.625	-20.62
233.844	-15.92
234.063	-13.23
234.281	6
234.5	7.73
234.719	1.12
234.937	-21.06
235.156	-22.94
235.374	-26.99
235.593	-4.2
235.811	9.52
236.03	21.81
236.249	17.19
236.467	13.9
236.686	-9.38
236.904	-16.92
237.123	-19.83
237.341	-19.12
237.559	-25.11
237.778	3.29
237.996	14.94
238.215	-4.61
238.433	-72.97
238.652	-33.35
238.87	-50.2
239.088	-46.46
239.307	-11.06
239.525	19.97
239.743	12.87
239.962	-5.77
240.18	-2.28
240.398	-11.69
240.617	-30.15
240.835	-37.56
241.053	-17.64
241.271	-4.06
241.49	6.47
241.708	-1.13
241.926	-6.48
242.144	-2.83
242.363	-48.96
242.581	-73.69
242.799	-52.23
243.017	-10.32
243.235	5.65
243.453	4.79
243.672	6.07
243.89	11.09
244.108	13.88
244.326	16.28
244.544	44.26
244.762	33.57
244.98	35.23
245.198	30.36
245.416	30.91
245.634	7.74
245.852	12.7
246.07	21.12
246.288	20.76
246.506	10.73
246.724	10.6
246.942	0.22
247.16	-5.08
247.378	-20.29
247.596	-18.11
247.814	-10.58
248.032	-2.96
248.25	23.33
248.468	37.78
248.685	40.28
248.903	29.41
249.121	33.19
249.339	33.97
249.557	35.04
249.775	20.75
249.992	25.63
250.21	17.39
250.428	10.3
250.646	-5.5
250.863	1.26
251.081	3.66
251.299	13.01
251.517	9.22
251.734	16.97
251.952	23.28
252.17	27.76
252.387	13.37
252.605	10.73
252.823	12.04
253.04	17.25
253.258	-6
253.475	14.13
253.693	14.16
253.911	8.38
254.128	3.44
254.346	22.11
254.563	23.94
254.781	16.86
254.998	16.98
255.216	-0.2
255.433	-16.64
255.651	-18.48
255.868	-11.2
256.086	8.59
256.303	23.29
256.521	13.49
256.738	2.95
256.956	1.85
257.173	-25.13
257.39	-34.25
257.608	-14.33
257.825	-20.72
258.043	-11.6
258.26	2.78
258.477	0.87
258.695	-7.49
258.912	-5.15
259.129	-19.78
259.346	-31.13
259.564	-23.29
259.781	-26.36
259.998	-19.28
260.216	-6.51
260.433	-13.93
260.65	-18.24
260.867	-11.74
261.084	-2.5
261.302	-8.29
261.519	23.82
261.736	28.79
261.953	17.18
262.17	16.9
262.387	25.58
262.604	27.52
262.822	31.84
263.039	40.29
263.256	44.12
263.473	44.78
263.69	29.62
263.907	34.64
264.124	26.26
264.341	35.8
264.558	22.68
264.775	48.42
264.992	37.47
265.209	24.52
265.426	-6.82
265.643	-9.61
265.86	-73.13
266.077	-56.42
266.294	-35.81
266.51	-7.2
266.727	6.66
266.944	31.51
267.161	33.45
267.378	50.5
267.595	36.66
267.812	22.15
268.028	-8.28
268.245	-19.25
268.462	-32.75
268.679	-13.61
268.896	-1.01
269.112	-12.37
269.329	-31.93
269.546	-11.29
269.763	-3.6
269.979	-14.41
270.196	8.87
270.413	16.86
270.629	-14.64
270.846	-16.99
271.063	-11.71
271.279	-8.53
271.496	-8.33
271.712	12.73
271.929	17.63
272.146	31.46
272.362	35.98
272.579	17.51
272.795	21.71
273.012	23.35
273.228	29.46
273.445	21.61
273.661	42.04
273.878	35.87
274.094	21.11
274.311	12.45
274.527	-6.92
274.744	-0.63
274.96	4.36
275.177	0.04
275.393	2.98
275.609	20.32
275.826	2.94
276.042	-5.77
276.259	1.6
276.475	-12
276.691	-33.51
276.908	-22.5
277.124	-13.26
277.34	-21.37
277.557	-24.34
277.773	-17.83
277.989	-17.3
278.205	-23.24
278.422	-17.26
278.638	-0.3
278.854	-0.59
279.07	14.52
279.286	17.28
279.503	29.27
279.719	30.36
279.935	31.87
280.151	0.04
280.367	15.73
280.583	5.59
280.799	-2.54
281.016	-34.08
281.232	-9.17
281.448	-27.35
281.664	-19.86
281.88	-19.39
282.096	5.19
282.312	11.82
282.528	10.56
282.744	3.74
282.96	-6.32
283.176	-10.47
283.392	-33.69
283.608	-32.52
283.824	-62.19
284.04	-102.54
284.256	-58.86
284.471	-38.8
284.687	-36.81
284.903	-16.63
285.119	13.72
285.335	5.43
285.551	9.07
285.767	6.56
285.982	-15.79
286.198	-52.03
286.414	-28.76
286.63	-23.63
286.846	-33.8
287.061	-8.28
287.277	-11.24
287.493	-45.11
287.709	-39.12
287.924	-10.73
288.14	2.87
288.356	10.48
288.571	14.78
288.787	-4.92
289.003	0.22
289.218	-22.87
289.434	-32.5
289.65	-2.84
289.865	5.84
290.081	5.52
290.296	16.31
290.512	24.58
290.727	14.26
290.943	11.9
291.159	5.95
291.374	-6
291.59	-7.32
291.805	-17.56
292.021	-6.82
292.236	-3.1
292.451	11.85
292.667	15.71
292.882	25.39
293.098	22.31
293.313	21.62
293.529	18.72
293.744	23.98
293.959	26.36
294.175	22.49
294.39	-4.39
294.605	5.44
294.821	-6.99
295.036	-16.02
295.251	-3.84
295.467	0.44
295.682	-3.14
295.897	-19.11
296.112	-15.82
296.328	-12.46
296.543	-20.94
296.758	-25.92
296.973	2.03
297.188	-13.63
297.404	-42.94
297.619	-12.78
297.834	-22.02
298.049	-52.49
298.264	-11.31
298.479	-23.54
298.694	9.75
298.909	11.48
299.125	20.24
299.34	16.78
299.555	25.21
299.77	32.11
299.985	23.56
300.2	27.2
300.415	28.53
300.63	22.05
300.845	3.8
301.06	9.41
301.275	2.37
301.49	-4.58
301.704	-9.23
301.919	-23.73
302.134	-29.88
302.349	-15.01
302.564	-9.44
302.779	0.82
302.994	16.62
303.209	29.25
303.423	24.49
303.638	21.23
303.853	3.51
304.068	-30.16
304.283	-46.41
304.497	-69.25
304.712	-41.06
304.927	-16.49
305.142	1.64
305.356	5.45
305.571	13.52
305.786	21.25
306	32.16
306.215	34.42
306.43	25.36
306.644	2.99
306.859	-8.29
307.074	-1
307.288	-2.34
307.503	24.22
307.717	32.5
307.932	31.87
308.147	23.96
308.361	24.16
308.576	18.31
308.79	22.57
309.005	6.27
309.219	11.15
309.434	16.96
309.648	3.55
309.863	-4.17
310.077	5.7
310.292	22.62
310.506	7.6
310.72	11.09
310.935	30.35
311.149	27.08
311.364	13.73
311.578	30.64
311.792	38.28
312.007	24.45
312.221	23.39
312.435	25.48
312.649	24.65
312.864	21.43
313.078	12.84
313.292	-4.99
313.507	-17.37
313.721	-27.76
313.935	-43.36
314.149	-32.09
314.363	3.43
314.578	7.1
314.792	-21.4
315.006	-19.8
315.22	-4.22
315.434	-9.55
315.648	-15.6
315.862	-0.47
316.077	4.15
316.291	1.28
316.505	-18.98
316.719	0.47
316.933	11.96
317.147	-1.65
317.361	-1.21
317.575	0.83
317.789	-5.52
318.003	-11.82
318.217	5.62
318.431	1.96
318.645	-3.25
318.859	6.81
319.073	9.56
319.287	-0.8
319.5	-8.72
319.714	-14.81
319.928	-25.21
320.142	-31.88
320.356	-25.07
320.57	-33.73
320.784	-16.62
320.997	-35.38
321.211	-11.12
321.425	-44.45
321.639	-11.79
321.853	-2.21
322.066	3.32
322.28	-15.4
322.494	1.44
322.707	-5.09
322.921	-14.44
323.135	-6.96
323.349	3.16
323.562	11.24
323.776	15.94
323.989	26.74
324.203	11.03
324.417	14.34
324.63	12.13
324.844	-8.11
325.057	-38.99
325.271	-9.97
325.485	-25.54
325.698	-25.68
325.912	12.07
326.125	24.16
326.339	30.57
326.552	37.91
326.766	23.14
326.979	8.15
327.193	12.07
327.406	-9.03
327.619	-12.31
327.833	3.02
328.046	-8.83
328.26	-25
328.473	-14.39
328.686	-7.24
328.9	7.06
329.113	12.71
329.326	32.36
329.54	41.83
329.753	37.75
329.966	31.39
330.179	35.22
330.393	27.59
330.606	12.42
330.819	5.11
331.032	7.07
331.246	6.71
331.459	24.27
331.672	24.45
331.885	17.74
332.098	20.23
332.311	14.97
332.525	9
332.738	19.79
332.951	19.63
333.164	30.28
333.377	34.46
333.59	16.5
333.803	7.16
334.016	17.12
334.229	-11.64
334.442	-10.36
334.655	-10.05
334.868	-15.41
335.081	-27.72
335.294	-27.7
335.507	-26.78
335.72	-8.76
335.933	-4.96
336.146	3.43
336.359	15.61
336.572	4.13
336.785	-4.18
336.997	-13.89
337.21	-20.25
337.423	-62.36
337.636	-43.94
337.849	-53.2
338.062	-32.4
338.274	-25.12
338.487	-8.42
338.7	-12.92
338.913	5.67
339.125	-4.54
339.338	-10.48
339.551	-8.32
339.763	2.88
339.976	-0.63
340.189	-3.68
340.402	5.78
340.614	2.49
340.827	0.55
341.039	7.1
341.252	15.5
341.465	6.22
341.677	6.15
341.89	3
342.102	8.16
342.315	4.22
342.527	13.49
342.74	7.61
342.952	7.41
343.165	1.51
343.377	12.4
343.59	15.15
343.802	19.21
344.015	25.3
344.227	22.44
344.44	3.38
344.652	10.46
344.864	16.99
345.077	13.45
345.289	19.98
345.502	46.64
345.714	32.97
345.926	14
346.139	4.81
346.351	0.05
346.563	7.88
346.775	9.05
346.988	39.26
347.2	39.63
347.412	43.62
347.624	23.66
347.837	29.32
348.049	16.99
348.261	-2.14
348.473	-22.15
348.685	-34.38
348.897	-63.89
349.11	-58.55
349.322	-31.18
349.534	-29.13
349.746	-10.19
349.958	-16.63
350.17	-23.87
350.382	-29.4
350.594	-16.25
350.806	-7.77
351.018	14.03
351.23	21.93
351.442	33.1
351.654	29.95
351.866	26.33
352.078	30.07
352.29	35.53
352.502	21.81
352.714	31.35
352.926	24.47
353.138	25.22
353.35	6.31
353.561	5.07
353.773	-6.55
353.985	-1.88
354.197	-7.06
354.409	-0.85
354.621	-20.66
354.832	-12.1
355.044	-37.37
355.256	-40.87
355.468	-63.31
355.679	-3.92
355.891	-5.02
356.103	2.52
356.314	-1.79
356.526	4.85
356.738	-16.8
356.949	-17.74
357.161	1.15
357.373	1.5
357.584	4.77
357.796	17.83
358.008	27.01
358.219	22.61
358.431	27.1
358.642	37.26
358.854	26.05
359.065	5.18
359.277	3.48
359.488	-2.76
359.7	-17.28
359.911	-24.2
360.123	7.46
360.334	-3.06
360.546	-0.1
360.757	2.94
360.969	9.54
361.18	-21.76
361.391	-3.18
361.603	-1.18
361.814	15.7
362.025	24.27
362.237	37.34
362.448	34
362.659	22.39
362.871	0.32
363.082	-11.04
363.293	-32.62
363.504	-37.26
363.716	-20.24
363.927	11.91
364.138	-9.9
364.349	-7.4
364.56	-20.68
364.772	2.01
364.983	-4.19
365.194	3.39
365.405	-3.28
365.616	1.61
365.827	-19.99
366.038	-20.33
366.25	-12.06
366.461	-4.12
366.672	-5.74
366.883	-2.37
367.094	-17.47
367.305	-23.13
367.516	-12.52
367.727	-16.15
367.938	-20.02
368.149	-23.34
368.36	-27.72
368.571	-57.54
368.781	-53.6
368.992	-52.94
369.203	-44.79
369.414	-47.29
369.625	-30.99
369.836	-9.67
370.047	-14.33
370.258	-0.11
370.468	3.49
370.679	7.55
370.89	-1.78
371.101	13.32
371.312	1.35
371.522	7.47
371.733	-3.17
371.944	-25.87
372.155	-25.91
372.365	-16.15
372.576	-18.8
372.787	-2.24
372.997	0.77
373.208	-5.55
373.419	-11.11
373.629	-19.36
373.84	-25.55
374.05	-9.66
374.261	-13.02
374.472	-0.42
374.682	13.07
374.893	12.34
375.103	15.67
375.314	18.26
375.524	2.9
375.735	7.98
375.945	5.35
376.156	1.41
376.366	-2.65
376.577	2.02
376.787	-1.41
376.997	8.06
377.208	6.63
377.418	7.75
377.629	11.39
377.839	19.09
378.049	10.86
378.26	4.37
378.47	-0.09
378.68	0.14
378.89	-11.24
379.101	0.57
379.311	6
379.521	8.39
379.732	12.05
379.942	18.17
380.152	8.32
380.362	19.11
380.572	27.36
380.783	30.96
380.993	32.13
381.203	27.07
381.413	17.28
381.623	13.7
381.833	7.44
382.043	-7.45
382.253	-2.61
382.463	9.14
382.674	6.81
382.884	13.93
383.094	18.95
383.304	15.31
383.514	12.01
383.724	8.28
383.934	-6.16
384.144	-2.14
384.353	-2.18
384.563	-1.08
384.773	5.15
384.983	7.34
385.193	1.37
385.403	4.59
385.613	7.04
385.823	0.9
386.033	0.09
386.242	-3.12
386.452	-4.69
386.662	-7.82
386.872	-0.74
387.082	3.06
387.291	5.03
387.501	9.63
387.711	10.25
387.921	6.04
388.13	9.25
388.34	12.83
388.55	8.02
388.759	-2.98
388.969	-2.25
389.179	-5.74
389.388	-6.16
389.598	-8.27
389.807	-5.93
390.017	-7.77
390.227	-7.81
390.436	-5.09
390.646	-3.62
390.855	0.01
391.065	1.1
391.274	0.63
391.484	-2.03
391.693	-1.87
391.903	-1.04
392.112	-0.44
392.322	-0.95
392.531	-0.81
392.74	0.15
392.95	-0.66
393.159	-1.3
393.369	-0.08
393.578	0.61
393.787	-0.07
393.997	1.61
394.206	2.26
394.415	2.55
394.625	1.76
394.834	0.61
395.043	-0.64
395.252	1.2
395.462	1.63
395.671	1.2
395.88	2.6
396.089	2.68
396.298	0.71
396.508	0.63
396.717	1.17
396.926	0.66
397.135	0.41
397.344	0.41
397.553	-0.65
397.762	0.29
397.971	0.02
398.181	0.16
398.39	0.1
398.599	1.21
398.808	0.55
399.017	1.92
399.226	2.16
399.435	2.04
399.644	1.86
399.853	1.97
400.062	1.46
400.27	0.97
400.479	1.22
400.688	1.19
400.897	1.13
401.106	1.18
401.315	1.64
401.524	1.7
401.733	1.51
401.941	1.68
402.15	1.6
402.359	1.71
402.568	1.72
402.777	2.08
402.985	2.02
403.194	1.83
403.403	1.62
403.612	1.62
403.82	1.22
404.029	1.38
404.238	1.51
404.446	1.68
404.655	1.7
404.864	1.92
405.072	1.72
405.281	1.78
405.489	1.58
405.698	1.68
405.906	1.79
406.115	1.75
406.324	1.77
406.532	1.85
406.741	1.93
406.949	1.9
407.158	1.94
407.366	1.85
407.574	1.86
407.783	1.76
407.991	1.77
408.2	1.8
408.408	1.9
408.617	1.88
408.825	1.77
409.033	1.68
409.242	1.69
409.45	1.57
409.658	1.56
409.867	1.55
410.075	1.55
410.283	1.51
410.491	1.48
410.7	1.43
410.908	1.57
411.116	1.62
411.324	1.63
411.533	1.68
411.741	1.8
411.949	1.71
412.157	1.62
412.365	1.56
412.573	1.54
412.781	1.4
412.99	1.47
413.198	1.57
413.406	1.69
413.614	1.81
413.822	2.05
414.03	1.96
414.238	2.02
414.446	1.97
414.654	1.85
414.862	1.57
415.07	1.54
415.278	1.46
415.486	1.34
415.694	1.39
415.902	1.57
416.109	1.58
416.317	1.45
416.525	1.41
416.733	1.29
416.941	1.35
417.149	1.24
417.357	1.36
417.564	1.5
417.772	1.66
417.98	1.56
418.188	1.53
418.395	1.25
418.603	1.09
418.811	1
419.019	0.94
419.226	1.13
419.434	1.46
419.642	1.48
419.849	1.43
420.057	1.5
420.265	1.43
420.472	1.32
420.68	1.49
420.887	1.43
421.095	1.53
421.302	1.57
421.51	1.52
421.717	1.49
421.925	1.63
422.132	1.58
422.34	1.48
422.547	1.37
422.755	1.38
422.962	1.35
423.17	1.16
423.377	1.17
423.585	1.34
423.792	1.26
423.999	1.23
424.207	1.25
424.414	1.29
424.621	1.3
424.829	1.27
425.036	1.3
425.243	1.45
425.451	1.55
425.658	1.49
425.865	1.52
426.072	1.58
426.28	1.53
426.487	1.58
426.694	1.48
426.901	1.51
427.108	1.36
427.315	1.37
427.523	1.1
427.73	1.22
427.937	1.11
428.144	1.21
428.351	1.17
428.558	1.35
428.765	1.29
428.972	1.37
429.179	1.3
429.386	1.39
429.593	1.35
429.8	1.38
430.007	1.44
430.214	1.51
430.421	1.47
430.628	1.47
430.835	1.39
431.042	1.3
431.249	1.34
431.456	1.33
431.662	1.33
431.869	1.47
432.076	1.54
432.283	1.52
432.49	1.52
432.697	1.59
432.903	1.55
433.11	1.6
433.317	1.63
433.524	1.64
433.73	1.6
433.937	1.7
434.144	1.59
434.35	1.44
434.557	1.37
434.764	1.38
434.97	1.15
435.177	1.26
435.384	1.46
435.59	1.53
435.797	1.54
436.003	1.69
436.21	1.64
436.416	1.63
436.623	1.62
436.829	1.64
437.036	1.65
437.242	1.75
437.449	1.59
437.655	1.66
437.862	1.71
438.068	1.73
438.275	1.74
438.481	1.9
438.687	1.81
438.894	1.92
439.1	1.95
439.307	1.96
439.513	1.85
439.719	1.84
439.926	1.66
440.132	1.77
440.338	1.73
440.544	1.8
440.751	1.79
440.957	1.91
441.163	1.83
441.369	1.82
441.575	1.8
441.782	1.98
441.988	1.98
442.194	1.94
442.4	1.9
442.606	2.06
442.812	2.02
443.018	2.05
443.224	2.15
443.431	2.24
443.637	2.12
443.843	2.12
444.049	2.14
444.255	2.12
444.461	2.01
444.667	2.02
444.873	1.96
445.079	1.92
445.284	1.89
445.49	1.98
445.696	1.93
445.902	1.95
446.108	1.98
446.314	1.96
446.52	2
446.726	2.1
446.931	2.06
447.137	2.02
447.343	2.14
447.549	2.08
447.755	2.01
447.96	2.09
448.166	2.13
448.372	2.08
448.578	1.99
448.783	2.07
448.989	2.12
449.195	2.06
449.4	2.08
449.606	2.24
449.812	2.22
450.017	2.2
450.223	2.24
450.428	2.24
450.634	2.16
450.84	2.17
451.045	2.11
451.251	2.15
451.456	2.18
451.662	2.26
451.867	2.33
452.073	2.39
452.278	2.31
452.483	2.33
452.689	2.34
452.894	2.38
453.1	2.38
453.305	2.45
453.51	2.46
453.716	2.46
453.921	2.41
454.127	2.37
454.332	2.41
454.537	2.38
454.742	2.31
454.948	2.32
455.153	2.35
455.358	2.32
455.563	2.36
455.769	2.42
455.974	2.35
456.179	2.31
456.384	2.34
456.589	2.29
456.795	2.24
457	2.28
457.205	2.29
457.41	2.26
457.615	2.21
457.82	2.35
458.025	2.38
458.23	2.39
458.435	2.49
458.64	2.51
458.845	2.45
459.05	2.43
459.255	2.45
459.46	2.34
459.665	2.4
459.87	2.36
460.075	2.44
460.28	2.46
460.485	2.56
460.69	2.47
460.895	2.46
461.099	2.31
461.304	2.2
461.509	2.17
461.714	2.39
461.919	2.41
462.123	2.5
462.328	2.46
462.533	2.37
462.738	2.19
462.942	2.13
463.147	2.16
463.352	2.36
463.556	2.45
463.761	2.47
463.966	2.41
464.17	2.43
464.375	2.46
464.58	2.39
464.784	2.48
464.989	2.67
465.193	2.61
465.398	2.58
465.602	2.74
465.807	2.68
466.011	2.64
466.216	2.62
466.42	2.57
466.625	2.49
466.829	2.42
467.034	2.49
