Data from Ofra_2a_PS_4HS15_Reflection_1.txt Node
Date: Tue Jul 20 09:51:10 EDT 2021
User: Adam
Spectrometer: FLMT01687
Trigger mode: 0
Integration Time (sec): 9.450000E-1
Scans to average: 3
Electric dark correction enabled: true
Nonlinearity correction enabled: false
Boxcar width: 3
XAxis mode: Wavelengths
Number of Pixels in Spectrum: 3648
>>>>>Begin Spectral Data<<<<<
179.494	401.18
179.716	295.51
179.937	322.53
180.158	1660.55
180.38	-834.59
180.601	-242.29
180.823	-73.36
181.044	-166.43
181.265	-208.49
181.486	27.16
181.708	479.35
181.929	75
182.15	632.39
182.372	12.18
182.593	-105.57
182.814	761.23
183.035	410.02
183.257	204.43
183.478	113.77
183.699	123.76
183.92	86.6
184.141	84.39
184.363	81.42
184.584	54.83
184.805	57.72
185.026	61.81
185.247	17.58
185.468	24.97
185.689	26.52
185.91	-1.88
186.132	22.05
186.353	-1.6
186.574	7.3
186.795	5.21
187.016	5.02
187.237	6.43
187.458	-7.2
187.679	-32.29
187.9	4.97
188.121	25.55
188.342	53.36
188.563	48.03
188.784	48.91
189.005	60.21
189.226	68.75
189.447	63.16
189.667	47.78
189.888	36.32
190.109	48.72
190.33	36.77
190.551	30.04
190.772	15.21
190.993	21.09
191.214	28.72
191.434	24.95
191.655	21.94
191.876	30.4
192.097	26.85
192.318	29.25
192.538	19.64
192.759	29.67
192.98	27.03
193.201	31.26
193.421	26.86
193.642	24.69
193.863	28.63
194.083	21.47
194.304	-7.46
194.525	12.55
194.745	-15
194.966	-12.19
195.187	4.46
195.407	6.34
195.628	16.52
195.848	18.47
196.069	11.49
196.29	19.96
196.51	29.47
196.731	38.6
196.951	46.19
197.172	29.32
197.392	31.02
197.613	33.39
197.833	32.62
198.054	18.8
198.274	-11.51
198.495	-13.71
198.715	-1.25
198.936	-4.8
199.156	-15.12
199.377	-4.75
199.597	5.03
199.817	21.74
200.038	15.89
200.258	21.7
200.479	29.11
200.699	43.49
200.919	23.79
201.14	19.43
201.36	29.38
201.58	38.16
201.801	32.67
202.021	29.38
202.241	24.16
202.461	40.29
202.682	52.62
202.902	48.03
203.122	47.82
203.342	42.78
203.563	49.75
203.783	52.23
204.003	47.24
204.223	44.73
204.443	50.86
204.663	45.59
204.884	46.55
205.104	38.96
205.324	44.03
205.544	49.46
205.764	44.4
205.984	16.61
206.204	6.24
206.424	18.41
206.644	7.84
206.864	3.4
207.084	20.9
207.304	13.17
207.525	13.34
207.745	25.54
207.964	36.57
208.184	40.86
208.404	38.19
208.624	11.63
208.844	17.62
209.064	45.55
209.284	50.42
209.504	41.57
209.724	18.82
209.944	21.63
210.164	24.6
210.384	39.06
210.604	6.52
210.823	-13.21
211.043	-15.45
211.263	7.42
211.483	10.81
211.703	14.53
211.922	10.43
212.142	21.62
212.362	29.9
212.582	33.83
212.801	33.67
213.021	35.02
213.241	27.63
213.461	26.66
213.68	37.53
213.9	42.05
214.12	36.09
214.339	35.26
214.559	50.24
214.779	58.72
214.998	57.64
215.218	58.23
215.438	63.12
215.657	63.77
215.877	68.26
216.096	54.05
216.316	45.58
216.535	42.9
216.755	21.03
216.974	28.35
217.194	23.3
217.413	37.83
217.633	23.58
217.852	20.75
218.072	19.76
218.291	42.46
218.511	29.4
218.73	25.91
218.95	16.22
219.169	18.41
219.389	18.19
219.608	24.49
219.827	14.95
220.047	22.31
220.266	38.09
220.485	37.99
220.705	34.91
220.924	46.7
221.143	46.75
221.363	51.21
221.582	48.39
221.801	46.53
222.021	40.7
222.24	48.75
222.459	37.12
222.678	31.77
222.897	13.88
223.117	3.51
223.336	-1.63
223.555	-5.75
223.774	-4.39
223.993	10.95
224.213	12.38
224.432	17.71
224.651	14.03
224.87	8.31
225.089	14.96
225.308	20.34
225.527	14.83
225.746	17.67
225.965	24.32
226.184	32.43
226.404	39.14
226.623	44.62
226.842	33.64
227.061	39.75
227.28	46.68
227.499	40.92
227.718	32.46
227.936	27.53
228.155	21.88
228.374	16.96
228.593	11.73
228.812	11.36
229.031	-2.84
229.25	7.58
229.469	20.8
229.688	28.4
229.907	28.74
230.125	27.42
230.344	33.68
230.563	41.36
230.782	36.12
231.001	35.31
231.22	29.92
231.438	38.97
231.657	40.58
231.876	31.97
232.095	32.34
232.313	32.79
232.532	37.69
232.751	45.25
232.969	45.82
233.188	34.58
233.407	33.22
233.625	33.6
233.844	40.95
234.063	41.99
234.281	30.42
234.5	30.61
234.719	42.76
234.937	48.25
235.156	48.81
235.374	52.79
235.593	41.27
235.811	54.69
236.03	35.98
236.249	36.9
236.467	40.55
236.686	35.14
236.904	22.89
237.123	27.12
237.341	20.02
237.559	29.85
237.778	35.39
237.996	34.1
238.215	30.25
238.433	34.08
238.652	29.11
238.87	31.65
239.088	20.45
239.307	19.29
239.525	10.78
239.743	13.27
239.962	13.34
240.18	25.37
240.398	35.39
240.617	58.03
240.835	53.75
241.053	68.52
241.271	69.28
241.49	59.21
241.708	57.03
241.926	46.81
242.144	37.77
242.363	35.38
242.581	21.67
242.799	7.46
243.017	16.52
243.235	3.45
243.453	9.27
243.672	0.58
243.89	-0.69
244.108	7.7
244.326	14.32
244.544	18.73
244.762	27.91
244.98	23.65
245.198	26.34
245.416	39.83
245.634	46.11
245.852	47.27
246.07	44.79
246.288	48.48
246.506	57.77
246.724	70.78
246.942	61.03
247.16	46.82
247.378	34.52
247.596	34.79
247.814	24.01
248.032	26.32
248.25	15.62
248.468	22.04
248.685	31.02
248.903	24.35
249.121	33.25
249.339	35.29
249.557	30.34
249.775	16.61
249.992	3.55
250.21	-2.81
250.428	1.17
250.646	-2.79
250.863	-1.59
251.081	-3.9
251.299	23.98
251.517	36.68
251.734	44.98
251.952	55.71
252.17	40.19
252.387	32.92
252.605	27.59
252.823	-3.52
253.04	4.17
253.258	5.51
253.475	7.09
253.693	21.46
253.911	30.81
254.128	22.15
254.346	28.65
254.563	20.62
254.781	18.24
254.998	14.28
255.216	15.64
255.433	13.68
255.651	23.88
255.868	27.21
256.086	35.43
256.303	30.27
256.521	29.4
256.738	14.85
256.956	8.98
257.173	5.15
257.39	1.64
257.608	0.21
257.825	-1.06
258.043	7.94
258.26	9.61
258.477	19.16
258.695	16.61
258.912	28.16
259.129	22.17
259.346	29.09
259.564	30.41
259.781	34.11
259.998	32.31
260.216	47.91
260.433	38.48
260.65	44.17
260.867	33.15
261.084	30.32
261.302	30.37
261.519	26.06
261.736	16.79
261.953	25.73
262.17	30.84
262.387	39.34
262.604	32.52
262.822	38.58
263.039	34.06
263.256	32.37
263.473	18.28
263.69	8.03
263.907	-3.48
264.124	-1
264.341	-5.19
264.558	2.72
264.775	2.92
264.992	9.64
265.209	27.61
265.426	34.25
265.643	40.79
265.86	34.83
266.077	40.59
266.294	40.73
266.51	41.83
266.727	30.49
266.944	31.91
267.161	25.69
267.378	32.11
267.595	22.21
267.812	15.79
268.028	17.57
268.245	18.68
268.462	25.28
268.679	25.88
268.896	16.83
269.112	30.64
269.329	36.95
269.546	27.99
269.763	31.51
269.979	26.27
270.196	27.17
270.413	41.71
270.629	33.3
270.846	38.53
271.063	47
271.279	44.89
271.496	40.51
271.712	34.02
271.929	29.49
272.146	25.48
272.362	1.3
272.579	-0.67
272.795	-7.67
273.012	-2.17
273.228	6.54
273.445	6.2
273.661	5
273.878	20.84
274.094	26.9
274.311	33.88
274.527	27.58
274.744	29.89
274.96	35.57
275.177	42.85
275.393	35.57
275.609	24.31
275.826	22.36
276.042	34.08
276.259	37.85
276.475	31.52
276.691	31.79
276.908	32.29
277.124	39.73
277.34	32.93
277.557	36.89
277.773	29.66
277.989	30.44
278.205	28
278.422	34.32
278.638	41.29
278.854	47.49
279.07	39.84
279.286	40.7
279.503	39.44
279.719	35.62
279.935	29.38
280.151	23.45
280.367	21.71
280.583	20.06
280.799	24.59
281.016	25.44
281.232	27.07
281.448	26.16
281.664	19.98
281.88	22.79
282.096	31.55
282.312	31.03
282.528	27.8
282.744	23.7
282.96	32.11
283.176	37.61
283.392	48.46
283.608	49.42
283.824	44.61
284.04	38.68
284.256	37.86
284.471	36.8
284.687	30.58
284.903	22.78
285.119	4.75
285.335	7.12
285.551	15.94
285.767	18.5
285.982	17.19
286.198	22.89
286.414	30.37
286.63	42.63
286.846	39.81
287.061	41.8
287.277	45.65
287.493	41.88
287.709	32.65
287.924	35.12
288.14	36.72
288.356	40.68
288.571	31.94
288.787	34.6
289.003	40.72
289.218	34.4
289.434	25.4
289.65	30.42
289.865	35.16
290.081	38.01
290.296	35.18
290.512	37.94
290.727	51.99
290.943	44.03
291.159	33.24
291.374	30.82
291.59	21.16
291.805	15.47
292.021	3.05
292.236	6.76
292.451	16.1
292.667	15.41
292.882	7.68
293.098	5.46
293.313	-2.4
293.529	3.64
293.744	-0.28
293.959	3.21
294.175	10.85
294.39	23.84
294.605	43.04
294.821	45.39
295.036	43.43
295.251	46.07
295.467	36.01
295.682	34.93
295.897	24.43
296.112	9.82
296.328	15.46
296.543	9.64
296.758	6.93
296.973	10.17
297.188	-0.57
297.404	3.82
297.619	15.69
297.834	30.59
298.049	22.17
298.264	25.2
298.479	19.83
298.694	38.56
298.909	28.82
299.125	27.57
299.34	17.43
299.555	24.76
299.77	20.4
299.985	21.37
300.2	8.42
300.415	16.34
300.63	9.98
300.845	9.09
301.06	12.22
301.275	16.01
301.49	25.99
301.704	24.22
301.919	24.15
302.134	20.33
302.349	17.11
302.564	4.57
302.779	6.59
302.994	-0.21
303.209	6.03
303.423	15.62
303.638	25.94
303.853	32.49
304.068	37.67
304.283	31.3
304.497	17.61
304.712	15.29
304.927	8.04
305.142	7.29
305.356	4.95
305.571	10.32
305.786	13.01
306	24.09
306.215	28.09
306.43	33.74
306.644	36.63
306.859	41.04
307.074	34.45
307.288	34.44
307.503	35.08
307.717	35.31
307.932	41.33
308.147	36.36
308.361	26.37
308.576	25.32
308.79	23.18
309.005	17.34
309.219	20.9
309.434	12.27
309.648	2.82
309.863	13.06
310.077	21.28
310.292	20.9
310.506	32.46
310.72	26.91
310.935	33.08
311.149	37.35
311.364	33.55
311.578	21.86
311.792	19.06
312.007	13.2
312.221	25.11
312.435	16.32
312.649	22.06
312.864	21.1
313.078	36.2
313.292	47.86
313.507	46.61
313.721	28.16
313.935	46.67
314.149	41.07
314.363	42.15
314.578	61.66
314.792	56.4
315.006	66.14
315.22	66.33
315.434	54.23
315.648	54.57
315.862	50.79
316.077	43.73
316.291	51.48
316.505	39.56
316.719	29.75
316.933	36.73
317.147	31
317.361	37.93
317.575	34.73
317.789	26.65
318.003	32.34
318.217	40.41
318.431	37.49
318.645	43.92
318.859	37.24
319.073	32.97
319.287	37.4
319.5	35
319.714	38.72
319.928	41.15
320.142	38.59
320.356	52.05
320.57	51.35
320.784	42.6
320.997	42.24
321.211	24.66
321.425	23.51
321.639	20.47
321.853	8.42
322.066	4.76
322.28	12.25
322.494	13.17
322.707	28.84
322.921	30.47
323.135	43.44
323.349	40.48
323.562	43.1
323.776	38.58
323.989	35.04
324.203	29.72
324.417	18.17
324.63	-1.36
324.844	-12.33
325.057	-5.95
325.271	-18.76
325.485	-11.88
325.698	-10.91
325.912	6.11
326.125	8.33
326.339	23.51
326.552	19.26
326.766	30.92
326.979	28.54
327.193	20.59
327.406	14.6
327.619	9.84
327.833	1.41
328.046	5.87
328.26	-8.73
328.473	-4.78
328.686	1.47
328.9	-1.51
329.113	14.87
329.326	16.5
329.54	4.3
329.753	12.57
329.966	11.49
330.179	21.54
330.393	32.19
330.606	38.35
330.819	40.4
331.032	51.46
331.246	60.88
331.459	64.73
331.672	60.86
331.885	49.36
332.098	43.39
332.311	33.94
332.525	20.14
332.738	12.48
332.951	20.24
333.164	12.38
333.377	9.31
333.59	7.09
333.803	17.09
334.016	17.79
334.229	22.56
334.442	27.46
334.655	33.75
334.868	41.7
335.081	49.88
335.294	44.25
335.507	45.08
335.72	27.15
335.933	19.71
336.146	21.93
336.359	16.08
336.572	5.49
336.785	20.34
336.997	17.43
337.21	31.7
337.423	30.68
337.636	35.26
337.849	33.57
338.062	43.71
338.274	34
338.487	36.71
338.7	38.27
338.913	33.16
339.125	25.5
339.338	32.22
339.551	25.14
339.763	26.43
339.976	20.64
340.189	17.22
340.402	14.56
340.614	20.37
340.827	12.02
341.039	13.21
341.252	11.54
341.465	14.53
341.677	13.57
341.89	18.17
342.102	9.69
342.315	18.67
342.527	10.69
342.74	12.63
342.952	10.09
343.165	21.73
343.377	27.27
343.59	34.23
343.802	31.39
344.015	36.56
344.227	33
344.44	34.97
344.652	34.45
344.864	32.75
345.077	34.01
345.289	35.88
345.502	37.44
345.714	42.22
345.926	46.98
346.139	33.16
346.351	22.67
346.563	37.21
346.775	33.15
346.988	31.84
347.2	29.87
347.412	30.82
347.624	42.06
347.837	47.31
348.049	36.84
348.261	32.64
348.473	29.84
348.685	27.73
348.897	23.3
349.11	16.68
349.322	11.82
349.534	-0.19
349.746	15.73
349.958	21.57
350.17	25.64
350.382	26.8
350.594	30.52
350.806	36.17
351.018	42.42
351.23	39.96
351.442	38.62
351.654	37.28
351.866	36.79
352.078	33.51
352.29	39.29
352.502	41.19
352.714	40.71
352.926	40.9
353.138	42.71
353.35	36.77
353.561	28.14
353.773	24.85
353.985	30.23
354.197	24.08
354.409	27.5
354.621	26.31
354.832	31.09
355.044	48.65
355.256	46.14
355.468	38.29
355.679	39.6
355.891	34.37
356.103	35.59
356.314	35.82
356.526	22.42
356.738	15.58
356.949	17
357.161	16.42
357.373	17.16
357.584	24.47
357.796	15.85
358.008	17.35
358.219	26.57
358.431	25.4
358.642	26.56
358.854	29.16
359.065	22.7
359.277	27.36
359.488	29.11
359.7	28.72
359.911	26.45
360.123	28.77
360.334	23.86
360.546	19.97
360.757	26.68
360.969	33.36
361.18	28.21
361.391	27.77
361.603	29.95
361.814	36.39
362.025	37.49
362.237	37.02
362.448	27.9
362.659	25.27
362.871	34.22
363.082	29.08
363.293	23.19
363.504	22.47
363.716	21.13
363.927	25.02
364.138	28.34
364.349	23.46
364.56	27.33
364.772	29.23
364.983	24.79
365.194	18.61
365.405	14.9
365.616	3.97
365.827	7.11
366.038	13.23
366.25	12.23
366.461	18.39
366.672	18.52
366.883	24.89
367.094	33.17
367.305	32.88
367.516	31.01
367.727	26.42
367.938	25.5
368.149	26.94
368.36	21.77
368.571	24.7
368.781	21.55
368.992	17.12
369.203	20.88
369.414	16.08
369.625	21.53
369.836	24.85
370.047	19.89
370.258	15.85
370.468	12.59
370.679	17.36
370.89	25.78
371.101	16.69
371.312	11.51
371.522	20.54
371.733	18.83
371.944	18.9
372.155	2.88
372.365	-4.96
372.576	-4.57
372.787	-1.36
372.997	-7.75
373.208	-2.57
373.419	-2.98
373.629	15.44
373.84	15.02
374.05	27.23
374.261	23.23
374.472	18.84
374.682	16.4
374.893	9.22
375.103	3.66
375.314	4.68
375.524	-1.89
375.735	1.58
375.945	6.82
376.156	14.11
376.366	24.95
376.577	23.8
376.787	27.15
376.997	33.53
377.208	32.83
377.418	31.65
377.629	22.58
377.839	19.99
378.049	26.22
378.26	27.35
378.47	25.2
378.68	22.95
378.89	19.27
379.101	22.47
379.311	16.46
379.521	12.48
379.732	0.43
379.942	0.86
380.152	8.26
380.362	9.82
380.572	16.27
380.783	20.76
380.993	21.51
381.203	34.34
381.413	35.78
381.623	29.99
381.833	27.87
382.043	19.27
382.253	20.19
382.463	20.6
382.674	14.49
382.884	7.84
383.094	7.51
383.304	10.1
383.514	16.45
383.724	14.36
383.934	10.56
384.144	11.77
384.353	12.75
384.563	12.18
384.773	14.86
384.983	16.5
385.193	17.67
385.403	22.51
385.613	20.02
385.823	21.79
386.033	23.66
386.242	20.19
386.452	15.52
386.662	16.84
386.872	14.33
387.082	14.58
387.291	10.24
387.501	12.63
387.711	12.8
387.921	13.08
388.13	11.29
388.34	13.28
388.55	14.75
388.759	18.04
388.969	14.79
389.179	16.3
389.388	17.25
389.598	15.26
389.807	12.47
390.017	12.33
390.227	12.79
390.436	13.76
390.646	13.26
390.855	12.28
391.065	13.87
391.274	12.98
391.484	12.52
391.693	12.42
391.903	12.16
392.112	11.72
392.322	11.56
392.531	12.02
392.74	10.86
392.95	11.05
393.159	10.37
393.369	9.94
393.578	10.22
393.787	10.19
393.997	10.35
394.206	11.43
394.415	12.01
394.625	11.13
394.834	10.26
395.043	9.61
395.252	10.57
395.462	10.09
395.671	10.5
395.88	10.1
396.089	10.6
396.298	11.02
396.508	11.38
396.717	10.64
396.926	10.04
397.135	9.45
397.344	9.47
397.553	9.54
397.762	9.41
397.971	9.24
398.181	8.8
398.39	9.21
398.599	9.35
398.808	9.12
399.017	9.4
399.226	9.73
399.435	9.6
399.644	9.93
399.853	10.09
400.062	10.17
400.27	10.17
400.479	9.75
400.688	9.69
400.897	9.85
401.106	9.93
401.315	9.64
401.524	9.63
401.733	9.8
401.941	9.88
402.15	9.7
402.359	9.68
402.568	9.53
402.777	9.53
402.985	9.53
403.194	9.38
403.403	9.14
403.612	9.16
403.82	9.03
404.029	8.98
404.238	9.03
404.446	8.88
404.655	8.7
404.864	8.86
405.072	8.9
405.281	8.72
405.489	8.8
405.698	8.7
405.906	8.73
406.115	8.89
406.324	8.75
406.532	8.77
406.741	8.89
406.949	8.75
407.158	8.81
407.366	8.77
407.574	8.77
407.783	8.82
407.991	8.64
408.2	8.61
408.408	8.58
408.617	8.49
408.825	8.48
409.033	8.36
409.242	8.28
409.45	8.31
409.658	8.28
409.867	8.33
410.075	8.35
410.283	8.27
410.491	8.23
410.7	8.31
410.908	8.3
411.116	8.16
411.324	8.18
411.533	8.03
411.741	8.04
411.949	8.09
412.157	8.03
412.365	8.02
412.573	8.18
412.781	8.11
412.99	8.17
413.198	8.18
413.406	8.18
413.614	8.19
413.822	8.2
414.03	8.09
414.238	8.1
414.446	8.03
414.654	7.91
414.862	7.76
415.07	7.73
415.278	7.63
415.486	7.71
415.694	7.56
415.902	7.53
416.109	7.58
416.317	7.54
416.525	7.66
416.733	7.68
416.941	7.59
417.149	7.7
417.357	7.75
417.564	7.74
417.772	7.79
417.98	7.5
418.188	7.27
418.395	7.26
418.603	7.13
418.811	7.07
419.019	7
419.226	7.04
419.434	7.04
419.642	7.2
419.849	7.12
420.057	7.15
420.265	7.09
420.472	7.12
420.68	7.12
420.887	7.21
421.095	7.22
421.302	7.26
421.51	7.35
421.717	7.41
421.925	7.29
422.132	7.21
422.34	7.13
422.547	7.08
422.755	7.03
422.962	6.92
423.17	6.87
423.377	7.04
423.585	7.05
423.792	7.04
423.999	7.03
424.207	7
424.414	7.02
424.621	7.01
424.829	6.91
425.036	6.89
425.243	6.93
425.451	6.95
425.658	7
425.865	7.02
426.072	7.08
426.28	7.04
426.487	7.05
426.694	7.02
426.901	6.95
427.108	6.93
427.315	6.9
427.523	6.95
427.73	7.02
427.937	6.97
428.144	6.94
428.351	7.03
428.558	7.07
428.765	7.03
428.972	7
429.179	6.96
429.386	7.01
429.593	7.02
429.8	7.08
430.007	7.03
430.214	7.07
430.421	7.13
430.628	7.04
430.835	6.99
431.042	7.16
431.249	7.14
431.456	7.32
431.662	7.37
431.869	7.44
432.076	7.61
432.283	7.68
432.49	7.69
432.697	7.67
432.903	7.67
433.11	7.76
433.317	7.72
433.524	7.63
433.73	7.69
433.937	7.56
434.144	7.61
434.35	7.57
434.557	7.45
434.764	7.41
434.97	7.59
435.177	7.53
435.384	7.65
435.59	7.65
435.797	7.66
436.003	7.69
436.21	7.71
436.416	7.61
436.623	7.73
436.829	7.76
437.036	7.79
437.242	7.84
437.449	7.89
437.655	7.99
437.862	8.01
438.068	8.01
438.275	8
438.481	8.1
438.687	8.16
438.894	8.17
439.1	8.15
439.307	8.14
439.513	8.11
439.719	8.19
439.926	8.15
440.132	8.15
440.338	8.26
440.544	8.24
440.751	8.35
440.957	8.35
441.163	8.37
441.369	8.33
441.575	8.31
441.782	8.2
441.988	8.23
442.194	8.23
442.4	8.33
442.606	8.41
442.812	8.48
443.018	8.5
443.224	8.58
443.431	8.7
443.637	8.67
443.843	8.65
444.049	8.57
444.255	8.56
444.461	8.59
444.667	8.6
444.873	8.56
445.079	8.65
445.284	8.67
445.49	8.63
445.696	8.66
445.902	8.67
446.108	8.72
446.314	8.77
446.52	8.75
446.726	8.76
446.931	8.84
447.137	8.86
447.343	8.89
447.549	8.84
447.755	8.8
447.96	8.86
448.166	8.93
448.372	8.97
448.578	9
448.783	9.02
448.989	9.12
449.195	9.16
449.4	9.15
449.606	9.09
449.812	9.16
450.017	9.19
450.223	9.19
450.428	9.19
450.634	9.23
450.84	9.25
451.045	9.3
451.251	9.28
451.456	9.24
451.662	9.27
451.867	9.34
452.073	9.32
452.278	9.36
452.483	9.4
452.689	9.41
452.894	9.48
453.1	9.46
453.305	9.45
453.51	9.48
453.716	9.46
453.921	9.46
454.127	9.45
454.332	9.49
454.537	9.66
454.742	9.65
454.948	9.67
455.153	9.69
455.358	9.76
455.563	9.82
455.769	9.83
455.974	9.71
456.179	9.67
456.384	9.76
456.589	9.87
456.795	9.81
457	9.83
457.205	9.79
457.41	9.87
457.615	10.02
457.82	10.02
458.025	10.01
458.23	10.14
458.435	10.15
458.64	10.33
458.845	10.34
459.05	10.38
459.255	10.36
459.46	10.36
459.665	10.36
459.87	10.43
460.075	10.35
460.28	10.44
460.485	10.47
460.69	10.53
460.895	10.59
461.099	10.62
461.304	10.67
461.509	10.66
461.714	10.66
461.919	10.64
462.123	10.68
462.328	10.7
462.533	10.71
462.738	10.64
462.942	10.75
463.147	10.74
463.352	10.81
463.556	10.87
463.761	10.85
463.966	10.96
464.17	11.14
464.375	11.11
464.58	11.15
464.784	11.15
464.989	11.16
465.193	11.22
465.398	11.19
465.602	11.14
465.807	11.23
466.011	11.29
466.216	11.33
466.42	11.39
466.625	11.39
466.829	11.41
467.034	11.46
467.238	11.44
467.443	11.42
467.647	11.46
467.851	11.49
