Data from Ofra_1a_PS_2GT41_Reflection_2.txt Node
Date: Tue Jul 20 10:51:05 EDT 2021
User: Adam
Spectrometer: FLMT01687
Trigger mode: 0
Integration Time (sec): 1.004000E0
Scans to average: 2
Electric dark correction enabled: true
Nonlinearity correction enabled: false
Boxcar width: 2
XAxis mode: Wavelengths
Number of Pixels in Spectrum: 3648
>>>>>Begin Spectral Data<<<<<
179.494	-86.8
179.716	-114.5
179.937	297.99
180.158	21.02
180.38	84.7
180.601	58.69
180.823	-6.19
181.044	-8.49
181.265	58
181.486	99.59
181.708	-1.26
181.929	4827.27
182.15	-41.04
182.372	462.56
182.593	114.48
182.814	-79.97
183.035	-34.76
183.257	-21.28
183.478	-14.14
183.699	-43
183.92	-64.45
184.141	-53.08
184.363	-29.32
184.584	-51.57
184.805	-8.42
185.026	27.18
185.247	13.77
185.468	-17.09
185.689	14.68
185.91	-20.99
186.132	-11.62
186.353	7.38
186.574	11.8
186.795	14.76
187.016	24.94
187.237	29.87
187.458	13.09
187.679	11.31
187.9	4.17
188.121	5.7
188.342	-3.2
188.563	-7.63
188.784	36.48
189.005	29.01
189.226	14.83
189.447	18.88
189.667	12.5
189.888	-9.03
190.109	-34.08
190.33	-3.12
190.551	-19.41
190.772	-9.65
190.993	-16.48
191.214	-13.96
191.434	-36.85
191.655	-17.35
191.876	-27.87
192.097	-34.26
192.318	-9.02
192.538	-36.92
192.759	-36.33
192.98	-5.1
193.201	10.66
193.421	10.58
193.642	18.16
193.863	29.32
194.083	26.14
194.304	0.2
194.525	10.31
194.745	18.04
194.966	18.65
195.187	12.19
195.407	12.71
195.628	12.65
195.848	4.95
196.069	-19.13
196.29	-6.96
196.51	3.09
196.731	-16.6
196.951	-38.35
197.172	-15.58
197.392	-42.07
197.613	-19.82
197.833	-9.05
198.054	13.37
198.274	7.35
198.495	12.36
198.715	13.79
198.936	19.94
199.156	20.56
199.377	24.65
199.597	26.19
199.817	22.84
200.038	-4.64
200.258	5.2
200.479	-1.29
200.699	-3.78
200.919	-13.66
201.14	-13.38
201.36	-25.05
201.58	-45.93
201.801	-47.09
202.021	-51.03
202.241	-31.06
202.461	-2.67
202.682	27.13
202.902	28.45
203.122	26.01
203.342	20.71
203.563	1.16
203.783	-11.26
204.003	-30.59
204.223	7.01
204.443	14.29
204.663	21.94
204.884	46.75
205.104	50.56
205.324	27.44
205.544	3.35
205.764	11.43
205.984	12.79
206.204	15.1
206.424	13.65
206.644	13.13
206.864	-10.3
207.084	-16.39
207.304	-17.76
207.525	-30.05
207.745	-11.07
207.964	0.36
208.184	-15.26
208.404	-4.36
208.624	18.02
208.844	24.63
209.064	20.83
209.284	24
209.504	16.14
209.724	15.59
209.944	-10.23
210.164	-9.68
210.384	-17.35
210.604	-52.81
210.823	-122.54
211.043	-60.59
211.263	-159.36
211.483	-88.95
211.703	-41.49
211.922	-31.41
212.142	-25.63
212.362	16.36
212.582	6.39
212.801	-18.28
213.021	-12.19
213.241	-33.48
213.461	-28.56
213.68	-15.85
213.9	-3.26
214.12	-20.74
214.339	-14.58
214.559	-27.68
214.779	-38.17
214.998	-44.3
215.218	-9.43
215.438	-7.45
215.657	-8.24
215.877	-9.1
216.096	12.56
216.316	6.24
216.535	2.11
216.755	-4.35
216.974	-21.48
217.194	-39.01
217.413	-27.81
217.633	-45.26
217.852	-32.63
218.072	-9.85
218.291	-6.15
218.511	-25.62
218.73	-9.03
218.95	-17.21
219.169	-25.44
219.389	-24.56
219.608	13.02
219.827	17.31
220.047	35.98
220.266	43.27
220.485	45.31
220.705	22.44
220.924	-26.6
221.143	-10.89
221.363	2.13
221.582	-8.27
221.801	-4.98
222.021	13.54
222.24	-11.83
222.459	-7.97
222.678	4.94
222.897	3.26
223.117	21.67
223.336	31.12
223.555	44.77
223.774	55.26
223.993	32.11
224.213	36.57
224.432	35.08
224.651	7.16
224.87	18.77
225.089	30.72
225.308	21.97
225.527	19.66
225.746	27.9
225.965	21.01
226.184	2.48
226.404	-6.39
226.623	3.59
226.842	1.31
227.061	-15.89
227.28	-1.45
227.499	0.38
227.718	3.42
227.936	2.5
228.155	10.23
228.374	11.18
228.593	10.25
228.812	1.92
229.031	4.43
229.25	6.6
229.469	12.27
229.688	29.57
229.907	36.69
230.125	44.69
230.344	43.56
230.563	50.84
230.782	44.43
231.001	32.12
231.22	38.04
231.438	48.83
231.657	48.2
231.876	36.97
232.095	49.87
232.313	29.97
232.532	7.4
232.751	-9.85
232.969	3.07
233.188	-21.17
233.407	0.63
233.625	3.11
233.844	-13.99
234.063	-15
234.281	4.7
234.5	-0.96
234.719	0.58
234.937	9.88
235.156	-11.55
235.374	-16.06
235.593	7.82
235.811	28.37
236.03	30.8
236.249	38.7
236.467	40.44
236.686	24.91
236.904	17.07
237.123	8.61
237.341	13.58
237.559	-0.76
237.778	25.05
237.996	-7.65
238.215	-29.28
238.433	-90.18
238.652	-18.42
238.87	-37.78
239.088	-19.89
239.307	-9.75
239.525	-3.42
239.743	-16.21
239.962	-30.82
240.18	-6.85
240.398	-6.7
240.617	-20.9
240.835	-13
241.053	-12.19
241.271	-15.48
241.49	10.37
241.708	14.39
241.926	8.91
242.144	27.16
242.363	4.31
242.581	-39.82
242.799	-31
243.017	-15.24
243.235	-13.33
243.453	-17.47
243.672	-14.53
243.89	-13.06
244.108	1.06
244.326	9.35
244.544	26.37
244.762	25.16
244.98	30.63
245.198	24.75
245.416	26.92
245.634	11.12
245.852	-12.7
246.07	10.58
246.288	5.22
246.506	2.85
246.724	-0.79
246.942	11.32
247.16	4.91
247.378	-19.65
247.596	-31.31
247.814	-21.79
248.032	-6.16
248.25	-10.04
248.468	24.92
248.685	28.99
248.903	11.42
249.121	7.66
249.339	8.59
249.557	-17.04
249.775	-11.37
249.992	7
250.21	8.48
250.428	16.63
250.646	31.73
250.863	15.27
251.081	18.83
251.299	36.72
251.517	39.72
251.734	32.24
251.952	41.45
252.17	51.7
252.387	39.9
252.605	14.64
252.823	10.61
253.04	20.77
253.258	-1.58
253.475	2.77
253.693	23.46
253.911	19.1
254.128	8.88
254.346	13.83
254.563	34.1
254.781	26.57
254.998	16.28
255.216	-6.57
255.433	-18.34
255.651	-35.89
255.868	-50.05
256.086	-29.31
256.303	-12.17
256.521	-7.77
256.738	-16.04
256.956	-9.41
257.173	-18.14
257.39	-11.2
257.608	-5.82
257.825	-10.56
258.043	6.06
258.26	8.2
258.477	10.83
258.695	7.49
258.912	13.86
259.129	-7.15
259.346	-4.92
259.564	-27.7
259.781	-36.27
259.998	-10.16
260.216	22.82
260.433	12.89
260.65	23.86
260.867	27.86
261.084	18.71
261.302	2.73
261.519	11.83
261.736	6.52
261.953	13.73
262.17	20.16
262.387	17.88
262.604	22.77
262.822	33.55
263.039	31.78
263.256	32.38
263.473	26.31
263.69	18.81
263.907	24.26
264.124	37.74
264.341	27.63
264.558	34.17
264.775	45.83
264.992	38.44
265.209	15.63
265.426	14.8
265.643	16.06
265.86	-9.59
266.077	-19.48
266.294	-2.97
266.51	20.24
266.727	8.32
266.944	37.88
267.161	44.39
267.378	41.98
267.595	22.09
267.812	8.9
268.028	-25.05
268.245	-42.35
268.462	-34.82
268.679	-24.4
268.896	10.89
269.112	6.51
269.329	-25.35
269.546	-5
269.763	0.14
269.979	-4.36
270.196	6.22
270.413	18.49
270.629	6.48
270.846	-10.97
271.063	-12.54
271.279	-10.87
271.496	-15.18
271.712	-18.98
271.929	3.22
272.146	-18.93
272.362	-2.31
272.579	1.42
272.795	-14.75
273.012	-11.48
273.228	7.05
273.445	-3.25
273.661	-9.05
273.878	1.26
274.094	-16.61
274.311	-17.57
274.527	-28.98
274.744	13.3
274.96	21.88
275.177	39.05
275.393	39.93
275.609	38.02
275.826	18.07
276.042	1.27
276.259	-4.87
276.475	-17.6
276.691	-24.53
276.908	-9.19
277.124	11.97
277.34	12.55
277.557	9.7
277.773	2.88
277.989	-15.22
278.205	-7.05
278.422	-12.69
278.638	-11.85
278.854	-7.63
279.07	8.95
279.286	-9.06
279.503	1.99
279.719	7.44
279.935	9.74
280.151	-7.67
280.367	-3.43
280.583	-5.59
280.799	-4.73
281.016	-51.85
281.232	-25.25
281.448	-25.61
281.664	-24.75
281.88	-23.99
282.096	6.41
282.312	-5.12
282.528	1.53
282.744	3.82
282.96	-18.96
283.176	-38.36
283.392	-42.39
283.608	-31.13
283.824	-53.94
284.04	-68.01
284.256	-8.18
284.471	-6.46
284.687	-12.05
284.903	-9.5
285.119	18.6
285.335	7.34
285.551	12.11
285.767	9.82
285.982	2.04
286.198	-26.26
286.414	3.85
286.63	-0.49
286.846	-1.44
287.061	30.18
287.277	-2.57
287.493	-33.88
287.709	-25.69
287.924	-15.4
288.14	-14.71
288.356	3.28
288.571	23.67
288.787	10.7
289.003	17.23
289.218	-0.25
289.434	10.22
289.65	20.6
289.865	20.28
290.081	23.69
290.296	29.34
290.512	20.92
290.727	1.56
290.943	-0.03
291.159	-7.59
291.374	-24.65
291.59	-6.64
291.805	-11.22
292.021	-1.41
292.236	-8.56
292.451	16.26
292.667	-1.63
292.882	6.1
293.098	-7.22
293.313	-13.53
293.529	-20.92
293.744	-18.04
293.959	-18.19
294.175	-5.74
294.39	-1.98
294.605	19.09
294.821	17.97
295.036	13.93
295.251	25.06
295.467	22.31
295.682	2.59
295.897	-0.37
296.112	-1.33
296.328	-3.55
296.543	-15.94
296.758	-13.67
296.973	-12.83
297.188	-20.77
297.404	-58.18
297.619	-68.87
297.834	-102.03
298.049	-79.09
298.264	-59.05
298.479	-53.82
298.694	7.44
298.909	17.58
299.125	13.29
299.34	18.64
299.555	24.28
299.77	20.05
299.985	28.38
300.2	33.38
300.415	27.98
300.63	22.47
300.845	6.73
301.06	-3.99
301.275	-12.71
301.49	-8.81
301.704	6.29
301.919	3.92
302.134	5.41
302.349	0.27
302.564	-5.67
302.779	-33.18
302.994	-7.45
303.209	4.25
303.423	9.8
303.638	12.35
303.853	15.19
304.068	4.49
304.283	-9.8
304.497	-15.77
304.712	11.25
304.927	19.41
305.142	20.79
305.356	24.55
305.571	13.45
305.786	2.69
306	-9.12
306.215	-18.6
306.43	-13.34
306.644	0.32
306.859	-17.96
307.074	0.79
307.288	17.38
307.503	19.49
307.717	13.83
307.932	22.36
308.147	17.84
308.361	9.5
308.576	-9.09
308.79	-6.04
309.005	-44.02
309.219	-18.08
309.434	-0.05
309.648	1.96
309.863	6.85
310.077	26.41
310.292	13.37
310.506	-4.22
310.72	-5.97
310.935	6.55
311.149	10.52
311.364	8.53
311.578	3.55
311.792	0.32
312.007	-10.69
312.221	-24.16
312.435	-4.67
312.649	10.72
312.864	-9.73
313.078	-0.9
313.292	24.12
313.507	20.76
313.721	8.41
313.935	42.43
314.149	16.71
314.363	2.96
314.578	-1.49
314.792	-26.24
315.006	-34.57
315.22	0.34
315.434	3.1
315.648	14.7
315.862	21.31
316.077	31.48
316.291	34.46
316.505	1.91
316.719	1.21
316.933	5.54
317.147	-17.13
317.361	-29.74
317.575	-7.19
317.789	-14.16
318.003	-6.12
318.217	22.93
318.431	11.97
318.645	7.7
318.859	12.91
319.073	23.99
319.287	9.26
319.5	13.63
319.714	13.51
319.928	9.11
320.142	-7.32
320.356	12.88
320.57	-6.93
320.784	4.12
320.997	-7.01
321.211	11.12
321.425	-12.36
321.639	19.68
321.853	21.73
322.066	26.35
322.28	19.56
322.494	19.76
322.707	8.83
322.921	2.43
323.135	7.61
323.349	-1.03
323.562	7.19
323.776	15.55
323.989	24.39
324.203	4.77
324.417	2.6
324.63	-19.65
324.844	-29.27
325.057	-53.14
325.271	-28.3
325.485	-10.77
325.698	8.99
325.912	10.9
326.125	2.24
326.339	-3.36
326.552	-2.94
326.766	-7.11
326.979	14.32
327.193	17.98
327.406	10.92
327.619	15.61
327.833	14.01
328.046	7.81
328.26	5.03
328.473	20.78
328.686	17.49
328.9	20.91
329.113	14.89
329.326	17.11
329.54	24.93
329.753	23.72
329.966	19.27
330.179	15.21
330.393	9.95
330.606	-13.33
330.819	-25.26
331.032	-31.69
331.246	-9.66
331.459	5.04
331.672	10.06
331.885	4.08
332.098	9.3
332.311	-2.73
332.525	-7.82
332.738	4.3
332.951	1.57
333.164	-2.66
333.377	-4.63
333.59	-15.88
333.803	-25.97
334.016	-11.22
334.229	5.72
334.442	0.77
334.655	0.87
334.868	1.86
335.081	0.62
335.294	-15.87
335.507	0.47
335.72	8.61
335.933	21.89
336.146	19.74
336.359	31.4
336.572	30.14
336.785	31.57
336.997	9.94
337.21	21.78
337.423	-27.52
337.636	-36.27
337.849	-33.95
338.062	-20.57
338.274	-20.3
338.487	-14.99
338.7	-28.89
338.913	-15.02
339.125	-26.24
339.338	-33.21
339.551	-12.5
339.763	8
339.976	13.81
340.189	15.86
340.402	32.75
340.614	32.82
340.827	24.87
341.039	25.99
341.252	25.88
341.465	13.56
341.677	11.18
341.89	5.38
342.102	16.37
342.315	22.3
342.527	38.88
342.74	38.11
342.952	43.74
343.165	37.72
343.377	35.91
343.59	14.43
343.802	16.55
344.015	20.72
344.227	13.76
344.44	20.45
344.652	24.25
344.864	32.67
345.077	48.89
345.289	41.43
345.502	32.54
345.714	28.53
345.926	18.2
346.139	1.1
346.351	19.72
346.563	33.72
346.775	42.89
346.988	53.48
347.2	48.73
347.412	24.96
347.624	19.47
347.837	35.93
348.049	26.53
348.261	16.68
348.473	20.2
348.685	19.79
348.897	1.22
349.11	2.67
349.322	17.78
349.534	20.7
349.746	17.17
349.958	-2.79
350.17	-22.4
350.382	-18.88
350.594	-17.7
350.806	-3.49
351.018	14.64
351.23	23.31
351.442	23.07
351.654	25.3
351.866	13.69
352.078	21.37
352.29	11.7
352.502	10.07
352.714	9.44
352.926	4.19
353.138	5.39
353.35	4.57
353.561	8.62
353.773	2.44
353.985	12.48
354.197	13.92
354.409	19.27
354.621	8.36
354.832	1.63
355.044	-25.53
355.256	-47.93
355.468	-63
355.679	-28.88
355.891	-6.72
356.103	4.12
356.314	-2.76
356.526	-8.93
356.738	-13.84
356.949	-33.11
357.161	-16.18
357.373	0.23
357.584	7.84
357.796	15.06
358.008	22.42
358.219	9.87
358.431	-0.29
358.642	12.47
358.854	8.9
359.065	1.46
359.277	6.65
359.488	3.61
359.7	0.72
359.911	-17.86
360.123	-7.46
360.334	-26.25
360.546	-19.19
360.757	-22.56
360.969	-10.77
361.18	-8.73
361.391	19.14
361.603	27.4
361.814	46.94
362.025	45.78
362.237	43.37
362.448	39.43
362.659	20.73
362.871	-5.91
363.082	-14.65
363.293	-37.58
363.504	-55.92
363.716	-42.3
363.927	-2.41
364.138	-17.49
364.349	-20.2
364.56	-46.36
364.772	-25.89
364.983	-21.7
365.194	-6.17
365.405	16.86
365.616	20.91
365.827	14.98
366.038	4.63
366.25	15.02
366.461	-1.54
366.672	14.87
366.883	18.68
367.094	7.97
367.305	-15.9
367.516	-2.31
367.727	-20.83
367.938	-23.93
368.149	-22.51
368.36	-12.38
368.571	-27.26
368.781	-29.79
368.992	-26.19
369.203	-14.32
369.414	-17.75
369.625	-16.23
369.836	13.25
370.047	14.19
370.258	7.35
370.468	8.25
370.679	13.89
370.89	-2.52
371.101	7.52
371.312	3.62
371.522	8
371.733	6.23
371.944	-7.99
372.155	-15.54
372.365	-6.07
372.576	-14.28
372.787	-7.58
372.997	4.09
373.208	-1.18
373.419	-11.47
373.629	-8.29
373.84	-21.46
374.05	-26.49
374.261	-21.01
374.472	-6.89
374.682	3.14
374.893	5.48
375.103	23.48
375.314	21.68
375.524	9.34
375.735	5.56
375.945	9.48
376.156	-3.82
376.366	-7.09
376.577	1.63
376.787	-0.03
376.997	4.04
377.208	7.06
377.418	1.62
377.629	2.29
377.839	9.06
378.049	8.55
378.26	7.73
378.47	12.44
378.68	9.43
378.89	8.26
379.101	13.53
379.311	19.05
379.521	12.68
379.732	15.89
379.942	6.57
380.152	-8.98
380.362	-8.87
380.572	5.68
380.783	3.48
380.993	13.37
381.203	14.43
381.413	19.34
381.623	13.83
381.833	16.7
382.043	10.31
382.253	11.33
382.463	14.35
382.674	18.98
382.884	19.65
383.094	12.16
383.304	19.09
383.514	12.83
383.724	9.51
383.934	0.23
384.144	9.53
384.353	8.93
384.563	6.24
384.773	10.92
384.983	10.11
385.193	5.56
385.403	1.24
385.613	4.38
385.823	-2.97
386.033	-0.23
386.242	-1.83
386.452	-2.62
386.662	-4.58
386.872	2.61
387.082	-0.15
387.291	-0.02
387.501	-0.37
387.711	2.92
387.921	-0.8
388.13	5.98
388.34	5.7
388.55	3
388.759	-4.42
388.969	-3.96
389.179	-3.37
389.388	-1.84
389.598	-0.01
389.807	0.32
390.017	0.38
390.227	-3.33
390.436	0.74
390.646	4.16
390.855	5.36
391.065	7.98
391.274	8.11
391.484	4.49
391.693	3.22
391.903	4.86
392.112	1.03
392.322	0.81
392.531	0.55
392.74	-0.89
392.95	-1.1
393.159	0.79
393.369	0.6
393.578	2.02
393.787	2.34
393.997	3.51
394.206	2.9
394.415	3.76
394.625	2.09
394.834	0.83
395.043	0.07
395.252	2.9
395.462	4.11
395.671	4.49
395.88	5.78
396.089	4.68
396.298	3.18
396.508	1.88
396.717	2.72
396.926	2.4
397.135	3.9
397.344	3.06
397.553	3.54
397.762	4
397.971	3.64
398.181	3.37
398.39	3.41
398.599	3.94
398.808	3.05
399.017	4.51
399.226	4.57
399.435	4.68
399.644	4.54
399.853	4.96
400.062	4.45
400.27	4.02
400.479	4.4
400.688	4.24
400.897	4.09
401.106	3.88
401.315	4.15
401.524	4.22
401.733	4.37
401.941	4.63
402.15	4.63
402.359	4.53
402.568	4.6
402.777	4.47
402.985	4.3
403.194	4.15
403.403	4.37
403.612	3.8
403.82	3.41
404.029	3.45
404.238	3.49
404.446	3.61
404.655	3.99
404.864	4.24
405.072	4.21
405.281	4.35
405.489	4.02
405.698	4.03
405.906	4.13
406.115	4.11
406.324	4.1
406.532	4.14
406.741	4.03
406.949	4.06
407.158	4.18
407.366	4.1
407.574	4.15
407.783	4.15
407.991	4.02
408.2	3.9
408.408	3.96
408.617	4.02
408.825	3.99
409.033	4.05
409.242	4.16
409.45	4.06
409.658	3.98
409.867	4.03
410.075	4.05
410.283	3.9
410.491	3.87
410.7	3.79
410.908	3.89
411.116	3.87
411.324	3.83
411.533	3.74
411.741	3.7
411.949	3.61
412.157	3.45
412.365	3.57
412.573	3.68
412.781	3.64
412.99	3.52
413.198	3.69
413.406	3.72
413.614	3.81
413.822	4.04
414.03	4.06
414.238	4.01
414.446	4
414.654	3.84
414.862	3.73
415.07	3.67
415.278	3.75
415.486	3.57
415.694	3.76
415.902	3.68
416.109	3.67
416.317	3.51
416.525	3.47
416.733	3.3
416.941	3.41
417.149	3.38
417.357	3.48
417.564	3.55
417.772	3.69
417.98	3.57
418.188	3.6
418.395	3.38
418.603	3.32
418.811	3.11
419.019	3.1
419.226	3.16
419.434	3.25
419.642	3.17
419.849	3.26
420.057	3.24
420.265	3.23
420.472	3.25
420.68	3.38
420.887	3.24
421.095	3.33
421.302	3.33
421.51	3.24
421.717	3.21
421.925	3.33
422.132	3.37
422.34	3.28
422.547	3.31
422.755	3.4
422.962	3.36
423.17	3.12
423.377	3.27
423.585	3.45
423.792	3.32
423.999	3.36
424.207	3.33
424.414	3.14
424.621	3.09
424.829	3.16
425.036	3.09
425.243	3.29
425.451	3.41
425.658	3.42
425.865	3.43
426.072	3.51
426.28	3.56
426.487	3.44
426.694	3.23
426.901	3.24
427.108	3.22
427.315	3.06
427.523	3.04
427.73	3.07
427.937	2.91
428.144	2.86
428.351	2.99
428.558	3.12
428.765	3.13
428.972	3.36
429.179	3.21
429.386	3.19
429.593	3.08
429.8	3.12
430.007	3.07
430.214	3.33
430.421	3.37
430.628	3.39
430.835	3.29
431.042	3.14
431.249	3.14
431.456	3.09
431.662	3.24
431.869	3.48
432.076	3.61
432.283	3.69
432.49	3.74
432.697	3.66
432.903	3.62
433.11	3.8
433.317	3.82
433.524	3.83
433.73	3.8
433.937	3.86
434.144	3.61
434.35	3.54
434.557	3.58
434.764	3.63
434.97	3.39
435.177	3.57
435.384	3.55
435.59	3.4
435.797	3.53
436.003	3.7
436.21	3.64
436.416	3.65
436.623	3.78
436.829	3.62
437.036	3.66
437.242	3.71
437.449	3.87
437.655	3.89
437.862	4.01
438.068	3.96
438.275	3.98
438.481	3.8
438.687	3.79
438.894	3.85
439.1	3.87
439.307	3.96
439.513	4.08
439.719	4.18
439.926	4.08
440.132	4.17
440.338	4.03
440.544	3.97
440.751	3.87
440.957	3.91
441.163	3.87
441.369	3.96
441.575	3.9
441.782	3.92
441.988	4
442.194	3.96
442.4	3.89
442.606	4.06
442.812	4.03
443.018	4.01
443.224	4.09
443.431	4.16
443.637	4.04
443.843	4.11
444.049	4.06
444.255	4.01
444.461	3.91
444.667	3.93
444.873	3.94
445.079	3.96
445.284	3.99
445.49	4.04
445.696	4.07
445.902	4.09
446.108	4.11
446.314	4.09
446.52	4.22
446.726	4.33
446.931	4.26
447.137	4.21
447.343	4.4
447.549	4.35
447.755	4.25
447.96	4.26
448.166	4.33
448.372	4.19
448.578	4.12
448.783	4.08
448.989	4.18
449.195	4.12
449.4	4.18
449.606	4.22
449.812	4.24
450.017	4.27
450.223	4.25
450.428	4.22
450.634	4.15
450.84	4.14
451.045	4.12
451.251	4.23
451.456	4.28
451.662	4.42
451.867	4.39
452.073	4.34
452.278	4.32
452.483	4.32
452.689	4.31
452.894	4.44
453.1	4.43
453.305	4.41
453.51	4.4
453.716	4.32
453.921	4.4
454.127	4.47
454.332	4.5
454.537	4.52
454.742	4.51
454.948	4.39
455.153	4.41
455.358	4.38
455.563	4.35
455.769	4.4
455.974	4.42
456.179	4.3
456.384	4.23
456.589	4.22
456.795	4.21
457	4.15
457.205	4.24
457.41	4.26
457.615	4.29
457.82	4.34
458.025	4.36
458.23	4.29
458.435	4.33
458.64	4.33
458.845	4.35
459.05	4.42
459.255	4.5
459.46	4.53
459.665	4.46
459.87	4.38
460.075	4.46
460.28	4.46
460.485	4.52
460.69	4.59
460.895	4.66
461.099	4.5
461.304	4.41
461.509	4.47
461.714	4.54
461.919	4.47
462.123	4.56
462.328	4.49
462.533	4.37
462.738	4.3
462.942	4.25
463.147	4.29
463.352	4.5
463.556	4.47
463.761	4.45
463.966	4.54
464.17	4.57
464.375	4.54
464.58	4.55
464.784	4.53
464.989	4.54
465.193	4.48
465.398	4.49
465.602	4.7
465.807	4.75
466.011	4.77
466.216	4.79
466.42	4.79
466.625	4.7
466.829	4.72
467.034	4.76
467.238	4.83
467.443	4.82
