Data from Ofra_PS_T2_1A_2GT41_Reflection_3.txt Node
Date: Wed Jul 21 17:57:12 EDT 2021
User: Adam
Spectrometer: FLMT01687
Trigger mode: 0
Integration Time (sec): 1.100000E0
Scans to average: 2
Electric dark correction enabled: true
Nonlinearity correction enabled: false
Boxcar width: 2
XAxis mode: Wavelengths
Number of Pixels in Spectrum: 3648
>>>>>Begin Spectral Data<<<<<
179.494	651.4
179.716	681.65
179.937	607.31
180.158	572.31
180.38	885.16
180.601	275.28
180.823	85.23
181.044	-103.67
181.265	-50.55
181.486	-39.34
181.708	-8.26
181.929	-183.16
182.15	-275
182.372	54.65
182.593	-39.81
182.814	-22.25
183.035	9.87
183.257	37.84
183.478	-14.73
183.699	78.33
183.92	78.77
184.141	89.23
184.363	42.04
184.584	57.13
184.805	33.86
185.026	41.66
185.247	40.01
185.468	19.36
185.689	30.54
185.91	31.52
186.132	44.92
186.353	25
186.574	114.73
186.795	88.69
187.016	53.93
187.237	15.12
187.458	17.88
187.679	-8.55
187.9	18.84
188.121	21.39
188.342	63.21
188.563	90.37
188.784	116.17
189.005	112.75
189.226	176.06
189.447	185.9
189.667	139.68
189.888	-50.37
190.109	-689.94
190.33	-464.68
190.551	-982.52
190.772	-117.01
190.993	-92.42
191.214	-51.15
191.434	-18.33
191.655	27.21
191.876	-4.31
192.097	-45.67
192.318	-75.67
192.538	-146.11
192.759	-144.98
192.98	-80.05
193.201	-46.53
193.421	-27.77
193.642	-7.7
193.863	22.44
194.083	9.54
194.304	12.81
194.525	20.53
194.745	34.75
194.966	-26.18
195.187	-32.93
195.407	-60.97
195.628	-126.77
195.848	-142.37
196.069	-103.16
196.29	-35.02
196.51	-25.72
196.731	-21.67
196.951	-12.82
197.172	-73.75
197.392	-107.46
197.613	-127.74
197.833	-143.06
198.054	-118.84
198.274	-27.79
198.495	-41.03
198.715	2.96
198.936	-4.99
199.156	2.38
199.377	-105.47
199.597	-103.2
199.817	-112.23
200.038	-40.23
200.258	-101.36
200.479	-35.02
200.699	-17.54
200.919	8.47
201.14	-20.47
201.36	-34.55
201.58	13.94
201.801	33.6
202.021	7.96
202.241	8
202.461	20.23
202.682	-18.85
202.902	-68.65
203.122	-27.01
203.342	-7.24
203.563	42.91
203.783	64.09
204.003	52.29
204.223	71.93
204.443	108.86
204.663	76.93
204.884	51.83
205.104	80.9
205.324	88.39
205.544	34.82
205.764	48.58
205.984	51.92
206.204	60.3
206.424	48.28
206.644	46.81
206.864	64.41
207.084	69.4
207.304	115.65
207.525	107.73
207.745	49.48
207.964	30.75
208.184	-37.76
208.404	-105.37
208.624	-105.74
208.844	-115.75
209.064	-410.66
209.284	-384
209.504	-184.1
209.724	-24.08
209.944	-0.74
210.164	35.69
210.384	48.19
210.604	52.17
210.823	-2.11
211.043	-12.94
211.263	0.2
211.483	-2.49
211.703	-55.71
211.922	-17.62
212.142	25.58
212.362	29.82
212.582	-0.02
212.801	9.12
213.021	-9
213.241	-23.78
213.461	-54.54
213.68	-67.32
213.9	-38.04
214.12	-22.15
214.339	-82.76
214.559	-62.13
214.779	7.77
214.998	11.42
215.218	-27.65
215.438	-3.28
215.657	-8.34
215.877	-44.2
216.096	-23.6
216.316	3.22
216.535	-1.43
216.755	-17.53
216.974	-77.98
217.194	-131.98
217.413	-162.4
217.633	-157.97
217.852	-202.16
218.072	-82.55
218.291	-24.36
218.511	30.23
218.73	14.85
218.95	0.15
219.169	-2.89
219.389	-41.8
219.608	-44.46
219.827	-41.89
220.047	-39.57
220.266	-29.16
220.485	-31.79
220.705	-27.83
220.924	-39.5
221.143	13.23
221.363	-7.03
221.582	12.92
221.801	25.47
222.021	37.17
222.24	-29.78
222.459	38.68
222.678	10.16
222.897	-107.79
223.117	-164.1
223.336	-103.05
223.555	-73.59
223.774	-35.66
223.993	42.88
224.213	139.67
224.432	104.93
224.651	105.12
224.87	73.38
225.089	78.55
225.308	69.03
225.527	77.59
225.746	67.55
225.965	48.79
226.184	8.07
226.404	5.74
226.623	-36.94
226.842	-22.66
227.061	9.38
227.28	16.77
227.499	6.75
227.718	32.45
227.936	24.48
228.155	37.84
228.374	18.34
228.593	22.84
228.812	26.36
229.031	18.37
229.25	-26.22
229.469	-17.02
229.688	-19.56
229.907	-19.44
230.125	9.44
230.344	6.95
230.563	40.13
230.782	48.73
231.001	8.08
231.22	2.31
231.438	29.56
231.657	18.23
231.876	10.72
232.095	57.79
232.313	57.3
232.532	68.11
232.751	43.05
232.969	18.15
233.188	-15.07
233.407	47.76
233.625	22.85
233.844	16.88
234.063	34.05
234.281	39.56
234.5	15.92
234.719	17.2
234.937	25.56
235.156	22.39
235.374	-0.01
235.593	-12.12
235.811	-6.05
236.03	7.76
236.249	-37.16
236.467	-3.51
236.686	22.69
236.904	23.39
237.123	-14.42
237.341	-3.23
237.559	-12.17
237.778	-40.83
237.996	-72.79
238.215	-10.71
238.433	11.36
238.652	34.24
238.87	11.69
239.088	28.81
239.307	17.31
239.525	0.91
239.743	-44.3
239.962	-39.85
240.18	-68.93
240.398	-94.9
240.617	-91.85
240.835	-60.43
241.053	-21.19
241.271	29.22
241.49	36.97
241.708	32.93
241.926	37.71
242.144	13.54
242.363	-35.01
242.581	-46.29
242.799	-15.44
243.017	-1.02
243.235	-24.49
243.453	-15.42
243.672	-20.76
243.89	-22.74
244.108	-30.1
244.326	2.25
244.544	1.97
244.762	12.9
244.98	36.55
245.198	43.79
245.416	7.63
245.634	21.25
245.852	11.26
246.07	-28.92
246.288	-43.19
246.506	-43.82
246.724	-42.43
246.942	-45.01
247.16	-0.46
247.378	7.1
247.596	29.17
247.814	32.83
248.032	10.73
248.25	12.15
248.468	5.66
248.685	14.82
248.903	30.3
249.121	39.1
249.339	10.74
249.557	17.52
249.775	14.94
249.992	-40.65
250.21	-42.51
250.428	-31.49
250.646	-60.02
250.863	-81.89
251.081	-30.63
251.299	-15.96
251.517	21.91
251.734	35.25
251.952	25.16
252.17	4.16
252.387	19.07
252.605	-0.15
252.823	1.74
253.04	30.54
253.258	52.66
253.475	50.91
253.693	73.72
253.911	65.92
254.128	64.18
254.346	65.47
254.563	35.79
254.781	18.75
254.998	-3.69
255.216	-27.27
255.433	-19.94
255.651	14.52
255.868	56.76
256.086	97.06
256.303	93.62
256.521	70.39
256.738	45.3
256.956	-3.6
257.173	-29.66
257.39	-36.9
257.608	-67.52
257.825	-8.43
258.043	49.66
258.26	64.98
258.477	97.41
258.695	100.44
258.912	55.78
259.129	34.06
259.346	-15.9
259.564	-64.71
259.781	-85.12
259.998	-4.66
260.216	9.62
260.433	40.53
260.65	48.2
260.867	59.14
261.084	23.99
261.302	19.91
261.519	13.22
261.736	-27.37
261.953	-44.14
262.17	-24.71
262.387	-65.68
262.604	-54.33
262.822	-53.29
263.039	-39.75
263.256	-53.23
263.473	-5.62
263.69	-11.37
263.907	27.78
264.124	52.41
264.341	45.39
264.558	32.12
264.775	41.09
264.992	33.14
265.209	16.89
265.426	27.45
265.643	25.4
265.86	44.62
266.077	54.8
266.294	41.4
266.51	20.05
266.727	9.41
266.944	-15.27
267.161	-21.11
267.378	-6.04
267.595	12.82
267.812	-16.87
268.028	-24.11
268.245	-16.06
268.462	-30.63
268.679	-25.89
268.896	46.82
269.112	51.87
269.329	44.06
269.546	56.67
269.763	47.36
269.979	16.38
270.196	4.08
270.413	-22.47
270.629	-56.6
270.846	-54.15
271.063	-48.41
271.279	-66.51
271.496	-55.61
271.712	-17.78
271.929	-18.42
272.146	-7.74
272.362	0.52
272.579	34.42
272.795	53.07
273.012	65.83
273.228	46.85
273.445	32.48
273.661	-6.13
273.878	-52.28
274.094	-67.52
274.311	-74.39
274.527	8.47
274.744	20.91
274.96	8.34
275.177	12.53
275.393	27.72
275.609	19.74
275.826	35.24
276.042	43.33
276.259	41.97
276.475	37.87
276.691	31.21
276.908	0.46
277.124	17.8
277.34	20
277.557	12.18
277.773	-5.7
277.989	8.59
278.205	4.43
278.422	18.65
278.638	25.87
278.854	50.36
279.07	52.26
279.286	29.21
279.503	-1.75
279.719	-12.53
279.935	-39.96
280.151	-55.08
280.367	-25.98
280.583	-30.04
280.799	-24.52
281.016	-45.88
281.232	-7.14
281.448	-6.45
281.664	17.35
281.88	-11.71
282.096	10.83
282.312	29.12
282.528	53.47
282.744	64.98
282.96	68.43
283.176	41.38
283.392	24.09
283.608	9.73
283.824	-2.36
284.04	-1.05
284.256	15.59
284.471	12.1
284.687	8.77
284.903	32.39
285.119	61.11
285.335	29.88
285.551	40.61
285.767	24.74
285.982	5.86
286.198	-54.32
286.414	12.31
286.63	21.8
286.846	34.55
287.061	19.97
287.277	58.41
287.493	35.94
287.709	34.88
287.924	21.37
288.14	40.76
288.356	39.16
288.571	46.39
288.787	27.27
289.003	26.6
289.218	13.01
289.434	-27.62
289.65	-25.89
289.865	-16.73
290.081	21.28
290.296	30.05
290.512	37.53
290.727	1.74
290.943	-11.07
291.159	-24.81
291.374	-38.72
291.59	-57.01
291.805	-38.96
292.021	-15.79
292.236	-14.97
292.451	4.97
292.667	14.3
292.882	33.13
293.098	20.64
293.313	1.84
293.529	-18.92
293.744	-21.4
293.959	-26.83
294.175	-24.99
294.39	12.01
294.605	32.03
294.821	50.59
295.036	58.4
295.251	61.45
295.467	21
295.682	5.18
295.897	-36
296.112	-50.06
296.328	-35.59
296.543	-26.23
296.758	-12.68
296.973	6.24
297.188	26.01
297.404	2.49
297.619	-15.12
297.834	-21.69
298.049	-21.95
298.264	-42.12
298.479	7.06
298.694	28.49
298.909	37.9
299.125	36.29
299.34	47.44
299.555	25.39
299.77	31.15
299.985	-9.11
300.2	-53.21
300.415	-80.66
300.63	-49.76
300.845	-60.21
301.06	-52
301.275	-19.42
301.49	15.96
301.704	1.12
301.919	-7.39
302.134	-14.31
302.349	-14.74
302.564	-67.45
302.779	-78.51
302.994	-21.67
303.209	-7.05
303.423	6.53
303.638	38.98
303.853	5.77
304.068	-16.32
304.283	-7.95
304.497	-6.13
304.712	-16.12
304.927	3.19
305.142	12.1
305.356	14.86
305.571	1.93
305.786	-22.95
306	-40.55
306.215	-56.38
306.43	-70.33
306.644	-44.74
306.859	29.45
307.074	34.08
307.288	2.63
307.503	-11
307.717	-40.46
307.932	-45.79
308.147	-46.8
308.361	-18.44
308.576	-28.91
308.79	-47.76
309.005	-46.51
309.219	-35.59
309.434	-42.24
309.648	-23.93
309.863	0.93
310.077	13.9
310.292	10.08
310.506	20.38
310.72	27.42
310.935	37.89
311.149	23
311.364	35.11
311.578	46.95
311.792	41.08
312.007	37.57
312.221	21.8
312.435	15.37
312.649	-16.59
312.864	-21.38
313.078	-0.7
313.292	60.2
313.507	38.6
313.721	79.75
313.935	58.04
314.149	28.35
314.363	18.81
314.578	29.16
314.792	21.67
315.006	11.22
315.22	35.05
315.434	34.66
315.648	40.21
315.862	49.29
316.077	45.21
316.291	15.91
316.505	35.36
316.719	24.35
316.933	0.81
317.147	22.01
317.361	-21.77
317.575	-43.27
317.789	-86.94
318.003	-132.64
318.217	-137.93
318.431	-48.68
318.645	-7
318.859	15.14
319.073	35.08
319.287	29.86
319.5	7.73
319.714	-35.74
319.928	-62.03
320.142	-86.86
320.356	-16.57
320.57	25.45
320.784	29.51
320.997	49.01
321.211	62.65
321.425	-28.16
321.639	-51.77
321.853	8.13
322.066	24.83
322.28	13.44
322.494	34.18
322.707	43.12
322.921	13.78
323.135	-10.24
323.349	21.87
323.562	5.79
323.776	1.76
323.989	7.75
324.203	-0.81
324.417	-40.61
324.63	-46.19
324.844	-42.04
325.057	-37.28
325.271	-6.22
325.485	22.49
325.698	41.94
325.912	42.74
326.125	20.54
326.339	20.72
326.552	1.37
326.766	-11.35
326.979	10.63
327.193	45.91
327.406	29.41
327.619	19.36
327.833	42.39
328.046	6.32
328.26	-28.28
328.473	0.62
328.686	-12.96
328.9	-7.37
329.113	20.2
329.326	10.41
329.54	6.39
329.753	6.8
329.966	-24.69
330.179	-14.44
330.393	17.54
330.606	31.84
330.819	56.21
331.032	58.25
331.246	54.06
331.459	69.86
331.672	45.51
331.885	29.57
332.098	3.33
332.311	-22.84
332.525	-107.19
332.738	-47.02
332.951	-21.82
333.164	11.92
333.377	41.75
333.59	71.11
333.803	59.96
334.016	47.7
334.229	54.43
334.442	47.59
334.655	62.21
334.868	43.34
335.081	33.08
335.294	13.24
335.507	-5.68
335.72	-18.45
335.933	-21.02
336.146	-23.03
336.359	-11.02
336.572	-11.81
336.785	-44.61
336.997	-41.94
337.21	-26.93
337.423	-30.52
337.636	-35.89
337.849	-7.03
338.062	-8.7
338.274	-2.29
338.487	-10.72
338.7	-7.06
338.913	-49.05
339.125	-74.21
339.338	-134.94
339.551	-113.97
339.763	-57.51
339.976	-22.21
340.189	18.36
340.402	41.19
340.614	24.52
340.827	-13.44
341.039	-20.74
341.252	-30.18
341.465	-19.46
341.677	-8.12
341.89	-28.76
342.102	-11.48
342.315	-20.22
342.527	-50.3
342.74	-50.05
342.952	-14.53
343.165	-12.01
343.377	2.93
343.59	1.97
343.802	17.42
344.015	28.79
344.227	36.09
344.44	25.27
344.652	28.77
344.864	5.96
345.077	28.06
345.289	24.75
345.502	32.88
345.714	23.08
345.926	22.6
346.139	2.61
346.351	5.11
346.563	7.57
346.775	24.36
346.988	22.27
347.2	4.1
347.412	-45.38
347.624	-66.93
347.837	-93.33
348.049	-57.07
348.261	-11.3
348.473	6.69
348.685	6.73
348.897	-6.65
349.11	-33.6
349.322	-53.29
349.534	-34.68
349.746	-27.83
349.958	-14.92
350.17	-6.19
350.382	0.5
350.594	0.85
350.806	3.5
351.018	14.01
351.23	5.43
351.442	-28.2
351.654	-38.77
351.866	-27.82
352.078	-25.04
352.29	-4.45
352.502	12.68
352.714	31.63
352.926	23.95
353.138	15.65
353.35	9.6
353.561	6.99
353.773	-27.57
353.985	-15.6
354.197	-21.38
354.409	-26.74
354.621	-24.23
354.832	0.24
355.044	-7.15
355.256	6.06
355.468	18.77
355.679	12.76
355.891	13.31
356.103	-0.96
356.314	10.89
356.526	21.19
356.738	37.37
356.949	33.48
357.161	39.44
357.373	18.68
357.584	-4.71
357.796	-1.39
358.008	-6.12
358.219	18.24
358.431	14.82
358.642	28.59
358.854	24.79
359.065	18.83
359.277	-20.81
359.488	-24.99
359.7	-38.02
359.911	-63.33
360.123	-31.6
360.334	-33.53
360.546	-51.06
360.757	-55.13
360.969	-24.54
361.18	-24.88
361.391	-7.54
361.603	-14.03
361.814	-11.58
362.025	-24.56
362.237	-38.2
362.448	-20.88
362.659	8.9
362.871	10.83
363.082	20.8
363.293	19.63
363.504	-2.19
363.716	-24.94
363.927	-21.84
364.138	-66.3
364.349	-67.7
364.56	-43.53
364.772	-37.25
364.983	-22.11
365.194	-7.91
365.405	3.13
365.616	17.25
365.827	22.42
366.038	2.18
366.25	6.33
366.461	-17.99
366.672	-19.82
366.883	-6.3
367.094	-0.92
367.305	-7.39
367.516	3.35
367.727	-26.02
367.938	-36.86
368.149	-29.19
368.36	-14.99
368.571	-8.33
368.781	-13.09
368.992	-17.78
369.203	-42.44
369.414	-66.78
369.625	-73.54
369.836	-51.88
370.047	-84.18
370.258	-55.67
370.468	-49.59
370.679	-67.5
370.89	-65.73
371.101	-43.01
371.312	-44.45
371.522	-34.09
371.733	-14.95
371.944	-7.65
372.155	8.93
372.365	-0.92
372.576	-1.59
372.787	-6.9
372.997	-31.4
373.208	-34.38
373.419	-14.38
373.629	-42.46
373.84	-50.52
374.05	-54.79
374.261	-53.25
374.472	-65.39
374.682	-8.75
374.893	6.37
375.103	42.83
375.314	39.1
375.524	36.22
375.735	29.18
375.945	35.81
376.156	6.42
376.366	4.12
376.577	8.56
376.787	-10.93
376.997	-18.89
377.208	-14.45
377.418	-16.62
377.629	-1.9
377.839	6.4
378.049	9.14
378.26	22.27
378.47	32.75
378.68	17.69
378.89	13.34
379.101	4.07
379.311	-27.38
379.521	-68.96
379.732	-63.77
379.942	-49.68
380.152	-66.16
380.362	-19.35
380.572	-8.68
380.783	1.41
380.993	10.84
381.203	34.02
381.413	34.05
381.623	45.14
381.833	45.75
382.043	26.93
382.253	12.51
382.463	6.46
382.674	-9.35
382.884	-28.98
383.094	-19.66
383.304	-11.99
383.514	-13.99
383.724	-5.84
383.934	-11.73
384.144	-29.67
384.353	-39.15
384.563	-32.87
384.773	-21.17
384.983	-20.75
385.193	6.13
385.403	9.83
385.613	11.15
385.823	-9.99
386.033	-3.99
386.242	-13.95
386.452	-10.88
386.662	-22.12
386.872	-2.6
387.082	-9.87
387.291	-15.98
387.501	-16.52
387.711	-5.34
387.921	-13.61
388.13	-10.76
388.34	5.94
388.55	-0.26
388.759	-2.57
388.969	6.88
389.179	7.12
389.388	0.3
389.598	5.5
389.807	1.15
390.017	-8.54
390.227	-8.33
390.436	-10.51
390.646	-10.8
390.855	-4.87
391.065	-1.6
391.274	-3.96
391.484	-5.83
391.693	-4.05
391.903	-6.84
392.112	-2.63
392.322	1.92
392.531	6.68
392.74	8.03
392.95	3.88
393.159	1.21
393.369	-0.02
393.578	-0.81
393.787	-2.98
393.997	-0.15
394.206	-1.55
394.415	-0.18
394.625	-0.54
394.834	-0.95
395.043	0.58
395.252	3.1
395.462	4.56
395.671	5.66
395.88	4.96
396.089	5.15
396.298	3.64
396.508	2.26
396.717	1.67
396.926	2.11
397.135	2.25
397.344	2.29
397.553	3.27
397.762	4.51
397.971	4.7
398.181	4.39
398.39	3.88
398.599	3.18
398.808	2.62
399.017	3.29
399.226	4.39
399.435	5.37
399.644	5.52
399.853	4.81
400.062	3.94
400.27	3.12
400.479	2.56
400.688	1.66
400.897	1.82
401.106	2.42
401.315	2.23
401.524	2.2
401.733	3.14
401.941	3.48
402.15	3.42
402.359	3.33
402.568	3.77
402.777	3.68
402.985	3.53
403.194	3.48
403.403	3.66
403.612	3.3
403.82	3.07
404.029	3.34
404.238	3.2
404.446	3.47
404.655	3.2
404.864	3.23
405.072	2.89
405.281	2.96
405.489	2.62
405.698	2.77
405.906	2.75
406.115	2.8
406.324	2.86
406.532	2.97
406.741	3.26
406.949	3.29
407.158	3.22
407.366	3.27
407.574	3.15
407.783	3.08
407.991	2.89
408.2	3.13
408.408	2.96
408.617	2.99
408.825	2.87
409.033	2.97
409.242	2.91
409.45	3.03
409.658	2.91
409.867	3.06
410.075	2.93
410.283	2.84
410.491	2.78
410.7	2.74
410.908	2.64
411.116	3.06
411.324	3.13
411.533	3.08
411.741	3.46
411.949	3.48
412.157	3.12
412.365	3.04
412.573	2.92
412.781	2.79
412.99	2.74
413.198	2.93
413.406	2.92
413.614	3.17
413.822	3.03
414.03	2.94
414.238	2.72
414.446	2.83
414.654	2.54
414.862	2.67
415.07	2.75
415.278	2.94
415.486	2.7
415.694	2.87
415.902	2.71
416.109	2.62
416.317	2.57
416.525	2.5
416.733	2.4
416.941	2.49
417.149	2.58
417.357	2.59
417.564	2.81
417.772	3.12
417.98	3.14
418.188	3.08
418.395	3.13
418.603	3.15
418.811	2.65
419.019	2.44
419.226	2.61
419.434	2.66
419.642	2.38
419.849	2.66
420.057	2.96
420.265	2.8
420.472	2.51
420.68	2.7
420.887	2.52
421.095	2.38
421.302	2.35
421.51	2.63
421.717	2.69
421.925	2.79
422.132	2.68
422.34	2.58
422.547	2.5
422.755	2.32
422.962	2.34
423.17	2.33
423.377	2.41
423.585	2.38
423.792	2.47
423.999	2.51
424.207	2.43
424.414	2.51
424.621	2.54
424.829	2.44
425.036	2.51
425.243	2.77
425.451	2.64
425.658	2.41
425.865	2.72
426.072	2.69
426.28	2.83
426.487	2.82
426.694	3.07
426.901	2.73
427.108	2.61
427.315	2.45
427.523	2.74
427.73	2.63
427.937	2.67
428.144	2.62
428.351	2.55
428.558	2.54
428.765	2.57
428.972	2.47
429.179	2.56
429.386	2.84
429.593	2.54
429.8	2.35
430.007	2.52
430.214	2.48
430.421	2.13
430.628	2.14
430.835	2.03
431.042	2.25
431.249	2.41
431.456	2.51
431.662	2.66
431.869	2.95
432.076	2.87
432.283	2.87
432.49	2.85
432.697	2.76
432.903	2.62
433.11	2.55
433.317	2.6
433.524	2.8
433.73	2.85
433.937	2.98
434.144	2.99
434.35	2.86
434.557	2.69
434.764	2.69
434.97	2.6
435.177	2.71
435.384	2.72
435.59	2.8
435.797	2.96
436.003	3.02
436.21	2.97
436.416	3.04
436.623	2.96
436.829	3.01
437.036	3.17
437.242	3.18
437.449	3.08
437.655	3.13
437.862	3.09
438.068	2.98
438.275	3.08
438.481	3.33
438.687	3.26
438.894	3.23
439.1	3.22
439.307	3.32
439.513	3.19
439.719	3.24
439.926	3.32
440.132	3.32
440.338	3.11
440.544	3.22
440.751	3.14
440.957	3.11
441.163	3.02
441.369	3.09
441.575	2.84
441.782	2.88
441.988	2.81
442.194	2.86
442.4	2.86
442.606	3.2
442.812	3.29
443.018	3.34
443.224	3.38
443.431	3.53
443.637	3.22
443.843	3.12
444.049	3.17
444.255	3.13
444.461	3.09
444.667	3.13
444.873	3.28
445.079	3.21
445.284	3.28
445.49	3.01
445.696	2.84
445.902	2.69
446.108	2.71
446.314	2.66
446.52	2.78
446.726	3.08
446.931	3.15
447.137	3.11
447.343	3.17
447.549	3.13
447.755	3.02
447.96	3.03
448.166	3.03
448.372	2.95
448.578	3.02
448.783	3
448.989	3.11
449.195	3.25
449.4	3.29
449.606	3.21
449.812	3.11
450.017	3.12
450.223	2.98
450.428	2.91
450.634	3.08
450.84	3.3
451.045	3.19
451.251	3.15
451.456	3.42
451.662	3.38
451.867	3.39
452.073	3.32
452.278	3.43
452.483	3.46
452.689	3.37
452.894	3.41
453.1	3.46
453.305	3.41
453.51	3.3
453.716	3.26
453.921	3.26
454.127	3.26
454.332	3.23
454.537	3.12
454.742	3.19
454.948	3.08
455.153	3.12
455.358	3.22
455.563	3.37
455.769	3.49
455.974	3.51
456.179	3.38
456.384	3.33
456.589	3.24
456.795	3
457	3.01
457.205	3.36
457.41	3.39
457.615	3.41
457.82	3.52
458.025	3.51
458.23	3.23
458.435	3.24
458.64	3.09
458.845	3.28
459.05	3.26
459.255	3.29
459.46	3.32
459.665	3.4
459.87	3.32
460.075	3.32
460.28	3.38
460.485	3.42
460.69	3.44
460.895	3.23
461.099	3.21
461.304	3.3
461.509	3.32
461.714	3.25
461.919	3.51
462.123	3.38
462.328	3.41
462.533	3.26
462.738	3.4
462.942	3.23
