Data from Ofra_1a_PS_8HS23_Reflection_1.txt Node
Date: Tue Jul 20 11:02:35 EDT 2021
User: Adam
Spectrometer: FLMT01687
Trigger mode: 0
Integration Time (sec): 1.004000E0
Scans to average: 2
Electric dark correction enabled: true
Nonlinearity correction enabled: false
Boxcar width: 2
XAxis mode: Wavelengths
Number of Pixels in Spectrum: 3648
>>>>>Begin Spectral Data<<<<<
179.494	-643.15
179.716	-719.85
179.937	1480.6
180.158	-2040.13
180.38	207.42
180.601	73.83
180.823	62.33
181.044	73.17
181.265	-91.89
181.486	97.53
181.708	48.53
181.929	-4918.18
182.15	45.84
182.372	-12.32
182.593	36.49
182.814	-101.7
183.035	-39.04
183.257	16.13
183.478	-13.44
183.699	-15.56
183.92	-57.83
184.141	-61.08
184.363	-50.11
184.584	-51.45
184.805	-44.44
185.026	14.36
185.247	18.37
185.468	-11.06
185.689	1.49
185.91	7.1
186.132	23.12
186.353	20.25
186.574	19.63
186.795	10.82
187.016	28.96
187.237	7.37
187.458	-11.74
187.679	-5.35
187.9	-1.97
188.121	-37.04
188.342	-8.81
188.563	0.33
188.784	36.55
189.005	19.1
189.226	15.91
189.447	0.93
189.667	-11.01
189.888	-39.36
190.109	-41.79
190.33	-12.21
190.551	-20.94
190.772	-7.23
190.993	6.53
191.214	-15.98
191.434	-30.56
191.655	-29.87
191.876	25.24
192.097	29.48
192.318	59.81
192.538	25.45
192.759	18.62
192.98	21.23
193.201	13.14
193.421	11.36
193.642	27.23
193.863	47.41
194.083	4.35
194.304	7.05
194.525	1.54
194.745	-3.69
194.966	-5.79
195.187	7.29
195.407	-2.49
195.628	-0.52
195.848	0.22
196.069	-12.69
196.29	-1.46
196.51	-9.69
196.731	-18.35
196.951	-7.41
197.172	-1.46
197.392	-19.05
197.613	13.62
197.833	-6.68
198.054	-28.51
198.274	-38.54
198.495	-21.55
198.715	-55.13
198.936	-16.97
199.156	-14.67
199.377	-13.48
199.597	-3.56
199.817	-9.05
200.038	-22.83
200.258	10.08
200.479	21.34
200.699	17.26
200.919	17.15
201.14	18.29
201.36	-2.55
201.58	-10.29
201.801	-5.93
202.021	-33.3
202.241	-50.44
202.461	-38.12
202.682	-28.99
202.902	-19.48
203.122	1.73
203.342	6.23
203.563	-18.6
203.783	-33.16
204.003	-52.88
204.223	-20.76
204.443	-10.74
204.663	2.06
204.884	7.67
205.104	17.02
205.324	8.71
205.544	-23.33
205.764	29.96
205.984	34.98
206.204	24.95
206.424	-2.22
206.644	-11.77
206.864	-49.6
207.084	-36.53
207.304	-35.63
207.525	-29.24
207.745	-9.57
207.964	-8.55
208.184	6.69
208.404	-0.55
208.624	-4
208.844	-8.28
209.064	-10.11
209.284	-21.76
209.504	-41.99
209.724	-35.71
209.944	-50.19
210.164	-52.23
210.384	-57.41
210.604	-86.66
210.823	-57.7
211.043	-20.03
211.263	-52.2
211.483	-31.5
211.703	-3.81
211.922	-21.3
212.142	-15.62
212.362	2.72
212.582	7
212.801	-6.84
213.021	-10.49
213.241	-41.22
213.461	-38.76
213.68	-32.17
213.9	-24.86
214.12	-31.3
214.339	-18.78
214.559	-22.87
214.779	-11.36
214.998	-18.48
215.218	-2.75
215.438	9.46
215.657	12.95
215.877	-4.71
216.096	15.47
216.316	10.37
216.535	9.84
216.755	15.81
216.974	8.46
217.194	-8.53
217.413	2.4
217.633	-29.11
217.852	-29.03
218.072	-9.96
218.291	-11.65
218.511	-28.83
218.73	-21.13
218.95	-53.96
219.169	-76.97
219.389	-39.97
219.608	-46.3
219.827	-30.73
220.047	-1.49
220.266	-18.32
220.485	-41.07
220.705	-4.18
220.924	-3.58
221.143	1.45
221.363	23.43
221.582	26.95
221.801	40.7
222.021	43.41
222.24	47.79
222.459	68.55
222.678	61.8
222.897	28.47
223.117	36.61
223.336	36.14
223.555	24.43
223.774	35.49
223.993	68.95
224.213	78.13
224.432	52.84
224.651	26.2
224.87	18.46
225.089	14.3
225.308	18.24
225.527	18.1
225.746	27.11
225.965	6.36
226.184	9.51
226.404	-23.09
226.623	-15.8
226.842	-14.53
227.061	-19.52
227.28	2.42
227.499	19.02
227.718	22.28
227.936	21.95
228.155	32.53
228.374	14.23
228.593	16.84
228.812	14.66
229.031	27
229.25	10.38
229.469	9.76
229.688	10.64
229.907	9.63
230.125	5.36
230.344	20.83
230.563	28.5
230.782	21.51
231.001	23.23
231.22	18.14
231.438	14.56
231.657	16.98
231.876	12.45
232.095	20.82
232.313	12.35
232.532	9.49
232.751	-1.33
232.969	1.58
233.188	-12.19
233.407	0.85
233.625	-1.74
233.844	5.22
234.063	-0.49
234.281	10.56
234.5	3.7
234.719	6.21
234.937	-15.09
235.156	-1.93
235.374	-10.8
235.593	12.78
235.811	29.25
236.03	40.04
236.249	39.15
236.467	41.6
236.686	23.32
236.904	13.58
237.123	-1.75
237.341	-5.12
237.559	-16.53
237.778	5.08
237.996	-18.92
238.215	-32.57
238.433	-64.09
238.652	-6.55
238.87	0.6
239.088	21.34
239.307	22.03
239.525	23.83
239.743	7.39
239.962	-8.09
240.18	0.01
240.398	2.56
240.617	-6.54
240.835	11.8
241.053	29.64
241.271	29.23
241.49	37.51
241.708	33.9
241.926	25.38
242.144	18.09
242.363	7.97
242.581	-77.5
242.799	-63.03
243.017	-37.89
243.235	-27.57
243.453	-32.06
243.672	9.37
243.89	12.44
244.108	29.72
244.326	38.07
244.544	42.23
244.762	24.56
244.98	22.81
245.198	18.43
245.416	13.02
245.634	5.2
245.852	6.87
246.07	21.6
246.288	24.19
246.506	18.13
246.724	13.72
246.942	16.02
247.16	-2.21
247.378	-27.81
247.596	-12.47
247.814	-10.64
248.032	-9.77
248.25	19.97
248.468	27.25
248.685	26.1
248.903	17.8
249.121	16.78
249.339	5.3
249.557	3.18
249.775	0.66
249.992	5.1
250.21	3.01
250.428	22.63
250.646	17.03
250.863	13.64
251.081	23.28
251.299	25.77
251.517	14.93
251.734	8.74
251.952	11.4
252.17	-1.74
252.387	-17.67
252.605	-28.41
252.823	-37.73
253.04	-35.46
253.258	-7.3
253.475	17.52
253.693	40.09
253.911	17.03
254.128	1.09
254.346	-0.52
254.563	10.58
254.781	-8.86
254.998	0.42
255.216	-18.2
255.433	-60.02
255.651	-67.13
255.868	-51.06
256.086	-25.79
256.303	-13.44
256.521	13.79
256.738	12.01
256.956	1.82
257.173	-17.05
257.39	-0.94
257.608	-7.64
257.825	-9.49
258.043	1.95
258.26	7.42
258.477	11.71
258.695	13.5
258.912	-2.16
259.129	-14.8
259.346	-13.53
259.564	-46.12
259.781	-48.53
259.998	-4.6
260.216	4.98
260.433	3.88
260.65	4.7
260.867	-6.4
261.084	-18.01
261.302	-33.85
261.519	-11.41
261.736	1.04
261.953	14.35
262.17	29.06
262.387	36.87
262.604	21.06
262.822	25.86
263.039	31.93
263.256	28.08
263.473	24.76
263.69	22.35
263.907	19.01
264.124	5.8
264.341	-0.47
264.558	-5.61
264.775	7.54
264.992	8.45
265.209	-9.73
265.426	-15.13
265.643	-16.6
265.86	-33.41
266.077	-25.38
266.294	-11.58
266.51	8.35
266.727	7.99
266.944	18.6
267.161	16.85
267.378	20.55
267.595	10.84
267.812	3.52
268.028	-19.35
268.245	-16.3
268.462	-16.09
268.679	-11.86
268.896	14.3
269.112	9.67
269.329	-11.92
269.546	5.38
269.763	2.02
269.979	-20.75
270.196	-2.39
270.413	-7
270.629	-19.23
270.846	-12.02
271.063	-13.97
271.279	-32.26
271.496	-24.31
271.712	-8.62
271.929	-0.31
272.146	12.34
272.362	17.88
272.579	18.46
272.795	27.86
273.012	32.32
273.228	32.87
273.445	22.65
273.661	20.41
273.878	-3.5
274.094	-36.17
274.311	-36.79
274.527	-38.62
274.744	-8.73
274.96	6.82
275.177	42.94
275.393	54.84
275.609	64.35
275.826	58.74
276.042	53.56
276.259	41.26
276.475	30.44
276.691	6.01
276.908	4.25
277.124	6.3
277.34	-6.7
277.557	-15.43
277.773	2.96
277.989	1.34
278.205	1.34
278.422	-2.15
278.638	-1.03
278.854	-7.58
279.07	7.18
279.286	8.08
279.503	19.55
279.719	37.68
279.935	36.74
280.151	24.24
280.367	36.92
280.583	35.51
280.799	15.77
281.016	-0.38
281.232	15.18
281.448	-7.34
281.664	-0.82
281.88	16.43
282.096	25.39
282.312	14.52
282.528	23.42
282.744	24.49
282.96	-2.11
283.176	-31.59
283.392	-55.25
283.608	-67.35
283.824	-96.91
284.04	-136.18
284.256	-54.49
284.471	-31.91
284.687	-22.39
284.903	-24
285.119	15.09
285.335	15.16
285.551	23.27
285.767	15.1
285.982	35.91
286.198	-19.13
286.414	-17.34
286.63	-25.64
286.846	24.77
287.061	38.63
287.277	57.8
287.493	57.54
287.709	41.72
287.924	28.02
288.14	25.81
288.356	25.96
288.571	19.4
288.787	21
289.003	31.1
289.218	12.39
289.434	10.29
289.65	16.81
289.865	23.52
290.081	9.2
290.296	23.88
290.512	16.46
290.727	-1.45
290.943	-5.33
291.159	-14.09
291.374	-59.11
291.59	-43.08
291.805	-49.16
292.021	-49.38
292.236	-54.42
292.451	-13.96
292.667	-23.75
292.882	0.8
293.098	3.03
293.313	14.61
293.529	12.75
293.744	6.13
293.959	-14.5
294.175	-26.92
294.39	-39.55
294.605	-21.44
294.821	-11.99
295.036	1.97
295.251	16.56
295.467	21
295.682	21.25
295.897	6.51
296.112	0.18
296.328	-1.11
296.543	-11.95
296.758	-8.45
296.973	12.14
297.188	11.89
297.404	11.13
297.619	21.56
297.834	-18.45
298.049	-29.32
298.264	-19.55
298.479	-19.44
298.694	23.63
298.909	29.08
299.125	22.7
299.34	26.17
299.555	31.89
299.77	22.12
299.985	23.41
300.2	29.18
300.415	32.16
300.63	26.86
300.845	20.61
301.06	18.17
301.275	20.51
301.49	23.14
301.704	28.98
301.919	16.49
302.134	18.5
302.349	14.76
302.564	13.68
302.779	10.8
302.994	41.07
303.209	36.44
303.423	41.26
303.638	25.39
303.853	15.66
304.068	-19.3
304.283	1.47
304.497	-24.41
304.712	-1.84
304.927	-3.88
305.142	13.23
305.356	13.48
305.571	23.4
305.786	25.16
306	51.73
306.215	33.6
306.43	21.32
306.644	24.87
306.859	11.95
307.074	13.76
307.288	13.77
307.503	20.63
307.717	-1.36
307.932	5.94
308.147	-6.04
308.361	-12.05
308.576	-36.71
308.79	-22.35
309.005	-22.07
309.219	-13.28
309.434	-1.31
309.648	-1.49
309.863	7.49
310.077	4.94
310.292	12.75
310.506	-5.35
310.72	9.09
310.935	15.99
311.149	20.65
311.364	18.99
311.578	37.96
311.792	30.89
312.007	22.24
312.221	-6.39
312.435	-1.91
312.649	3.77
312.864	16.84
313.078	20.01
313.292	31.29
313.507	42.07
313.721	29.99
313.935	22.28
314.149	15.57
314.363	20.5
314.578	7.97
314.792	-23.01
315.006	-19.36
315.22	-1.54
315.434	-4.7
315.648	-2.5
315.862	4.76
316.077	1.66
316.291	-1.92
316.505	-19.45
316.719	-20.23
316.933	6.53
317.147	18.96
317.361	24.34
317.575	40.55
317.789	38.58
318.003	21.23
318.217	16.06
318.431	14.33
318.645	5.61
318.859	11.46
319.073	19.47
319.287	16.67
319.5	16.51
319.714	16.14
319.928	10.25
320.142	14.18
320.356	29.62
320.57	6.4
320.784	-1.82
320.997	-19.18
321.211	1.24
321.425	-42.03
321.639	-0.67
321.853	17.28
322.066	21.41
322.28	-0.98
322.494	12.14
322.707	11.09
322.921	2.48
323.135	8.16
323.349	11.37
323.562	21.69
323.776	13.55
323.989	29.54
324.203	16.82
324.417	8.9
324.63	-1.62
324.844	-11.81
325.057	-66.71
325.271	-50.48
325.485	-50.74
325.698	-33.2
325.912	0.17
326.125	15.64
326.339	20.99
326.552	22.65
326.766	20.01
326.979	13.64
327.193	13.13
327.406	1.15
327.619	1.33
327.833	0.18
328.046	4.66
328.26	-1.25
328.473	7.63
328.686	13.98
328.9	25.04
329.113	3.63
329.326	11.54
329.54	16.42
329.753	23.3
329.966	14
330.179	16.12
330.393	15.69
330.606	9.53
330.819	-13.87
331.032	-24.45
331.246	-12.18
331.459	-3.33
331.672	-10.25
331.885	3.11
332.098	20.2
332.311	22.49
332.525	6.47
332.738	14.04
332.951	7.08
333.164	0.89
333.377	1.85
333.59	-4.45
333.803	-7.78
334.016	4.36
334.229	10.76
334.442	2.78
334.655	7.84
334.868	-3.1
335.081	-9.46
335.294	-12.05
335.507	-1.51
335.72	2.74
335.933	12.27
336.146	15.34
336.359	10.99
336.572	6.64
336.785	-7.89
336.997	-18.81
337.21	-20.28
337.423	-52.82
337.636	-38.42
337.849	-28.33
338.062	-9.62
338.274	6.88
338.487	7.41
338.7	-5.17
338.913	11.29
339.125	-1.32
339.338	-14.22
339.551	4.6
339.763	14.52
339.976	10.32
340.189	-2.02
340.402	-2.67
340.614	1.59
340.827	4.59
341.039	1.64
341.252	10.16
341.465	6.66
341.677	-5.27
341.89	-19.03
342.102	-13.89
342.315	-17.03
342.527	-3.94
342.74	-17.75
342.952	-4.44
343.165	0.56
343.377	9.96
343.59	-0.63
343.802	22.23
344.015	30.29
344.227	26.53
344.44	15.94
344.652	23.87
344.864	12.56
345.077	18.46
345.289	20.53
345.502	44.5
345.714	44.22
345.926	67.98
346.139	30.49
346.351	30.71
346.563	21.47
346.775	27.42
346.988	13.02
347.2	24.59
347.412	29.34
347.624	27.34
347.837	19.63
348.049	22.44
348.261	14.55
348.473	1.96
348.685	7.55
348.897	-12.66
349.11	-13.52
349.322	-2.79
349.534	6.82
349.746	9.31
349.958	14.23
350.17	22.95
350.382	24.66
350.594	15.29
350.806	13.37
351.018	14.55
351.23	11.92
351.442	20.18
351.654	25.03
351.866	16.02
352.078	26.42
352.29	32.19
352.502	15.72
352.714	15
352.926	16.62
353.138	33.04
353.35	15.07
353.561	25.72
353.773	12.93
353.985	18.01
354.197	-4.94
354.409	-2.72
354.621	-18.8
354.832	-8.64
355.044	-25.96
355.256	-17.05
355.468	-23.85
355.679	0.54
355.891	6.45
356.103	9.13
356.314	11.45
356.526	8.61
356.738	-5.9
356.949	-15.9
357.161	1.12
357.373	1.34
357.584	13.55
357.796	20.53
358.008	27.56
358.219	22.59
358.431	27.86
358.642	31.32
358.854	26.68
359.065	6.11
359.277	3.68
359.488	-3.51
359.7	-5.72
359.911	-23.8
360.123	-3.19
360.334	-3.67
360.546	-11.08
360.757	-10.75
360.969	6.8
361.18	5.26
361.391	9.67
361.603	2.15
361.814	8.45
362.025	13.22
362.237	17.71
362.448	15.81
362.659	13.43
362.871	-13.74
363.082	-27.83
363.293	-42.58
363.504	-52.76
363.716	-28.01
363.927	9.21
364.138	1.14
364.349	-22.63
364.56	-36.02
364.772	-29.21
364.983	-23.6
365.194	-6.26
365.405	14.23
365.616	25.98
365.827	13.67
366.038	7.63
366.25	10.76
366.461	11.85
366.672	16.23
366.883	14.55
367.094	8.47
367.305	-9.32
367.516	-9.21
367.727	-26.65
367.938	-22.55
368.149	-29.85
368.36	-24.17
368.571	-26.28
368.781	-25.53
368.992	-12.12
369.203	3.05
369.414	9.1
369.625	11.11
369.836	31.3
370.047	25.64
370.258	28.07
370.468	20.04
370.679	12.41
370.89	-11.06
371.101	5.89
371.312	5.28
371.522	1.68
371.733	-4.03
371.944	-7.37
372.155	-3.47
372.365	-2.37
372.576	-1.98
372.787	-1.84
372.997	4.29
373.208	-14.17
373.419	-12.14
373.629	-21.72
373.84	-24.69
374.05	-26.3
374.261	-28.53
374.472	-32.4
374.682	-8.77
374.893	-11.34
375.103	3.35
375.314	14.08
375.524	16.29
375.735	13.55
375.945	20.51
376.156	7.82
376.366	3.05
376.577	3.88
376.787	4.78
376.997	9.22
377.208	6.03
377.418	4.04
377.629	1.55
377.839	-0.9
378.049	-3.1
378.26	0.11
378.47	2.85
378.68	5.35
378.89	6.53
379.101	5.71
379.311	9.18
379.521	3.33
379.732	2.57
379.942	5.06
380.152	0.55
380.362	0.12
380.572	7.54
380.783	15.47
380.993	11.2
381.203	6.17
381.413	3.2
381.623	2.39
381.833	-3.52
382.043	-7.16
382.253	-0.19
382.463	8.42
382.674	13.22
382.884	17.54
383.094	24.13
383.304	28.16
383.514	25.39
383.724	20.97
383.934	12.7
384.144	8.21
384.353	10.32
384.563	4.94
384.773	10.42
384.983	6.37
385.193	3.11
385.403	-2.21
385.613	10.71
385.823	4.43
386.033	4.13
386.242	2.31
386.452	2.54
386.662	-8.61
386.872	-6.14
387.082	-3.37
387.291	-5.52
387.501	-5.67
387.711	-3.17
387.921	-4.55
388.13	0.81
388.34	8.6
388.55	8.52
388.759	1.26
388.969	0.43
389.179	-0.96
389.388	-4.96
389.598	-7.39
389.807	-3.74
390.017	-2.98
390.227	-5.99
390.436	-3.2
390.646	0.77
390.855	2.16
391.065	2.99
391.274	3.64
391.484	1.09
391.693	-2.7
391.903	-2.36
392.112	-3.23
392.322	-3.83
392.531	-2.97
392.74	-1.67
392.95	0.05
393.159	1.3
393.369	3.16
393.578	2.71
393.787	2.09
393.997	1.23
394.206	0.18
394.415	1.97
394.625	2.51
394.834	1.54
395.043	3.38
395.252	6.11
395.462	5.41
395.671	5.33
395.88	7.77
396.089	5.59
396.298	3.59
396.508	2.89
396.717	2.38
396.926	1.48
397.135	2.19
397.344	1.91
397.553	1.99
397.762	3.46
397.971	3.18
398.181	3.28
398.39	3.25
398.599	3.49
398.808	3.05
399.017	3.98
399.226	3.8
399.435	3.74
399.644	3.86
399.853	3.85
400.062	3.65
400.27	3.52
400.479	3.83
400.688	3.7
400.897	3.74
401.106	3.47
401.315	3.72
401.524	3.91
401.733	3.27
401.941	3.43
402.15	3.53
402.359	3.53
402.568	3.57
402.777	4.35
402.985	3.9
403.194	3.63
403.403	3.72
403.612	3.43
403.82	2.8
404.029	2.97
404.238	3.19
404.446	3.48
404.655	3.55
404.864	3.77
405.072	3.73
405.281	3.72
405.489	3.37
405.698	3.53
405.906	3.59
406.115	3.52
406.324	3.57
406.532	3.71
406.741	3.65
406.949	3.66
407.158	3.8
407.366	3.63
407.574	3.57
407.783	3.43
407.991	3.38
408.2	3.35
408.408	3.34
408.617	3.23
408.825	3.23
409.033	3.26
409.242	3.31
409.45	3.33
409.658	3.28
409.867	3.31
410.075	3.29
410.283	3.2
410.491	3.1
410.7	3.1
410.908	3.07
411.116	3.05
411.324	3.05
411.533	3.14
411.741	3.14
411.949	3.25
412.157	3.17
412.365	3.17
412.573	3.24
412.781	3.16
412.99	3.12
413.198	3.18
413.406	3.19
413.614	3.25
413.822	3.33
414.03	3.27
414.238	3.4
414.446	3.39
414.654	3.19
414.862	3.18
415.07	3.21
415.278	3.15
415.486	3
415.694	3.1
415.902	3.1
416.109	2.95
416.317	2.94
416.525	2.98
416.733	2.92
416.941	2.87
417.149	2.86
417.357	2.8
417.564	2.84
417.772	2.95
417.98	3.14
418.188	3.02
418.395	2.89
418.603	2.72
418.811	2.54
419.019	2.33
419.226	2.57
419.434	2.77
419.642	2.74
419.849	2.7
420.057	2.76
420.265	2.78
420.472	2.7
420.68	2.99
420.887	3.02
421.095	3.08
421.302	3.08
421.51	3.01
421.717	2.89
421.925	2.98
422.132	2.75
422.34	2.54
422.547	2.55
422.755	2.59
422.962	2.67
423.17	2.62
423.377	2.82
423.585	2.8
423.792	2.78
423.999	2.56
424.207	2.63
424.414	2.53
424.621	2.59
424.829	2.67
425.036	2.87
425.243	2.91
425.451	3.01
425.658	2.95
425.865	2.89
426.072	2.76
426.28	2.82
426.487	2.76
426.694	2.64
426.901	2.66
427.108	2.51
427.315	2.49
427.523	2.4
427.73	2.55
427.937	2.43
428.144	2.55
428.351	2.57
428.558	2.71
428.765	2.62
428.972	2.76
429.179	2.69
429.386	2.64
429.593	2.55
429.8	2.68
430.007	2.78
430.214	2.9
430.421	3.05
430.628	3
430.835	2.92
431.042	2.75
431.249	2.86
431.456	2.62
431.662	2.82
431.869	3.12
432.076	3.17
432.283	3.28
432.49	3.35
432.697	3.24
432.903	2.97
433.11	3.05
433.317	2.98
433.524	3.23
433.73	3.22
433.937	3.35
434.144	3.23
434.35	3.09
434.557	3.01
434.764	3.07
434.97	2.95
435.177	3.13
435.384	3.21
435.59	3.11
435.797	3.15
436.003	3.32
436.21	3.2
436.416	3.23
436.623	3.35
436.829	3.36
437.036	3.27
437.242	3.35
437.449	3.38
437.655	3.42
437.862	3.45
438.068	3.37
438.275	3.45
438.481	3.51
438.687	3.4
438.894	3.54
439.1	3.61
439.307	3.64
439.513	3.65
439.719	3.79
439.926	3.68
440.132	3.74
440.338	3.69
440.544	3.68
440.751	3.52
440.957	3.63
441.163	3.59
441.369	3.61
441.575	3.58
441.782	3.77
441.988	3.78
442.194	3.79
442.4	3.75
442.606	3.91
442.812	3.86
443.018	3.8
443.224	3.92
443.431	3.94
443.637	3.85
443.843	3.88
444.049	3.94
444.255	3.89
444.461	3.85
444.667	3.83
444.873	3.84
445.079	3.79
445.284	3.83
445.49	3.84
445.696	3.85
445.902	3.87
446.108	3.84
446.314	3.81
446.52	3.94
446.726	3.92
446.931	3.83
447.137	3.94
447.343	4.03
447.549	4.08
447.755	4.02
447.96	4.15
448.166	4.04
448.372	3.94
448.578	3.86
448.783	4.01
448.989	4.03
449.195	4.14
449.4	4.29
449.606	4.27
449.812	4.15
450.017	4.08
450.223	3.98
450.428	3.97
450.634	3.95
450.84	3.98
451.045	4.03
451.251	4.18
451.456	4.17
451.662	4.24
451.867	4.27
452.073	4.31
452.278	4.25
452.483	4.24
452.689	4.25
452.894	4.25
453.1	4.26
453.305	4.26
453.51	4.34
453.716	4.28
453.921	4.37
454.127	4.34
454.332	4.35
454.537	4.29
454.742	4.35
454.948	4.34
455.153	4.34
455.358	4.37
455.563	4.51
455.769	4.48
455.974	4.51
456.179	4.46
456.384	4.37
456.589	4.25
456.795	4.23
457	4.19
457.205	4.18
457.41	4.23
457.615	4.26
457.82	4.4
458.025	4.42
458.23	4.55
458.435	4.59
458.64	4.53
458.845	4.44
459.05	4.5
459.255	4.44
459.46	4.47
459.665	4.53
459.87	4.44
460.075	4.49
460.28	4.51
460.485	4.57
460.69	4.59
460.895	4.75
461.099	4.55
461.304	4.57
461.509	4.48
461.714	4.47
461.919	4.41
462.123	4.57
462.328	4.51
462.533	4.48
462.738	4.45
462.942	4.41
463.147	4.34
463.352	4.48
463.556	4.57
463.761	4.6
463.966	4.62
464.17	4.78
464.375	4.8
464.58	4.76
464.784	4.81
464.989	4.86
465.193	4.81
465.398	4.72
465.602	4.96
465.807	4.97
466.011	4.99
466.216	4.97
466.42	5.07
466.625	5.04
466.829	5.06
467.034	5.15
467.238	5.26
