Data from Ofra_1a_PS_2GT70_Reflection_1.txt Node
Date: Tue Jul 20 10:51:33 EDT 2021
User: Adam
Spectrometer: FLMT01687
Trigger mode: 0
Integration Time (sec): 1.004000E0
Scans to average: 2
Electric dark correction enabled: true
Nonlinearity correction enabled: false
Boxcar width: 2
XAxis mode: Wavelengths
Number of Pixels in Spectrum: 3648
>>>>>Begin Spectral Data<<<<<
179.494	-383.76
179.716	-382.44
179.937	698.33
180.158	-374.52
180.38	26.63
180.601	-26.94
180.823	-63.5
181.044	-119.82
181.265	-200.48
181.486	103.6
181.708	54.5
181.929	4581.82
182.15	-145.56
182.372	662.07
182.593	344.29
182.814	-334.13
183.035	-48.58
183.257	-9.74
183.478	-23.95
183.699	-72.34
183.92	-78.4
184.141	-70.65
184.363	-57.3
184.584	-83.93
184.805	-25.6
185.026	28.27
185.247	18.14
185.468	-20.54
185.689	-1.47
185.91	-18.76
186.132	-47.88
186.353	-52.55
186.574	-31.95
186.795	-28.89
187.016	-1.97
187.237	-1.41
187.458	22.96
187.679	12.97
187.9	46.26
188.121	62.23
188.342	61.24
188.563	53.76
188.784	60.03
189.005	13.66
189.226	26.49
189.447	27.02
189.667	15.21
189.888	-6.73
190.109	-23.89
190.33	-27.29
190.551	-40.31
190.772	-29.53
190.993	-34.98
191.214	-10.32
191.434	-13.26
191.655	-43.29
191.876	-21.36
192.097	47.99
192.318	43.09
192.538	-14
192.759	-13.02
192.98	7.68
193.201	-4.66
193.421	-21.44
193.642	14.83
193.863	19.14
194.083	-5.29
194.304	-18.1
194.525	3.04
194.745	-13.22
194.966	-3.63
195.187	-7.11
195.407	-12.76
195.628	-10.2
195.848	-8
196.069	-12.47
196.29	-6.16
196.51	-12.62
196.731	-11.55
196.951	-20.66
197.172	-18.96
197.392	-17.01
197.613	11.07
197.833	-0.21
198.054	-17.98
198.274	-10.89
198.495	-6.53
198.715	-19.39
198.936	11.18
199.156	30.4
199.377	30.2
199.597	23.85
199.817	15.42
200.038	-37.13
200.258	-20.35
200.479	-30.39
200.699	-35.54
200.919	-25.94
201.14	-9.25
201.36	-24.06
201.58	-39.68
201.801	-43.56
202.021	-29.48
202.241	-14.37
202.461	7.22
202.682	30.82
202.902	39.41
203.122	34.18
203.342	42.39
203.563	26.11
203.783	16.36
204.003	-5.13
204.223	2.35
204.443	-6.94
204.663	-6.1
204.884	-1
205.104	3.27
205.324	-6.41
205.544	-32.56
205.764	-9.36
205.984	-29.81
206.204	-28.72
206.424	-52.65
206.644	-42.97
206.864	-63.36
207.084	-19.78
207.304	-20.1
207.525	-9.27
207.745	22.04
207.964	30.2
208.184	65.05
208.404	57.4
208.624	68.6
208.844	47.92
209.064	39.66
209.284	0.95
209.504	-23.7
209.724	-45.24
209.944	-38.49
210.164	-40.57
210.384	-24.2
210.604	-79.66
210.823	-77.49
211.043	-74.98
211.263	-148.68
211.483	-114.66
211.703	-38.1
211.922	-58.32
212.142	-28.43
212.362	-3.19
212.582	-2.84
212.801	-16.71
213.021	6.74
213.241	-9.14
213.461	12.38
213.68	23.23
213.9	21.82
214.12	27.47
214.339	26.55
214.559	10.1
214.779	2.47
214.998	-19.5
215.218	-21.74
215.438	-11.29
215.657	-29.52
215.877	-38.68
216.096	-7.56
216.316	-4.92
216.535	-25.93
216.755	-8.98
216.974	-3.9
217.194	-31.59
217.413	-18.43
217.633	-10.87
217.852	-12.47
218.072	-12.42
218.291	-6.82
218.511	-8.84
218.73	-22.86
218.95	-39.99
219.169	-37.6
219.389	-12.25
219.608	-13.35
219.827	10.04
220.047	13.58
220.266	12.23
220.485	1.84
220.705	10.51
220.924	6.83
221.143	34.46
221.363	39.16
221.582	32.87
221.801	21.84
222.021	26.41
222.24	27.99
222.459	43.95
222.678	45.67
222.897	59.05
223.117	79.24
223.336	81.71
223.555	61.26
223.774	66.96
223.993	44.15
224.213	10.51
224.432	10.85
224.651	11.75
224.87	16.23
225.089	24.17
225.308	39.89
225.527	30.38
225.746	27.95
225.965	27.81
226.184	14.55
226.404	-12.27
226.623	-11.27
226.842	-14.99
227.061	-7.92
227.28	3.4
227.499	4.13
227.718	0
227.936	11.39
228.155	7.7
228.374	5.21
228.593	18.13
228.812	28.57
229.031	26.32
229.25	0
229.469	-1.29
229.688	-8.71
229.907	-2.19
230.125	-2.5
230.344	15.33
230.563	13.7
230.782	14.14
231.001	14.99
231.22	23.26
231.438	22.42
231.657	35.6
231.876	41.36
232.095	40.16
232.313	29.28
232.532	23.69
232.751	-3.85
232.969	-8.38
233.188	-4.65
233.407	10.55
233.625	14.88
233.844	29.41
234.063	29.58
234.281	26.91
234.5	12.92
234.719	14.88
234.937	2.69
235.156	0
235.374	-0.71
235.593	21.7
235.811	31.04
236.03	36.63
236.249	40.75
236.467	41.31
236.686	29.42
236.904	22.86
237.123	8.33
237.341	-10.87
237.559	-36.36
237.778	-15.99
237.996	-41.68
238.215	-78.08
238.433	-71.2
238.652	29.58
238.87	13.14
239.088	22.22
239.307	41.61
239.525	33.95
239.743	0.7
239.962	-9.77
240.18	11.63
240.398	5.87
240.617	-3.04
240.835	11.2
241.053	30.65
241.271	13.58
241.49	19.09
241.708	17.78
241.926	14.55
242.144	15.9
242.363	-15.89
242.581	-22.42
242.799	-25.31
243.017	-19.38
243.235	-16.39
243.453	-23.38
243.672	-29.62
243.89	-7.1
244.108	-2.77
244.326	21.65
244.544	45.44
244.762	44.05
244.98	50.13
245.198	54.98
245.416	38.08
245.634	22.95
245.852	8.08
246.07	9.78
246.288	6.25
246.506	0.36
246.724	25.74
246.942	28.74
247.16	15.9
247.378	-0.26
247.596	24.43
247.814	-39.85
248.032	-22.97
248.25	5.63
248.468	33.02
248.685	24.68
248.903	38.27
249.121	30.51
249.339	23.36
249.557	18.66
249.775	24.43
249.992	9.43
250.21	2.21
250.428	10.86
250.646	8.23
250.863	-3.98
251.081	3.3
251.299	20.78
251.517	27.15
251.734	16.75
251.952	16.53
252.17	10.7
252.387	-4.77
252.605	-17.17
252.823	-17.7
253.04	7.04
253.258	15.65
253.475	26.76
253.693	13.7
253.911	14.89
254.128	9.46
254.346	17.26
254.563	19.51
254.781	27.72
254.998	32.45
255.216	19.53
255.433	-23.49
255.651	-11.28
255.868	-12.77
256.086	-7.72
256.303	-5.15
256.521	11.09
256.738	-4.36
256.956	-5.4
257.173	-22.93
257.39	-13.55
257.608	-4.37
257.825	0
258.043	11.49
258.26	14.54
258.477	12.95
258.695	3.27
258.912	-8.88
259.129	-28.18
259.346	-44.24
259.564	-47.85
259.781	-61.19
259.998	-27.69
260.216	-5.5
260.433	5.2
260.65	7.66
260.867	26.17
261.084	28.96
261.302	25.98
261.519	32.06
261.736	23.4
261.953	16.01
262.17	30.05
262.387	26.58
262.604	25.44
262.822	38.91
263.039	38.59
263.256	25.78
263.473	33.29
263.69	25.6
263.907	32.25
264.124	48.64
264.341	43.36
264.558	24.29
264.775	24.37
264.992	13.35
265.209	-10.13
265.426	-33.05
265.643	-11.66
265.86	-12.32
266.077	-36.78
266.294	-19.26
266.51	17.75
266.727	30.54
266.944	38.36
267.161	37.56
267.378	47.11
267.595	30.25
267.812	2.98
268.028	-25.62
268.245	-14.02
268.462	-24.36
268.679	-2.77
268.896	25.57
269.112	29.13
269.329	1.42
269.546	28.45
269.763	13.29
269.979	-13.12
270.196	-1.44
270.413	12.46
270.629	-8.97
270.846	-7.59
271.063	16.97
271.279	30.97
271.496	38.03
271.712	45.95
271.929	54.23
272.146	45.52
272.362	17.86
272.579	1.94
272.795	-8.7
273.012	-18.9
273.228	12.98
273.445	8.55
273.661	28.6
273.878	23.73
274.094	34.35
274.311	18.11
274.527	10.22
274.744	15.43
274.96	21.26
275.177	7.65
275.393	24.26
275.609	41.89
275.826	33.67
276.042	22.35
276.259	21.9
276.475	7.36
276.691	3.08
276.908	-1.02
277.124	14.79
277.34	5.46
277.557	-14.83
277.773	-7.84
277.989	-0.22
278.205	-7.57
278.422	3.99
278.638	14.41
278.854	2.69
279.07	11.28
279.286	9.18
279.503	17.36
279.719	25.9
279.935	21.23
280.151	9.25
280.367	15.84
280.583	7.13
280.799	-15.76
281.016	-53.81
281.232	-39.54
281.448	-52.14
281.664	-39.96
281.88	-17.25
282.096	7.86
282.312	19.35
282.528	30.3
282.744	33.17
282.96	19.69
283.176	28.53
283.392	-42.65
283.608	-13.66
283.824	-38.71
284.04	-59.52
284.256	-32.48
284.471	-1.35
284.687	-18.67
284.903	-10.73
285.119	5.07
285.335	14.23
285.551	11.55
285.767	8.38
285.982	4.89
286.198	-12.95
286.414	-36.06
286.63	-30.73
286.846	-43.04
287.061	0.58
287.277	23.86
287.493	7.9
287.709	-3.27
287.924	20.95
288.14	13.43
288.356	29.9
288.571	36.05
288.787	35.04
289.003	42.31
289.218	32.45
289.434	-8.91
289.65	8.8
289.865	14.37
290.081	9.05
290.296	21.17
290.512	37.01
290.727	22.6
290.943	12.71
291.159	6.3
291.374	-19.97
291.59	-17.42
291.805	-24.83
292.021	-30.01
292.236	-27.4
292.451	0
292.667	-7.22
292.882	8.35
293.098	28.49
293.313	20.16
293.529	8.66
293.744	-16.81
293.959	-22.5
294.175	-18.13
294.39	-24.51
294.605	2.47
294.821	18.3
295.036	22.48
295.251	21.36
295.467	17.9
295.682	15.86
295.897	8.6
296.112	0.97
296.328	5.06
296.543	11.47
296.758	0.55
296.973	-2.16
297.188	6.44
297.404	-3.13
297.619	-3.21
297.834	-46.85
298.049	-37.09
298.264	-31.47
298.479	-43.06
298.694	-11.36
298.909	0.45
299.125	-0.15
299.34	-14.2
299.555	-11.58
299.77	10.84
299.985	15.39
300.2	28.11
300.415	36.66
300.63	32.74
300.845	17.74
301.06	21.08
301.275	19
301.49	8.29
301.704	18.23
301.919	3.33
302.134	-2.64
302.349	-9.22
302.564	-2.41
302.779	-38.34
302.994	-5.8
303.209	-4.47
303.423	8.49
303.638	9.35
303.853	23.78
304.068	-9.09
304.283	1.04
304.497	-28.17
304.712	-0.56
304.927	0.42
305.142	10.81
305.356	8.05
305.571	23.53
305.786	11.21
306	24.86
306.215	21.68
306.43	14.75
306.644	-9.57
306.859	-28.63
307.074	-25.58
307.288	-6.05
307.503	14.42
307.717	24.54
307.932	28.08
308.147	29.03
308.361	16.27
308.576	5
308.79	6.64
309.005	11.85
309.219	20.94
309.434	33.07
309.648	20.23
309.863	33.52
310.077	28.1
310.292	24.78
310.506	9.94
310.72	4.34
310.935	-0.99
311.149	-1.28
311.364	-12.04
311.578	4.79
311.792	7.9
312.007	-0.97
312.221	-20
312.435	-4.05
312.649	0.68
312.864	5.99
313.078	6.91
313.292	13.55
313.507	16.95
313.721	-0.29
313.935	1.86
314.149	3.08
314.363	15.6
314.578	1.63
314.792	-3.93
315.006	-15.6
315.22	6.21
315.434	8.2
315.648	7.37
315.862	4.24
316.077	1.81
316.291	-1.94
316.505	-30.19
316.719	-12.87
316.933	8.75
317.147	13.7
317.361	5.19
317.575	11.29
317.789	19.36
318.003	22.15
318.217	39.69
318.431	41.79
318.645	47.11
318.859	38.7
319.073	42.41
319.287	22.38
319.5	24.48
319.714	11.31
319.928	3.41
320.142	-14.97
320.356	-4.93
320.57	-34.28
320.784	-20.16
320.997	-28.9
321.211	-13.61
321.425	-32.43
321.639	4.29
321.853	3
322.066	-2.71
322.28	-15.78
322.494	-6.13
322.707	-14.68
322.921	-29.73
323.135	-16.61
323.349	-15.48
323.562	-15.48
323.776	-21.41
323.989	-3.36
324.203	-8.6
324.417	7.92
324.63	-6.37
324.844	-7.99
325.057	-25
325.271	-20.24
325.485	-36.1
325.698	-6.81
325.912	5.16
326.125	13.2
326.339	27.93
326.552	30.04
326.766	19.82
326.979	22.65
327.193	23.13
327.406	-7.56
327.619	-17.63
327.833	-12.06
328.046	-5.81
328.26	-14.2
328.473	1.22
328.686	12.33
328.9	18.13
329.113	15.08
329.326	22.61
329.54	22.86
329.753	30.79
329.966	28.34
330.179	24.78
330.393	22.25
330.606	17.34
330.819	-5.52
331.032	-7.64
331.246	3.21
331.459	19.88
331.672	11.61
331.885	24.91
332.098	35.88
332.311	19.96
332.525	-1.98
332.738	10.88
332.951	11.33
333.164	10.62
333.377	17.87
333.59	31.69
333.803	30.84
334.016	15.06
334.229	16.82
334.442	6.18
334.655	2.26
334.868	-4.88
335.081	-8.82
335.294	-24.29
335.507	-17.32
335.72	-15.63
335.933	-13.39
336.146	-8.73
336.359	13.28
336.572	19.32
336.785	16.17
336.997	19.76
337.21	35.58
337.423	1.04
337.636	0.22
337.849	2.87
338.062	-2.83
338.274	10.13
338.487	15.71
338.7	5.51
338.913	13.2
339.125	11.28
339.338	-5.02
339.551	-6.72
339.763	-4.26
339.976	4.56
340.189	12.35
340.402	21.5
340.614	31.64
340.827	25.08
341.039	12.66
341.252	17.23
341.465	3.4
341.677	-16.83
341.89	-15.27
342.102	-2.66
342.315	0.16
342.527	10.6
342.74	20.23
342.952	19.38
343.165	8.76
343.377	4.98
343.59	0.32
343.802	2.13
344.015	7.08
344.227	-0.93
344.44	-18.36
344.652	-16.43
344.864	-8.68
345.077	-1.22
345.289	12.28
345.502	32.27
345.714	29.92
345.926	30.94
346.139	10.86
346.351	20.52
346.563	11.75
346.775	26.58
346.988	23.79
347.2	35.45
347.412	25.8
347.624	23.9
347.837	17.98
348.049	9.48
348.261	2.85
348.473	-3.45
348.685	-2.62
348.897	-9.06
349.11	-3.82
349.322	5.01
349.534	4.38
349.746	-3.1
349.958	2.9
350.17	-10.59
350.382	1.2
350.594	1.87
350.806	19.22
351.018	8.56
351.23	26.83
351.442	21.69
351.654	26.56
351.866	15.37
352.078	30.79
352.29	20.3
352.502	25.19
352.714	18.02
352.926	28.66
353.138	27.75
353.35	18.41
353.561	19.89
353.773	13.86
353.985	19.43
354.197	11.47
354.409	19.3
354.621	5.21
354.832	9.1
355.044	-22.06
355.256	-24.4
355.468	-38.06
355.679	0.79
355.891	-1.14
356.103	1.54
356.314	-4.94
356.526	-1.31
356.738	-16.54
356.949	-14.97
357.161	22.78
357.373	24.47
357.584	28.7
357.796	34.78
358.008	33.56
358.219	19.93
358.431	16.71
358.642	13.17
358.854	9.85
359.065	4.61
359.277	2.9
359.488	-1.82
359.7	-9.84
359.911	-23.12
360.123	-4.87
360.334	3.53
360.546	7
360.757	13.29
360.969	19.43
361.18	12.29
361.391	8.93
361.603	15.7
361.814	16.56
362.025	18.42
362.237	18.6
362.448	23.22
362.659	13.87
362.871	4.3
363.082	-4.46
363.293	-11.73
363.504	-39.79
363.716	-26.36
363.927	-8.75
364.138	-3.19
364.349	1.98
364.56	-9.11
364.772	-8.91
364.983	-4.23
365.194	-1.17
365.405	-12.95
365.616	6.03
365.827	-4.4
366.038	-3.27
366.25	-4.97
366.461	5.29
366.672	6.97
366.883	5.18
367.094	3.12
367.305	-8.71
367.516	-10.89
367.727	-27.93
367.938	-15.19
368.149	-20.21
368.36	-25
368.571	-35.36
368.781	-27.92
368.992	-22.39
369.203	-9.88
369.414	-5.02
369.625	5.85
369.836	29.88
370.047	22.67
370.258	13.44
370.468	20.72
370.679	8.08
370.89	-17.52
371.101	-3.64
371.312	0.88
371.522	1.97
371.733	18.94
371.944	19.53
372.155	25.31
372.365	22.54
372.576	20.82
372.787	13.25
372.997	5.16
373.208	1.58
373.419	-0.87
373.629	-17.33
373.84	-27.23
374.05	-30.47
374.261	-43.06
374.472	-28.92
374.682	-16.97
374.893	-15.93
375.103	5.61
375.314	15.01
375.524	-2.6
375.735	8.32
375.945	16.42
376.156	8.96
376.366	4.99
376.577	18.58
376.787	5.77
376.997	11.24
377.208	8.15
377.418	6.41
377.629	2.56
377.839	13.8
378.049	3.96
378.26	3.1
378.47	-1.85
378.68	4.34
378.89	0.22
379.101	7.75
379.311	4.37
379.521	5.75
379.732	8.46
379.942	-1.75
380.152	-17.25
380.362	-8.63
380.572	0.97
380.783	6.71
380.993	16.97
381.203	21.5
381.413	18.72
381.623	21.8
381.833	18.17
382.043	18.73
382.253	25.96
382.463	33.21
382.674	29.05
382.884	28.06
383.094	24.21
383.304	26.21
383.514	24.38
383.724	16.52
383.934	5.85
384.144	5.22
384.353	-3.56
384.563	-3.83
384.773	4.76
384.983	3.7
385.193	1.91
385.403	0.44
385.613	-0.64
385.823	-4.94
386.033	2.06
386.242	2.44
386.452	7.82
386.662	8.33
386.872	12.15
387.082	8.14
387.291	7.59
387.501	9.91
387.711	9.46
387.921	6.87
388.13	7.08
388.34	9.32
388.55	9.28
388.759	5.25
388.969	4.43
389.179	9.42
389.388	6.33
389.598	2.76
389.807	0.09
390.017	2.59
390.227	-1.02
390.436	0.08
390.646	0.92
390.855	3.49
391.065	2.95
391.274	2.39
391.484	3.95
391.693	4.86
391.903	4.34
392.112	2.15
392.322	1.97
392.531	0.84
392.74	-0.69
392.95	0.18
393.159	1.2
393.369	1.69
393.578	1.59
393.787	2.05
393.997	3.35
394.206	3.73
394.415	5.02
394.625	5.47
394.834	4
395.043	4.14
395.252	4.94
395.462	4.79
395.671	4.22
395.88	5.69
396.089	5.34
396.298	4.67
396.508	4.21
396.717	4.31
396.926	4.17
397.135	3.72
397.344	3.56
397.553	2.86
397.762	4.64
397.971	3.99
398.181	4.77
398.39	4.41
398.599	4.95
398.808	3.94
399.017	4.72
399.226	4.03
399.435	4.59
399.644	4.39
399.853	4.55
400.062	4.64
400.27	4.27
400.479	4.18
400.688	4.75
400.897	4.52
401.106	4.47
401.315	4.65
401.524	4.68
401.733	4.16
401.941	4.47
402.15	4.22
402.359	4.59
402.568	4.68
402.777	4.99
402.985	4.59
403.194	4.57
403.403	4.51
403.612	4.3
403.82	3.94
404.029	4.32
404.238	4.36
404.446	4.35
404.655	4.49
404.864	4.73
405.072	4.41
405.281	4.35
405.489	4.26
405.698	4.24
405.906	4.21
406.115	4.15
406.324	4.18
406.532	4.21
406.741	4.19
406.949	4.22
407.158	4.32
407.366	4.12
407.574	4.19
407.783	4.31
407.991	4.25
408.2	4.39
408.408	4.53
408.617	4.48
408.825	4.24
409.033	4.27
409.242	4.18
409.45	4.13
409.658	3.97
409.867	4.05
410.075	4.15
410.283	3.93
410.491	3.86
410.7	3.85
410.908	3.79
411.116	3.65
411.324	3.77
411.533	3.73
411.741	3.88
411.949	3.85
412.157	3.77
412.365	3.77
412.573	3.95
412.781	3.79
412.99	3.78
413.198	3.91
413.406	4
413.614	4.04
413.822	4.12
414.03	4.26
414.238	4.31
414.446	4.32
414.654	4.14
414.862	4.15
415.07	3.92
415.278	3.9
415.486	3.73
415.694	3.71
415.902	3.62
416.109	3.74
416.317	3.71
416.525	3.69
416.733	3.79
416.941	3.92
417.149	3.9
417.357	3.74
417.564	3.68
417.772	3.56
417.98	3.4
418.188	3.24
418.395	3.1
418.603	3.11
418.811	2.92
419.019	2.96
419.226	3.03
419.434	3.07
419.642	3.08
419.849	3.26
420.057	3.32
420.265	3.33
420.472	3.35
420.68	3.44
420.887	3.38
421.095	3.34
421.302	3.45
421.51	3.48
421.717	3.47
421.925	3.54
422.132	3.53
422.34	3.23
422.547	3.28
422.755	3.35
422.962	3.35
423.17	3.18
423.377	3.41
423.585	3.47
423.792	3.41
423.999	3.56
424.207	3.52
424.414	3.41
424.621	3.29
424.829	3.36
425.036	3.26
425.243	3.38
425.451	3.42
425.658	3.51
425.865	3.45
426.072	3.56
426.28	3.66
426.487	3.71
426.694	3.62
426.901	3.46
427.108	3.24
427.315	3.28
427.523	3.27
427.73	3.19
427.937	3.24
428.144	3.38
428.351	3.3
428.558	3.4
428.765	3.47
428.972	3.45
429.179	3.28
429.386	3.37
429.593	3.11
429.8	3.24
430.007	3.39
430.214	3.4
430.421	3.41
430.628	3.6
430.835	3.5
431.042	3.4
431.249	3.48
431.456	3.46
431.662	3.48
431.869	3.61
432.076	3.66
432.283	3.63
432.49	3.59
432.697	3.6
432.903	3.54
433.11	3.53
433.317	3.76
433.524	3.76
433.73	3.66
433.937	3.67
434.144	3.72
434.35	3.51
434.557	3.54
434.764	3.62
434.97	3.54
435.177	3.67
435.384	3.77
435.59	3.83
435.797	4
436.003	4.13
436.21	3.9
436.416	3.92
436.623	3.92
436.829	3.81
437.036	3.74
437.242	4.01
437.449	4.05
437.655	4.07
437.862	4.01
438.068	4.03
438.275	4.01
438.481	4.06
438.687	4.02
438.894	4.25
439.1	4.21
439.307	4.22
439.513	4.22
439.719	4.31
439.926	4.24
440.132	4.41
440.338	4.37
440.544	4.31
440.751	4.21
440.957	4.18
441.163	4.02
441.369	4.06
441.575	4.06
441.782	4.19
441.988	4.28
442.194	4.3
442.4	4.22
442.606	4.34
442.812	4.35
443.018	4.36
443.224	4.54
443.431	4.6
443.637	4.44
443.843	4.39
444.049	4.39
444.255	4.41
444.461	4.4
444.667	4.51
444.873	4.56
445.079	4.53
445.284	4.47
445.49	4.5
445.696	4.51
445.902	4.47
446.108	4.53
446.314	4.43
446.52	4.51
446.726	4.54
446.931	4.54
447.137	4.53
447.343	4.7
447.549	4.7
447.755	4.64
447.96	4.69
448.166	4.69
448.372	4.65
448.578	4.58
448.783	4.65
448.989	4.72
449.195	4.73
449.4	4.79
449.606	4.82
449.812	4.77
450.017	4.73
450.223	4.7
450.428	4.68
450.634	4.74
450.84	4.73
451.045	4.77
451.251	4.86
451.456	4.92
451.662	4.95
451.867	5.01
452.073	5.06
452.278	5.01
452.483	4.94
452.689	4.96
452.894	5.02
453.1	4.97
453.305	5.12
453.51	5.21
453.716	5.11
453.921	5.07
454.127	5.02
454.332	4.96
454.537	4.85
454.742	4.81
454.948	4.78
455.153	4.87
455.358	4.86
455.563	4.95
455.769	5.04
455.974	5.12
456.179	5.06
456.384	4.95
456.589	4.89
456.795	4.87
457	4.72
457.205	4.75
457.41	4.78
457.615	4.79
457.82	4.87
458.025	4.94
458.23	4.94
458.435	5.07
458.64	5.14
458.845	5.06
459.05	5.11
459.255	5.22
459.46	5.23
459.665	5.19
459.87	5.18
460.075	5.3
460.28	5.26
460.485	5.29
460.69	5.27
460.895	5.44
461.099	5.34
461.304	5.2
461.509	5.15
461.714	5.33
461.919	5.22
462.123	5.25
462.328	5.22
462.533	5.08
462.738	4.97
462.942	5.04
463.147	5.04
463.352	5.26
463.556	5.42
463.761	5.45
463.966	5.37
464.17	5.52
464.375	5.56
464.58	5.64
464.784	5.63
464.989	5.73
465.193	5.67
465.398	5.61
465.602	5.66
465.807	5.68
466.011	5.74
466.216	5.75
466.42	5.87
466.625	5.89
466.829	5.9
467.034	5.96
467.238	6
467.443	5.95
467.647	5.83
