Data from Ofra_2a_PS_8HS24_Reflection_3.txt Node
Date: Tue Jul 20 09:57:53 EDT 2021
User: Adam
Spectrometer: FLMT01687
Trigger mode: 0
Integration Time (sec): 9.450000E-1
Scans to average: 3
Electric dark correction enabled: true
Nonlinearity correction enabled: false
Boxcar width: 3
XAxis mode: Wavelengths
Number of Pixels in Spectrum: 3648
>>>>>Begin Spectral Data<<<<<
179.494	1109.47
179.716	689.79
179.937	687.91
180.158	2850
180.38	-1433.72
180.601	-248.7
180.823	-42.74
181.044	-1.2
181.265	25.84
181.486	42.06
181.708	391.3
181.929	120
182.15	-156.82
182.372	53.07
182.593	109.93
182.814	17.96
183.035	4.96
183.257	55.02
183.478	52.46
183.699	81.43
183.92	58.53
184.141	74.82
184.363	60.31
184.584	46.84
184.805	40.3
185.026	17.59
185.247	-31.58
185.468	-22.69
185.689	-28.17
185.91	-8.17
186.132	-1.87
186.353	-26.4
186.574	-8.18
186.795	1.43
187.016	-1.06
187.237	24.68
187.458	7.97
187.679	15.92
187.9	34.34
188.121	66.2
188.342	78.37
188.563	99
188.784	72.2
189.005	70.94
189.226	52.06
189.447	46.86
189.667	29.5
189.888	25.07
190.109	9.7
190.33	-0.91
190.551	-4.85
190.772	-4.89
190.993	10.06
191.214	-2.93
191.434	-1.06
191.655	7.49
191.876	16.47
192.097	19.84
192.318	29.93
192.538	26.28
192.759	33.43
192.98	16.29
193.201	19.52
193.421	35.06
193.642	36.06
193.863	33.25
194.083	40.68
194.304	34.51
194.525	56.19
194.745	42.61
194.966	28.86
195.187	34.65
195.407	31.54
195.628	25.87
195.848	31.11
196.069	14.83
196.29	10.34
196.51	-13.54
196.731	-0.41
196.951	-3.13
197.172	-17.89
197.392	3.99
197.613	4.79
197.833	22.69
198.054	35.63
198.274	6.24
198.495	2.91
198.715	7.71
198.936	-5.57
199.156	-13.25
199.377	-22.2
199.597	-28.56
199.817	-8.39
200.038	-7.71
200.258	9.12
200.479	8.25
200.699	31.84
200.919	17.15
201.14	13.79
201.36	31.26
201.58	38.73
201.801	26.39
202.021	43.28
202.241	34.52
202.461	36.3
202.682	46.2
202.902	38.48
203.122	39.16
203.342	45.78
203.563	30.38
203.783	26.95
204.003	34.65
204.223	39.93
204.443	41.46
204.663	50.17
204.884	48.68
205.104	49.34
205.324	74.52
205.544	74.41
205.764	80.42
205.984	75.93
206.204	58.58
206.424	56.39
206.644	50.11
206.864	37.4
207.084	54.41
207.304	41.98
207.525	33.31
207.745	37.41
207.964	25.05
208.184	36.53
208.404	35.61
208.624	8.29
208.844	0
209.064	11.87
209.284	17.03
209.504	17.9
209.724	-13.53
209.944	-28.36
210.164	-16.33
210.384	-19.35
210.604	-41.3
210.823	-37.27
211.043	-52.71
211.263	-16.73
211.483	-7.69
211.703	4.78
211.922	16.87
212.142	27.41
212.362	24.16
212.582	31.34
212.801	25.55
213.021	29.93
213.241	21.22
213.461	19.01
213.68	9.97
213.9	16.67
214.12	18.11
214.339	20.75
214.559	29.69
214.779	40.03
214.998	34.09
215.218	42.87
215.438	49.67
215.657	50.96
215.877	41.66
216.096	25.3
216.316	15.39
216.535	19.64
216.755	-6.91
216.974	-16.08
217.194	-22.3
217.413	6.95
217.633	10.95
217.852	14.49
218.072	3.38
218.291	32.59
218.511	27.79
218.73	15.66
218.95	0.22
219.169	-2.75
219.389	-6.11
219.608	11.46
219.827	2.42
220.047	7.05
220.266	18.23
220.485	18.37
220.705	15.91
220.924	16.2
221.143	4.57
221.363	-1.72
221.582	2.55
221.801	15.89
222.021	25.4
222.24	22.14
222.459	19.77
222.678	10.41
222.897	17.55
223.117	21.92
223.336	21.24
223.555	-2.86
223.774	16.14
223.993	37.09
224.213	42.51
224.432	40.74
224.651	32.26
224.87	38.26
225.089	63.18
225.308	55.99
225.527	37.96
225.746	40.98
225.965	33.31
226.184	28.83
226.404	5.04
226.623	1.05
226.842	9.59
227.061	15.35
227.28	28.23
227.499	40.59
227.718	34.66
227.936	35.53
228.155	34.42
228.374	31.95
228.593	27.07
228.812	14.01
229.031	3.09
229.25	11.54
229.469	17.94
229.688	16.01
229.907	15.03
230.125	19.46
230.344	26.22
230.563	32.86
230.782	22.99
231.001	21.79
231.22	24.13
231.438	20.69
231.657	24.57
231.876	20.51
232.095	16.54
232.313	36.64
232.532	32.89
232.751	32.29
232.969	43
233.188	42.29
233.407	39.86
233.625	36.65
233.844	36.41
234.063	46.43
234.281	42.68
234.5	37.79
234.719	34.82
234.937	44.88
235.156	40.81
235.374	39.66
235.593	25.49
235.811	24.23
236.03	0.71
236.249	3.33
236.467	3.58
236.686	15.33
236.904	9.45
237.123	10.76
237.341	9.46
237.559	28.2
237.778	37.53
237.996	33.94
238.215	29.93
238.433	34.46
238.652	34.85
238.87	36.77
239.088	17.48
239.307	14.87
239.525	10.53
239.743	2.79
239.962	-2.09
240.18	1.37
240.398	10.18
240.617	27.46
240.835	30.12
241.053	40.47
241.271	55.4
241.49	43.06
241.708	41.48
241.926	24.62
242.144	27.7
242.363	13.46
242.581	15.63
242.799	0.61
243.017	21.99
243.235	15.5
243.453	30.31
243.672	18.88
243.89	29.64
244.108	28.78
244.326	20.11
244.544	14.55
244.762	17.96
244.98	7.86
245.198	7.8
245.416	2.64
245.634	2.39
245.852	14.01
246.07	14.51
246.288	8.18
246.506	22.09
246.724	39.79
246.942	41.73
247.16	35.56
247.378	30.27
247.596	33.83
247.814	23.02
248.032	12.44
248.25	-5.97
248.468	5.3
248.685	10.91
248.903	11.61
249.121	7.88
249.339	22.41
249.557	28.48
249.775	24.12
249.992	23.06
250.21	13.83
250.428	9.48
250.646	14.72
250.863	25.4
251.081	26.5
251.299	47.7
251.517	47.41
251.734	43.66
251.952	49.57
252.17	36.33
252.387	28.34
252.605	28.05
252.823	5.24
253.04	2.8
253.258	11.09
253.475	17.42
253.693	29.91
253.911	35.06
254.128	32.14
254.346	30.84
254.563	29.1
254.781	30.83
254.998	29.22
255.216	29.93
255.433	24.36
255.651	32.51
255.868	43.37
256.086	42.32
256.303	48.62
256.521	53.35
256.738	49.97
256.956	40.03
257.173	30.4
257.39	27.66
257.608	34.56
257.825	26.47
258.043	29.58
258.26	21.71
258.477	28.62
258.695	35.89
258.912	42.64
259.129	29.16
259.346	36.29
259.564	36.42
259.781	51.29
259.998	51.63
260.216	51.55
260.433	44.08
260.65	47.39
260.867	29.13
261.084	27.87
261.302	5.7
261.519	-3.89
261.736	-11.66
261.953	-9.93
262.17	-9.69
262.387	-7.51
262.604	-26.75
262.822	-13.7
263.039	-4.97
263.256	-6.41
263.473	-12.93
263.69	-1.36
263.907	10.82
264.124	11.71
264.341	6.95
264.558	10.29
264.775	13.02
264.992	18.43
265.209	17.77
265.426	13.95
265.643	19.33
265.86	26.44
266.077	26.78
266.294	24.8
266.51	20
266.727	12.19
266.944	7.03
267.161	2.5
267.378	-9.67
267.595	-21.79
267.812	-24.22
268.028	-12.39
268.245	-6.98
268.462	6.28
268.679	2.22
268.896	6.99
269.112	23.65
269.329	29.56
269.546	32.13
269.763	35.94
269.979	30.04
270.196	33.32
270.413	24.88
270.629	18.13
270.846	24.01
271.063	20.42
271.279	15.11
271.496	3.81
271.712	2.02
271.929	18.8
272.146	29.7
272.362	13.72
272.579	14.22
272.795	11.85
273.012	19.28
273.228	21.79
273.445	10.71
273.661	-2.07
273.878	8.45
274.094	13.68
274.311	22.33
274.527	20.54
274.744	24.23
274.96	23.57
275.177	26.63
275.393	26.91
275.609	18.29
275.826	18.62
276.042	24
276.259	21.31
276.475	17.46
276.691	19.13
276.908	21.76
277.124	20.82
277.34	9.15
277.557	7.64
277.773	8.71
277.989	13.01
278.205	10.04
278.422	13.8
278.638	25.83
278.854	33.5
279.07	33.26
279.286	32.14
279.503	40.44
279.719	51.37
279.935	37.05
280.151	37.96
280.367	38.43
280.583	42.86
280.799	47.38
281.016	43.24
281.232	24.76
281.448	25.93
281.664	18.07
281.88	14.63
282.096	15.01
282.312	-0.69
282.528	-13.74
282.744	3.15
282.96	14.56
283.176	18.38
283.392	33.22
283.608	32.01
283.824	34.24
284.04	37.32
284.256	32.58
284.471	28.89
284.687	23.17
284.903	10.1
285.119	-10.74
285.335	-7.62
285.551	1.07
285.767	9.17
285.982	17.39
286.198	19.08
286.414	34.98
286.63	46.8
286.846	45.64
287.061	49.45
287.277	46.81
287.493	32.55
287.709	31.29
287.924	27.93
288.14	28.77
288.356	38.12
288.571	19.26
288.787	28.48
289.003	43.91
289.218	41.22
289.434	35.64
289.65	31.89
289.865	37.55
290.081	44.75
290.296	34.44
290.512	33.72
290.727	40.74
290.943	34.35
291.159	31.66
291.374	23.93
291.59	16.14
291.805	15.59
292.021	-0.85
292.236	1.25
292.451	6.74
292.667	12.94
292.882	9.36
293.098	4.51
293.313	0.26
293.529	9.53
293.744	9.34
293.959	7.52
294.175	7.01
294.39	21.88
294.605	34.69
294.821	36.22
295.036	40.2
295.251	40.31
295.467	35.17
295.682	34.71
295.897	20.4
296.112	22.59
296.328	19.28
296.543	10.75
296.758	6.46
296.973	14.13
297.188	8.62
297.404	14.75
297.619	5.14
297.834	21.97
298.049	24.66
298.264	26.88
298.479	21.01
298.694	30.84
298.909	26.52
299.125	29.85
299.34	26.55
299.555	35.66
299.77	32.86
299.985	33.07
300.2	24.84
300.415	26.35
300.63	17.97
300.845	18.6
301.06	12.17
301.275	21.78
301.49	27.64
301.704	31.53
301.919	28.81
302.134	26.51
302.349	20.52
302.564	17.51
302.779	15.84
302.994	4.55
303.209	0
303.423	8.37
303.638	16.11
303.853	22.68
304.068	16.73
304.283	12.11
304.497	16.58
304.712	22.39
304.927	16.38
305.142	14.07
305.356	22.58
305.571	31.02
305.786	31
306	37.38
306.215	32.5
306.43	42.76
306.644	46.41
306.859	37.98
307.074	29.12
307.288	30.68
307.503	27.89
307.717	29.72
307.932	22.84
308.147	19.15
308.361	11.11
308.576	14.82
308.79	11.6
309.005	11.76
309.219	8.35
309.434	4.89
309.648	-2.3
309.863	8.97
310.077	7.83
310.292	7.61
310.506	18.66
310.72	23.08
310.935	28.25
311.149	31.19
311.364	35.63
311.578	37.31
311.792	34.31
312.007	20.69
312.221	18.86
312.435	18.39
312.649	16.73
312.864	14.05
313.078	16.74
313.292	25.86
313.507	40.08
313.721	44.79
313.935	49.54
314.149	44.02
314.363	39.04
314.578	57.4
314.792	49.74
315.006	45.2
315.22	50.01
315.434	43.47
315.648	48.65
315.862	46.19
316.077	31.89
316.291	38.47
316.505	35.99
316.719	11.91
316.933	17.51
317.147	5.21
317.361	-0.94
317.575	-7.19
317.789	-5.75
318.003	4.63
318.217	22.32
318.431	27.67
318.645	38.76
318.859	30.77
319.073	31.19
319.287	30.54
319.5	26.32
319.714	25.61
319.928	28.41
320.142	20.89
320.356	37.36
320.57	28.81
320.784	33.45
320.997	33.84
321.211	29.91
321.425	15.5
321.639	21.56
321.853	6.88
322.066	12.85
322.28	7.03
322.494	8.45
322.707	9.8
322.921	13.2
323.135	7.41
323.349	14.11
323.562	18.77
323.776	19.03
323.989	19.12
324.203	20.06
324.417	21.33
324.63	18.07
324.844	18.21
325.057	16.43
325.271	11.94
325.485	9.33
325.698	13.85
325.912	21.08
326.125	32.08
326.339	37.65
326.552	43.33
326.766	52.72
326.979	57.47
327.193	52.79
327.406	48.64
327.619	36.95
327.833	39.9
328.046	18.36
328.26	13.34
328.473	5.41
328.686	7.85
328.9	-4.83
329.113	3.24
329.326	9.96
329.54	19.97
329.753	20.07
329.966	20.05
330.179	23.12
330.393	32.63
330.606	35.03
330.819	35.37
331.032	35.82
331.246	30.69
331.459	37.89
331.672	43.1
331.885	39.22
332.098	45.9
332.311	20.61
332.525	18.82
332.738	19.99
332.951	13.71
333.164	1.47
333.377	-10.55
333.59	-13.56
333.803	2.85
334.016	-1.05
334.229	9.28
334.442	15.45
334.655	24.78
334.868	45.01
335.081	47.74
335.294	47.76
335.507	44.89
335.72	36.54
335.933	44.6
336.146	40.29
336.359	27.79
336.572	18.81
336.785	25.57
336.997	23.17
337.21	32.52
337.423	19.65
337.636	18.19
337.849	14.34
338.062	30.36
338.274	27.55
338.487	30.09
338.7	25.32
338.913	18.46
339.125	18.34
339.338	24.18
339.551	20.86
339.763	13.67
339.976	7.17
340.189	1.45
340.402	11.02
340.614	17.63
340.827	8.96
341.039	4.69
341.252	11.05
341.465	11.24
341.677	5.41
341.89	6.6
342.102	4.05
342.315	12.67
342.527	5.1
342.74	6.97
342.952	12.55
343.165	28.38
343.377	31.42
343.59	32.16
343.802	37.27
344.015	39.19
344.227	36.88
344.44	39.43
344.652	34.4
344.864	35.4
345.077	25.32
345.289	26.99
345.502	35.29
345.714	23.53
345.926	26.82
346.139	22.41
346.351	-3.57
346.563	14.23
346.775	10.41
346.988	5.82
347.2	17.7
347.412	12.12
347.624	24.65
347.837	36.81
348.049	34.85
348.261	33.51
348.473	30.44
348.685	32.01
348.897	35.24
349.11	24.2
349.322	19.07
349.534	10.14
349.746	16.1
349.958	19.97
350.17	21.71
350.382	15.79
350.594	20.06
350.806	35.09
351.018	41.82
351.23	40.72
351.442	38.51
351.654	34.43
351.866	39.43
352.078	37.66
352.29	30.71
352.502	22.73
352.714	22.72
352.926	21.08
353.138	22.82
353.35	13.51
353.561	2.49
353.773	5.93
353.985	14.14
354.197	12.42
354.409	16.34
354.621	14.6
354.832	15.07
355.044	27.32
355.256	22.49
355.468	14.83
355.679	13.98
355.891	14.68
356.103	15.83
356.314	24.43
356.526	20.77
356.738	21.23
356.949	28.7
357.161	25.88
357.373	31.68
357.584	40.66
357.796	28.82
358.008	31.98
358.219	44.56
358.431	39.87
358.642	42.24
358.854	37.83
359.065	32.87
359.277	37.29
359.488	29.49
359.7	24.48
359.911	25.99
360.123	26.63
360.334	18.99
360.546	14.96
360.757	17.97
360.969	30.37
361.18	20.32
361.391	16.57
361.603	17.62
361.814	21.16
362.025	12.01
362.237	18.24
362.448	17.69
362.659	17.2
362.871	25.94
363.082	28.28
363.293	34.34
363.504	41.14
363.716	32.42
363.927	30.93
364.138	36.01
364.349	33.12
364.56	28.61
364.772	24.02
364.983	23.09
365.194	24.81
365.405	18.73
365.616	6.18
365.827	12.88
366.038	19.65
366.25	18.59
366.461	18.98
366.672	16.99
366.883	27.11
367.094	28.93
367.305	26.16
367.516	13.13
367.727	12.92
367.938	14.95
368.149	17.25
368.36	12.16
368.571	15.84
368.781	6.67
368.992	10.75
369.203	12.92
369.414	14.61
369.625	9.38
369.836	5.16
370.047	5.21
370.258	8.13
370.468	8.58
370.679	7.57
370.89	14.5
371.101	10.21
371.312	9.18
371.522	8.35
371.733	-0.61
371.944	3.3
372.155	-10.59
372.365	-19.66
372.576	-12.66
372.787	-13.95
372.997	-14.17
373.208	-1.22
373.419	-3.67
373.629	13.42
373.84	10.4
374.05	17.18
374.261	16.38
374.472	17.43
374.682	11.84
374.893	7.39
375.103	7.85
375.314	10.11
375.524	7.2
375.735	12
375.945	12.56
376.156	18.27
376.366	23.68
376.577	23.65
376.787	28.59
376.997	31.25
377.208	22.97
377.418	22.92
377.629	25.13
377.839	30.54
378.049	32.59
378.26	32.51
378.47	37.16
378.68	43.8
378.89	41.55
379.101	34.68
379.311	21.26
379.521	22.44
379.732	12.04
379.942	11.51
380.152	14.57
380.362	17.78
380.572	23.07
380.783	29.62
380.993	25.7
381.203	32.24
381.413	28.49
381.623	24.65
381.833	18.62
382.043	10.92
382.253	13.59
382.463	14.89
382.674	12.18
382.884	8.32
383.094	10.92
383.304	14.83
383.514	23.74
383.724	16.72
383.934	16.44
384.144	20.74
384.353	24.24
384.563	17.22
384.773	16.52
384.983	16.15
385.193	19.39
385.403	18.86
385.613	12.76
385.823	12.03
386.033	17.26
386.242	14.86
386.452	8.49
386.662	8.89
386.872	7.54
387.082	7.6
387.291	6.94
387.501	7.73
387.711	10.43
387.921	10.94
388.13	8.2
388.34	9.09
388.55	11.81
388.759	11.8
388.969	8.6
389.179	10.91
389.388	12.64
389.598	10.7
389.807	10.51
390.017	10.3
390.227	8.97
390.436	9.74
390.646	9.43
390.855	9.58
391.065	10.67
391.274	9.69
391.484	10.31
391.693	11.4
391.903	10.82
392.112	9.23
392.322	10.94
392.531	12.29
392.74	11.67
392.95	11.52
393.159	11.44
393.369	11.05
393.578	11.4
393.787	10.32
393.997	9.95
394.206	10.61
394.415	9.43
394.625	8.31
394.834	7.77
395.043	7.8
395.252	8.17
395.462	7.82
395.671	8.52
395.88	9.59
396.089	10.09
396.298	10.48
396.508	10.3
396.717	9.74
396.926	9.73
397.135	8.88
397.344	8.62
397.553	9.04
397.762	9.16
397.971	9.09
398.181	8.69
398.39	9.16
398.599	9.52
398.808	9.36
399.017	9.42
399.226	10.04
399.435	9.95
399.644	10.29
399.853	10.23
400.062	10.05
400.27	10.14
400.479	9.79
400.688	9.63
400.897	9.87
401.106	9.78
401.315	9.63
401.524	9.66
401.733	9.6
401.941	9.58
402.15	9.24
402.359	9.14
402.568	9.13
402.777	9.23
402.985	9.24
403.194	9.26
403.403	9.02
403.612	9.15
403.82	9.2
404.029	9.25
404.238	9.2
404.446	9.09
404.655	8.98
404.864	9.12
405.072	9.1
405.281	8.96
405.489	8.97
405.698	8.79
405.906	8.79
406.115	8.82
406.324	8.79
406.532	8.77
406.741	8.83
406.949	8.73
407.158	8.76
407.366	8.76
407.574	8.74
407.783	8.69
407.991	8.6
408.2	8.52
408.408	8.45
408.617	8.48
408.825	8.51
409.033	8.52
409.242	8.48
409.45	8.55
409.658	8.52
409.867	8.59
410.075	8.55
410.283	8.48
410.491	8.46
410.7	8.5
410.908	8.36
411.116	8.25
411.324	8.29
411.533	8.24
411.741	8.26
411.949	8.27
412.157	8.27
412.365	8.3
412.573	8.39
412.781	8.33
412.99	8.4
413.198	8.41
413.406	8.34
413.614	8.33
413.822	8.38
414.03	8.29
414.238	8.4
414.446	8.28
414.654	8.24
414.862	8.21
415.07	8.28
415.278	8.18
415.486	8.27
415.694	8.03
415.902	8.03
416.109	8.08
416.317	8.02
416.525	7.96
416.733	8.07
416.941	8.02
417.149	8.12
417.357	8.08
417.564	7.97
417.772	8.03
417.98	7.93
418.188	7.72
418.395	7.69
418.603	7.59
418.811	7.58
419.019	7.58
419.226	7.62
419.434	7.58
419.642	7.66
419.849	7.63
420.057	7.65
420.265	7.62
420.472	7.52
420.68	7.36
420.887	7.4
421.095	7.38
421.302	7.45
421.51	7.48
421.717	7.51
421.925	7.48
422.132	7.5
422.34	7.51
422.547	7.51
422.755	7.42
422.962	7.39
423.17	7.31
423.377	7.47
423.585	7.41
423.792	7.41
423.999	7.38
424.207	7.25
424.414	7.25
424.621	7.34
424.829	7.23
425.036	7.25
425.243	7.3
425.451	7.28
425.658	7.47
425.865	7.37
426.072	7.48
426.28	7.43
426.487	7.46
426.694	7.32
426.901	7.3
427.108	7.22
427.315	7.25
427.523	7.19
427.73	7.27
427.937	7.32
428.144	7.39
428.351	7.48
428.558	7.47
428.765	7.45
428.972	7.45
429.179	7.36
429.386	7.46
429.593	7.41
429.8	7.47
430.007	7.57
430.214	7.61
430.421	7.6
430.628	7.5
430.835	7.38
431.042	7.54
431.249	7.51
431.456	7.54
431.662	7.6
431.869	7.74
432.076	7.88
432.283	7.93
432.49	7.84
432.697	7.84
432.903	7.84
433.11	7.83
433.317	7.81
433.524	7.78
433.73	7.84
433.937	7.82
434.144	8.02
434.35	7.97
434.557	7.93
434.764	7.84
434.97	7.96
435.177	7.9
435.384	7.96
435.59	7.84
435.797	7.91
436.003	7.9
436.21	7.88
436.416	7.83
436.623	7.92
436.829	7.98
437.036	7.94
437.242	7.98
437.449	8.02
437.655	8.15
437.862	8.19
438.068	8.18
438.275	8.17
438.481	8.24
438.687	8.25
438.894	8.31
439.1	8.29
439.307	8.3
439.513	8.29
439.719	8.37
439.926	8.38
440.132	8.37
440.338	8.39
440.544	8.35
440.751	8.34
440.957	8.31
441.163	8.28
441.369	8.29
441.575	8.36
441.782	8.31
441.988	8.36
442.194	8.45
442.4	8.51
442.606	8.53
442.812	8.56
443.018	8.52
443.224	8.58
443.431	8.58
443.637	8.47
443.843	8.47
444.049	8.43
444.255	8.32
444.461	8.36
444.667	8.39
444.873	8.46
445.079	8.59
445.284	8.57
445.49	8.56
445.696	8.63
445.902	8.64
446.108	8.6
446.314	8.6
446.52	8.53
446.726	8.58
446.931	8.6
447.137	8.66
447.343	8.67
447.549	8.67
447.755	8.59
447.96	8.6
448.166	8.6
448.372	8.63
448.578	8.62
448.783	8.62
448.989	8.71
449.195	8.78
449.4	8.77
449.606	8.79
449.812	8.87
450.017	8.9
450.223	8.91
450.428	8.89
450.634	8.94
450.84	8.99
451.045	9.02
451.251	8.99
451.456	8.99
451.662	9
451.867	8.99
452.073	8.94
452.278	8.93
452.483	8.95
452.689	8.94
452.894	8.94
453.1	8.9
453.305	8.91
453.51	8.96
453.716	8.99
453.921	8.98
454.127	9.02
454.332	9.03
454.537	9.1
454.742	9.14
454.948	9.13
455.153	9.17
455.358	9.25
455.563	9.29
455.769	9.31
455.974	9.28
456.179	9.23
456.384	9.23
456.589	9.18
456.795	9.12
457	9.1
457.205	9.08
457.41	9.11
457.615	9.21
457.82	9.28
458.025	9.34
458.23	9.38
458.435	9.38
458.64	9.44
458.845	9.47
459.05	9.5
459.255	9.47
459.46	9.44
459.665	9.51
459.87	9.56
460.075	9.54
460.28	9.58
460.485	9.61
460.69	9.58
460.895	9.63
461.099	9.63
461.304	9.66
461.509	9.62
461.714	9.57
461.919	9.54
462.123	9.64
462.328	9.67
462.533	9.67
462.738	9.66
462.942	9.74
463.147	9.79
463.352	9.86
463.556	9.85
463.761	9.88
463.966	9.94
464.17	10.01
464.375	10.04
464.58	10.1
464.784	10.13
464.989	10.14
465.193	10.2
465.398	10.21
465.602	10.2
465.807	10.21
466.011	10.24
466.216	10.19
466.42	10.25
466.625	10.25
466.829	10.25
467.034	10.31
467.238	10.4
467.443	10.41
467.647	10.47
467.851	10.41
468.056	10.42
468.26	10.39
468.464	10.39
468.669	10.42
