Data from Ofra_PS_T2_2A_2CX12_Reflection_3.txt Node
Date: Wed Jul 21 16:58:18 EDT 2021
User: Adam
Spectrometer: FLMT01687
Trigger mode: 0
Integration Time (sec): 1.100000E0
Scans to average: 2
Electric dark correction enabled: true
Nonlinearity correction enabled: false
Boxcar width: 2
XAxis mode: Wavelengths
Number of Pixels in Spectrum: 3648
>>>>>Begin Spectral Data<<<<<
179.494	512.6
179.716	559.29
179.937	512.85
180.158	461.19
180.38	821.09
180.601	422.51
180.823	125
181.044	55.33
181.265	238.05
181.486	53.82
181.708	-2.14
181.929	-269.9
182.15	203.17
182.372	121.71
182.593	87.89
182.814	-13.38
183.035	2.13
183.257	5.7
183.478	-9.52
183.699	46.76
183.92	56.64
184.141	22.15
184.363	-21.46
184.584	-15.7
184.805	-23.07
185.026	5.51
185.247	20.28
185.468	9.08
185.689	15.05
185.91	27.34
186.132	17.12
186.353	21.99
186.574	91.63
186.795	63.9
187.016	16.28
187.237	22.45
187.458	15.91
187.679	-25.89
187.9	9.94
188.121	21.15
188.342	22.74
188.563	39.12
188.784	57.76
189.005	13.8
189.226	68.78
189.447	41.25
189.667	-59.59
189.888	-224.51
190.109	-677.6
190.33	-415.97
190.551	-796.24
190.772	-159.02
190.993	-93.02
191.214	-35.97
191.434	-56.67
191.655	33.16
191.876	18.16
192.097	-42.96
192.318	-106.3
192.538	-170.6
192.759	-170.43
192.98	-66.47
193.201	-18.12
193.421	18.28
193.642	46.63
193.863	59.18
194.083	33.57
194.304	21.19
194.525	2.25
194.745	-18.5
194.966	-24.32
195.187	-16.7
195.407	-27.18
195.628	-36.3
195.848	-85.15
196.069	-64.74
196.29	-12.03
196.51	-19.66
196.731	-27.03
196.951	-16.41
197.172	-35.18
197.392	-81.46
197.613	-87.25
197.833	-107.06
198.054	-92.95
198.274	-58.4
198.495	-77.12
198.715	-40.52
198.936	-53.47
199.156	-21.06
199.377	-109.2
199.597	-102.46
199.817	-110.79
200.038	-44.75
200.258	-85.4
200.479	-24.9
200.699	-16.92
200.919	41.01
201.14	12.85
201.36	3.48
201.58	27.33
201.801	53.29
202.021	15.59
202.241	14.86
202.461	5.22
202.682	-57.13
202.902	-139.2
203.122	-70.27
203.342	-72.42
203.563	-37.21
203.783	3.92
204.003	-6.02
204.223	-13.41
204.443	24.81
204.663	23.18
204.884	1.69
205.104	23.14
205.324	42.97
205.544	67.19
205.764	61.26
205.984	68
206.204	55.76
206.424	39.04
206.644	11.8
206.864	7.15
207.084	-31.12
207.304	-24
207.525	-140.55
207.745	-105.77
207.964	-7.39
208.184	-35.84
208.404	-48.13
208.624	-24.72
208.844	-11.45
209.064	-264
209.284	-254.08
209.504	-128.28
209.724	-29.55
209.944	-11.98
210.164	10.6
210.384	16.73
210.604	22.66
210.823	-17.49
211.043	-26.84
211.263	3.27
211.483	-2
211.703	-50.53
211.922	-26.1
212.142	5.84
212.362	-5.4
212.582	-9.86
212.801	-8.4
213.021	-36.76
213.241	-36.28
213.461	-72.43
213.68	-64.42
213.9	-31.7
214.12	-3.58
214.339	-56.97
214.559	-39.9
214.779	-1.76
214.998	-5.14
215.218	-38.29
215.438	-11.02
215.657	-11.62
215.877	-30.73
216.096	1.12
216.316	9.74
216.535	0.96
216.755	7.52
216.974	-59.62
217.194	-124.2
217.413	-99.32
217.633	-101.32
217.852	-164.06
218.072	-48.83
218.291	-15.22
218.511	15.56
218.73	0.66
218.95	1.6
219.169	-17.22
219.389	-47.88
219.608	-33.77
219.827	-25.18
220.047	-31.88
220.266	-10.28
220.485	-6.3
220.705	-2.17
220.924	-19.73
221.143	27.04
221.363	13.21
221.582	26.39
221.801	18.19
222.021	28.64
222.24	-35.58
222.459	19.15
222.678	-27.44
222.897	-68.31
223.117	-87.35
223.336	-57.4
223.555	-17.19
223.774	48.49
223.993	94.6
224.213	120.75
224.432	105.59
224.651	77.32
224.87	31.17
225.089	30.44
225.308	19.29
225.527	28.41
225.746	22.54
225.965	25.55
226.184	-0.96
226.404	11.53
226.623	-11.85
226.842	-4.89
227.061	8.81
227.28	17.04
227.499	3.48
227.718	15.65
227.936	0.53
228.155	10.89
228.374	5.92
228.593	15.59
228.812	13.97
229.031	16.31
229.25	-21.89
229.469	-27.77
229.688	-33.64
229.907	-2.72
230.125	-2.98
230.344	6.99
230.563	22.51
230.782	42.9
231.001	-25.07
231.22	-11.41
231.438	12.47
231.657	3.4
231.876	-26.03
232.095	21.99
232.313	18.93
232.532	-20.16
232.751	-46.77
232.969	-30.06
233.188	-125.17
233.407	-34.16
233.625	-5.19
233.844	-2.62
234.063	0.02
234.281	21.67
234.5	-2.61
234.719	0.02
234.937	12.28
235.156	12.16
235.374	17.81
235.593	15.19
235.811	14.73
236.03	8.05
236.249	-22.9
236.467	-28.7
236.686	9.09
236.904	15
237.123	-8.01
237.341	0.16
237.559	17.91
237.778	-16.45
237.996	-29.53
238.215	19.11
238.433	29.41
238.652	-0.61
238.87	2.94
239.088	20.68
239.307	17.53
239.525	0.71
239.743	-13.87
239.962	-4.89
240.18	-43.81
240.398	-96.3
240.617	-80.72
240.835	-56.01
241.053	-13.13
241.271	16.01
241.49	32.87
241.708	2.82
241.926	-16.53
242.144	-51.83
242.363	-64.22
242.581	-67.64
242.799	-15.4
243.017	19.07
243.235	15.02
243.453	15.04
243.672	9.51
243.89	8.86
244.108	-5.97
244.326	18.57
244.544	27.96
244.762	22.94
244.98	15.84
245.198	18.91
245.416	-5.6
245.634	-11.03
245.852	-16.06
246.07	-20.53
246.288	-3.65
246.506	-26.88
246.724	-16.87
246.942	-7.72
247.16	12.39
247.378	12.03
247.596	12.94
247.814	7.95
248.032	-7.37
248.25	-14.18
248.468	2.77
248.685	11.51
248.903	35.21
249.121	39.78
249.339	20.48
249.557	4.6
249.775	7.23
249.992	-58.12
250.21	-59.12
250.428	-37.76
250.646	-81.15
250.863	-93.28
251.081	-48.48
251.299	-45.97
251.517	-19.38
251.734	-0.67
251.952	5.35
252.17	2.02
252.387	7.78
252.605	-7.52
252.823	1.47
253.04	12.89
253.258	18.73
253.475	-8.21
253.693	18.25
253.911	26.85
254.128	32.39
254.346	35.99
254.563	30.31
254.781	9.19
254.998	-32.77
255.216	-40.07
255.433	-27.73
255.651	3.94
255.868	16.95
256.086	71.5
256.303	63.75
256.521	54.23
256.738	25.62
256.956	10.59
257.173	-17.59
257.39	-38.16
257.608	-63.86
257.825	-16.36
258.043	4.1
258.26	8.68
258.477	52.87
258.695	34.15
258.912	11.09
259.129	15.62
259.346	-20.43
259.564	-59.78
259.781	-59.11
259.998	-28.48
260.216	-15.13
260.433	16.59
260.65	4.42
260.867	17.57
261.084	13.62
261.302	-11.18
261.519	4.52
261.736	11.87
261.953	6.52
262.17	33.38
262.387	28.85
262.604	-12.91
262.822	-35.02
263.039	-29.9
263.256	-65.45
263.473	-27.66
263.69	1.05
263.907	33.21
264.124	33.96
264.341	27.08
264.558	24.23
264.775	29.65
264.992	11.41
265.209	10.32
265.426	33.71
265.643	26.7
265.86	29.4
266.077	28.32
266.294	44.55
266.51	-8.58
266.727	-27.3
266.944	-22.38
267.161	-18.8
267.378	-41.91
267.595	-2.39
267.812	-20.42
268.028	-59.33
268.245	-31.27
268.462	-22.17
268.679	-30.77
268.896	16.78
269.112	24.18
269.329	18.41
269.546	6.05
269.763	0.17
269.979	-5.83
270.196	-13.45
270.413	-35.83
270.629	-37.56
270.846	-44.69
271.063	-44.28
271.279	-39.2
271.496	-44.46
271.712	-4.68
271.929	19.4
272.146	2.95
272.362	-1.89
272.579	22.23
272.795	10.18
273.012	15.61
273.228	1.38
273.445	-0.92
273.661	-27.62
273.878	-45.05
274.094	-33.26
274.311	-25.95
274.527	27.78
274.744	41.3
274.96	47.96
275.177	34.03
275.393	39.85
275.609	27.59
275.826	31.93
276.042	30
276.259	23.76
276.475	34.54
276.691	44.94
276.908	26.9
277.124	37.63
277.34	32.71
277.557	22.32
277.773	-3.78
277.989	-2.01
278.205	-15.13
278.422	-12.53
278.638	-14.53
278.854	-11.81
279.07	-12.66
279.286	12.79
279.503	6.53
279.719	19.35
279.935	17.1
280.151	4.91
280.367	-10.03
280.583	-20.95
280.799	-30.43
281.016	-53.98
281.232	-5.69
281.448	-18.38
281.664	12.39
281.88	-12.64
282.096	5.75
282.312	5.44
282.528	30.09
282.744	35.62
282.96	48.7
283.176	38.39
283.392	24.12
283.608	17.17
283.824	-1.65
284.04	5.78
284.256	2.79
284.471	-5.13
284.687	-18.99
284.903	-0.93
285.119	-2.1
285.335	-1.39
285.551	6.22
285.767	6.41
285.982	-13.96
286.198	-44.54
286.414	-3.82
286.63	-4.48
286.846	24.84
287.061	19.26
287.277	50.44
287.493	29.32
287.709	54.21
287.924	38.1
288.14	67.81
288.356	68.66
288.571	71.64
288.787	35.66
289.003	36.3
289.218	13.33
289.434	-23.25
289.65	-26.4
289.865	-17.51
290.081	0.71
290.296	9.68
290.512	26.81
290.727	8.99
290.943	5.37
291.159	-8.83
291.374	-14.19
291.59	-26.92
291.805	-11.88
292.021	-8.98
292.236	-11.16
292.451	5.46
292.667	19.28
292.882	26.46
293.098	20.48
293.313	19.76
293.529	5.15
293.744	-8.2
293.959	-16.79
294.175	-5.11
294.39	16.64
294.605	30.75
294.821	46.77
295.036	49.16
295.251	51.5
295.467	32.28
295.682	18.77
295.897	-20.22
296.112	-21.58
296.328	-28.07
296.543	-48.83
296.758	-45.21
296.973	3.73
297.188	18.8
297.404	8.02
297.619	2.37
297.834	-4.86
298.049	-37.17
298.264	-48.85
298.479	-4.65
298.694	6.79
298.909	19.68
299.125	29.95
299.34	28.89
299.555	12.81
299.77	7.95
299.985	-26.56
300.2	-86.01
300.415	-84.35
300.63	-60.51
300.845	-51.65
301.06	-37.95
301.275	2.53
301.49	9.77
301.704	0.82
301.919	-14.92
302.134	-29.63
302.349	-48.24
302.564	-102.9
302.779	-108.89
302.994	-85.54
303.209	-36.55
303.423	15.91
303.638	46.95
303.853	-2.3
304.068	-12.03
304.283	-14.04
304.497	-9.31
304.712	-28.99
304.927	-18.77
305.142	-12.37
305.356	-15.17
305.571	-24.43
305.786	-18.27
306	-21.9
306.215	-26.61
306.43	-37.25
306.644	-22.48
306.859	-15.63
307.074	-8.88
307.288	-24.01
307.503	-19.89
307.717	-32.83
307.932	-24.29
308.147	-24.17
308.361	-5.4
308.576	-8.9
308.79	-37.51
309.005	-43.69
309.219	-15.74
309.434	-38.21
309.648	-26.66
309.863	3.63
310.077	7.77
310.292	-14.59
310.506	-0.85
310.72	8.23
310.935	2.26
311.149	-0.57
311.364	25.55
311.578	34.04
311.792	19.85
312.007	27.3
312.221	26.65
312.435	18.86
312.649	-1.21
312.864	31.63
313.078	31.19
313.292	80.32
313.507	58.29
313.721	106.68
313.935	47.81
314.149	41.81
314.363	19.93
314.578	9.89
314.792	12.52
315.006	-7.91
315.22	-2.37
315.434	10.1
315.648	27.34
315.862	18.28
316.077	29.91
316.291	26.36
316.505	21.1
316.719	23.75
316.933	28.58
317.147	10.09
317.361	-33.52
317.575	-69.17
317.789	-101.19
318.003	-162.77
318.217	-120.3
318.431	-30.48
318.645	14.95
318.859	15.48
319.073	34.18
319.287	26.79
319.5	-4.02
319.714	-42.82
319.928	-70.42
320.142	-106.93
320.356	-59.76
320.57	0.02
320.784	3.45
320.997	-1.33
321.211	12.2
321.425	-38.66
321.639	-64.86
321.853	-28.6
322.066	9.46
322.28	13.79
322.494	14.67
322.707	10.44
322.921	4.21
323.135	-11.79
323.349	-7.56
323.562	-10.37
323.776	-12.88
323.989	1.66
324.203	-6.32
324.417	-17.85
324.63	-32.16
324.844	-21.6
325.057	-33.48
325.271	-14.33
325.485	21.51
325.698	39.7
325.912	56.31
326.125	33.63
326.339	40.88
326.552	19.08
326.766	-2.33
326.979	-19.34
327.193	41.83
327.406	13.17
327.619	4.24
327.833	35.59
328.046	25.03
328.26	-35.62
328.473	-2.54
328.686	-7.53
328.9	-21.83
329.113	-9.79
329.326	-18.61
329.54	-22.19
329.753	-38.7
329.966	-62.94
330.179	-57.37
330.393	-28.46
330.606	-22.84
330.819	-2.29
331.032	21.33
331.246	22.94
331.459	55.54
331.672	55.18
331.885	58.08
332.098	28.45
332.311	26.65
332.525	-18.53
332.738	-17.99
332.951	-1.07
333.164	24.24
333.377	23.2
333.59	21.67
333.803	16.16
334.016	-1.63
334.229	-14.82
334.442	-6.78
334.655	3.65
334.868	15.84
335.081	17.14
335.294	9.82
335.507	-0.77
335.72	4.85
335.933	-12.45
336.146	-19.96
336.359	-27.6
336.572	-48.19
336.785	-68.65
336.997	-59.71
337.21	-31.92
337.423	-18.29
337.636	-11.24
337.849	1.35
338.062	0.77
338.274	11.76
338.487	-5.8
338.7	-16.09
338.913	-50.8
339.125	-50.45
339.338	-107.62
339.551	-69.25
339.763	-31.68
339.976	-5.1
340.189	7.61
340.402	5.33
340.614	-1.02
340.827	-8.3
341.039	-21.47
341.252	-26.03
341.465	5.66
341.677	-3.95
341.89	-41.94
342.102	-4.85
342.315	-22.24
342.527	-63.95
342.74	-30.62
342.952	1.41
343.165	-13.17
343.377	13.51
343.59	8.66
343.802	7.15
344.015	17.23
344.227	23.8
344.44	13.68
344.652	19.3
344.864	7.06
345.077	31.58
345.289	22.84
345.502	22.88
345.714	16.12
345.926	21.63
346.139	-5.63
346.351	5.27
346.563	10.47
346.775	15.53
346.988	3.75
347.2	4.76
347.412	-33.4
347.624	-49.91
347.837	-73.46
348.049	-48.47
348.261	-37.3
348.473	-18.06
348.685	-13.09
348.897	-10.29
349.11	-26.03
349.322	-37.11
349.534	-14.67
349.746	-18.16
349.958	9.8
350.17	31.09
350.382	17.15
350.594	16.32
350.806	18.48
351.018	10.96
351.23	-7.04
351.442	-18.68
351.654	-17.74
351.866	-9.84
352.078	-3.08
352.29	2.97
352.502	24.16
352.714	16.66
352.926	8.31
353.138	4.73
353.35	3.78
353.561	-5.28
353.773	-22.78
353.985	-11.8
354.197	-14.42
354.409	-26.85
354.621	-22.48
354.832	-9.72
355.044	-10.96
355.256	-8.13
355.468	8.85
355.679	1.53
355.891	22.02
356.103	11.52
356.314	18.02
356.526	19.77
356.738	20.42
356.949	-6.05
357.161	8.37
357.373	-11.59
357.584	-31.3
357.796	-11.6
358.008	-20.18
358.219	-11.35
358.431	-2.28
358.642	17.53
358.854	6.07
359.065	4.92
359.277	-20.95
359.488	-27.81
359.7	-63.38
359.911	-60.66
360.123	-31.73
360.334	-48.05
360.546	-68.45
360.757	-45.5
360.969	-47.07
361.18	-51.82
361.391	-19.84
361.603	-12.38
361.814	-6.41
362.025	-2.73
362.237	-4.42
362.448	3.09
362.659	8.49
362.871	1.8
363.082	-0.56
363.293	3.54
363.504	-6.66
363.716	-22.28
363.927	-26.24
364.138	-45.75
364.349	-58.11
364.56	-49.85
364.772	-33.75
364.983	-10.09
365.194	-4.31
365.405	9.55
365.616	24.72
365.827	21.89
366.038	4.71
366.25	12.38
366.461	-3.25
366.672	2.4
366.883	18.29
367.094	21
367.305	1.22
367.516	1.17
367.727	-19.01
367.938	-31.22
368.149	-32.7
368.36	-9.06
368.571	-5.97
368.781	-17.91
368.992	-30.79
369.203	-47.28
369.414	-67.28
369.625	-67.77
369.836	-58.51
370.047	-65.63
370.258	-50.18
370.468	-55.82
370.679	-73.1
370.89	-60.55
371.101	-43.66
371.312	-38.34
371.522	-17.88
371.733	-6.43
371.944	-5.21
372.155	-3.86
372.365	-17.33
372.576	-26.81
372.787	-26.05
372.997	-38.96
373.208	-36.53
373.419	-17.18
373.629	-28.34
373.84	-21.15
374.05	-24.41
374.261	-25.85
374.472	-31.89
374.682	-1.33
374.893	-13.33
375.103	10.69
375.314	14.56
375.524	22.02
375.735	28.2
375.945	37.95
376.156	23.11
376.366	22.47
376.577	8.12
376.787	-10.8
376.997	-10.06
377.208	-17.55
377.418	-29.81
377.629	-12.64
377.839	-8.26
378.049	-0.81
378.26	18.78
378.47	24.75
378.68	12.95
378.89	11.82
379.101	5.74
379.311	-18.28
379.521	-35.25
379.732	-33.6
379.942	-35.59
380.152	-62.84
380.362	-27.81
380.572	-15.66
380.783	3.18
380.993	13.18
381.203	30.03
381.413	29.06
381.623	27.33
381.833	18.73
382.043	8.47
382.253	6.48
382.463	5.18
382.674	-1.2
382.884	-18.94
383.094	-15.89
383.304	-16.39
383.514	-15.7
383.724	-11.56
383.934	-7.13
384.144	-19.3
384.353	-15.92
384.563	-10.35
384.773	-4.77
384.983	-9.78
385.193	9.74
385.403	13.91
385.613	14.5
385.823	5.66
386.033	14.36
386.242	6.98
386.452	-0.35
386.662	-14.69
386.872	-3.82
387.082	-9.93
387.291	-16.94
387.501	-16.18
387.711	-3.21
387.921	-10.07
388.13	-5.47
388.34	3.07
388.55	-3.88
388.759	-6.61
388.969	-2.58
389.179	-7.86
389.388	-9.15
389.598	-3.97
389.807	-6.31
390.017	-5.35
390.227	1.07
390.436	0.94
390.646	2.14
390.855	3.38
391.065	0.8
391.274	-4.24
391.484	-5.41
391.693	-3.45
391.903	-2.87
392.112	2.08
392.322	4.3
392.531	7.22
392.74	6.27
392.95	3.73
393.159	1.6
393.369	1.42
393.578	0.81
393.787	0.16
393.997	2.3
394.206	0.58
394.415	2.1
394.625	0.94
394.834	0.44
395.043	-0.09
395.252	2.57
395.462	3.52
395.671	4.62
395.88	4.97
396.089	6.15
396.298	4.8
396.508	4.11
396.717	3.94
396.926	4.37
397.135	3.56
397.344	3.32
397.553	3.79
397.762	4.98
397.971	5.19
398.181	5.05
398.39	5.11
398.599	4.51
398.808	4.12
399.017	4.82
399.226	5.88
399.435	6.75
399.644	6.95
399.853	6.01
400.062	5.73
400.27	5.08
400.479	4.31
400.688	3.81
400.897	4.29
401.106	4.08
401.315	4.02
401.524	4.31
401.733	4.68
401.941	4.7
402.15	4.9
402.359	4.77
402.568	5.19
402.777	5.39
402.985	5.27
403.194	5.08
403.403	5.43
403.612	4.59
403.82	4.4
404.029	4.66
404.238	4.61
404.446	4.57
404.655	4.68
404.864	4.66
405.072	4.47
405.281	4.36
405.489	4.16
405.698	4.25
405.906	4.26
406.115	4.06
406.324	4.32
406.532	4.5
406.741	4.74
406.949	4.62
407.158	4.91
407.366	4.91
407.574	4.92
407.783	4.78
407.991	4.71
408.2	4.57
408.408	4.31
408.617	4.17
408.825	4.07
409.033	4.18
409.242	4.34
409.45	4.53
409.658	4.43
409.867	4.43
410.075	4.38
410.283	4.17
410.491	4.14
410.7	4.19
410.908	4.25
411.116	4.4
411.324	4.39
411.533	4.21
411.741	4.28
411.949	4.31
412.157	4.05
412.365	4.14
412.573	4.15
412.781	4.24
412.99	4.16
413.198	4.46
413.406	4.37
413.614	4.35
413.822	4.12
414.03	4.06
414.238	3.82
414.446	3.94
414.654	3.91
414.862	4.05
415.07	4.08
415.278	4.2
415.486	3.92
415.694	4.01
415.902	3.83
416.109	3.76
416.317	3.68
416.525	3.68
416.733	3.57
416.941	3.7
417.149	3.76
417.357	3.86
417.564	3.96
417.772	4.17
417.98	4.19
418.188	4.08
418.395	3.98
418.603	4.17
418.811	3.84
419.019	3.67
419.226	3.87
419.434	3.87
419.642	3.57
419.849	3.81
420.057	3.8
420.265	3.74
420.472	3.58
420.68	3.62
420.887	3.47
421.095	3.41
421.302	3.4
421.51	3.59
421.717	3.77
421.925	3.89
422.132	3.92
422.34	3.59
422.547	3.58
422.755	3.35
422.962	3.21
423.17	3.24
423.377	3.5
423.585	3.61
423.792	3.6
423.999	3.57
424.207	3.52
424.414	3.52
424.621	3.18
424.829	3.15
425.036	3.21
425.243	3.42
425.451	3.27
425.658	3.37
425.865	3.62
426.072	3.69
426.28	3.71
426.487	3.78
426.694	3.85
426.901	3.6
427.108	3.49
427.315	3.36
427.523	3.52
427.73	3.41
427.937	3.42
428.144	3.27
428.351	3.23
428.558	3.36
428.765	3.39
428.972	3.34
429.179	3.59
429.386	3.82
429.593	3.53
429.8	3.46
430.007	3.64
430.214	3.57
430.421	3.39
430.628	3.23
430.835	3.25
431.042	3.27
431.249	3.38
431.456	3.35
431.662	3.61
431.869	3.86
432.076	3.79
432.283	3.84
432.49	3.9
432.697	3.84
432.903	3.5
433.11	3.55
433.317	3.52
433.524	3.52
433.73	3.45
433.937	3.66
434.144	3.56
434.35	3.43
434.557	3.32
434.764	3.37
434.97	3.26
435.177	3.42
435.384	3.41
435.59	3.53
435.797	3.76
436.003	3.87
436.21	3.74
436.416	3.9
436.623	3.86
436.829	3.81
437.036	3.74
437.242	3.8
437.449	3.61
437.655	3.71
437.862	3.67
438.068	3.76
438.275	3.87
438.481	4.13
438.687	3.93
438.894	3.94
439.1	3.95
439.307	3.98
439.513	3.82
439.719	3.95
439.926	3.99
440.132	3.82
440.338	3.66
440.544	3.81
440.751	3.76
440.957	3.75
441.163	3.8
441.369	3.91
441.575	3.8
441.782	3.85
441.988	3.74
442.194	3.76
442.4	3.66
442.606	3.82
442.812	3.86
443.018	3.94
443.224	3.96
443.431	4.07
443.637	3.86
443.843	3.77
444.049	3.69
444.255	3.67
444.461	3.74
444.667	3.8
444.873	4.03
445.079	3.99
445.284	4.11
445.49	3.95
445.696	3.85
445.902	3.67
446.108	3.77
446.314	3.69
446.52	3.73
446.726	3.92
446.931	3.98
447.137	3.98
447.343	4.04
447.549	4
447.755	3.92
447.96	3.91
448.166	3.86
448.372	3.78
448.578	3.84
448.783	3.85
448.989	3.91
449.195	4.08
449.4	4.09
449.606	4.03
449.812	3.93
450.017	3.9
450.223	3.69
450.428	3.67
450.634	3.79
450.84	3.94
451.045	3.87
451.251	3.91
451.456	4.07
451.662	4.13
451.867	4.13
452.073	4.29
452.278	4.46
452.483	4.46
452.689	4.32
452.894	4.28
453.1	4.15
453.305	4.06
453.51	4.03
453.716	3.97
453.921	4.04
454.127	4.04
454.332	3.96
454.537	3.87
454.742	3.89
454.948	3.86
455.153	3.93
455.358	4.01
455.563	4.17
455.769	4.3
455.974	4.27
456.179	4.22
456.384	4.11
456.589	4.06
456.795	3.93
457	3.89
457.205	3.99
457.41	3.98
457.615	3.87
457.82	3.86
458.025	3.85
458.23	3.77
458.435	3.8
458.64	3.82
458.845	4.05
459.05	4.05
459.255	4.06
459.46	4.09
459.665	4.05
459.87	3.93
460.075	3.9
460.28	3.92
460.485	4.02
460.69	4.07
460.895	3.96
461.099	3.93
461.304	4.04
461.509	4.04
461.714	3.93
461.919	4.15
462.123	4.08
462.328	4.03
462.533	3.92
462.738	4.08
462.942	3.88
463.147	4.07
463.352	4.05
463.556	4.06
