Data from Ofra_PS_T2_2A_2HS27_Reflection_1.txt Node
Date: Wed Jul 21 17:08:23 EDT 2021
User: Adam
Spectrometer: FLMT01687
Trigger mode: 0
Integration Time (sec): 1.100000E0
Scans to average: 2
Electric dark correction enabled: true
Nonlinearity correction enabled: false
Boxcar width: 2
XAxis mode: Wavelengths
Number of Pixels in Spectrum: 3648
>>>>>Begin Spectral Data<<<<<
179.494	425
179.716	521.18
179.937	481.1
180.158	491.56
180.38	792.03
180.601	310.64
180.823	62.47
181.044	-67.65
181.265	113.42
181.486	45.38
181.708	109.76
181.929	627.04
182.15	-322.89
182.372	144.51
182.593	39.29
182.814	28.7
183.035	-9.09
183.257	-17.6
183.478	-154.1
183.699	-90.53
183.92	-102.94
184.141	-47.9
184.363	-125.5
184.584	-59.24
184.805	-37.71
185.026	17.71
185.247	30.77
185.468	31.51
185.689	20.01
185.91	39.88
186.132	21.12
186.353	16.01
186.574	56.04
186.795	57.31
187.016	6.69
187.237	-8.53
187.458	-36.4
187.679	-62.28
187.9	-42.03
188.121	-37.09
188.342	-40.71
188.563	12.08
188.784	38.95
189.005	22.55
189.226	41.83
189.447	48.2
189.667	-201.58
189.888	-411.45
190.109	-1166.56
190.33	-544.68
190.551	-1012.61
190.772	-221.13
190.993	-182.16
191.214	-165.34
191.434	-126.87
191.655	-47.27
191.876	-65.23
192.097	-97.77
192.318	-147.8
192.538	-201.83
192.759	-151.4
192.98	-89.68
193.201	-25.64
193.421	2.27
193.642	17.17
193.863	28.77
194.083	20.99
194.304	1.28
194.525	2.36
194.745	-24.84
194.966	-50.33
195.187	-66.48
195.407	-102.45
195.628	-151.74
195.848	-133.16
196.069	-139.1
196.29	-56.47
196.51	-62.54
196.731	-76.18
196.951	-93.7
197.172	-93.67
197.392	-147.78
197.613	-113.13
197.833	-131.45
198.054	-110.02
198.274	-76.96
198.495	-93.1
198.715	-66.74
198.936	-84.77
199.156	-78.31
199.377	-178.79
199.597	-143.69
199.817	-152.39
200.038	-82.53
200.258	-122.15
200.479	-21.08
200.699	-7.11
200.919	21.1
201.14	-8.11
201.36	-62.97
201.58	-11.64
201.801	12.14
202.021	-25.33
202.241	-8.91
202.461	9.17
202.682	-87.49
202.902	-165.72
203.122	-92.7
203.342	-96.32
203.563	-51.32
203.783	-17.14
204.003	-61.52
204.223	-43.31
204.443	12.18
204.663	-22.64
204.884	-13.15
205.104	34
205.324	16.29
205.544	-2.98
205.764	32.53
205.984	20.18
206.204	16.81
206.424	18.45
206.644	-31.42
206.864	-10.67
207.084	-17.54
207.304	36.85
207.525	-62.27
207.745	16.65
207.964	8
208.184	-39.73
208.404	-92.92
208.624	-80.25
208.844	-96.41
209.064	-391.53
209.284	-403.69
209.504	-176.41
209.724	-45.31
209.944	-6.58
210.164	26.8
210.384	43.9
210.604	35.5
210.823	-10.82
211.043	-36.59
211.263	-22.18
211.483	-27.02
211.703	-95.32
211.922	-54.01
212.142	1.76
212.362	5
212.582	-27.98
212.801	-0.34
213.021	-32.59
213.241	-53.23
213.461	-105.17
213.68	-116.47
213.9	-92.82
214.12	-57.48
214.339	-121.62
214.559	-67.21
214.779	-11.43
214.998	11.13
215.218	-34.28
215.438	5.16
215.657	-6.77
215.877	-22.48
216.096	-30.51
216.316	-16.08
216.535	-37.6
216.755	-35.35
216.974	-126.89
217.194	-155.74
217.413	-149.77
217.633	-146.71
217.852	-219.05
218.072	-93.07
218.291	-56.05
218.511	-12.31
218.73	-35.57
218.95	-34.74
219.169	-42.35
219.389	-81.2
219.608	-60.36
219.827	-55.73
220.047	-28.5
220.266	-4.94
220.485	-2.25
220.705	0.35
220.924	2.24
221.143	17.08
221.363	-3.58
221.582	20.01
221.801	19.97
222.021	30.83
222.24	1.08
222.459	78.27
222.678	28.18
222.897	-18.24
223.117	-45.7
223.336	-47.67
223.555	-46.08
223.774	-0.5
223.993	-10.89
224.213	19.49
224.432	2.91
224.651	35.56
224.87	6.95
225.089	25.89
225.308	26.74
225.527	43.2
225.746	31.31
225.965	20.16
226.184	-0.1
226.404	10.93
226.623	-6.97
226.842	-2.77
227.061	23.2
227.28	28.41
227.499	27.85
227.718	33.29
227.936	20.63
228.155	21.46
228.374	14.99
228.593	17.71
228.812	7.76
229.031	12.66
229.25	-34.43
229.469	-24.66
229.688	-36.2
229.907	-1.47
230.125	3.36
230.344	13.24
230.563	20.48
230.782	35.29
231.001	-40.88
231.22	-33.69
231.438	-0.09
231.657	-4.78
231.876	-20.2
232.095	25.62
232.313	21.48
232.532	-1.52
232.751	-16.24
232.969	-41.53
233.188	-96.37
233.407	10.32
233.625	-9.15
233.844	-19.92
234.063	8.96
234.281	24.19
234.5	-6.14
234.719	2.76
234.937	8.05
235.156	5.4
235.374	7.15
235.593	-6.85
235.811	-9.26
236.03	-13.9
236.249	-56.32
236.467	-42.48
236.686	-6.63
236.904	16.06
237.123	9.76
237.341	4.63
237.559	2.22
237.778	-8.31
237.996	-66.66
238.215	-29.68
238.433	-12.09
238.652	-10.53
238.87	-38.51
239.088	5.54
239.307	4.77
239.525	-7.95
239.743	-25.71
239.962	-9.16
240.18	-45.64
240.398	-97.32
240.617	-76.72
240.835	-76.87
241.053	-38.44
241.271	8.02
241.49	37.55
241.708	20.39
241.926	21.79
242.144	4.1
242.363	-55.47
242.581	-101.29
242.799	-54.49
243.017	-27.56
243.235	-47.25
243.453	-24.24
243.672	-15.72
243.89	-11.04
244.108	-27.49
244.326	-6.2
244.544	-9.81
244.762	-10.99
244.98	-17.62
245.198	-10.47
245.416	-34.05
245.634	-39.49
245.852	-43.78
246.07	-57.03
246.288	-53.09
246.506	-96.79
246.724	-41.26
246.942	-17.4
247.16	15.81
247.378	29.04
247.596	68.71
247.814	56.12
248.032	11.77
248.25	1.03
248.468	-3.68
248.685	2.42
248.903	16.72
249.121	29.67
249.339	8.08
249.557	-2.08
249.775	-2.99
249.992	-75.95
250.21	-58.05
250.428	-38.19
250.646	-55.36
250.863	-67.58
251.081	-27.41
251.299	-27.29
251.517	-39.2
251.734	-19.33
251.952	-24.41
252.17	-18.25
252.387	-10.94
252.605	-5.26
252.823	-4.87
253.04	8.92
253.258	21.96
253.475	6.58
253.693	23.21
253.911	25.16
254.128	28.25
254.346	15.58
254.563	-1.18
254.781	-30.32
254.998	-59.07
255.216	-64.04
255.433	-51.09
255.651	-21.92
255.868	-0.69
256.086	31.73
256.303	7.5
256.521	14.84
256.738	8.52
256.956	-16.88
257.173	-45.12
257.39	-53.79
257.608	-75.88
257.825	6.27
258.043	44.06
258.26	62.22
258.477	91.33
258.695	87.7
258.912	8.9
259.129	15.35
259.346	-24.11
259.564	-47.46
259.781	-45.12
259.998	16.03
260.216	7.94
260.433	41.46
260.65	43.73
260.867	52.94
261.084	12.23
261.302	12.67
261.519	17.37
261.736	-23.12
261.953	-41.66
262.17	-2.47
262.387	-32.41
262.604	-68.13
262.822	-59
263.039	-52.21
263.256	-103.7
263.473	-49.6
263.69	-34.34
263.907	9.66
264.124	20.54
264.341	33.75
264.558	11.97
264.775	25.64
264.992	1.14
265.209	0.1
265.426	9.59
265.643	17.19
265.86	16.1
266.077	18.06
266.294	-2.73
266.51	-25.65
266.727	-43.86
266.944	-49.66
267.161	-63.15
267.378	-60.56
267.595	-38.59
267.812	-48.96
268.028	-62.93
268.245	-20.28
268.462	-28.24
268.679	-27.67
268.896	2
269.112	20.72
269.329	5.04
269.546	9.54
269.763	1.65
269.979	-4.41
270.196	-23.76
270.413	-57.01
270.629	-75.04
270.846	-83.95
271.063	-62.01
271.279	-71.32
271.496	-44.78
271.712	-14.38
271.929	-1.57
272.146	-29.13
272.362	-15.66
272.579	12.87
272.795	8.72
273.012	10.09
273.228	23.45
273.445	2.49
273.661	-15.54
273.878	-49.61
274.094	-34.55
274.311	-65.4
274.527	6.67
274.744	1.25
274.96	10.26
275.177	16.28
275.393	19.7
275.609	6.44
275.826	27.57
276.042	32.14
276.259	6
276.475	25.35
276.691	20.17
276.908	1.65
277.124	8.16
277.34	15.71
277.557	2.78
277.773	-1.8
277.989	-12.05
278.205	-11.42
278.422	11.14
278.638	22.04
278.854	31.28
279.07	36
279.286	65.53
279.503	42.24
279.719	38.57
279.935	28.09
280.151	28.53
280.367	-18.51
280.583	-37.75
280.799	-59.11
281.016	-79.16
281.232	-29.2
281.448	-23.25
281.664	2.16
281.88	-7.41
282.096	4.62
282.312	0.58
282.528	5.81
282.744	0.67
282.96	11.77
283.176	-0.24
283.392	5.92
283.608	2.41
283.824	7.83
284.04	18.85
284.256	22.99
284.471	0.26
284.687	2.26
284.903	5.42
285.119	14.2
285.335	-4.65
285.551	3.58
285.767	-17.42
285.982	-29.05
286.198	-67.55
286.414	-4.33
286.63	-4.9
286.846	18.53
287.061	-9.9
287.277	28.28
287.493	-7.42
287.709	3.49
287.924	-11.76
288.14	34.98
288.356	27.28
288.571	46.48
288.787	25.61
289.003	19.72
289.218	4.38
289.434	-32.64
289.65	-34.64
289.865	-45.74
290.081	-21.62
290.296	-15.12
290.512	-3.33
290.727	-12.96
290.943	-0.42
291.159	-19.49
291.374	-17.7
291.59	-29.03
291.805	-21.09
292.021	-16
292.236	-17.26
292.451	-9.56
292.667	-1.19
292.882	5.35
293.098	-9.28
293.313	-9.85
293.529	-42.09
293.744	-51.55
293.959	-61.25
294.175	-42.33
294.39	-14.51
294.605	7.43
294.821	25.43
295.036	31.1
295.251	38.81
295.467	37.97
295.682	44.66
295.897	11.83
296.112	-16.4
296.328	-19.43
296.543	-60.62
296.758	-72.05
296.973	-13.18
297.188	22.9
297.404	-8.41
297.619	-11.27
297.834	-23.37
298.049	-69.24
298.264	-94.23
298.479	-27.9
298.694	-22.06
298.909	-1.75
299.125	13.05
299.34	25.85
299.555	-2.18
299.77	10.37
299.985	-28.79
300.2	-66.33
300.415	-87.59
300.63	-51.34
300.845	-45.67
301.06	-55.95
301.275	-29.9
301.49	-10.83
301.704	-22.28
301.919	-56.71
302.134	-49.13
302.349	-60.57
302.564	-127.15
302.779	-173.26
302.994	-179.35
303.209	-127.62
303.423	-77.13
303.638	13.41
303.853	-2.2
304.068	0.66
304.283	13.16
304.497	1.69
304.712	-19.06
304.927	-14.33
305.142	-12.86
305.356	-6.41
305.571	-2.01
305.786	-21.68
306	-30.33
306.215	-21.17
306.43	-65.96
306.644	-56.69
306.859	4.48
307.074	15.47
307.288	-20.37
307.503	-16.7
307.717	-36.34
307.932	-38.22
308.147	-43.88
308.361	-17.23
308.576	-21.04
308.79	-53.46
309.005	-38.39
309.219	-30.84
309.434	-56.72
309.648	-60.59
309.863	-29.33
310.077	-40.94
310.292	-41.72
310.506	-18.39
310.72	11.97
310.935	19.85
311.149	16.83
311.364	42.78
311.578	44.88
311.792	38.34
312.007	44.62
312.221	28.81
312.435	15.88
312.649	6.74
312.864	4.27
313.078	6.91
313.292	67.25
313.507	46.54
313.721	59.26
313.935	45.85
314.149	21.77
314.363	7.15
314.578	6.99
314.792	9.67
315.006	-14.89
315.22	5.83
315.434	-0.49
315.648	6.39
315.862	-6.88
316.077	1.29
316.291	-18.06
316.505	-21.43
316.719	-62.87
316.933	-71.37
317.147	-51.52
317.361	-98.36
317.575	-109.33
317.789	-136.1
318.003	-149.2
318.217	-136.71
318.431	-42.46
318.645	-2.8
318.859	13.85
319.073	23.49
319.287	13.47
319.5	-17.66
319.714	-52.57
319.928	-81.93
320.142	-94.79
320.356	-36.94
320.57	10.03
320.784	17.59
320.997	29.48
321.211	3.52
321.425	-44.21
321.639	-75.77
321.853	-18.47
322.066	-3.75
322.28	-1.05
322.494	11.32
322.707	21.49
322.921	-5.14
323.135	-6.04
323.349	-8.13
323.562	-30.77
323.776	-36.48
323.989	-26.65
324.203	-42.49
324.417	-37.84
324.63	-54.4
324.844	-61.72
325.057	-48.87
325.271	-37.9
325.485	-5.22
325.698	28.61
325.912	35
326.125	-7.87
326.339	-1.27
326.552	-29.27
326.766	-39.76
326.979	-15.76
327.193	37.04
327.406	30.74
327.619	22.95
327.833	35.37
328.046	13.52
328.26	-35.36
328.473	-18.42
328.686	-50.77
328.9	-50.73
329.113	-40.71
329.326	-52.26
329.54	-40.17
329.753	-23.97
329.966	-58.15
330.179	-45.53
330.393	-13.35
330.606	-9.42
330.819	7.15
331.032	25.26
331.246	31.21
331.459	51.69
331.672	43.92
331.885	43.01
332.098	18.49
332.311	-0.46
332.525	-53.45
332.738	-25.12
332.951	-11.43
333.164	35.39
333.377	49.48
333.59	62.26
333.803	47.94
334.016	44.07
334.229	26.2
334.442	24.4
334.655	35.19
334.868	31.76
335.081	15.33
335.294	1.2
335.507	-21.97
335.72	-26.92
335.933	-37.46
336.146	-48.02
336.359	-44.11
336.572	-66.19
336.785	-98.06
336.997	-69.5
337.21	-42.03
337.423	-41.56
337.636	-26.63
337.849	-11.09
338.062	-15.94
338.274	-10.76
338.487	-26.36
338.7	-26.86
338.913	-57.63
339.125	-97.57
339.338	-150.99
339.551	-118.87
339.763	-77.23
339.976	-35.3
340.189	-11.27
340.402	-6.53
340.614	-9.58
340.827	-21.64
341.039	-39.84
341.252	-41.49
341.465	-17.79
341.677	-12.49
341.89	-16.45
342.102	7.05
342.315	4.6
342.527	-42.82
342.74	-47.26
342.952	-31.03
343.165	-37.42
343.377	-9.06
343.59	7.45
343.802	26.7
344.015	23.99
344.227	35.03
344.44	19.88
344.652	15.01
344.864	-11.86
345.077	7.99
345.289	6.35
345.502	10.08
345.714	5.81
345.926	19.26
346.139	14.52
346.351	20.15
346.563	28.98
346.775	40.09
346.988	29.28
347.2	12.9
347.412	-26.4
347.624	-55.95
347.837	-78.31
348.049	-57.63
348.261	-8.08
348.473	8.68
348.685	2.04
348.897	-9.85
349.11	-19.77
349.322	-46.45
349.534	-35.9
349.746	-27.9
349.958	-18.33
350.17	-26.6
350.382	-8.38
350.594	-4.75
350.806	0.63
351.018	-2.29
351.23	-13
351.442	-64.96
351.654	-85.94
351.866	-87.3
352.078	-59.91
352.29	-25.18
352.502	4.36
352.714	12.76
352.926	9.34
353.138	5.04
353.35	-8.57
353.561	-16.71
353.773	-40.74
353.985	-30.17
354.197	-45.66
354.409	-44.97
354.621	-52.53
354.832	-28.26
355.044	-25.96
355.256	-20.76
355.468	-0.42
355.679	-2.84
355.891	6.02
356.103	-9.83
356.314	1.6
356.526	-13.49
356.738	-7.48
356.949	-36.51
357.161	-29.93
357.373	-26.81
357.584	-43.59
357.796	-26.04
358.008	-19.85
358.219	5.89
358.431	-4.24
358.642	7.33
358.854	13.75
359.065	4.53
359.277	-23.59
359.488	-39.79
359.7	-48.2
359.911	-83.18
360.123	-56.24
360.334	-73.15
360.546	-83.34
360.757	-71.55
360.969	-42.85
361.18	-40.67
361.391	-15.12
361.603	-15.16
361.814	-16.78
362.025	-20.67
362.237	-16.61
362.448	7.28
362.659	19.2
362.871	17.65
363.082	15.05
363.293	17.75
363.504	-6.88
363.716	-31.27
363.927	-48.86
364.138	-60.73
364.349	-89.1
364.56	-74.07
364.772	-52.17
364.983	-20.49
365.194	-21.64
365.405	-0.94
365.616	4.21
365.827	4.21
366.038	-28.09
366.25	-24.63
366.461	-76.26
366.672	-51.81
366.883	-33.31
367.094	-15.73
367.305	-30.41
367.516	-2.71
367.727	-24.69
367.938	-39.28
368.149	-36.75
368.36	-11.05
368.571	-13.31
368.781	-22.02
368.992	-29.28
369.203	-50.85
369.414	-76.12
369.625	-85.61
369.836	-76.47
370.047	-96.59
370.258	-67.82
370.468	-65.42
370.679	-71.69
370.89	-65.64
371.101	-31.59
371.312	-33.03
371.522	-21.85
371.733	-13.35
371.944	1.69
372.155	-9.39
372.365	-12.22
372.576	-9.91
372.787	-10.72
372.997	-46.92
373.208	-34.86
373.419	-11.9
373.629	-45.69
373.84	-53.46
374.05	-48.06
374.261	-43
374.472	-67.53
374.682	-14.71
374.893	-4.56
375.103	23.08
375.314	15.81
375.524	16.77
375.735	26
375.945	29.17
376.156	5.55
376.366	4.65
376.577	9.43
376.787	-5.74
376.997	-11.38
377.208	-8.48
377.418	-14.9
377.629	-9.98
377.839	-24.04
378.049	-16.7
378.26	-5.25
378.47	4.54
378.68	-9.19
378.89	-4.26
379.101	-14.33
379.311	-34.57
379.521	-72.3
379.732	-59.4
379.942	-55.64
380.152	-71.46
380.362	-27
380.572	-13.83
380.783	-0.26
380.993	14.45
381.203	31.12
381.413	31.12
381.623	38.94
381.833	27.93
382.043	15.2
382.253	-2.44
382.463	-9.46
382.674	-24.85
382.884	-42.69
383.094	-48.72
383.304	-32.03
383.514	-25.41
383.724	-14.95
383.934	-18.07
384.144	-21.89
384.353	-33.53
384.563	-39.38
384.773	-28.92
384.983	-30.48
385.193	-8.21
385.403	-0.11
385.613	0.58
385.823	-13.15
386.033	-6.12
386.242	-21.44
386.452	-27.19
386.662	-38.59
386.872	-23.65
387.082	-31.63
387.291	-31.84
387.501	-27.58
387.711	-16.7
387.921	-22.37
388.13	-20.6
388.34	-8.8
388.55	-12.68
388.759	-11.3
388.969	-6.35
389.179	-4.38
389.388	-7.76
389.598	-2.32
389.807	-7.92
390.017	-13.05
390.227	-12.59
390.436	-13.03
390.646	-12.59
390.855	-8.37
391.065	-7.95
391.274	-9.51
391.484	-12.31
391.693	-9.39
391.903	-6.47
392.112	-1.25
392.322	0.88
392.531	6.57
392.74	5.56
392.95	-0.14
393.159	-1.9
393.369	-0.01
393.578	-0.88
393.787	-2.05
393.997	0.52
394.206	-0.98
394.415	-1.17
394.625	-3.81
394.834	-4.22
395.043	-3.42
395.252	-1.52
395.462	0.1
395.671	2.09
395.88	3.2
396.089	3.24
396.298	1.84
396.508	0.94
396.717	0.42
396.926	0.32
397.135	-0.53
397.344	-0.17
397.553	0.86
397.762	2.05
397.971	2.27
398.181	3.24
398.39	2.83
398.599	1.77
398.808	1.23
399.017	1.91
399.226	3.09
399.435	4.26
399.644	4.44
399.853	3.85
400.062	3.05
400.27	1.78
400.479	1.25
400.688	0.87
400.897	1.14
401.106	1.4
401.315	1.76
401.524	1.91
401.733	2.49
401.941	3.05
402.15	3.27
402.359	2.93
402.568	3.42
402.777	3.44
402.985	3.03
403.194	2.83
403.403	3.04
403.612	2.33
403.82	2.1
404.029	2.42
404.238	2.26
404.446	2.28
404.655	2.15
404.864	2.04
405.072	1.84
405.281	2.05
405.489	1.82
405.698	1.87
405.906	1.81
406.115	1.76
406.324	1.74
406.532	2.03
406.741	2.42
406.949	2.56
407.158	2.57
407.366	2.53
407.574	2.54
407.783	2.4
407.991	2.2
408.2	2.37
408.408	2.38
408.617	2.21
408.825	2.11
409.033	2.42
409.242	2.34
409.45	2.43
409.658	2.38
409.867	2.51
410.075	2.28
410.283	2.2
410.491	2.01
410.7	2.02
410.908	2.07
411.116	2.33
411.324	2.38
411.533	2.34
411.741	2.5
411.949	2.39
412.157	2.11
412.365	1.99
412.573	2.08
412.781	2.07
412.99	2.03
413.198	2.33
413.406	2.32
413.614	2.29
413.822	2.07
414.03	1.93
414.238	1.61
414.446	1.85
414.654	1.66
414.862	1.84
415.07	1.99
415.278	2.22
415.486	1.9
415.694	2.11
415.902	1.92
416.109	1.94
416.317	1.84
416.525	1.76
416.733	1.73
416.941	2.06
417.149	2.04
417.357	2.05
417.564	2.33
417.772	2.54
417.98	2.36
418.188	2.22
418.395	2.3
418.603	2.39
418.811	2.08
419.019	2.05
419.226	2.35
419.434	2.46
419.642	2.21
419.849	2.25
420.057	2.24
420.265	2.04
420.472	1.66
420.68	1.73
420.887	1.75
421.095	1.8
421.302	1.79
421.51	1.99
421.717	2.1
421.925	2.27
422.132	2.08
422.34	1.91
422.547	2.05
422.755	1.9
422.962	1.64
423.17	1.57
423.377	1.71
423.585	1.67
423.792	1.59
423.999	1.79
424.207	1.87
424.414	2.01
424.621	1.89
424.829	1.95
425.036	1.89
425.243	2.01
425.451	1.8
425.658	1.61
425.865	1.76
426.072	1.74
426.28	1.96
426.487	1.94
426.694	2.21
426.901	2.07
427.108	2.15
427.315	1.84
427.523	2.2
427.73	2.23
427.937	2.16
428.144	1.99
428.351	2.07
428.558	2.03
428.765	1.86
428.972	1.85
429.179	1.97
429.386	2.2
429.593	1.98
429.8	1.8
430.007	1.91
430.214	2.05
430.421	1.8
430.628	1.65
430.835	1.68
431.042	1.68
431.249	1.63
431.456	1.68
431.662	1.9
431.869	2.15
432.076	2.29
432.283	2.28
432.49	2.2
432.697	2.11
432.903	1.91
433.11	1.78
433.317	1.9
433.524	2.13
433.73	2.2
433.937	2.39
434.144	2.29
434.35	2.28
434.557	2.09
434.764	2.08
434.97	1.99
435.177	2.23
435.384	2.1
435.59	2.23
435.797	2.47
436.003	2.5
436.21	2.47
436.416	2.59
436.623	2.69
436.829	2.63
437.036	2.78
437.242	2.72
437.449	2.62
437.655	2.47
437.862	2.53
438.068	2.37
438.275	2.55
438.481	2.71
438.687	2.74
438.894	2.64
439.1	2.78
439.307	2.9
439.513	2.82
439.719	2.85
439.926	2.99
440.132	3.02
440.338	2.77
440.544	2.82
440.751	2.78
440.957	2.76
441.163	2.61
441.369	2.7
441.575	2.52
441.782	2.57
441.988	2.44
442.194	2.52
442.4	2.52
442.606	2.92
442.812	3
443.018	3.12
443.224	3.22
443.431	3.29
443.637	3.02
443.843	2.82
444.049	2.87
444.255	2.68
444.461	2.69
444.667	2.63
444.873	2.83
445.079	2.83
445.284	3.02
445.49	2.83
445.696	2.74
445.902	2.62
446.108	2.49
446.314	2.34
446.52	2.46
446.726	2.83
446.931	2.88
447.137	2.96
447.343	3.11
447.549	3.06
447.755	2.84
447.96	2.91
448.166	2.84
448.372	2.77
448.578	2.85
448.783	2.89
448.989	2.96
449.195	3.19
449.4	3.22
449.606	3.14
449.812	3.05
450.017	3.03
450.223	2.84
450.428	2.76
450.634	2.88
450.84	3.03
451.045	2.99
451.251	2.99
451.456	3.28
451.662	3.34
451.867	3.42
452.073	3.35
452.278	3.48
452.483	3.41
452.689	3.26
452.894	3.27
453.1	3.3
453.305	3.18
453.51	3.17
453.716	3.2
453.921	3.2
454.127	3.14
454.332	3.11
454.537	3.03
454.742	3.06
454.948	2.98
455.153	3.02
455.358	3.14
455.563	3.26
455.769	3.41
455.974	3.36
456.179	3.34
456.384	3.31
456.589	3.3
456.795	3.1
457	3.11
457.205	3.37
457.41	3.26
457.615	3.17
457.82	3.28
458.025	3.33
458.23	3.07
458.435	3.18
458.64	3.12
458.845	3.22
459.05	3.26
459.255	3.3
459.46	3.28
459.665	3.34
459.87	3.35
460.075	3.29
460.28	3.37
460.485	3.51
460.69	3.58
460.895	3.36
461.099	3.34
