Data from Ofra_2a_PS_1GT42_Reflection_2.txt Node
Date: Tue Jul 20 09:35:09 EDT 2021
User: Adam
Spectrometer: FLMT01687
Trigger mode: 0
Integration Time (sec): 9.450000E-1
Scans to average: 3
Electric dark correction enabled: true
Nonlinearity correction enabled: false
Boxcar width: 3
XAxis mode: Wavelengths
Number of Pixels in Spectrum: 3648
>>>>>Begin Spectral Data<<<<<
179.494	719.53
179.716	496.13
179.937	589.01
180.158	1768.75
180.38	-632.56
180.601	-71.75
180.823	52.33
181.044	84.46
181.265	0.96
181.486	50.23
181.708	-1152.17
181.929	-39.53
182.15	-2.27
182.372	141.16
182.593	163.7
182.814	126.95
183.035	93.8
183.257	61.44
183.478	30.73
183.699	42.53
183.92	50.12
184.141	46.82
184.363	41.67
184.584	31.27
184.805	40.73
185.026	28.03
185.247	-2.82
185.468	-16.14
185.689	13.74
185.91	6.81
186.132	18.54
186.353	-16.51
186.574	-0.99
186.795	-0.4
187.016	19.69
187.237	4.44
187.458	-2.49
187.679	-15.6
187.9	20.36
188.121	11.1
188.342	22.92
188.563	13.47
188.784	5.55
189.005	16.2
189.226	14.76
189.447	-3.33
189.667	-4.83
189.888	-6.99
190.109	-9.14
190.33	-12.74
190.551	-15.33
190.772	-18.53
190.993	6.58
191.214	12.09
191.434	3.38
191.655	8.35
191.876	13.18
192.097	20.57
192.318	30.81
192.538	28.13
192.759	21.89
192.98	11.52
193.201	20.07
193.421	25.68
193.642	13.98
193.863	2.69
194.083	-14.39
194.304	4.76
194.525	38.82
194.745	13.3
194.966	19.16
195.187	32.01
195.407	25.63
195.628	34.81
195.848	26.11
196.069	17
196.29	16.69
196.51	-0.76
196.731	0.23
196.951	-3.33
197.172	-13.55
197.392	9.34
197.613	9.22
197.833	23.23
198.054	16.44
198.274	-9.27
198.495	-3.83
198.715	-18.34
198.936	-21.94
199.156	-6.68
199.377	-20.74
199.597	-8.68
199.817	20.84
200.038	20.78
200.258	21.07
200.479	18.84
200.699	5.26
200.919	0.64
201.14	13.88
201.36	4.78
201.58	4.93
201.801	12.81
202.021	6.85
202.241	16.6
202.461	26.19
202.682	39.13
202.902	42.74
203.122	36.14
203.342	51.04
203.563	54.52
203.783	54.42
204.003	49.01
204.223	39.82
204.443	36.4
204.663	45.27
204.884	30.86
205.104	30.07
205.324	35.59
205.544	34.29
205.764	17.63
205.984	23.39
206.204	14.42
206.424	27.8
206.644	16.83
206.864	1.59
207.084	20.62
207.304	12.3
207.525	10.66
207.745	11.8
207.964	3.8
208.184	15.75
208.404	19.02
208.624	-9.18
208.844	-13.29
209.064	-14.34
209.284	-17.72
209.504	-32.75
209.724	-54.03
209.944	-39.72
210.164	-20.84
210.384	-11.84
210.604	-29.09
210.823	-9.01
211.043	-9.95
211.263	5.33
211.483	1.08
211.703	5.56
211.922	13.72
212.142	17.86
212.362	11.23
212.582	16.09
212.801	10.09
213.021	9.98
213.241	3.54
213.461	-1.87
213.68	3.55
213.9	14.14
214.12	13.12
214.339	19.11
214.559	7.02
214.779	6.56
214.998	14.27
215.218	7.31
215.438	11
215.657	13.09
215.877	8.84
216.096	22.37
216.316	14.33
216.535	0.67
216.755	-16.05
216.974	-23.93
217.194	-14.48
217.413	8.3
217.633	9.32
217.852	15.73
218.072	11.3
218.291	47.2
218.511	47.43
218.73	38.96
218.95	36.82
219.169	33.44
219.389	34.4
219.608	56.56
219.827	44.42
220.047	39.85
220.266	25.65
220.485	15.04
220.705	9.81
220.924	11.26
221.143	7.21
221.363	5.85
221.582	13.56
221.801	35.52
222.021	35.45
222.24	46.5
222.459	38.2
222.678	33.93
222.897	31.05
223.117	31.07
223.336	16.41
223.555	5.3
223.774	9.82
223.993	11.89
224.213	3.97
224.432	-0.16
224.651	-19.37
224.87	-12.26
225.089	4.07
225.308	-1.1
225.527	-0.15
225.746	5.16
225.965	5.45
226.184	15.58
226.404	-2.15
226.623	2.44
226.842	0.08
227.061	9.97
227.28	35.3
227.499	37.68
227.718	26.99
227.936	25.8
228.155	24.51
228.374	21.2
228.593	13.83
228.812	-0.97
229.031	-6.13
229.25	10.53
229.469	15.68
229.688	6.54
229.907	5.91
230.125	9.45
230.344	15.59
230.563	18.89
230.782	9.64
231.001	11.04
231.22	9.79
231.438	22.42
231.657	35.55
231.876	32.12
232.095	29.67
232.313	33.58
232.532	32.14
232.751	44.67
232.969	51.66
233.188	46.14
233.407	50.46
233.625	38.51
233.844	30.79
234.063	29.3
234.281	18.75
234.5	9.73
234.719	1.58
234.937	0.74
235.156	1.2
235.374	0.26
235.593	0.17
235.811	-11.13
236.03	-19.77
236.249	5.52
236.467	-1.38
236.686	23.96
236.904	23.53
237.123	31.28
237.341	42.05
237.559	48.23
237.778	40.16
237.996	46.27
238.215	30.9
238.433	40.7
238.652	39.77
238.87	36.81
239.088	20.3
239.307	15.58
239.525	8.14
239.743	2.69
239.962	-8.29
240.18	-19.6
240.398	-17.78
240.617	4.76
240.835	12.31
241.053	28.12
241.271	41.62
241.49	31.14
241.708	29.96
241.926	22.74
242.144	18.67
242.363	-1.23
242.581	-8.65
242.799	-17.87
243.017	-2.23
243.235	-1.82
243.453	4.99
243.672	1.99
243.89	17.54
244.108	20.77
244.326	11.38
244.544	14.09
244.762	16.93
244.98	12.99
245.198	6.8
245.416	9.82
245.634	6.54
245.852	13.8
246.07	8.46
246.288	7.02
246.506	11.06
246.724	25.86
246.942	29.28
247.16	23.14
247.378	16.07
247.596	19.43
247.814	13.37
248.032	14.16
248.25	3.88
248.468	2.96
248.685	7.81
248.903	11.68
249.121	14.58
249.339	16.27
249.557	24.69
249.775	13.84
249.992	13.21
250.21	5.1
250.428	7.15
250.646	12.46
250.863	14.79
251.081	3
251.299	27.27
251.517	26.84
251.734	37.87
251.952	40.9
252.17	16.7
252.387	25.51
252.605	28.78
252.823	4.95
253.04	1.1
253.258	2.23
253.475	6.98
253.693	31.17
253.911	28.68
254.128	21.18
254.346	24.58
254.563	23.62
254.781	23.02
254.998	18.23
255.216	10.2
255.433	8.46
255.651	15.01
255.868	17.37
256.086	13.98
256.303	11.2
256.521	-0.35
256.738	-3.32
256.956	-2.59
257.173	1.4
257.39	11.07
257.608	17.26
257.825	23.16
258.043	34.56
258.26	36.13
258.477	36.3
258.695	38.66
258.912	38.79
259.129	28.21
259.346	26.5
259.564	20.97
259.781	32.47
259.998	29.35
260.216	28.73
260.433	25.02
260.65	36.19
260.867	25.05
261.084	28.82
261.302	15.51
261.519	14.06
261.736	13.64
261.953	15.02
262.17	12.01
262.387	18.23
262.604	5.77
262.822	9.2
263.039	8.18
263.256	5.22
263.473	-3.99
263.69	-14.59
263.907	-4.88
264.124	-1.17
264.341	-2.83
264.558	1.6
264.775	0.52
264.992	13.37
265.209	25.95
265.426	20.1
265.643	22.75
265.86	23.37
266.077	20.31
266.294	25.8
266.51	13.93
266.727	1.74
266.944	-47.54
267.161	-44.52
267.378	-51.75
267.595	-47.83
267.812	-56.9
268.028	-44.17
268.245	-29.44
268.462	14.26
268.679	2.1
268.896	7.62
269.112	13.29
269.329	22.83
269.546	22.01
269.763	21.68
269.979	12.33
270.196	19.66
270.413	17.25
270.629	13.37
270.846	12.76
271.063	17.64
271.279	9.14
271.496	11.95
271.712	10.23
271.929	20.64
272.146	21.77
272.362	11.14
272.579	13.08
272.795	11.92
273.012	7.63
273.228	7.38
273.445	1.36
273.661	7.54
273.878	12.31
274.094	12.15
274.311	18.48
274.527	27.72
274.744	25.6
274.96	18.97
275.177	20.01
275.393	25.04
275.609	18.09
275.826	24.35
276.042	31.79
276.259	27.82
276.475	22.59
276.691	16.88
276.908	4.86
277.124	7.52
277.34	-1.42
277.557	-12.02
277.773	-7.52
277.989	-3.6
278.205	-8.98
278.422	12.75
278.638	16.5
278.854	20.48
279.07	15.24
279.286	17.05
279.503	19.92
279.719	31.37
279.935	18.34
280.151	30.49
280.367	26.02
280.583	26.57
280.799	26.19
281.016	25.7
281.232	25.26
281.448	17.82
281.664	0.71
281.88	13.14
282.096	30.68
282.312	26.79
282.528	26.66
282.744	12.46
282.96	26.91
283.176	32.68
283.392	29.84
283.608	23.12
283.824	23.07
284.04	16.11
284.256	21.96
284.471	20.54
284.687	13.45
284.903	10.94
285.119	-8.29
285.335	-1.85
285.551	1.66
285.767	3.95
285.982	-1.82
286.198	-4.56
286.414	9.73
286.63	23.98
286.846	20.79
287.061	28.43
287.277	27.73
287.493	26.35
287.709	34.34
287.924	28.15
288.14	22.49
288.356	33.91
288.571	20.38
288.787	18.3
289.003	23.29
289.218	13.82
289.434	16.57
289.65	25.13
289.865	28.61
290.081	30.45
290.296	29.48
290.512	28.06
290.727	36.42
290.943	24.19
291.159	17.78
291.374	3.17
291.59	-0.2
291.805	0.75
292.021	-3.01
292.236	2.91
292.451	8.35
292.667	11.22
292.882	15.13
293.098	21.35
293.313	12.63
293.529	12.4
293.744	7.1
293.959	6.52
294.175	2.31
294.39	-2.12
294.605	8.05
294.821	9.26
295.036	12.34
295.251	27.53
295.467	30.24
295.682	33.26
295.897	30.93
296.112	26.35
296.328	28.08
296.543	28.36
296.758	14.05
296.973	5.37
297.188	-5.48
297.404	3.46
297.619	6.95
297.834	11.6
298.049	9.18
298.264	4.9
298.479	1.05
298.694	7.04
298.909	-1.3
299.125	-2.74
299.34	-3.57
299.555	1.27
299.77	1.15
299.985	6.6
300.2	14.52
300.415	17.95
300.63	17.55
300.845	16.3
301.06	17.52
301.275	25.14
301.49	25.74
301.704	20.87
301.919	15.42
302.134	6.42
302.349	1.67
302.564	-1.94
302.779	-9.63
302.994	-11.68
303.209	-18.09
303.423	-0.33
303.638	14.54
303.853	11.77
304.068	19.46
304.283	21.73
304.497	25.24
304.712	23.31
304.927	11.28
305.142	13.58
305.356	25.98
305.571	23.35
305.786	20.74
306	18.17
306.215	21.67
306.43	35.2
306.644	29.99
306.859	23.83
307.074	21.71
307.288	23.75
307.503	30.96
307.717	24.97
307.932	19.93
308.147	19.27
308.361	16.75
308.576	21.52
308.79	17.19
309.005	13.04
309.219	21.23
309.434	17.57
309.648	12.19
309.863	9.69
310.077	-5.42
310.292	-1.07
310.506	9.43
310.72	18.12
310.935	23.79
311.149	30.07
311.364	32.65
311.578	34.17
311.792	28.08
312.007	22.25
312.221	7.4
312.435	-0.66
312.649	-5.29
312.864	-12.94
313.078	4.39
313.292	4.01
313.507	7.25
313.721	7.81
313.935	26.21
314.149	30.16
314.363	35.97
314.578	29.01
314.792	32.82
315.006	26.17
315.22	33.44
315.434	18.63
315.648	13.5
315.862	10.28
316.077	6.67
316.291	5.92
316.505	8.07
316.719	-6.35
316.933	2.14
317.147	-5.32
317.361	-3.78
317.575	9.74
317.789	22.9
318.003	27.94
318.217	31.07
318.431	36.8
318.645	45.86
318.859	34.71
319.073	26.95
319.287	23.51
319.5	21.16
319.714	20.97
319.928	14.57
320.142	8.24
320.356	24.82
320.57	21.99
320.784	14.43
320.997	9.31
321.211	9.7
321.425	8.4
321.639	10.43
321.853	3.16
322.066	0.99
322.28	7.77
322.494	12.51
322.707	9.3
322.921	11.88
323.135	27.05
323.349	30.01
323.562	39.26
323.776	30.06
323.989	29.75
324.203	33.74
324.417	32.42
324.63	14.25
324.844	-5.35
325.057	-8.36
325.271	-10.13
325.485	-4.56
325.698	0.23
325.912	2.1
326.125	8.48
326.339	29.03
326.552	25.4
326.766	25.5
326.979	16.58
327.193	15.1
327.406	25.79
327.619	5.52
327.833	-1.46
328.046	3.26
328.26	2.15
328.473	10.6
328.686	2.95
328.9	-15.31
329.113	-10.22
329.326	-5.81
329.54	-12.82
329.753	-2.7
329.966	-4.95
330.179	-3.14
330.393	13.53
330.606	23.05
330.819	31.94
331.032	37.95
331.246	34.78
331.459	45.62
331.672	45.85
331.885	36.19
332.098	32.36
332.311	16.95
332.525	17.05
332.738	14.83
332.951	5.01
333.164	2.84
333.377	-10.41
333.59	-0.77
333.803	3.58
334.016	-3.94
334.229	-1.04
334.442	13.29
334.655	19.88
334.868	25.19
335.081	25.27
335.294	24.32
335.507	29.03
335.72	21.4
335.933	10.65
336.146	3.45
336.359	6.37
336.572	0.39
336.785	10.09
336.997	5.06
337.21	18.35
337.423	26.74
337.636	34.97
337.849	28.51
338.062	27.38
338.274	18.88
338.487	15.87
338.7	4.67
338.913	-1.93
339.125	-6.98
339.338	4.78
339.551	11.16
339.763	12.99
339.976	10.16
340.189	14.57
340.402	14.68
340.614	15.77
340.827	5.63
341.039	1.32
341.252	4.06
341.465	0.74
341.677	-0.55
341.89	-0.44
342.102	6.4
342.315	19.63
342.527	21.98
342.74	15.42
342.952	19.55
343.165	24.73
343.377	25.42
343.59	20.55
343.802	9.57
344.015	10.56
344.227	8.87
344.44	-2.35
344.652	-4.7
344.864	-6.41
345.077	-16.57
345.289	-11.35
345.502	-9.37
345.714	-15.49
345.926	2.07
346.139	6.27
346.351	-6.8
346.563	0.41
346.775	-5.02
346.988	-5.2
347.2	4.06
347.412	2.65
347.624	1.34
347.837	13.54
348.049	13.11
348.261	15.65
348.473	15.74
348.685	17.88
348.897	18.48
349.11	23.56
349.322	11.49
349.534	13.69
349.746	21.66
349.958	20.41
350.17	12.45
350.382	-0.45
350.594	-4.06
350.806	12.9
351.018	10.26
351.23	7.95
351.442	8.83
351.654	18.48
351.866	30.75
352.078	30.7
352.29	27.84
352.502	31.81
352.714	32.33
352.926	28.44
353.138	24.93
353.35	20.07
353.561	19.4
353.773	16.6
353.985	16.67
354.197	5.23
354.409	8.31
354.621	9.76
354.832	0.95
355.044	4.51
355.256	-1.06
355.468	-0.1
355.679	11.93
355.891	11.84
356.103	13.92
356.314	21.01
356.526	17.87
356.738	17.13
356.949	23.67
357.161	17.41
357.373	15.71
357.584	19.27
357.796	23.93
358.008	20.83
358.219	32.81
358.431	25.67
358.642	29.14
358.854	33.85
359.065	24.3
359.277	10.3
359.488	4.83
359.7	1.66
359.911	-10.43
360.123	-2.68
360.334	-8.79
360.546	-12.33
360.757	0.58
360.969	10.32
361.18	2.08
361.391	9.32
361.603	8.88
361.814	12.57
362.025	16.14
362.237	14.34
362.448	13.29
362.659	7.25
362.871	9.97
363.082	7.78
363.293	14.88
363.504	17.48
363.716	20.53
363.927	18.43
364.138	27.74
364.349	27.68
364.56	25.42
364.772	21.56
364.983	16.99
365.194	9.78
365.405	10.38
365.616	3.49
365.827	-0.27
366.038	13.52
366.25	17.76
366.461	21.91
366.672	29.76
366.883	33.99
367.094	36.5
367.305	32.49
367.516	27.19
367.727	22.07
367.938	22.76
368.149	18.34
368.36	13.18
368.571	18.14
368.781	19.6
368.992	16.57
369.203	13.7
369.414	9.45
369.625	5.06
369.836	9.93
370.047	8.87
370.258	11.42
370.468	12.46
370.679	8.29
370.89	16.09
371.101	17.1
371.312	9.28
371.522	9.67
371.733	1.14
371.944	0.62
372.155	0.6
372.365	-6.51
372.576	-10.58
372.787	-10.24
372.997	-17.29
373.208	-7.13
373.419	-8.52
373.629	0.22
373.84	-6.91
374.05	6.39
374.261	8.17
374.472	10.15
374.682	8.93
374.893	5.71
375.103	5.93
375.314	11.64
375.524	9.57
375.735	7.49
375.945	7.68
376.156	8.55
376.366	18.54
376.577	16.08
376.787	19.23
376.997	16.03
377.208	15.6
377.418	18.59
377.629	16.28
377.839	12.14
378.049	17.78
378.26	14.35
378.47	17.92
378.68	17.11
378.89	8.91
379.101	6.16
379.311	1.93
379.521	0.76
379.732	-0.19
379.942	-1.71
380.152	5.44
380.362	14.05
380.572	18.63
380.783	22.02
380.993	19.65
381.203	21.87
381.413	23.15
381.623	18.31
381.833	12.58
382.043	8.99
382.253	8.19
382.463	8.25
382.674	10.41
382.884	6.22
383.094	7.95
383.304	7.79
383.514	10.95
383.724	7.25
383.934	6.33
384.144	4.43
384.353	6.42
384.563	4.31
384.773	8.55
384.983	10.6
385.193	13.48
385.403	12.9
385.613	9.11
385.823	6.14
386.033	7.6
386.242	3.27
386.452	-1.16
386.662	-0.97
386.872	-4.08
387.082	-1.01
387.291	1.98
387.501	2.3
387.711	5.7
387.921	3.34
388.13	1.76
388.34	4.84
388.55	7.12
388.759	5.62
388.969	5.25
389.179	6.85
389.388	8.95
389.598	7.79
389.807	7.65
390.017	6.08
390.227	5.18
390.436	6.75
390.646	5.39
390.855	4.98
391.065	5.29
391.274	4.12
391.484	5.01
391.693	5.93
391.903	4.89
392.112	3.84
392.322	6.13
392.531	6.29
392.74	5.84
392.95	5.65
393.159	6.07
393.369	6.7
393.578	7.32
393.787	5.9
393.997	7.67
394.206	8.39
394.415	7.61
394.625	6.43
394.834	5.11
395.043	4.84
395.252	5.75
395.462	4.62
395.671	4.88
395.88	5.24
396.089	5.9
396.298	6.2
396.508	6.33
396.717	5.61
396.926	5.35
397.135	4.67
397.344	4.55
397.553	4.85
397.762	4.72
397.971	4.49
398.181	4.47
398.39	4.53
398.599	4.98
398.808	4.95
399.017	4.74
399.226	5.03
399.435	4.85
399.644	4.67
399.853	4.8
400.062	4.42
400.27	4.44
400.479	4.35
400.688	4.42
400.897	4.74
401.106	4.83
401.315	4.63
401.524	4.84
401.733	4.91
401.941	4.82
402.15	4.36
402.359	4.25
402.568	4.22
402.777	4.22
402.985	4.21
403.194	4.14
403.403	4.08
403.612	4.34
403.82	4.22
404.029	4.33
404.238	4.44
404.446	4.47
404.655	4.36
404.864	4.34
405.072	4.22
405.281	4.37
405.489	4.3
405.698	4.17
405.906	4.12
406.115	4.22
406.324	4.24
406.532	4.31
406.741	4.19
406.949	4.12
407.158	4.21
407.366	4.16
407.574	4.1
407.783	4.07
407.991	3.94
408.2	3.9
408.408	3.88
408.617	3.84
408.825	3.85
409.033	3.82
409.242	3.84
409.45	3.85
409.658	3.86
409.867	3.94
410.075	3.87
410.283	3.84
410.491	3.88
410.7	3.94
410.908	4.01
411.116	3.98
411.324	3.95
411.533	3.93
411.741	3.86
411.949	3.84
412.157	3.81
412.365	3.79
412.573	3.85
412.781	3.79
412.99	3.91
413.198	3.99
413.406	3.96
413.614	3.87
413.822	3.82
414.03	3.71
414.238	3.8
414.446	3.68
414.654	3.67
414.862	3.58
415.07	3.61
415.278	3.55
415.486	3.71
415.694	3.55
415.902	3.49
416.109	3.52
416.317	3.49
416.525	3.52
416.733	3.62
416.941	3.48
417.149	3.63
417.357	3.67
417.564	3.55
417.772	3.68
417.98	3.61
418.188	3.43
418.395	3.48
418.603	3.29
418.811	3.23
419.019	3.32
419.226	3.26
419.434	3.19
419.642	3.21
419.849	3.23
420.057	3.33
420.265	3.43
420.472	3.36
420.68	3.35
420.887	3.46
421.095	3.57
421.302	3.57
421.51	3.62
421.717	3.53
421.925	3.46
422.132	3.41
422.34	3.37
422.547	3.3
422.755	3.24
422.962	3.12
423.17	3.12
423.377	3.27
423.585	3.32
423.792	3.3
423.999	3.34
424.207	3.26
424.414	3.31
424.621	3.3
424.829	3.21
425.036	3.13
425.243	3.09
425.451	3.06
425.658	3.17
425.865	3.02
426.072	3.1
426.28	3.14
426.487	3.19
426.694	3.25
426.901	3.17
427.108	3.19
427.315	3.31
427.523	3.26
427.73	3.24
427.937	3.22
428.144	3.21
428.351	3.31
428.558	3.22
428.765	3.17
428.972	3.17
429.179	3.12
429.386	3.16
429.593	3.22
429.8	3.28
430.007	3.34
430.214	3.4
430.421	3.4
430.628	3.35
430.835	3.26
431.042	3.22
431.249	3.1
431.456	3.16
431.662	3.1
431.869	3.17
432.076	3.23
432.283	3.24
432.49	3.19
432.697	3.22
432.903	3.2
433.11	3.28
433.317	3.28
433.524	3.21
433.73	3.32
433.937	3.36
434.144	3.46
434.35	3.45
434.557	3.4
434.764	3.42
434.97	3.57
435.177	3.48
435.384	3.56
435.59	3.53
435.797	3.54
436.003	3.56
436.21	3.59
436.416	3.55
436.623	3.65
436.829	3.61
437.036	3.63
437.242	3.61
437.449	3.6
437.655	3.56
437.862	3.61
438.068	3.66
438.275	3.68
438.481	3.75
438.687	3.86
438.894	3.89
439.1	3.96
439.307	3.96
439.513	3.9
439.719	3.91
439.926	3.89
440.132	3.88
440.338	3.9
440.544	3.88
440.751	3.9
440.957	3.91
441.163	3.93
441.369	3.89
441.575	3.88
441.782	3.9
441.988	3.92
442.194	3.92
442.4	3.95
442.606	3.97
442.812	3.98
443.018	3.97
443.224	4
443.431	4
443.637	3.99
443.843	4.06
444.049	4.05
444.255	4.02
444.461	4.03
444.667	4.02
444.873	3.98
445.079	4.03
445.284	3.97
445.49	3.95
445.696	4.02
445.902	4.04
446.108	4.04
446.314	4.16
446.52	4.19
446.726	4.19
446.931	4.23
447.137	4.24
447.343	4.28
447.549	4.22
447.755	4.11
447.96	4.08
448.166	4.14
448.372	4.12
448.578	4.1
448.783	4.09
448.989	4.15
449.195	4.19
449.4	4.2
449.606	4.11
449.812	4.15
450.017	4.21
450.223	4.25
450.428	4.25
450.634	4.23
450.84	4.22
451.045	4.27
451.251	4.26
451.456	4.17
451.662	4.15
451.867	4.16
452.073	4.22
452.278	4.23
452.483	4.22
452.689	4.23
452.894	4.27
453.1	4.26
453.305	4.22
453.51	4.25
453.716	4.27
453.921	4.31
454.127	4.3
454.332	4.3
454.537	4.37
454.742	4.42
454.948	4.38
455.153	4.39
455.358	4.42
455.563	4.41
455.769	4.43
455.974	4.38
456.179	4.34
456.384	4.34
456.589	4.4
456.795	4.32
457	4.4
457.205	4.39
457.41	4.43
457.615	4.46
457.82	4.54
458.025	4.51
458.23	4.57
458.435	4.52
458.64	4.56
458.845	4.59
459.05	4.59
459.255	4.55
459.46	4.53
459.665	4.57
459.87	4.63
460.075	4.66
460.28	4.65
460.485	4.7
460.69	4.7
460.895	4.76
461.099	4.71
461.304	4.7
461.509	4.6
461.714	4.6
461.919	4.54
462.123	4.55
462.328	4.55
462.533	4.62
462.738	4.59
462.942	4.66
463.147	4.62
463.352	4.71
463.556	4.78
463.761	4.72
463.966	4.72
464.17	4.77
464.375	4.8
464.58	4.83
464.784	4.83
464.989	4.82
465.193	4.93
465.398	4.9
465.602	4.91
465.807	4.94
466.011	4.98
466.216	4.98
466.42	5.01
466.625	5
466.829	5.05
467.034	5.12
467.238	5.12
467.443	5.13
467.647	5.16
467.851	5.1
468.056	5.07
468.26	5.04
468.464	4.98
468.669	5.02
468.873	5.05
469.077	5.09
469.282	5.18
469.486	5.21
469.69	5.28
469.894	5.33
470.099	5.33
470.303	5.3
470.507	5.27
470.711	5.25
