Data from Ofra_2a_PS_1GT37_Reflection_2.txt Node
Date: Tue Jul 20 09:34:04 EDT 2021
User: Adam
Spectrometer: FLMT01687
Trigger mode: 0
Integration Time (sec): 9.450000E-1
Scans to average: 3
Electric dark correction enabled: true
Nonlinearity correction enabled: false
Boxcar width: 3
XAxis mode: Wavelengths
Number of Pixels in Spectrum: 3648
>>>>>Begin Spectral Data<<<<<
179.494	576.33
179.716	376.41
179.937	420.88
180.158	1189.06
180.38	-316.28
180.601	-44.24
180.823	-42.47
181.044	-55.78
181.265	-140.19
181.486	32.48
181.708	-2317.39
181.929	-208.84
182.15	-1122.73
182.372	61.37
182.593	113.7
182.814	70.66
183.035	-75.21
183.257	22.26
183.478	21.48
183.699	34.69
183.92	22.68
184.141	30
184.363	28.86
184.584	12.64
184.805	19.37
185.026	-19.14
185.247	-16.65
185.468	-23.7
185.689	-5.53
185.91	-8.66
186.132	4.66
186.353	-16.56
186.574	-14.41
186.795	-37.48
187.016	-21.8
187.237	-23.19
187.458	-47.13
187.679	-59.5
187.9	-36.88
188.121	-22.07
188.342	8.95
188.563	6.36
188.784	6.79
189.005	25.77
189.226	27.86
189.447	10.55
189.667	18.84
189.888	30
190.109	20.53
190.33	0.17
190.551	-13.63
190.772	-13.69
190.993	8.02
191.214	9.02
191.434	-0.55
191.655	20.7
191.876	32.41
192.097	30.29
192.318	37.63
192.538	40.97
192.759	40.41
192.98	25.12
193.201	25.34
193.421	22.82
193.642	29.24
193.863	10.88
194.083	4.57
194.304	6.6
194.525	35.39
194.745	6.79
194.966	17.81
195.187	19.31
195.407	21.25
195.628	16.92
195.848	6.96
196.069	-2.78
196.29	0.74
196.51	-16.91
196.731	-2.53
196.951	-2.78
197.172	-20.53
197.392	5.75
197.613	-7.58
197.833	-3.32
198.054	2.92
198.274	-16.05
198.495	-31.07
198.715	-22.62
198.936	-58.53
199.156	-34.9
199.377	-46.36
199.597	-57.41
199.817	-51.3
200.038	-28.86
200.258	-28.56
200.479	-15.46
200.699	-9.38
200.919	-22.01
201.14	-12.2
201.36	1.61
201.58	10.13
201.801	1.19
202.021	17.1
202.241	17.71
202.461	30.64
202.682	32.75
202.902	26.38
203.122	15.08
203.342	34.66
203.563	33.66
203.783	30.91
204.003	34.32
204.223	29.19
204.443	25.72
204.663	31.15
204.884	19.64
205.104	4.43
205.324	0.04
205.544	4.51
205.764	29.93
205.984	42.14
206.204	47.41
206.424	48.1
206.644	54.03
206.864	55.81
207.084	57.41
207.304	34.36
207.525	34.91
207.745	32.12
207.964	37.85
208.184	24.67
208.404	21.81
208.624	-1.5
208.844	-1.69
209.064	-5.73
209.284	-4.74
209.504	-19.4
209.724	-39.25
209.944	-48.7
210.164	-24.2
210.384	-0.22
210.604	-23.27
210.823	-18.03
211.043	-7.94
211.263	9.2
211.483	15.93
211.703	10.01
211.922	0.58
212.142	21.5
212.362	22
212.582	25.91
212.801	13.75
213.021	8.42
213.241	6.24
213.461	9.91
213.68	5.02
213.9	19.21
214.12	14.27
214.339	29.3
214.559	45.89
214.779	53.25
214.998	45.28
215.218	54.22
215.438	53.9
215.657	58.16
215.877	47.55
216.096	32.19
216.316	27.9
216.535	26.05
216.755	-3.03
216.974	-26.92
217.194	-47.79
217.413	-31.22
217.633	-22.55
217.852	-40.74
218.072	-53.04
218.291	-9.56
218.511	1.76
218.73	-1.56
218.95	-7.36
219.169	-13.82
219.389	0.04
219.608	7.8
219.827	-12.53
220.047	-14.5
220.266	-4.93
220.485	-0.6
220.705	-1.44
220.924	-0.95
221.143	-1.87
221.363	1.96
221.582	3.99
221.801	7.16
222.021	13.18
222.24	11.61
222.459	1.23
222.678	-8.34
222.897	-15.38
223.117	-28.71
223.336	-16.18
223.555	-25.93
223.774	-24.81
223.993	-8.23
224.213	-0.07
224.432	18.6
224.651	24.02
224.87	22.65
225.089	19.02
225.308	17.63
225.527	18.56
225.746	23.19
225.965	19.02
226.184	21.84
226.404	3.26
226.623	20.86
226.842	22.04
227.061	15.39
227.28	37.01
227.499	35.82
227.718	30.02
227.936	25.26
228.155	14.89
228.374	12.76
228.593	14.37
228.812	-3.4
229.031	-16.44
229.25	-7.84
229.469	4.12
229.688	14.78
229.907	9.4
230.125	13.58
230.344	19.84
230.563	27.99
230.782	23.73
231.001	15.95
231.22	17.48
231.438	27.59
231.657	26.67
231.876	23.63
232.095	19.06
232.313	23.03
232.532	34.12
232.751	32.07
232.969	30.75
233.188	30.66
233.407	29.16
233.625	25.25
233.844	23.19
234.063	5.36
234.281	0.36
234.5	2.62
234.719	-1.26
234.937	7.66
235.156	4.12
235.374	3.66
235.593	8.7
235.811	3.78
236.03	-18.39
236.249	-7
236.467	-12.03
236.686	-4
236.904	-7.57
237.123	0.9
237.341	2.02
237.559	4.58
237.778	10.74
237.996	12.21
238.215	14.66
238.433	22.75
238.652	24.98
238.87	31.12
239.088	34.68
239.307	25.31
239.525	20.34
239.743	8.76
239.962	7.63
240.18	2.4
240.398	6.34
240.617	18.38
240.835	25.66
241.053	25.44
241.271	34.91
241.49	24.66
241.708	24.51
241.926	11.65
242.144	2.41
242.363	-10.84
242.581	0.32
242.799	-4.48
243.017	7.86
243.235	6.04
243.453	5.98
243.672	10.73
243.89	13.05
244.108	25.83
244.326	25.8
244.544	22.46
244.762	18.53
244.98	23.37
245.198	5.11
245.416	11.16
245.634	-8.34
245.852	0.58
246.07	3.77
246.288	-7.13
246.506	-2.94
246.724	14.15
246.942	19.03
247.16	16.87
247.378	7.79
247.596	-2.02
247.814	2.53
248.032	-2.11
248.25	-5.63
248.468	-4.79
248.685	3.43
248.903	1.2
249.121	6.05
249.339	8.96
249.557	10.69
249.775	-9.28
249.992	-10.28
250.21	-17.98
250.428	-20.05
250.646	-21.65
250.863	-16.9
251.081	-18.3
251.299	14.77
251.517	18.83
251.734	22.05
251.952	34.02
252.17	25.99
252.387	25.69
252.605	21.57
252.823	-1.58
253.04	-3.65
253.258	0.55
253.475	4.53
253.693	21.77
253.911	21.47
254.128	20.51
254.346	20.7
254.563	12.12
254.781	10.41
254.998	13.84
255.216	12.93
255.433	11.94
255.651	14.74
255.868	19.11
256.086	29.25
256.303	26.09
256.521	8.93
256.738	1.57
256.956	-2.42
257.173	-3.18
257.39	4
257.608	0.02
257.825	-5.67
258.043	4.46
258.26	-2.42
258.477	-0.34
258.695	11.4
258.912	16.55
259.129	17.18
259.346	18.13
259.564	13.63
259.781	24.63
259.998	25.52
260.216	24.27
260.433	15.26
260.65	25.37
260.867	25.22
261.084	38.4
261.302	39.97
261.519	32.57
261.736	13.83
261.953	33.61
262.17	24.31
262.387	28.65
262.604	8.23
262.822	5.43
263.039	19.92
263.256	21.66
263.473	1.26
263.69	-0.84
263.907	-3.42
264.124	0.84
264.341	-7.77
264.558	0.54
264.775	-2.45
264.992	1.24
265.209	9.81
265.426	14.04
265.643	15.77
265.86	22.44
266.077	19.49
266.294	21.62
266.51	27.99
266.727	19.7
266.944	-24.67
267.161	-28.72
267.378	-42.49
267.595	-48.44
267.812	-48.64
268.028	-43.27
268.245	-32.26
268.462	12.04
268.679	9.15
268.896	14.41
269.112	24.78
269.329	30.06
269.546	19.16
269.763	25.5
269.979	20.68
270.196	23.29
270.413	17.51
270.629	9.84
270.846	8.75
271.063	9.51
271.279	2.26
271.496	-4.1
271.712	-0.81
271.929	11.17
272.146	9.49
272.362	-5.27
272.579	-4.43
272.795	-9.27
273.012	-3.85
273.228	-8.97
273.445	-10.11
273.661	-1.01
273.878	8.03
274.094	4.03
274.311	6.89
274.527	8.14
274.744	7.97
274.96	3.28
275.177	3.66
275.393	5.99
275.609	5.47
275.826	5.62
276.042	14.97
276.259	17.35
276.475	23.28
276.691	22
276.908	22.57
277.124	28.97
277.34	27.47
277.557	22.57
277.773	19.71
277.989	12.56
278.205	10.23
278.422	16.13
278.638	25.61
278.854	14.11
279.07	5.39
279.286	4.49
279.503	11.07
279.719	15.16
279.935	3.49
280.151	1.87
280.367	13.05
280.583	16.43
280.799	19.86
281.016	16.76
281.232	9.7
281.448	17.46
281.664	9.71
281.88	15.44
282.096	23.28
282.312	24.6
282.528	25.72
282.744	15.89
282.96	11.32
283.176	11.08
283.392	11.68
283.608	3.75
283.824	-3.4
284.04	6.07
284.256	8.49
284.471	8.03
284.687	11.9
284.903	10.91
285.119	5.99
285.335	5.18
285.551	9.75
285.767	13.09
285.982	12.85
286.198	14.1
286.414	21.71
286.63	25.77
286.846	33.44
287.061	28.86
287.277	31.28
287.493	35.59
287.709	30.67
287.924	23.81
288.14	32.74
288.356	30.67
288.571	21.41
288.787	26.55
289.003	17.2
289.218	13.8
289.434	11.82
289.65	6.68
289.865	11.31
290.081	15.61
290.296	11.14
290.512	18.44
290.727	20.32
290.943	10.91
291.159	1.96
291.374	4.49
291.59	9.51
291.805	10.82
292.021	5.76
292.236	13.33
292.451	30.09
292.667	34.9
292.882	30.5
293.098	26.89
293.313	21.65
293.529	26.16
293.744	18.88
293.959	15.31
294.175	10.1
294.39	8.37
294.605	9.06
294.821	11.08
295.036	9.8
295.251	12.78
295.467	8.2
295.682	8.37
295.897	9.14
296.112	13.66
296.328	16.98
296.543	3.39
296.758	-0.97
296.973	-3.31
297.188	-8.05
297.404	-0.76
297.619	-7.92
297.834	-5.53
298.049	1.92
298.264	6.84
298.479	3.64
298.694	11.11
298.909	-0.77
299.125	5.26
299.34	3.78
299.555	10.83
299.77	9.1
299.985	10.48
300.2	7.93
300.415	19.9
300.63	12.76
300.845	9.7
301.06	5.83
301.275	13.6
301.49	18.69
301.704	16.03
301.919	7.6
302.134	3.31
302.349	-2.34
302.564	-6.13
302.779	-9.84
302.994	-21.66
303.209	-28.53
303.423	-17.1
303.638	-6.87
303.853	12.98
304.068	15.94
304.283	8.89
304.497	16.12
304.712	26.46
304.927	19.24
305.142	16.7
305.356	10.86
305.571	17.74
305.786	14.84
306	16.53
306.215	12.87
306.43	24.86
306.644	24.79
306.859	27.65
307.074	20.07
307.288	23.09
307.503	22.92
307.717	22.31
307.932	22.38
308.147	25.08
308.361	21.89
308.576	21.89
308.79	18.97
309.005	20.23
309.219	24.6
309.434	17.61
309.648	10.47
309.863	14.53
310.077	14.01
310.292	21.12
310.506	26.29
310.72	21.86
310.935	19.41
311.149	27.91
311.364	21.21
311.578	18.99
311.792	10.47
312.007	3.26
312.221	11.33
312.435	11.55
312.649	10.76
312.864	16.6
313.078	16.04
313.292	35.47
313.507	36.57
313.721	33.8
313.935	49.37
314.149	36.38
314.363	40.18
314.578	44.07
314.792	37.66
315.006	36.08
315.22	34.58
315.434	27.82
315.648	17.26
315.862	15.88
316.077	18.22
316.291	13.2
316.505	11.22
316.719	-6.38
316.933	-13.93
317.147	-1.5
317.361	-4.41
317.575	-3.47
317.789	5.36
318.003	12.08
318.217	24.38
318.431	32.68
318.645	37.91
318.859	29.16
319.073	25.57
319.287	30.26
319.5	27.74
319.714	26.04
319.928	25.77
320.142	22.75
320.356	41.17
320.57	35.56
320.784	31.44
320.997	34.65
321.211	24.05
321.425	18.02
321.639	14.29
321.853	-0.76
322.066	2.38
322.28	-0.39
322.494	-8.14
322.707	2.12
322.921	7.51
323.135	13.35
323.349	19.12
323.562	16.37
323.776	16.33
323.989	19.21
324.203	16.62
324.417	11.93
324.63	2.18
324.844	-6.62
325.057	0.67
325.271	-13.75
325.485	-13.05
325.698	-14
325.912	-8.39
326.125	-5.62
326.339	3.83
326.552	3.87
326.766	25.75
326.979	27.46
327.193	21.25
327.406	17.83
327.619	13.34
327.833	0.8
328.046	-2.08
328.26	-25.33
328.473	-17.96
328.686	-5.18
328.9	-6.38
329.113	3.35
329.326	19.09
329.54	17.84
329.753	24.74
329.966	16.53
330.179	22.77
330.393	20.17
330.606	22.82
330.819	17.45
331.032	21.62
331.246	24.16
331.459	25.61
331.672	20.51
331.885	23.98
332.098	22.16
332.311	13.3
332.525	20.53
332.738	13.28
332.951	13.66
333.164	8.24
333.377	-7.56
333.59	-4.77
333.803	5.5
334.016	-19.04
334.229	-15.5
334.442	0.77
334.655	15.82
334.868	31.05
335.081	32.09
335.294	25.82
335.507	38.58
335.72	36.78
335.933	26.15
336.146	21.14
336.359	17.5
336.572	14.44
336.785	23.27
336.997	21.86
337.21	28.38
337.423	27.24
337.636	24.83
337.849	22.05
338.062	17.38
338.274	11.9
338.487	3.13
338.7	7.68
338.913	3.76
339.125	1.62
339.338	11.19
339.551	14.38
339.763	9.01
339.976	11.58
340.189	0.59
340.402	0.97
340.614	8
340.827	-1.02
341.039	1.3
341.252	3.22
341.465	-5.22
341.677	-5.92
341.89	-4.82
342.102	-0.88
342.315	1.12
342.527	-5.88
342.74	0.56
342.952	12
343.165	24.86
343.377	35.51
343.59	28.55
343.802	39.05
344.015	39.01
344.227	35.52
344.44	33.11
344.652	36.33
344.864	30.22
345.077	23.85
345.289	9.69
345.502	12.12
345.714	5.52
345.926	-0.23
346.139	-15.29
346.351	-31.27
346.563	-20.26
346.775	-17.65
346.988	-16.79
347.2	-5.36
347.412	-0.77
347.624	5.03
347.837	8.03
348.049	8.44
348.261	11.63
348.473	6.56
348.685	6.81
348.897	6.61
349.11	10.21
349.322	11.47
349.534	5.06
349.746	4.76
349.958	12.21
350.17	9.43
350.382	6.21
350.594	0.03
350.806	10.37
351.018	19.4
351.23	21.54
351.442	18.65
351.654	21.92
351.866	24.1
352.078	21.92
352.29	25.5
352.502	20.89
352.714	22.54
352.926	27.76
353.138	26.97
353.35	14.6
353.561	10.72
353.773	6.13
353.985	11.8
354.197	5.52
354.409	1.81
354.621	-1.67
354.832	1.26
355.044	12.89
355.256	2.04
355.468	-4.64
355.679	5.38
355.891	8.81
356.103	12.35
356.314	12.14
356.526	5.16
356.738	9.52
356.949	7.51
357.161	4.25
357.373	5.94
357.584	7.74
357.796	13.2
358.008	15.98
358.219	24.69
358.431	28.25
358.642	24.96
358.854	19.5
359.065	16.99
359.277	14.54
359.488	10.66
359.7	9.87
359.911	9.05
360.123	15.2
360.334	16.25
360.546	12.6
360.757	18.71
360.969	26.84
361.18	24.49
361.391	25.12
361.603	17.7
361.814	16.56
362.025	16.76
362.237	19.8
362.448	18.76
362.659	7.04
362.871	2.37
363.082	8.95
363.293	12.57
363.504	17.23
363.716	15.79
363.927	13.42
364.138	24.07
364.349	31.33
364.56	27.68
364.772	31.58
364.983	26.05
365.194	20.68
365.405	19.72
365.616	7.69
365.827	-7.99
366.038	10.82
366.25	1.41
366.461	8.87
366.672	5.98
366.883	11.94
367.094	14.03
367.305	21.17
367.516	5.06
367.727	7.6
367.938	4.79
368.149	12.67
368.36	6.75
368.571	13.6
368.781	6.74
368.992	11.42
369.203	15.62
369.414	14.01
369.625	13.21
369.836	15.62
370.047	18.45
370.258	19.47
370.468	15.36
370.679	16.03
370.89	20.83
371.101	18.15
371.312	12.48
371.522	10.33
371.733	3.81
371.944	5.86
372.155	-7.06
372.365	-11.54
372.576	-13.6
372.787	-5.55
372.997	-8.71
373.208	7.68
373.419	5.43
373.629	19.48
373.84	12.36
374.05	19.9
374.261	7.96
374.472	3.58
374.682	-3.07
374.893	-1.25
375.103	-2.7
375.314	7.39
375.524	5.92
375.735	12.53
375.945	20.97
376.156	27.75
376.366	29.33
376.577	27.01
376.787	29.75
376.997	29.28
377.208	24.41
377.418	18.51
377.629	13.89
377.839	17.61
378.049	17.77
378.26	15.24
378.47	15.25
378.68	15.9
378.89	17.05
379.101	8.42
379.311	-2.64
379.521	3.63
379.732	-3.4
379.942	-3.41
380.152	4.13
380.362	10.82
380.572	23.49
380.783	31.13
380.993	23.6
381.203	22.99
381.413	24.25
381.623	20.53
381.833	16.1
382.043	6.81
382.253	4.73
382.463	9.48
382.674	13.38
382.884	10.09
383.094	9.29
383.304	2.96
383.514	3.12
383.724	0.09
383.934	-2.39
384.144	-2.17
384.353	-0.26
384.563	-1.96
384.773	0.91
384.983	4.37
385.193	6.76
385.403	6.63
385.613	2.74
385.823	1.36
386.033	4.8
386.242	4.86
386.452	3.67
386.662	4.97
386.872	6.91
387.082	9.65
387.291	16.01
387.501	13.5
387.711	11.21
387.921	8.6
388.13	5.71
388.34	3.26
388.55	4
388.759	0.32
388.969	-0.99
389.179	4.22
389.388	7.19
389.598	6.94
389.807	5.45
390.017	5.3
390.227	4.42
390.436	4.65
390.646	3.65
390.855	1.85
391.065	2.43
391.274	3.77
391.484	4.03
391.693	3.52
391.903	3.05
392.112	1.67
392.322	3.39
392.531	3.94
392.74	2.51
392.95	2.95
393.159	3.84
393.369	5.06
393.578	4.71
393.787	3.63
393.997	3.96
394.206	4.88
394.415	4.34
394.625	3.4
394.834	2.25
395.043	2.23
395.252	3.61
395.462	2.71
395.671	3.2
395.88	3.8
396.089	3.82
396.298	3.92
396.508	4.06
396.717	2.82
396.926	2.93
397.135	2.46
397.344	2.02
397.553	2.26
397.762	2.46
397.971	2.61
398.181	2.48
398.39	2.37
398.599	2.9
398.808	3
399.017	3.14
399.226	3.25
399.435	3.12
399.644	3.34
399.853	3.46
400.062	3.36
400.27	3.12
400.479	2.93
400.688	3.13
400.897	3.53
401.106	3.68
401.315	3.69
401.524	3.65
401.733	3.84
401.941	3.81
402.15	3.45
402.359	3.25
402.568	3.26
402.777	3.17
402.985	3.06
403.194	3.1
403.403	3.02
403.612	3.17
403.82	3.18
404.029	3.17
404.238	3.27
404.446	3.31
404.655	3.09
404.864	3.19
405.072	3.17
405.281	3.11
405.489	3.09
405.698	2.97
405.906	2.88
406.115	3.02
406.324	2.93
406.532	2.91
406.741	2.97
406.949	2.87
407.158	3.03
407.366	3.02
407.574	2.91
407.783	2.88
407.991	2.85
408.2	2.77
408.408	2.82
408.617	2.74
408.825	2.79
409.033	2.83
409.242	2.85
409.45	2.79
409.658	2.76
409.867	2.74
410.075	2.7
410.283	2.66
410.491	2.6
410.7	2.63
410.908	2.71
411.116	2.69
411.324	2.68
411.533	2.58
411.741	2.54
411.949	2.58
412.157	2.54
412.365	2.52
412.573	2.55
412.781	2.59
412.99	2.73
413.198	2.81
413.406	2.81
413.614	2.85
413.822	2.88
414.03	2.79
414.238	2.83
414.446	2.73
414.654	2.65
414.862	2.54
415.07	2.58
415.278	2.57
415.486	2.7
415.694	2.55
415.902	2.63
416.109	2.61
416.317	2.66
416.525	2.71
416.733	2.71
416.941	2.6
417.149	2.67
417.357	2.64
417.564	2.64
417.772	2.68
417.98	2.55
418.188	2.48
418.395	2.49
418.603	2.31
418.811	2.21
419.019	2.29
419.226	2.32
419.434	2.3
419.642	2.29
419.849	2.36
420.057	2.51
420.265	2.55
420.472	2.5
420.68	2.42
420.887	2.41
421.095	2.43
421.302	2.39
421.51	2.43
421.717	2.49
421.925	2.32
422.132	2.25
422.34	2.3
422.547	2.2
422.755	2.12
422.962	1.96
423.17	1.85
423.377	2.05
423.585	2.12
423.792	2.06
423.999	2.11
424.207	2.03
424.414	2.19
424.621	2.23
424.829	2.14
425.036	2.06
425.243	2.08
425.451	2.1
425.658	2.33
425.865	2.23
426.072	2.22
426.28	2.3
426.487	2.34
426.694	2.35
426.901	2.24
427.108	2.17
427.315	2.16
427.523	2.15
427.73	2.14
427.937	2.21
428.144	2.22
428.351	2.36
428.558	2.28
428.765	2.25
428.972	2.3
429.179	2.23
429.386	2.28
429.593	2.26
429.8	2.31
430.007	2.39
430.214	2.5
430.421	2.53
430.628	2.44
430.835	2.33
431.042	2.38
431.249	2.33
431.456	2.38
431.662	2.3
431.869	2.3
432.076	2.46
432.283	2.52
432.49	2.47
432.697	2.5
432.903	2.51
433.11	2.6
433.317	2.66
433.524	2.62
433.73	2.66
433.937	2.67
434.144	2.67
434.35	2.54
434.557	2.46
434.764	2.43
434.97	2.47
435.177	2.44
435.384	2.51
435.59	2.51
435.797	2.58
436.003	2.61
436.21	2.56
436.416	2.52
436.623	2.58
436.829	2.54
437.036	2.55
437.242	2.6
437.449	2.56
437.655	2.56
437.862	2.58
438.068	2.53
438.275	2.56
438.481	2.65
438.687	2.69
438.894	2.78
439.1	2.84
439.307	2.87
439.513	2.88
439.719	2.89
439.926	2.86
440.132	2.82
440.338	2.86
440.544	2.89
440.751	2.84
440.957	2.85
441.163	2.83
441.369	2.87
441.575	2.9
441.782	2.9
441.988	2.87
442.194	2.98
442.4	3.01
442.606	3.06
442.812	3.04
443.018	2.99
443.224	3
443.431	3.03
443.637	2.97
443.843	2.99
444.049	2.98
444.255	2.94
444.461	2.92
444.667	2.92
444.873	2.91
445.079	2.93
445.284	2.92
445.49	2.9
445.696	2.95
445.902	3.04
446.108	3.01
446.314	3.09
446.52	3.14
446.726	3.16
446.931	3.17
447.137	3.16
447.343	3.17
447.549	3.16
447.755	3.07
447.96	3
448.166	3
448.372	3.03
448.578	3.05
448.783	2.97
448.989	2.98
449.195	3.07
449.4	3.14
449.606	3.1
449.812	3.12
450.017	3.14
450.223	3.21
450.428	3.24
450.634	3.26
450.84	3.23
451.045	3.28
451.251	3.29
451.456	3.24
451.662	3.16
451.867	3.15
452.073	3.09
452.278	3.03
452.483	3.08
452.689	3.1
452.894	3.13
453.1	3.14
453.305	3.21
453.51	3.22
453.716	3.29
453.921	3.22
454.127	3.19
454.332	3.2
454.537	3.26
454.742	3.21
454.948	3.21
455.153	3.23
455.358	3.3
455.563	3.27
455.769	3.26
455.974	3.22
456.179	3.19
456.384	3.23
456.589	3.24
456.795	3.2
457	3.25
457.205	3.25
457.41	3.31
457.615	3.38
457.82	3.39
458.025	3.38
458.23	3.4
458.435	3.38
458.64	3.49
458.845	3.45
459.05	3.41
459.255	3.4
459.46	3.37
459.665	3.44
459.87	3.46
460.075	3.41
460.28	3.44
460.485	3.49
460.69	3.46
460.895	3.53
461.099	3.46
461.304	3.5
461.509	3.47
461.714	3.49
461.919	3.45
462.123	3.52
462.328	3.53
462.533	3.53
462.738	3.5
462.942	3.56
463.147	3.56
463.352	3.62
463.556	3.6
463.761	3.57
463.966	3.6
464.17	3.63
464.375	3.59
464.58	3.57
464.784	3.52
464.989	3.54
465.193	3.57
465.398	3.59
465.602	3.6
465.807	3.61
466.011	3.69
466.216	3.72
466.42	3.68
466.625	3.73
466.829	3.8
467.034	3.81
467.238	3.85
467.443	3.83
467.647	3.85
467.851	3.92
468.056	3.9
468.26	3.86
468.464	3.88
468.669	3.88
468.873	3.89
469.077	3.92
469.282	3.94
469.486	4.01
469.69	4.03
469.894	4.1
470.099	4.13
470.303	4.16
470.507	4.19
