Data from Ofra_2a_PS_9CX6_Reflection_2.txt Node
Date: Tue Jul 20 09:59:18 EDT 2021
User: Adam
Spectrometer: FLMT01687
Trigger mode: 0
Integration Time (sec): 9.450000E-1
Scans to average: 3
Electric dark correction enabled: true
Nonlinearity correction enabled: false
Boxcar width: 3
XAxis mode: Wavelengths
Number of Pixels in Spectrum: 3648
>>>>>Begin Spectral Data<<<<<
179.494	884.02
179.716	525.53
179.937	538.46
180.158	2060.16
180.38	-1002.91
180.601	-194.61
180.823	-94.11
181.044	99.8
181.265	83.97
181.486	45.21
181.708	-163.04
181.929	-56.51
182.15	-760.23
182.372	23.29
182.593	101.2
182.814	35.03
183.035	105.99
183.257	47.73
183.478	55.39
183.699	83.1
183.92	66.67
184.141	67.73
184.363	59.67
184.584	52.89
184.805	54.3
185.026	65.2
185.247	29.1
185.468	27.78
185.689	38.36
185.91	40.8
186.132	43.1
186.353	40.52
186.574	38.07
186.795	28.29
187.016	18.85
187.237	22.9
187.458	17.33
187.679	-2.06
187.9	12.16
188.121	10.87
188.342	60.07
188.563	70.23
188.784	44.14
189.005	43.8
189.226	42.94
189.447	29.82
189.667	29.19
189.888	14.64
190.109	8.43
190.33	12.25
190.551	4.66
190.772	19.72
190.993	36.35
191.214	32.04
191.434	43.54
191.655	42.58
191.876	50.2
192.097	48.11
192.318	39.38
192.538	38.04
192.759	46.09
192.98	35.6
193.201	42.12
193.421	42.13
193.642	45.31
193.863	62.15
194.083	58.83
194.304	44.05
194.525	58.74
194.745	44.56
194.966	27.01
195.187	34.94
195.407	23.1
195.628	20.81
195.848	27.54
196.069	7.54
196.29	8.66
196.51	9.48
196.731	15.39
196.951	23.04
197.172	13.75
197.392	17.3
197.613	11.92
197.833	15.46
198.054	20.6
198.274	-0.69
198.495	-6.76
198.715	-2.95
198.936	-13.72
199.156	19.13
199.377	25.81
199.597	24.93
199.817	33.62
200.038	45
200.258	53.39
200.479	66.34
200.699	57.25
200.919	39.27
201.14	43.64
201.36	59.76
201.58	44.98
201.801	35.62
202.021	20.1
202.241	20.62
202.461	31.12
202.682	27.41
202.902	24.48
203.122	26.58
203.342	29.67
203.563	36.54
203.783	32.84
204.003	37.18
204.223	43.83
204.443	42
204.663	44.29
204.884	46.72
205.104	51.06
205.324	64.8
205.544	59.54
205.764	53.46
205.984	58
206.204	54.42
206.424	42.7
206.644	35.29
206.864	23.37
207.084	31.92
207.304	22.52
207.525	4.62
207.745	4.68
207.964	-2.3
208.184	-2.06
208.404	6.86
208.624	-15.11
208.844	-20.53
209.064	-10.48
209.284	-1.14
209.504	2.79
209.724	-9.29
209.944	-4.06
210.164	17.55
210.384	33.99
210.604	23.07
210.823	0.91
211.043	-6.95
211.263	8.49
211.483	7.34
211.703	3.92
211.922	9.67
212.142	25.62
212.362	27.87
212.582	33.36
212.801	18.88
213.021	23.24
213.241	16.87
213.461	2.74
213.68	4.69
213.9	5.16
214.12	3.61
214.339	14.38
214.559	14.35
214.779	23.21
214.998	24.51
215.218	32.9
215.438	42.5
215.657	39.97
215.877	44.43
216.096	49.1
216.316	43.4
216.535	54.02
216.755	30.11
216.974	25.01
217.194	26.11
217.413	42.55
217.633	21.96
217.852	14.3
218.072	0.84
218.291	33.36
218.511	30.2
218.73	19.6
218.95	10.92
219.169	15.89
219.389	17.34
219.608	31.73
219.827	12.75
220.047	20.03
220.266	38.89
220.485	43.49
220.705	42.71
220.924	47.66
221.143	32.72
221.363	39.01
221.582	27.98
221.801	36.21
222.021	32.17
222.24	24.9
222.459	24.06
222.678	35.78
222.897	13.85
223.117	18.09
223.336	10.33
223.555	-11.25
223.774	12.87
223.993	11.4
224.213	18.96
224.432	40.33
224.651	45.75
224.87	40.26
225.089	60.01
225.308	44.21
225.527	47.5
225.746	32.38
225.965	21.55
226.184	19.2
226.404	7.49
226.623	10.02
226.842	15.92
227.061	21.81
227.28	34.03
227.499	42.81
227.718	34.86
227.936	39.6
228.155	32.33
228.374	28.31
228.593	25.25
228.812	20.9
229.031	10.42
229.25	29.12
229.469	34.44
229.688	37.2
229.907	29.83
230.125	27.81
230.344	36.45
230.563	37.05
230.782	24.45
231.001	27.71
231.22	24.27
231.438	40.63
231.657	41.6
231.876	34.71
232.095	42.72
232.313	50.06
232.532	44.1
232.751	43.52
232.969	41.37
233.188	44.61
233.407	39.62
233.625	30.56
233.844	32.5
234.063	25.79
234.281	29.56
234.5	28.76
234.719	25.61
234.937	38.9
235.156	31.28
235.374	24
235.593	26.16
235.811	22.72
236.03	7.36
236.249	15.13
236.467	6.54
236.686	28.1
236.904	26.77
237.123	43.86
237.341	43.77
237.559	52.42
237.778	63.43
237.996	57.9
238.215	52.84
238.433	51.18
238.652	39.69
238.87	39.63
239.088	28.77
239.307	15.24
239.525	10.97
239.743	6.79
239.962	8.64
240.18	10.79
240.398	8.34
240.617	25.61
240.835	32.41
241.053	46.08
241.271	50.01
241.49	45.2
241.708	47.52
241.926	43.75
242.144	42.4
242.363	31.96
242.581	20.7
242.799	6.82
243.017	10.69
243.235	-4.27
243.453	2.56
243.672	-13.68
243.89	-1
244.108	9.96
244.326	5.41
244.544	1.24
244.762	11.74
244.98	8.16
245.198	11.96
245.416	2.14
245.634	15.09
245.852	21.99
246.07	23.23
246.288	15.74
246.506	10.59
246.724	16.73
246.942	42.99
247.16	26.59
247.378	26.44
247.596	27.43
247.814	24.92
248.032	30.57
248.25	27.94
248.468	8.05
248.685	10.76
248.903	4.06
249.121	1.61
249.339	8
249.557	14.01
249.775	1.34
249.992	5.16
250.21	4.74
250.428	12.6
250.646	16.64
250.863	23.33
251.081	25.72
251.299	52.18
251.517	72.98
251.734	72.34
251.952	70.49
252.17	65.2
252.387	46.74
252.605	50.4
252.823	30.75
253.04	16.76
253.258	13.92
253.475	18.35
253.693	40.17
253.911	45.51
254.128	33.7
254.346	29.75
254.563	31.23
254.781	26.9
254.998	16
255.216	8.44
255.433	11.33
255.651	15.33
255.868	18.53
256.086	13.42
256.303	19.01
256.521	14.87
256.738	7.23
256.956	5.58
257.173	11.63
257.39	25.63
257.608	25.62
257.825	20.57
258.043	28.84
258.26	32.64
258.477	35.48
258.695	33.98
258.912	32.71
259.129	29.11
259.346	30.24
259.564	20.54
259.781	26.37
259.998	14.12
260.216	23.02
260.433	9.87
260.65	15.44
260.867	1.4
261.084	19.63
261.302	8.51
261.519	10.27
261.736	-6.79
261.953	3.62
262.17	10.49
262.387	29.71
262.604	25.09
262.822	32.43
263.039	38.5
263.256	41.34
263.473	40.6
263.69	39.15
263.907	35.79
264.124	25.25
264.341	17
264.558	16.7
264.775	19.87
264.992	21.96
265.209	25.29
265.426	25.01
265.643	31.2
265.86	34.08
266.077	32.07
266.294	32.26
266.51	31.27
266.727	22.74
266.944	13.61
267.161	11.01
267.378	8.76
267.595	-2.11
267.812	-8.36
268.028	-13.48
268.245	-11.03
268.462	-5.78
268.679	-7.71
268.896	-12.37
269.112	8.63
269.329	19.75
269.546	19.74
269.763	30.55
269.979	27.91
270.196	31.7
270.413	35.65
270.629	18.95
270.846	10.18
271.063	10.76
271.279	4.09
271.496	-2.5
271.712	-3.99
271.929	12.12
272.146	20.44
272.362	18.41
272.579	26.26
272.795	24.35
273.012	26.73
273.228	26.88
273.445	19.42
273.661	12.14
273.878	14.94
274.094	13.42
274.311	18.9
274.527	14.79
274.744	9.39
274.96	3.92
275.177	16.87
275.393	24.42
275.609	27.6
275.826	21.5
276.042	31.86
276.259	35.88
276.475	32.23
276.691	32.15
276.908	24.16
277.124	18.17
277.34	18.65
277.557	14.56
277.773	6.55
277.989	7.58
278.205	-0.54
278.422	12.82
278.638	22.34
278.854	26.81
279.07	19.11
279.286	24.94
279.503	28.82
279.719	33.86
279.935	20.34
280.151	20.54
280.367	23.21
280.583	31.66
280.799	36.06
281.016	35.85
281.232	22.17
281.448	16.38
281.664	12.22
281.88	6.41
282.096	5.53
282.312	-0.74
282.528	-11.21
282.744	3.73
282.96	16.16
283.176	16.1
283.392	31.83
283.608	36.34
283.824	31.69
284.04	35.52
284.256	40.76
284.471	48.09
284.687	43.02
284.903	31.51
285.119	21.26
285.335	24
285.551	23.22
285.767	15.05
285.982	6.23
286.198	1.82
286.414	17.45
286.63	25.93
286.846	27.5
287.061	31.29
287.277	33.28
287.493	26.57
287.709	29.23
287.924	25.4
288.14	30.12
288.356	35.67
288.571	34.23
288.787	33.42
289.003	41.56
289.218	37.12
289.434	36.04
289.65	30.74
289.865	32.93
290.081	27.19
290.296	29.88
290.512	33.62
290.727	41.28
290.943	33.65
291.159	31.79
291.374	19.93
291.59	16.61
291.805	21.62
292.021	7.16
292.236	5.49
292.451	6.51
292.667	3.41
292.882	3.6
293.098	3.14
293.313	-11.65
293.529	-7.7
293.744	-4.03
293.959	4.41
294.175	6.61
294.39	11.51
294.605	17.16
294.821	29.77
295.036	35.69
295.251	42.02
295.467	29.55
295.682	30.33
295.897	27.16
296.112	33.19
296.328	26.52
296.543	21.54
296.758	20.66
296.973	24.11
297.188	23.01
297.404	19.33
297.619	16.74
297.834	27.91
298.049	24.29
298.264	14.73
298.479	11.96
298.694	16.37
298.909	14.26
299.125	13.73
299.34	4.21
299.555	15.03
299.77	13.03
299.985	10.83
300.2	6.34
300.415	10.69
300.63	7.28
300.845	11.93
301.06	3.06
301.275	13.99
301.49	21
301.704	22.47
301.919	18.98
302.134	20.18
302.349	8.67
302.564	0.82
302.779	-6.83
302.994	-7.34
303.209	-10.04
303.423	-4.73
303.638	-4.11
303.853	2.43
304.068	22.2
304.283	17.86
304.497	9.39
304.712	12.58
304.927	9.64
305.142	9.88
305.356	16.6
305.571	14.86
305.786	11.99
306	26.14
306.215	30.92
306.43	41.63
306.644	37.77
306.859	36.83
307.074	36.62
307.288	43.18
307.503	29.13
307.717	19.96
307.932	18.06
308.147	18.26
308.361	12.66
308.576	17.01
308.79	16.85
309.005	21.54
309.219	30.73
309.434	23.98
309.648	20.4
309.863	23.51
310.077	17.98
310.292	14.83
310.506	31.23
310.72	26.55
310.935	32.81
311.149	32.8
311.364	37.04
311.578	35.06
311.792	36.3
312.007	19.72
312.221	19.51
312.435	22.32
312.649	-7.94
312.864	-24.38
313.078	-24.27
313.292	-27.62
313.507	-11.5
313.721	-7.79
313.935	5.32
314.149	33.59
314.363	36.48
314.578	60.82
314.792	55.2
315.006	53.22
315.22	53.9
315.434	35.71
315.648	36.32
315.862	38.59
316.077	26.17
316.291	32.87
316.505	30.85
316.719	9.39
316.933	17.21
317.147	15.03
317.361	25.28
317.575	20.88
317.789	22.38
318.003	20.28
318.217	35.48
318.431	41.98
318.645	45.17
318.859	31.62
319.073	26.01
319.287	29.33
319.5	33.64
319.714	26.28
319.928	27.68
320.142	34.91
320.356	45.48
320.57	43.73
320.784	42.17
320.997	36.11
321.211	37.35
321.425	22.34
321.639	17.76
321.853	5.87
322.066	14.43
322.28	9.82
322.494	5.98
322.707	12.74
322.921	15.62
323.135	19.84
323.349	23.25
323.562	15.37
323.776	16.6
323.989	16.44
324.203	18.9
324.417	13.11
324.63	4.65
324.844	5.86
325.057	15.59
325.271	11.71
325.485	21.76
325.698	14.25
325.912	22.02
326.125	30.03
326.339	23.64
326.552	23.39
326.766	32.44
326.979	32.74
327.193	25.43
327.406	26.28
327.619	9.91
327.833	15.99
328.046	7.79
328.26	-6.48
328.473	-11.98
328.686	-3.76
328.9	-8.47
329.113	7.81
329.326	17.48
329.54	21.05
329.753	22.31
329.966	21.82
330.179	33.01
330.393	37.14
330.606	36.18
330.819	31.28
331.032	34.03
331.246	38.05
331.459	37.56
331.672	28.35
331.885	25.74
332.098	23.26
332.311	15.43
332.525	14.36
332.738	19.89
332.951	23.32
333.164	18.38
333.377	14.69
333.59	16.41
333.803	24.72
334.016	17.97
334.229	16.99
334.442	24.01
334.655	31.71
334.868	38.4
335.081	41.71
335.294	32.82
335.507	41.49
335.72	29.09
335.933	32.05
336.146	38.52
336.359	28.93
336.572	18.14
336.785	28.63
336.997	22.97
337.21	25.48
337.423	18.05
337.636	14.88
337.849	21.4
338.062	26.93
338.274	20.08
338.487	28.64
338.7	29.83
338.913	26.38
339.125	26.56
339.338	28.81
339.551	34.48
339.763	35.35
339.976	30.98
340.189	29.97
340.402	32.38
340.614	36.09
340.827	25.45
341.039	17.95
341.252	13.91
341.465	9.69
341.677	5.11
341.89	6.85
342.102	4.85
342.315	16.91
342.527	16.72
342.74	21.16
342.952	23.7
343.165	37.13
343.377	32.05
343.59	25.01
343.802	27.79
344.015	32.26
344.227	27.33
344.44	20.14
344.652	11.77
344.864	17.39
345.077	14.52
345.289	9.87
345.502	-0.79
345.714	6.36
345.926	12.19
346.139	21.1
346.351	0.32
346.563	12.87
346.775	7.48
346.988	16.54
347.2	13.38
347.412	17.72
347.624	12.71
347.837	25.12
348.049	21.52
348.261	19.7
348.473	16.44
348.685	18.87
348.897	14.55
349.11	20.26
349.322	12.91
349.534	7.71
349.746	23.29
349.958	19.86
350.17	23.43
350.382	22.86
350.594	27.82
350.806	34.5
351.018	38.59
351.23	35.36
351.442	45.71
351.654	45.56
351.866	49.02
352.078	39.39
352.29	48.46
352.502	45.62
352.714	41.94
352.926	29.95
353.138	20.23
353.35	12.06
353.561	8.04
353.773	3.82
353.985	7.55
354.197	4.11
354.409	7.84
354.621	14.26
354.832	12.63
355.044	22.43
355.256	13.78
355.468	12.68
355.679	13.94
355.891	12.71
356.103	14.11
356.314	20.29
356.526	16.13
356.738	12.1
356.949	16.29
357.161	24.33
357.373	24
357.584	28.83
357.796	22.05
358.008	24.77
358.219	37.07
358.431	34.97
358.642	20
358.854	20.24
359.065	10.72
359.277	12.55
359.488	9.32
359.7	4.15
359.911	-0.72
360.123	16.1
360.334	16.14
360.546	8.51
360.757	12.63
360.969	18.58
361.18	19.08
361.391	18.53
361.603	18.08
361.814	21.81
362.025	23.47
362.237	24.56
362.448	22.33
362.659	13.88
362.871	22.96
363.082	18.39
363.293	18.53
363.504	22.69
363.716	21.6
363.927	14.52
364.138	19.83
364.349	13.65
364.56	6.64
364.772	4.32
364.983	-2.67
365.194	-1.61
365.405	10.23
365.616	3.56
365.827	5.31
366.038	25.64
366.25	24.39
366.461	35.41
366.672	28.65
366.883	25.61
367.094	31.78
367.305	34.9
367.516	30.59
367.727	30.76
367.938	30.38
368.149	33.43
368.36	37.55
368.571	37.68
368.781	32.31
368.992	26.82
369.203	27.01
369.414	22.44
369.625	17.88
369.836	13.05
370.047	8.5
370.258	10.24
370.468	3.28
370.679	-0.28
370.89	9.27
371.101	5.76
371.312	6.17
371.522	9.36
371.733	2.42
371.944	14.26
372.155	5.76
372.365	-3.24
372.576	6.15
372.787	2.42
372.997	1.39
373.208	4.65
373.419	2.29
373.629	21.41
373.84	17.13
374.05	16
374.261	14.77
374.472	13.51
374.682	10.14
374.893	8.31
375.103	0.28
375.314	6.57
375.524	5.82
375.735	5.54
375.945	8.6
376.156	21.49
376.366	23.54
376.577	27.34
376.787	32.1
376.997	34.17
377.208	29.05
377.418	26.85
377.629	20.31
377.839	24.01
378.049	22.16
378.26	25.64
378.47	24.65
378.68	29.42
378.89	25.41
379.101	13.33
379.311	2.39
379.521	7.14
379.732	-8.82
379.942	-7.24
380.152	-0.42
380.362	8.64
380.572	25.36
380.783	29.93
380.993	26.91
381.203	33.61
381.413	37.84
381.623	37.66
381.833	37.11
382.043	26.25
382.253	29.09
382.463	30.69
382.674	31.2
382.884	20.9
383.094	15.22
383.304	11.12
383.514	16
383.724	9.2
383.934	5.7
384.144	8.4
384.353	9.36
384.563	8.7
384.773	8.33
384.983	8.99
385.193	13.26
385.403	16.31
385.613	11.55
385.823	11.54
386.033	12.39
386.242	12.42
386.452	10.98
386.662	12.97
386.872	12.3
387.082	9.56
387.291	10.93
387.501	13.68
387.711	13.29
387.921	12.27
388.13	10.27
388.34	4.88
388.55	9.89
388.759	8.99
388.969	4.87
389.179	6.14
389.388	5.03
389.598	2.17
389.807	5.48
390.017	3.39
390.227	2.12
390.436	4.94
390.646	4.27
390.855	5.33
391.065	5.57
391.274	4.3
391.484	4.2
391.693	5.47
391.903	4.24
392.112	4.22
392.322	5.03
392.531	5.92
392.74	3.72
392.95	3.89
393.159	4.06
393.369	4.24
393.578	4.3
393.787	4.1
393.997	4.42
394.206	5.63
394.415	5.85
394.625	4.49
394.834	3.72
395.043	4
395.252	3.86
395.462	3.29
395.671	4.28
395.88	4.05
396.089	4.74
396.298	4.9
396.508	4.34
396.717	3.6
396.926	3.34
397.135	2.57
397.344	2.31
397.553	2.39
397.762	2.39
397.971	2.28
398.181	1.71
398.39	1.96
398.599	2.24
398.808	2.2
399.017	2.45
399.226	2.71
399.435	2.74
399.644	3.39
399.853	3.37
400.062	3.06
400.27	3.29
400.479	2.97
400.688	2.81
400.897	3.03
401.106	2.94
401.315	2.79
401.524	3.03
401.733	3.06
401.941	2.98
402.15	2.76
402.359	2.61
402.568	2.59
402.777	2.61
402.985	2.54
403.194	2.34
403.403	2.27
403.612	2.37
403.82	2.39
404.029	2.45
404.238	2.54
404.446	2.4
404.655	2.32
404.864	2.33
405.072	2.34
405.281	2.13
405.489	2.06
405.698	1.88
405.906	1.95
406.115	2.02
406.324	2.02
406.532	2.03
406.741	2.12
406.949	1.97
407.158	2.14
407.366	2.21
407.574	2.22
407.783	2.11
407.991	2.01
408.2	1.94
408.408	2.06
408.617	1.95
408.825	1.86
409.033	1.86
409.242	1.84
409.45	1.84
409.658	1.97
409.867	1.96
410.075	1.86
410.283	1.76
410.491	1.68
410.7	1.78
410.908	1.76
411.116	1.64
411.324	1.64
411.533	1.59
411.741	1.61
411.949	1.65
412.157	1.72
412.365	1.75
412.573	1.79
412.781	1.77
412.99	1.98
413.198	2
413.406	1.97
413.614	1.89
413.822	1.82
414.03	1.73
414.238	1.82
414.446	1.66
414.654	1.66
414.862	1.62
415.07	1.67
415.278	1.67
415.486	1.82
415.694	1.65
415.902	1.69
416.109	1.77
416.317	1.74
416.525	1.77
416.733	1.88
416.941	1.73
417.149	1.84
417.357	1.79
417.564	1.73
417.772	1.79
417.98	1.76
418.188	1.6
418.395	1.72
418.603	1.58
418.811	1.63
419.019	1.63
419.226	1.64
419.434	1.54
419.642	1.54
419.849	1.43
420.057	1.57
420.265	1.55
420.472	1.55
420.68	1.49
420.887	1.59
421.095	1.7
421.302	1.74
421.51	1.68
421.717	1.76
421.925	1.67
422.132	1.64
422.34	1.58
422.547	1.43
422.755	1.4
422.962	1.33
423.17	1.26
423.377	1.37
423.585	1.46
423.792	1.48
423.999	1.58
424.207	1.49
424.414	1.57
424.621	1.54
424.829	1.49
425.036	1.42
425.243	1.42
425.451	1.46
425.658	1.63
425.865	1.61
426.072	1.65
426.28	1.63
426.487	1.68
426.694	1.61
426.901	1.57
427.108	1.46
427.315	1.5
427.523	1.53
427.73	1.53
427.937	1.51
428.144	1.52
428.351	1.58
428.558	1.6
428.765	1.46
428.972	1.41
429.179	1.35
429.386	1.4
429.593	1.4
429.8	1.39
430.007	1.49
430.214	1.58
430.421	1.6
430.628	1.49
430.835	1.54
431.042	1.53
431.249	1.56
431.456	1.5
431.662	1.52
431.869	1.55
432.076	1.68
432.283	1.5
432.49	1.49
432.697	1.44
432.903	1.44
433.11	1.45
433.317	1.45
433.524	1.36
433.73	1.47
433.937	1.44
434.144	1.51
434.35	1.51
434.557	1.38
434.764	1.33
434.97	1.45
435.177	1.45
435.384	1.49
435.59	1.42
435.797	1.4
436.003	1.47
436.21	1.46
436.416	1.39
436.623	1.39
436.829	1.37
437.036	1.38
437.242	1.42
437.449	1.49
437.655	1.48
437.862	1.47
438.068	1.55
438.275	1.59
438.481	1.67
438.687	1.69
438.894	1.67
439.1	1.76
439.307	1.78
439.513	1.72
439.719	1.8
439.926	1.74
440.132	1.7
440.338	1.69
440.544	1.64
440.751	1.64
440.957	1.61
441.163	1.55
441.369	1.52
441.575	1.49
441.782	1.49
441.988	1.51
442.194	1.54
442.4	1.61
442.606	1.61
442.812	1.69
443.018	1.75
443.224	1.74
443.431	1.77
443.637	1.76
443.843	1.75
444.049	1.73
444.255	1.65
444.461	1.6
444.667	1.64
444.873	1.63
445.079	1.62
445.284	1.58
445.49	1.58
445.696	1.61
445.902	1.69
446.108	1.68
446.314	1.7
446.52	1.74
446.726	1.76
446.931	1.75
447.137	1.8
447.343	1.73
447.549	1.69
447.755	1.65
447.96	1.64
448.166	1.69
448.372	1.74
448.578	1.75
448.783	1.74
448.989	1.8
449.195	1.8
449.4	1.79
449.606	1.72
449.812	1.75
450.017	1.75
450.223	1.76
450.428	1.74
450.634	1.84
450.84	1.84
451.045	1.8
451.251	1.81
451.456	1.75
451.662	1.74
451.867	1.72
452.073	1.62
452.278	1.65
452.483	1.72
452.689	1.72
452.894	1.76
453.1	1.74
453.305	1.77
453.51	1.78
453.716	1.74
453.921	1.73
454.127	1.65
454.332	1.64
454.537	1.79
454.742	1.76
454.948	1.74
455.153	1.74
455.358	1.77
455.563	1.81
455.769	1.81
455.974	1.7
456.179	1.66
456.384	1.7
456.589	1.76
456.795	1.68
457	1.7
457.205	1.66
457.41	1.7
457.615	1.77
457.82	1.82
458.025	1.78
458.23	1.85
458.435	1.8
458.64	1.9
458.845	1.86
459.05	1.82
459.255	1.78
459.46	1.75
459.665	1.75
459.87	1.74
460.075	1.67
460.28	1.7
460.485	1.78
460.69	1.72
460.895	1.8
461.099	1.77
461.304	1.81
461.509	1.73
461.714	1.75
461.919	1.67
462.123	1.73
462.328	1.67
462.533	1.69
462.738	1.68
462.942	1.78
463.147	1.79
463.352	1.85
463.556	1.87
463.761	1.91
463.966	1.94
464.17	2
464.375	1.97
464.58	1.9
464.784	1.9
464.989	1.86
465.193	1.86
465.398	1.86
465.602	1.85
465.807	1.87
466.011	1.96
466.216	1.96
466.42	2.03
466.625	2.04
466.829	2.03
467.034	2.05
467.238	2.11
467.443	2.08
467.647	2.08
467.851	2.04
468.056	2.02
468.26	1.99
468.464	1.97
468.669	1.98
468.873	1.98
469.077	1.97
469.282	2
469.486	2.01
469.69	2.06
469.894	2.09
470.099	2.04
470.303	2.03
