Data from Ofra_PS_T2_1A_9CX06_Reflection_3.txt Node
Date: Wed Jul 21 18:18:58 EDT 2021
User: Adam
Spectrometer: FLMT01687
Trigger mode: 0
Integration Time (sec): 1.100000E0
Scans to average: 2
Electric dark correction enabled: true
Nonlinearity correction enabled: false
Boxcar width: 2
XAxis mode: Wavelengths
Number of Pixels in Spectrum: 3648
>>>>>Begin Spectral Data<<<<<
179.494	509.8
179.716	544.71
179.937	489.36
180.158	467.31
180.38	768.91
180.601	271.96
180.823	108.25
181.044	71.21
181.265	222.98
181.486	13.74
181.708	54.1
181.929	122.96
182.15	-190.49
182.372	129.65
182.593	44.86
182.814	31.97
183.035	54.74
183.257	39.59
183.478	-50.48
183.699	2.55
183.92	-7.44
184.141	-27.98
184.363	-36.17
184.584	2.27
184.805	-11.11
185.026	13.14
185.247	34.71
185.468	21.68
185.689	24.17
185.91	35.24
186.132	37.75
186.353	22.22
186.574	48.33
186.795	34.89
187.016	-30.58
187.237	-46.57
187.458	-68.01
187.679	-45.83
187.9	-25.93
188.121	-1.14
188.342	24.7
188.563	35.47
188.784	10.93
189.005	-22.74
189.226	-17.01
189.447	-45.57
189.667	-361.29
189.888	-424.26
190.109	-1301.62
190.33	-621.45
190.551	-1181.64
190.772	-247.03
190.993	-187.65
191.214	-71.45
191.434	-38.45
191.655	40.46
191.876	41.52
192.097	-10.53
192.318	-115.63
192.538	-185.7
192.759	-148.84
192.98	-64.71
193.201	-29.51
193.421	-1.68
193.642	34.13
193.863	36.14
194.083	28.46
194.304	15.72
194.525	14.02
194.745	-27.65
194.966	-60.45
195.187	-77.08
195.407	-82.01
195.628	-124.11
195.848	-131.91
196.069	-92.93
196.29	-62.77
196.51	-70.77
196.731	-64.65
196.951	-76.04
197.172	-93.18
197.392	-115.13
197.613	-109.98
197.833	-137.56
198.054	-110.22
198.274	-55.57
198.495	-65.68
198.715	-40.32
198.936	-54.89
199.156	-56.34
199.377	-129.36
199.597	-109.64
199.817	-111.19
200.038	-23.41
200.258	-31.42
200.479	11.63
200.699	21.16
200.919	43.27
201.14	-6.96
201.36	-55.61
201.58	-3.8
201.801	20.92
202.021	-19.76
202.241	-25.28
202.461	-4.45
202.682	-96.24
202.902	-165.99
203.122	-61.85
203.342	-43.31
203.563	-9.74
203.783	17.86
204.003	-11.52
204.223	-53.44
204.443	24.07
204.663	9.43
204.884	10.24
205.104	49.6
205.324	79.24
205.544	54.46
205.764	55.68
205.984	52.97
206.204	49.4
206.424	31.9
206.644	-21.43
206.864	-33.56
207.084	-105.53
207.304	-83.68
207.525	-233.52
207.745	-86.73
207.964	-13.38
208.184	-49.61
208.404	-96.04
208.624	-92.81
208.844	-95.67
209.064	-394.07
209.284	-406.54
209.504	-189.73
209.724	-49.43
209.944	-32.18
210.164	4.39
210.384	34.36
210.604	23.92
210.823	-23.02
211.043	-40.31
211.263	-19.51
211.483	-14.6
211.703	-54.94
211.922	-2.22
212.142	64.91
212.362	74.15
212.582	32.16
212.801	27.65
213.021	-10.28
213.241	-49.93
213.461	-79.69
213.68	-101.83
213.9	-41.32
214.12	-12.63
214.339	-78.42
214.559	-36.07
214.779	11.77
214.998	-0.69
215.218	-30.62
215.438	6.25
215.657	-31.08
215.877	-58.74
216.096	-44.32
216.316	-31.79
216.535	-30.25
216.755	-9.12
216.974	-52.29
217.194	-35.67
217.413	-43.72
217.633	-53.77
217.852	-139.4
218.072	-39.35
218.291	-23.45
218.511	12.21
218.73	-9.37
218.95	6.51
219.169	2.54
219.389	-22.64
219.608	-15.85
219.827	-2.92
220.047	-3.3
220.266	-10.9
220.485	-13.24
220.705	-8.56
220.924	-17.05
221.143	20.19
221.363	4.5
221.582	18.19
221.801	9.8
222.021	29.44
222.24	-44.87
222.459	17.51
222.678	-45.24
222.897	-93.55
223.117	-135.48
223.336	-104
223.555	-83.28
223.774	-28.53
223.993	-30.63
224.213	11.42
224.432	-7.61
224.651	19.77
224.87	1.26
225.089	24.74
225.308	22.94
225.527	43.4
225.746	36.54
225.965	33.65
226.184	0.96
226.404	8.62
226.623	-8.82
226.842	-5.08
227.061	17.58
227.28	27.7
227.499	7.1
227.718	12.09
227.936	-6.05
228.155	-20.76
228.374	-26.02
228.593	3.54
228.812	-11.79
229.031	1.44
229.25	-22.84
229.469	-46.16
229.688	-70.67
229.907	-18.07
230.125	-9.01
230.344	-14.37
230.563	5.8
230.782	22.89
231.001	-58.56
231.22	-50.17
231.438	-4.91
231.657	6.76
231.876	-1.16
232.095	43.76
232.313	59.57
232.532	39.23
232.751	-22.34
232.969	-31.01
233.188	-104.72
233.407	-57.24
233.625	-11.57
233.844	6.84
234.063	12.85
234.281	30.79
234.5	13.3
234.719	-4.18
234.937	13.46
235.156	22.73
235.374	21.3
235.593	17.62
235.811	19.75
236.03	1.73
236.249	-52.02
236.467	-48.19
236.686	-7.08
236.904	9.38
237.123	-1.49
237.341	3.06
237.559	7.6
237.778	-8.43
237.996	-25.1
238.215	21.75
238.433	21.26
238.652	10.22
238.87	-16.01
239.088	-10.17
239.307	-32.44
239.525	-42.55
239.743	-48.43
239.962	-33.9
240.18	-59.19
240.398	-87.06
240.617	-73.02
240.835	-57.22
241.053	-29.48
241.271	24.7
241.49	36.31
241.708	22.36
241.926	3.43
242.144	-0.33
242.363	-47.63
242.581	-74.6
242.799	-44.93
243.017	-10.65
243.235	-37.52
243.453	-23.6
243.672	-23.93
243.89	-16.03
244.108	-26.77
244.326	-10.02
244.544	-6.33
244.762	-2.38
244.98	-3.65
245.198	4.34
245.416	-18.01
245.634	-16.9
245.852	-25.22
246.07	-21.77
246.288	-29.72
246.506	-40.38
246.724	-36.05
246.942	-23.86
247.16	6.17
247.378	6.88
247.596	22.71
247.814	23.13
248.032	0.88
248.25	-4.08
248.468	6.35
248.685	16.9
248.903	29.16
249.121	40.07
249.339	15.94
249.557	4.77
249.775	11.85
249.992	-39.79
250.21	-53.87
250.428	-37.11
250.646	-66.59
250.863	-75.12
251.081	-34.54
251.299	-17.27
251.517	-9.02
251.734	0.67
251.952	-7.91
252.17	-20.69
252.387	-1.85
252.605	-13.29
252.823	-10.35
253.04	3.73
253.258	17.55
253.475	-10.47
253.693	3.83
253.911	21.13
254.128	19.67
254.346	20.5
254.563	-4.24
254.781	-5.44
254.998	-29.14
255.216	-53.73
255.433	-49.82
255.651	4.45
255.868	12.02
256.086	49.33
256.303	53.59
256.521	33.28
256.738	6.89
256.956	-30.22
257.173	-72.23
257.39	-84.99
257.608	-78.38
257.825	12.26
258.043	54.46
258.26	53.63
258.477	81.99
258.695	82.1
258.912	-2.79
259.129	3.93
259.346	-23.84
259.564	-48.6
259.781	-75.6
259.998	-12.39
260.216	8.24
260.433	35.74
260.65	25.81
260.867	20
261.084	-8.73
261.302	-37.85
261.519	-32.59
261.736	-49.03
261.953	-51.34
262.17	-10.63
262.387	-24.31
262.604	-41.4
262.822	-42.92
263.039	-20.92
263.256	-69.28
263.473	-52.59
263.69	-38.81
263.907	4.62
264.124	13.31
264.341	16.54
264.558	21
264.775	32.41
264.992	4.25
265.209	-2.21
265.426	12.31
265.643	6.38
265.86	4.08
266.077	19.92
266.294	20.33
266.51	-3.67
266.727	-14.04
266.944	-22.9
267.161	-8.29
267.378	-10.91
267.595	27.26
267.812	14.73
268.028	0.97
268.245	-7.52
268.462	-26.52
268.679	-47.49
268.896	3.96
269.112	18.52
269.329	18.85
269.546	19.97
269.763	15.88
269.979	0.55
270.196	4.25
270.413	-18.73
270.629	-20.07
270.846	-28.52
271.063	-12.53
271.279	-34.73
271.496	-22.68
271.712	-4.31
271.929	18.62
272.146	-39.15
272.362	-38.75
272.579	-23.48
272.795	-16.96
273.012	-14.1
273.228	24.21
273.445	7.52
273.661	-12.83
273.878	-29.33
274.094	-40.33
274.311	-76.16
274.527	-3.29
274.744	2.46
274.96	4.76
275.177	21.29
275.393	34.61
275.609	22.72
275.826	39.37
276.042	42.3
276.259	30.4
276.475	29.4
276.691	26.75
276.908	2.02
277.124	15.06
277.34	14.3
277.557	14.09
277.773	14.05
277.989	17.03
278.205	6.4
278.422	22.83
278.638	22.82
278.854	22.94
279.07	37.43
279.286	28.82
279.503	-8.92
279.719	-5.02
279.935	-16.44
280.151	-54.59
280.367	-22.63
280.583	-25.52
280.799	-33.62
281.016	-52.09
281.232	-8.56
281.448	-4.25
281.664	14.43
281.88	-3.19
282.096	25.77
282.312	33.64
282.528	33.5
282.744	34.8
282.96	42.22
283.176	11.72
283.392	10.39
283.608	-4.81
283.824	-15.37
284.04	-19.22
284.256	-13.71
284.471	-28.89
284.687	-26.37
284.903	4.15
285.119	38.39
285.335	16.34
285.551	17.43
285.767	1.01
285.982	-30.6
286.198	-94.01
286.414	-20.84
286.63	4.81
286.846	26.56
287.061	13.06
287.277	47.6
287.493	20.63
287.709	36.12
287.924	21.7
288.14	58.12
288.356	30.34
288.571	42.18
288.787	16.12
289.003	13.08
289.218	-5.49
289.434	-22.19
289.65	-11.78
289.865	-24.88
290.081	0.9
290.296	-4.74
290.512	7.49
290.727	-25.37
290.943	-23.17
291.159	-43.22
291.374	-45.59
291.59	-65.44
291.805	-51.83
292.021	-39.78
292.236	-45.4
292.451	-20.4
292.667	-7.52
292.882	-4.16
293.098	-8.28
293.313	-1.18
293.529	-31.51
293.744	-42.31
293.959	-41.93
294.175	-41.16
294.39	-10.63
294.605	5.33
294.821	27.56
295.036	27.79
295.251	48.55
295.467	7.39
295.682	1.84
295.897	-59.61
296.112	-52.04
296.328	-79.28
296.543	-64.83
296.758	-68.46
296.973	-11.55
297.188	18.22
297.404	5.82
297.619	-10.61
297.834	-20.06
298.049	-50.99
298.264	-78.93
298.479	-24.39
298.694	-8.18
298.909	7.02
299.125	17.58
299.34	24.49
299.555	-4.57
299.77	0.37
299.985	-23.91
300.2	-67.06
300.415	-72.42
300.63	-38.23
300.845	-48.56
301.06	-46.93
301.275	-3.79
301.49	-2.7
301.704	-8.12
301.919	-17.01
302.134	-30.54
302.349	-56.96
302.564	-112.64
302.779	-130.23
302.994	-108.66
303.209	-69.86
303.423	-16.25
303.638	31.05
303.853	-15.63
304.068	-27.07
304.283	-8.61
304.497	-7.73
304.712	-17.48
304.927	-3.36
305.142	-0.15
305.356	-1.87
305.571	-5.36
305.786	-20.62
306	-22.32
306.215	-10.23
306.43	-21.82
306.644	-32.01
306.859	11.95
307.074	12.09
307.288	-29.34
307.503	-49.04
307.717	-40.65
307.932	-56.25
308.147	-51.88
308.361	-22.05
308.576	-18.18
308.79	-42.34
309.005	-18.43
309.219	-10.39
309.434	-26.63
309.648	-14.18
309.863	7.22
310.077	3.33
310.292	-8.31
310.506	8.11
310.72	5.42
310.935	10.75
311.149	5.08
311.364	26.2
311.578	32.7
311.792	22.38
312.007	11.36
312.221	10.57
312.435	4.84
312.649	-13.6
312.864	19.17
313.078	48.32
313.292	100.34
313.507	85.92
313.721	115.16
313.935	40.68
314.149	27.97
314.363	6.57
314.578	3.44
314.792	3.32
315.006	-0.16
315.22	12.39
315.434	13.35
315.648	26.42
315.862	27.54
316.077	24.02
316.291	4.07
316.505	17.18
316.719	-12.38
316.933	-15.55
317.147	-12.81
317.361	-54.26
317.575	-85.28
317.789	-104.6
318.003	-177.74
318.217	-146.88
318.431	-49.18
318.645	-4.09
318.859	5.4
319.073	25.38
319.287	7.05
319.5	-35.19
319.714	-73.83
319.928	-118.79
320.142	-141.31
320.356	-83.3
320.57	-13.8
320.784	-27.38
320.997	3.04
321.211	0.89
321.425	-54.13
321.639	-89.86
321.853	-29.68
322.066	-13.48
322.28	-3.79
322.494	2.52
322.707	13.07
322.921	-2.81
323.135	-7.25
323.349	-9.89
323.562	-25.98
323.776	-33.85
323.989	-18.01
324.203	-32.32
324.417	-36.55
324.63	-25.71
324.844	-19.23
325.057	-42.52
325.271	-31.04
325.485	-6.61
325.698	4.67
325.912	9.11
326.125	-2.24
326.339	0.74
326.552	-12.52
326.766	-23.66
326.979	-4.47
327.193	23.1
327.406	-5.73
327.619	-8.31
327.833	4.34
328.046	-25.33
328.26	-60.75
328.473	-27.46
328.686	-67.09
328.9	-67.61
329.113	-52.05
329.326	-69.06
329.54	-46.51
329.753	-50.43
329.966	-60.08
330.179	-45.17
330.393	-12.89
330.606	-23.21
330.819	1.14
331.032	15.25
331.246	14.7
331.459	27.41
331.672	22.11
331.885	21.93
332.098	6.68
332.311	8.73
332.525	-30.71
332.738	-16.15
332.951	11.54
333.164	24.21
333.377	28.73
333.59	52.39
333.803	54.42
334.016	45.76
334.229	33.78
334.442	30.49
334.655	16.87
334.868	14.16
335.081	-12
335.294	-15.45
335.507	-21.91
335.72	-11.11
335.933	-15.89
336.146	-24.94
336.359	-23.23
336.572	-45.58
336.785	-85.64
336.997	-66.46
337.21	-24.33
337.423	-14.48
337.636	-15.67
337.849	-0.01
338.062	-9.08
338.274	-13.68
338.487	-30.05
338.7	-29.41
338.913	-48.6
339.125	-81.76
339.338	-117.24
339.551	-88.52
339.763	-49.7
339.976	-30.74
340.189	-8.21
340.402	-7.42
340.614	-15.22
340.827	-20.95
341.039	-28.28
341.252	-24.56
341.465	-7.85
341.677	-10.71
341.89	-38.41
342.102	-12.17
342.315	-33.49
342.527	-71.07
342.74	-66.8
342.952	-39.02
343.165	-32.13
343.377	14.88
343.59	23.37
343.802	42.12
344.015	52.54
344.227	48.58
344.44	22.45
344.652	12.64
344.864	-7.37
345.077	8.48
345.289	17.04
345.502	22.34
345.714	17.23
345.926	25.91
346.139	21.13
346.351	14.38
346.563	14.37
346.775	33.85
346.988	24.48
347.2	15.16
347.412	-15.14
347.624	-19.66
347.837	-48.03
348.049	-27.36
348.261	4.08
348.473	30.36
348.685	26.21
348.897	10.99
349.11	-1.73
349.322	-25.38
349.534	-22.97
349.746	-27.17
349.958	-18.25
350.17	-6.87
350.382	10.03
350.594	-23.08
350.806	-11.8
351.018	9.05
351.23	-12.73
351.442	-57.11
351.654	-45.49
351.866	-38.94
352.078	-42.67
352.29	-1.68
352.502	17.51
352.714	25.86
352.926	16.59
353.138	16.15
353.35	-0.38
353.561	-2.79
353.773	-13.92
353.985	-0.25
354.197	-2.33
354.409	-5.89
354.621	-15
354.832	2.7
355.044	-14.02
355.256	-27.47
355.468	-17.81
355.679	-25.69
355.891	-26.36
356.103	-42.24
356.314	-22.41
356.526	-6.36
356.738	0.35
356.949	-25.56
357.161	-10.5
357.373	-15.96
357.584	-37.12
357.796	-17.84
358.008	-6.26
358.219	17.7
358.431	22.51
358.642	33.25
358.854	19.15
359.065	5.53
359.277	-24.9
359.488	-43.42
359.7	-61.89
359.911	-52.97
360.123	-39.38
360.334	-47.26
360.546	-48.84
360.757	-41.58
360.969	-41.42
361.18	-37.2
361.391	-4.64
361.603	-13.67
361.814	-9.93
362.025	-2.59
362.237	-3.93
362.448	5.46
362.659	26.15
362.871	22.77
363.082	5.97
363.293	6.49
363.504	-7.99
363.716	-24.12
363.927	-39.58
364.138	-48.14
364.349	-62
364.56	-59.89
364.772	-58.37
364.983	-33.63
365.194	-26.16
365.405	-8.99
365.616	3.3
365.827	6.04
366.038	-15.83
366.25	-13.84
366.461	-40.25
366.672	-19.99
366.883	-8.25
367.094	6.47
367.305	-0.61
367.516	10.76
367.727	-15.34
367.938	-27.84
368.149	-34.05
368.36	-20.9
368.571	-18.85
368.781	-30.61
368.992	-38.32
369.203	-57.18
369.414	-75.19
369.625	-87.52
369.836	-68.18
370.047	-84.18
370.258	-57.5
370.468	-47.66
370.679	-53.44
370.89	-54.85
371.101	-42.19
371.312	-37.09
371.522	-39.22
371.733	-28.38
371.944	-6.71
372.155	6.12
372.365	-2.34
372.576	-2.51
372.787	-6.76
372.997	-29.7
373.208	-32.06
373.419	-13.96
373.629	-41.09
373.84	-40.9
374.05	-50.04
374.261	-40.75
374.472	-50.82
374.682	3.08
374.893	3.61
375.103	29.86
375.314	27.06
375.524	22.5
375.735	10.43
375.945	17.55
376.156	-7.27
376.366	-7.34
376.577	-7.09
376.787	-10.47
376.997	-10.96
377.208	-2.67
377.418	-8.32
377.629	-3.79
377.839	-4.2
378.049	2.77
378.26	15.64
378.47	18.48
378.68	8.97
378.89	4.98
379.101	-7.98
379.311	-34.65
379.521	-56.49
379.732	-48.3
379.942	-37.72
380.152	-46.06
380.362	-20.47
380.572	-15.13
380.783	2.07
380.993	-7.87
381.203	3.54
381.413	18.9
381.623	22.95
381.833	9.04
382.043	13.15
382.253	1.56
382.463	-11.55
382.674	-21.2
382.884	-35.01
383.094	-36.55
383.304	-23.01
383.514	-19.43
383.724	-6.52
383.934	-3.29
384.144	-15.1
384.353	-29.5
384.563	-27.56
384.773	-26.03
384.983	-30.9
385.193	-6.55
385.403	5.06
385.613	5.99
385.823	-5.11
386.033	-1.02
386.242	-9.3
386.452	-17.64
386.662	-24.52
386.872	-10.38
387.082	-15.59
387.291	-21.19
387.501	-13.86
387.711	-12.07
387.921	-14.81
388.13	-10.32
388.34	1.03
388.55	-4.85
388.759	-5.49
388.969	-1.02
389.179	-4.76
389.388	-6.13
389.598	2.67
389.807	-0.58
390.017	-6.04
390.227	-0.05
390.436	-2
390.646	-5.93
390.855	-2.04
391.065	0.18
391.274	-4.66
391.484	-6.58
391.693	-2.11
391.903	-1.58
392.112	1.96
392.322	3.35
392.531	8.32
392.74	7.51
392.95	3.5
393.159	0.31
393.369	0.52
393.578	-1.22
393.787	-2.45
393.997	-1.12
394.206	-2.9
394.415	-3.08
394.625	-3.25
394.834	-5.02
395.043	-3.47
395.252	-0.61
395.462	2.34
395.671	2.47
395.88	3.05
396.089	2.74
396.298	0.87
396.508	-0.28
396.717	-1.02
396.926	-0.21
397.135	-0.73
397.344	-0.32
397.553	-0.24
397.762	1.03
397.971	1
398.181	1.13
398.39	0.39
398.599	-0.12
398.808	-0.04
399.017	0.61
399.226	1.85
399.435	3.4
399.644	3.83
399.853	2.95
400.062	2.72
400.27	1.98
400.479	1.18
400.688	0.74
400.897	1.45
401.106	1.44
401.315	1.46
401.524	1.5
401.733	2.11
401.941	2.32
402.15	2.33
402.359	2.44
402.568	2.76
402.777	2.77
402.985	2.29
403.194	2.09
403.403	1.98
403.612	1.61
403.82	1.33
404.029	1.72
404.238	1.87
404.446	2.08
404.655	2.01
404.864	2.03
405.072	1.65
405.281	1.58
405.489	1.43
405.698	1.42
405.906	1.52
406.115	1.67
406.324	1.62
406.532	1.86
406.741	2.06
406.949	1.99
407.158	1.96
407.366	2.03
407.574	1.82
407.783	2.02
407.991	1.89
408.2	1.99
408.408	1.91
408.617	1.88
408.825	1.63
409.033	1.76
409.242	1.82
409.45	1.93
409.658	1.82
409.867	1.92
410.075	1.79
410.283	1.69
410.491	1.6
410.7	1.61
410.908	1.71
411.116	2
411.324	1.97
411.533	1.94
411.741	2.17
411.949	2.03
412.157	1.82
412.365	1.79
412.573	1.77
412.781	1.83
412.99	1.84
413.198	1.99
413.406	2.05
413.614	2.19
413.822	1.95
414.03	1.83
414.238	1.64
414.446	1.65
414.654	1.37
414.862	1.55
415.07	1.66
415.278	1.76
415.486	1.52
415.694	1.75
415.902	1.53
416.109	1.34
416.317	1.28
416.525	1.37
416.733	1.29
416.941	1.46
417.149	1.55
417.357	1.57
417.564	1.78
417.772	2.01
417.98	1.88
418.188	1.89
418.395	1.88
418.603	1.97
418.811	1.52
419.019	1.63
419.226	1.74
419.434	1.88
419.642	1.5
419.849	1.71
420.057	1.5
420.265	1.49
420.472	1.3
420.68	1.4
420.887	1.4
421.095	1.67
421.302	1.6
421.51	1.84
421.717	1.96
421.925	2
422.132	1.85
422.34	1.67
422.547	1.56
422.755	1.42
422.962	1.29
423.17	1.2
423.377	1.29
423.585	1.28
423.792	1.23
423.999	1.2
424.207	1.25
424.414	1.31
424.621	1.28
424.829	1.33
425.036	1.4
425.243	1.59
425.451	1.54
425.658	1.45
425.865	1.55
426.072	1.64
426.28	1.77
426.487	1.86
426.694	1.93
426.901	1.84
427.108	1.68
427.315	1.52
427.523	1.7
427.73	1.52
427.937	1.43
428.144	1.3
428.351	1.18
428.558	1.22
428.765	1.28
428.972	1.16
429.179	1.38
429.386	1.7
429.593	1.35
429.8	1.31
430.007	1.59
430.214	1.71
430.421	1.45
430.628	1.34
430.835	1.31
431.042	1.36
431.249	1.4
431.456	1.4
431.662	1.58
431.869	1.76
432.076	1.75
432.283	1.76
432.49	1.8
432.697	1.71
432.903	1.43
433.11	1.33
433.317	1.28
433.524	1.38
433.73	1.46
433.937	1.78
434.144	1.71
434.35	1.7
434.557	1.54
434.764	1.57
434.97	1.39
435.177	1.56
435.384	1.42
435.59	1.54
435.797	1.83
436.003	1.91
436.21	1.88
436.416	2.05
436.623	2.06
436.829	1.93
437.036	1.93
437.242	1.97
437.449	1.85
437.655	1.85
437.862	1.78
438.068	1.8
438.275	1.85
438.481	2.05
438.687	1.95
438.894	1.93
439.1	1.91
439.307	2.06
439.513	1.95
439.719	1.95
439.926	2.01
440.132	1.96
440.338	1.77
440.544	1.93
440.751	1.95
440.957	2.07
441.163	2.05
441.369	2.2
441.575	1.96
441.782	1.96
441.988	1.8
442.194	1.82
442.4	1.73
442.606	2.01
442.812	2.17
443.018	2.22
443.224	2.24
443.431	2.31
443.637	2.13
443.843	1.88
444.049	1.93
444.255	1.89
444.461	1.78
444.667	1.76
444.873	1.95
445.079	1.88
445.284	2.05
445.49	1.89
445.696	1.73
445.902	1.69
446.108	1.69
446.314	1.53
446.52	1.68
446.726	2.01
446.931	1.99
447.137	2.06
447.343	2.14
447.549	2.12
447.755	1.95
447.96	1.99
448.166	1.93
448.372	1.92
448.578	1.91
448.783	1.97
448.989	2.05
449.195	2.27
449.4	2.24
449.606	2.22
449.812	2.1
450.017	2
450.223	1.86
450.428	1.83
450.634	2.01
450.84	2.18
451.045	2.14
451.251	2.06
451.456	2.35
451.662	2.35
451.867	2.38
452.073	2.4
452.278	2.54
452.483	2.48
452.689	2.38
452.894	2.27
453.1	2.34
453.305	2.16
453.51	2.07
453.716	2
453.921	2.1
454.127	2.02
454.332	2.04
454.537	2.02
454.742	2.07
454.948	1.93
455.153	2.04
455.358	2.12
455.563	2.29
455.769	2.46
455.974	2.49
456.179	2.37
456.384	2.4
456.589	2.28
456.795	2.03
457	2.09
457.205	2.26
457.41	2.18
457.615	2.15
457.82	2.24
458.025	2.23
458.23	2.07
458.435	2.2
458.64	2.16
458.845	2.31
459.05	2.24
459.255	2.26
459.46	2.16
459.665	2.17
459.87	2.09
460.075	2.14
460.28	2.2
460.485	2.33
460.69	2.36
460.895	2.25
461.099	2.19
461.304	2.24
