Data from Ofra_2a_PS_6GT17_Reflection_2.txt Node
Date: Tue Jul 20 09:54:06 EDT 2021
User: Adam
Spectrometer: FLMT01687
Trigger mode: 0
Integration Time (sec): 9.450000E-1
Scans to average: 3
Electric dark correction enabled: true
Nonlinearity correction enabled: false
Boxcar width: 3
XAxis mode: Wavelengths
Number of Pixels in Spectrum: 3648
>>>>>Begin Spectral Data<<<<<
179.494	868.64
179.716	502.73
179.937	590.66
180.158	2072.27
180.38	-844.48
180.601	-79.28
180.823	25.41
181.044	-31.18
181.265	-202.51
181.486	-22.49
181.708	-1435.87
181.929	-160.58
182.15	-491.48
182.372	69.4
182.593	-78
182.814	522.6
183.035	454.86
183.257	147.61
183.478	115.6
183.699	100.72
183.92	77.26
184.141	75.81
184.363	56.89
184.584	35.12
184.805	61.26
185.026	62.45
185.247	46.8
185.468	54.48
185.689	53.68
185.91	50.6
186.132	59.37
186.353	39.3
186.574	31.85
186.795	9.99
187.016	9.62
187.237	3.42
187.458	13.49
187.679	20.63
187.9	25.05
188.121	29.62
188.342	59.56
188.563	62.03
188.784	61.14
189.005	74.85
189.226	62.9
189.447	63.81
189.667	67.34
189.888	64.71
190.109	61.95
190.33	46.12
190.551	20.74
190.772	16.39
190.993	23.77
191.214	25.18
191.434	30.39
191.655	33.94
191.876	43.45
192.097	46.45
192.318	47.24
192.538	49.78
192.759	47.77
192.98	31.89
193.201	37.06
193.421	41.88
193.642	40.22
193.863	38.42
194.083	25.86
194.304	18.05
194.525	32.28
194.745	6.33
194.966	17.28
195.187	38.3
195.407	38.87
195.628	38
195.848	48.25
196.069	47.8
196.29	48.44
196.51	29.2
196.731	17.34
196.951	18.48
197.172	17.7
197.392	9.48
197.613	6.85
197.833	11.11
198.054	14.65
198.274	-7.12
198.495	-1.61
198.715	-13.31
198.936	-24.36
199.156	-0.68
199.377	9.91
199.597	23.14
199.817	45.16
200.038	47.13
200.258	51.2
200.479	68.89
200.699	62.75
200.919	52.39
201.14	42.4
201.36	46.32
201.58	39.25
201.801	41.63
202.021	33.92
202.241	46.08
202.461	56.07
202.682	59.58
202.902	45.49
203.122	41.09
203.342	46.64
203.563	48.05
203.783	40.1
204.003	33.66
204.223	42.82
204.443	50.79
204.663	55.13
204.884	55.27
205.104	55.71
205.324	68.56
205.544	77.81
205.764	79.89
205.984	74.68
206.204	73.63
206.424	64.42
206.644	71.23
206.864	62.05
207.084	66.08
207.304	58.33
207.525	46.89
207.745	41.54
207.964	39.56
208.184	22.61
208.404	15.19
208.624	-6.9
208.844	-21.14
209.064	-2.01
209.284	19.09
209.504	21.56
209.724	-0.44
209.944	1.9
210.164	7.01
210.384	29.41
210.604	26.6
210.823	-7.58
211.043	-7.58
211.263	26.86
211.483	31.58
211.703	38.56
211.922	41.34
212.142	47.48
212.362	59.94
212.582	53.28
212.801	50.62
213.021	47.34
213.241	40.89
213.461	31.43
213.68	28.97
213.9	26.98
214.12	33.08
214.339	26.05
214.559	40.65
214.779	42.06
214.998	35.88
215.218	33.04
215.438	41.37
215.657	41.61
215.877	44.79
216.096	31.47
216.316	33.77
216.535	35.23
216.755	24.67
216.974	17.73
217.194	3.86
217.413	10.41
217.633	14.02
217.852	6.4
218.072	-2.47
218.291	24.64
218.511	19.94
218.73	19.04
218.95	18.47
219.169	12.81
219.389	8.81
219.608	23.8
219.827	7.6
220.047	7.79
220.266	20.12
220.485	23.99
220.705	18.2
220.924	30.62
221.143	26.57
221.363	32.56
221.582	25.94
221.801	27.09
222.021	26.09
222.24	27.75
222.459	21.17
222.678	13
222.897	7.01
223.117	23.56
223.336	31.4
223.555	24.22
223.774	47.38
223.993	54.91
224.213	57.81
224.432	76.1
224.651	72.42
224.87	73.88
225.089	80.04
225.308	65.37
225.527	58.3
225.746	56.94
225.965	57.89
226.184	50.49
226.404	27.83
226.623	36
226.842	43.87
227.061	40.47
227.28	60.56
227.499	49.57
227.718	53.3
227.936	53.81
228.155	49.71
228.374	49.41
228.593	48.63
228.812	30.49
229.031	21.75
229.25	27.55
229.469	37.36
229.688	40.74
229.907	37.94
230.125	42.23
230.344	47.91
230.563	55.24
230.782	43.59
231.001	43.15
231.22	36.51
231.438	40.9
231.657	39.4
231.876	43.54
232.095	39.29
232.313	56.07
232.532	43.82
232.751	46.07
232.969	47
233.188	46.07
233.407	42.06
233.625	42.22
233.844	35.98
234.063	35.11
234.281	22.3
234.5	18.12
234.719	22.27
234.937	20.52
235.156	9.97
235.374	-3.54
235.593	-4.7
235.811	-2.42
236.03	-13.45
236.249	-20.51
236.467	-15.99
236.686	2.6
236.904	0.86
237.123	17.34
237.341	14.57
237.559	21.89
237.778	27.08
237.996	37.34
238.215	32.17
238.433	35.69
238.652	29.26
238.87	34.07
239.088	19.81
239.307	26.23
239.525	8.57
239.743	-0.3
239.962	1.66
240.18	4.27
240.398	13.87
240.617	40.63
240.835	39
241.053	58.01
241.271	59.95
241.49	52.94
241.708	60.29
241.926	45.91
242.144	31.65
242.363	33.7
242.581	19.98
242.799	22.44
243.017	28.94
243.235	17.65
243.453	30.76
243.672	37.95
243.89	34.48
244.108	41.76
244.326	40.41
244.544	45.37
244.762	38.81
244.98	33.65
245.198	26.45
245.416	21.51
245.634	33.57
245.852	44.06
246.07	40.24
246.288	45.02
246.506	50.58
246.724	70.35
246.942	64.34
247.16	45.95
247.378	29.97
247.596	41.35
247.814	32.07
248.032	33.72
248.25	18.93
248.468	23.8
248.685	25.74
248.903	30.7
249.121	18.44
249.339	24.05
249.557	28.65
249.775	15.67
249.992	11.6
250.21	11.47
250.428	2.64
250.646	12.84
250.863	14.99
251.081	9.1
251.299	38.32
251.517	72.66
251.734	76.06
251.952	89.04
252.17	73.69
252.387	63.21
252.605	68.6
252.823	54.88
253.04	36.57
253.258	15.11
253.475	21.25
253.693	37.55
253.911	41.13
254.128	36.71
254.346	27.54
254.563	21.12
254.781	34.25
254.998	30.26
255.216	26.45
255.433	20.47
255.651	8.6
255.868	16.64
256.086	27.84
256.303	25.79
256.521	14.92
256.738	5.74
256.956	10.23
257.173	22.01
257.39	21.61
257.608	20.19
257.825	20.05
258.043	30.49
258.26	25.57
258.477	27.89
258.695	26.21
258.912	38.72
259.129	25.48
259.346	19.26
259.564	12.37
259.781	30.95
259.998	27.09
260.216	31.29
260.433	26.46
260.65	37.62
260.867	31.61
261.084	32.81
261.302	20.35
261.519	14.65
261.736	20.07
261.953	10.25
262.17	5.73
262.387	11.21
262.604	-3.54
262.822	10.99
263.039	14.8
263.256	8
263.473	6.15
263.69	9.79
263.907	15.67
264.124	23.74
264.341	9.57
264.558	17.84
264.775	19.98
264.992	19.8
265.209	28.63
265.426	29.08
265.643	32.47
265.86	38.07
266.077	40.8
266.294	42.99
266.51	49.6
266.727	41.77
266.944	41.47
267.161	38.29
267.378	33.22
267.595	22.01
267.812	8.96
268.028	8.84
268.245	9.67
268.462	15.01
268.679	8.85
268.896	12.16
269.112	29.95
269.329	35.07
269.546	28.9
269.763	37.19
269.979	28.52
270.196	37.3
270.413	40.44
270.629	25.86
270.846	24.88
271.063	25.43
271.279	19.02
271.496	17.68
271.712	11.09
271.929	21.43
272.146	25.82
272.362	19.49
272.579	23.33
272.795	23.51
273.012	25.39
273.228	28.68
273.445	19.87
273.661	13.37
273.878	24.6
274.094	33.64
274.311	35.26
274.527	31.69
274.744	29.44
274.96	24.96
275.177	36.18
275.393	29.45
275.609	22.79
275.826	25.63
276.042	49.66
276.259	53.74
276.475	50.85
276.691	42.4
276.908	38.12
277.124	39.02
277.34	36.51
277.557	18.03
277.773	11.73
277.989	16.65
278.205	10.28
278.422	24.96
278.638	34.81
278.854	36.78
279.07	33.67
279.286	38.52
279.503	44.08
279.719	63.4
279.935	50.97
280.151	43.24
280.367	38.82
280.583	53.57
280.799	48.57
281.016	42.65
281.232	33.99
281.448	42.18
281.664	41.85
281.88	45.27
282.096	34.91
282.312	29.77
282.528	24.89
282.744	21.51
282.96	25.02
283.176	23.99
283.392	30.15
283.608	29.24
283.824	39.99
284.04	45.88
284.256	46.25
284.471	47.57
284.687	43.78
284.903	47.4
285.119	36.8
285.335	40.29
285.551	43.77
285.767	40.84
285.982	30.29
286.198	28.91
286.414	24.58
286.63	41.29
286.846	29.41
287.061	22.57
287.277	25.08
287.493	28.98
287.709	25.22
287.924	32.23
288.14	31.47
288.356	39.36
288.571	40.52
288.787	43.07
289.003	44.24
289.218	43.87
289.434	30.83
289.65	30.52
289.865	35.33
290.081	36.36
290.296	34.57
290.512	38.35
290.727	48.01
290.943	40.64
291.159	33.08
291.374	34.96
291.59	30.06
291.805	26.27
292.021	11.87
292.236	11.95
292.451	25.05
292.667	19.44
292.882	19.29
293.098	19.61
293.313	23.02
293.529	31.24
293.744	37.86
293.959	28.46
294.175	37.11
294.39	37.92
294.605	43.14
294.821	37.89
295.036	39.07
295.251	36.57
295.467	44.67
295.682	43.62
295.897	36.81
296.112	43.63
296.328	45.44
296.543	38.63
296.758	20.78
296.973	19.01
297.188	16.24
297.404	14.13
297.619	8.63
297.834	11.02
298.049	9.86
298.264	19.68
298.479	16.77
298.694	21.56
298.909	18.53
299.125	9.3
299.34	8.13
299.555	16.28
299.77	14.16
299.985	13.66
300.2	6.84
300.415	11.31
300.63	10.97
300.845	20.49
301.06	17.29
301.275	19.59
301.49	24.12
301.704	30.22
301.919	26.38
302.134	25.41
302.349	19.41
302.564	17.68
302.779	20.45
302.994	17.33
303.209	0.95
303.423	12.74
303.638	15.77
303.853	3.51
304.068	10.75
304.283	7.28
304.497	9.42
304.712	30.28
304.927	25.71
305.142	32.22
305.356	35.22
305.571	32.32
305.786	32.86
306	37.38
306.215	20.79
306.43	30.33
306.644	29.43
306.859	38.53
307.074	38.19
307.288	42.21
307.503	38.59
307.717	46.6
307.932	42.03
308.147	45.7
308.361	40.65
308.576	37.67
308.79	39.76
309.005	39.31
309.219	30.14
309.434	22.89
309.648	13.9
309.863	13.08
310.077	10.18
310.292	8.9
310.506	22.78
310.72	27.01
310.935	30.79
311.149	28.16
311.364	27.99
311.578	29.14
311.792	25.13
312.007	13
312.221	22.06
312.435	23.62
312.649	37.65
312.864	35.28
313.078	40.53
313.292	47.45
313.507	54.43
313.721	62.29
313.935	75.78
314.149	54.7
314.363	59.64
314.578	72.86
314.792	67.65
315.006	65.69
315.22	60.89
315.434	45.32
315.648	43.53
315.862	43.66
316.077	33.04
316.291	37.17
316.505	39.15
316.719	30.04
316.933	32.84
317.147	37.26
317.361	40.33
317.575	36.22
317.789	33.42
318.003	38.61
318.217	45.2
318.431	53.22
318.645	48.16
318.859	33.56
319.073	34.1
319.287	32.59
319.5	23.1
319.714	18.84
319.928	17.88
320.142	22.65
320.356	39.93
320.57	33.36
320.784	32.97
320.997	36.14
321.211	28.96
321.425	18.73
321.639	25.85
321.853	17.77
322.066	23.2
322.28	21.92
322.494	17.19
322.707	23.18
322.921	26.6
323.135	16.52
323.349	18.15
323.562	21.92
323.776	24.68
323.989	28.14
324.203	25.71
324.417	24.25
324.63	16.95
324.844	3.73
325.057	2.24
325.271	-1.57
325.485	7.58
325.698	7.14
325.912	13.89
326.125	23.03
326.339	32.64
326.552	31.88
326.766	33.2
326.979	26.37
327.193	20.21
327.406	16.04
327.619	-3.55
327.833	-1.54
328.046	2.18
328.26	-11.46
328.473	-12.03
328.686	0.82
328.9	-0.71
329.113	14.48
329.326	18.9
329.54	20.14
329.753	35.25
329.966	35.97
330.179	41.04
330.393	43.83
330.606	51.08
330.819	60.19
331.032	56.3
331.246	55.17
331.459	51.39
331.672	44.92
331.885	40.69
332.098	43.25
332.311	16.8
332.525	23.17
332.738	23.04
332.951	28.1
333.164	24.72
333.377	23.02
333.59	24.55
333.803	36.91
334.016	36.57
334.229	35.59
334.442	36.91
334.655	49.18
334.868	56.62
335.081	59.04
335.294	52.77
335.507	61.2
335.72	53.82
335.933	63
336.146	58.48
336.359	51.66
336.572	41.65
336.785	52.81
336.997	41.01
337.21	47.89
337.423	37.73
337.636	38.11
337.849	34.75
338.062	38.7
338.274	34.33
338.487	38.92
338.7	37.73
338.913	38.31
339.125	31.52
339.338	36.12
339.551	30.54
339.763	26.32
339.976	21.91
340.189	17.99
340.402	18.66
340.614	21.47
340.827	14.55
341.039	14.99
341.252	14.18
341.465	12.95
341.677	7.45
341.89	6.67
342.102	5.09
342.315	12.41
342.527	5.97
342.74	-2.2
342.952	4.65
343.165	19.74
343.377	17.77
343.59	28.52
343.802	23.87
344.015	29.2
344.227	31.98
344.44	32.02
344.652	28.29
344.864	32.9
345.077	27.85
345.289	34.14
345.502	33.78
345.714	24.36
345.926	17.29
346.139	9.01
346.351	-5.96
346.563	-0.62
346.775	-11.47
346.988	-7.69
347.2	10
347.412	10.17
347.624	18.53
347.837	26.28
348.049	22.01
348.261	24.93
348.473	18.83
348.685	27.88
348.897	36.05
349.11	27.72
349.322	16.76
349.534	17.03
349.746	30.81
349.958	31.38
350.17	10.8
350.382	5.42
350.594	13.42
350.806	20.99
351.018	23.47
351.23	19.13
351.442	25.92
351.654	38.19
351.866	43.01
352.078	41.06
352.29	49.78
352.502	47.25
352.714	50.14
352.926	44.39
353.138	38.52
353.35	32.46
353.561	26.97
353.773	25.05
353.985	33.85
354.197	23.66
354.409	30.95
354.621	34.46
354.832	37.08
355.044	45.9
355.256	41.57
355.468	38
355.679	43.09
355.891	36.08
356.103	28.15
356.314	24.36
356.526	14.62
356.738	10.78
356.949	19.05
357.161	23.43
357.373	22.44
357.584	35.54
357.796	35.56
358.008	43.64
358.219	48.83
358.431	42.33
358.642	39.31
358.854	34.33
359.065	27.26
359.277	23.66
359.488	16.84
359.7	20.7
359.911	17.3
360.123	21.63
360.334	26.82
360.546	17.34
360.757	25.85
360.969	33.85
361.18	33
361.391	26.69
361.603	26.4
361.814	31.34
362.025	35.69
362.237	30.25
362.448	24.52
362.659	9.23
362.871	15.22
363.082	13.54
363.293	8.12
363.504	9.96
363.716	16.15
363.927	16.32
364.138	22.4
364.349	22.16
364.56	24.59
364.772	27.38
364.983	22.04
365.194	20.85
365.405	21.98
365.616	16.65
365.827	18.95
366.038	26.79
366.25	27.62
366.461	38.25
366.672	37.43
366.883	36.21
367.094	43.46
367.305	41.91
367.516	32.25
367.727	28.54
367.938	24.43
368.149	24.25
368.36	20.79
368.571	25.58
368.781	21.11
368.992	19.15
369.203	22.65
369.414	23.02
369.625	15.49
369.836	18.41
370.047	12.38
370.258	11.18
370.468	11.37
370.679	4.52
370.89	8.19
371.101	6.84
371.312	3.56
371.522	7.48
371.733	5.62
371.944	11.28
372.155	4.12
372.365	-0.97
372.576	5.64
372.787	5.19
372.997	-1.24
373.208	8.81
373.419	3.28
373.629	16.76
373.84	8.95
374.05	8.84
374.261	8.25
374.472	12.69
374.682	4.56
374.893	-0.9
375.103	6.77
375.314	13.67
375.524	14.06
375.735	13.81
375.945	10.88
376.156	12.1
376.366	16.15
376.577	7.77
376.787	8.6
376.997	8.5
377.208	9.44
377.418	14.76
377.629	21.2
377.839	29.97
378.049	33.74
378.26	35.53
378.47	36.37
378.68	38.75
378.89	34.31
379.101	25.65
379.311	16
379.521	19.04
379.732	9.8
379.942	6.8
380.152	9.22
380.362	14.87
380.572	19.9
380.783	24.93
380.993	20.79
381.203	27.83
381.413	35.53
381.623	33.5
381.833	23.54
382.043	20.71
382.253	18.45
382.463	16.52
382.674	12.22
382.884	6.69
383.094	7.04
383.304	8.88
383.514	14.06
383.724	12.01
383.934	10.88
384.144	15.83
384.353	14.14
384.563	11.62
384.773	19.67
384.983	18.11
385.193	20.3
385.403	22.1
385.613	16.6
385.823	18.38
386.033	16.77
386.242	13.19
386.452	11.47
386.662	11
386.872	11.81
387.082	9.73
387.291	7.98
387.501	10.81
387.711	8.9
387.921	10.19
388.13	8.85
388.34	7.59
388.55	11.8
388.759	8.92
388.969	5.52
389.179	7.2
389.388	6.37
389.598	4.42
389.807	4.43
390.017	2.9
390.227	6.97
390.436	8.46
390.646	9.19
390.855	8.47
391.065	8.88
391.274	7.45
391.484	8.64
391.693	6.83
391.903	5.08
392.112	2.76
392.322	4.82
392.531	5.9
392.74	5.56
392.95	5.19
393.159	5.74
393.369	6.5
393.578	7.31
393.787	6.43
393.997	7.29
394.206	7.71
394.415	7.25
394.625	5.65
394.834	5.24
395.043	5.74
395.252	5.51
395.462	4.94
395.671	4.9
395.88	4.86
396.089	5.6
396.298	5.78
396.508	5.1
396.717	4.65
396.926	4.1
397.135	3.36
397.344	3.1
397.553	3.17
397.762	2.83
397.971	2.79
398.181	2.33
398.39	2.69
398.599	3.26
398.808	3.43
399.017	3.62
399.226	4.06
399.435	4.25
399.644	4.48
399.853	4.31
400.062	4.05
400.27	4
400.479	3.62
400.688	3.46
400.897	3.51
401.106	3.62
401.315	3.48
401.524	3.48
401.733	3.69
401.941	3.68
402.15	3.39
402.359	3.2
402.568	3.09
402.777	3
402.985	3
403.194	2.72
403.403	2.6
403.612	2.66
403.82	2.72
404.029	2.73
404.238	2.82
404.446	2.73
404.655	2.56
404.864	2.61
405.072	2.7
405.281	2.51
405.489	2.55
405.698	2.39
405.906	2.33
406.115	2.53
406.324	2.48
406.532	2.45
406.741	2.59
406.949	2.47
407.158	2.67
407.366	2.83
407.574	2.83
407.783	2.82
407.991	2.69
408.2	2.56
408.408	2.65
408.617	2.48
408.825	2.45
409.033	2.4
409.242	2.38
409.45	2.52
409.658	2.53
409.867	2.46
410.075	2.47
410.283	2.35
410.491	2.3
410.7	2.36
410.908	2.3
411.116	2.23
411.324	2.25
411.533	2.22
411.741	2.25
411.949	2.31
412.157	2.28
412.365	2.25
412.573	2.37
412.781	2.34
412.99	2.48
413.198	2.49
413.406	2.47
413.614	2.46
413.822	2.43
414.03	2.39
414.238	2.47
414.446	2.34
414.654	2.34
414.862	2.26
415.07	2.32
415.278	2.32
415.486	2.38
415.694	2.22
415.902	2.22
416.109	2.29
416.317	2.24
416.525	2.21
416.733	2.3
416.941	2.2
417.149	2.42
417.357	2.44
417.564	2.36
417.772	2.47
417.98	2.47
418.188	2.29
418.395	2.28
418.603	1.99
418.811	1.94
419.019	1.98
419.226	2.04
419.434	1.91
419.642	1.92
419.849	1.91
420.057	2.08
420.265	2.1
420.472	2.07
420.68	1.96
420.887	2.01
421.095	2.1
421.302	2.16
421.51	2.2
421.717	2.24
421.925	2.12
422.132	2.05
422.34	2.03
422.547	2.04
422.755	1.94
422.962	1.81
423.17	1.8
423.377	1.93
423.585	1.99
423.792	2.06
423.999	2.04
424.207	2.02
424.414	2.21
424.621	2.18
424.829	2.09
425.036	2.04
425.243	2.01
425.451	2.02
425.658	2.11
425.865	1.91
426.072	1.98
426.28	2.06
426.487	2.1
426.694	2.09
426.901	2.05
427.108	2.01
427.315	2.04
427.523	1.99
427.73	1.99
427.937	2
428.144	2.07
428.351	2.19
428.558	2.22
428.765	2.22
428.972	2.24
429.179	2.12
429.386	2.15
429.593	2.11
429.8	2.11
430.007	2.1
430.214	2.11
430.421	2.1
430.628	2.07
430.835	2.05
431.042	2.08
431.249	1.98
431.456	2
431.662	2.05
431.869	2.15
432.076	2.25
432.283	2.19
432.49	2.12
432.697	2.13
432.903	2.19
433.11	2.22
433.317	2.14
433.524	2.09
433.73	2.15
433.937	2.2
434.144	2.29
434.35	2.22
434.557	2.18
434.764	2.15
434.97	2.23
435.177	2.19
435.384	2.28
435.59	2.15
435.797	2.16
436.003	2.14
436.21	2.16
436.416	2.1
436.623	2.14
436.829	2.09
437.036	2.16
437.242	2.18
437.449	2.21
437.655	2.21
437.862	2.29
438.068	2.36
438.275	2.34
438.481	2.39
438.687	2.49
438.894	2.49
439.1	2.53
439.307	2.5
439.513	2.47
439.719	2.52
439.926	2.52
440.132	2.45
440.338	2.45
440.544	2.39
440.751	2.39
440.957	2.3
441.163	2.31
441.369	2.29
441.575	2.28
441.782	2.22
441.988	2.3
442.194	2.35
442.4	2.46
442.606	2.48
442.812	2.47
443.018	2.54
443.224	2.62
443.431	2.62
443.637	2.57
443.843	2.54
444.049	2.51
444.255	2.54
444.461	2.49
444.667	2.51
444.873	2.51
445.079	2.52
445.284	2.53
445.49	2.47
445.696	2.47
445.902	2.49
446.108	2.46
446.314	2.51
446.52	2.52
446.726	2.52
446.931	2.6
447.137	2.6
447.343	2.58
447.549	2.57
447.755	2.51
447.96	2.53
448.166	2.55
448.372	2.53
448.578	2.56
448.783	2.55
448.989	2.61
449.195	2.63
449.4	2.6
449.606	2.6
449.812	2.65
450.017	2.68
450.223	2.66
450.428	2.65
450.634	2.68
450.84	2.72
451.045	2.69
451.251	2.7
451.456	2.66
451.662	2.7
451.867	2.68
452.073	2.58
452.278	2.59
452.483	2.63
452.689	2.59
452.894	2.61
453.1	2.54
453.305	2.58
453.51	2.69
453.716	2.69
453.921	2.69
454.127	2.68
454.332	2.65
454.537	2.75
454.742	2.74
454.948	2.69
455.153	2.63
455.358	2.67
455.563	2.67
455.769	2.69
455.974	2.63
456.179	2.59
456.384	2.66
456.589	2.72
456.795	2.7
457	2.71
457.205	2.67
457.41	2.68
457.615	2.74
457.82	2.75
458.025	2.7
458.23	2.71
458.435	2.67
458.64	2.76
458.845	2.75
459.05	2.74
459.255	2.69
459.46	2.69
459.665	2.7
459.87	2.75
460.075	2.66
460.28	2.69
460.485	2.71
460.69	2.69
460.895	2.72
461.099	2.74
461.304	2.73
461.509	2.72
461.714	2.75
461.919	2.71
462.123	2.78
462.328	2.75
462.533	2.77
462.738	2.77
462.942	2.87
463.147	2.86
463.352	2.89
463.556	2.87
463.761	2.88
463.966	2.88
464.17	2.9
464.375	2.84
464.58	2.79
464.784	2.79
464.989	2.79
465.193	2.83
465.398	2.86
465.602	2.84
465.807	2.86
466.011	2.99
466.216	2.98
466.42	3.01
466.625	3.07
466.829	3.1
467.034	3.18
467.238	3.21
467.443	3.14
467.647	3.17
467.851	3.14
468.056	3.09
468.26	3.03
468.464	2.97
468.669	2.98
468.873	3.01
469.077	3.03
469.282	3.08
469.486	3.11
469.69	3.18
