Data from Ofra_PS_T2_1A_0CX05_Reflection_3.txt Node
Date: Wed Jul 21 17:43:55 EDT 2021
User: Adam
Spectrometer: FLMT01687
Trigger mode: 0
Integration Time (sec): 1.100000E0
Scans to average: 2
Electric dark correction enabled: true
Nonlinearity correction enabled: false
Boxcar width: 2
XAxis mode: Wavelengths
Number of Pixels in Spectrum: 3648
>>>>>Begin Spectral Data<<<<<
179.494	558.8
179.716	632
179.937	596.47
180.158	592.62
180.38	947.19
180.601	320.17
180.823	74.55
181.044	11.61
181.265	90.81
181.486	45.98
181.708	111.66
181.929	1207.14
182.15	-347.18
182.372	96.11
182.593	43.73
182.814	59.29
183.035	123.04
183.257	103.12
183.478	79.68
183.699	114.1
183.92	35.2
184.141	53.49
184.363	3.58
184.584	49.04
184.805	40.61
185.026	87.43
185.247	69.17
185.468	59.16
185.689	45.29
185.91	54.59
186.132	51.52
186.353	39.16
186.574	109.59
186.795	101.59
187.016	63.65
187.237	38.36
187.458	82.16
187.679	48.22
187.9	22.97
188.121	1.07
188.342	44.12
188.563	54.57
188.784	69.73
189.005	101.92
189.226	193.85
189.447	148.48
189.667	135.19
189.888	-112.56
190.109	-1099.35
190.33	-712.58
190.551	-1168.58
190.772	-219.49
190.993	-174.11
191.214	-72.16
191.434	-69.13
191.655	1.78
191.876	-59.77
192.097	-104.98
192.318	-148.87
192.538	-215.69
192.759	-179.21
192.98	-62.55
193.201	-23.87
193.421	-23.28
193.642	12.95
193.863	31.74
194.083	2.5
194.304	1.91
194.525	-0.85
194.745	4.5
194.966	-25
195.187	-37.34
195.407	-88.94
195.628	-135.23
195.848	-171.17
196.069	-146.24
196.29	-77.28
196.51	-43.77
196.731	-37.63
196.951	-49.03
197.172	-66.81
197.392	-127.22
197.613	-137.22
197.833	-154.1
198.054	-113.51
198.274	-78.33
198.495	-77.18
198.715	-46.98
198.936	-54.09
199.156	-46.75
199.377	-138.5
199.597	-114.08
199.817	-105.01
200.038	-53.94
200.258	-99.4
200.479	-18.97
200.699	-21.82
200.919	14.24
201.14	-21.54
201.36	-51.15
201.58	5.75
201.801	35.65
202.021	-7.25
202.241	-0.84
202.461	3.44
202.682	-90.59
202.902	-182.38
203.122	-103.29
203.342	-91.73
203.563	-36.56
203.783	0.79
204.003	-13.96
204.223	-16.36
204.443	44.67
204.663	18.21
204.884	23.52
205.104	76.93
205.324	104.16
205.544	79.46
205.764	98.48
205.984	95.81
206.204	81.92
206.424	58.68
206.644	37.42
206.864	32.44
207.084	19.51
207.304	49
207.525	56.09
207.745	37.05
207.964	18.48
208.184	-54
208.404	-122.03
208.624	-109.7
208.844	-81.67
209.064	-325
209.284	-318.78
209.504	-110.98
209.724	-11.43
209.944	-12.76
210.164	32.81
210.384	45.49
210.604	35.33
210.823	-2.92
211.043	-31.97
211.263	-41.19
211.483	-52.32
211.703	-113.47
211.922	-84.74
212.142	1.59
212.362	28.89
212.582	23.02
212.801	34.84
213.021	4.24
213.241	-23.8
213.461	-56.56
213.68	-76.47
213.9	-50.64
214.12	-40.95
214.339	-112.87
214.559	-95.43
214.779	-33.84
214.998	-22.25
215.218	-44.9
215.438	9.99
215.657	9.1
215.877	10.58
216.096	21.79
216.316	24.39
216.535	-1.68
216.755	-23.46
216.974	-128.52
217.194	-203.77
217.413	-174.03
217.633	-147.01
217.852	-192.99
218.072	-70.06
218.291	-8.45
218.511	37.47
218.73	-7.47
218.95	-18.32
219.169	-38.48
219.389	-99.9
219.608	-92.48
219.827	-67.1
220.047	-56.85
220.266	-27.82
220.485	-7.73
220.705	20.11
220.924	-2.74
221.143	26.03
221.363	8.99
221.582	19.54
221.801	21.9
222.021	32.76
222.24	5.8
222.459	66.52
222.678	34.93
222.897	-42.8
223.117	-94.63
223.336	-74.6
223.555	-55.68
223.774	-7.54
223.993	7.48
224.213	99.4
224.432	70.93
224.651	88.31
224.87	42
225.089	42.95
225.308	22.75
225.527	45.61
225.746	35.05
225.965	33.07
226.184	29.15
226.404	33.15
226.623	10.11
226.842	17.89
227.061	45.9
227.28	44.1
227.499	36.91
227.718	51.18
227.936	53.97
228.155	55.74
228.374	42.35
228.593	37.73
228.812	27.65
229.031	-8.39
229.25	-57.87
229.469	-40.51
229.688	-15.08
229.907	11.61
230.125	49.54
230.344	54.72
230.563	40.89
230.782	43.22
231.001	-32.19
231.22	-42.26
231.438	-3.82
231.657	9.37
231.876	-5.75
232.095	35.3
232.313	50.28
232.532	29.67
232.751	-5.32
232.969	5.01
233.188	2.92
233.407	17.03
233.625	12.42
233.844	12.37
234.063	9.02
234.281	7.06
234.5	-1.85
234.719	1.1
234.937	17.25
235.156	19.81
235.374	29.04
235.593	7.35
235.811	6.95
236.03	-7.32
236.249	-40.1
236.467	-47.05
236.686	-1.88
236.904	13.57
237.123	-0.19
237.341	2.32
237.559	1.71
237.778	-5.76
237.996	-44.5
238.215	-13.97
238.433	-6.04
238.652	0.8
238.87	-33.97
239.088	-0.39
239.307	9.84
239.525	13.14
239.743	-21.09
239.962	7.2
240.18	-42.41
240.398	-70.55
240.617	-73.82
240.835	-38.28
241.053	-3.77
241.271	83.17
241.49	50.22
241.708	31.04
241.926	19.96
242.144	32.51
242.363	-64.01
242.581	-55.98
242.799	-18.44
243.017	15.01
243.235	-31.22
243.453	-4.98
243.672	-10.23
243.89	-8.87
244.108	-31.94
244.326	-7.77
244.544	-0.39
244.762	-10.58
244.98	1.25
245.198	20.1
245.416	-0.26
245.634	-5.04
245.852	0.68
246.07	-4.52
246.288	-9.54
246.506	-24.45
246.724	-21.41
246.942	-2.43
247.16	19.85
247.378	29.1
247.596	47.29
247.814	56.17
248.032	14.96
248.25	2.89
248.468	8.57
248.685	17.31
248.903	43.16
249.121	61.23
249.339	31.71
249.557	10.93
249.775	15.27
249.992	-66.61
250.21	-67.4
250.428	-40.7
250.646	-72.98
250.863	-106.45
251.081	-59.62
251.299	-62.24
251.517	-58.81
251.734	-37.6
251.952	-33.11
252.17	-32.21
252.387	-8.78
252.605	-16.72
252.823	-0.17
253.04	19.6
253.258	46.69
253.475	42.88
253.693	62.96
253.911	52.22
254.128	49.45
254.346	55.07
254.563	21.08
254.781	-3.37
254.998	-26.47
255.216	-19.17
255.433	-23.75
255.651	46.37
255.868	67.07
256.086	106.96
256.303	84.85
256.521	65.28
256.738	17.83
256.956	-5.88
257.173	-43.05
257.39	-59.56
257.608	-105.3
257.825	-36.88
258.043	-12.28
258.26	-6.02
258.477	46.05
258.695	64.53
258.912	18.64
259.129	26.69
259.346	6.32
259.564	-39.59
259.781	-84.28
259.998	-25.44
260.216	-5.78
260.433	35.32
260.65	39.38
260.867	73.17
261.084	51.38
261.302	25.49
261.519	4.99
261.736	-29.45
261.953	-72.25
262.17	-29.28
262.387	-46.22
262.604	-67.28
262.822	-67.34
263.039	-20.42
263.256	-62.38
263.473	-12.07
263.69	-9.73
263.907	18.66
264.124	36.23
264.341	46.26
264.558	24.04
264.775	46.81
264.992	53.66
265.209	33.1
265.426	55.49
265.643	50.96
265.86	55.77
266.077	57.97
266.294	35.63
266.51	-18.29
266.727	-17.93
266.944	-17.91
267.161	-27.95
267.378	-4.21
267.595	18.42
267.812	-11.2
268.028	-21.15
268.245	12.89
268.462	-14.21
268.679	-24.41
268.896	42.14
269.112	29.94
269.329	10.49
269.546	6.94
269.763	2.94
269.979	-34.52
270.196	-27.81
270.413	-50.85
270.629	-63.16
270.846	-66.88
271.063	-44.53
271.279	-48.95
271.496	-26.12
271.712	16.1
271.929	32.83
272.146	-3.5
272.362	1.05
272.579	19.68
272.795	18.03
273.012	27.04
273.228	49.55
273.445	37.17
273.661	7.23
273.878	-63.64
274.094	-58.87
274.311	-98.87
274.527	-39.75
274.744	-28.57
274.96	-3.02
275.177	-1.35
275.393	27.4
275.609	35.75
275.826	55.24
276.042	41.6
276.259	37.84
276.475	49.36
276.691	43.63
276.908	9.98
277.124	42.61
277.34	53.01
277.557	34.28
277.773	14.2
277.989	21.74
278.205	-9.74
278.422	15.06
278.638	21.21
278.854	50.34
279.07	46
279.286	45.84
279.503	-21.31
279.719	-34.15
279.935	-62.39
280.151	-67.58
280.367	-12.18
280.583	1.15
280.799	-8.38
281.016	-33.04
281.232	-0.34
281.448	-20.26
281.664	5.13
281.88	-11.24
282.096	14.09
282.312	39.04
282.528	58.38
282.744	56.71
282.96	60.3
283.176	49.92
283.392	33.06
283.608	27.31
283.824	11.6
284.04	18
284.256	18.87
284.471	15.74
284.687	-3.08
284.903	30.1
285.119	47.71
285.335	23.36
285.551	22.92
285.767	20.8
285.982	3.21
286.198	-42.41
286.414	14.72
286.63	25.44
286.846	42.09
287.061	7.03
287.277	49.59
287.493	15.28
287.709	20.97
287.924	-4.37
288.14	44.68
288.356	41.44
288.571	69.14
288.787	45.31
289.003	56.9
289.218	35.2
289.434	-14.92
289.65	-26.27
289.865	-23.47
290.081	-6.22
290.296	3.4
290.512	6.26
290.727	-19.54
290.943	-26.47
291.159	-40.48
291.374	-29.68
291.59	-51.89
291.805	-35.23
292.021	-24.01
292.236	-16.02
292.451	-16.68
292.667	-0.73
292.882	11.76
293.098	-7.54
293.313	-38.12
293.529	-52.53
293.744	-48.43
293.959	-54.78
294.175	-38.13
294.39	9.96
294.605	26.8
294.821	51.16
295.036	60.68
295.251	72.59
295.467	22.47
295.682	8.88
295.897	-56.48
296.112	-67.71
296.328	-68.07
296.543	-65.33
296.758	-68.24
296.973	-15.47
297.188	19.74
297.404	-7.03
297.619	-10.24
297.834	-20.26
298.049	-37.64
298.264	-63.08
298.479	1.93
298.694	12.02
298.909	33.07
299.125	34.03
299.34	39.46
299.555	-1.96
299.77	7.52
299.985	-38.56
300.2	-88.43
300.415	-105
300.63	-50.91
300.845	-61.37
301.06	-38.58
301.275	8.23
301.49	36.46
301.704	9.22
301.919	-12.21
302.134	-34.62
302.349	-39.77
302.564	-114.31
302.779	-153.73
302.994	-111.52
303.209	-50.31
303.423	-26.29
303.638	40.04
303.853	18.67
304.068	3.86
304.283	2.29
304.497	-10.36
304.712	-36.32
304.927	-19.39
305.142	-21.63
305.356	-21.09
305.571	-13.63
305.786	-22.96
306	-38.82
306.215	-18.68
306.43	-33.32
306.644	-19
306.859	32.5
307.074	39.5
307.288	2.39
307.503	-2.09
307.717	-22.82
307.932	-21.32
308.147	-28.42
308.361	-8.88
308.576	-19.18
308.79	-52.99
309.005	-60.29
309.219	-43.21
309.434	-48.07
309.648	-37.19
309.863	-12.45
310.077	0.5
310.292	4.66
310.506	7.23
310.72	16.85
310.935	31.93
311.149	24
311.364	31.77
311.578	34.37
311.792	27.89
312.007	22.72
312.221	1.68
312.435	4.83
312.649	-4.92
312.864	-19.44
313.078	25.26
313.292	87.12
313.507	53.7
313.721	90.3
313.935	76.88
314.149	32.75
314.363	27.1
314.578	27.73
314.792	28.88
315.006	11.35
315.22	26.52
315.434	23.14
315.648	37.88
315.862	32.75
316.077	35.58
316.291	16.92
316.505	35.1
316.719	26.6
316.933	-0.32
317.147	6.75
317.361	-35.41
317.575	-59.6
317.789	-111.64
318.003	-168.98
318.217	-134.31
318.431	-46.68
318.645	8.11
318.859	13.74
319.073	56.62
319.287	44.41
319.5	19.98
319.714	-37.03
319.928	-47
320.142	-82.46
320.356	-30.47
320.57	19.97
320.784	33.21
320.997	39.44
321.211	39.5
321.425	-21.15
321.639	-59.68
321.853	8.95
322.066	9.42
322.28	-7.08
322.494	7.57
322.707	22.95
322.921	-5.44
323.135	-1.91
323.349	22.52
323.562	-8.43
323.776	-16.14
323.989	-23.64
324.203	-44.02
324.417	-43.88
324.63	-53.31
324.844	-61.07
325.057	-56.98
325.271	-25.24
325.485	-5.18
325.698	28.5
325.912	40.45
326.125	12.4
326.339	16.32
326.552	-19.89
326.766	-21.73
326.979	-1
327.193	49.85
327.406	29.57
327.619	26.04
327.833	38.75
328.046	3.99
328.26	-35.66
328.473	-4.02
328.686	-34.33
328.9	-34.34
329.113	-2.64
329.326	-22.14
329.54	-28.89
329.753	-20.25
329.966	-63.3
330.179	-53.35
330.393	-14.47
330.606	-15.44
330.819	8.77
331.032	37.04
331.246	28.58
331.459	53.44
331.672	51.93
331.885	49.45
332.098	21.11
332.311	20.7
332.525	-26.6
332.738	-13.13
332.951	-5.49
333.164	28.58
333.377	38.09
333.59	44.13
333.803	44.09
334.016	37.1
334.229	29.44
334.442	33.58
334.655	53.42
334.868	54.83
335.081	35.35
335.294	27.57
335.507	16.38
335.72	0.87
335.933	-8.05
336.146	0.73
336.359	-6.24
336.572	-34.81
336.785	-53.63
336.997	-39.58
337.21	-14.51
337.423	-24.08
337.636	-3.72
337.849	13
338.062	6.58
338.274	14.69
338.487	10.29
338.7	5.6
338.913	-26.9
339.125	-54.17
339.338	-119
339.551	-70.45
339.763	-38.84
339.976	5.73
340.189	20.74
340.402	41.74
340.614	16.22
340.827	5.89
341.039	-16.8
341.252	-22.33
341.465	-22.14
341.677	-26.25
341.89	-55
342.102	-37.03
342.315	-39.68
342.527	-56.45
342.74	-45.78
342.952	-20.32
343.165	-19.97
343.377	-7.16
343.59	-16.32
343.802	0.66
344.015	4.58
344.227	11.45
344.44	10.34
344.652	9.62
344.864	-9.83
345.077	13.22
345.289	22.91
345.502	27.39
345.714	31.75
345.926	46.75
346.139	33.19
346.351	36.79
346.563	38.16
346.775	34.74
346.988	21.7
347.2	15.78
347.412	-37.37
347.624	-43.62
347.837	-55.48
348.049	-37.84
348.261	4.89
348.473	18.98
348.685	4.6
348.897	-3.87
349.11	-32.58
349.322	-78.44
349.534	-62.24
349.746	-55.22
349.958	-12.71
350.17	3.39
350.382	25.59
350.594	17.83
350.806	16.15
351.018	-0.54
351.23	0.57
351.442	-53.72
351.654	-86.68
351.866	-66.51
352.078	-50.08
352.29	-35.29
352.502	-9.54
352.714	26.37
352.926	15.77
353.138	12.28
353.35	2.41
353.561	4.6
353.773	-20.3
353.985	-1.79
354.197	-13.09
354.409	-24.79
354.621	-19.34
354.832	-16.9
355.044	-33.46
355.256	-27.21
355.468	-0.51
355.679	-9.89
355.891	8.81
356.103	-0.34
356.314	11.18
356.526	9.58
356.738	27.42
356.949	6.25
357.161	19.7
357.373	11.73
357.584	-0.34
357.796	-12.05
358.008	-8.92
358.219	7.55
358.431	8.2
358.642	21.33
358.854	19.7
359.065	5.2
359.277	-22.87
359.488	-39.58
359.7	-72.79
359.911	-74.28
360.123	-49.2
360.334	-64.44
360.546	-61.41
360.757	-57.77
360.969	-36.33
361.18	-24.04
361.391	7.1
361.603	-15.66
361.814	-6.09
362.025	-14.79
362.237	-25.43
362.448	-20.72
362.659	4.72
362.871	-0.16
363.082	-8.15
363.293	-5.39
363.504	-24.24
363.716	-52.7
363.927	-44.2
364.138	-55.42
364.349	-63.86
364.56	-44.65
364.772	-33.79
364.983	-7.62
365.194	-4.21
365.405	10.98
365.616	23.63
365.827	29.84
366.038	2.95
366.25	3.71
366.461	-35.77
366.672	-17.1
366.883	-9.16
367.094	-6.63
367.305	-15.5
367.516	9.59
367.727	-21.51
367.938	-33.47
368.149	-26.99
368.36	-5.11
368.571	-9.64
368.781	-18.2
368.992	-28.85
369.203	-45.79
369.414	-74.85
369.625	-85.74
369.836	-75.38
370.047	-98.78
370.258	-85.67
370.468	-80.12
370.679	-97.11
370.89	-85.7
371.101	-59.39
371.312	-57.76
371.522	-49.04
371.733	-28.12
371.944	-12.75
372.155	1.18
372.365	-0.41
372.576	0.9
372.787	-2.05
372.997	-27.4
373.208	-30.33
373.419	0.4
373.629	-29.89
373.84	-34.98
374.05	-39.2
374.261	-19.97
374.472	-45.81
374.682	9.66
374.893	6.94
375.103	46.38
375.314	33.25
375.524	34.6
375.735	29.17
375.945	39.93
376.156	-0.26
376.366	-1.05
376.577	-2.3
376.787	-21.28
376.997	-18.02
377.208	-4.76
377.418	-11.47
377.629	-5.81
377.839	1.96
378.049	1.11
378.26	11.65
378.47	19.18
378.68	10.99
378.89	15.34
379.101	6.69
379.311	-18.91
379.521	-41.73
379.732	-33.8
379.942	-38.86
380.152	-52.68
380.362	-23.47
380.572	-23.69
380.783	-8.44
380.993	-8.65
381.203	15.79
381.413	24.02
381.623	26.02
381.833	20.16
382.043	6.14
382.253	-16.19
382.463	-16.36
382.674	-14.98
382.884	-32
383.094	-16.61
383.304	-8.92
383.514	-2.78
383.724	7.19
383.934	1.79
384.144	-10.54
384.353	-15.31
384.563	-16.49
384.773	-13.14
384.983	-18.42
385.193	6.04
385.403	6.21
385.613	0.82
385.823	-15.41
386.033	-9
386.242	-24.38
386.452	-24.11
386.662	-31.44
386.872	-15.92
387.082	-15.31
387.291	-18.66
387.501	-17.33
387.711	-8.79
387.921	-26.59
388.13	-24.42
388.34	-7.46
388.55	-12.77
388.759	-9.7
388.969	7.84
389.179	6.52
389.388	0.6
389.598	6.31
389.807	-3.48
390.017	-11.68
390.227	-11.86
390.436	-13.61
390.646	-13.37
390.855	-6.39
391.065	-6.7
391.274	-7.89
391.484	-10.08
391.693	-7.97
391.903	-8.39
392.112	-4.08
392.322	-0.21
392.531	7.3
392.74	9.45
392.95	5.74
393.159	4.7
393.369	3.02
393.578	0.54
393.787	-2.65
393.997	-1.09
394.206	-3.54
394.415	-1.95
394.625	-2.25
394.834	-3.65
395.043	-2.57
395.252	-0.28
395.462	2.04
395.671	3.05
395.88	3.91
396.089	4.55
396.298	3.29
396.508	2.14
396.717	1.02
396.926	2.5
397.135	1.69
397.344	1.6
397.553	1.8
397.762	2.92
397.971	2.4
398.181	3.02
398.39	2.35
398.599	1.5
398.808	1.24
399.017	2.36
399.226	3.3
399.435	5.04
399.644	5.55
399.853	4.99
400.062	3.97
400.27	3.28
400.479	2.32
400.688	1.63
400.897	1.95
401.106	2.34
401.315	2.05
401.524	2.15
401.733	2.9
401.941	3.01
402.15	2.78
402.359	2.63
402.568	3.14
402.777	3.06
402.985	2.86
403.194	2.94
403.403	3.15
403.612	2.55
403.82	2.35
404.029	2.52
404.238	2.31
404.446	2.6
404.655	2.56
404.864	2.32
405.072	2.12
405.281	2.45
405.489	1.99
405.698	2.06
405.906	2.28
406.115	2.35
406.324	2.14
406.532	2.38
406.741	2.59
406.949	2.55
407.158	2.43
407.366	2.52
407.574	2.56
407.783	2.49
407.991	2.34
408.2	2.63
408.408	2.55
408.617	2.39
408.825	2.23
409.033	2.31
409.242	2.29
409.45	2.34
409.658	2.34
409.867	2.71
410.075	2.56
410.283	2.36
410.491	2.26
410.7	2.17
410.908	1.95
411.116	2.37
411.324	2.37
411.533	2.35
411.741	2.65
411.949	2.65
412.157	2.25
412.365	2.33
412.573	2.38
412.781	2.28
412.99	2.13
413.198	2.42
413.406	2.47
413.614	2.46
413.822	2.33
414.03	2.25
414.238	2.03
414.446	2.11
414.654	1.86
414.862	1.98
415.07	2.12
415.278	2.31
415.486	2.01
415.694	2.3
415.902	2.12
416.109	2.08
416.317	2
416.525	1.92
416.733	1.84
416.941	1.99
417.149	1.89
417.357	1.92
417.564	2.19
417.772	2.36
417.98	2.28
418.188	2.31
418.395	2.37
418.603	2.41
418.811	2.07
419.019	1.95
419.226	2.22
419.434	2.23
419.642	2
419.849	2.24
420.057	2.42
420.265	2.38
420.472	2.13
420.68	2.16
420.887	1.91
421.095	1.89
421.302	1.83
421.51	2.14
421.717	2.27
421.925	2.41
422.132	2.24
422.34	1.94
422.547	1.83
422.755	1.68
422.962	1.59
423.17	1.58
423.377	1.76
423.585	1.75
423.792	1.66
423.999	1.77
424.207	1.78
424.414	1.95
424.621	1.93
424.829	2.04
425.036	1.95
425.243	2.13
425.451	1.88
425.658	1.69
425.865	1.85
426.072	1.84
426.28	1.99
426.487	1.94
426.694	2.14
426.901	1.88
427.108	1.9
427.315	1.61
427.523	1.99
427.73	1.89
427.937	1.95
428.144	1.82
428.351	1.91
428.558	2.02
428.765	1.92
428.972	1.87
429.179	2.09
429.386	2.24
429.593	1.79
429.8	1.74
430.007	1.8
430.214	1.78
430.421	1.53
430.628	1.53
430.835	1.4
431.042	1.62
431.249	1.71
431.456	1.74
431.662	1.88
431.869	2.16
432.076	2.09
432.283	2.14
432.49	2.23
432.697	2.25
432.903	2.05
433.11	1.94
433.317	1.95
433.524	2.17
433.73	2.05
433.937	2.24
434.144	2.18
434.35	2.12
434.557	1.77
434.764	1.87
434.97	1.72
435.177	1.95
435.384	1.84
435.59	1.98
435.797	2.1
436.003	2.29
436.21	2.16
436.416	2.25
436.623	2.24
436.829	2.27
437.036	2.33
437.242	2.36
437.449	2.25
437.655	2.29
437.862	2.28
438.068	2.13
438.275	2.21
438.481	2.55
438.687	2.48
438.894	2.36
439.1	2.45
439.307	2.63
439.513	2.44
439.719	2.5
439.926	2.67
440.132	2.61
440.338	2.34
440.544	2.5
440.751	2.46
440.957	2.46
441.163	2.37
441.369	2.46
441.575	2.17
441.782	2.04
441.988	1.86
442.194	1.95
442.4	1.95
442.606	2.35
442.812	2.51
443.018	2.7
443.224	2.76
443.431	2.87
443.637	2.55
443.843	2.44
444.049	2.41
444.255	2.3
444.461	2.18
444.667	2.12
444.873	2.33
445.079	2.31
445.284	2.39
445.49	2.25
445.696	2.16
445.902	1.94
446.108	1.86
446.314	1.85
446.52	1.95
446.726	2.25
446.931	2.35
447.137	2.39
447.343	2.42
447.549	2.32
447.755	2.2
447.96	2.22
448.166	2.13
448.372	2.01
448.578	2.15
448.783	2.11
448.989	2.17
449.195	2.36
449.4	2.44
449.606	2.41
449.812	2.32
450.017	2.35
450.223	2.19
450.428	2.08
450.634	2.23
450.84	2.43
451.045	2.25
451.251	2.23
451.456	2.55
451.662	2.64
451.867	2.63
452.073	2.73
452.278	2.88
452.483	2.94
452.689	2.7
452.894	2.81
453.1	2.8
453.305	2.73
453.51	2.54
453.716	2.54
453.921	2.49
454.127	2.45
454.332	2.35
454.537	2.28
454.742	2.34
454.948	2.29
455.153	2.32
455.358	2.42
455.563	2.68
455.769	2.75
455.974	2.7
456.179	2.54
456.384	2.51
456.589	2.35
456.795	2.08
457	2.08
457.205	2.36
457.41	2.3
457.615	2.24
457.82	2.36
458.025	2.37
458.23	2.16
458.435	2.24
458.64	2.12
458.845	2.25
459.05	2.24
459.255	2.36
459.46	2.35
459.665	2.42
459.87	2.47
460.075	2.56
460.28	2.53
460.485	2.73
460.69	2.85
460.895	2.61
461.099	2.47
461.304	2.63
461.509	2.55
461.714	2.42
461.919	2.63
462.123	2.56
462.328	2.67
462.533	2.51
462.738	2.64
462.942	2.51
