Data from Ofra_PS_T2_1A_2GT38_Reflection_2.txt Node
Date: Wed Jul 21 17:56:19 EDT 2021
User: Adam
Spectrometer: FLMT01687
Trigger mode: 0
Integration Time (sec): 1.100000E0
Scans to average: 2
Electric dark correction enabled: true
Nonlinearity correction enabled: false
Boxcar width: 2
XAxis mode: Wavelengths
Number of Pixels in Spectrum: 3648
>>>>>Begin Spectral Data<<<<<
179.494	609.4
179.716	667.53
179.937	629.39
180.158	619.94
180.38	874.84
180.601	357.32
180.823	94.82
181.044	-101.54
181.265	-20.77
181.486	100.2
181.708	107.1
181.929	744.39
182.15	-530.63
182.372	75.42
182.593	61.06
182.814	41.52
183.035	103.52
183.257	94.23
183.478	8.56
183.699	51.6
183.92	52.43
184.141	35.09
184.363	-34.11
184.584	25.48
184.805	8.44
185.026	40.97
185.247	32.9
185.468	20.52
185.689	20.22
185.91	40.34
186.132	24.66
186.353	24.3
186.574	93.44
186.795	68.13
187.016	12.81
187.237	-14.18
187.458	-52.75
187.679	-67.31
187.9	-48.48
188.121	-36.03
188.342	-28.61
188.563	36.99
188.784	47.66
189.005	31.79
189.226	73.16
189.447	68.25
189.667	-213.47
189.888	-448.65
190.109	-1213.96
190.33	-765.65
190.551	-1321.02
190.772	-278.63
190.993	-224.52
191.214	-238.16
191.434	-137
191.655	-39.6
191.876	-81.84
192.097	-112.54
192.318	-135.6
192.538	-234.53
192.759	-216.97
192.98	-117.51
193.201	-56.31
193.421	-48.04
193.642	4.85
193.863	23.45
194.083	3.79
194.304	-3.03
194.525	7.41
194.745	-31.07
194.966	-56.39
195.187	-42.94
195.407	-66.6
195.628	-119.46
195.848	-123.88
196.069	-125.96
196.29	-87.5
196.51	-96.64
196.731	-76.23
196.951	-81.33
197.172	-87.5
197.392	-126.64
197.613	-134.35
197.833	-171.85
198.054	-141.86
198.274	-90.4
198.495	-94.61
198.715	-45.02
198.936	-42.9
199.156	-21.77
199.377	-103.76
199.597	-108.8
199.817	-106.19
200.038	-58.91
200.258	-123.81
200.479	-41.66
200.699	-42.71
200.919	-24.58
201.14	-49.05
201.36	-63.38
201.58	-14.27
201.801	21.79
202.021	-15.68
202.241	-17.76
202.461	-17.46
202.682	-119.14
202.902	-194.91
203.122	-115.98
203.342	-101.18
203.563	-19.11
203.783	21.46
204.003	7.99
204.223	4.29
204.443	61.49
204.663	-5.08
204.884	-7.37
205.104	43.26
205.324	81.61
205.544	57.15
205.764	63.55
205.984	66.38
206.204	40.69
206.424	24.88
206.644	-15.14
206.864	12.52
207.084	-26.97
207.304	21.24
207.525	-56.8
207.745	-27.91
207.964	-24.69
208.184	-66.29
208.404	-107.27
208.624	-124.16
208.844	-111.13
209.064	-377.13
209.284	-403.04
209.504	-214.77
209.724	-57.07
209.944	-44.06
210.164	-11.81
210.384	7.57
210.604	8.5
210.823	-22.36
211.043	-30.55
211.263	-21.57
211.483	-10.9
211.703	-69.18
211.922	-49.66
212.142	-9.91
212.362	-15.55
212.582	-42.21
212.801	-16.02
213.021	-29.42
213.241	-24.98
213.461	-57.41
213.68	-63.76
213.9	-51.3
214.12	-36.69
214.339	-112.42
214.559	-75.3
214.779	-30.37
214.998	-38.05
215.218	-91.66
215.438	-42.29
215.657	-80.85
215.877	-74.25
216.096	-28.34
216.316	-6.61
216.535	-13.26
216.755	9.87
216.974	-66.87
217.194	-99.96
217.413	-112.73
217.633	-98.34
217.852	-234.69
218.072	-93.12
218.291	-49.49
218.511	-11.52
218.73	-48.78
218.95	-26.66
219.169	-38.71
219.389	-83.88
219.608	-63.29
219.827	-61.74
220.047	-43.83
220.266	-35.67
220.485	-35.84
220.705	-26.41
220.924	-32.82
221.143	1.03
221.363	-10.45
221.582	-6.74
221.801	-5.97
222.021	18.26
222.24	-81.53
222.459	-32.83
222.678	-38.81
222.897	-89.52
223.117	-132.67
223.336	-71.95
223.555	-44.71
223.774	-1.28
223.993	8.51
224.213	57.06
224.432	49.27
224.651	57.15
224.87	21.64
225.089	27.92
225.308	19.87
225.527	25.04
225.746	11.52
225.965	13.13
226.184	-0.39
226.404	9.89
226.623	-12.55
226.842	-7.7
227.061	30.63
227.28	31.24
227.499	11.34
227.718	28.1
227.936	18.01
228.155	8.14
228.374	-15.64
228.593	14.97
228.812	9.03
229.031	18.68
229.25	-43.28
229.469	-29.83
229.688	-13.4
229.907	29.34
230.125	27.54
230.344	36.38
230.563	55.54
230.782	41.49
231.001	-42.23
231.22	-47.03
231.438	-25.48
231.657	-45.82
231.876	-56.8
232.095	6.66
232.313	11.24
232.532	4.88
232.751	7.26
232.969	12.34
233.188	-23.83
233.407	42.01
233.625	25.68
233.844	-9.13
234.063	-22.3
234.281	-17.84
234.5	-43.9
234.719	-35.86
234.937	-1.31
235.156	12.39
235.374	7.47
235.593	-7.09
235.811	-22.33
236.03	-17.96
236.249	-67.36
236.467	-40.5
236.686	7.64
236.904	19.68
237.123	-17.78
237.341	-11.07
237.559	-8.49
237.778	-41.45
237.996	-67.2
238.215	-6.22
238.433	-1.56
238.652	1.13
238.87	-20.99
239.088	9.32
239.307	-6.07
239.525	-4.53
239.743	-50.71
239.962	-21.62
240.18	-89.02
240.398	-145.24
240.617	-134.29
240.835	-95.01
241.053	-60.51
241.271	-0.18
241.49	49.47
241.708	32.15
241.926	15.18
242.144	-15.25
242.363	-59.54
242.581	-99.63
242.799	-65.08
243.017	-23.78
243.235	-41.37
243.453	-25.79
243.672	-23.31
243.89	-16.56
244.108	-27.52
244.326	5.55
244.544	13.96
244.762	13.36
244.98	26.6
245.198	33.1
245.416	8.86
245.634	-18.26
245.852	-19.82
246.07	-21.92
246.288	-36.3
246.506	-90.28
246.724	-49.6
246.942	-60.65
247.16	-26.2
247.378	1.87
247.596	39.7
247.814	38.23
248.032	29.42
248.25	18.8
248.468	-0.96
248.685	-6.39
248.903	24.84
249.121	26.41
249.339	-11.37
249.557	-18.06
249.775	2.13
249.992	-67.78
250.21	-62.97
250.428	-28.86
250.646	-64.02
250.863	-98.29
251.081	-55.19
251.299	-49.54
251.517	-25.75
251.734	10.4
251.952	4.36
252.17	-1.93
252.387	10.52
252.605	-13.36
252.823	-9.99
253.04	17.29
253.258	32.37
253.475	21
253.693	57.41
253.911	64.59
254.128	68.68
254.346	81.5
254.563	49.1
254.781	25.1
254.998	-7.97
255.216	-29.76
255.433	-29.78
255.651	18.85
255.868	45.15
256.086	53.59
256.303	38.98
256.521	14.63
256.738	-0.94
256.956	-38.06
257.173	-58.08
257.39	-72.81
257.608	-97.39
257.825	-55.63
258.043	-7.34
258.26	1.94
258.477	47.1
258.695	42.99
258.912	-10.28
259.129	-6.74
259.346	-38.43
259.564	-81.18
259.781	-88.73
259.998	-15.15
260.216	4.69
260.433	51.22
260.65	47.34
260.867	70.64
261.084	35.78
261.302	9.72
261.519	-14.72
261.736	-35.24
261.953	-60.51
262.17	-14.64
262.387	-48.73
262.604	-68.17
262.822	-71.94
263.039	-66.44
263.256	-119.81
263.473	-64.47
263.69	-51.91
263.907	-5.19
264.124	8.96
264.341	0.43
264.558	-6.33
264.775	4.82
264.992	-3.37
265.209	-2.63
265.426	33.61
265.643	32.67
265.86	52.9
266.077	47.13
266.294	26.44
266.51	-27.78
266.727	-43.9
266.944	-50.89
267.161	-42.92
267.378	-26.08
267.595	7.9
267.812	-9.81
268.028	-27.46
268.245	-32.48
268.462	-57.04
268.679	-84.37
268.896	-14.96
269.112	-13.79
269.329	-16.95
269.546	-1.33
269.763	8.95
269.979	-11.98
270.196	-12.37
270.413	-47
270.629	-63.25
270.846	-81.12
271.063	-79.89
271.279	-78.12
271.496	-51.66
271.712	-20.75
271.929	4.76
272.146	1.97
272.362	-3.98
272.579	29.8
272.795	32.62
273.012	43.19
273.228	46.51
273.445	11.87
273.661	-15.88
273.878	-69.56
274.094	-81.23
274.311	-105.27
274.527	-4.74
274.744	-4.11
274.96	-2.7
275.177	2.71
275.393	1.6
275.609	-24.33
275.826	7.85
276.042	20.12
276.259	19.31
276.475	60.16
276.691	54.87
276.908	15.23
277.124	17.27
277.34	6.9
277.557	-44.33
277.773	-44.82
277.989	-47.85
278.205	-52.26
278.422	-13.38
278.638	-0.67
278.854	18.06
279.07	33.44
279.286	27.37
279.503	-24.87
279.719	-32.2
279.935	-56.93
280.151	-69.39
280.367	-39.48
280.583	-43.51
280.799	-37.61
281.016	-45.98
281.232	-19.41
281.448	-14.09
281.664	11.59
281.88	0.34
282.096	0.9
282.312	32.62
282.528	36.34
282.744	44.99
282.96	38.57
283.176	33.59
283.392	19.13
283.608	10.39
283.824	6.28
284.04	17.2
284.256	28.86
284.471	17.16
284.687	15.5
284.903	27.94
285.119	36.19
285.335	8.16
285.551	29.71
285.767	11.64
285.982	-9.64
286.198	-33.5
286.414	23.13
286.63	9.39
286.846	40.57
287.061	21.66
287.277	50.83
287.493	19.41
287.709	34.19
287.924	3.58
288.14	45.1
288.356	38.9
288.571	55.88
288.787	37.18
289.003	42.33
289.218	13.97
289.434	-26.62
289.65	-26.16
289.865	-26.41
290.081	-6.32
290.296	4.81
290.512	5.16
290.727	-25.67
290.943	-33.28
291.159	-44.6
291.374	-41.77
291.59	-58.38
291.805	-43.12
292.021	-19.5
292.236	-16.95
292.451	2.87
292.667	10.12
292.882	36.55
293.098	33.31
293.313	17.74
293.529	-32.56
293.744	-39.13
293.959	-50.33
294.175	-58.68
294.39	-18.11
294.605	10.26
294.821	32.39
295.036	31.61
295.251	46.86
295.467	7.17
295.682	-10.5
295.897	-52.31
296.112	-65.6
296.328	-53.17
296.543	-36.83
296.758	-34.12
296.973	8.29
297.188	46.95
297.404	4.24
297.619	-9.34
297.834	-13.83
298.049	-44.83
298.264	-84.33
298.479	-16.49
298.694	0.75
298.909	15.03
299.125	26.87
299.34	37.99
299.555	10.41
299.77	25.44
299.985	-20.08
300.2	-70.32
300.415	-93.31
300.63	-54.78
300.845	-73.09
301.06	-72.53
301.275	-29.75
301.49	-9.35
301.704	-27.5
301.919	-48.67
302.134	-59.04
302.349	-66.99
302.564	-140.91
302.779	-179.55
302.994	-150.74
303.209	-82.97
303.423	-65.45
303.638	19.37
303.853	-3.58
304.068	-1.03
304.283	7.01
304.497	6.18
304.712	0.07
304.927	12.73
305.142	-0.08
305.356	6.1
305.571	5.9
305.786	-11.07
306	-23.58
306.215	-9.23
306.43	-35.29
306.644	-52.59
306.859	-46.85
307.074	-38.45
307.288	-52.37
307.503	-66.02
307.717	-51.76
307.932	-41.62
308.147	-38.83
308.361	-18.89
308.576	-20.73
308.79	-54.12
309.005	-44.56
309.219	-36.43
309.434	-52.35
309.648	-53.82
309.863	-15.82
310.077	-20.18
310.292	-9.84
310.506	6.98
310.72	16.34
310.935	31.22
311.149	22.49
311.364	37.31
311.578	41.62
311.792	42.71
312.007	26.27
312.221	15.2
312.435	2.69
312.649	-14.49
312.864	-60.74
313.078	-24.3
313.292	42.19
313.507	7.86
313.721	-2.68
313.935	42.83
314.149	12.35
314.363	-18.6
314.578	-15.93
314.792	-4.53
315.006	-23.26
315.22	-8.84
315.434	-11.59
315.648	4.82
315.862	2.09
316.077	23.95
316.291	7.23
316.505	21.67
316.719	7.94
316.933	-14.58
317.147	-33.07
317.361	-74.56
317.575	-110.36
317.789	-142.59
318.003	-206.21
318.217	-149.36
318.431	-46.53
318.645	31.88
318.859	24.81
319.073	44.39
319.287	14.92
319.5	-18.49
319.714	-66.81
319.928	-99.53
320.142	-130.15
320.356	-67.95
320.57	-28.75
320.784	-41.22
320.997	-25.74
321.211	-6.87
321.425	-58.59
321.639	-94.99
321.853	-33.97
322.066	-14.8
322.28	-23.22
322.494	-8.43
322.707	17.93
322.921	-6.56
323.135	-21.64
323.349	6.98
323.562	-14.75
323.776	-35.54
323.989	-26.18
324.203	-42.92
324.417	-60.61
324.63	-68.02
324.844	-52.75
325.057	-68.58
325.271	-18.92
325.485	-0.8
325.698	22.55
325.912	32.55
326.125	18.23
326.339	10.66
326.552	-14.21
326.766	-24.93
326.979	0.85
327.193	52.98
327.406	41.62
327.619	37.34
327.833	56.26
328.046	24.61
328.26	-32.75
328.473	-5.84
328.686	-28.59
328.9	-26.46
329.113	-17.13
329.326	-17.53
329.54	-15.25
329.753	-2.58
329.966	-26.57
330.179	-15.66
330.393	-0.5
330.606	4.57
330.819	14.48
331.032	21.97
331.246	18.34
331.459	43.64
331.672	22.94
331.885	11.51
332.098	-8.76
332.311	-22.37
332.525	-90.36
332.738	-81.98
332.951	-55.51
333.164	-10.11
333.377	23.25
333.59	54.13
333.803	60.33
334.016	50.46
334.229	33.68
334.442	17.76
334.655	28.96
334.868	37.28
335.081	32.8
335.294	22.59
335.507	-0.31
335.72	-11.74
335.933	-23.15
336.146	-30.36
336.359	-22.53
336.572	-34.9
336.785	-75.7
336.997	-52.13
337.21	-27.95
337.423	-30.08
337.636	-18.39
337.849	4.25
338.062	-23.14
338.274	-25.16
338.487	-44.79
338.7	-38.57
338.913	-87.67
339.125	-88.34
339.338	-122.03
339.551	-76.79
339.763	-54.08
339.976	-10.37
340.189	10.27
340.402	16.03
340.614	-0.62
340.827	-8.88
341.039	-28
341.252	-30.65
341.465	-15.93
341.677	-13.56
341.89	-52.57
342.102	-18.86
342.315	-31.16
342.527	-69.3
342.74	-68.94
342.952	-31.94
343.165	-32.04
343.377	-10.64
343.59	2.89
343.802	21.6
344.015	34.65
344.227	43.94
344.44	28.81
344.652	27.79
344.864	10.64
345.077	18.27
345.289	13.94
345.502	23.76
345.714	9.17
345.926	22.33
346.139	15.28
346.351	20.54
346.563	23.72
346.775	34.81
346.988	15.56
347.2	7.81
347.412	-38.94
347.624	-57.21
347.837	-71.13
348.049	-25.34
348.261	0.29
348.473	12.56
348.685	0.08
348.897	-17.39
349.11	-45.16
349.322	-70.7
349.534	-48.34
349.746	-25.75
349.958	-11.69
350.17	-12.7
350.382	3.53
350.594	-7.38
350.806	-11.01
351.018	2.29
351.23	-6.17
351.442	-61.36
351.654	-70.38
351.866	-60.55
352.078	-47.56
352.29	-14.69
352.502	5.72
352.714	24.14
352.926	4
353.138	-2.06
353.35	-9.08
353.561	-17.79
353.773	-35.59
353.985	-16.13
354.197	-16.41
354.409	-27.65
354.621	-25.02
354.832	-15.84
355.044	-21.35
355.256	-28.65
355.468	-14.31
355.679	-19.8
355.891	-25.13
356.103	-40.59
356.314	-39.75
356.526	-32.37
356.738	-13.11
356.949	-13.73
357.161	10.56
357.373	8.12
357.584	-11.68
357.796	-3.54
358.008	-9.11
358.219	-0.48
358.431	-2.91
358.642	2.52
358.854	-10.09
359.065	-16.24
359.277	-53.96
359.488	-55.24
359.7	-79.74
359.911	-91.13
360.123	-61.55
360.334	-57.32
360.546	-68.38
360.757	-62.18
360.969	-43.08
361.18	-41.34
361.391	-18.24
361.603	-17.71
361.814	-9.1
362.025	-7.99
362.237	-1.46
362.448	-4.2
362.659	18.32
362.871	21.33
363.082	13.17
363.293	-6.02
363.504	-21.11
363.716	-63.17
363.927	-66.45
364.138	-77.29
364.349	-75.89
364.56	-65.52
364.772	-44.41
364.983	-24.78
365.194	-17.71
365.405	1.06
365.616	31.15
365.827	33.5
366.038	13.84
366.25	4.46
366.461	-40.96
366.672	-50.47
366.883	-28.39
367.094	-17.96
367.305	-17.85
367.516	0.51
367.727	-20.61
367.938	-40.79
368.149	-44.29
368.36	-28.94
368.571	-22.81
368.781	-36.82
368.992	-33.38
369.203	-52.24
369.414	-69.67
369.625	-85.64
369.836	-58.98
370.047	-92.5
370.258	-69.84
370.468	-79.59
370.679	-79.71
370.89	-79.76
371.101	-48.26
371.312	-54.56
371.522	-37.75
371.733	-32.56
371.944	-15.21
372.155	-6.61
372.365	-11.34
372.576	-14.14
372.787	-21.41
372.997	-44.47
373.208	-54.75
373.419	-18.68
373.629	-43.14
373.84	-42.26
374.05	-52.16
374.261	-36.44
374.472	-60.79
374.682	-4.38
374.893	-8.06
375.103	37.17
375.314	21.04
375.524	17.61
375.735	11
375.945	28.92
376.156	-8.64
376.366	7.38
376.577	11.7
376.787	6.9
376.997	5.34
377.208	11.14
377.418	-7.12
377.629	0.29
377.839	-9.73
378.049	-3.86
378.26	15.49
378.47	16.24
378.68	6.99
378.89	10.31
379.101	1.11
379.311	-39.8
379.521	-57.85
379.732	-54.69
379.942	-69.03
380.152	-84.84
380.362	-39.99
380.572	-32.97
380.783	-24.77
380.993	-7.15
381.203	5.43
381.413	8.82
381.623	16.47
381.833	15.23
382.043	1.51
382.253	-6.84
382.463	-9.01
382.674	-16.93
382.884	-30.21
383.094	-22.28
383.304	-13.98
383.514	-12.56
383.724	2.01
383.934	-8.49
384.144	-12.69
384.353	-25.45
384.563	-25.71
384.773	-30.05
384.983	-25.28
385.193	-17.14
385.403	-8.65
385.613	-14.24
385.823	-23.38
386.033	-15.99
386.242	-15.26
386.452	-16.68
386.662	-21.79
386.872	-3.52
387.082	-9.12
387.291	-22.04
387.501	-25.66
387.711	-12.69
387.921	-22.95
388.13	-17.4
388.34	0.31
388.55	-6.67
388.759	-10.08
388.969	-5.7
389.179	-11.06
389.388	-19.25
389.598	-7.35
389.807	-9.23
390.017	-13.1
390.227	-8.31
390.436	-8.06
390.646	-7.65
390.855	-4.25
391.065	-4.97
391.274	-5.56
391.484	-6.67
391.693	-5.15
391.903	-4.43
392.112	2.58
392.322	7
392.531	10.15
392.74	8.7
392.95	4.92
393.159	1.54
393.369	-0.44
393.578	-0.21
393.787	-1.71
393.997	-0.48
394.206	-2.17
394.415	-2.71
394.625	-3.68
394.834	-4.19
395.043	-4.27
395.252	-0.63
395.462	1.64
395.671	2.52
395.88	3.68
396.089	4.3
396.298	1.82
396.508	0.51
396.717	-0.37
396.926	-0.34
397.135	-0.52
397.344	-0.17
397.553	0.99
397.762	2.83
397.971	3.15
398.181	4.14
398.39	3.68
398.599	2.5
398.808	2.21
399.017	2.89
399.226	3.53
399.435	4.97
399.644	5.52
399.853	4.3
400.062	3.87
400.27	3.27
400.479	2.57
400.688	2.09
400.897	2.72
401.106	2.65
401.315	2.51
401.524	2.71
401.733	3.28
401.941	3.69
402.15	4.02
402.359	4.01
402.568	4.46
402.777	4.53
402.985	4.25
403.194	3.93
403.403	3.84
403.612	3.18
403.82	2.89
404.029	2.81
404.238	2.72
404.446	2.88
404.655	2.79
404.864	2.68
405.072	2.56
405.281	2.68
405.489	2.43
405.698	2.55
405.906	2.56
406.115	2.53
406.324	2.37
406.532	2.57
406.741	2.86
406.949	2.81
407.158	2.86
407.366	3.03
407.574	2.78
407.783	2.56
407.991	2.49
408.2	2.76
408.408	2.65
408.617	2.72
408.825	2.54
409.033	2.72
409.242	2.61
409.45	2.61
409.658	2.5
409.867	2.62
410.075	2.38
410.283	2.26
410.491	2.19
410.7	2.15
410.908	2.24
411.116	2.69
411.324	2.66
411.533	2.68
411.741	2.97
411.949	2.92
412.157	2.5
412.365	2.53
412.573	2.53
412.781	2.56
412.99	2.45
413.198	2.78
413.406	2.69
413.614	2.71
413.822	2.45
414.03	2.4
414.238	2.09
414.446	2.15
414.654	1.92
414.862	2.14
415.07	2.23
415.278	2.43
415.486	2.32
415.694	2.55
415.902	2.26
416.109	2.15
416.317	2.05
416.525	1.95
416.733	1.85
416.941	2.07
417.149	2.07
417.357	2.18
417.564	2.42
417.772	2.62
417.98	2.61
418.188	2.59
418.395	2.47
418.603	2.67
418.811	2.24
419.019	2.14
419.226	2.38
419.434	2.52
419.642	2.06
419.849	2.25
420.057	2.26
420.265	2.17
420.472	1.92
420.68	2.11
420.887	2.05
421.095	2.13
421.302	2.1
421.51	2.38
421.717	2.42
421.925	2.67
422.132	2.4
422.34	2.12
422.547	2.03
422.755	1.93
422.962	1.67
423.17	1.68
423.377	1.85
423.585	1.86
423.792	1.83
423.999	1.91
424.207	1.9
424.414	2.03
424.621	2
424.829	2
425.036	2.13
425.243	2.41
425.451	2.18
425.658	2.08
425.865	2.22
426.072	2.18
426.28	2.31
426.487	2.4
426.694	2.54
426.901	2.37
427.108	2.41
427.315	2.17
427.523	2.41
427.73	2.25
427.937	2.21
428.144	1.99
428.351	1.98
428.558	2.1
428.765	2
428.972	1.85
429.179	2.09
429.386	2.39
429.593	2.09
429.8	2
430.007	2.25
430.214	2.24
430.421	2
430.628	1.77
430.835	1.84
431.042	2.05
431.249	2.05
431.456	1.95
431.662	2.2
431.869	2.34
432.076	2.23
432.283	2.35
432.49	2.4
432.697	2.36
432.903	2.11
433.11	2.03
433.317	2
433.524	2.07
433.73	1.99
433.937	2.33
434.144	2.24
434.35	2.17
434.557	2.1
434.764	2.2
434.97	2.1
435.177	2.31
435.384	2.24
435.59	2.32
435.797	2.53
436.003	2.56
436.21	2.46
436.416	2.64
436.623	2.59
436.829	2.53
437.036	2.63
437.242	2.66
437.449	2.37
437.655	2.43
437.862	2.48
438.068	2.42
438.275	2.55
438.481	2.87
438.687	2.79
438.894	2.6
439.1	2.54
439.307	2.68
439.513	2.51
439.719	2.54
439.926	2.66
440.132	2.7
440.338	2.45
440.544	2.62
440.751	2.61
440.957	2.64
441.163	2.52
441.369	2.7
441.575	2.49
441.782	2.5
441.988	2.42
442.194	2.52
442.4	2.48
442.606	2.79
442.812	2.88
443.018	3
443.224	2.98
443.431	3.06
443.637	2.78
443.843	2.66
444.049	2.57
444.255	2.55
444.461	2.48
444.667	2.51
444.873	2.73
445.079	2.74
445.284	2.83
445.49	2.61
445.696	2.47
445.902	2.36
446.108	2.41
446.314	2.32
446.52	2.51
446.726	2.76
446.931	2.7
447.137	2.61
447.343	2.68
447.549	2.58
447.755	2.5
447.96	2.59
448.166	2.59
448.372	2.57
448.578	2.66
448.783	2.64
448.989	2.72
449.195	2.96
449.4	2.95
449.606	2.9
449.812	2.95
450.017	2.97
450.223	2.73
450.428	2.64
450.634	2.77
450.84	2.81
451.045	2.71
451.251	2.69
451.456	2.98
451.662	3.02
451.867	3.04
452.073	2.98
452.278	3.08
452.483	3.11
452.689	2.96
452.894	3.01
453.1	3.06
453.305	2.99
453.51	2.86
453.716	2.86
453.921	2.8
454.127	2.68
454.332	2.68
454.537	2.63
454.742	2.58
454.948	2.61
455.153	2.82
455.358	2.92
455.563	3.11
455.769	3.35
455.974	3.26
456.179	3.13
456.384	3.12
456.589	3.07
456.795	2.75
457	2.75
457.205	2.88
457.41	2.75
457.615	2.58
457.82	2.71
458.025	2.69
458.23	2.54
458.435	2.61
458.64	2.63
458.845	2.74
459.05	2.82
459.255	2.85
459.46	2.88
459.665	2.88
459.87	2.84
460.075	2.83
460.28	2.91
