Data from Ofra_PS_T2_2A_8HS21_Reflection_2.txt Node
Date: Wed Jul 21 17:19:28 EDT 2021
User: Adam
Spectrometer: FLMT01687
Trigger mode: 0
Integration Time (sec): 1.100000E0
Scans to average: 2
Electric dark correction enabled: true
Nonlinearity correction enabled: false
Boxcar width: 2
XAxis mode: Wavelengths
Number of Pixels in Spectrum: 3648
>>>>>Begin Spectral Data<<<<<
179.494	591
179.716	655.76
179.937	647.33
180.158	632.44
180.38	849.84
180.601	147.93
180.823	51.6
181.044	-148.93
181.265	102.02
181.486	114.41
181.708	173.38
181.929	736.22
182.15	-317.96
182.372	138.6
182.593	18.55
182.814	11.75
183.035	71.35
183.257	54.75
183.478	3.67
183.699	69.94
183.92	49.96
184.141	16.2
184.363	-41.27
184.584	22.15
184.805	41.81
185.026	70.13
185.247	68.19
185.468	73.89
185.689	94.67
185.91	82.14
186.132	60.04
186.353	44.42
186.574	90.49
186.795	58.13
187.016	22.02
187.237	35.26
187.458	32.87
187.679	13.05
187.9	31.58
188.121	18
188.342	53.41
188.563	90.04
188.784	137.3
189.005	114.17
189.226	170.47
189.447	92.85
189.667	-92.11
189.888	-377.22
190.109	-1426.95
190.33	-836.61
190.551	-1128.98
190.772	-195.58
190.993	-129.06
191.214	-83.35
191.434	-65.97
191.655	-1.56
191.876	-74.2
192.097	-129.68
192.318	-186.42
192.538	-250.07
192.759	-188.88
192.98	-58.92
193.201	-17.08
193.421	10.61
193.642	31.72
193.863	40.49
194.083	21.02
194.304	12.19
194.525	17.24
194.745	28.52
194.966	8.04
195.187	-15.97
195.407	-19.32
195.628	-73.67
195.848	-102.83
196.069	-107.92
196.29	-41.12
196.51	-69.16
196.731	-61.1
196.951	-57.83
197.172	-61.71
197.392	-97.29
197.613	-76.42
197.833	-111.95
198.054	-110.87
198.274	-76.68
198.495	-95.26
198.715	-54.79
198.936	-54.11
199.156	-42.77
199.377	-115.39
199.597	-106.99
199.817	-136.45
200.038	-92.47
200.258	-160.63
200.479	-80.53
200.699	-105.08
200.919	-43.78
201.14	-32.3
201.36	-43.93
201.58	12.11
201.801	48.32
202.021	14.76
202.241	5.56
202.461	12.1
202.682	-90.98
202.902	-166.86
203.122	-60.64
203.342	-65.61
203.563	-14.53
203.783	19.06
204.003	3.86
204.223	-5.84
204.443	67.59
204.663	41.01
204.884	32.93
205.104	44.48
205.324	56.76
205.544	28.12
205.764	46.54
205.984	53.99
206.204	59.04
206.424	43.12
206.644	6.62
206.864	22.12
207.084	-10.79
207.304	34.43
207.525	-63.05
207.745	-33.35
207.964	-25.68
208.184	-70.24
208.404	-103.96
208.624	-97.63
208.844	-54.91
209.064	-261.46
209.284	-236.46
209.504	-76.69
209.724	16.82
209.944	1.62
210.164	28.82
210.384	25.88
210.604	13.96
210.823	-29.59
211.043	-64.42
211.263	-58.97
211.483	-64.68
211.703	-134.28
211.922	-96.31
212.142	-12.86
212.362	19.22
212.582	28.82
212.801	39.15
213.021	-1.98
213.241	-11.81
213.461	-65.54
213.68	-84.48
213.9	-46.29
214.12	-7.78
214.339	-84.84
214.559	-70.77
214.779	-24.96
214.998	-41.34
215.218	-112.35
215.438	-62.52
215.657	-71.33
215.877	-69.41
216.096	-19.01
216.316	7.73
216.535	-14.59
216.755	3.81
216.974	-88.06
217.194	-109.91
217.413	-114.92
217.633	-75.41
217.852	-183.25
218.072	-57.57
218.291	-43.95
218.511	-7.92
218.73	-35.75
218.95	-17.22
219.169	-13.13
219.389	-39.79
219.608	-37.06
219.827	-27.6
220.047	-14.48
220.266	-12.48
220.485	-22.94
220.705	-6.84
220.924	-29.08
221.143	6.37
221.363	-13.91
221.582	10.85
221.801	5.17
222.021	15.62
222.24	-57.51
222.459	-20.78
222.678	-46.64
222.897	-85.09
223.117	-88.54
223.336	-73.69
223.555	-68.27
223.774	-32.16
223.993	-6.85
224.213	54.88
224.432	53.31
224.651	77.93
224.87	56.28
225.089	47.41
225.308	32.02
225.527	45.16
225.746	43.71
225.965	31.92
226.184	23.73
226.404	23.83
226.623	-8.47
226.842	-9.34
227.061	16.66
227.28	23.58
227.499	22.33
227.718	41.43
227.936	34.46
228.155	36.39
228.374	16.11
228.593	15.87
228.812	28.07
229.031	31.91
229.25	-2.54
229.469	4.52
229.688	41.11
229.907	41.76
230.125	48.14
230.344	38.29
230.563	55.41
230.782	47.42
231.001	-41.35
231.22	-41.35
231.438	9.28
231.657	2.4
231.876	-4.63
232.095	41.03
232.313	49.7
232.532	13.39
232.751	-15.26
232.969	-36.12
233.188	-117.32
233.407	-35.32
233.625	-11.6
233.844	-13.27
234.063	-10.07
234.281	9.47
234.5	-15.18
234.719	-18.77
234.937	1.86
235.156	11.42
235.374	15.11
235.593	10.82
235.811	-0.06
236.03	-17.12
236.249	-50.46
236.467	-23.28
236.686	-9.12
236.904	14.82
237.123	-4.13
237.341	8.02
237.559	-1.24
237.778	-10.96
237.996	-38.56
238.215	6.25
238.433	-2.48
238.652	-1.93
238.87	-4.73
239.088	5.21
239.307	8.15
239.525	16.58
239.743	-21.11
239.962	-22.05
240.18	-44.38
240.398	-86.82
240.617	-84.67
240.835	-59.31
241.053	-37.25
241.271	13.49
241.49	21.92
241.708	3.96
241.926	14.54
242.144	18.62
242.363	-59.15
242.581	-72.93
242.799	-25.77
243.017	4.56
243.235	-21.17
243.453	10.8
243.672	12.97
243.89	-1.11
244.108	-34.28
244.326	-22.47
244.544	-25.11
244.762	-36.8
244.98	-40.47
245.198	-9.39
245.416	-4.1
245.634	5.79
245.852	12.9
246.07	7.08
246.288	-9.57
246.506	-53.88
246.724	-38.97
246.942	-28.67
247.16	31.31
247.378	51.54
247.596	87.93
247.814	85.91
248.032	53.9
248.25	24.51
248.468	11.3
248.685	10.18
248.903	32.88
249.121	39.72
249.339	26.14
249.557	36.03
249.775	32.79
249.992	-36.15
250.21	-30.01
250.428	-29.31
250.646	-58
250.863	-73.47
251.081	-27.59
251.299	-21.23
251.517	0.77
251.734	-3.26
251.952	-16.91
252.17	-28.89
252.387	-18.83
252.605	-38.22
252.823	-25.67
253.04	-4.83
253.258	18.68
253.475	17.07
253.693	60.31
253.911	49.54
254.128	56.42
254.346	51.59
254.563	23.82
254.781	-14.44
254.998	-51.2
255.216	-59.8
255.433	-52.23
255.651	-1.47
255.868	23.73
256.086	81.57
256.303	50.79
256.521	41.98
256.738	4.84
256.956	-15.72
257.173	-56.67
257.39	-65.4
257.608	-75.58
257.825	11.32
258.043	47.22
258.26	64.74
258.477	99.45
258.695	91.43
258.912	18.16
259.129	25.24
259.346	-23.08
259.564	-69.63
259.781	-72.76
259.998	0.61
260.216	32.54
260.433	74.85
260.65	83.75
260.867	82.99
261.084	61.35
261.302	35.54
261.519	12.11
261.736	-16.24
261.953	-33.96
262.17	-1.14
262.387	-40.1
262.604	-58.25
262.822	-53.06
263.039	-18.38
263.256	-49.19
263.473	-8.18
263.69	5.73
263.907	35.63
264.124	34.79
264.341	26.48
264.558	16.71
264.775	17.64
264.992	7.68
265.209	5.7
265.426	27.87
265.643	20.42
265.86	44.03
266.077	25.86
266.294	16.22
266.51	-24.83
266.727	-28.1
266.944	-23.41
267.161	-39.33
267.378	-36.66
267.595	5.36
267.812	-6.79
268.028	-22.41
268.245	19.33
268.462	-0.05
268.679	-13.31
268.896	34.17
269.112	20.9
269.329	17.9
269.546	23.04
269.763	12.74
269.979	-7.02
270.196	-2.26
270.413	-29.79
270.629	-52.83
270.846	-58.49
271.063	-47.01
271.279	-48.97
271.496	-28.49
271.712	12
271.929	56.85
272.146	57.7
272.362	51.2
272.579	66.08
272.795	74.27
273.012	48.68
273.228	43.19
273.445	22.31
273.661	-1.24
273.878	-51.77
274.094	-26.54
274.311	-49.47
274.527	29.06
274.744	31.15
274.96	36.36
275.177	28.69
275.393	45.93
275.609	29.95
275.826	50.62
276.042	47.93
276.259	26.83
276.475	31.77
276.691	33.1
276.908	10.44
277.124	23.11
277.34	30.55
277.557	15.77
277.773	5.02
277.989	-8.31
278.205	-14.03
278.422	8.62
278.638	20.76
278.854	45.7
279.07	70.76
279.286	75.24
279.503	43.8
279.719	32.7
279.935	7.93
280.151	9.97
280.367	18.16
280.583	1.37
280.799	-2.46
281.016	-27.27
281.232	-16.98
281.448	-19.73
281.664	14.57
281.88	-5.42
282.096	20.21
282.312	52.58
282.528	68.22
282.744	75.77
282.96	52.58
283.176	47.05
283.392	28.16
283.608	16.11
283.824	3.29
284.04	11.64
284.256	-2.47
284.471	-11.66
284.687	-24.07
284.903	17.39
285.119	49.63
285.335	20.88
285.551	36.44
285.767	24.09
285.982	-12.2
286.198	-72.87
286.414	3.79
286.63	10.61
286.846	38.44
287.061	21.85
287.277	51.69
287.493	25.37
287.709	33.47
287.924	23.18
288.14	63.5
288.356	70.37
288.571	85.8
288.787	60.26
289.003	54.04
289.218	25.86
289.434	-6.55
289.65	-17.23
289.865	-4.33
290.081	15.97
290.296	29.58
290.512	29.99
290.727	-0.05
290.943	-9.55
291.159	-22.8
291.374	-14.56
291.59	-31.38
291.805	-15.2
292.021	1.38
292.236	-0.39
292.451	4.16
292.667	19.52
292.882	32.3
293.098	31.3
293.313	33.38
293.529	5.07
293.744	-13.68
293.959	-14.4
294.175	-11.89
294.39	14.55
294.605	25.72
294.821	47.31
295.036	48.31
295.251	51.6
295.467	45.4
295.682	45.62
295.897	2.64
296.112	-12.84
296.328	-27.31
296.543	-82.74
296.758	-67.32
296.973	-6.3
297.188	27.93
297.404	12.63
297.619	18.79
297.834	0.14
298.049	-14.47
298.264	-35.6
298.479	8.09
298.694	21.97
298.909	38.92
299.125	33.27
299.34	35.55
299.555	2.06
299.77	5.56
299.985	-33.93
300.2	-74.21
300.415	-83.83
300.63	-31.64
300.845	-47.61
301.06	-40.93
301.275	2.11
301.49	9.04
301.704	-7.5
301.919	-11.54
302.134	-8.51
302.349	-15.12
302.564	-78.84
302.779	-69.04
302.994	-9.99
303.209	2.12
303.423	-3.88
303.638	79.23
303.853	35.04
304.068	16.63
304.283	15.17
304.497	26.03
304.712	12
304.927	18.02
305.142	6.43
305.356	12.04
305.571	4.17
305.786	-11.68
306	-25.26
306.215	-11.82
306.43	-19.51
306.644	-14.88
306.859	50.59
307.074	63.2
307.288	34.99
307.503	33.89
307.717	9.26
307.932	-9.98
308.147	-22.47
308.361	19.82
308.576	4.42
308.79	-33.83
309.005	-29.62
309.219	1.44
309.434	-16.06
309.648	-11.27
309.863	13.65
310.077	16.87
310.292	-0.59
310.506	-10.07
310.72	6.86
310.935	27.58
311.149	14.24
311.364	27.51
311.578	36.03
311.792	19.52
312.007	15.21
312.221	17.34
312.435	30.17
312.649	15.19
312.864	67.97
313.078	87.14
313.292	142.92
313.507	97.45
313.721	139.11
313.935	51.85
314.149	34.27
314.363	12.98
314.578	15.96
314.792	11.78
315.006	-0.47
315.22	16
315.434	22.13
315.648	31.17
315.862	36.94
316.077	49.69
316.291	36.3
316.505	34.59
316.719	19.42
316.933	-3.67
317.147	-6.32
317.361	-41.72
317.575	-68.27
317.789	-86.14
318.003	-127.36
318.217	-112.79
318.431	-31.58
318.645	28.85
318.859	26.71
319.073	60.92
319.287	41.9
319.5	11.74
319.714	-33.76
319.928	-60.01
320.142	-87.39
320.356	1
320.57	42.57
320.784	35.36
320.997	51.33
321.211	42.22
321.425	-49.84
321.639	-75.72
321.853	-2.35
322.066	0.31
322.28	-8.57
322.494	10.99
322.707	26.3
322.921	1.88
323.135	7.35
323.349	21.19
323.562	0.57
323.776	-14.54
323.989	-22.33
324.203	-29.57
324.417	-44.71
324.63	-56.67
324.844	-47.28
325.057	-33.55
325.271	-22.54
325.485	0.68
325.698	21.99
325.912	31.6
326.125	20.51
326.339	30.54
326.552	15.64
326.766	22.04
326.979	34.21
327.193	50.6
327.406	32.5
327.619	31.71
327.833	45.12
328.046	20.19
328.26	-22.16
328.473	-4.83
328.686	-28.74
328.9	-44.57
329.113	-16.66
329.326	-2.3
329.54	10.94
329.753	22.59
329.966	20.82
330.179	11.36
330.393	13.41
330.606	13.63
330.819	28.94
331.032	40.54
331.246	47.21
331.459	70.98
331.672	59.12
331.885	43.99
332.098	22.77
332.311	-3.09
332.525	-50.67
332.738	-29.05
332.951	9.76
333.164	39.28
333.377	46.81
333.59	54.6
333.803	63.07
334.016	45.14
334.229	27.93
334.442	32.01
334.655	58.11
334.868	43.3
335.081	39.33
335.294	23.56
335.507	15.2
335.72	-8.82
335.933	-13.7
336.146	-19.64
336.359	-13.66
336.572	-35.44
336.785	-61.18
336.997	-53.64
337.21	-24.74
337.423	-16.26
337.636	1.01
337.849	24.01
338.062	7.88
338.274	2.58
338.487	-1.36
338.7	13.04
338.913	-15.95
339.125	-25.5
339.338	-59.84
339.551	-37.68
339.763	-28.21
339.976	9.12
340.189	29.11
340.402	40.02
340.614	24.67
340.827	13.39
341.039	-3.06
341.252	8.76
341.465	16.58
341.677	11.69
341.89	-17.67
342.102	-10.12
342.315	-34.46
342.527	-63.79
342.74	-54.78
342.952	-16.84
343.165	-1.06
343.377	24.47
343.59	16.26
343.802	41.96
344.015	44.79
344.227	42.98
344.44	25.41
344.652	38.84
344.864	12.53
345.077	21.36
345.289	24.83
345.502	33.39
345.714	23.85
345.926	29.2
346.139	30.03
346.351	42.17
346.563	49.14
346.775	58.84
346.988	56.28
347.2	36.47
347.412	-10.31
347.624	-41.59
347.837	-57.53
348.049	-39.76
348.261	-0.46
348.473	11.32
348.685	14.41
348.897	11.66
349.11	-5.01
349.322	-9.51
349.534	9.12
349.746	10.02
349.958	8.84
350.17	4.51
350.382	14.84
350.594	12.96
350.806	17.72
351.018	20.48
351.23	27.79
351.442	-22.17
351.654	-32.09
351.866	-37.47
352.078	-31.27
352.29	-9.46
352.502	21.08
352.714	35.19
352.926	27.46
353.138	31.66
353.35	19.56
353.561	4.46
353.773	-22.43
353.985	-3.93
354.197	-13.65
354.409	-19.62
354.621	-16.18
354.832	-7.79
355.044	-22.37
355.256	-30.67
355.468	-19.67
355.679	-14.32
355.891	-8.14
356.103	-11.86
356.314	5.41
356.526	-2.04
356.738	-6.37
356.949	-9.05
357.161	12.4
357.373	5.28
357.584	12.17
357.796	22.49
358.008	17.11
358.219	22
358.431	13.85
358.642	18.72
358.854	11.94
359.065	3.13
359.277	-28.34
359.488	-32.22
359.7	-60.77
359.911	-85.03
360.123	-52.01
360.334	-53.83
360.546	-64.67
360.757	-43.31
360.969	-5.94
361.18	-9.83
361.391	10.94
361.603	16.12
361.814	18.31
362.025	11.8
362.237	10.87
362.448	18.09
362.659	38.63
362.871	36.75
363.082	25.76
363.293	24.13
363.504	8.81
363.716	-18.2
363.927	-19.91
364.138	-29.83
364.349	-30.76
364.56	-29.26
364.772	-31.3
364.983	-5.73
365.194	1.57
365.405	18.5
365.616	39.47
365.827	43.45
366.038	17.5
366.25	16.72
366.461	-7.61
366.672	7.64
366.883	30.37
367.094	26.27
367.305	9.77
367.516	3.1
367.727	-26.59
367.938	-37.78
368.149	-29.51
368.36	-0.03
368.571	13.22
368.781	1.28
368.992	-24.78
369.203	-40.03
369.414	-78.55
369.625	-76.08
369.836	-64.88
370.047	-79.91
370.258	-56.53
370.468	-46.49
370.679	-74.93
370.89	-70.64
371.101	-25.42
371.312	-32.58
371.522	-21.98
371.733	-6.2
371.944	6.8
372.155	-2.03
372.365	-13.23
372.576	-4.9
372.787	-3.81
372.997	-15.66
373.208	-16.28
373.419	29.13
373.629	-5.34
373.84	-5.49
374.05	-19.88
374.261	-3.93
374.472	-28.14
374.682	5.08
374.893	6.63
375.103	47.38
375.314	28.35
375.524	23.22
375.735	34.32
375.945	43.21
376.156	3.3
376.366	18.76
376.577	20.76
376.787	4.97
376.997	2.74
377.208	20.42
377.418	5.76
377.629	10.85
377.839	21.63
378.049	23.62
378.26	34.39
378.47	40.75
378.68	26.31
378.89	13.9
379.101	2.02
379.311	-32.25
379.521	-65.4
379.732	-58.75
379.942	-59.28
380.152	-73.39
380.362	-26.35
380.572	-13.59
380.783	-1.45
380.993	19.89
381.203	40.08
381.413	44.79
381.623	45.24
381.833	40.11
382.043	30.88
382.253	16.56
382.463	12.72
382.674	5.7
382.884	-11.23
383.094	-5.36
383.304	-0.37
383.514	3
383.724	17.72
383.934	19
384.144	3.31
384.353	-0.93
384.563	-11.55
384.773	-11.32
384.983	-16.54
385.193	2.92
385.403	8.2
385.613	11.06
385.823	6.19
386.033	14.33
386.242	6.32
386.452	4.89
386.662	-1.69
386.872	13.16
387.082	9.21
387.291	5.78
387.501	4.49
387.711	12.34
387.921	-0.16
388.13	4.77
388.34	15
388.55	9.53
388.759	11.16
388.969	16.59
389.179	14.69
389.388	10.56
389.598	20.6
389.807	10.35
390.017	5.07
390.227	5.39
390.436	5.71
390.646	7.18
390.855	16.51
391.065	18.73
391.274	15.82
391.484	14.11
391.693	14.63
391.903	14.05
392.112	18.02
392.322	22.87
392.531	25.75
392.74	26.2
392.95	20.94
393.159	20.15
393.369	20.05
393.578	19.56
393.787	17.3
393.997	20
394.206	17.78
394.415	17.63
394.625	17.39
394.834	16.56
395.043	18.13
395.252	21.24
395.462	23.72
395.671	26.07
395.88	26.29
396.089	26.87
396.298	25.52
396.508	24.02
396.717	23.96
396.926	24.97
397.135	24.58
397.344	24.24
397.553	24.98
397.762	25.25
397.971	25.03
398.181	24.49
398.39	24.02
398.599	23.42
398.808	22.85
399.017	23.4
399.226	24.84
399.435	26.46
399.644	27.04
399.853	26.76
400.062	26.64
400.27	26.23
400.479	25.42
400.688	24.19
400.897	24.68
401.106	24.61
401.315	24.09
401.524	24.16
401.733	25.17
401.941	25.31
402.15	25.65
402.359	25.45
402.568	25.65
402.777	25.52
402.985	25.13
403.194	24.72
403.403	25.17
403.612	24.62
403.82	24.49
404.029	24.75
404.238	24.8
404.446	24.86
404.655	24.79
404.864	24.64
405.072	24.3
405.281	24.44
405.489	23.9
405.698	23.93
405.906	23.8
406.115	23.76
406.324	23.55
406.532	23.74
406.741	23.96
406.949	23.98
407.158	23.83
407.366	23.75
407.574	23.6
407.783	23.54
407.991	23.2
408.2	23.5
408.408	23.48
408.617	23.29
408.825	22.91
409.033	23.04
409.242	22.91
409.45	22.9
409.658	22.79
409.867	23.03
410.075	22.91
410.283	22.61
410.491	22.36
410.7	22.3
410.908	22.06
411.116	22.29
411.324	22.24
411.533	22.2
411.741	22.39
411.949	22.46
412.157	22.28
412.365	22.35
412.573	22.37
412.781	22.33
412.99	22.21
413.198	22.09
413.406	21.95
413.614	21.82
413.822	21.5
414.03	21.37
414.238	21.26
414.446	21.42
414.654	21.19
414.862	21.41
415.07	21.39
415.278	21.57
415.486	21.27
415.694	21.38
415.902	21.22
416.109	21.11
416.317	20.95
416.525	20.78
416.733	20.73
416.941	20.81
417.149	20.75
417.357	20.81
417.564	21.05
417.772	21.36
417.98	21.25
418.188	21.28
418.395	21.32
418.603	21.36
418.811	20.76
419.019	20.71
419.226	20.77
419.434	20.67
419.642	20.33
419.849	20.46
420.057	20.39
420.265	20.43
420.472	20.03
420.68	20.08
420.887	20.13
421.095	20.14
421.302	19.78
421.51	19.93
421.717	19.99
421.925	19.89
422.132	19.72
422.34	19.55
422.547	19.72
422.755	19.55
422.962	19.59
423.17	19.62
423.377	20.07
423.585	19.86
423.792	19.82
423.999	19.82
424.207	19.78
424.414	19.67
424.621	19.81
424.829	19.93
425.036	19.92
425.243	20.11
425.451	19.91
425.658	19.63
425.865	19.77
426.072	19.82
426.28	19.98
426.487	19.96
426.694	20.17
426.901	20.02
427.108	19.92
427.315	19.64
427.523	20.03
427.73	20.1
427.937	20.12
428.144	20.07
428.351	20.12
428.558	20.24
428.765	20.23
428.972	20.12
429.179	20.44
429.386	20.7
429.593	20.36
429.8	20.25
430.007	20.66
430.214	20.71
430.421	20.45
430.628	20.45
430.835	20.48
431.042	20.47
431.249	20.42
431.456	20.56
431.662	20.73
431.869	20.99
432.076	20.96
432.283	21.05
432.49	21.06
432.697	21.17
432.903	20.91
433.11	20.82
433.317	20.93
433.524	21.27
433.73	21.29
433.937	21.61
434.144	21.77
434.35	21.8
434.557	21.66
434.764	21.72
434.97	21.72
435.177	21.88
435.384	21.86
435.59	21.92
435.797	22.23
436.003	22.29
436.21	22.2
436.416	22.45
436.623	22.41
436.829	22.38
437.036	22.46
437.242	22.79
437.449	22.72
437.655	22.99
437.862	23.06
438.068	23.15
438.275	23.16
438.481	23.36
438.687	23.25
438.894	23.3
439.1	23.37
439.307	23.5
439.513	23.36
439.719	23.53
439.926	23.63
440.132	23.58
440.338	23.44
440.544	23.72
440.751	23.61
440.957	23.74
441.163	23.77
441.369	23.88
441.575	23.77
441.782	23.85
441.988	23.73
442.194	23.88
442.4	23.96
442.606	24.19
442.812	24.44
443.018	24.45
443.224	24.62
443.431	24.67
443.637	24.58
443.843	24.48
444.049	24.6
444.255	24.52
444.461	24.56
444.667	24.44
444.873	24.56
445.079	24.61
445.284	24.71
445.49	24.53
445.696	24.61
445.902	24.64
446.108	24.57
446.314	24.49
446.52	24.76
446.726	25.07
446.931	25.14
447.137	25.29
447.343	25.36
447.549	25.37
447.755	25.17
447.96	25.22
448.166	25.14
448.372	25.28
448.578	25.15
448.783	25.21
448.989	25.2
449.195	25.35
449.4	25.36
449.606	25.43
449.812	25.43
450.017	25.36
450.223	25.38
450.428	25.12
450.634	25.36
450.84	25.42
451.045	25.54
451.251	25.46
451.456	25.89
451.662	25.92
451.867	26.03
452.073	26.08
452.278	26.4
452.483	26.45
452.689	26.45
452.894	26.42
453.1	26.41
453.305	26.26
453.51	26.06
453.716	25.95
453.921	25.93
454.127	25.92
454.332	25.75
454.537	25.8
454.742	25.79
454.948	25.88
455.153	25.89
455.358	26.08
455.563	26.28
455.769	26.38
455.974	26.35
456.179	26.27
456.384	26.25
456.589	26.14
456.795	26.07
457	26.12
457.205	26.45
457.41	26.47
457.615	26.35
457.82	26.38
458.025	26.33
458.23	26.16
458.435	26.23
458.64	26.15
