Data from Ofra_PS_T2_1A_2GT03_Reflection_3.txt Node
Date: Wed Jul 21 17:55:41 EDT 2021
User: Adam
Spectrometer: FLMT01687
Trigger mode: 0
Integration Time (sec): 1.100000E0
Scans to average: 2
Electric dark correction enabled: true
Nonlinearity correction enabled: false
Boxcar width: 2
XAxis mode: Wavelengths
Number of Pixels in Spectrum: 3648
>>>>>Begin Spectral Data<<<<<
179.494	527.4
179.716	632.47
179.937	604.69
180.158	548.81
180.38	925.78
180.601	266.44
180.823	47.38
181.044	-52.96
181.265	264.15
181.486	80.23
181.708	123.15
181.929	696.43
182.15	-451.06
182.372	131
182.593	34.76
182.814	12.52
183.035	53.35
183.257	36.68
183.478	-79.63
183.699	-0.39
183.92	-71.73
184.141	-78.3
184.363	-106.44
184.584	-47.47
184.805	-54.75
185.026	9.94
185.247	26.11
185.468	14.8
185.689	-2.23
185.91	33.34
186.132	30.95
186.353	14.25
186.574	53.89
186.795	60.32
187.016	-22.02
187.237	-27.97
187.458	-51.19
187.679	-36.83
187.9	-40.22
188.121	-23.29
188.342	-29.9
188.563	19.48
188.784	54.9
189.005	50.71
189.226	132.07
189.447	112.26
189.667	16.38
189.888	-404.56
190.109	-1086.04
190.33	-744.68
190.551	-1220.58
190.772	-217.01
190.993	-92.18
191.214	-92.19
191.434	-94.55
191.655	-26.41
191.876	-76.6
192.097	-146.2
192.318	-180.58
192.538	-222.36
192.759	-184.31
192.98	-97.47
193.201	-27.43
193.421	-12.51
193.642	7.04
193.863	21.77
194.083	2
194.304	-11.8
194.525	1.27
194.745	-1.87
194.966	-25.78
195.187	-24.89
195.407	-56.86
195.628	-157.2
195.848	-130.29
196.069	-109.84
196.29	-50.97
196.51	-65.99
196.731	-49.82
196.951	-96.01
197.172	-119.83
197.392	-172.38
197.613	-141.59
197.833	-146.61
198.054	-122
198.274	-71.05
198.495	-69.02
198.715	-52.39
198.936	-84.31
199.156	-82.94
199.377	-181.95
199.597	-200.48
199.817	-190.48
200.038	-84.34
200.258	-116.72
200.479	-36.9
200.699	-1.46
200.919	33.34
201.14	-34.21
201.36	-44.79
201.58	-2.94
201.801	12.25
202.021	-36.03
202.241	-51.09
202.461	-47.19
202.682	-174.59
202.902	-234.47
203.122	-148.35
203.342	-93.11
203.563	-43.81
203.783	-11.46
204.003	-42.57
204.223	-38.3
204.443	18.59
204.663	-13.61
204.884	-20.73
205.104	12.48
205.324	33.87
205.544	12.75
205.764	30.01
205.984	46.5
206.204	57.02
206.424	36.09
206.644	10.5
206.864	41.53
207.084	25.48
207.304	-21.41
207.525	-158.2
207.745	-149.58
207.964	-105.59
208.184	-151.79
208.404	-177.36
208.624	-170.88
208.844	-135.1
209.064	-489.23
209.284	-494.88
209.504	-266.65
209.724	-66.22
209.944	-45.78
210.164	-9.64
210.384	2.35
210.604	6.52
210.823	-41.75
211.043	-61
211.263	-59.3
211.483	-51.1
211.703	-121.07
211.922	-101.67
212.142	-36.48
212.362	-10.48
212.582	-23.25
212.801	5.59
213.021	-7.86
213.241	-25.29
213.461	-69.15
213.68	-95.75
213.9	-78.42
214.12	-77.12
214.339	-150.07
214.559	-117.77
214.779	-43.31
214.998	-56.26
215.218	-89.33
215.438	-40.07
215.657	-40.13
215.877	-51.37
216.096	-7.66
216.316	5.46
216.535	-5.1
216.755	-9.72
216.974	-85.23
217.194	-159.75
217.413	-154.93
217.633	-154.17
217.852	-273.37
218.072	-110.75
218.291	-43.16
218.511	-6.99
218.73	-35
218.95	-12.84
219.169	-24.22
219.389	-72.3
219.608	-55.89
219.827	-48.72
220.047	-52.17
220.266	-34.15
220.485	-28.17
220.705	-13.96
220.924	-25.89
221.143	9.09
221.363	-17.5
221.582	0.21
221.801	-17.08
222.021	5.69
222.24	-79.09
222.459	-15.36
222.678	-25.59
222.897	-86.27
223.117	-115.37
223.336	-78.68
223.555	-65.94
223.774	-34.12
223.993	17.19
224.213	55.37
224.432	39.51
224.651	46.99
224.87	27.15
225.089	36.32
225.308	19.49
225.527	32.45
225.746	36.42
225.965	12.72
226.184	-17.6
226.404	7.49
226.623	-11.81
226.842	-17.7
227.061	19.27
227.28	21.53
227.499	11.84
227.718	23.06
227.936	13.67
228.155	13.94
228.374	2.02
228.593	-1.14
228.812	-25.67
229.031	-19.17
229.25	-69.75
229.469	-60.36
229.688	-45.32
229.907	5.08
230.125	13.43
230.344	32.45
230.563	25.84
230.782	28.45
231.001	-49.32
231.22	-39.13
231.438	-17.29
231.657	-6.72
231.876	-21.42
232.095	22.69
232.313	33.34
232.532	-8.9
232.751	-39.9
232.969	-40.44
233.188	-131.09
233.407	-64.45
233.625	-29.83
233.844	-50.64
234.063	-39.26
234.281	-2.01
234.5	-18.91
234.719	-10.55
234.937	6.78
235.156	18.86
235.374	8.85
235.593	-9.79
235.811	-12.48
236.03	-16.49
236.249	-78.07
236.467	-63.18
236.686	-19.3
236.904	-12.44
237.123	-41.72
237.341	-32.63
237.559	-20
237.778	-39.16
237.996	-82.14
238.215	-23.06
238.433	8.65
238.652	7.78
238.87	-7.56
239.088	14.18
239.307	9.92
239.525	-20.28
239.743	-55.3
239.962	-41.06
240.18	-36.22
240.398	-80
240.617	-70.36
240.835	-44.58
241.053	-31.1
241.271	6.41
241.49	29.64
241.708	-14.22
241.926	-26.86
242.144	-18.32
242.363	-101.46
242.581	-133.52
242.799	-51.6
243.017	-14.39
243.235	-41.6
243.453	-14.98
243.672	-12.09
243.89	-18.87
244.108	-39.02
244.326	-4.48
244.544	2.21
244.762	1.68
244.98	5.19
245.198	16.66
245.416	-33.45
245.634	-41.85
245.852	-60.42
246.07	-77.09
246.288	-89.31
246.506	-118.17
246.724	-103.21
246.942	-88.11
247.16	-39.49
247.378	-36.42
247.596	20.69
247.814	21.88
248.032	10.13
248.25	11.55
248.468	11.39
248.685	15.51
248.903	40.62
249.121	33.66
249.339	4.03
249.557	2.64
249.775	1.59
249.992	-84.89
250.21	-68.68
250.428	-41.14
250.646	-81.52
250.863	-100.44
251.081	-55.84
251.299	-55.6
251.517	-57.29
251.734	-13.91
251.952	-10.62
252.17	-14.13
252.387	-4.2
252.605	-9.68
252.823	-7.83
253.04	5.88
253.258	30.85
253.475	26.3
253.693	41.98
253.911	36.48
254.128	35.36
254.346	31.65
254.563	22.08
254.781	-4.74
254.998	-19.27
255.216	-20.9
255.433	-22.47
255.651	10.41
255.868	34.2
256.086	67.62
256.303	37.79
256.521	17.51
256.738	-7.03
256.956	-32.43
257.173	-57.89
257.39	-60.33
257.608	-62.52
257.825	-27.69
258.043	1.98
258.26	2.32
258.477	41.99
258.695	39.06
258.912	3.52
259.129	11.7
259.346	-19.8
259.564	-65.85
259.781	-70.02
259.998	-8.56
260.216	5.8
260.433	44.99
260.65	40.99
260.867	46.21
261.084	-0.37
261.302	-34.42
261.519	-69.31
261.736	-76.77
261.953	-98.63
262.17	-27.45
262.387	-55.18
262.604	-52.44
262.822	-64.14
263.039	-44.3
263.256	-80.51
263.473	-19.78
263.69	-11.71
263.907	31.69
264.124	46.79
264.341	38.15
264.558	18.16
264.775	20.02
264.992	3.31
265.209	1.56
265.426	19.63
265.643	22.58
265.86	44.68
266.077	38.52
266.294	25.92
266.51	-33.3
266.727	-56.51
266.944	-83.34
267.161	-70.45
267.378	-68.75
267.595	-22.61
267.812	-38.29
268.028	-60.53
268.245	-35.88
268.462	-55.84
268.679	-53.83
268.896	18.53
269.112	29.04
269.329	15.66
269.546	24.2
269.763	18.9
269.979	-14.46
270.196	-21.95
270.413	-53.53
270.629	-81.44
270.846	-100.02
271.063	-88.94
271.279	-102.95
271.496	-91.46
271.712	-49.57
271.929	-26.43
272.146	-28.68
272.362	-22.3
272.579	18.53
272.795	27.16
273.012	33.19
273.228	24.74
273.445	-6.77
273.661	-21.17
273.878	-68.23
274.094	-68.85
274.311	-92.21
274.527	-5.35
274.744	-2.43
274.96	7.61
275.177	10.61
275.393	42.33
275.609	26.51
275.826	36.09
276.042	36.36
276.259	27.32
276.475	20.5
276.691	23.94
276.908	6.76
277.124	11.92
277.34	16.8
277.557	6.34
277.773	-6.92
277.989	-11.43
278.205	-5.22
278.422	-7.28
278.638	4.25
278.854	28.48
279.07	38.28
279.286	20.95
279.503	3.96
279.719	-26.55
279.935	-60.08
280.151	-86.56
280.367	-44.12
280.583	-37.59
280.799	-26.5
281.016	-38.95
281.232	-17.69
281.448	-6.02
281.664	11.91
281.88	-5.54
282.096	6.19
282.312	45.46
282.528	37.28
282.744	15.03
282.96	13.78
283.176	1.72
283.392	-14.14
283.608	-27.16
283.824	-22.94
284.04	-8.83
284.256	17.9
284.471	8.34
284.687	6.14
284.903	30.56
285.119	56.24
285.335	24.31
285.551	18.88
285.767	0.88
285.982	-32.97
286.198	-110.25
286.414	-40.79
286.63	-12.61
286.846	30.82
287.061	11.64
287.277	44.58
287.493	16.35
287.709	28.14
287.924	-12.32
288.14	30.99
288.356	34.99
288.571	44.26
288.787	22.78
289.003	28.93
289.218	6.99
289.434	-36.72
289.65	-34.88
289.865	-33.78
290.081	-7.04
290.296	2.2
290.512	18.32
290.727	-16.73
290.943	-24.15
291.159	-39.55
291.374	-32.74
291.59	-55.3
291.805	-31.9
292.021	-31.84
292.236	-34.68
292.451	-27.97
292.667	-13.85
292.882	-1.39
293.098	-9.15
293.313	-14.8
293.529	-18.37
293.744	-25.78
293.959	-39.41
294.175	-19.01
294.39	9.63
294.605	22.34
294.821	48.3
295.036	48.38
295.251	36.27
295.467	-2.33
295.682	-32.81
295.897	-96.65
296.112	-103.32
296.328	-78.8
296.543	-72.86
296.758	-50.8
296.973	-5.23
297.188	32.18
297.404	4.88
297.619	-4.27
297.834	-23.8
298.049	-47.37
298.264	-67.86
298.479	-11.4
298.694	-0.52
298.909	19.44
299.125	21.24
299.34	5.35
299.555	-34.13
299.77	-26.66
299.985	-71.3
300.2	-130.47
300.415	-128.27
300.63	-82.42
300.845	-88.2
301.06	-88.92
301.275	-42.17
301.49	-21.99
301.704	-33.53
301.919	-47.67
302.134	-58.72
302.349	-55.31
302.564	-119.66
302.779	-133.04
302.994	-100.51
303.209	-28.36
303.423	2.85
303.638	48.27
303.853	6.03
304.068	3.94
304.283	-6.41
304.497	-8.56
304.712	-19.8
304.927	1.78
305.142	-14.14
305.356	-2.9
305.571	-8.86
305.786	-30.21
306	-50.37
306.215	-49.65
306.43	-70.02
306.644	-69.82
306.859	-10.06
307.074	-3.89
307.288	-26.18
307.503	-36.45
307.717	-45.33
307.932	-53.89
308.147	-56.38
308.361	-36.44
308.576	-35.79
308.79	-87.09
309.005	-72.3
309.219	-49.43
309.434	-59.79
309.648	-59.18
309.863	-32.52
310.077	-34.66
310.292	-43.58
310.506	-22.77
310.72	-5.83
310.935	22.2
311.149	8.77
311.364	20.65
311.578	27.59
311.792	9.96
312.007	7.26
312.221	-8.72
312.435	-5.23
312.649	-26.34
312.864	5.72
313.078	13.16
313.292	97.41
313.507	73.15
313.721	125.47
313.935	55.49
314.149	47.59
314.363	13.84
314.578	11.8
314.792	14.35
315.006	-6.15
315.22	9.05
315.434	20.78
315.648	23.37
315.862	19.61
316.077	21.67
316.291	-1.79
316.505	0.79
316.719	-12.92
316.933	-40.41
317.147	-31.21
317.361	-90.33
317.575	-114.11
317.789	-143.76
318.003	-196.72
318.217	-161.69
318.431	-50.11
318.645	-3.44
318.859	7.15
319.073	24.2
319.287	15.78
319.5	-28.68
319.714	-64.47
319.928	-96.6
320.142	-134.85
320.356	-89.35
320.57	-28.53
320.784	-60.54
320.997	-70.4
321.211	-28.22
321.425	-86.23
321.639	-119.2
321.853	-39.43
322.066	-21.3
322.28	-33.26
322.494	-17.87
322.707	18.61
322.921	-0.13
323.135	-0.12
323.349	6.29
323.562	-10.2
323.776	-45.23
323.989	-41.57
324.203	-61.58
324.417	-55.56
324.63	-78.08
324.844	-64.99
325.057	-78.24
325.271	-53.67
325.485	-25.19
325.698	-4.04
325.912	10.01
326.125	-4.58
326.339	-8.74
326.552	-18.02
326.766	-6.21
326.979	19.02
327.193	58.88
327.406	53.02
327.619	32.51
327.833	37.65
328.046	7.45
328.26	-46.47
328.473	-13.52
328.686	-33.81
328.9	-7.1
329.113	-8.76
329.326	-19.06
329.54	-18.49
329.753	-17.72
329.966	-77.1
330.179	-52.15
330.393	-19.46
330.606	-21.42
330.819	-1.69
331.032	23.28
331.246	28.51
331.459	56.47
331.672	48.25
331.885	37.52
332.098	5.36
332.311	-11.75
332.525	-72.08
332.738	-34.78
332.951	-7.58
333.164	12.86
333.377	18.78
333.59	32.31
333.803	14.69
334.016	6.75
334.229	-0.14
334.442	11.32
334.655	28.28
334.868	42.79
335.081	35.81
335.294	31.83
335.507	12.75
335.72	-10.16
335.933	-28.47
336.146	-33.62
336.359	-31.17
336.572	-58.12
336.785	-83.69
336.997	-66.79
337.21	-33.56
337.423	-31.51
337.636	-6.64
337.849	20.92
338.062	19.68
338.274	1.27
338.487	-10.84
338.7	-16.06
338.913	-66.44
339.125	-91.61
339.338	-114.82
339.551	-100.59
339.763	-61.69
339.976	-23.84
340.189	-10.34
340.402	-15.9
340.614	-21.9
340.827	-41.04
341.039	-58.37
341.252	-39.68
341.465	-9.68
341.677	-10.48
341.89	-39.39
342.102	-15.59
342.315	-39.42
342.527	-79.48
342.74	-80.41
342.952	-15.35
343.165	-22.27
343.377	4.85
343.59	-3.79
343.802	18.15
344.015	0.48
344.227	2.4
344.44	-3.57
344.652	2
344.864	-20.34
345.077	8.4
345.289	21.74
345.502	24.06
345.714	14.34
345.926	24.29
346.139	11.85
346.351	16.09
346.563	19.52
346.775	34.79
346.988	25.08
347.2	13.32
347.412	-43.82
347.624	-72.39
347.837	-104.53
348.049	-68.4
348.261	-28.25
348.473	-9.46
348.685	-4
348.897	-8.69
349.11	-32.17
349.322	-74.42
349.534	-63.29
349.746	-43.74
349.958	-24.41
350.17	-22.79
350.382	8.35
350.594	11.32
350.806	6.2
351.018	12.7
351.23	7.72
351.442	-44.64
351.654	-39.75
351.866	-36.84
352.078	-28.3
352.29	-9.92
352.502	13.14
352.714	19.5
352.926	14.87
353.138	8.73
353.35	-8
353.561	-13.58
353.773	-46.08
353.985	-36.7
354.197	-57.27
354.409	-57.75
354.621	-53.02
354.832	-28.68
355.044	-28.65
355.256	-17.08
355.468	-1.93
355.679	-5.66
355.891	-2.28
356.103	-34.62
356.314	-24.63
356.526	-22.98
356.738	-29.21
356.949	-36.58
357.161	-23.42
357.373	-27.67
357.584	-38.17
357.796	-14.89
358.008	-6.21
358.219	22.07
358.431	15.81
358.642	19.47
358.854	4.97
359.065	-20.54
359.277	-51.78
359.488	-62.14
359.7	-78.82
359.911	-91.35
360.123	-55.98
360.334	-58.65
360.546	-71.46
360.757	-78.39
360.969	-53.12
361.18	-56.04
361.391	-35.62
361.603	-40.37
361.814	-21.25
362.025	-29.99
362.237	-26.55
362.448	-21.68
362.659	12.97
362.871	19.52
363.082	15.43
363.293	6.25
363.504	-14.32
363.716	-37.6
363.927	-61.87
364.138	-75.68
364.349	-75.74
364.56	-58.09
364.772	-56.94
364.983	-24.56
365.194	-16.13
365.405	3.62
365.616	21.43
365.827	18.47
366.038	-9.2
366.25	-6.3
366.461	-45.08
366.672	-30.18
366.883	-6.25
367.094	3.66
367.305	-5.53
367.516	0.61
367.727	-26.79
367.938	-41.55
368.149	-42.1
368.36	-21.82
368.571	-10.88
368.781	-17.1
368.992	-27.48
369.203	-45.27
369.414	-80.91
369.625	-89.97
369.836	-80.56
370.047	-92.53
370.258	-66.05
370.468	-59.52
370.679	-90.54
370.89	-83.83
371.101	-62.75
371.312	-75.96
371.522	-72.78
371.733	-41.63
371.944	-23
372.155	-15.17
372.365	-18.73
372.576	-19.69
372.787	-19.14
372.997	-50.06
373.208	-57.38
373.419	-20.54
373.629	-40.13
373.84	-50.15
374.05	-62.37
374.261	-34.1
374.472	-55.27
374.682	-1.85
374.893	10.48
375.103	56.09
375.314	36.99
375.524	36.26
375.735	32.12
375.945	36.56
376.156	4.79
376.366	10.91
376.577	7.79
376.787	-10.08
376.997	-12.55
377.208	-11.87
377.418	-29.54
377.629	-13.69
377.839	-14.76
378.049	-19.82
378.26	-2.25
378.47	14.46
378.68	2.93
378.89	1.37
379.101	-0.85
379.311	-37.15
379.521	-70.91
379.732	-67.98
379.942	-62.58
380.152	-79.76
380.362	-38.76
380.572	-30.54
380.783	-17.9
380.993	-1.85
381.203	7.25
381.413	17.31
381.623	18.24
381.833	12.3
382.043	-3.84
382.253	-8.84
382.463	-11.34
382.674	-14.74
382.884	-31.74
383.094	-26.64
383.304	-17.16
383.514	-16.12
383.724	-5.64
383.934	-4.98
384.144	-13.84
384.353	-17.36
384.563	-20.78
384.773	-17.81
384.983	-18.92
385.193	-1.53
385.403	3.48
385.613	3.13
385.823	-11.37
386.033	-8.61
386.242	-19.99
386.452	-29.7
386.662	-37.66
386.872	-15
387.082	-14.71
387.291	-16.11
387.501	-7.15
387.711	3.09
387.921	-8.51
388.13	-9.36
388.34	1.8
388.55	-5.96
388.759	-6.55
388.969	-2.42
389.179	-5.28
389.388	-7.42
389.598	-2.24
389.807	-8.9
390.017	-13.43
390.227	-13.2
390.436	-15.16
390.646	-13.87
390.855	-8.97
391.065	-7.63
391.274	-8.4
391.484	-9.76
391.693	-7.2
391.903	-6.55
392.112	-1.32
392.322	3.93
392.531	7.42
392.74	7.6
392.95	5.29
393.159	2.55
393.369	1.95
393.578	0.88
393.787	-0.42
393.997	-0.22
394.206	-1.15
394.415	-0.87
394.625	-1.87
394.834	-3.3
395.043	-1.17
395.252	1.94
395.462	4.73
395.671	6.51
395.88	7.98
396.089	8.52
396.298	5.94
396.508	4.88
396.717	4.7
396.926	4.92
397.135	4.39
397.344	4.98
397.553	5.42
397.762	6.56
397.971	6.85
398.181	7.2
398.39	6.51
398.599	5.99
398.808	5.57
399.017	6.03
399.226	7.13
399.435	8.83
399.644	8.59
399.853	7.92
400.062	7.61
400.27	6.79
400.479	5.87
400.688	5.3
400.897	5.97
401.106	6.04
401.315	5.95
401.524	6.3
401.733	6.9
401.941	7.09
402.15	7.1
402.359	6.87
402.568	7.01
402.777	7.31
402.985	7.03
403.194	6.78
403.403	6.94
403.612	6.51
403.82	6.09
404.029	6.35
404.238	6.36
404.446	6.62
404.655	6.36
404.864	6.51
405.072	6.14
405.281	6.31
405.489	5.96
405.698	6.19
405.906	6.08
406.115	6.23
406.324	6.04
406.532	6.18
406.741	6.47
406.949	6.43
407.158	6.33
407.366	6.48
407.574	6.32
407.783	6.15
407.991	6.24
408.2	6.47
408.408	6.27
408.617	6.19
408.825	5.92
409.033	5.9
409.242	5.83
409.45	5.96
409.658	6.09
409.867	6.23
410.075	6.02
410.283	5.75
410.491	5.71
410.7	5.59
410.908	5.7
411.116	6.02
411.324	6.05
411.533	5.99
411.741	6.14
411.949	6.28
412.157	6.04
412.365	6.19
412.573	6.29
412.781	6.37
412.99	6.14
413.198	6.26
413.406	6.22
413.614	6.06
413.822	5.89
414.03	5.82
414.238	5.54
414.446	5.6
414.654	5.53
414.862	5.53
415.07	5.61
415.278	5.85
415.486	5.62
415.694	5.77
415.902	5.71
416.109	5.58
416.317	5.57
416.525	5.37
416.733	5.26
416.941	5.42
417.149	5.38
417.357	5.37
417.564	5.86
417.772	6.07
417.98	6.02
418.188	5.99
418.395	5.95
418.603	5.71
418.811	5.29
419.019	5.09
419.226	5.33
419.434	5.47
419.642	5.23
419.849	5.45
420.057	5.41
420.265	5.37
420.472	5.09
420.68	5.36
420.887	5.25
421.095	5.42
421.302	5.34
421.51	5.52
421.717	5.55
421.925	5.7
422.132	5.61
422.34	5.29
422.547	5.27
422.755	5.09
422.962	4.87
423.17	4.72
423.377	4.99
423.585	4.93
423.792	4.92
423.999	5.03
424.207	5.16
424.414	5.36
424.621	5.29
424.829	5.3
425.036	5.28
425.243	5.28
425.451	5.07
425.658	4.92
425.865	4.96
426.072	4.92
426.28	5.23
426.487	5.24
426.694	5.36
426.901	5.38
427.108	5.5
427.315	5.25
427.523	5.53
427.73	5.5
427.937	5.37
428.144	5.16
428.351	5.02
428.558	4.96
428.765	4.88
428.972	4.87
429.179	5.12
429.386	5.56
429.593	5.23
429.8	5.21
430.007	5.41
430.214	5.5
430.421	5.19
430.628	5.18
430.835	5.11
431.042	5.32
431.249	5.37
431.456	5.45
431.662	5.72
431.869	6.01
432.076	5.97
432.283	6.05
432.49	6.05
432.697	6.06
432.903	5.93
433.11	5.88
433.317	5.88
433.524	6.03
433.73	5.84
433.937	6.02
434.144	5.94
434.35	5.82
434.557	5.7
434.764	5.73
434.97	5.68
435.177	5.87
435.384	5.75
435.59	5.8
435.797	6.07
436.003	6.07
436.21	5.98
436.416	6.23
436.623	6.22
436.829	6.22
437.036	6.33
437.242	6.36
437.449	6.21
437.655	6.32
437.862	6.35
438.068	6.26
438.275	6.35
438.481	6.64
438.687	6.58
438.894	6.45
439.1	6.52
439.307	6.67
439.513	6.5
439.719	6.48
439.926	6.65
440.132	6.74
440.338	6.57
440.544	6.7
440.751	6.69
440.957	6.7
441.163	6.58
441.369	6.66
441.575	6.51
441.782	6.54
441.988	6.44
442.194	6.41
442.4	6.37
442.606	6.62
442.812	6.73
443.018	6.82
443.224	6.93
443.431	7.07
443.637	6.84
443.843	6.74
444.049	6.79
444.255	6.68
444.461	6.66
444.667	6.64
444.873	6.77
445.079	6.67
445.284	6.88
445.49	6.64
445.696	6.63
445.902	6.55
446.108	6.5
446.314	6.4
446.52	6.53
446.726	6.75
446.931	6.8
447.137	6.91
447.343	6.98
447.549	6.92
447.755	6.74
447.96	6.74
448.166	6.66
448.372	6.65
448.578	6.75
448.783	6.88
448.989	7.01
449.195	7.23
449.4	7.19
449.606	7.13
449.812	6.94
450.017	6.95
450.223	6.79
450.428	6.76
450.634	6.99
450.84	7.23
451.045	7.12
451.251	7.04
451.456	7.32
451.662	7.34
451.867	7.4
452.073	7.46
452.278	7.64
452.483	7.66
452.689	7.49
452.894	7.47
453.1	7.35
453.305	7.24
453.51	7.09
453.716	7.08
453.921	7.02
454.127	7.07
454.332	7.05
454.537	6.99
454.742	7.01
454.948	6.95
455.153	6.93
455.358	7.06
455.563	7.2
455.769	7.38
455.974	7.43
456.179	7.42
456.384	7.41
456.589	7.32
456.795	7.09
457	7.1
457.205	7.25
457.41	7.18
457.615	7.13
457.82	7.23
458.025	7.2
458.23	6.98
458.435	7.06
458.64	7.05
458.845	7.13
459.05	7.13
459.255	7.22
459.46	7.19
459.665	7.15
459.87	7.2
