Data from Ofra_2a_PS_1GT37_Reflection_1.txt Node
Date: Tue Jul 20 09:33:50 EDT 2021
User: Adam
Spectrometer: FLMT01687
Trigger mode: 0
Integration Time (sec): 9.450000E-1
Scans to average: 3
Electric dark correction enabled: true
Nonlinearity correction enabled: false
Boxcar width: 3
XAxis mode: Wavelengths
Number of Pixels in Spectrum: 3648
>>>>>Begin Spectral Data<<<<<
179.494	869.23
179.716	618.31
179.937	641.76
180.158	1953.13
180.38	-919.77
180.601	-23.05
180.823	75.89
181.044	148.61
181.265	158.37
181.486	31.07
181.708	-1691.3
181.929	-90.23
182.15	-1265.91
182.372	247.65
182.593	296.58
182.814	-114.37
183.035	40.08
183.257	11.44
183.478	30.9
183.699	42.01
183.92	38.97
184.141	48.06
184.363	28.29
184.584	22.95
184.805	31.78
185.026	26.95
185.247	5.75
185.468	6.67
185.689	12.37
185.91	15.86
186.132	23.49
186.353	5.58
186.574	1.63
186.795	-6.39
187.016	0.39
187.237	-12.1
187.458	-17.03
187.679	-44.17
187.9	-2.17
188.121	8.53
188.342	32.78
188.563	36.71
188.784	38.95
189.005	49.19
189.226	48.92
189.447	30.81
189.667	20.07
189.888	27.04
190.109	18.47
190.33	24.02
190.551	13.46
190.772	9.81
190.993	18.58
191.214	21.99
191.434	9.94
191.655	17.3
191.876	19.67
192.097	23.76
192.318	37.47
192.538	36.59
192.759	37.03
192.98	32.82
193.201	52.4
193.421	51.75
193.642	49.89
193.863	32.38
194.083	28.1
194.304	18.25
194.525	31.65
194.745	12.31
194.966	14.83
195.187	20.97
195.407	28.97
195.628	27.04
195.848	30.42
196.069	23.46
196.29	12.94
196.51	-1.95
196.731	-0.5
196.951	-3.68
197.172	-6.02
197.392	17.39
197.613	16.8
197.833	13.82
198.054	13.94
198.274	5.16
198.495	9.79
198.715	5.94
198.936	-18.5
199.156	9.33
199.377	17.21
199.597	29.46
199.817	33.3
200.038	36.41
200.258	44.25
200.479	57.57
200.699	43.56
200.919	36.52
201.14	40.91
201.36	40.27
201.58	26.13
201.801	19.43
202.021	18.44
202.241	12.44
202.461	20
202.682	9.55
202.902	22.28
203.122	33.41
203.342	51.11
203.563	46.85
203.783	54.11
204.003	56.88
204.223	63.82
204.443	49.83
204.663	47.96
204.884	31.59
205.104	44.25
205.324	49.61
205.544	40.95
205.764	35.25
205.984	34.21
206.204	24.15
206.424	36.81
206.644	18.69
206.864	14.02
207.084	18.26
207.304	14.38
207.525	12.29
207.745	8.21
207.964	-4.55
208.184	-4.91
208.404	1.51
208.624	-4.87
208.844	-9.05
209.064	1.7
209.284	18.05
209.504	8.34
209.724	9.98
209.944	10.73
210.164	5.53
210.384	13.96
210.604	7.49
210.823	-5.84
211.043	-3.39
211.263	12.13
211.483	12.39
211.703	20.18
211.922	15.89
212.142	26.56
212.362	28.95
212.582	36.3
212.801	26.53
213.021	26.05
213.241	18.76
213.461	28.92
213.68	24.03
213.9	21.47
214.12	1.98
214.339	15.17
214.559	16
214.779	27.95
214.998	22.7
215.218	17.4
215.438	30.77
215.657	40.99
215.877	36.9
216.096	37.4
216.316	23.4
216.535	25.55
216.755	13.31
216.974	7.25
217.194	8.68
217.413	24.7
217.633	12.47
217.852	12.1
218.072	1.74
218.291	30.77
218.511	24.72
218.73	22.07
218.95	4.52
219.169	4.1
219.389	5.33
219.608	7.51
219.827	-8.66
220.047	-6.1
220.266	5.01
220.485	17.98
220.705	18.33
220.924	30.56
221.143	35.09
221.363	28.24
221.582	16.17
221.801	15.62
222.021	4.18
222.24	1.27
222.459	-4.85
222.678	-9.78
222.897	-8.86
223.117	1.22
223.336	4.15
223.555	-1.82
223.774	12.98
223.993	32.05
224.213	25.54
224.432	37.86
224.651	39.46
224.87	33.96
225.089	44.45
225.308	37.79
225.527	19.13
225.746	31.74
225.965	30.12
226.184	30.32
226.404	30.41
226.623	43.78
226.842	34.33
227.061	41.33
227.28	47.13
227.499	50.22
227.718	42.72
227.936	27.35
228.155	19.28
228.374	23.65
228.593	18.67
228.812	8.34
229.031	-2.97
229.25	7.55
229.469	25.88
229.688	33.4
229.907	29.63
230.125	34.53
230.344	39.23
230.563	37.64
230.782	29.75
231.001	38
231.22	32.45
231.438	38.3
231.657	29.22
231.876	19.8
232.095	15.32
232.313	24.19
232.532	22.94
232.751	28.42
232.969	25.99
233.188	30.85
233.407	43.24
233.625	47.83
233.844	42.12
234.063	42.6
234.281	32.81
234.5	39.87
234.719	37.66
234.937	33.29
235.156	32.17
235.374	33.51
235.593	18.9
235.811	15.95
236.03	-12.82
236.249	-1.56
236.467	-1.86
236.686	-1.39
236.904	-2.14
237.123	17.09
237.341	21.98
237.559	34.63
237.778	37.12
237.996	43.64
238.215	40.6
238.433	39.07
238.652	31.9
238.87	31.83
239.088	23.13
239.307	19.73
239.525	14.33
239.743	6.34
239.962	6.96
240.18	16.78
240.398	22.2
240.617	36.43
240.835	44.56
241.053	51.8
241.271	58.8
241.49	48.53
241.708	37.34
241.926	21.6
242.144	12.5
242.363	6.02
242.581	5.72
242.799	-14.01
243.017	2.49
243.235	4.35
243.453	18.72
243.672	10.94
243.89	17.8
244.108	14.68
244.326	25.09
244.544	21.27
244.762	10.1
244.98	4.34
245.198	5.37
245.416	-8.36
245.634	-2.66
245.852	-6.79
246.07	2.49
246.288	6.76
246.506	18.35
246.724	32.6
246.942	38.25
247.16	23.31
247.378	26.91
247.596	25.07
247.814	22.87
248.032	11.99
248.25	-15.71
248.468	-15.1
248.685	-6.75
248.903	-2.6
249.121	-12.3
249.339	-0.45
249.557	10.33
249.775	11.75
249.992	16.83
250.21	2.29
250.428	6.61
250.646	13.41
250.863	11.81
251.081	-7.09
251.299	12.09
251.517	13.36
251.734	28.78
251.952	18.21
252.17	-4.76
252.387	-6.08
252.605	6.89
252.823	-6.82
253.04	-6.58
253.258	-0.84
253.475	4.42
253.693	19.88
253.911	10.43
254.128	9.19
254.346	13.69
254.563	3.38
254.781	2.42
254.998	9.88
255.216	9.88
255.433	23.38
255.651	27.02
255.868	26.25
256.086	36.12
256.303	36.52
256.521	18.24
256.738	16.24
256.956	-6.83
257.173	-3.63
257.39	-5.6
257.608	-1.85
257.825	-7.03
258.043	10.94
258.26	12.03
258.477	27.63
258.695	26.92
258.912	43.61
259.129	39.91
259.346	50.08
259.564	42.85
259.781	46.87
259.998	46.91
260.216	46.52
260.433	30.13
260.65	38.04
260.867	18.38
261.084	25.61
261.302	19.8
261.519	8.36
261.736	2.28
261.953	14.31
262.17	5.96
262.387	18.19
262.604	11.87
262.822	7.71
263.039	9.37
263.256	13.47
263.473	11.73
263.69	11.48
263.907	8.99
264.124	5.23
264.341	-1.33
264.558	5.36
264.775	12.73
264.992	10.99
265.209	20.24
265.426	24.26
265.643	28.79
265.86	33.34
266.077	35.98
266.294	25.98
266.51	24.31
266.727	12.3
266.944	-40.44
267.161	-42.5
267.378	-49.86
267.595	-50.15
267.812	-54.47
268.028	-47.22
268.245	-34.4
268.462	5.04
268.679	4.12
268.896	3.81
269.112	14.14
269.329	28.32
269.546	27.4
269.763	30.69
269.979	30.21
270.196	33.48
270.413	35.85
270.629	28.47
270.846	31.2
271.063	30.82
271.279	22.9
271.496	20.17
271.712	11.54
271.929	14.66
272.146	14.01
272.362	-7.35
272.579	-6.57
272.795	-1.53
273.012	-1.95
273.228	1.71
273.445	5.51
273.661	3.29
273.878	18.02
274.094	18.78
274.311	21.42
274.527	15.27
274.744	14.05
274.96	13.83
275.177	21.08
275.393	18.97
275.609	20.27
275.826	22.66
276.042	40.9
276.259	44.35
276.475	28.67
276.691	33.83
276.908	34.56
277.124	40.5
277.34	33.06
277.557	35.56
277.773	29.56
277.989	34.61
278.205	23.11
278.422	22.78
278.638	23.45
278.854	16.15
279.07	3.33
279.286	7.6
279.503	15.62
279.719	21.89
279.935	15.97
280.151	13.88
280.367	24.39
280.583	26.47
280.799	28.9
281.016	24.31
281.232	15.48
281.448	4.41
281.664	-1.63
281.88	-2.3
282.096	9.21
282.312	7.99
282.528	5.78
282.744	19.03
282.96	30.61
283.176	33.69
283.392	52.43
283.608	50.43
283.824	42.72
284.04	39.87
284.256	37.35
284.471	31.9
284.687	30.84
284.903	20.62
285.119	5.06
285.335	9.07
285.551	15.19
285.767	16.98
285.982	25.13
286.198	20.59
286.414	25.34
286.63	28.86
286.846	29.75
287.061	26.14
287.277	24.5
287.493	25.77
287.709	27.84
287.924	22.4
288.14	28.88
288.356	28.89
288.571	18.23
288.787	10.98
289.003	15.58
289.218	8.57
289.434	12.35
289.65	17.94
289.865	22.27
290.081	23.57
290.296	28.29
290.512	29.63
290.727	37.05
290.943	28.46
291.159	17.16
291.374	10.39
291.59	7.55
291.805	4.45
292.021	-13.97
292.236	-9.79
292.451	-1.88
292.667	8.86
292.882	9.05
293.098	17.61
293.313	14.97
293.529	17.31
293.744	22.53
293.959	25.34
294.175	13.24
294.39	12.23
294.605	16.77
294.821	21.76
295.036	28.78
295.251	27.69
295.467	15.02
295.682	25.81
295.897	24.18
296.112	19.47
296.328	13.42
296.543	6.08
296.758	1.35
296.973	12.96
297.188	9.74
297.404	23.33
297.619	32.83
297.834	43.55
298.049	52.05
298.264	44.47
298.479	31.19
298.694	36.63
298.909	33.02
299.125	25.8
299.34	22.82
299.555	23.32
299.77	24.15
299.985	29.88
300.2	19.75
300.415	17.21
300.63	14.98
300.845	14.45
301.06	11.2
301.275	20.36
301.49	20.87
301.704	22.95
301.919	22.9
302.134	23.73
302.349	17.15
302.564	12.6
302.779	10.8
302.994	11.97
303.209	15.86
303.423	14.18
303.638	14.39
303.853	21.26
304.068	22.19
304.283	13.37
304.497	9.53
304.712	10.95
304.927	10.31
305.142	6.79
305.356	11
305.571	13.95
305.786	15.85
306	15.3
306.215	16.52
306.43	25.4
306.644	31.5
306.859	30.59
307.074	29.29
307.288	24.23
307.503	30.6
307.717	25.62
307.932	23.34
308.147	21.24
308.361	21.53
308.576	17.58
308.79	18.71
309.005	10.03
309.219	11.09
309.434	8.68
309.648	7.02
309.863	2.19
310.077	6.93
310.292	14.29
310.506	42.28
310.72	51.46
310.935	47.33
311.149	42
311.364	45.15
311.578	44.25
311.792	44.1
312.007	26.97
312.221	31.62
312.435	34.69
312.649	8.45
312.864	4.04
313.078	17.51
313.292	21.64
313.507	27
313.721	3.79
313.935	27.34
314.149	58.03
314.363	62.2
314.578	57.88
314.792	57.46
315.006	55.79
315.22	67.46
315.434	43.87
315.648	36.15
315.862	31.08
316.077	32.78
316.291	31.56
316.505	26.58
316.719	8.09
316.933	19.62
317.147	25.59
317.361	28.85
317.575	25.11
317.789	23.28
318.003	34.47
318.217	37.15
318.431	39.79
318.645	35.56
318.859	28.06
319.073	23.21
319.287	22.32
319.5	18.98
319.714	23.15
319.928	18.86
320.142	17.81
320.356	33.79
320.57	37.19
320.784	40.67
320.997	44.51
321.211	39.51
321.425	32.58
321.639	32.44
321.853	17.54
322.066	11.79
322.28	8.23
322.494	-1.05
322.707	-0.86
322.921	2.74
323.135	3.73
323.349	12.58
323.562	18.25
323.776	12.87
323.989	16.23
324.203	19.87
324.417	19.82
324.63	12.74
324.844	-3.8
325.057	-7.43
325.271	-10.9
325.485	-10.61
325.698	-15.48
325.912	-6.35
326.125	-6.85
326.339	7.27
326.552	9.78
326.766	16.66
326.979	16.41
327.193	19.01
327.406	3.45
327.619	-5.33
327.833	-0.92
328.046	-0.31
328.26	-8.68
328.473	-8.92
328.686	-8.07
328.9	-8.14
329.113	3.67
329.326	-1.9
329.54	-4.29
329.753	1.99
329.966	-1.64
330.179	3.36
330.393	8.82
330.606	13.65
330.819	19.28
331.032	22.07
331.246	24.85
331.459	29.49
331.672	25.12
331.885	25.1
332.098	25.27
332.311	11.17
332.525	16.95
332.738	13.77
332.951	15.8
333.164	8.17
333.377	0.64
333.59	2.84
333.803	16.08
334.016	3.62
334.229	4.87
334.442	7.16
334.655	14.99
334.868	36.25
335.081	36.93
335.294	19.61
335.507	28.68
335.72	25.81
335.933	24.83
336.146	31
336.359	16.26
336.572	7.89
336.785	21.73
336.997	8.32
337.21	7.9
337.423	10.55
337.636	9.63
337.849	11.07
338.062	19.53
338.274	15.54
338.487	22.91
338.7	29.96
338.913	22.21
339.125	21.91
339.338	29.01
339.551	20.75
339.763	18.49
339.976	19.65
340.189	14.93
340.402	17.56
340.614	18.97
340.827	6.84
341.039	14.04
341.252	26.58
341.465	22.5
341.677	16.45
341.89	20.53
342.102	24.05
342.315	31.12
342.527	30.48
342.74	13.73
342.952	22.04
343.165	34.42
343.377	34.62
343.59	25.97
343.802	31.44
344.015	28.76
344.227	31.8
344.44	27.18
344.652	24.93
344.864	32.99
345.077	32.23
345.289	30.93
345.502	35.65
345.714	27.38
345.926	27.64
346.139	21.56
346.351	3.14
346.563	15.31
346.775	1.87
346.988	0.43
347.2	11.94
347.412	10.8
347.624	12.05
347.837	18.12
348.049	15.5
348.261	18.2
348.473	11.3
348.685	6.34
348.897	3.43
349.11	-2.04
349.322	-10.06
349.534	-18.63
349.746	-15.72
349.958	-6.99
350.17	-8.32
350.382	-10.75
350.594	-1.31
350.806	7.23
351.018	10.3
351.23	17.53
351.442	12.61
351.654	16.25
351.866	23.92
352.078	17.79
352.29	10.17
352.502	8.2
352.714	3.49
352.926	4.51
353.138	2.16
353.35	-9.81
353.561	-9.49
353.773	-1.69
353.985	7.54
354.197	3.48
354.409	2.47
354.621	4.85
354.832	10.74
355.044	22.94
355.256	20.57
355.468	12.82
355.679	19.87
355.891	25.75
356.103	25.12
356.314	24.45
356.526	15.51
356.738	8.63
356.949	8.53
357.161	4.78
357.373	4.28
357.584	10.71
357.796	9.16
358.008	11.55
358.219	23.61
358.431	26.12
358.642	22.03
358.854	19.96
359.065	18.6
359.277	17.84
359.488	21.87
359.7	16.68
359.911	16.98
360.123	24.06
360.334	20.33
360.546	15.18
360.757	21.4
360.969	27.08
361.18	19.83
361.391	17.84
361.603	14.14
361.814	14.27
362.025	18.39
362.237	18.08
362.448	12.81
362.659	9.25
362.871	10.41
363.082	12.01
363.293	14.86
363.504	15.72
363.716	17.91
363.927	14.86
364.138	25.57
364.349	33.09
364.56	34.19
364.772	35
364.983	25.56
365.194	18.18
365.405	13.69
365.616	0.1
365.827	-8.8
366.038	1.81
366.25	4.03
366.461	18.79
366.672	18.19
366.883	31.09
367.094	36.88
367.305	36.09
367.516	32.34
367.727	27.19
367.938	23.75
368.149	24.27
368.36	19.58
368.571	24.85
368.781	16.52
368.992	12.3
369.203	17.44
369.414	10.11
369.625	6.98
369.836	10.15
370.047	10.63
370.258	14.46
370.468	12.63
370.679	5.73
370.89	16.9
371.101	16.97
371.312	4.58
371.522	-3.66
371.733	-4.45
371.944	1.29
372.155	-4.54
372.365	-13.85
372.576	-8.86
372.787	0.2
372.997	6.09
373.208	8.53
373.419	4.47
373.629	16.25
373.84	18.12
374.05	23.04
374.261	18.98
374.472	16.48
374.682	12.44
374.893	10.59
375.103	13.32
375.314	11.56
375.524	8.3
375.735	11.96
375.945	14.43
376.156	17.39
376.366	19.02
376.577	12.45
376.787	20.35
376.997	20.65
377.208	20.7
377.418	14.67
377.629	17.41
377.839	22.82
378.049	29.76
378.26	23.25
378.47	23.9
378.68	23.82
378.89	24.89
379.101	16.05
379.311	5.27
379.521	1.35
379.732	-4.97
379.942	-5.45
380.152	-2.85
380.362	-0.14
380.572	9.47
380.783	14.85
380.993	18.08
381.203	24.7
381.413	26.07
381.623	25.3
381.833	22.87
382.043	16.94
382.253	17.45
382.463	15.5
382.674	10.06
382.884	3.25
383.094	-0.08
383.304	1.34
383.514	3.83
383.724	1.57
383.934	-1.05
384.144	6.17
384.353	8.52
384.563	7.09
384.773	5.39
384.983	7.41
385.193	9.83
385.403	10.82
385.613	5.33
385.823	8.46
386.033	9.45
386.242	8.31
386.452	4.31
386.662	6.47
386.872	2.33
387.082	6.12
387.291	2.98
387.501	4.55
387.711	7
387.921	7.39
388.13	5.5
388.34	8.15
388.55	7.3
388.759	6.78
388.969	4.09
389.179	6.57
389.388	6.34
389.598	4.32
389.807	4.22
390.017	2.5
390.227	2.54
390.436	3.62
390.646	2.51
390.855	3.92
391.065	5.11
391.274	5.17
391.484	5.81
391.693	7.78
391.903	8.14
392.112	8
392.322	9.72
392.531	10.84
392.74	9.29
392.95	9.46
393.159	9.15
393.369	9.4
393.578	7.68
393.787	5.91
393.997	5.69
394.206	6.58
394.415	6.73
394.625	6.04
394.834	4.97
395.043	5.77
395.252	6.94
395.462	6.05
395.671	6.16
395.88	6.26
396.089	5.74
396.298	5.8
396.508	5.68
396.717	4.88
396.926	5.09
397.135	4.25
397.344	4.09
397.553	4.47
397.762	4.46
397.971	4.85
398.181	4.63
398.39	4.76
398.599	5.39
398.808	5.41
399.017	5.43
399.226	5.9
399.435	5.93
399.644	6.11
399.853	6.1
400.062	5.85
400.27	5.71
400.479	5.66
400.688	5.42
400.897	5.35
401.106	5.37
401.315	5.15
401.524	5.37
401.733	5.49
401.941	5.62
402.15	5.37
402.359	5.26
402.568	5.2
402.777	5.32
402.985	5.14
403.194	5.12
403.403	4.83
403.612	5.02
403.82	5.03
404.029	4.94
404.238	4.86
404.446	4.89
404.655	4.71
404.864	4.67
405.072	4.65
405.281	4.58
405.489	4.65
405.698	4.65
405.906	4.63
406.115	4.71
406.324	4.7
406.532	4.77
406.741	4.86
406.949	4.77
407.158	4.82
407.366	4.84
407.574	4.88
407.783	4.9
407.991	4.74
408.2	4.58
408.408	4.61
408.617	4.56
408.825	4.5
409.033	4.39
409.242	4.39
409.45	4.42
409.658	4.47
409.867	4.46
410.075	4.38
410.283	4.31
410.491	4.33
410.7	4.35
410.908	4.4
411.116	4.37
411.324	4.37
411.533	4.38
411.741	4.44
411.949	4.46
412.157	4.44
412.365	4.42
412.573	4.42
412.781	4.42
412.99	4.51
413.198	4.56
413.406	4.51
413.614	4.52
413.822	4.48
414.03	4.47
414.238	4.44
414.446	4.32
414.654	4.3
414.862	4.27
415.07	4.3
415.278	4.21
415.486	4.28
415.694	4.2
415.902	4.18
416.109	4.19
416.317	4.21
416.525	4.16
416.733	4.21
416.941	4.04
417.149	4.15
417.357	4.27
417.564	4.15
417.772	4.14
417.98	4.14
418.188	4
418.395	4.06
418.603	3.96
418.811	3.8
419.019	3.8
419.226	3.88
419.434	3.77
419.642	3.88
419.849	3.93
420.057	3.93
420.265	4.04
420.472	4.05
420.68	3.97
420.887	4.05
421.095	4.09
421.302	4.11
421.51	4.17
421.717	4.16
421.925	4.12
422.132	4.01
422.34	3.98
422.547	3.85
422.755	3.83
422.962	3.79
423.17	3.72
423.377	3.82
423.585	3.91
423.792	3.9
423.999	3.97
424.207	3.85
424.414	3.91
424.621	3.93
424.829	3.9
425.036	3.8
425.243	3.92
425.451	3.95
425.658	4.06
425.865	3.92
426.072	3.9
426.28	3.85
426.487	3.96
426.694	3.89
426.901	3.75
427.108	3.74
427.315	3.74
427.523	3.76
427.73	3.81
427.937	3.79
428.144	3.86
428.351	4.07
428.558	4.07
428.765	4.07
428.972	4.07
429.179	4
429.386	4.03
429.593	3.94
429.8	3.9
430.007	3.96
430.214	4.02
430.421	4.02
430.628	3.99
430.835	3.95
431.042	4
431.249	3.99
431.456	3.95
431.662	3.96
431.869	4
432.076	4.05
432.283	4.04
432.49	3.94
432.697	3.95
432.903	3.95
433.11	3.99
433.317	4.02
433.524	3.99
433.73	4.1
433.937	4.15
434.144	4.22
434.35	4.23
434.557	4.19
434.764	4.17
434.97	4.28
435.177	4.23
435.384	4.36
435.59	4.29
435.797	4.3
436.003	4.35
436.21	4.31
436.416	4.23
436.623	4.31
436.829	4.23
437.036	4.3
437.242	4.3
437.449	4.32
437.655	4.41
437.862	4.44
438.068	4.44
438.275	4.42
438.481	4.45
438.687	4.5
438.894	4.46
439.1	4.45
439.307	4.47
439.513	4.41
439.719	4.51
439.926	4.52
440.132	4.51
440.338	4.52
440.544	4.5
440.751	4.53
440.957	4.51
441.163	4.54
441.369	4.46
441.575	4.45
441.782	4.48
441.988	4.5
442.194	4.56
442.4	4.66
442.606	4.67
442.812	4.71
443.018	4.75
443.224	4.79
443.431	4.81
443.637	4.78
443.843	4.78
444.049	4.7
444.255	4.73
444.461	4.73
444.667	4.73
444.873	4.75
445.079	4.74
445.284	4.74
445.49	4.76
445.696	4.77
445.902	4.75
446.108	4.7
446.314	4.74
446.52	4.77
446.726	4.75
446.931	4.76
447.137	4.78
447.343	4.78
447.549	4.78
447.755	4.72
447.96	4.71
448.166	4.75
448.372	4.75
448.578	4.77
448.783	4.78
448.989	4.85
449.195	4.9
449.4	4.88
449.606	4.82
449.812	4.85
450.017	4.81
450.223	4.83
450.428	4.8
450.634	4.8
450.84	4.79
451.045	4.82
451.251	4.86
451.456	4.85
451.662	4.83
451.867	4.89
452.073	4.86
452.278	4.88
452.483	4.91
452.689	4.9
452.894	4.92
453.1	4.93
453.305	4.85
453.51	4.93
453.716	4.94
453.921	4.96
454.127	4.92
454.332	4.88
454.537	4.93
454.742	4.97
454.948	4.92
455.153	4.94
455.358	4.93
455.563	4.94
455.769	4.95
455.974	4.93
456.179	4.88
456.384	4.89
456.589	4.93
456.795	4.9
457	4.95
457.205	4.96
457.41	4.99
457.615	5.09
457.82	5.17
458.025	5.12
458.23	5.16
458.435	5.13
458.64	5.2
458.845	5.16
459.05	5.09
459.255	4.97
459.46	4.99
459.665	5.03
459.87	5.05
460.075	5.03
460.28	5.05
460.485	5.13
460.69	5.16
460.895	5.22
461.099	5.2
461.304	5.2
461.509	5.15
461.714	5.16
461.919	5.09
462.123	5.12
462.328	5.08
462.533	5.1
462.738	5.1
462.942	5.21
463.147	5.18
463.352	5.28
463.556	5.35
463.761	5.4
463.966	5.4
464.17	5.45
464.375	5.36
464.58	5.35
464.784	5.35
464.989	5.31
465.193	5.29
465.398	5.32
465.602	5.31
465.807	5.37
466.011	5.41
466.216	5.39
466.42	5.5
466.625	5.48
466.829	5.51
467.034	5.56
467.238	5.59
467.443	5.63
467.647	5.63
467.851	5.56
468.056	5.58
468.26	5.57
468.464	5.57
468.669	5.6
468.873	5.61
469.077	5.65
469.282	5.71
469.486	5.75
469.69	5.76
469.894	5.81
470.099	5.77
470.303	5.77
470.507	5.82
