Data from Ofra_2a_PS_OGT1K_Reflection_1.txt Node
Date: Tue Jul 20 09:28:18 EDT 2021
User: Adam
Spectrometer: FLMT01687
Trigger mode: 0
Integration Time (sec): 9.450000E-1
Scans to average: 3
Electric dark correction enabled: true
Nonlinearity correction enabled: false
Boxcar width: 3
XAxis mode: Wavelengths
Number of Pixels in Spectrum: 3648
>>>>>Begin Spectral Data<<<<<
179.494	337.28
179.716	110.92
179.937	202.2
180.158	642.19
180.38	-432.56
180.601	-107.06
180.823	-9.86
181.044	40.64
181.265	21.53
181.486	105.84
181.708	1369.57
181.929	336.28
182.15	1438.64
182.372	-74.73
182.593	-57.53
182.814	321.56
183.035	211.98
183.257	109.09
183.478	42.02
183.699	82.77
183.92	73.52
184.141	65.22
184.363	56.2
184.584	35.38
184.805	40.06
185.026	40.43
185.247	13.4
185.468	30.73
185.689	42.84
185.91	38.75
186.132	63.37
186.353	53.36
186.574	48.21
186.795	25.84
187.016	25.01
187.237	16.23
187.458	-2.6
187.679	-17.1
187.9	-9.1
188.121	3.66
188.342	43.21
188.563	44.62
188.784	50.1
189.005	58.89
189.226	66.35
189.447	63.44
189.667	64.89
189.888	70.3
190.109	71.79
190.33	73.22
190.551	65.99
190.772	37.46
190.993	51.4
191.214	48.4
191.434	34.52
191.655	26.16
191.876	27.73
192.097	29.33
192.318	40.57
192.538	22.44
192.759	27.68
192.98	30.22
193.201	37.17
193.421	37.69
193.642	33.06
193.863	25.17
194.083	30.86
194.304	26.07
194.525	26.74
194.745	14.02
194.966	18.36
195.187	26.49
195.407	21.9
195.628	22.43
195.848	20.77
196.069	16.06
196.29	5.11
196.51	4.56
196.731	6.51
196.951	24.75
197.172	29.87
197.392	31.69
197.613	37.23
197.833	47.82
198.054	34.99
198.274	20.83
198.495	17.16
198.715	8.31
198.936	-6.6
199.156	-5.47
199.377	4.71
199.597	15.38
199.817	28.84
200.038	25.84
200.258	40.97
200.479	43.02
200.699	50.42
200.919	44.51
201.14	41
201.36	50.02
201.58	50.83
201.801	41.64
202.021	42.36
202.241	38.96
202.461	35.18
202.682	37.38
202.902	35.74
203.122	28.55
203.342	39.05
203.563	39.46
203.783	39.46
204.003	48.86
204.223	51.26
204.443	44.44
204.663	47.37
204.884	33.28
205.104	39.93
205.324	57.66
205.544	52.9
205.764	44.95
205.984	46.06
206.204	56.53
206.424	52.59
206.644	46.23
206.864	36.26
207.084	43.64
207.304	44.28
207.525	44.56
207.745	44.04
207.964	55.73
208.184	49.49
208.404	36.07
208.624	15.6
208.844	19.13
209.064	25.73
209.284	25.93
209.504	17.42
209.724	-13.39
209.944	1.75
210.164	12.25
210.384	13.65
210.604	12.62
210.823	15.27
211.043	23.94
211.263	48.98
211.483	42.52
211.703	51.19
211.922	55.47
212.142	65.46
212.362	62.05
212.582	66.54
212.801	66.62
213.021	72.82
213.241	77.86
213.461	63.85
213.68	46.6
213.9	54.78
214.12	41.93
214.339	44.2
214.559	45.26
214.779	40.23
214.998	34.9
215.218	39
215.438	49.09
215.657	54.55
215.877	55.97
216.096	53.2
216.316	56.87
216.535	60.55
216.755	45.74
216.974	35.83
217.194	35.32
217.413	40.64
217.633	41.41
217.852	46.43
218.072	41.28
218.291	51.67
218.511	42.82
218.73	43.38
218.95	40.1
219.169	37.93
219.389	34.56
219.608	42.74
219.827	32.86
220.047	34.8
220.266	29.01
220.485	22.83
220.705	27.58
220.924	20.91
221.143	26.01
221.363	24.45
221.582	32.18
221.801	28.52
222.021	35.49
222.24	26.19
222.459	22.92
222.678	15.76
222.897	23.44
223.117	6.95
223.336	19.76
223.555	14.29
223.774	23.31
223.993	39.57
224.213	34.21
224.432	40.39
224.651	45.31
224.87	27.52
225.089	37.19
225.308	34.98
225.527	24.81
225.746	31.82
225.965	16.35
226.184	20.59
226.404	23.65
226.623	8.12
226.842	-1.11
227.061	1.98
227.28	7.99
227.499	30.99
227.718	27.1
227.936	22.77
228.155	32
228.374	46.21
228.593	48.47
228.812	41.66
229.031	36.95
229.25	52.7
229.469	70.93
229.688	67.11
229.907	61.43
230.125	47.73
230.344	49.07
230.563	47.86
230.782	38.04
231.001	32.18
231.22	23.94
231.438	29.56
231.657	32.39
231.876	31.17
232.095	32.99
232.313	41.81
232.532	43.98
232.751	53.06
232.969	40.33
233.188	47.5
233.407	41.39
233.625	43.17
233.844	39.94
234.063	42.29
234.281	31.44
234.5	37.86
234.719	37.95
234.937	43.44
235.156	37.3
235.374	31.02
235.593	25.59
235.811	32.3
236.03	23.01
236.249	22.35
236.467	21.57
236.686	37.43
236.904	37.36
237.123	39.74
237.341	45.37
237.559	58.51
237.778	63.12
237.996	70.3
238.215	54.79
238.433	55.29
238.652	55.56
238.87	45.97
239.088	43.36
239.307	36.86
239.525	29.9
239.743	30.84
239.962	28.89
240.18	32.31
240.398	41.09
240.617	38.83
240.835	41.08
241.053	45.44
241.271	46.36
241.49	37.11
241.708	30.65
241.926	22.13
242.144	20.68
242.363	22.24
242.581	23.3
242.799	24.7
243.017	32.02
243.235	23.01
243.453	21.38
243.672	24.13
243.89	19.09
244.108	26.41
244.326	20.31
244.544	28.24
244.762	25.85
244.98	25.11
245.198	17.96
245.416	21.7
245.634	21.52
245.852	38.35
246.07	28.29
246.288	39.88
246.506	46.93
246.724	49.69
246.942	51.28
247.16	36.65
247.378	15.43
247.596	15.94
247.814	17.94
248.032	17.69
248.25	12.35
248.468	16
248.685	28.08
248.903	31.66
249.121	39.91
249.339	35.32
249.557	39.67
249.775	32.48
249.992	23.87
250.21	8.18
250.428	8.54
250.646	8.03
250.863	10.4
251.081	10.58
251.299	29.98
251.517	46.29
251.734	55.52
251.952	59.33
252.17	55.67
252.387	60.64
252.605	53.39
252.823	30.19
253.04	18.86
253.258	31.37
253.475	38.35
253.693	35.15
253.911	21.72
254.128	20.09
254.346	28.46
254.563	23.99
254.781	12.24
254.998	13.6
255.216	20
255.433	24.21
255.651	24.74
255.868	36.14
256.086	47.08
256.303	60.4
256.521	50.6
256.738	42.78
256.956	46.08
257.173	47.43
257.39	39.17
257.608	29.93
257.825	29.36
258.043	39.66
258.26	40.34
258.477	33.7
258.695	37.33
258.912	46
259.129	50.43
259.346	41.88
259.564	32.87
259.781	40.76
259.998	40.7
260.216	36.09
260.433	25.94
260.65	38.38
260.867	39.18
261.084	35.72
261.302	17.8
261.519	20.87
261.736	25.68
261.953	31.56
262.17	15.15
262.387	13.98
262.604	5.8
262.822	16.91
263.039	16.23
263.256	12.37
263.473	0.88
263.69	4.75
263.907	4.57
264.124	8.7
264.341	26.62
264.558	25.17
264.775	24.56
264.992	26.14
265.209	30.73
265.426	35.6
265.643	44.9
265.86	30.64
266.077	38.75
266.294	41.36
266.51	50.42
266.727	40.77
266.944	39.17
267.161	38.73
267.378	38.78
267.595	22.47
267.812	14.8
268.028	15.93
268.245	26.61
268.462	36.41
268.679	28.54
268.896	28.44
269.112	47.92
269.329	58.49
269.546	54.49
269.763	62.04
269.979	53.59
270.196	57.55
270.413	57.94
270.629	47.79
270.846	37.33
271.063	33.96
271.279	22.17
271.496	16.42
271.712	7.73
271.929	19.14
272.146	17.85
272.362	19.12
272.579	18.04
272.795	16.36
273.012	18.77
273.228	18.93
273.445	15.79
273.661	14.89
273.878	27.54
274.094	31
274.311	35.99
274.527	29.36
274.744	29.21
274.96	21.25
275.177	29.85
275.393	15.43
275.609	23.22
275.826	18.2
276.042	24.17
276.259	33.8
276.475	40.16
276.691	30.81
276.908	32.67
277.124	23.43
277.34	22.8
277.557	23.46
277.773	16.89
277.989	15.23
278.205	8.11
278.422	19.6
278.638	25.11
278.854	23.64
279.07	21.62
279.286	30.45
279.503	31.53
279.719	48.5
279.935	24.81
280.151	28.67
280.367	32.6
280.583	32.22
280.799	27.34
281.016	28.52
281.232	12.01
281.448	20.63
281.664	12.17
281.88	24.71
282.096	30.03
282.312	17.59
282.528	6.65
282.744	13.33
282.96	25.21
283.176	35.21
283.392	36.46
283.608	34.3
283.824	42.59
284.04	41.14
284.256	46.57
284.471	40.36
284.687	41.16
284.903	35.42
285.119	32.89
285.335	28.79
285.551	41.63
285.767	39.18
285.982	42.75
286.198	38.75
286.414	37.48
286.63	38.35
286.846	41.64
287.061	37.44
287.277	38.5
287.493	35.01
287.709	31.46
287.924	35.97
288.14	37.32
288.356	35.63
288.571	37.55
288.787	31.95
289.003	33.66
289.218	29.53
289.434	20.79
289.65	20.04
289.865	33.84
290.081	31.52
290.296	33.27
290.512	40.01
290.727	51.29
290.943	49.31
291.159	48.8
291.374	49.72
291.59	48.78
291.805	49.62
292.021	40.1
292.236	32.39
292.451	40.09
292.667	47.72
292.882	34.53
293.098	31.1
293.313	29.62
293.529	29.8
293.744	27.94
293.959	26.93
294.175	22.11
294.39	36.68
294.605	42.12
294.821	41.61
295.036	43.27
295.251	49.43
295.467	37
295.682	36.71
295.897	30.67
296.112	27.75
296.328	30.81
296.543	34.1
296.758	24.1
296.973	35.88
297.188	35.31
297.404	36.92
297.619	35.41
297.834	33.94
298.049	29.59
298.264	31.95
298.479	19.85
298.694	16.78
298.909	16.22
299.125	26.1
299.34	30.17
299.555	32.38
299.77	36.43
299.985	47.48
300.2	52.6
300.415	47.08
300.63	39.13
300.845	41
301.06	33.18
301.275	34.24
301.49	38.31
301.704	34.87
301.919	25.88
302.134	22.68
302.349	12.03
302.564	15.86
302.779	5.97
302.994	-6.06
303.209	-12.53
303.423	6.58
303.638	8.33
303.853	17.29
304.068	20.04
304.283	26.41
304.497	32.58
304.712	33.99
304.927	27.21
305.142	30.62
305.356	29.57
305.571	32.88
305.786	28.78
306	25.87
306.215	30.96
306.43	38.8
306.644	35.7
306.859	33.29
307.074	30.15
307.288	39.72
307.503	34.35
307.717	27.96
307.932	30.54
308.147	27.84
308.361	28.75
308.576	27.81
308.79	17.59
309.005	26.39
309.219	35.65
309.434	25.2
309.648	26.43
309.863	31.32
310.077	32.5
310.292	40.46
310.506	43.31
310.72	33.04
310.935	41.8
311.149	43.07
311.364	45.54
311.578	46.65
311.792	38.35
312.007	37.29
312.221	34.52
312.435	31.2
312.649	44.5
312.864	27.41
313.078	33.06
313.292	40.12
313.507	31.54
313.721	29.1
313.935	40.27
314.149	25.6
314.363	32.94
314.578	35.79
314.792	44.79
315.006	42.94
315.22	51.25
315.434	35.97
315.648	35.95
315.862	34.88
316.077	29.41
316.291	18.28
316.505	24.46
316.719	14.11
316.933	29.47
317.147	30.06
317.361	26.86
317.575	30.42
317.789	31.18
318.003	33.14
318.217	31.31
318.431	32.18
318.645	37.48
318.859	35.41
319.073	33.11
319.287	36.24
319.5	29.29
319.714	34.75
319.928	35.77
320.142	26.33
320.356	37.11
320.57	35.95
320.784	40.24
320.997	42.12
321.211	44.28
321.425	36.46
321.639	43.77
321.853	39.24
322.066	34.44
322.28	34.67
322.494	33.1
322.707	29.13
322.921	35.31
323.135	29.64
323.349	30.24
323.562	36.46
323.776	31.28
323.989	31.13
324.203	34.05
324.417	19.29
324.63	17.48
324.844	6.65
325.057	10.42
325.271	3.86
325.485	14.74
325.698	8.02
325.912	20.92
326.125	26.98
326.339	39.52
326.552	41.02
326.766	41.02
326.979	35.1
327.193	33.96
327.406	29.75
327.619	23.84
327.833	16.51
328.046	4.88
328.26	9.27
328.473	16.87
328.686	24.94
328.9	27.31
329.113	29.54
329.326	27.86
329.54	33.63
329.753	32.5
329.966	28.66
330.179	26.23
330.393	27.74
330.606	29.82
330.819	36.75
331.032	36.93
331.246	37.6
331.459	38.34
331.672	38.56
331.885	39.58
332.098	38.6
332.311	29.81
332.525	25.99
332.738	29.36
332.951	23.7
333.164	21.8
333.377	12.65
333.59	16.04
333.803	25.74
334.016	24.46
334.229	15.63
334.442	22.67
334.655	31.57
334.868	44.32
335.081	47.28
335.294	34.22
335.507	47.4
335.72	46.63
335.933	46.3
336.146	32.92
336.359	29.17
336.572	26.68
336.785	36.45
336.997	25.91
337.21	32.08
337.423	33
337.636	44.67
337.849	33.22
338.062	32.73
338.274	35.31
338.487	32.28
338.7	26.49
338.913	23.81
339.125	19.06
339.338	33.86
339.551	30.68
339.763	22.85
339.976	24.27
340.189	22.21
340.402	25.72
340.614	25.26
340.827	15.66
341.039	15.54
341.252	23.67
341.465	27.92
341.677	28.11
341.89	25.99
342.102	33.53
342.315	50.95
342.527	53.98
342.74	48.84
342.952	43.59
343.165	54.45
343.377	55.18
343.59	44.22
343.802	37.42
344.015	45.96
344.227	37.57
344.44	40.98
344.652	27.21
344.864	27.49
345.077	23.11
345.289	13.66
345.502	11.1
345.714	17.46
345.926	13.1
346.139	22.1
346.351	18.67
346.563	35.83
346.775	35.01
346.988	23.05
347.2	27.37
347.412	25.57
347.624	23.61
347.837	25.09
348.049	18.25
348.261	18.01
348.473	15.89
348.685	9.92
348.897	4.44
349.11	8.81
349.322	9.69
349.534	4.6
349.746	10.33
349.958	18.2
350.17	17.58
350.382	19.81
350.594	16.2
350.806	7.28
351.018	17.02
351.23	15.25
351.442	18.45
351.654	27.69
351.866	33.04
352.078	31.94
352.29	40.8
352.502	38.08
352.714	43.43
352.926	35.85
353.138	33.2
353.35	24.33
353.561	20.08
353.773	15.64
353.985	23.67
354.197	17.61
354.409	20.9
354.621	17.11
354.832	22.41
355.044	32.97
355.256	33.32
355.468	25.14
355.679	29.91
355.891	31.06
356.103	28.54
356.314	23.34
356.526	14.22
356.738	7.32
356.949	9.02
357.161	6.01
357.373	3.1
357.584	20.85
357.796	19.84
358.008	28.56
358.219	33.15
358.431	34.94
358.642	30.59
358.854	28.39
359.065	15.97
359.277	14.58
359.488	6.21
359.7	13.69
359.911	10.34
360.123	16.2
360.334	18.68
360.546	16.55
360.757	29.56
360.969	40.29
361.18	35.99
361.391	30.46
361.603	30.27
361.814	30.05
362.025	31.84
362.237	27.73
362.448	28.44
362.659	21.5
362.871	29.66
363.082	31.22
363.293	27.8
363.504	26.37
363.716	23.53
363.927	21.08
364.138	27.8
364.349	32.52
364.56	32.53
364.772	38.52
364.983	37.21
365.194	43.63
365.405	43.01
365.616	43.25
365.827	40.98
366.038	45.77
366.25	41.56
366.461	43.94
366.672	40.01
366.883	40.71
367.094	43.01
367.305	34.23
367.516	24.97
367.727	22.68
367.938	26.66
368.149	27.51
368.36	22.15
368.571	23.5
368.781	24.45
368.992	29.47
369.203	33.59
369.414	27.54
369.625	24.57
369.836	27.94
370.047	24.47
370.258	31.22
370.468	30.29
370.679	30.16
370.89	35.09
371.101	34.72
371.312	31.12
371.522	35.9
371.733	26.24
371.944	23.14
372.155	17.37
372.365	11.56
372.576	8.94
372.787	11.13
372.997	7.43
373.208	17.44
373.419	21.96
373.629	30.78
373.84	30.31
374.05	35.91
374.261	27.52
374.472	27.6
374.682	22.46
374.893	9.74
375.103	9.5
375.314	11.54
375.524	10.16
375.735	12.57
375.945	19.85
376.156	23.09
376.366	32.76
376.577	30.38
376.787	31.67
376.997	35.47
377.208	42.23
377.418	33.5
377.629	31.61
377.839	35.02
378.049	34.18
378.26	33.78
378.47	33.22
378.68	28.9
378.89	30.88
379.101	23.32
379.311	18.89
379.521	22.82
379.732	15.74
379.942	15.47
380.152	20.08
380.362	23.03
380.572	34.08
380.783	31.7
380.993	26.42
381.203	32.75
381.413	35.33
381.623	33.01
381.833	28.58
382.043	22.24
382.253	25.63
382.463	31.76
382.674	32.5
382.884	24.62
383.094	20.29
383.304	18.81
383.514	20.85
383.724	19.32
383.934	15.81
384.144	16.3
384.353	20.3
384.563	18.67
384.773	18.02
384.983	18.29
385.193	18.14
385.403	18.37
385.613	11.36
385.823	8.58
386.033	14.33
386.242	11.69
386.452	11.71
386.662	10.46
386.872	8.21
387.082	13.42
387.291	13.55
387.501	11.87
387.711	15.06
387.921	11.5
388.13	11.35
388.34	11.91
388.55	12.47
388.759	12.95
388.969	8.82
389.179	10.41
389.388	11
389.598	9.73
389.807	9.34
390.017	8.03
390.227	7.98
390.436	10.66
390.646	10.26
390.855	10.47
391.065	10.8
391.274	10.08
391.484	10.89
391.693	10.78
391.903	9.92
392.112	8.56
392.322	10.86
392.531	10.13
392.74	9.46
392.95	8.4
393.159	8.82
393.369	9.11
393.578	8.99
393.787	6.99
393.997	7.62
394.206	7.72
394.415	7.52
394.625	5.79
394.834	4.97
395.043	6.09
395.252	7.04
395.462	6.86
395.671	6.79
395.88	7.01
396.089	7.51
396.298	7.82
396.508	6.88
396.717	6.13
396.926	5.74
397.135	5.1
397.344	4.82
397.553	5.28
397.762	5.29
397.971	5.24
398.181	5.03
398.39	4.94
398.599	5.43
398.808	5.65
399.017	5.69
399.226	5.73
399.435	5.77
399.644	5.83
399.853	5.96
400.062	5.88
400.27	5.89
400.479	5.67
400.688	5.7
400.897	5.93
401.106	6.02
401.315	6.04
401.524	6.11
401.733	6.25
401.941	6.1
402.15	5.77
402.359	5.77
402.568	5.68
402.777	5.59
402.985	5.53
403.194	5.29
403.403	5.14
403.612	5.33
403.82	5.23
404.029	5.11
404.238	5.21
404.446	5.15
404.655	5.04
404.864	5.13
405.072	5.21
405.281	5.1
405.489	5.27
405.698	5.18
405.906	5.21
406.115	5.42
406.324	5.44
406.532	5.27
406.741	5.29
406.949	5.14
407.158	5.15
407.366	5.15
407.574	5.05
407.783	5.02
407.991	5.03
408.2	4.89
408.408	4.93
408.617	4.91
408.825	4.9
409.033	4.9
409.242	4.83
409.45	4.8
409.658	4.85
409.867	4.88
410.075	4.86
410.283	4.78
410.491	4.69
410.7	4.75
410.908	4.74
411.116	4.69
411.324	4.66
411.533	4.58
411.741	4.64
411.949	4.71
412.157	4.76
412.365	4.78
412.573	4.8
412.781	4.83
412.99	4.89
413.198	4.87
413.406	4.77
413.614	4.74
413.822	4.76
414.03	4.77
414.238	4.79
414.446	4.73
414.654	4.75
414.862	4.79
415.07	4.74
415.278	4.64
415.486	4.73
415.694	4.63
415.902	4.59
416.109	4.59
416.317	4.57
416.525	4.65
416.733	4.74
416.941	4.62
417.149	4.68
417.357	4.77
417.564	4.59
417.772	4.56
417.98	4.42
418.188	4.24
418.395	4.26
418.603	4.18
418.811	4.07
419.019	4.24
419.226	4.31
419.434	4.29
419.642	4.41
419.849	4.39
420.057	4.4
420.265	4.47
420.472	4.36
420.68	4.29
420.887	4.41
421.095	4.38
421.302	4.42
421.51	4.46
421.717	4.42
421.925	4.43
422.132	4.33
422.34	4.22
422.547	4.12
422.755	3.95
422.962	3.83
423.17	3.83
423.377	3.85
423.585	3.94
423.792	3.89
423.999	3.97
424.207	3.99
424.414	4.15
424.621	4.15
424.829	4.14
425.036	4.12
425.243	4.19
425.451	4.27
425.658	4.42
425.865	4.3
426.072	4.37
426.28	4.32
426.487	4.27
426.694	4.18
426.901	4.03
427.108	3.97
427.315	3.94
427.523	3.89
427.73	4
427.937	4.07
428.144	4.15
428.351	4.31
428.558	4.24
428.765	4.23
428.972	4.2
429.179	4.07
429.386	4.07
429.593	4
429.8	4
430.007	4.11
430.214	4.22
430.421	4.27
430.628	4.2
430.835	4.25
431.042	4.27
431.249	4.22
431.456	4.22
431.662	4.16
431.869	4.2
432.076	4.36
432.283	4.3
432.49	4.31
432.697	4.43
432.903	4.45
433.11	4.49
433.317	4.49
433.524	4.39
433.73	4.46
433.937	4.49
434.144	4.42
434.35	4.41
434.557	4.43
434.764	4.43
434.97	4.54
435.177	4.51
435.384	4.58
435.59	4.53
435.797	4.51
436.003	4.51
436.21	4.45
436.416	4.42
436.623	4.5
436.829	4.46
437.036	4.6
437.242	4.63
437.449	4.69
437.655	4.82
437.862	4.82
438.068	4.8
438.275	4.77
438.481	4.74
438.687	4.82
438.894	4.72
439.1	4.64
439.307	4.61
439.513	4.59
439.719	4.65
439.926	4.72
440.132	4.64
440.338	4.79
440.544	4.85
440.751	4.88
440.957	4.87
441.163	4.89
441.369	4.83
441.575	4.87
441.782	4.8
441.988	4.74
442.194	4.84
442.4	4.82
442.606	4.84
442.812	4.9
443.018	4.89
443.224	4.88
443.431	4.94
443.637	4.9
443.843	4.93
444.049	4.93
444.255	4.86
444.461	4.87
444.667	4.89
444.873	4.84
445.079	4.86
445.284	4.88
445.49	4.86
445.696	4.94
445.902	4.94
446.108	4.99
446.314	5.06
446.52	5.08
446.726	5.14
446.931	5.18
447.137	5.14
447.343	5.19
447.549	5.17
447.755	5.14
447.96	5.14
448.166	5.12
448.372	5.11
448.578	5.11
448.783	5.04
448.989	5.08
449.195	5.15
449.4	5.14
449.606	5.17
449.812	5.18
450.017	5.19
450.223	5.23
450.428	5.19
450.634	5.17
450.84	5.17
451.045	5.24
451.251	5.29
451.456	5.25
451.662	5.23
451.867	5.25
452.073	5.26
452.278	5.21
452.483	5.13
452.689	5.09
452.894	5.09
453.1	5.07
453.305	5.07
453.51	5.07
453.716	5.11
453.921	5.12
454.127	5.06
454.332	5.11
454.537	5.16
454.742	5.15
454.948	5.15
455.153	5.19
455.358	5.21
455.563	5.24
455.769	5.23
455.974	5.22
456.179	5.2
456.384	5.24
456.589	5.25
456.795	5.18
457	5.25
457.205	5.23
457.41	5.27
457.615	5.36
457.82	5.38
458.025	5.37
458.23	5.42
458.435	5.39
458.64	5.44
458.845	5.4
459.05	5.4
459.255	5.37
459.46	5.33
459.665	5.37
459.87	5.45
460.075	5.44
460.28	5.48
460.485	5.51
460.69	5.5
460.895	5.58
461.099	5.57
461.304	5.54
461.509	5.53
461.714	5.54
461.919	5.47
462.123	5.51
462.328	5.53
462.533	5.54
462.738	5.51
462.942	5.58
463.147	5.54
463.352	5.63
463.556	5.65
463.761	5.58
463.966	5.62
464.17	5.66
464.375	5.62
464.58	5.64
464.784	5.63
464.989	5.62
465.193	5.73
465.398	5.72
465.602	5.69
465.807	5.71
466.011	5.77
466.216	5.77
466.42	5.86
466.625	5.79
466.829	5.86
467.034	5.86
467.238	5.94
467.443	5.98
467.647	5.97
467.851	5.86
468.056	5.9
468.26	5.85
468.464	5.91
468.669	5.86
