Data from Ofra_1a_PS_2GT70_Reflection_2.txt Node
Date: Tue Jul 20 10:52:15 EDT 2021
User: Adam
Spectrometer: FLMT01687
Trigger mode: 0
Integration Time (sec): 1.004000E0
Scans to average: 2
Electric dark correction enabled: true
Nonlinearity correction enabled: false
Boxcar width: 2
XAxis mode: Wavelengths
Number of Pixels in Spectrum: 3648
>>>>>Begin Spectral Data<<<<<
179.494	-196.95
179.716	-314.5
179.937	789.3
180.158	-761.78
180.38	168.63
180.601	115.97
180.823	92.2
181.044	74.52
181.265	93.56
181.486	179.24
181.708	104.29
181.929	-13018.18
182.15	141.04
182.372	-143.84
182.593	313.09
182.814	-245.84
183.035	-72.41
183.257	0.14
183.478	-6.49
183.699	-26.07
183.92	-62.2
184.141	-71.95
184.363	-56.3
184.584	-77.84
184.805	-14.73
185.026	40.39
185.247	44.77
185.468	34.14
185.689	46.26
185.91	24.4
186.132	26.85
186.353	21.47
186.574	13.64
186.795	24.45
187.016	53.79
187.237	53.19
187.458	54.42
187.679	56.1
187.9	46.59
188.121	33.1
188.342	39.4
188.563	56.88
188.784	81.47
189.005	48.87
189.226	40.91
189.447	30.2
189.667	25.15
189.888	-6.46
190.109	7.62
190.33	25.96
190.551	27.95
190.772	16.4
190.993	-2.99
191.214	-18.03
191.434	-79.39
191.655	-153.21
191.876	-57.1
192.097	25.93
192.318	66.9
192.538	49.51
192.759	78.2
192.98	65.51
193.201	35.29
193.421	11.59
193.642	34.76
193.863	38.35
194.083	38.05
194.304	59
194.525	72.47
194.745	55.75
194.966	33.81
195.187	25.01
195.407	8.85
195.628	-4.77
195.848	-0.13
196.069	-0.65
196.29	9.93
196.51	-0.89
196.731	9.53
196.951	14.96
197.172	17.81
197.392	21.22
197.613	42.52
197.833	44.62
198.054	32.69
198.274	24.25
198.495	14.01
198.715	7.39
198.936	27.38
199.156	30.27
199.377	23.18
199.597	32.47
199.817	40.2
200.038	14.38
200.258	33.98
200.479	58.4
200.699	32.18
200.919	14.69
201.14	21.57
201.36	1.95
201.58	-13.83
201.801	24.24
202.021	36.32
202.241	20.87
202.461	39.68
202.682	47.74
202.902	41.36
203.122	38.1
203.342	44.17
203.563	1.69
203.783	-11.81
204.003	-40.71
204.223	-18.95
204.443	-19.29
204.663	-15.48
204.884	-14.5
205.104	-7.41
205.324	-8.17
205.544	-28.22
205.764	15.06
205.984	16.79
206.204	17.43
206.424	-4.11
206.644	-13.95
206.864	-51.28
207.084	-3.37
207.304	3.57
207.525	16.66
207.745	35.37
207.964	45.37
208.184	22.75
208.404	19.57
208.624	10.28
208.844	-19.43
209.064	-18.07
209.284	-22.47
209.504	-61.88
209.724	-71.38
209.944	-51.47
210.164	-34.15
210.384	-45.91
210.604	-50.63
210.823	-12.27
211.043	11.62
211.263	-77.19
211.483	-33.56
211.703	-10.91
211.922	-35.21
212.142	-40.14
212.362	6.7
212.582	10.94
212.801	37.7
213.021	26.5
213.241	-1.48
213.461	-3.43
213.68	9.2
213.9	-2.14
214.12	19.84
214.339	28.55
214.559	32.43
214.779	42.4
214.998	35.08
215.218	28.64
215.438	21.17
215.657	19.03
215.877	-3.43
216.096	13.67
216.316	5.32
216.535	5.37
216.755	11.01
216.974	5.05
217.194	-10.61
217.413	-3.61
217.633	-3.19
217.852	-4.03
218.072	2.96
218.291	7.96
218.511	6.41
218.73	4.34
218.95	-10.76
219.169	-18.4
219.389	-1.17
219.608	7.42
219.827	32.28
220.047	51.75
220.266	77.73
220.485	52.54
220.705	52.94
220.924	9.77
221.143	9.78
221.363	14.73
221.582	6.24
221.801	5.42
222.021	25.15
222.24	12.74
222.459	34.86
222.678	51.54
222.897	43.53
223.117	55.24
223.336	63.29
223.555	53.12
223.774	32.82
223.993	52.5
224.213	15.43
224.432	18.24
224.651	25.43
224.87	31.05
225.089	26.25
225.308	56.37
225.527	36.4
225.746	26.95
225.965	36.46
226.184	11.88
226.404	-10.97
226.623	3.7
226.842	9.49
227.061	10.8
227.28	31.11
227.499	34.2
227.718	28.67
227.936	20.02
228.155	25.86
228.374	28.17
228.593	26.19
228.812	37.02
229.031	42.27
229.25	17.72
229.469	9.25
229.688	14.86
229.907	19.73
230.125	21.09
230.344	22.27
230.563	29.21
230.782	35.83
231.001	31.13
231.22	16.18
231.438	18.85
231.657	27.67
231.876	5.65
232.095	12.41
232.313	25.1
232.532	19.85
232.751	-8.01
232.969	4.74
233.188	-3.81
233.407	-3.8
233.625	12.49
233.844	23.25
234.063	15.52
234.281	29.71
234.5	30.36
234.719	31.52
234.937	42.5
235.156	71.21
235.374	55.36
235.593	54.1
235.811	49.86
236.03	31.16
236.249	20.55
236.467	20.91
236.686	11.79
236.904	15.39
237.123	15.92
237.341	24.96
237.559	25.48
237.778	22.94
237.996	-6.9
238.215	-14.44
238.433	-43.22
238.652	0.91
238.87	14.95
239.088	29.52
239.307	24.31
239.525	10.87
239.743	4.98
239.962	-19.47
240.18	-12.07
240.398	-10.11
240.617	-0.86
240.835	-29.21
241.053	4.59
241.271	22.49
241.49	21.58
241.708	9.79
241.926	21.51
242.144	23.69
242.363	-2.65
242.581	-7.79
242.799	22.88
243.017	27.05
243.235	10.86
243.453	17.99
243.672	9.65
243.89	1.84
244.108	-7.69
244.326	17.41
244.544	32.61
244.762	33.84
244.98	37.37
245.198	44.78
245.416	33.12
245.634	20.18
245.852	10.43
246.07	16.24
246.288	10.09
246.506	20.89
246.724	24.32
246.942	34.65
247.16	29.28
247.378	54.97
247.596	81.33
247.814	88.7
248.032	71.04
248.25	92.14
248.468	59.4
248.685	43.8
248.903	49.5
249.121	49.09
249.339	43.85
249.557	49.38
249.775	49.56
249.992	34.03
250.21	28.6
250.428	31.15
250.646	19.48
250.863	12.3
251.081	21.75
251.299	33.27
251.517	28.36
251.734	38.97
251.952	38.58
252.17	39.53
252.387	41.41
252.605	34.6
252.823	31.85
253.04	64.59
253.258	47.04
253.475	37.28
253.693	38.92
253.911	40.48
254.128	13.99
254.346	21.76
254.563	38.75
254.781	36.47
254.998	21.43
255.216	19.35
255.433	20.19
255.651	-8.94
255.868	-8.15
256.086	7.99
256.303	18.49
256.521	21.57
256.738	29.69
256.956	26
257.173	16.61
257.39	14.25
257.608	2.55
257.825	-4.92
258.043	15.28
258.26	23.09
258.477	18.43
258.695	28.31
258.912	39.25
259.129	14.89
259.346	0.34
259.564	27.44
259.781	15.9
259.998	13.92
260.216	38.53
260.433	31.1
260.65	23.33
260.867	12.36
261.084	12.08
261.302	-17.78
261.519	21.37
261.736	9.51
261.953	28.92
262.17	35.94
262.387	46.59
262.604	28.55
262.822	40.09
263.039	32.4
263.256	22.33
263.473	16.62
263.69	15.38
263.907	7.71
264.124	0.6
264.341	-0.11
264.558	5.18
264.775	15.65
264.992	17.98
265.209	30.08
265.426	35.07
265.643	17.7
265.86	5.05
266.077	7.13
266.294	9.32
266.51	41.9
266.727	59.39
266.944	44.11
267.161	31.39
267.378	26.48
267.595	8.01
267.812	-15.2
268.028	-27.22
268.245	6.74
268.462	-3.27
268.679	4.03
268.896	29.68
269.112	33.67
269.329	26.38
269.546	52.64
269.763	30.29
269.979	3.54
270.196	20.76
270.413	4.72
270.629	-17.24
270.846	-14.94
271.063	12.19
271.279	5.66
271.496	-0.14
271.712	21.57
271.929	33.93
272.146	31.67
272.362	32.92
272.579	34.35
272.795	33.52
273.012	42.26
273.228	36.37
273.445	30
273.661	25.66
273.878	12.16
274.094	2.32
274.311	-1.12
274.527	-12.38
274.744	20.81
274.96	24.47
275.177	28.17
275.393	27.81
275.609	43.37
275.826	31.94
276.042	32.12
276.259	42.29
276.475	45.7
276.691	27.28
276.908	28.02
277.124	37.76
277.34	24.65
277.557	-5.83
277.773	-0.65
277.989	5.35
278.205	-6.38
278.422	-24.07
278.638	-7.41
278.854	1.32
279.07	6.6
279.286	16.82
279.503	33.04
279.719	38.55
279.935	18.76
280.151	5.48
280.367	5
280.583	5.12
280.799	4.9
281.016	-23.42
281.232	3.76
281.448	-5.86
281.664	-17.36
281.88	-16.69
282.096	17.7
282.312	12.82
282.528	14.35
282.744	26.78
282.96	16.66
283.176	1.88
283.392	-18.31
283.608	-26.91
283.824	-39.94
284.04	-70.08
284.256	-21.96
284.471	-17.51
284.687	-3.03
284.903	3.44
285.119	26.4
285.335	23.62
285.551	27.6
285.767	15.14
285.982	11.03
286.198	-23
286.414	-22.51
286.63	-3.37
286.846	15.36
287.061	4.99
287.277	16.91
287.493	19.83
287.709	27.21
287.924	42.39
288.14	56.41
288.356	55.74
288.571	55.33
288.787	36.91
289.003	25.1
289.218	0.88
289.434	5.88
289.65	13.81
289.865	19.35
290.081	23.5
290.296	34.68
290.512	22.41
290.727	-1.15
290.943	4.2
291.159	-2.35
291.374	-23.63
291.59	-11.66
291.805	-10.96
292.021	-8.69
292.236	-5.12
292.451	10.7
292.667	16.96
292.882	25.88
293.098	13.46
293.313	11.48
293.529	3.28
293.744	-12.51
293.959	-13.73
294.175	3.17
294.39	3.15
294.605	18.26
294.821	30.5
295.036	33
295.251	27.28
295.467	12.02
295.682	16.18
295.897	15.31
296.112	7.98
296.328	15.49
296.543	8.41
296.758	-0.86
296.973	-10.08
297.188	-21.66
297.404	-61.43
297.619	-53.58
297.834	-79.74
298.049	-61.49
298.264	-30.06
298.479	-33.98
298.694	12.75
298.909	19.93
299.125	14.83
299.34	10.36
299.555	13.98
299.77	0.48
299.985	6.17
300.2	16.04
300.415	21.23
300.63	25.6
300.845	28.47
301.06	27.86
301.275	22.05
301.49	26.68
301.704	24.75
301.919	25.41
302.134	9.92
302.349	13.41
302.564	4.07
302.779	-3.02
302.994	6.49
303.209	22.56
303.423	16.18
303.638	20.86
303.853	19.98
304.068	11.66
304.283	15.83
304.497	14.29
304.712	16.17
304.927	11.43
305.142	23.54
305.356	28.24
305.571	34.48
305.786	29.29
306	62.12
306.215	52.6
306.43	25.38
306.644	32.65
306.859	38.26
307.074	11.06
307.288	14.74
307.503	27.8
307.717	9.5
307.932	18.32
308.147	11.87
308.361	16.31
308.576	-3.78
308.79	6.05
309.005	-3.95
309.219	14.27
309.434	13.56
309.648	32.33
309.863	33.77
310.077	40.38
310.292	45.04
310.506	29.88
310.72	19
310.935	28.72
311.149	35.09
311.364	23.05
311.578	25.69
311.792	26.16
312.007	11.19
312.221	-28.63
312.435	-3.21
312.649	15.44
312.864	14.88
313.078	12.85
313.292	-2.47
313.507	-13.51
313.721	-23.97
313.935	-32.77
314.149	-29.51
314.363	8.71
314.578	13.62
314.792	2.44
315.006	-1.58
315.22	27.44
315.434	28.33
315.648	26.32
315.862	37.34
316.077	44.88
316.291	26.99
316.505	0.51
316.719	3.23
316.933	-2.73
317.147	-5.36
317.361	5.25
317.575	10.39
317.789	13.54
318.003	9.26
318.217	26.24
318.431	10.56
318.645	14.22
318.859	10.89
319.073	23.4
319.287	13.49
319.5	23.75
319.714	25.71
319.928	28.21
320.142	23.09
320.356	34.01
320.57	14.84
320.784	22.05
320.997	20.74
321.211	28.85
321.425	11.93
321.639	26.3
321.853	23.62
322.066	12.46
322.28	-2.1
322.494	3.62
322.707	3.51
322.921	-1.03
323.135	13.24
323.349	15.1
323.562	13.03
323.776	12.02
323.989	23.4
324.203	4.59
324.417	-0.93
324.63	-3.7
324.844	-11.13
325.057	-43.52
325.271	-31.99
325.485	-22.9
325.698	-4.2
325.912	4.43
326.125	3.09
326.339	20.6
326.552	14.42
326.766	6.09
326.979	9.82
327.193	24.83
327.406	15.37
327.619	36.46
327.833	24.51
328.046	24.17
328.26	19.74
328.473	30.25
328.686	17.73
328.9	37.97
329.113	45.29
329.326	39.2
329.54	29.36
329.753	42.65
329.966	33.09
330.179	37.21
330.393	40.11
330.606	30.94
330.819	13.78
331.032	11.67
331.246	12.36
331.459	16.88
331.672	23.29
331.885	23.42
332.098	33.14
332.311	20.69
332.525	13.37
332.738	13.6
332.951	3.24
333.164	-7.33
333.377	-4.42
333.59	1.59
333.803	4.29
334.016	18.99
334.229	40.08
334.442	34.85
334.655	24.6
334.868	17.12
335.081	4.32
335.294	-1.2
335.507	7.02
335.72	10.06
335.933	13.92
336.146	13.43
336.359	21.05
336.572	18.52
336.785	23.59
336.997	21.47
337.21	37.62
337.423	-15.45
337.636	-5.7
337.849	-8.94
338.062	-2.64
338.274	15.25
338.487	15.61
338.7	-4.97
338.913	-0.25
339.125	-10.26
339.338	-27.45
339.551	-7.49
339.763	1.63
339.976	11.2
340.189	15.62
340.402	32.67
340.614	26.1
340.827	36.83
341.039	24.65
341.252	23.56
341.465	6.54
341.677	18.86
341.89	-4.87
342.102	5.21
342.315	13.07
342.527	29.16
342.74	7.29
342.952	9.37
343.165	8.27
343.377	5.67
343.59	-12.48
343.802	-7.56
344.015	21.28
344.227	15.03
344.44	15.37
344.652	25.62
344.864	35.96
345.077	31.3
345.289	46.29
345.502	58.26
345.714	58.54
345.926	57.65
346.139	39.68
346.351	27.74
346.563	31.96
346.775	15.61
346.988	23.85
347.2	23.14
347.412	26.01
347.624	17.08
347.837	25.66
348.049	15
348.261	17.3
348.473	9.04
348.685	-3.22
348.897	-5.01
349.11	3.87
349.322	-3.19
349.534	-4.97
349.746	0.52
349.958	-12.18
350.17	-15.23
350.382	-11.75
350.594	2.26
350.806	13.11
351.018	21.1
351.23	21.94
351.442	31.81
351.654	23.12
351.866	15.16
352.078	21.19
352.29	8.47
352.502	9.38
352.714	15.81
352.926	13.73
353.138	24.33
353.35	16.36
353.561	17.61
353.773	19.66
353.985	30.43
354.197	23.66
354.409	37.55
354.621	31.16
354.832	17.65
355.044	-4.68
355.256	-11.68
355.468	-25.03
355.679	5.45
355.891	9.64
356.103	14.14
356.314	2.9
356.526	-4.62
356.738	-29.84
356.949	-20.23
357.161	6.38
357.373	15.07
357.584	16.47
357.796	25.51
358.008	18.52
358.219	-3.22
358.431	-7.34
358.642	4.48
358.854	14.1
359.065	4.92
359.277	8.83
359.488	9.63
359.7	8.01
359.911	-16.66
360.123	9.39
360.334	4.32
360.546	7.57
360.757	9.66
360.969	22.33
361.18	17.92
361.391	30.06
361.603	27.64
361.814	32.73
362.025	36.52
362.237	33.97
362.448	37.56
362.659	26.53
362.871	7.5
363.082	-6.41
363.293	-17.09
363.504	-49.61
363.716	-28.38
363.927	8.21
364.138	14.51
364.349	8.15
364.56	20.6
364.772	32.32
364.983	11.13
365.194	5.89
365.405	6.69
365.616	12.1
365.827	-1.92
366.038	9.69
366.25	23.43
366.461	24.09
366.672	12.18
366.883	12.56
367.094	4.35
367.305	-8.5
367.516	-10.54
367.727	2.27
367.938	1.08
368.149	2.76
368.36	8.01
368.571	5.8
368.781	-3.41
368.992	-7.12
369.203	-15.45
369.414	-20.16
369.625	-12.24
369.836	11.41
370.047	14.13
370.258	30.33
370.468	20.76
370.679	17.73
370.89	5.51
371.101	10.26
371.312	-4.64
371.522	9.76
371.733	4.64
371.944	-11.09
372.155	3.22
372.365	5.77
372.576	-5.61
372.787	6.17
372.997	11.85
373.208	-3.25
373.419	3.81
373.629	5.82
373.84	2.13
374.05	2.12
374.261	-11.4
374.472	-5.43
374.682	-6.62
374.893	-15.4
375.103	-29.69
375.314	-11.21
375.524	-13.89
375.735	-7.91
375.945	-4.27
376.156	10.61
376.366	10.15
376.577	16.41
376.787	19.46
376.997	25.94
377.208	18.19
377.418	18.61
377.629	11.91
377.839	13.38
378.049	12.85
378.26	12.75
378.47	9.18
378.68	10.71
378.89	7.77
379.101	10.05
379.311	15.6
379.521	0.84
379.732	2.38
379.942	-1.72
380.152	-15.25
380.362	-13.5
380.572	12.88
380.783	15.4
380.993	28.84
381.203	33.77
381.413	38.2
381.623	30.21
381.833	25.53
382.043	5.36
382.253	9.36
382.463	10.46
382.674	7.36
382.884	10.97
383.094	20.98
383.304	22.26
383.514	20.43
383.724	15.28
383.934	7.86
384.144	8.15
384.353	3.89
384.563	3.63
384.773	15.57
384.983	16.96
385.193	14.61
385.403	11.01
385.613	6.12
385.823	1.28
386.033	1.23
386.242	-4.23
386.452	-0.99
386.662	1.09
386.872	4.23
387.082	8.23
387.291	10.56
387.501	10.89
387.711	11.52
387.921	6.6
388.13	6.28
388.34	7.69
388.55	5.17
388.759	3.38
388.969	6.66
389.179	4.4
389.388	3.41
389.598	3.22
389.807	-1.76
390.017	-5.3
390.227	-3.56
390.436	-0.03
390.646	-0.1
390.855	2.89
391.065	4.51
391.274	3.06
391.484	0.11
391.693	0.66
391.903	1.7
392.112	2.46
392.322	1.13
392.531	0.69
392.74	-0.11
392.95	-2.09
393.159	-3
393.369	-1.06
393.578	-0.03
393.787	0.23
393.997	2.71
394.206	1.97
394.415	1.64
394.625	0.88
394.834	0.49
395.043	0.77
395.252	3.62
395.462	4.03
395.671	4.99
395.88	6.35
396.089	5.39
396.298	4.32
396.508	4.35
396.717	4.04
396.926	3.44
397.135	3.06
397.344	2.52
397.553	2.58
397.762	3.49
397.971	2.75
398.181	3.51
398.39	2.98
398.599	3.1
398.808	2.53
399.017	3.76
399.226	3.84
399.435	4.3
399.644	4.45
399.853	4.38
400.062	3.76
400.27	3.23
400.479	3.24
400.688	3.21
400.897	3.24
401.106	3.35
401.315	3.6
401.524	3.94
401.733	3.48
401.941	3.7
402.15	3.6
402.359	3.44
402.568	3.48
402.777	3.86
402.985	3.4
403.194	3.38
403.403	3.65
403.612	3.31
403.82	3
404.029	3.24
404.238	3.36
404.446	3.39
404.655	3.42
404.864	3.55
405.072	3.46
405.281	3.3
405.489	3.08
405.698	3.13
405.906	3.13
406.115	3.04
406.324	3.04
406.532	3.1
406.741	3.06
406.949	3.06
407.158	3.24
407.366	3.32
407.574	3.26
407.783	3.3
407.991	3.16
408.2	3.23
408.408	3.14
408.617	2.99
408.825	2.83
409.033	2.78
409.242	2.66
409.45	2.64
409.658	2.8
409.867	2.94
410.075	3.09
410.283	2.94
410.491	2.86
410.7	2.75
410.908	2.72
411.116	2.73
411.324	2.79
411.533	2.86
411.741	2.87
411.949	2.96
412.157	2.88
412.365	2.9
412.573	2.94
412.781	3
412.99	2.94
413.198	2.92
413.406	2.92
413.614	3.04
413.822	3.08
414.03	3.01
414.238	3.07
414.446	3.08
414.654	2.81
414.862	2.67
415.07	2.7
415.278	2.78
415.486	2.54
415.694	2.6
415.902	2.74
416.109	2.71
416.317	2.59
416.525	2.83
416.733	2.86
416.941	2.82
417.149	2.62
417.357	2.52
417.564	2.47
417.772	2.55
417.98	2.5
418.188	2.53
418.395	2.44
418.603	2.39
418.811	2.21
419.019	2.29
419.226	2.53
419.434	2.72
419.642	2.57
419.849	2.64
420.057	2.56
420.265	2.44
420.472	2.42
420.68	2.65
420.887	2.64
421.095	2.61
421.302	2.68
421.51	2.64
421.717	2.63
421.925	2.62
422.132	2.56
422.34	2.35
422.547	2.43
422.755	2.35
422.962	2.33
423.17	2.26
423.377	2.44
423.585	2.31
423.792	2.28
423.999	2.32
424.207	2.39
424.414	2.16
424.621	2.2
424.829	2.38
425.036	2.41
425.243	2.42
425.451	2.56
425.658	2.73
425.865	2.63
426.072	2.58
426.28	2.82
426.487	2.78
426.694	2.54
426.901	2.54
427.108	2.57
427.315	2.39
427.523	2.38
427.73	2.38
427.937	2.19
428.144	2.16
428.351	2.2
428.558	2.35
428.765	2.38
428.972	2.6
429.179	2.51
429.386	2.48
429.593	2.34
429.8	2.29
430.007	2.31
430.214	2.35
430.421	2.35
430.628	2.41
430.835	2.49
431.042	2.38
431.249	2.52
431.456	2.45
431.662	2.51
431.869	2.63
432.076	2.68
432.283	2.79
432.49	2.86
432.697	2.88
432.903	2.78
433.11	2.84
433.317	2.71
433.524	2.75
433.73	2.52
433.937	2.71
434.144	2.61
434.35	2.58
434.557	2.57
434.764	2.75
434.97	2.5
435.177	2.62
435.384	2.74
435.59	2.75
435.797	2.79
436.003	2.91
436.21	2.85
436.416	2.78
436.623	2.85
436.829	2.82
437.036	2.84
437.242	2.92
437.449	2.99
437.655	3.08
437.862	3.13
438.068	3.11
438.275	3.19
438.481	3.27
438.687	3.1
438.894	3.18
439.1	3.18
439.307	3.28
439.513	3.2
439.719	3.32
439.926	3.25
440.132	3.39
440.338	3.27
440.544	3.28
440.751	3.2
440.957	3.21
441.163	3.05
441.369	3.1
441.575	3.11
441.782	3.28
441.988	3.3
442.194	3.34
442.4	3.29
442.606	3.41
442.812	3.31
443.018	3.37
443.224	3.53
443.431	3.49
443.637	3.39
443.843	3.42
444.049	3.5
444.255	3.41
444.461	3.36
444.667	3.32
444.873	3.3
445.079	3.2
445.284	3.24
445.49	3.33
445.696	3.42
445.902	3.39
446.108	3.47
446.314	3.43
446.52	3.53
446.726	3.57
446.931	3.66
447.137	3.64
447.343	3.78
447.549	3.8
447.755	3.78
447.96	3.77
448.166	3.83
448.372	3.77
448.578	3.67
448.783	3.65
448.989	3.65
449.195	3.6
449.4	3.64
449.606	3.63
449.812	3.64
450.017	3.7
450.223	3.64
450.428	3.61
450.634	3.75
450.84	3.71
451.045	3.74
451.251	3.9
451.456	3.94
451.662	3.88
451.867	3.97
452.073	4
452.278	3.95
452.483	3.98
452.689	3.94
452.894	3.97
453.1	3.92
453.305	3.97
453.51	3.99
453.716	3.97
453.921	4.03
454.127	4.01
454.332	3.99
454.537	3.91
454.742	3.94
454.948	3.86
455.153	3.83
455.358	3.87
455.563	3.98
455.769	4.02
455.974	3.97
456.179	3.98
456.384	3.94
456.589	3.79
456.795	3.79
457	3.83
457.205	3.83
457.41	3.8
457.615	3.84
457.82	3.92
458.025	3.96
458.23	4.01
458.435	4.08
458.64	4.12
458.845	4.11
459.05	4.17
459.255	4.16
459.46	4.17
459.665	4.22
459.87	4.24
460.075	4.28
460.28	4.39
460.485	4.49
460.69	4.46
460.895	4.55
461.099	4.4
461.304	4.35
461.509	4.28
461.714	4.37
461.919	4.21
462.123	4.35
462.328	4.25
462.533	4.17
462.738	4.18
462.942	4.23
463.147	4.2
463.352	4.31
463.556	4.46
463.761	4.42
463.966	4.47
464.17	4.52
464.375	4.67
464.58	4.59
464.784	4.65
464.989	4.72
465.193	4.67
465.398	4.58
465.602	4.81
465.807	4.83
466.011	4.78
466.216	4.73
466.42	4.87
466.625	4.82
466.829	4.83
467.034	4.93
467.238	5.08
467.443	5.04
467.647	5.01
467.851	5.02
468.056	5.03
468.26	4.97
468.464	4.97
468.669	5
468.873	4.96
