Data from Ofra_PS_T2_1A_4HS15.2_Reflection_1.txt Node
Date: Wed Jul 21 18:08:12 EDT 2021
User: Adam
Spectrometer: FLMT01687
Trigger mode: 0
Integration Time (sec): 1.100000E0
Scans to average: 2
Electric dark correction enabled: true
Nonlinearity correction enabled: false
Boxcar width: 2
XAxis mode: Wavelengths
Number of Pixels in Spectrum: 3648
>>>>>Begin Spectral Data<<<<<
179.494	617.4
179.716	662.82
179.937	637.05
180.158	612.19
180.38	904.22
180.601	398.2
180.823	154.41
181.044	-25.24
181.265	90.99
181.486	103.95
181.708	84.7
181.929	454.59
182.15	-415.14
182.372	80.83
182.593	76.05
182.814	71.13
183.035	96.91
183.257	87.41
183.478	5.59
183.699	23.75
183.92	-24.06
184.141	-31.14
184.363	-101.64
184.584	-12.37
184.805	-2.54
185.026	49.29
185.247	66.98
185.468	55.14
185.689	44.25
185.91	49.11
186.132	34.95
186.353	16.61
186.574	65.3
186.795	50.88
187.016	8.04
187.237	-22.5
187.458	-66.45
187.679	-43.4
187.9	-21.83
188.121	-28.99
188.342	-12.67
188.563	56.49
188.784	70.07
189.005	59.09
189.226	126.34
189.447	124
189.667	-35.32
189.888	-316.63
190.109	-1169.81
190.33	-643.06
190.551	-1269.69
190.772	-255.87
190.993	-224.28
191.214	-136.41
191.434	-114.44
191.655	-7.45
191.876	-44.36
192.097	-92.44
192.318	-198.1
192.538	-231.6
192.759	-193.7
192.98	-98.39
193.201	-41.75
193.421	7.53
193.642	18.74
193.863	4.7
194.083	-5.51
194.304	-11.9
194.525	-24.66
194.745	-51.44
194.966	-31.04
195.187	-41.2
195.407	-78.45
195.628	-151.66
195.848	-155.14
196.069	-174.82
196.29	-100.64
196.51	-53.81
196.731	-26.83
196.951	-30.05
197.172	-16.96
197.392	-74.63
197.613	-112.69
197.833	-144.96
198.054	-107
198.274	-50.82
198.495	-44.73
198.715	-2.12
198.936	-17.72
199.156	-31.83
199.377	-127.91
199.597	-141.94
199.817	-185.82
200.038	-98.46
200.258	-147.12
200.479	-104.26
200.699	-95.01
200.919	6.86
201.14	-34.73
201.36	-19.42
201.58	38.42
201.801	62.75
202.021	23.31
202.241	34.24
202.461	17.69
202.682	-101.98
202.902	-195.58
203.122	-109.91
203.342	-88.45
203.563	-51.52
203.783	-4.98
204.003	-31.53
204.223	-35.9
204.443	22.64
204.663	10.68
204.884	18.78
205.104	75.49
205.324	113.29
205.544	66.45
205.764	70.06
205.984	77.85
206.204	56.76
206.424	49.41
206.644	25.09
206.864	39.81
207.084	27.49
207.304	22.91
207.525	-125.86
207.745	-35.6
207.964	-11.96
208.184	-78.35
208.404	-97.25
208.624	-74.86
208.844	-61.93
209.064	-314.69
209.284	-276.88
209.504	-144.79
209.724	-28.03
209.944	-13.5
210.164	33.45
210.384	43.36
210.604	64.22
210.823	25.02
211.043	3.74
211.263	-6.34
211.483	-25.41
211.703	-89.37
211.922	-69.64
212.142	-8.9
212.362	15.9
212.582	28.06
212.801	43.24
213.021	23.68
213.241	6.34
213.461	-42.88
213.68	-48.27
213.9	-25.77
214.12	-17.05
214.339	-47.23
214.559	-22.53
214.779	11.51
214.998	10.04
215.218	-6.01
215.438	-3.07
215.657	-15.6
215.877	-48.44
216.096	-33.34
216.316	-28.37
216.535	-31.7
216.755	-28.71
216.974	-94.59
217.194	-137.36
217.413	-126.13
217.633	-139.31
217.852	-246.59
218.072	-106.43
218.291	-56.46
218.511	-11.24
218.73	-20.87
218.95	-12.13
219.169	-15.36
219.389	-60.99
219.608	-39.48
219.827	-28.69
220.047	-19.94
220.266	-10.15
220.485	11.6
220.705	7.61
220.924	-19.21
221.143	23.51
221.363	6.31
221.582	3.19
221.801	5.8
222.021	32.54
222.24	-20.22
222.459	54.09
222.678	34.01
222.897	-39.52
223.117	-74.74
223.336	-99.8
223.555	-67.19
223.774	-5.08
223.993	31.69
224.213	85.31
224.432	87.89
224.651	80.46
224.87	34.51
225.089	40.87
225.308	15.9
225.527	29.7
225.746	22.66
225.965	18.49
226.184	-16.01
226.404	12.15
226.623	-15.93
226.842	-21
227.061	17.11
227.28	27.93
227.499	7.07
227.718	18.41
227.936	5.65
228.155	-2.67
228.374	-37.64
228.593	-19.68
228.812	-31.45
229.031	-18.02
229.25	-66.47
229.469	-31.36
229.688	-16.61
229.907	20.51
230.125	29.23
230.344	37.68
230.563	30.01
230.782	30.93
231.001	-41.62
231.22	-29.69
231.438	0.61
231.657	5.78
231.876	8.4
232.095	44.58
232.313	32.68
232.532	8.9
232.751	9.84
232.969	-1.27
233.188	-52.71
233.407	-8.11
233.625	-6.62
233.844	-48.66
234.063	-41.52
234.281	-4.53
234.5	-5.5
234.719	1.09
234.937	32.62
235.156	50.07
235.374	42.41
235.593	38.09
235.811	47.93
236.03	28.53
236.249	-10.41
236.467	-16.9
236.686	2.31
236.904	8.51
237.123	-17.4
237.341	-20.98
237.559	-8.31
237.778	-20.27
237.996	-42.03
238.215	-0.24
238.433	9.87
238.652	-16.97
238.87	-34.57
239.088	-14.37
239.307	-22.22
239.525	-40.74
239.743	-41.52
239.962	-32.65
240.18	-57.28
240.398	-86.24
240.617	-97.06
240.835	-75.07
241.053	-53.84
241.271	-10.03
241.49	18.22
241.708	36.92
241.926	25.32
242.144	6.26
242.363	-61.74
242.581	-86.74
242.799	-66.07
243.017	-29.93
243.235	-39.52
243.453	-14.89
243.672	-21.15
243.89	-18.34
244.108	-29.63
244.326	-11.82
244.544	-7.62
244.762	-16.24
244.98	4.01
245.198	14.48
245.416	-13.1
245.634	-23.82
245.852	-19.5
246.07	-51.61
246.288	-58.55
246.506	-66.08
246.724	-43.76
246.942	-34.93
247.16	14.08
247.378	23.74
247.596	57.28
247.814	38.3
248.032	18.97
248.25	6.71
248.468	6.32
248.685	11.65
248.903	36.79
249.121	43.44
249.339	17.64
249.557	-1.45
249.775	-6.58
249.992	-56.68
250.21	-48.81
250.428	-33.91
250.646	-43.41
250.863	-67.97
251.081	-26.15
251.299	0.98
251.517	22.42
251.734	29.26
251.952	29.18
252.17	6.3
252.387	6.18
252.605	-9.61
252.823	-9.65
253.04	16.89
253.258	38.56
253.475	24.18
253.693	41.27
253.911	46.16
254.128	40.79
254.346	28.31
254.563	16.29
254.781	-5.47
254.998	-31.87
255.216	-54.83
255.433	-35.87
255.651	-8.46
255.868	23.45
256.086	45.37
256.303	35.14
256.521	21.24
256.738	-8.97
256.956	-40.83
257.173	-76.73
257.39	-83.52
257.608	-124.2
257.825	-47.14
258.043	-4.62
258.26	33.58
258.477	72.37
258.695	81.68
258.912	45.83
259.129	33.85
259.346	-3.03
259.564	-60.11
259.781	-84.01
259.998	-36.73
260.216	-25.54
260.433	4.34
260.65	20.42
260.867	39.28
261.084	12.91
261.302	-8.79
261.519	-42.96
261.736	-66.85
261.953	-61.59
262.17	-19.55
262.387	-40.64
262.604	-54.12
262.822	-49.98
263.039	-49.33
263.256	-92
263.473	-44.8
263.69	-28.52
263.907	6.14
264.124	22.7
264.341	27.2
264.558	22.5
264.775	38.11
264.992	31.47
265.209	15
265.426	25.94
265.643	22.5
265.86	24.69
266.077	31.45
266.294	38.25
266.51	0.98
266.727	-18.92
266.944	0.42
267.161	-4.81
267.378	-13.49
267.595	17.2
267.812	4.37
268.028	-31.11
268.245	-4.2
268.462	-25.74
268.679	-33.41
268.896	13.09
269.112	12.69
269.329	1.2
269.546	14.98
269.763	5.57
269.979	-16.82
270.196	-4.13
270.413	-39.84
270.629	-60.01
270.846	-48.24
271.063	-36.35
271.279	-61.14
271.496	-34.69
271.712	-9.45
271.929	1.66
272.146	-13.91
272.362	27.2
272.579	46.36
272.795	49.87
273.012	56.26
273.228	59.26
273.445	18.07
273.661	-16.37
273.878	-50.94
274.094	-51.15
274.311	-69.39
274.527	9.78
274.744	14.22
274.96	-1.84
275.177	3.92
275.393	18.19
275.609	11.69
275.826	32.83
276.042	48.44
276.259	36.64
276.475	40.08
276.691	30.23
276.908	10.9
277.124	15.19
277.34	11.51
277.557	-0.62
277.773	-5.41
277.989	-15.23
278.205	-18.14
278.422	2.65
278.638	3.16
278.854	20.69
279.07	20.43
279.286	16.4
279.503	-27.62
279.719	-31.44
279.935	-49.54
280.151	-56.83
280.367	-46.53
280.583	-39.38
280.799	-34.2
281.016	-63.48
281.232	-29.17
281.448	-21.93
281.664	-7.44
281.88	-36.34
282.096	-14.17
282.312	17.34
282.528	38.89
282.744	60.04
282.96	69.64
283.176	55.27
283.392	36.83
283.608	23.67
283.824	9.24
284.04	17.55
284.256	20.07
284.471	5.77
284.687	0.67
284.903	25.54
285.119	55.62
285.335	36.18
285.551	39.88
285.767	22.23
285.982	-1.47
286.198	-68
286.414	-13.6
286.63	-3.54
286.846	31.33
287.061	16.12
287.277	51.81
287.493	20.18
287.709	54.93
287.924	26.35
288.14	73.81
288.356	43.37
288.571	58.11
288.787	25.93
289.003	28.29
289.218	-5.96
289.434	-24.39
289.65	-7.83
289.865	-8.41
290.081	18.26
290.296	16.91
290.512	25.52
290.727	-21.7
290.943	-22.68
291.159	-33.53
291.374	-23.45
291.59	-41.28
291.805	-23.34
292.021	-21.5
292.236	-29.61
292.451	-30.54
292.667	-18.6
292.882	-1.47
293.098	4.46
293.313	-12.83
293.529	-27.12
293.744	-33.65
293.959	-49.7
294.175	-54.79
294.39	-7.2
294.605	12.19
294.821	37.31
295.036	44.01
295.251	62.02
295.467	19.94
295.682	5.15
295.897	-40.76
296.112	-47.01
296.328	-42.91
296.543	-36.76
296.758	-11.78
296.973	28.29
297.188	47.69
297.404	14.47
297.619	11.92
297.834	-16.66
298.049	-43.51
298.264	-73.89
298.479	-8.61
298.694	-3.91
298.909	25.24
299.125	30.28
299.34	48.35
299.555	13.8
299.77	32.47
299.985	-26.44
300.2	-82.71
300.415	-123.66
300.63	-81.38
300.845	-80.74
301.06	-68.19
301.275	-34.36
301.49	9.88
301.704	0.45
301.919	-21.84
302.134	-41.16
302.349	-22.04
302.564	-94.46
302.779	-103.88
302.994	-57.48
303.209	3.23
303.423	-2.85
303.638	36.59
303.853	2.27
304.068	-0.05
304.283	-11.12
304.497	-1.35
304.712	-5.13
304.927	13.22
305.142	-2.51
305.356	8.63
305.571	-4.57
305.786	-17.33
306	-49.5
306.215	-30.9
306.43	-49.51
306.644	-32.65
306.859	15.28
307.074	51.59
307.288	19.78
307.503	17.3
307.717	-14.1
307.932	-24.17
308.147	-42.63
308.361	-21.9
308.576	-20.35
308.79	-52.59
309.005	-35.76
309.219	-22.1
309.434	-21.26
309.648	-32.05
309.863	-0.2
310.077	-14.14
310.292	-11.4
310.506	-25.27
310.72	-1.36
310.935	-13.37
311.149	-17.37
311.364	0.1
311.578	22.37
311.792	17.25
312.007	27.52
312.221	18.25
312.435	10.91
312.649	-3.84
312.864	9.76
313.078	27.28
313.292	92.05
313.507	79.43
313.721	93.11
313.935	35.05
314.149	9.92
314.363	-5.68
314.578	-7.25
314.792	-3.65
315.006	-14.58
315.22	1.6
315.434	13.75
315.648	21.11
315.862	23.02
316.077	30.91
316.291	25.68
316.505	27.81
316.719	14.54
316.933	-19.76
317.147	-22.1
317.361	-57.18
317.575	-84.33
317.789	-85.3
318.003	-128.12
318.217	-79.64
318.431	-7.12
318.645	26.91
318.859	8.47
319.073	37.67
319.287	17.91
319.5	-19.08
319.714	-72.77
319.928	-97.4
320.142	-122.96
320.356	-84.14
320.57	-38.54
320.784	-31.48
320.997	-47.08
321.211	-43.89
321.425	-84.2
321.639	-122.75
321.853	-58.13
322.066	-12.46
322.28	-13.49
322.494	-7.83
322.707	29.83
322.921	15.85
323.135	-7.59
323.349	7.2
323.562	3.48
323.776	-21.47
323.989	-19.36
324.203	-22.44
324.417	-33.74
324.63	-51.24
324.844	-43.88
325.057	-30.62
325.271	-22.35
325.485	-5.77
325.698	7.66
325.912	22.48
326.125	8.56
326.339	10.41
326.552	3.13
326.766	7.38
326.979	4.79
327.193	26.88
327.406	15.54
327.619	14.67
327.833	11.73
328.046	-6.37
328.26	-41.82
328.473	-12.65
328.686	-46.42
328.9	-35.59
329.113	-18.66
329.326	-35.33
329.54	-42.65
329.753	-44.87
329.966	-74.93
330.179	-62.9
330.393	-16.24
330.606	1.17
330.819	17.55
331.032	39.7
331.246	49.3
331.459	55.73
331.672	48.83
331.885	39.08
332.098	23.68
332.311	3
332.525	-48.61
332.738	-29.29
332.951	8.01
333.164	23.83
333.377	32.68
333.59	61.73
333.803	54.1
334.016	39.77
334.229	43.51
334.442	37.84
334.655	38.01
334.868	47
335.081	35.53
335.294	12.48
335.507	9.14
335.72	11.59
335.933	-7.73
336.146	-12.98
336.359	0.35
336.572	-16.53
336.785	-54.9
336.997	-39.21
337.21	-11.37
337.423	-23.58
337.636	-19.92
337.849	-4.72
338.062	-10.43
338.274	-15.64
338.487	-27.08
338.7	-24.01
338.913	-62.29
339.125	-74.03
339.338	-122.22
339.551	-101.01
339.763	-73.88
339.976	-42.09
340.189	-25.62
340.402	-13.72
340.614	-16.29
340.827	-23.22
341.039	-40.19
341.252	-34.9
341.465	-9.76
341.677	-2.8
341.89	-25.65
342.102	1.52
342.315	-30.91
342.527	-68.75
342.74	-69.49
342.952	-25.93
343.165	-15.59
343.377	23.54
343.59	24.48
343.802	37.43
344.015	32.03
344.227	38.6
344.44	29.96
344.652	36.73
344.864	33.21
345.077	40.71
345.289	30.31
345.502	27.7
345.714	15.18
345.926	15.85
346.139	2.99
346.351	12.28
346.563	18.8
346.775	28.83
346.988	14.77
347.2	2.65
347.412	-58.11
347.624	-82.93
347.837	-108.02
348.049	-76.6
348.261	-22.81
348.473	5.36
348.685	11.13
348.897	1.35
349.11	-21.29
349.322	-60.47
349.534	-34.49
349.746	-33.12
349.958	-4.28
350.17	11.82
350.382	29.9
350.594	23.71
350.806	24.22
351.018	20.48
351.23	6
351.442	-39.41
351.654	-29.66
351.866	-25.08
352.078	-21.98
352.29	8.08
352.502	21.22
352.714	26.48
352.926	15.48
353.138	13.89
353.35	-5.87
353.561	-5.19
353.773	-30.11
353.985	-2.86
354.197	-12.83
354.409	-6.05
354.621	-16.9
354.832	-4.22
355.044	-28.84
355.256	-31.77
355.468	-15.5
355.679	-6.73
355.891	-10.03
356.103	-17.37
356.314	-3.07
356.526	-21.62
356.738	-13.41
356.949	-26.85
357.161	4.04
357.373	-6.97
357.584	-7.24
357.796	-6.39
358.008	-0.17
358.219	6.32
358.431	12.51
358.642	21.04
358.854	18.99
359.065	7.88
359.277	-25.78
359.488	-32.56
359.7	-62.11
359.911	-81.27
360.123	-52.94
360.334	-52.52
360.546	-64.26
360.757	-54.97
360.969	-31.64
361.18	-26.4
361.391	-6.99
361.603	-30.58
361.814	-15.47
362.025	-11.54
362.237	-17.77
362.448	-18.69
362.659	6.29
362.871	-0.99
363.082	-13.29
363.293	-0.46
363.504	-15.12
363.716	-29.6
363.927	-26.83
364.138	-48.53
364.349	-76.01
364.56	-62.61
364.772	-58.4
364.983	-35.44
365.194	-26.18
365.405	-4.74
365.616	14.4
365.827	24.87
366.038	-2.86
366.25	-8.01
366.461	-47.84
366.672	-30.26
366.883	-14.12
367.094	3.47
367.305	-4.51
367.516	9.81
367.727	-21.93
367.938	-25.94
368.149	-25.23
368.36	4.64
368.571	7.24
368.781	5.33
368.992	-18.99
369.203	-36.68
369.414	-83.63
369.625	-95.98
369.836	-94.32
370.047	-103.66
370.258	-75.25
370.468	-61.82
370.679	-70.78
370.89	-49.85
371.101	-25.56
371.312	-40.37
371.522	-25.4
371.733	-15.25
371.944	-11.55
372.155	-12.44
372.365	-14.92
372.576	-14.76
372.787	-13.81
372.997	-30.35
373.208	-22.22
373.419	-0.88
373.629	-27.63
373.84	-29.06
374.05	-41.42
374.261	-36.38
374.472	-42.88
374.682	1.71
374.893	12.87
375.103	47.13
375.314	40.03
375.524	30.76
375.735	35.2
375.945	22.71
376.156	-6.94
376.366	3.18
376.577	3.28
376.787	-16.06
376.997	-2.8
377.208	4.36
377.418	-14.5
377.629	0.8
377.839	0.09
378.049	3.47
378.26	14.2
378.47	20.05
378.68	8.43
378.89	10.25
379.101	-2.36
379.311	-35.03
379.521	-60.24
379.732	-48.33
379.942	-52.8
380.152	-66.64
380.362	-25.6
380.572	-14.81
380.783	-2.54
380.993	11.26
381.203	30.22
381.413	33.27
381.623	26.65
381.833	19.84
382.043	8.64
382.253	-2.63
382.463	-6.58
382.674	-10.17
382.884	-23.18
383.094	-22.05
383.304	-19.59
383.514	-11.33
383.724	-0.88
383.934	-6.17
384.144	-12.74
384.353	-17.86
384.563	-18.75
384.773	-10.21
384.983	-10.89
385.193	6.36
385.403	6.51
385.613	3.7
385.823	-13.46
386.033	-2.12
386.242	-10.44
386.452	-6.34
386.662	-14.64
386.872	0.05
387.082	-7.45
387.291	-13.69
387.501	-17.26
387.711	-12.74
387.921	-24.34
388.13	-24.42
388.34	-12.89
388.55	-14.77
388.759	-13.55
388.969	-5.18
389.179	-7.09
389.388	-8.66
389.598	-0.35
389.807	-4.83
390.017	-10.86
390.227	-6.47
390.436	-7.1
390.646	-7.6
390.855	-2.2
391.065	0.21
391.274	-1.55
391.484	-5.39
391.693	-3.27
391.903	-3.76
392.112	0.48
392.322	1.88
392.531	7.56
392.74	4.9
392.95	0.07
393.159	0.43
393.369	-0.1
393.578	-2.03
393.787	-2.8
393.997	-0.17
394.206	-3.74
394.415	-3.28
394.625	-2.95
394.834	-3.44
395.043	-2.1
395.252	1.25
395.462	4.39
395.671	5.3
395.88	5.89
396.089	6.92
396.298	4.27
396.508	3.19
396.717	2.45
396.926	3.24
397.135	2.64
397.344	3.56
397.553	4.22
397.762	5.97
397.971	6.27
398.181	5.52
398.39	5.15
398.599	4.37
398.808	3.63
399.017	4.11
399.226	6.37
399.435	7.45
399.644	7.54
399.853	6.52
400.062	5.83
400.27	4.39
400.479	3.84
400.688	3.39
400.897	4.04
401.106	4.32
401.315	4.5
401.524	4.38
401.733	4.84
401.941	5.4
402.15	5.43
402.359	5.13
402.568	5.49
402.777	5.65
402.985	5.07
403.194	5
403.403	5.04
403.612	4.56
403.82	4.22
404.029	4.48
404.238	4.36
404.446	4.46
404.655	4.23
404.864	4.35
405.072	3.98
405.281	3.9
405.489	3.63
405.698	3.81
405.906	3.66
406.115	3.7
406.324	3.77
406.532	4.15
406.741	4.43
406.949	4.53
407.158	4.63
407.366	4.66
407.574	4.45
407.783	4.39
407.991	4.16
408.2	4.47
408.408	4.34
408.617	4.18
408.825	3.99
409.033	4.17
409.242	3.98
409.45	4.09
409.658	4.16
409.867	4.4
410.075	4.24
410.283	4.1
410.491	4.05
410.7	4.04
410.908	3.89
411.116	4.2
411.324	4.21
411.533	4.12
411.741	4.37
411.949	4.43
412.157	4.17
412.365	4.13
412.573	4.19
412.781	4.07
412.99	3.94
413.198	3.99
413.406	3.95
413.614	3.92
413.822	3.73
414.03	3.64
414.238	3.44
414.446	3.57
414.654	3.52
414.862	3.67
415.07	3.69
415.278	3.91
415.486	3.77
415.694	3.85
415.902	3.71
416.109	3.67
416.317	3.66
416.525	3.53
416.733	3.32
416.941	3.49
417.149	3.5
417.357	3.54
417.564	3.76
417.772	4.05
417.98	3.92
418.188	3.99
418.395	3.95
418.603	3.89
418.811	3.64
419.019	3.54
419.226	3.75
419.434	3.84
419.642	3.63
419.849	3.82
420.057	3.78
420.265	3.63
420.472	3.26
420.68	3.46
420.887	3.27
421.095	3.45
421.302	3.34
421.51	3.62
421.717	3.61
421.925	3.68
422.132	3.53
422.34	3.29
422.547	3.4
422.755	3.43
422.962	3.36
423.17	3.25
423.377	3.41
423.585	3.37
423.792	3.18
423.999	3.24
424.207	3.34
424.414	3.5
424.621	3.35
424.829	3.39
425.036	3.3
425.243	3.46
425.451	3.21
425.658	3.13
425.865	3.46
426.072	3.46
426.28	3.65
426.487	3.86
426.694	4
426.901	3.63
427.108	3.69
427.315	3.43
427.523	3.61
427.73	3.53
427.937	3.53
428.144	3.38
428.351	3.42
428.558	3.39
428.765	3.4
428.972	3.39
429.179	3.64
429.386	3.88
429.593	3.62
429.8	3.53
430.007	3.84
430.214	3.87
430.421	3.57
430.628	3.48
430.835	3.45
431.042	3.47
431.249	3.5
431.456	3.51
431.662	3.68
431.869	3.83
432.076	3.7
432.283	3.7
432.49	3.63
432.697	3.64
432.903	3.44
433.11	3.48
433.317	3.58
433.524	3.9
433.73	3.88
433.937	4.19
434.144	4.08
434.35	4.06
434.557	3.88
434.764	3.84
434.97	3.67
435.177	3.83
435.384	3.71
435.59	3.86
435.797	4.09
436.003	4.19
436.21	4.16
436.416	4.29
436.623	4.25
436.829	4.28
437.036	4.43
437.242	4.43
437.449	4.27
437.655	4.3
437.862	4.26
438.068	4.19
438.275	4.32
438.481	4.62
438.687	4.55
438.894	4.59
439.1	4.52
439.307	4.63
439.513	4.43
439.719	4.41
439.926	4.39
440.132	4.52
440.338	4.31
440.544	4.48
440.751	4.48
440.957	4.5
441.163	4.32
441.369	4.49
441.575	4.26
441.782	4.22
441.988	4.16
442.194	4.27
442.4	4.24
442.606	4.53
442.812	4.71
443.018	4.79
443.224	4.78
443.431	4.86
443.637	4.66
443.843	4.48
444.049	4.51
444.255	4.46
444.461	4.42
444.667	4.46
444.873	4.75
445.079	4.67
445.284	4.83
445.49	4.64
445.696	4.49
445.902	4.29
446.108	4.31
446.314	4.16
446.52	4.25
446.726	4.54
446.931	4.58
447.137	4.62
447.343	4.75
447.549	4.73
447.755	4.61
447.96	4.66
448.166	4.63
448.372	4.51
448.578	4.52
448.783	4.55
448.989	4.64
449.195	4.89
449.4	5.04
449.606	5.03
449.812	4.97
450.017	4.99
450.223	4.81
450.428	4.67
450.634	4.81
450.84	4.92
451.045	4.79
451.251	4.75
451.456	5.08
451.662	5.13
451.867	5.24
452.073	5.26
452.278	5.4
452.483	5.34
452.689	5.25
452.894	5.33
453.1	5.33
453.305	5.24
453.51	5.24
453.716	5.24
453.921	5.17
454.127	5.23
454.332	5.23
454.537	5.08
454.742	5.1
454.948	5.05
455.153	5.07
455.358	5.11
455.563	5.34
455.769	5.47
455.974	5.53
456.179	5.46
456.384	5.51
456.589	5.38
456.795	5.11
457	5.06
457.205	5.26
457.41	5.21
457.615	5.24
457.82	5.46
458.025	5.48
458.23	5.35
458.435	5.49
458.64	5.47
458.845	5.62
459.05	5.65
459.255	5.68
459.46	5.66
459.665	5.62
459.87	5.58
460.075	5.54
460.28	5.65
460.485	5.73
460.69	5.79
460.895	5.55
461.099	5.52
461.304	5.6
461.509	5.52
