Data from Ofra_PS_T2_2A_2CX13_Reflection_2.txt Node
Date: Wed Jul 21 17:30:15 EDT 2021
User: Adam
Spectrometer: FLMT01687
Trigger mode: 0
Integration Time (sec): 1.100000E0
Scans to average: 2
Electric dark correction enabled: true
Nonlinearity correction enabled: false
Boxcar width: 2
XAxis mode: Wavelengths
Number of Pixels in Spectrum: 3648
>>>>>Begin Spectral Data<<<<<
179.494	562.8
179.716	629.65
179.937	605.14
180.158	609.37
180.38	1056.56
180.601	212.98
180.823	67.9
181.044	-169.91
181.265	-104.78
181.486	-59.92
181.708	107.74
181.929	737.76
182.15	-635.92
182.372	66.39
182.593	-44.43
182.814	5.42
183.035	65.48
183.257	54.64
183.478	-36.7
183.699	45.93
183.92	-9.8
184.141	-13
184.363	-68.83
184.584	-9.02
184.805	-17.4
185.026	30.03
185.247	45.46
185.468	31.92
185.689	6.24
185.91	0.87
186.132	-29.09
186.353	-55.75
186.574	-17.88
186.795	2.72
187.016	-9.91
187.237	1.54
187.458	-16.08
187.679	-33.55
187.9	-19.67
188.121	-51.02
188.342	-48.45
188.563	2.63
188.784	28.68
189.005	55.27
189.226	127.09
189.447	80.27
189.667	5.1
189.888	-176.6
190.109	-1042.21
190.33	-657.1
190.551	-1158.85
190.772	-260.41
190.993	-235.2
191.214	-187.66
191.434	-94.89
191.655	20.8
191.876	-26.38
192.097	-81.56
192.318	-118.95
192.538	-307.48
192.759	-279.53
192.98	-148.17
193.201	-75
193.421	-51.34
193.642	-12.21
193.863	16.89
194.083	1.27
194.304	-13.31
194.525	-35.08
194.745	-73.62
194.966	-110.17
195.187	-130.12
195.407	-196.8
195.628	-235.08
195.848	-207.91
196.069	-200.07
196.29	-109.58
196.51	-96.94
196.731	-78.31
196.951	-90.44
197.172	-131.11
197.392	-183.25
197.613	-191.37
197.833	-231.6
198.054	-162.92
198.274	-87.99
198.495	-79.94
198.715	-48.21
198.936	-54.73
199.156	-64.72
199.377	-176.93
199.597	-167.82
199.817	-171.06
200.038	-99.1
200.258	-187.35
200.479	-114.81
200.699	-147.08
200.919	-67.46
201.14	-91.28
201.36	-60.59
201.58	11.06
201.801	32.58
202.021	0.66
202.241	8.32
202.461	-8.58
202.682	-111.3
202.902	-171.74
203.122	-103.71
203.342	-98.45
203.563	-35.45
203.783	-4.62
204.003	-38.86
204.223	-10.71
204.443	57.1
204.663	36.36
204.884	39.79
205.104	96.29
205.324	115.11
205.544	89.49
205.764	92.2
205.984	87.93
206.204	63.04
206.424	41.43
206.644	13.25
206.864	-13.34
207.084	-92.36
207.304	-98.91
207.525	-328.59
207.745	-180.96
207.964	-65.08
208.184	-107.74
208.404	-137.31
208.624	-125.82
208.844	-137.25
209.064	-529.15
209.284	-524.22
209.504	-256.38
209.724	-69.72
209.944	-35.16
210.164	19.73
210.384	26.79
210.604	12.19
210.823	-34.36
211.043	-53.08
211.263	-59.89
211.483	-61.59
211.703	-120.74
211.922	-80.16
212.142	-27.58
212.362	2.56
212.582	-0.89
212.801	26.1
213.021	-19.78
213.241	-44.97
213.461	-91
213.68	-125.05
213.9	-113.9
214.12	-89.67
214.339	-147.69
214.559	-116.04
214.779	-37.25
214.998	-38.71
215.218	-87.18
215.438	-36.75
215.657	-46.72
215.877	-63.89
216.096	-25.68
216.316	-4.86
216.535	-20.27
216.755	-30.59
216.974	-149.56
217.194	-198.64
217.413	-191.56
217.633	-192.33
217.852	-285.89
218.072	-113.95
218.291	-60.84
218.511	-16.89
218.73	-42.81
218.95	-37.94
219.169	-42.37
219.389	-100.17
219.608	-85.1
219.827	-70.97
220.047	-58.67
220.266	-44.79
220.485	-42.14
220.705	-25.51
220.924	-43.65
221.143	5.09
221.363	-4.59
221.582	13.02
221.801	6.58
222.021	31.44
222.24	-49.65
222.459	4.91
222.678	-29.91
222.897	-71.44
223.117	-136.2
223.336	-87.58
223.555	-78.41
223.774	-32.96
223.993	-22.05
224.213	40.73
224.432	13.5
224.651	36
224.87	7.57
225.089	15.21
225.308	8.5
225.527	33.37
225.746	14.68
225.965	6.53
226.184	-13.86
226.404	11.94
226.623	-14.64
226.842	-3.97
227.061	25.57
227.28	24.42
227.499	-10.32
227.718	6.27
227.936	-1.29
228.155	0.7
228.374	-16.93
228.593	3.47
228.812	-3.16
229.031	-8.88
229.25	-43.94
229.469	-19.29
229.688	25.7
229.907	42.16
230.125	45.77
230.344	45.01
230.563	66.61
230.782	50.67
231.001	-42.47
231.22	-33.24
231.438	5.23
231.657	-4.61
231.876	-15.65
232.095	47.58
232.313	42.09
232.532	-2.94
232.751	-35.18
232.969	-57.35
233.188	-119.95
233.407	-7.5
233.625	-12.57
233.844	-24.43
234.063	0.36
234.281	7.37
234.5	-27.34
234.719	-1.61
234.937	16.33
235.156	18.9
235.374	6.25
235.593	0.92
235.811	-16.28
236.03	-29.47
236.249	-71.85
236.467	-50.34
236.686	-12.02
236.904	7.08
237.123	-26.61
237.341	-25.42
237.559	-20.37
237.778	-49.13
237.996	-71.65
238.215	-9.45
238.433	5.12
238.652	7.83
238.87	-15.7
239.088	-14.59
239.307	-13.51
239.525	-21.15
239.743	-41.35
239.962	-10.73
240.18	-40.3
240.398	-83.99
240.617	-91.7
240.835	-68.43
241.053	-38.47
241.271	35.73
241.49	29.26
241.708	20.36
241.926	-19.45
242.144	-26.38
242.363	-114.29
242.581	-146.89
242.799	-87.78
243.017	-41.81
243.235	-59.11
243.453	-33.77
243.672	-19.43
243.89	-24.94
244.108	-42.13
244.326	-19.77
244.544	-0.63
244.762	7.55
244.98	21.92
245.198	34.78
245.416	1.91
245.634	-15.11
245.852	-29.4
246.07	-42.75
246.288	-40.56
246.506	-38.01
246.724	-30.13
246.942	-17.13
247.16	-2.98
247.378	-0.11
247.596	12.82
247.814	27.88
248.032	-14.66
248.25	-15.44
248.468	-3.01
248.685	15.98
248.903	22.57
249.121	35.96
249.339	12.92
249.557	-9.27
249.775	-0.77
249.992	-71.43
250.21	-74.51
250.428	-55.56
250.646	-66.47
250.863	-104.41
251.081	-59.49
251.299	-33.58
251.517	-23.2
251.734	-14.77
251.952	-18.24
252.17	-18.26
252.387	-10.81
252.605	-16.63
252.823	-8.52
253.04	15.35
253.258	35.2
253.475	33.02
253.693	60.67
253.911	49.5
254.128	46.44
254.346	45.54
254.563	17.9
254.781	-20.54
254.998	-49.31
255.216	-50.7
255.433	-51.82
255.651	-0.14
255.868	27.39
256.086	60.76
256.303	51.42
256.521	34.11
256.738	-4.46
256.956	-35.59
257.173	-61.4
257.39	-94.36
257.608	-120.13
257.825	-63.8
258.043	-3.24
258.26	6.09
258.477	58.21
258.695	45.74
258.912	-3.11
259.129	-24.3
259.346	-57.68
259.564	-109.48
259.781	-117.26
259.998	-41.2
260.216	-1.26
260.433	29.06
260.65	27.84
260.867	56.26
261.084	24.75
261.302	-3.92
261.519	-31.64
261.736	-55.97
261.953	-85.57
262.17	-23.07
262.387	-54.85
262.604	-77.72
262.822	-86.21
263.039	-63.33
263.256	-147.17
263.473	-116.73
263.69	-66.54
263.907	-0.08
264.124	0.62
264.341	18.78
264.558	16.07
264.775	27.59
264.992	6
265.209	7.18
265.426	23.82
265.643	22.46
265.86	29.67
266.077	27.01
266.294	6.82
266.51	-42.09
266.727	-35.9
266.944	-34.91
267.161	-42.07
267.378	-31.39
267.595	13.94
267.812	-25.18
268.028	-49.79
268.245	-19.01
268.462	-38.32
268.679	-60.83
268.896	17.19
269.112	33.27
269.329	23.58
269.546	44.53
269.763	42.78
269.979	29.3
270.196	15.43
270.413	-13.1
270.629	-36.84
270.846	-46.86
271.063	-41.32
271.279	-69.08
271.496	-67.46
271.712	-27.47
271.929	-5.27
272.146	-41.13
272.362	-17.32
272.579	38.56
272.795	40.1
273.012	34.12
273.228	41.55
273.445	16.6
273.661	-26.33
273.878	-95.25
274.094	-92.46
274.311	-111.81
274.527	-30.75
274.744	-15.31
274.96	1.49
275.177	25.01
275.393	39.61
275.609	25.62
275.826	35.81
276.042	27.5
276.259	-0.88
276.475	14.62
276.691	9.16
276.908	-19.78
277.124	9.37
277.34	7.24
277.557	-14.77
277.773	-21.58
277.989	-17.63
278.205	-42.54
278.422	-26.21
278.638	-10.69
278.854	12.59
279.07	12.39
279.286	18.1
279.503	-12.05
279.719	-19.22
279.935	-43.16
280.151	-33.4
280.367	-14.97
280.583	-35.15
280.799	-47.8
281.016	-83.04
281.232	-44.25
281.448	-68.15
281.664	-17.11
281.88	-46.63
282.096	-4.6
282.312	7.12
282.528	43.02
282.744	28.25
282.96	34.85
283.176	14.33
283.392	3.7
283.608	-6.62
283.824	-19.17
284.04	-7.76
284.256	1.99
284.471	-17.17
284.687	-16.05
284.903	17.34
285.119	29.86
285.335	5.19
285.551	23.3
285.767	0.52
285.982	-8.81
286.198	-47.36
286.414	15.46
286.63	17.4
286.846	43.93
287.061	18.73
287.277	54.84
287.493	19.13
287.709	36.21
287.924	12.28
288.14	53.14
288.356	29.91
288.571	52.27
288.787	20.9
289.003	26.4
289.218	-5.99
289.434	-39.48
289.65	-36.1
289.865	-34.34
290.081	-23.02
290.296	-5.48
290.512	5.18
290.727	-25.07
290.943	-35.17
291.159	-47.2
291.374	-42.69
291.59	-56.9
291.805	-44.08
292.021	-26.12
292.236	-18.83
292.451	-13.15
292.667	-2.34
292.882	13.46
293.098	-5.35
293.313	-22.87
293.529	-46.54
293.744	-58.14
293.959	-74.48
294.175	-55.47
294.39	-23.35
294.605	-2.08
294.821	18.67
295.036	21.55
295.251	25.31
295.467	11.32
295.682	-0.65
295.897	-54.09
296.112	-45.96
296.328	-47.95
296.543	-89.71
296.758	-93.63
296.973	-36.06
297.188	9.25
297.404	-12.42
297.619	-9.32
297.834	-16.89
298.049	-42.93
298.264	-85.37
298.479	-18.13
298.694	-6.3
298.909	2.28
299.125	9.17
299.34	14.91
299.555	-33.73
299.77	-34.16
299.985	-64.83
300.2	-106.3
300.415	-131.36
300.63	-76.51
300.845	-77.17
301.06	-60.06
301.275	-31.17
301.49	4.62
301.704	-15.49
301.919	-18.28
302.134	-37.5
302.349	-41.6
302.564	-119.6
302.779	-128.55
302.994	-116.38
303.209	-42.3
303.423	27.1
303.638	65.89
303.853	24
304.068	12.88
304.283	-10.83
304.497	-30.8
304.712	-39.77
304.927	-18.13
305.142	-22.36
305.356	-8.44
305.571	-12.06
305.786	-30.33
306	-64.09
306.215	-60.24
306.43	-84.49
306.644	-93.73
306.859	-33.01
307.074	-1.11
307.288	-28.32
307.503	-50.94
307.717	-39.59
307.932	-46.92
308.147	-50.91
308.361	-20.68
308.576	-13.95
308.79	-50.56
309.005	-55.52
309.219	-37.71
309.434	-48.73
309.648	-43.87
309.863	-20.53
310.077	-25.98
310.292	-35.25
310.506	-40.01
310.72	-13.13
310.935	-13.57
311.149	-8.67
311.364	13.64
311.578	28.81
311.792	15.38
312.007	30.29
312.221	16.78
312.435	9.21
312.649	-8.63
312.864	4.69
313.078	18.19
313.292	70.53
313.507	49.09
313.721	79.99
313.935	54.04
314.149	32.88
314.363	14.51
314.578	17.8
314.792	15.91
315.006	-10.44
315.22	2.69
315.434	13.43
315.648	21.08
315.862	17.18
316.077	28.02
316.291	1.94
316.505	-14.42
316.719	-27.14
316.933	-48.66
317.147	-59.16
317.361	-86.86
317.575	-95.02
317.789	-137.8
318.003	-180.19
318.217	-132.76
318.431	-45.25
318.645	-7.47
318.859	-2.55
319.073	20.7
319.287	1.54
319.5	-32.68
319.714	-68.26
319.928	-94.26
320.142	-128.41
320.356	-56.98
320.57	-16.25
320.784	-38.39
320.997	-61.8
321.211	-24.19
321.425	-93.46
321.639	-133.06
321.853	-46.27
322.066	-6.91
322.28	-25.67
322.494	-6.79
322.707	23.07
322.921	-0.61
323.135	-10.93
323.349	10.12
323.562	-24.67
323.776	-45.68
323.989	-44.99
324.203	-64.89
324.417	-85.76
324.63	-77.61
324.844	-64.14
325.057	-48.26
325.271	-24.53
325.485	6.67
325.698	23.31
325.912	40.12
326.125	10.59
326.339	10.22
326.552	-13.8
326.766	-11.24
326.979	-0.29
327.193	32.62
327.406	20.86
327.619	12.16
327.833	17.79
328.046	-16.44
328.26	-54.33
328.473	-20.66
328.686	-28.79
328.9	-24.4
329.113	-13.71
329.326	-32.91
329.54	-37.21
329.753	-65.14
329.966	-89.51
330.179	-79.56
330.393	-48.08
330.606	-38.69
330.819	-3.68
331.032	15.93
331.246	23.1
331.459	58.34
331.672	48.54
331.885	36.32
332.098	14.37
332.311	17.79
332.525	-42.94
332.738	-26.31
332.951	-16.24
333.164	9.22
333.377	8.81
333.59	28.3
333.803	30.13
334.016	36.01
334.229	33.32
334.442	39.93
334.655	40.31
334.868	23.12
335.081	4.85
335.294	-12.44
335.507	-13
335.72	-20.67
335.933	-32.19
336.146	-33.77
336.359	-25.52
336.572	-65.59
336.785	-95.78
336.997	-54.09
337.21	-29.61
337.423	-35.3
337.636	-19.96
337.849	12.44
338.062	-6.7
338.274	-9.2
338.487	-14.36
338.7	-8.36
338.913	-50.71
339.125	-77.97
339.338	-142.31
339.551	-110.41
339.763	-94.99
339.976	-66.25
340.189	-40.45
340.402	-0.09
340.614	-8.55
340.827	-13.83
341.039	-28.55
341.252	-14.9
341.465	-13.09
341.677	-17.86
341.89	-52.13
342.102	-20.58
342.315	-42.92
342.527	-71.16
342.74	-68.31
342.952	-7.78
343.165	-13.27
343.377	11.25
343.59	7.16
343.802	30.95
344.015	22.19
344.227	39.9
344.44	31.49
344.652	36.24
344.864	21.83
345.077	32.99
345.289	28.56
345.502	29.57
345.714	18.42
345.926	16.16
346.139	1.51
346.351	2.56
346.563	17.46
346.775	29.69
346.988	24.42
347.2	16.04
347.412	-21.94
347.624	-50.03
347.837	-71.79
348.049	-41.48
348.261	-15.28
348.473	-4.01
348.685	-3.18
348.897	-3.75
349.11	-18.59
349.322	-33.32
349.534	-26.05
349.746	-22.88
349.958	-12.56
350.17	-24.56
350.382	-1.64
350.594	1.3
350.806	-0.79
351.018	8.47
351.23	-10.59
351.442	-60.12
351.654	-77.35
351.866	-68.11
352.078	-87.81
352.29	-32.22
352.502	-7.11
352.714	11.46
352.926	-9.19
353.138	-9.01
353.35	-23.79
353.561	-35.75
353.773	-54.66
353.985	-28.29
354.197	-37.77
354.409	-40.79
354.621	-41.16
354.832	-33.2
355.044	-39.98
355.256	-30.84
355.468	-15.77
355.679	-20.81
355.891	-12.09
356.103	-27.81
356.314	-23.39
356.526	-31.99
356.738	-19.6
356.949	-41.97
357.161	-13.42
357.373	-9.91
357.584	-22.94
357.796	-5.87
358.008	-0.33
358.219	8.04
358.431	3.84
358.642	23.06
358.854	22.19
359.065	10.69
359.277	-16.62
359.488	-28.41
359.7	-50.13
359.911	-82.82
360.123	-47.38
360.334	-67.28
360.546	-86.19
360.757	-87.93
360.969	-61.9
361.18	-65.55
361.391	-40.01
361.603	-34.4
361.814	-16.98
362.025	-20.34
362.237	-26.85
362.448	-14.11
362.659	3.67
362.871	-9.54
363.082	-13.75
363.293	-11.66
363.504	-30.38
363.716	-52.92
363.927	-55.62
364.138	-70.91
364.349	-83.05
364.56	-68.85
364.772	-63.43
364.983	-27.39
365.194	-19.18
365.405	-3.2
365.616	7.39
365.827	9.84
366.038	-29.36
366.25	-39.29
366.461	-90.98
366.672	-54.04
366.883	-39.17
367.094	-31.56
367.305	-28.73
367.516	-7.58
367.727	-46.46
367.938	-50.84
368.149	-41.77
368.36	-30.44
368.571	-21.63
368.781	-24.65
368.992	-34.29
369.203	-37.63
369.414	-65.8
369.625	-80.78
369.836	-74.91
370.047	-104.64
370.258	-92.52
370.468	-80.47
370.679	-103.68
370.89	-84.49
371.101	-58.76
371.312	-59.22
371.522	-52.83
371.733	-23.5
371.944	-9.71
372.155	7.54
372.365	-8.22
372.576	-12.55
372.787	-20.45
372.997	-56.83
373.208	-71.41
373.419	-25.43
373.629	-46.16
373.84	-39.85
374.05	-32.98
374.261	-14.79
374.472	-53.32
374.682	5.71
374.893	0.36
375.103	33.24
375.314	27.84
375.524	29.86
375.735	16.42
375.945	21.98
376.156	-7.56
376.366	-10.83
376.577	-9.54
376.787	-17.84
376.997	-15.29
377.208	-17.39
377.418	-30.14
377.629	-14.37
377.839	-13.57
378.049	-17.32
378.26	5.64
378.47	17.65
378.68	2.51
378.89	0.91
379.101	0.73
379.311	-30.58
379.521	-53.54
379.732	-48.37
379.942	-54.1
380.152	-69.68
380.362	-35.49
380.572	-32.29
380.783	-20.39
380.993	-13.11
381.203	1.89
381.413	12.83
381.623	16.61
381.833	20.95
382.043	10.49
382.253	-2.45
382.463	-9.19
382.674	-18.33
382.884	-50.23
383.094	-39.35
383.304	-24.37
383.514	-19.98
383.724	-6.9
383.934	-6.44
384.144	-15.49
384.353	-22.35
384.563	-23.18
384.773	-15.64
384.983	-12.89
385.193	-2.25
385.403	1.88
385.613	-0.72
385.823	-14.03
386.033	-6.7
386.242	-14.33
386.452	-20.08
386.662	-26.59
386.872	-17.79
387.082	-21.48
387.291	-26.2
387.501	-26.3
387.711	-15.39
387.921	-19.84
388.13	-16.26
388.34	-1.93
388.55	-7.33
388.759	-8.95
388.969	-3.06
389.179	-4.68
389.388	-6.25
389.598	1.84
389.807	-7.01
390.017	-12.46
390.227	-12.81
390.436	-13.81
390.646	-13.38
390.855	-2.8
391.065	-0.42
391.274	0.05
391.484	-3.17
391.693	-1.5
391.903	-2.79
392.112	3.25
392.322	6.08
392.531	11.27
392.74	11.11
392.95	7.54
393.159	3.5
393.369	2.22
393.578	0.69
393.787	-1.67
393.997	-0.08
394.206	-1.8
394.415	-0.47
394.625	-1.32
394.834	-2.09
395.043	-2.18
395.252	1.8
395.462	3.62
395.671	5.55
395.88	7.03
396.089	8.94
396.298	5.85
396.508	4.96
396.717	3.49
396.926	4.26
397.135	3.47
397.344	3.98
397.553	4.39
397.762	6.29
397.971	6.15
398.181	6.1
398.39	5.62
398.599	5.17
398.808	4.63
399.017	5.42
399.226	6.89
399.435	8.56
399.644	8.97
399.853	8.09
400.062	7.57
400.27	6.64
400.479	5.94
400.688	4.92
400.897	5.49
401.106	5.44
401.315	5.12
401.524	5.15
401.733	6.03
401.941	6.4
402.15	6.52
402.359	6.59
402.568	7.15
402.777	7.26
402.985	7.04
403.194	6.89
403.403	6.98
403.612	6.3
403.82	6.04
404.029	6.17
404.238	6
404.446	6.26
404.655	6.28
404.864	6.09
405.072	5.95
405.281	6.23
405.489	5.92
405.698	5.97
405.906	6.07
406.115	5.95
406.324	5.77
406.532	6.03
406.741	6.41
406.949	6.49
407.158	6.61
407.366	6.68
407.574	6.63
407.783	6.48
407.991	6.31
408.2	6.53
408.408	6.45
408.617	6.23
408.825	5.98
409.033	6.19
409.242	6.03
409.45	6.22
409.658	6.02
409.867	6.12
410.075	5.8
410.283	5.71
410.491	5.39
410.7	5.45
410.908	5.52
411.116	5.91
411.324	5.82
411.533	5.96
411.741	6.21
411.949	6.17
412.157	5.86
412.365	5.94
412.573	6
412.781	5.96
412.99	5.89
413.198	6.03
413.406	6.04
413.614	5.96
413.822	5.87
414.03	5.69
414.238	5.52
414.446	5.53
414.654	5.25
414.862	5.37
415.07	5.48
415.278	5.77
415.486	5.54
415.694	5.79
415.902	5.57
416.109	5.51
416.317	5.29
416.525	5.14
416.733	5.06
416.941	5.2
417.149	5.05
417.357	5.06
417.564	5.38
417.772	5.62
417.98	5.54
418.188	5.66
418.395	5.57
418.603	5.56
418.811	5.01
419.019	4.97
419.226	5.35
419.434	5.57
419.642	5.33
419.849	5.63
420.057	5.67
420.265	5.3
420.472	4.83
420.68	4.9
420.887	4.68
421.095	4.64
421.302	4.66
421.51	5.04
421.717	5.16
421.925	5.3
422.132	5.07
422.34	4.74
422.547	4.65
422.755	4.52
422.962	4.52
423.17	4.53
423.377	4.83
423.585	4.8
423.792	4.76
423.999	4.83
424.207	4.77
424.414	4.77
424.621	4.95
424.829	4.95
425.036	4.96
425.243	5.16
425.451	4.96
425.658	4.55
425.865	4.79
426.072	4.74
426.28	5.08
426.487	5.27
426.694	5.5
426.901	5.25
427.108	5.33
427.315	5.04
427.523	5.24
427.73	5.26
427.937	5.22
428.144	4.9
428.351	4.82
428.558	4.76
428.765	4.62
428.972	4.45
429.179	4.71
429.386	5.05
429.593	4.76
429.8	4.65
430.007	5.01
430.214	5.04
430.421	4.84
430.628	4.82
430.835	4.78
431.042	4.91
431.249	4.94
431.456	4.87
431.662	5.1
431.869	5.43
432.076	5.36
432.283	5.39
432.49	5.49
432.697	5.57
432.903	5.24
433.11	5.2
433.317	5.35
433.524	5.56
433.73	5.35
433.937	5.75
434.144	5.56
434.35	5.51
434.557	5.25
434.764	5.39
434.97	5.29
435.177	5.6
435.384	5.46
435.59	5.64
435.797	5.78
436.003	5.85
436.21	5.76
436.416	5.8
436.623	5.7
436.829	5.69
437.036	5.67
437.242	5.76
437.449	5.75
437.655	5.78
437.862	5.85
438.068	5.73
438.275	5.71
438.481	5.97
438.687	5.93
438.894	5.79
439.1	5.81
439.307	6.01
439.513	5.82
439.719	5.83
439.926	5.89
440.132	5.95
440.338	5.69
440.544	5.87
440.751	5.9
440.957	5.99
441.163	5.85
441.369	6.09
441.575	5.84
441.782	5.83
441.988	5.67
442.194	5.78
442.4	5.66
442.606	6
442.812	6.14
443.018	6.27
443.224	6.32
443.431	6.42
443.637	6.19
443.843	6.07
444.049	6.06
444.255	5.97
444.461	5.9
444.667	5.79
444.873	5.9
445.079	5.9
445.284	6.13
445.49	5.94
445.696	5.88
445.902	5.79
446.108	5.77
446.314	5.73
446.52	5.82
446.726	6.09
446.931	6.09
447.137	6.16
447.343	6.16
447.549	6.07
447.755	5.93
447.96	5.99
448.166	5.85
448.372	5.8
448.578	5.98
448.783	6.01
448.989	6.04
449.195	6.32
449.4	6.33
449.606	6.22
449.812	6.18
450.017	6.21
450.223	6.06
450.428	5.98
450.634	6.18
450.84	6.36
451.045	6.28
451.251	6.23
451.456	6.49
451.662	6.51
451.867	6.51
452.073	6.53
452.278	6.67
452.483	6.66
452.689	6.52
452.894	6.54
453.1	6.52
453.305	6.41
453.51	6.3
453.716	6.21
453.921	6.24
454.127	6.16
454.332	6.07
454.537	5.98
454.742	5.97
454.948	5.89
455.153	5.96
455.358	6.12
455.563	6.31
455.769	6.44
455.974	6.38
456.179	6.28
456.384	6.23
456.589	6.1
456.795	5.9
457	5.79
457.205	6.02
457.41	5.99
457.615	5.97
457.82	6.08
458.025	6.2
458.23	6
458.435	6
458.64	5.93
458.845	6.05
459.05	6.01
