Data from Ofra_2a_PS_OCX4_Reflection_1.txt Node
Date: Tue Jul 20 09:21:36 EDT 2021
User: Adam
Spectrometer: FLMT01687
Trigger mode: 0
Integration Time (sec): 9.450000E-1
Scans to average: 3
Electric dark correction enabled: true
Nonlinearity correction enabled: false
Boxcar width: 3
XAxis mode: Wavelengths
Number of Pixels in Spectrum: 3648
>>>>>Begin Spectral Data<<<<<
179.494	28.4
179.716	-9.77
179.937	60.99
180.158	-78.52
180.38	504.94
180.601	160.32
180.823	72.95
181.044	36.75
181.265	-64.95
181.486	33.47
181.708	-277.17
181.929	-26.86
182.15	-697.16
182.372	90.16
182.593	13.61
182.814	277.99
183.035	238.95
183.257	140.95
183.478	71.75
183.699	90.48
183.92	71.18
184.141	72.92
184.363	63.26
184.584	60.68
184.805	42.96
185.026	12.08
185.247	4.54
185.468	-12.37
185.689	-8.55
185.91	-12.03
186.132	-9.89
186.353	-15.79
186.574	0.19
186.795	-21.47
187.016	-4.96
187.237	-4.52
187.458	-16.31
187.679	-32.49
187.9	-17.87
188.121	7.07
188.342	38
188.563	34.96
188.784	27.81
189.005	38.01
189.226	31.87
189.447	28.97
189.667	24.55
189.888	20.94
190.109	6.76
190.33	-1.07
190.551	0.96
190.772	-8.87
190.993	2.93
191.214	5.51
191.434	4.8
191.655	23.24
191.876	32.08
192.097	21.68
192.318	33.13
192.538	32.25
192.759	31.4
192.98	15.87
193.201	19.2
193.421	18.58
193.642	22.98
193.863	6.37
194.083	-8.61
194.304	-11.83
194.525	20.02
194.745	-3
194.966	9.63
195.187	9.19
195.407	17.53
195.628	24.44
195.848	21.06
196.069	17.99
196.29	16.59
196.51	4.1
196.731	18.94
196.951	13.83
197.172	19.36
197.392	33.61
197.613	23.05
197.833	14.91
198.054	15.27
198.274	3.59
198.495	6.07
198.715	2.38
198.936	-26.46
199.156	-2.03
199.377	12.23
199.597	-5.96
199.817	12.32
200.038	20.42
200.258	5.46
200.479	13.1
200.699	-1.09
200.919	1.74
201.14	21.24
201.36	11.19
201.58	7.36
201.801	6.85
202.021	6.35
202.241	13.62
202.461	15
202.682	22.38
202.902	24.14
203.122	15.51
203.342	30.66
203.563	35.23
203.783	36.06
204.003	37.64
204.223	36.86
204.443	29.47
204.663	35.67
204.884	33.07
205.104	32.69
205.324	29.08
205.544	40.06
205.764	22.96
205.984	31.88
206.204	35.77
206.424	26.18
206.644	22.24
206.864	23.49
207.084	11.56
207.304	11.74
207.525	5.1
207.745	-5.36
207.964	-6.86
208.184	-0.85
208.404	-1.16
208.624	-18.58
208.844	-9.8
209.064	-8.46
209.284	0.41
209.504	-8.8
209.724	-20.91
209.944	-27.12
210.164	6.99
210.384	0.89
210.604	14.82
210.823	21.68
211.043	33.82
211.263	45.78
211.483	48.27
211.703	45.77
211.922	42.06
212.142	41.88
212.362	46.93
212.582	45.47
212.801	35.47
213.021	30.56
213.241	36.1
213.461	42.13
213.68	46.11
213.9	34.91
214.12	36.41
214.339	32.95
214.559	36.32
214.779	34.48
214.998	24.54
215.218	16.25
215.438	24.37
215.657	21.12
215.877	24.1
216.096	24.98
216.316	23.25
216.535	26.7
216.755	15.11
216.974	5.76
217.194	4.48
217.413	16.53
217.633	16.97
217.852	20.75
218.072	20.06
218.291	37
218.511	38.15
218.73	40.57
218.95	44.56
219.169	47.18
219.389	41
219.608	45.61
219.827	38.87
220.047	58.31
220.266	50.88
220.485	37.67
220.705	28.39
220.924	20.3
221.143	19.22
221.363	20.98
221.582	13.28
221.801	15.56
222.021	24.39
222.24	27.51
222.459	31.91
222.678	32.78
222.897	29.81
223.117	35.32
223.336	45.08
223.555	31.04
223.774	42.88
223.993	47.21
224.213	41.19
224.432	56.94
224.651	39.26
224.87	19.61
225.089	38.61
225.308	33.99
225.527	31.07
225.746	37.73
225.965	11.55
226.184	14.5
226.404	22.91
226.623	7.43
226.842	16.93
227.061	14.63
227.28	17.58
227.499	36.29
227.718	33.19
227.936	25.66
228.155	30.3
228.374	24.81
228.593	22.43
228.812	17.42
229.031	6.53
229.25	14.56
229.469	23.31
229.688	23.37
229.907	22.43
230.125	29.58
230.344	29.24
230.563	32.62
230.782	27.56
231.001	31.14
231.22	23.72
231.438	30.18
231.657	24.71
231.876	33.84
232.095	35.72
232.313	39.38
232.532	33.35
232.751	42.41
232.969	44.06
233.188	42.74
233.407	30.73
233.625	32.75
233.844	36.99
234.063	31.6
234.281	30.67
234.5	27.25
234.719	22.9
234.937	25.01
235.156	24.35
235.374	21.87
235.593	28.32
235.811	14.67
236.03	13.4
236.249	32.08
236.467	44.23
236.686	54.74
236.904	39.73
237.123	40.3
237.341	47.43
237.559	47.89
237.778	54.15
237.996	50.31
238.215	35.57
238.433	37.65
238.652	41.19
238.87	36.04
239.088	31.79
239.307	24.47
239.525	16.52
239.743	15.62
239.962	14.34
240.18	20.91
240.398	29.63
240.617	35.75
240.835	40.11
241.053	46.7
241.271	56.55
241.49	56.19
241.708	46.62
241.926	28.74
242.144	25.7
242.363	13.64
242.581	14.56
242.799	5.2
243.017	4.46
243.235	-0.12
243.453	3.42
243.672	1.89
243.89	16.7
244.108	12.7
244.326	7.25
244.544	25.41
244.762	27.91
244.98	37.1
245.198	34.14
245.416	28.97
245.634	38.14
245.852	45.06
246.07	24.62
246.288	12.52
246.506	7.98
246.724	10.2
246.942	13.92
247.16	15.33
247.378	5.6
247.596	17.87
247.814	16.43
248.032	19.13
248.25	19.32
248.468	20.79
248.685	23.18
248.903	24.88
249.121	27.86
249.339	34.9
249.557	40.19
249.775	24.53
249.992	17.35
250.21	10.24
250.428	12.45
250.646	16.84
250.863	21.14
251.081	10.97
251.299	34.69
251.517	41.28
251.734	44.12
251.952	42.03
252.17	24.36
252.387	22.73
252.605	18.35
252.823	-7.64
253.04	6.21
253.258	-6.33
253.475	-7.92
253.693	10.98
253.911	11.85
254.128	14.36
254.346	17.86
254.563	10.75
254.781	10.92
254.998	18.93
255.216	10.93
255.433	4.57
255.651	12.35
255.868	16.54
256.086	5.84
256.303	13.82
256.521	-6.8
256.738	5.51
256.956	2.64
257.173	5.42
257.39	13.89
257.608	20.55
257.825	17.39
258.043	30.91
258.26	23.43
258.477	23.59
258.695	22.8
258.912	26.01
259.129	26.47
259.346	28.59
259.564	9
259.781	16.68
259.998	18.52
260.216	14.9
260.433	3.43
260.65	8.8
260.867	-6.35
261.084	9.33
261.302	3.02
261.519	-3.58
261.736	1.09
261.953	-6.16
262.17	-4.35
262.387	9.58
262.604	-7.31
262.822	-1.79
263.039	0.79
263.256	-1.09
263.473	4.9
263.69	-0.61
263.907	3.15
264.124	9.25
264.341	17.44
264.558	19.31
264.775	20.44
264.992	25.96
265.209	36.47
265.426	31.93
265.643	34.34
265.86	23.56
266.077	28.1
266.294	27.44
266.51	28.02
266.727	11.24
266.944	-0.23
267.161	-10.33
267.378	-7.88
267.595	-11.55
267.812	-16.74
268.028	-12.31
268.245	0.81
268.462	10.35
268.679	11.23
268.896	5.57
269.112	17.48
269.329	32.22
269.546	28.56
269.763	23.26
269.979	19.77
270.196	31.99
270.413	42.07
270.629	30.51
270.846	25.55
271.063	24.66
271.279	31.95
271.496	30.68
271.712	26.79
271.929	21.84
272.146	23.75
272.362	7.07
272.579	3.32
272.795	-5.41
273.012	-3.81
273.228	-1.45
273.445	-0.18
273.661	-3.29
273.878	7.91
274.094	18.2
274.311	15.88
274.527	21.3
274.744	13.77
274.96	11.38
275.177	8.6
275.393	6.29
275.609	1.08
275.826	7.24
276.042	5.52
276.259	8.39
276.475	9.64
276.691	15.35
276.908	12.48
277.124	13.76
277.34	11.07
277.557	10.22
277.773	12.17
277.989	9.26
278.205	-2.45
278.422	0.75
278.638	5.68
278.854	5.69
279.07	2.54
279.286	-3.05
279.503	6.57
279.719	23.97
279.935	25.27
280.151	29.21
280.367	34.49
280.583	32.12
280.799	35.52
281.016	29.29
281.232	16.11
281.448	12.02
281.664	-0.3
281.88	3.94
282.096	8.3
282.312	1.15
282.528	-23.8
282.744	-20.6
282.96	-9.22
283.176	-8.13
283.392	-10.91
283.608	-9.17
283.824	0.72
284.04	21.01
284.256	32.8
284.471	29.34
284.687	32.91
284.903	23.41
285.119	16.42
285.335	12.75
285.551	23.34
285.767	22.58
285.982	21.67
286.198	22.01
286.414	33.27
286.63	41.43
286.846	42.22
287.061	48.07
287.277	43.97
287.493	39.18
287.709	34.35
287.924	35.53
288.14	32.03
288.356	34.81
288.571	17.11
288.787	25.16
289.003	34.75
289.218	40.45
289.434	39.38
289.65	47.73
289.865	47.23
290.081	46.88
290.296	45.05
290.512	50.79
290.727	58.69
290.943	49.59
291.159	34.5
291.374	34.11
291.59	32.61
291.805	28.61
292.021	11.43
292.236	7.74
292.451	10.18
292.667	19.9
292.882	17.78
293.098	16.77
293.313	20.63
293.529	28.5
293.744	23.08
293.959	19.06
294.175	28.74
294.39	36.55
294.605	37.11
294.821	37.69
295.036	45.48
295.251	44.5
295.467	47.06
295.682	38.44
295.897	33.4
296.112	34.34
296.328	35.9
296.543	29.46
296.758	27.22
296.973	29.18
297.188	22.31
297.404	31.4
297.619	31.99
297.834	28.7
298.049	27.02
298.264	31.03
298.479	25.06
298.694	26.64
298.909	17.64
299.125	16.98
299.34	15.07
299.555	16.07
299.77	15.93
299.985	19.59
300.2	20.84
300.415	23.34
300.63	19.19
300.845	17.57
301.06	13.88
301.275	17.82
301.49	20.53
301.704	19.58
301.919	16.78
302.134	25.54
302.349	26.48
302.564	28.24
302.779	14.19
302.994	13.05
303.209	12.93
303.423	12.33
303.638	10.82
303.853	15.2
304.068	16.89
304.283	19.72
304.497	21.03
304.712	21.57
304.927	22.32
305.142	15.39
305.356	11.66
305.571	15.01
305.786	9.36
306	10.19
306.215	11.11
306.43	14.88
306.644	16.74
306.859	21.81
307.074	17.98
307.288	27.82
307.503	28.14
307.717	29.09
307.932	32.59
308.147	36.79
308.361	27.59
308.576	29.17
308.79	23.57
309.005	21.3
309.219	20.63
309.434	7.1
309.648	-2.86
309.863	0.65
310.077	0.4
310.292	12.08
310.506	24.78
310.72	26.07
310.935	39.15
311.149	39.48
311.364	40.23
311.578	38.82
311.792	32.34
312.007	23.62
312.221	19.05
312.435	15.05
312.649	24.9
312.864	22.93
313.078	17.66
313.292	24.34
313.507	24.23
313.721	30.32
313.935	38.87
314.149	25.08
314.363	24.15
314.578	32.17
314.792	24.26
315.006	29.31
315.22	39.18
315.434	29.93
315.648	35.19
315.862	41.06
316.077	30.63
316.291	35.94
316.505	29.62
316.719	4.56
316.933	8.39
317.147	4.23
317.361	2.88
317.575	8.55
317.789	10.57
318.003	14.97
318.217	22.02
318.431	23.96
318.645	24.03
318.859	12.74
319.073	19.95
319.287	20.81
319.5	20.82
319.714	18.83
319.928	18.57
320.142	17.63
320.356	37.86
320.57	30.15
320.784	29.3
320.997	31.59
321.211	40.85
321.425	39.28
321.639	39.81
321.853	28.65
322.066	33.35
322.28	29.62
322.494	20.9
322.707	16.34
322.921	17.47
323.135	19.36
323.349	23.88
323.562	27.09
323.776	30.53
323.989	37.96
324.203	37.56
324.417	28.33
324.63	24.15
324.844	23.51
325.057	19.7
325.271	19.73
325.485	17.42
325.698	14.18
325.912	25.89
326.125	25.41
326.339	24.78
326.552	26.18
326.766	21.43
326.979	16.65
327.193	19.89
327.406	15.02
327.619	3.9
327.833	3.79
328.046	2.67
328.26	6.22
328.473	6.78
328.686	7.25
328.9	6.39
329.113	17.38
329.326	10.55
329.54	8.71
329.753	10.37
329.966	20.68
330.179	29.1
330.393	28.71
330.606	38.91
330.819	51.14
331.032	57.86
331.246	63.6
331.459	59.35
331.672	49.96
331.885	51.18
332.098	43.39
332.311	26.86
332.525	21.62
332.738	21.5
332.951	22.51
333.164	23.69
333.377	14.8
333.59	19.9
333.803	28.35
334.016	17.58
334.229	11.07
334.442	15.25
334.655	21.54
334.868	30.39
335.081	31.58
335.294	20.24
335.507	25.47
335.72	11.46
335.933	15.44
336.146	13.39
336.359	9.34
336.572	0.47
336.785	12.03
336.997	7.42
337.21	22.22
337.423	15.03
337.636	11.69
337.849	13.66
338.062	17.71
338.274	13.23
338.487	21.39
338.7	19.09
338.913	23.16
339.125	22.09
339.338	25.01
339.551	21.56
339.763	22.89
339.976	15.34
340.189	13.95
340.402	9.05
340.614	17.67
340.827	4.59
341.039	5.23
341.252	9.09
341.465	12.25
341.677	10.34
341.89	18.81
342.102	14.09
342.315	26.62
342.527	24.17
342.74	16.41
342.952	19.99
343.165	28.21
343.377	22.18
343.59	22.65
343.802	22.24
344.015	24.97
344.227	18.25
344.44	13.74
344.652	16.47
344.864	25.11
345.077	20.79
345.289	16.89
345.502	23.59
345.714	29.5
345.926	37.81
346.139	27.34
346.351	9.77
346.563	10.6
346.775	7.33
346.988	0.87
347.2	9.52
347.412	8.28
347.624	8.24
347.837	14.21
348.049	17.88
348.261	21.95
348.473	21.51
348.685	13.16
348.897	10.94
349.11	14
349.322	4.75
349.534	-7.6
349.746	-4.33
349.958	0.91
350.17	0.59
350.382	4.32
350.594	-1.36
350.806	6.4
351.018	20.4
351.23	16.42
351.442	19.99
351.654	23.38
351.866	26.21
352.078	29.98
352.29	32.31
352.502	31.88
352.714	39.4
352.926	37.57
353.138	40.5
353.35	36.2
353.561	38.18
353.773	39.76
353.985	40.11
354.197	33.53
354.409	34.98
354.621	36.58
354.832	31.68
355.044	32.3
355.256	26.78
355.468	15.71
355.679	12.44
355.891	14.92
356.103	10.82
356.314	12.81
356.526	8.6
356.738	7.44
356.949	13.19
357.161	24.48
357.373	21.78
357.584	25.88
357.796	29.18
358.008	28.74
358.219	34.47
358.431	32.66
358.642	25.6
358.854	30.82
359.065	26.71
359.277	18.97
359.488	11.48
359.7	12.6
359.911	13.08
360.123	14.47
360.334	7.5
360.546	3.82
360.757	3.93
360.969	10.62
361.18	1.96
361.391	5.39
361.603	4.41
361.814	6.77
362.025	6.17
362.237	10.28
362.448	9.85
362.659	9.91
362.871	7.43
363.082	8.91
363.293	9.35
363.504	14.59
363.716	16.95
363.927	16.14
364.138	28.79
364.349	33.51
364.56	33.52
364.772	32.94
364.983	30.62
365.194	36.04
365.405	40.56
365.616	25.32
365.827	28.57
366.038	28.78
366.25	32.06
366.461	38.02
366.672	27.86
366.883	29.11
367.094	29.64
367.305	21.39
367.516	20.46
367.727	17.65
367.938	19.71
368.149	21.72
368.36	18.87
368.571	16.75
368.781	17.21
368.992	17.01
369.203	18.09
369.414	6.79
369.625	7
369.836	4.41
370.047	1.94
370.258	2.78
370.468	-7.1
370.679	-10.56
370.89	2.42
371.101	3.06
371.312	3.03
371.522	4.34
371.733	-6.62
371.944	0.68
372.155	-2.6
372.365	-6.38
372.576	-5.96
372.787	-5.58
372.997	-2.74
373.208	3.81
373.419	5.78
373.629	8.73
373.84	5.06
374.05	5.88
374.261	4.02
374.472	6.2
374.682	11.51
374.893	9.73
375.103	11.32
375.314	8.49
375.524	8.1
375.735	7.32
375.945	7.97
376.156	8.9
376.366	13.14
376.577	18.93
376.787	24.76
376.997	23.81
377.208	27.95
377.418	24.5
377.629	20.38
377.839	19.49
378.049	17.79
378.26	15.15
378.47	22.01
378.68	18.2
378.89	15.68
379.101	11.73
379.311	9.37
379.521	15.48
379.732	8.33
379.942	4.4
380.152	14.39
380.362	17
380.572	23.76
380.783	22.02
380.993	19.75
381.203	24.62
381.413	20.77
381.623	18.22
381.833	16.27
382.043	10.91
382.253	11.16
382.463	13.48
382.674	19.32
382.884	15.19
383.094	11.93
383.304	7.89
383.514	14.72
383.724	12.64
383.934	8.94
384.144	6.19
384.353	14.06
384.563	14.04
384.773	18.02
384.983	13.46
385.193	15.19
385.403	15.55
385.613	13.8
385.823	10.17
386.033	8.81
386.242	7.99
386.452	8.08
386.662	5.46
386.872	5.01
387.082	8.01
387.291	8.19
387.501	10.63
387.711	9.06
387.921	11.04
388.13	13.09
388.34	11.71
388.55	10.78
388.759	10.16
388.969	6.8
389.179	8.92
389.388	7.49
389.598	6.49
389.807	6.44
390.017	7.25
390.227	7.08
390.436	8.04
390.646	7.55
390.855	7.7
391.065	7.46
391.274	6.59
391.484	6.06
391.693	5.93
391.903	5.31
392.112	6.25
392.322	7.86
392.531	8.68
392.74	7.41
392.95	7.22
393.159	7.69
393.369	8.68
393.578	7.11
393.787	5.55
393.997	5.51
394.206	6.79
394.415	6.43
394.625	5.3
394.834	3.99
395.043	4.43
395.252	4.5
395.462	4.19
395.671	4.02
395.88	4.15
396.089	4.15
396.298	4.11
396.508	3.98
396.717	3.78
396.926	3.61
397.135	3.6
397.344	3.42
397.553	3.91
397.762	3.98
397.971	3.8
398.181	3.85
398.39	3.68
398.599	3.7
398.808	3.72
399.017	3.59
399.226	3.99
399.435	4.03
399.644	3.9
399.853	4.24
400.062	4.16
400.27	4.34
400.479	4.19
400.688	4.27
400.897	4.49
401.106	4.65
401.315	4.41
401.524	4.45
401.733	4.13
401.941	4.2
402.15	3.76
402.359	3.6
402.568	3.52
402.777	3.5
402.985	3.42
403.194	3.48
403.403	3.33
403.612	3.48
403.82	3.49
404.029	3.52
404.238	3.51
404.446	3.51
404.655	3.45
404.864	3.62
405.072	3.63
405.281	3.5
405.489	3.55
405.698	3.49
405.906	3.49
406.115	3.56
406.324	3.36
406.532	3.3
406.741	3.41
406.949	3.3
407.158	3.38
407.366	3.44
407.574	3.44
407.783	3.49
407.991	3.44
408.2	3.35
408.408	3.32
408.617	3.27
408.825	3.23
409.033	3.15
409.242	3.16
409.45	3.19
409.658	3.19
409.867	3.21
410.075	3.22
410.283	3.08
410.491	3.09
410.7	3.1
410.908	3.2
411.116	3.15
411.324	3.24
411.533	3.13
411.741	3.23
411.949	3.2
412.157	3.13
412.365	2.98
412.573	2.96
412.781	2.85
412.99	2.97
413.198	2.93
413.406	2.86
413.614	2.85
413.822	2.98
414.03	2.96
414.238	2.96
414.446	2.95
414.654	2.92
414.862	2.9
415.07	3.01
415.278	2.86
415.486	2.93
415.694	2.89
415.902	2.76
416.109	2.78
416.317	2.8
416.525	2.76
416.733	2.88
416.941	2.83
417.149	2.93
417.357	2.99
417.564	2.98
417.772	3.02
417.98	2.97
418.188	2.86
418.395	2.91
418.603	2.81
418.811	2.75
419.019	2.76
419.226	2.82
419.434	2.77
419.642	2.72
419.849	2.65
420.057	2.66
420.265	2.74
420.472	2.73
420.68	2.61
420.887	2.58
421.095	2.65
421.302	2.69
421.51	2.78
421.717	2.77
421.925	2.63
422.132	2.67
422.34	2.66
422.547	2.56
422.755	2.53
422.962	2.3
423.17	2.22
423.377	2.35
423.585	2.29
423.792	2.3
423.999	2.35
424.207	2.29
424.414	2.42
424.621	2.48
424.829	2.45
425.036	2.45
425.243	2.55
425.451	2.54
425.658	2.6
425.865	2.49
426.072	2.51
426.28	2.54
426.487	2.55
426.694	2.47
426.901	2.46
427.108	2.5
427.315	2.5
427.523	2.45
427.73	2.47
427.937	2.46
428.144	2.49
428.351	2.62
428.558	2.5
428.765	2.58
428.972	2.6
429.179	2.49
429.386	2.58
429.593	2.59
429.8	2.53
430.007	2.57
430.214	2.56
430.421	2.56
430.628	2.58
430.835	2.48
431.042	2.43
431.249	2.4
431.456	2.42
431.662	2.42
431.869	2.41
432.076	2.44
432.283	2.48
432.49	2.51
432.697	2.54
432.903	2.52
433.11	2.57
433.317	2.61
433.524	2.55
433.73	2.6
433.937	2.54
434.144	2.61
434.35	2.61
434.557	2.62
434.764	2.6
434.97	2.72
435.177	2.74
435.384	2.85
435.59	2.82
435.797	2.85
436.003	2.86
436.21	2.82
436.416	2.74
436.623	2.72
436.829	2.71
437.036	2.69
437.242	2.71
437.449	2.76
437.655	2.81
437.862	2.86
438.068	2.89
438.275	2.86
438.481	2.92
438.687	2.95
438.894	2.86
439.1	2.88
439.307	2.88
439.513	2.89
439.719	2.92
439.926	2.92
440.132	2.88
440.338	2.94
440.544	2.93
440.751	2.95
440.957	2.94
441.163	2.98
441.369	2.99
441.575	3.02
441.782	3.04
441.988	3.02
442.194	3.09
442.4	3.15
442.606	3.12
442.812	3.2
443.018	3.2
443.224	3.2
443.431	3.29
443.637	3.27
443.843	3.27
444.049	3.28
444.255	3.2
444.461	3.26
444.667	3.3
444.873	3.25
445.079	3.25
445.284	3.23
445.49	3.26
445.696	3.35
445.902	3.41
446.108	3.39
446.314	3.45
446.52	3.45
446.726	3.48
446.931	3.47
447.137	3.39
447.343	3.36
447.549	3.38
447.755	3.34
447.96	3.38
448.166	3.34
448.372	3.4
448.578	3.47
448.783	3.47
448.989	3.45
449.195	3.52
449.4	3.57
449.606	3.61
449.812	3.58
450.017	3.57
450.223	3.56
450.428	3.57
450.634	3.55
450.84	3.52
451.045	3.55
451.251	3.57
451.456	3.54
451.662	3.5
451.867	3.51
452.073	3.5
452.278	3.48
452.483	3.41
452.689	3.42
452.894	3.43
453.1	3.45
453.305	3.47
453.51	3.51
453.716	3.49
453.921	3.56
454.127	3.56
454.332	3.59
454.537	3.59
454.742	3.57
454.948	3.56
455.153	3.59
455.358	3.57
455.563	3.56
455.769	3.58
455.974	3.63
456.179	3.63
456.384	3.6
456.589	3.63
456.795	3.6
457	3.59
457.205	3.56
457.41	3.58
457.615	3.61
457.82	3.72
458.025	3.71
458.23	3.74
458.435	3.74
458.64	3.79
458.845	3.75
459.05	3.75
459.255	3.66
459.46	3.61
459.665	3.67
459.87	3.71
460.075	3.69
460.28	3.69
460.485	3.74
460.69	3.77
460.895	3.81
461.099	3.77
461.304	3.73
461.509	3.72
461.714	3.74
461.919	3.7
462.123	3.73
462.328	3.79
462.533	3.78
462.738	3.83
462.942	3.91
463.147	3.95
463.352	3.96
463.556	4.02
463.761	3.99
463.966	4.03
464.17	4.05
464.375	4.04
464.58	4
464.784	4.02
464.989	3.99
465.193	4.01
465.398	4.06
465.602	4.05
465.807	4.03
466.011	4.1
466.216	4.08
466.42	4.06
466.625	4.07
466.829	4.1
467.034	4.1
467.238	4.14
467.443	4.21
467.647	4.23
467.851	4.28
468.056	4.33
468.26	4.29
468.464	4.32
468.669	4.36
468.873	4.29
469.077	4.34
469.282	4.36
469.486	4.37
469.69	4.46
469.894	4.53
470.099	4.58
470.303	4.64
