Data from Ofra_PS_T2_1A_1GT42_Reflection_2.txt Node
Date: Wed Jul 21 17:49:01 EDT 2021
User: Adam
Spectrometer: FLMT01687
Trigger mode: 0
Integration Time (sec): 1.100000E0
Scans to average: 2
Electric dark correction enabled: true
Nonlinearity correction enabled: false
Boxcar width: 2
XAxis mode: Wavelengths
Number of Pixels in Spectrum: 3648
>>>>>Begin Spectral Data<<<<<
179.494	531.8
179.716	647.53
179.937	596.32
180.158	611.94
180.38	987.97
180.601	473.9
180.823	77.43
181.044	-106.75
181.265	-77.39
181.486	-33.85
181.708	20.03
181.929	728.06
182.15	-544.72
182.372	43.67
182.593	-60.54
182.814	9.34
183.035	105.96
183.257	68.83
183.478	-11.44
183.699	47.79
183.92	28.77
184.141	32.24
184.363	-20.54
184.584	44.15
184.805	27.13
185.026	54.32
185.247	44.88
185.468	32.04
185.689	27.53
185.91	38.76
186.132	26.22
186.353	9.2
186.574	85.84
186.795	65.71
187.016	32.2
187.237	20.21
187.458	69.64
187.679	55.06
187.9	60.79
188.121	55.63
188.342	110.3
188.563	82.93
188.784	106
189.005	135.89
189.226	188.01
189.447	165.38
189.667	243.33
189.888	-19.09
190.109	-720.45
190.33	-735.32
190.551	-1295.35
190.772	-313.74
190.993	-261.28
191.214	-244.27
191.434	-103.32
191.655	-33.47
191.876	-57.5
192.097	-98.56
192.318	-92.78
192.538	-212.83
192.759	-135.75
192.98	-36.14
193.201	8.81
193.421	21.6
193.642	50.55
193.863	58.63
194.083	15.23
194.304	-7.56
194.525	-13
194.745	-39.63
194.966	-72.12
195.187	-45.77
195.407	-48.94
195.628	-75.74
195.848	-71.33
196.069	-35.33
196.29	44.27
196.51	8.7
196.731	-16.51
196.951	-32.86
197.172	-76.99
197.392	-163.67
197.613	-148.08
197.833	-167.94
198.054	-131.56
198.274	-56.25
198.495	-67.6
198.715	-44.41
198.936	-60.36
199.156	-71.24
199.377	-187.71
199.597	-164.9
199.817	-173.62
200.038	-86.38
200.258	-147.38
200.479	-59.89
200.699	-48.72
200.919	5.44
201.14	-20.41
201.36	-12.74
201.58	4.4
201.801	37.43
202.021	1.16
202.241	-11.01
202.461	-21.96
202.682	-124.94
202.902	-216.59
203.122	-123.93
203.342	-105.49
203.563	-60.45
203.783	-6.15
204.003	-30.22
204.223	-31
204.443	30.37
204.663	35.9
204.884	34.4
205.104	98.43
205.324	126.97
205.544	104.88
205.764	100.98
205.984	100.93
206.204	70.88
206.424	57.57
206.644	44.18
206.864	32.5
207.084	-25.33
207.304	-13.98
207.525	-157.42
207.745	-86.63
207.964	13.75
208.184	-0.29
208.404	-36.75
208.624	-31.19
208.844	-3.48
209.064	-258.47
209.284	-338.02
209.504	-189.07
209.724	-32.8
209.944	-11.02
210.164	32.64
210.384	59.75
210.604	75.93
210.823	24.59
211.043	-23.8
211.263	-31.39
211.483	-40.15
211.703	-120.08
211.922	-88.24
212.142	1.65
212.362	34.7
212.582	11.42
212.801	19.51
213.021	-6.18
213.241	-43.75
213.461	-89.61
213.68	-118.61
213.9	-78.19
214.12	-34.46
214.339	-83.58
214.559	-49.05
214.779	-3.32
214.998	-3.57
215.218	-52.25
215.438	-21.05
215.657	-46
215.877	-13.68
216.096	11.26
216.316	16.66
216.535	8.46
216.755	20.03
216.974	-58.31
217.194	-124.68
217.413	-126
217.633	-116.38
217.852	-227.98
218.072	-89.65
218.291	-43.88
218.511	3.54
218.73	-4.23
218.95	1.29
219.169	-18.66
219.389	-62.14
219.608	-49.29
219.827	-53.46
220.047	-36.47
220.266	-16.11
220.485	7.91
220.705	22.57
220.924	8.73
221.143	42.51
221.363	24.9
221.582	33.54
221.801	40.34
222.021	50.78
222.24	-11.7
222.459	72.33
222.678	30.61
222.897	-12.78
223.117	-46.47
223.336	-70.69
223.555	-52.72
223.774	-0.33
223.993	-10.3
224.213	30.45
224.432	-0.28
224.651	18.88
224.87	-15.34
225.089	19.61
225.308	7.9
225.527	36.29
225.746	26.97
225.965	32.74
226.184	-2.92
226.404	19.99
226.623	1.55
226.842	5.76
227.061	27.3
227.28	37.17
227.499	21.52
227.718	34.39
227.936	25.37
228.155	32.23
228.374	-6.54
228.593	18.64
228.812	5.47
229.031	-8.76
229.25	-77.24
229.469	-63.65
229.688	-68.21
229.907	-23.06
230.125	10.86
230.344	34.88
230.563	47.33
230.782	51.33
231.001	-10.43
231.22	-5.11
231.438	23.81
231.657	9.04
231.876	-5.69
232.095	30.94
232.313	20.82
232.532	-1.1
232.751	-14.85
232.969	-20.23
233.188	-73.58
233.407	11.54
233.625	7.94
233.844	-9.49
234.063	8.6
234.281	20.74
234.5	1.03
234.719	-3.58
234.937	17.12
235.156	11.82
235.374	14.64
235.593	5.96
235.811	4.36
236.03	-4.49
236.249	-37.76
236.467	-23.77
236.686	3.88
236.904	14.02
237.123	-8.17
237.341	-3.06
237.559	-1.73
237.778	-36.14
237.996	-66.29
238.215	-13.92
238.433	8.3
238.652	-3.95
238.87	-5.64
239.088	19.95
239.307	15.48
239.525	-10.38
239.743	-36.45
239.962	-18.08
240.18	-62.8
240.398	-104.42
240.617	-107.03
240.835	-65.64
241.053	-73.19
241.271	-10.23
241.49	15.03
241.708	9.66
241.926	24.68
242.144	35
242.363	-23.78
242.581	-42.78
242.799	-12.42
243.017	-8.81
243.235	-28.21
243.453	-12.54
243.672	-10.54
243.89	-9.9
244.108	-15.94
244.326	16.47
244.544	10.47
244.762	6.02
244.98	19.48
245.198	26.59
245.416	-4.25
245.634	-4.36
245.852	-13.9
246.07	-38.41
246.288	-57.53
246.506	-82.25
246.724	-72.02
246.942	-39.6
247.16	13.72
247.378	25.37
247.596	54.22
247.814	66.81
248.032	42.78
248.25	28.87
248.468	19.27
248.685	26.76
248.903	48.25
249.121	50.44
249.339	5.39
249.557	-0.98
249.775	7.41
249.992	-75.63
250.21	-68.52
250.428	-23.81
250.646	-39.43
250.863	-67.26
251.081	-15.8
251.299	5.51
251.517	8.74
251.734	0.25
251.952	-6.17
252.17	-4.66
252.387	1.28
252.605	-16.28
252.823	1.91
253.04	20.68
253.258	42.26
253.475	35.82
253.693	64.03
253.911	62.22
254.128	68.99
254.346	67.58
254.563	42.79
254.781	11.07
254.998	-23.72
255.216	-53.69
255.433	-40.77
255.651	-3.33
255.868	43.91
256.086	86.95
256.303	89.05
256.521	48.41
256.738	29.66
256.956	6.62
257.173	-6.67
257.39	-27.59
257.608	-32.82
257.825	7.07
258.043	44.66
258.26	21.06
258.477	71.87
258.695	68.48
258.912	25.38
259.129	15.97
259.346	-18.85
259.564	-79.07
259.781	-98.63
259.998	-32.23
260.216	-11.23
260.433	22.99
260.65	34.07
260.867	49.69
261.084	17.65
261.302	-5.58
261.519	5.58
261.736	-29.16
261.953	-47.35
262.17	7.82
262.387	-20.26
262.604	-79.38
262.822	-86.89
263.039	-51.83
263.256	-131.24
263.473	-89.17
263.69	-34.23
263.907	22.4
264.124	25.96
264.341	48.44
264.558	43.11
264.775	61.09
264.992	48.63
265.209	41.42
265.426	53.75
265.643	56.59
265.86	64.37
266.077	70.78
266.294	71.37
266.51	27.39
266.727	18.15
266.944	29.33
267.161	3.33
267.378	15.54
267.595	41.33
267.812	6.55
268.028	-18.36
268.245	15.28
268.462	-14.16
268.679	-25.21
268.896	46.85
269.112	46.74
269.329	47.02
269.546	52.52
269.763	39.75
269.979	17.35
270.196	11.78
270.413	-34.85
270.629	-53.4
270.846	-49.4
271.063	-45.51
271.279	-48.89
271.496	-33.77
271.712	-26.74
271.929	-19.36
272.146	-25
272.362	-19.34
272.579	18.24
272.795	53.56
273.012	49.19
273.228	49.83
273.445	29.22
273.661	5.26
273.878	-51.68
274.094	-41.23
274.311	-78.13
274.527	-9.05
274.744	-3.41
274.96	3.6
275.177	8.93
275.393	30.81
275.609	21.26
275.826	27.81
276.042	27.08
276.259	17.09
276.475	28.94
276.691	31.88
276.908	20.34
277.124	30.77
277.34	36.46
277.557	35.66
277.773	19.61
277.989	14.69
278.205	5.44
278.422	22.86
278.638	17.32
278.854	31.2
279.07	30.84
279.286	27.89
279.503	-30.81
279.719	-42.74
279.935	-77.42
280.151	-78.04
280.367	-37.67
280.583	-26.91
280.799	-28.76
281.016	-50.77
281.232	-23.1
281.448	-40.45
281.664	-11.85
281.88	-44.54
282.096	-14.72
282.312	20.12
282.528	57.21
282.744	64.25
282.96	68.26
283.176	54.15
283.392	33.73
283.608	10.34
283.824	-8.15
284.04	-1.91
284.256	6.6
284.471	-1.98
284.687	-13.43
284.903	25.22
285.119	53.21
285.335	25.34
285.551	37.66
285.767	26.22
285.982	-12.34
286.198	-63.05
286.414	7.29
286.63	16.16
286.846	43.86
287.061	26.75
287.277	43.39
287.493	7.95
287.709	17.77
287.924	-8.51
288.14	33.26
288.356	54.54
288.571	58.3
288.787	31.26
289.003	40.57
289.218	17.92
289.434	-35.97
289.65	-22.96
289.865	-21.99
290.081	-10.29
290.296	4.1
290.512	21.74
290.727	-9.54
290.943	-11.91
291.159	-22.17
291.374	-16.84
291.59	-45.25
291.805	-42.35
292.021	-40.07
292.236	-40.73
292.451	-38.42
292.667	-5.09
292.882	21.04
293.098	17.29
293.313	0.25
293.529	-19.58
293.744	-53.54
293.959	-65.12
294.175	-60.66
294.39	-15.34
294.605	15.08
294.821	40.61
295.036	48.62
295.251	65.59
295.467	21.32
295.682	-12.24
295.897	-83.19
296.112	-102.92
296.328	-89.03
296.543	-87.43
296.758	-76.86
296.973	5.1
297.188	45.51
297.404	17.36
297.619	17.48
297.834	4.53
298.049	-14.4
298.264	-53.3
298.479	1.82
298.694	3.33
298.909	32.19
299.125	26.7
299.34	36.85
299.555	-11.55
299.77	9.69
299.985	-51
300.2	-80.47
300.415	-98.48
300.63	-38.38
300.845	-43.78
301.06	-25.29
301.275	-5.91
301.49	9.26
301.704	-10.36
301.919	-26.76
302.134	-37.04
302.349	-49.84
302.564	-110.71
302.779	-149.24
302.994	-116.11
303.209	-69.06
303.423	-24.48
303.638	38.8
303.853	27.39
304.068	7.8
304.283	11.09
304.497	-2.32
304.712	-13.55
304.927	-7.42
305.142	-12.65
305.356	-5.1
305.571	-4.84
305.786	-25.58
306	-48.85
306.215	-45.25
306.43	-65.61
306.644	-47.66
306.859	8.93
307.074	19.54
307.288	-2.63
307.503	-11.98
307.717	-37.2
307.932	-38.48
308.147	-40.29
308.361	-17.32
308.576	-19.63
308.79	-56.9
309.005	-49.83
309.219	-15.55
309.434	-20
309.648	-24.63
309.863	7.25
310.077	8.29
310.292	-11.34
310.506	0.36
310.72	11.89
310.935	32.45
311.149	27.97
311.364	47.24
311.578	51.41
311.792	40.68
312.007	37.06
312.221	15.42
312.435	19.27
312.649	-4.47
312.864	44.28
313.078	54.69
313.292	121.56
313.507	76.96
313.721	108.31
313.935	34.18
314.149	25.13
314.363	10.68
314.578	23.85
314.792	40.17
315.006	23.19
315.22	35.57
315.434	45.49
315.648	44.75
315.862	37.13
316.077	50.49
316.291	31.67
316.505	33.22
316.719	14.33
316.933	-9.13
317.147	14.71
317.361	-28.28
317.575	-39.27
317.789	-51.85
318.003	-90.54
318.217	-80.86
318.431	5.57
318.645	43.65
318.859	35.27
319.073	72.36
319.287	44.3
319.5	11.96
319.714	-36.25
319.928	-51.5
320.142	-115.52
320.356	-52.29
320.57	-16.62
320.784	-36.66
320.997	-55.14
321.211	-27.66
321.425	-89.25
321.639	-117.14
321.853	-28.6
322.066	-10.48
322.28	-3.27
322.494	3.09
322.707	31.31
322.921	-4.7
323.135	-6.75
323.349	-3.94
323.562	-18.93
323.776	-45.74
323.989	-33.34
324.203	-59.43
324.417	-74.88
324.63	-80.83
324.844	-89.84
325.057	-89.79
325.271	-58.16
325.485	-17.04
325.698	1.52
325.912	33.5
326.125	5.11
326.339	2.43
326.552	-17.06
326.766	-11.71
326.979	-1.53
327.193	43.2
327.406	35.5
327.619	19.38
327.833	40.67
328.046	6.03
328.26	-30.71
328.473	4
328.686	-3
328.9	-19.59
329.113	14.63
329.326	-27.55
329.54	-40.97
329.753	-57.93
329.966	-90.79
330.179	-103.33
330.393	-45.43
330.606	-28.89
330.819	1.89
331.032	22.54
331.246	26.99
331.459	51.86
331.672	40.9
331.885	16.09
332.098	-14.13
332.311	-22.62
332.525	-73.26
332.738	-58.44
332.951	-8.7
333.164	23.71
333.377	30.66
333.59	44.31
333.803	36.8
334.016	19.55
334.229	26.86
334.442	30.13
334.655	39.36
334.868	53.24
335.081	50.05
335.294	8.73
335.507	-19.72
335.72	-22.72
335.933	-40.62
336.146	-49.25
336.359	-38.01
336.572	-64.05
336.785	-87.28
336.997	-66.63
337.21	-41.57
337.423	-41.3
337.636	-12.47
337.849	6.86
338.062	-0.55
338.274	10
338.487	-2.42
338.7	-15.29
338.913	-58.64
339.125	-69.21
339.338	-128.51
339.551	-89.89
339.763	-58.18
339.976	-25.59
340.189	-5.58
340.402	2.29
340.614	-11.39
340.827	-9.58
341.039	-30.32
341.252	-35.02
341.465	-15.98
341.677	-8.44
341.89	-50.96
342.102	-17.36
342.315	-36.27
342.527	-63
342.74	-61.66
342.952	-23.08
343.165	-19.25
343.377	7.3
343.59	-2.96
343.802	16.48
344.015	27.47
344.227	37.47
344.44	33.47
344.652	44.76
344.864	21.77
345.077	37.58
345.289	33.08
345.502	29.52
345.714	15.67
345.926	29.24
346.139	13.93
346.351	26.58
346.563	36.63
346.775	49.26
346.988	28.66
347.2	27.83
347.412	-23.88
347.624	-44.59
347.837	-53.4
348.049	-5.45
348.261	14.58
348.473	29.08
348.685	39.73
348.897	8.57
349.11	-11.12
349.322	-36.88
349.534	-43.13
349.746	-50.57
349.958	-25.11
350.17	-32.88
350.382	-7.78
350.594	-5.71
350.806	7.4
351.018	21.05
351.23	21.6
351.442	-26.7
351.654	-45.99
351.866	-42.94
352.078	-28.57
352.29	-6.45
352.502	21.95
352.714	45.23
352.926	27.64
353.138	17.78
353.35	10.35
353.561	0.54
353.773	-28.48
353.985	-19.36
354.197	-30.34
354.409	-37.77
354.621	-47.13
354.832	-26.85
355.044	-26.16
355.256	-22.9
355.468	-1.22
355.679	-0.5
355.891	6.09
356.103	-8.18
356.314	-2.11
356.526	-13.58
356.738	0.38
356.949	-0.82
357.161	26.5
357.373	14.35
357.584	-9.38
357.796	1.39
358.008	0.01
358.219	21.24
358.431	23.2
358.642	36.83
358.854	39.04
359.065	35
359.277	-16.86
359.488	-21.61
359.7	-28.63
359.911	-70.65
360.123	-59.74
360.334	-65.05
360.546	-85.06
360.757	-80.49
360.969	-54.14
361.18	-34.61
361.391	-10.01
361.603	-16.87
361.814	-6.59
362.025	-8.05
362.237	-25.55
362.448	-13.84
362.659	8.49
362.871	6.74
363.082	7.99
363.293	18.24
363.504	-1.73
363.716	-28.88
363.927	-49.31
364.138	-74.08
364.349	-85.52
364.56	-77.81
364.772	-61.54
364.983	-20.66
365.194	-12.7
365.405	0.01
365.616	23.19
365.827	27.4
366.038	-12.83
366.25	-17.56
366.461	-56.14
366.672	-26.79
366.883	-8.97
367.094	6.1
367.305	1.46
367.516	16.8
367.727	-19.01
367.938	-33.14
368.149	-30.78
368.36	-24.59
368.571	-17.53
368.781	-33.47
368.992	-45.27
369.203	-73.58
369.414	-93.03
369.625	-101.66
369.836	-82.52
370.047	-102.29
370.258	-67.9
370.468	-60.14
370.679	-85.24
370.89	-80.92
371.101	-60.04
371.312	-68.34
371.522	-66.58
371.733	-43.84
371.944	-22.09
372.155	4.15
372.365	-3.87
372.576	-3.41
372.787	-8.63
372.997	-34.63
373.208	-44.21
373.419	-4.07
373.629	-30.15
373.84	-14.9
374.05	-22.54
374.261	-10.63
374.472	-40.04
374.682	10.5
374.893	-1
375.103	43.61
375.314	31.13
375.524	32.66
375.735	37.76
375.945	45.38
376.156	8.35
376.366	3.22
376.577	6.4
376.787	-15.44
376.997	-6.28
377.208	-0.57
377.418	-5.15
377.629	10.89
377.839	7.35
378.049	0.11
378.26	12.05
378.47	17.27
378.68	0.36
378.89	4.04
379.101	1.95
379.311	-25.3
379.521	-49.01
379.732	-44.17
379.942	-38.12
380.152	-60.44
380.362	-20.32
380.572	-6.44
380.783	-0.21
380.993	9.75
381.203	25.11
381.413	29.68
381.623	30.28
381.833	29.02
382.043	9.41
382.253	0.63
382.463	-6.46
382.674	-18.47
382.884	-36.49
383.094	-31.1
383.304	-25.99
383.514	-21.83
383.724	-4.96
383.934	-9.42
384.144	-15.96
384.353	-20.74
384.563	-21.96
384.773	-22.35
384.983	-21.45
385.193	-5.8
385.403	-2.22
385.613	-0.68
385.823	-15.94
386.033	-5.58
386.242	-14.22
386.452	-12.93
386.662	-25.24
386.872	-3.27
387.082	-10.93
387.291	-19.91
387.501	-15.86
387.711	-1.38
387.921	-15.01
388.13	-11.32
388.34	8.49
388.55	1.33
388.759	-1.07
388.969	6.48
389.179	3.52
389.388	-0.86
389.598	4.07
389.807	-2.74
390.017	-9.08
390.227	-9.43
390.436	-13.09
390.646	-13.12
390.855	-6.12
391.065	-5.93
391.274	-7.28
391.484	-6.92
391.693	-7.2
391.903	-5.7
392.112	0.84
392.322	5.56
392.531	8.8
392.74	9.79
392.95	3.43
393.159	0.95
393.369	-0.56
393.578	-0.98
393.787	-3.18
393.997	-0.9
394.206	-3.78
394.415	-3.44
394.625	-5.18
394.834	-6.5
395.043	-6.01
395.252	-1.21
395.462	0.57
395.671	2.44
395.88	5.09
396.089	7.18
396.298	4.52
396.508	3.95
396.717	2.03
396.926	1.88
397.135	0.6
397.344	0.07
397.553	1.12
397.762	3.32
397.971	2.41
398.181	2.62
398.39	2.34
398.599	1.08
398.808	0.75
399.017	2.73
399.226	3.44
399.435	4.74
399.644	4.77
399.853	3.82
400.062	2.83
400.27	2.42
400.479	1.84
400.688	1.02
400.897	1.29
401.106	1.24
401.315	1.07
401.524	1.3
401.733	2.49
401.941	3
402.15	3.05
402.359	2.98
402.568	3.22
402.777	3.07
402.985	2.77
403.194	2.63
403.403	2.54
403.612	2.2
403.82	2.03
404.029	2.35
404.238	2.24
404.446	2.71
404.655	2.42
404.864	2.35
405.072	1.99
405.281	2.25
405.489	1.76
405.698	1.91
405.906	1.83
406.115	1.96
406.324	1.82
406.532	2.04
406.741	2.38
406.949	2.47
407.158	2.46
407.366	2.39
407.574	2.36
407.783	2.19
407.991	2.12
408.2	2.42
408.408	2.48
408.617	2.47
408.825	2.42
409.033	2.47
409.242	2.25
409.45	2.31
409.658	2.16
409.867	2.31
410.075	2.17
410.283	2.01
410.491	1.94
410.7	1.94
410.908	1.94
411.116	2.4
411.324	2.47
411.533	2.45
411.741	2.82
411.949	2.71
412.157	2.33
412.365	2.38
412.573	2.43
412.781	2.36
412.99	2.31
413.198	2.45
413.406	2.41
413.614	2.45
413.822	2.21
414.03	2.15
414.238	1.9
414.446	1.97
414.654	1.66
414.862	1.73
415.07	1.8
415.278	2.17
415.486	1.96
415.694	2.14
415.902	2.06
416.109	1.89
416.317	1.75
416.525	1.61
416.733	1.63
416.941	1.77
417.149	1.81
417.357	1.83
417.564	2.18
417.772	2.33
417.98	2.18
418.188	2.22
418.395	2.23
418.603	2.26
418.811	1.94
419.019	2.02
419.226	2.22
419.434	2.4
419.642	2.15
419.849	2.4
420.057	2.34
420.265	2.3
420.472	1.83
420.68	1.82
420.887	1.64
421.095	1.85
421.302	1.68
421.51	2.03
421.717	2.28
421.925	2.39
422.132	2.08
422.34	1.93
422.547	2.03
422.755	1.89
422.962	1.79
423.17	1.77
423.377	2
423.585	1.89
423.792	1.74
423.999	1.87
424.207	1.89
424.414	1.95
424.621	1.89
424.829	1.95
425.036	1.76
425.243	1.92
425.451	1.74
425.658	1.51
425.865	1.78
426.072	1.93
426.28	2.12
426.487	2.09
426.694	2.32
426.901	2.01
427.108	1.84
427.315	1.59
427.523	1.84
427.73	1.74
427.937	1.74
428.144	1.79
428.351	1.78
428.558	1.99
428.765	2.04
428.972	2.04
429.179	2.19
429.386	2.59
429.593	2.28
429.8	2.05
430.007	2.3
430.214	2.35
430.421	2.09
430.628	1.86
430.835	1.84
431.042	2.03
431.249	1.95
431.456	1.83
431.662	2.02
431.869	2.19
432.076	2.1
432.283	2.3
432.49	2.36
432.697	2.38
432.903	2.16
433.11	2.05
433.317	1.99
433.524	2.21
433.73	2.12
433.937	2.47
434.144	2.31
434.35	2.29
434.557	2.1
434.764	2.17
434.97	2.03
435.177	2.24
435.384	2.12
435.59	2.24
435.797	2.49
436.003	2.56
436.21	2.51
436.416	2.77
436.623	2.7
436.829	2.82
437.036	2.89
437.242	2.93
437.449	2.72
437.655	2.79
437.862	2.67
438.068	2.59
438.275	2.73
438.481	2.99
438.687	2.97
438.894	2.86
439.1	2.95
439.307	3.05
439.513	2.92
439.719	2.95
439.926	3.14
440.132	2.95
440.338	2.74
440.544	2.8
440.751	2.73
440.957	2.66
441.163	2.76
441.369	2.86
441.575	2.59
441.782	2.55
441.988	2.44
442.194	2.45
442.4	2.44
442.606	2.83
442.812	3
443.018	3.23
443.224	3.27
443.431	3.36
443.637	3.05
443.843	2.95
444.049	2.89
444.255	2.86
444.461	2.88
444.667	2.91
444.873	3.11
445.079	3
445.284	3.09
445.49	2.88
445.696	2.77
445.902	2.64
446.108	2.63
446.314	2.53
446.52	2.64
446.726	3
446.931	2.99
447.137	3.1
447.343	3.21
447.549	3.15
447.755	2.97
447.96	2.97
448.166	2.94
448.372	2.91
448.578	3.01
448.783	3.03
448.989	3.15
449.195	3.27
449.4	3.24
449.606	3.16
449.812	3.11
450.017	3.1
450.223	2.94
450.428	2.87
450.634	3.13
450.84	3.27
451.045	3.2
451.251	3.22
451.456	3.51
451.662	3.38
451.867	3.35
452.073	3.36
452.278	3.47
452.483	3.53
452.689	3.52
452.894	3.64
453.1	3.65
453.305	3.53
453.51	3.39
453.716	3.36
453.921	3.32
454.127	3.32
454.332	3.36
454.537	3.31
454.742	3.31
454.948	3.28
455.153	3.33
455.358	3.41
455.563	3.59
455.769	3.74
455.974	3.69
456.179	3.6
456.384	3.57
456.589	3.53
456.795	3.25
457	3.29
457.205	3.5
457.41	3.49
457.615	3.3
457.82	3.48
458.025	3.52
458.23	3.41
458.435	3.46
458.64	3.47
458.845	3.62
459.05	3.58
459.255	3.54
459.46	3.54
459.665	3.59
459.87	3.49
460.075	3.48
460.28	3.56
460.485	3.65
460.69	3.76
460.895	3.71
461.099	3.63
461.304	3.74
461.509	3.78
461.714	3.66
461.919	3.8
462.123	3.76
