Data from Ofra_1a_PS_2GT70_Reflection_3.txt Node
Date: Tue Jul 20 10:52:25 EDT 2021
User: Adam
Spectrometer: FLMT01687
Trigger mode: 0
Integration Time (sec): 1.004000E0
Scans to average: 2
Electric dark correction enabled: true
Nonlinearity correction enabled: false
Boxcar width: 2
XAxis mode: Wavelengths
Number of Pixels in Spectrum: 3648
>>>>>Begin Spectral Data<<<<<
179.494	-406.6
179.716	-494.66
179.937	1074.58
180.158	-1282.17
180.38	161.36
180.601	35.98
180.823	-27.17
181.044	-129.21
181.265	-364.44
181.486	248.2
181.708	76.96
181.929	2045.45
182.15	-119.75
182.372	566.01
182.593	533.98
182.814	-148.22
183.035	1.26
183.257	35.26
183.478	1.27
183.699	5.37
183.92	-20.46
184.141	-21.46
184.363	-7.68
184.584	4.2
184.805	20.55
185.026	41.83
185.247	26.4
185.468	8.71
185.689	0.8
185.91	-26.99
186.132	-30.91
186.353	-24.59
186.574	-20.27
186.795	-11.99
187.016	10.58
187.237	23.23
187.458	45.72
187.679	57.03
187.9	41.84
188.121	46.67
188.342	51.63
188.563	49.01
188.784	48.12
189.005	47.55
189.226	34.23
189.447	25.59
189.667	20.39
189.888	3.11
190.109	-7.99
190.33	29.7
190.551	18.03
190.772	24.41
190.993	27.93
191.214	2.58
191.434	-41.69
191.655	-77.51
191.876	-42.61
192.097	-20.99
192.318	47.27
192.538	16.64
192.759	24.24
192.98	27.52
193.201	34.41
193.421	11.21
193.642	35.51
193.863	47.99
194.083	21.21
194.304	3.31
194.525	1.58
194.745	1.22
194.966	4.4
195.187	24.34
195.407	28.71
195.628	34.21
195.848	11.25
196.069	-7.52
196.29	-24.56
196.51	-34.88
196.731	-44.28
196.951	-40.14
197.172	-33.18
197.392	-25.19
197.613	6.22
197.833	-6.85
198.054	-19.84
198.274	5.28
198.495	21.84
198.715	15.42
198.936	32.74
199.156	49.84
199.377	35.75
199.597	30.46
199.817	37.24
200.038	50.63
200.258	52.56
200.479	52.75
200.699	51.78
200.919	10.64
201.14	-10.48
201.36	-32.18
201.58	-58.69
201.801	-76.39
202.021	-76.5
202.241	-52.62
202.461	-26.51
202.682	3.69
202.902	2.78
203.122	24.84
203.342	31.95
203.563	12.6
203.783	0.06
204.003	-1.34
204.223	15.93
204.443	18.96
204.663	29.91
204.884	70.83
205.104	63.79
205.324	63.85
205.544	21.54
205.764	36.96
205.984	21.14
206.204	17.14
206.424	-18.97
206.644	-26.61
206.864	-74.89
207.084	-52.62
207.304	-36.39
207.525	-29.93
207.745	-0.36
207.964	8.21
208.184	10.46
208.404	-2.77
208.624	20.12
208.844	9.39
209.064	14.19
209.284	0.24
209.504	-6.98
209.724	-0.79
209.944	-17.64
210.164	-2.61
210.384	14.69
210.604	-12.79
210.823	-77.01
211.043	-29.84
211.263	-71.2
211.483	-49.72
211.703	-27.04
211.922	0.42
212.142	-6.63
212.362	-19.54
212.582	-7.94
212.801	19.77
213.021	-11.79
213.241	-10.12
213.461	7.07
213.68	1.19
213.9	-12.14
214.12	-6.36
214.339	0.63
214.559	7.68
214.779	22.58
214.998	27.81
215.218	36.93
215.438	39.85
215.657	26.34
215.877	2.52
216.096	8.28
216.316	12.94
216.535	-6.04
216.755	0.22
216.974	-5.57
217.194	-21.31
217.413	-32.91
217.633	-35.81
217.852	-26.02
218.072	-9.78
218.291	-13.6
218.511	-20.72
218.73	-28.79
218.95	-48.2
219.169	-55.73
219.389	-20.18
219.608	-21.92
219.827	5.49
220.047	10.23
220.266	-4.19
220.485	-10.66
220.705	8.78
220.924	1.71
221.143	13.74
221.363	28.71
221.582	13.3
221.801	33.88
222.021	29.29
222.24	28.27
222.459	52.75
222.678	56.18
222.897	43.71
223.117	42.9
223.336	41.34
223.555	19.54
223.774	47.46
223.993	42.51
224.213	43.24
224.432	28.59
224.651	20.87
224.87	17.2
225.089	25.32
225.308	35.24
225.527	30.96
225.746	24.57
225.965	6.8
226.184	-11.76
226.404	-21.62
226.623	-7.23
226.842	8.73
227.061	15.36
227.28	27.41
227.499	41.49
227.718	48.58
227.936	49.54
228.155	42.83
228.374	44.11
228.593	38.92
228.812	39.5
229.031	48.21
229.25	40.23
229.469	32.03
229.688	15.55
229.907	11.55
230.125	-1.29
230.344	10.44
230.563	17.4
230.782	19.77
231.001	28.74
231.22	34.84
231.438	49.13
231.657	46.29
231.876	49.64
232.095	50.28
232.313	19.75
232.532	4.44
232.751	0.62
232.969	0.63
233.188	-13.52
233.407	26.17
233.625	18.78
233.844	22.22
234.063	13.82
234.281	22.82
234.5	17.88
234.719	28.1
234.937	11.64
235.156	12.42
235.374	5.47
235.593	-0.37
235.811	11.94
236.03	24.36
236.249	23.49
236.467	26.78
236.686	13.76
236.904	2.4
237.123	-7.49
237.341	-10.03
237.559	-18.59
237.778	16.65
237.996	7.07
238.215	13.41
238.433	-2.71
238.652	21.98
238.87	4.07
239.088	27.1
239.307	31.56
239.525	37.71
239.743	27.63
239.962	23.96
240.18	15.99
240.398	20.79
240.617	2.4
240.835	20.47
241.053	22.89
241.271	22.68
241.49	14.1
241.708	15.31
241.926	1.91
242.144	7.29
242.363	12.67
242.581	22.07
242.799	29.71
243.017	16.64
243.235	5.86
243.453	0.56
243.672	-5.07
243.89	4.39
244.108	20.34
244.326	28.86
244.544	33.94
244.762	26.74
244.98	28.16
245.198	26.49
245.416	26.84
245.634	31.64
245.852	26.93
246.07	34.44
246.288	21.75
246.506	24.32
246.724	9.67
246.942	24.31
247.16	22.77
247.378	17.33
247.596	24.78
247.814	7.56
248.032	8.53
248.25	27.42
248.468	39.91
248.685	39.3
248.903	42.89
249.121	42.4
249.339	26.04
249.557	30.87
249.775	29.81
249.992	26.98
250.21	17.39
250.428	31.88
250.646	30.1
250.863	3.87
251.081	8.37
251.299	12.3
251.517	-12.19
251.734	-13.39
251.952	16.11
252.17	17.06
252.387	12.37
252.605	30.58
252.823	34.95
253.04	33.3
253.258	35.66
253.475	44.91
253.693	46.87
253.911	37.27
254.128	35.93
254.346	53.6
254.563	56.29
254.781	55.31
254.998	61.94
255.216	30.27
255.433	-9.33
255.651	-28.25
255.868	-44.31
256.086	-29.82
256.303	0.21
256.521	22.22
256.738	17.86
256.956	38.06
257.173	23.32
257.39	24.44
257.608	-0.43
257.825	1.5
258.043	16.51
258.26	21.02
258.477	22.18
258.695	29.44
258.912	36.22
259.129	6.31
259.346	-18.86
259.564	-39.24
259.781	-46.47
259.998	-22.36
260.216	5.89
260.433	1.52
260.65	-1.68
260.867	-4.64
261.084	-11.97
261.302	-40.07
261.519	-20.34
261.736	-14.32
261.953	-6.84
262.17	1.54
262.387	10.9
262.604	20.94
262.822	33.23
263.039	37.84
263.256	32.68
263.473	35.39
263.69	28.41
263.907	24.92
264.124	24.45
264.341	37.25
264.558	20.2
264.775	24.41
264.992	22.01
265.209	9.99
265.426	-22.24
265.643	-8.37
265.86	-16.81
266.077	-21.98
266.294	-17.34
266.51	29.39
266.727	35.06
266.944	33.41
267.161	41.48
267.378	52.91
267.595	30.45
267.812	15.48
268.028	9.63
268.245	-5.92
268.462	-21.75
268.679	0.84
268.896	25.97
269.112	20.56
269.329	13.21
269.546	53.03
269.763	17.35
269.979	0.04
270.196	3.73
270.413	7.98
270.629	-11.38
270.846	8.75
271.063	0.79
271.279	19.82
271.496	24.59
271.712	20.26
271.929	21.86
272.146	37.02
272.362	21.61
272.579	24.63
272.795	23.26
273.012	26.2
273.228	34.73
273.445	21.08
273.661	3.85
273.878	7.97
274.094	8.03
274.311	-10.19
274.527	-24.87
274.744	-1.56
274.96	-7.27
275.177	-19.92
275.393	5.64
275.609	17.32
275.826	11.55
276.042	12.52
276.259	12.13
276.475	4.05
276.691	7.23
276.908	8.18
277.124	21.67
277.34	27.36
277.557	-14.99
277.773	-18.07
277.989	-27.41
278.205	-28.36
278.422	-39.22
278.638	-34.15
278.854	-34.61
279.07	-12.61
279.286	-23.06
279.503	-4.88
279.719	12.22
279.935	2.55
280.151	-18.9
280.367	-10.71
280.583	-15.33
280.799	-5.11
281.016	-19.02
281.232	6.81
281.448	7.41
281.664	-0.12
281.88	10.93
282.096	28.64
282.312	26.33
282.528	28.77
282.744	33.37
282.96	4.29
283.176	0.58
283.392	-21.75
283.608	-16.38
283.824	-11.7
284.04	-32.34
284.256	-27.55
284.471	-8.57
284.687	-11.97
284.903	5.54
285.119	30.45
285.335	36.52
285.551	40.18
285.767	41.94
285.982	44.34
286.198	11.34
286.414	48.59
286.63	30.44
286.846	15.67
287.061	6.12
287.277	33.72
287.493	0.31
287.709	24.68
287.924	44.65
288.14	63.11
288.356	56.2
288.571	65.9
288.787	54.41
289.003	59.45
289.218	28.04
289.434	13.03
289.65	14.12
289.865	3.37
290.081	8.95
290.296	22.06
290.512	14.55
290.727	3.89
290.943	9.65
291.159	-4.63
291.374	-31.54
291.59	-11.37
291.805	-16.9
292.021	-11.96
292.236	-7.17
292.451	16.18
292.667	17.82
292.882	36.26
293.098	45.51
293.313	31.15
293.529	31.96
293.744	24.32
293.959	8.21
294.175	5.91
294.39	8.54
294.605	15.62
294.821	18.19
295.036	14.56
295.251	31.81
295.467	22.37
295.682	16.45
295.897	14.65
296.112	17.35
296.328	3.27
296.543	-5.53
296.758	-24.26
296.973	-26.37
297.188	-26.5
297.404	-57.18
297.619	-43.32
297.834	-54.69
298.049	-31.2
298.264	-30.09
298.479	-19.4
298.694	10.65
298.909	34.37
299.125	20.09
299.34	18.87
299.555	18.16
299.77	23.15
299.985	7.16
300.2	22.85
300.415	30.11
300.63	28.06
300.845	18.23
301.06	33.71
301.275	28.7
301.49	20.61
301.704	20.92
301.919	17.47
302.134	9.02
302.349	9.87
302.564	10.33
302.779	0.82
302.994	24.67
303.209	19.28
303.423	10.91
303.638	6.92
303.853	12.85
304.068	-17.89
304.283	-5.76
304.497	-12.65
304.712	3.19
304.927	-0.24
305.142	12.72
305.356	10.45
305.571	20.55
305.786	9.28
306	21.46
306.215	13.72
306.43	9.15
306.644	0.41
306.859	6.26
307.074	24.15
307.288	26.1
307.503	31.51
307.717	30.06
307.932	31.26
308.147	21.27
308.361	16.44
308.576	1.78
308.79	0.85
309.005	-17.22
309.219	-17.8
309.434	-15.16
309.648	0.38
309.863	2.35
310.077	2.6
310.292	22.62
310.506	5.62
310.72	-5.28
310.935	12.07
311.149	28.36
311.364	11.36
311.578	34.91
311.792	39.38
312.007	39.67
312.221	10.06
312.435	18.35
312.649	6.2
312.864	12.45
313.078	10.97
313.292	11.91
313.507	23.61
313.721	17.36
313.935	32.51
314.149	32
314.363	47.03
314.578	29.34
314.792	11.58
315.006	-13.41
315.22	-10.05
315.434	-9.9
315.648	-22.61
315.862	2.25
316.077	3.49
316.291	4.8
316.505	2.46
316.719	22.83
316.933	14.01
317.147	13.75
317.361	21.15
317.575	12.44
317.789	7.18
318.003	11.11
318.217	16.26
318.431	9.4
318.645	11.57
318.859	29.55
319.073	38.02
319.287	37.76
319.5	31.61
319.714	26.76
319.928	20.03
320.142	16.85
320.356	22.82
320.57	10.63
320.784	16.04
320.997	-8.6
321.211	6.33
321.425	-17.61
321.639	7.25
321.853	18.65
322.066	15.73
322.28	11.17
322.494	12.8
322.707	3.22
322.921	-3.35
323.135	16.65
323.349	17.79
323.562	26.29
323.776	37.2
323.989	49.29
324.203	27.97
324.417	14.48
324.63	7.39
324.844	-18.17
325.057	-51.59
325.271	-35.01
325.485	-27.29
325.698	-9.16
325.912	14.57
326.125	8.99
326.339	16.97
326.552	16.58
326.766	4.7
326.979	14.22
327.193	27.73
327.406	16.87
327.619	27.55
327.833	32.76
328.046	31.14
328.26	24.5
328.473	34.86
328.686	26.48
328.9	28.51
329.113	4.86
329.326	4.59
329.54	-2.63
329.753	2.07
329.966	-3.83
330.179	11.55
330.393	11.41
330.606	12.81
330.819	4.51
331.032	14.56
331.246	11.71
331.459	36.61
331.672	25.96
331.885	29.59
332.098	12.76
332.311	3.4
332.525	-16.85
332.738	-4.3
332.951	-9.43
333.164	0.03
333.377	11.6
333.59	13.42
333.803	13.6
334.016	29.85
334.229	21.53
334.442	8.49
334.655	8.47
334.868	1.93
335.081	-9.31
335.294	-14.69
335.507	-1.82
335.72	1.1
335.933	9.88
336.146	8.24
336.359	17.24
336.572	16.54
336.785	12.54
336.997	21.45
337.21	21.88
337.423	13.27
337.636	0.72
337.849	-1.48
338.062	-5.77
338.274	7.88
338.487	1.85
338.7	-6.12
338.913	4.93
339.125	-4.92
339.338	-11.61
339.551	-3.89
339.763	-0.28
339.976	0.04
340.189	9.35
340.402	27.1
340.614	32.03
340.827	49.36
341.039	57.18
341.252	57.68
341.465	38.36
341.677	44.42
341.89	25.82
342.102	22.69
342.315	15.63
342.527	20.61
342.74	6.29
342.952	5.28
343.165	1.51
343.377	10.79
343.59	14.99
343.802	13.43
344.015	20.54
344.227	27.22
344.44	13.69
344.652	0.61
344.864	9.78
345.077	25.8
345.289	23.88
345.502	40.45
345.714	41.39
345.926	36
346.139	16.24
346.351	14.17
346.563	5.08
346.775	14.98
346.988	23.46
347.2	16.74
347.412	8.53
347.624	5.25
347.837	3.03
348.049	8.71
348.261	5.47
348.473	3.64
348.685	1.19
348.897	-2.13
349.11	1.95
349.322	16.53
349.534	21.43
349.746	26.55
349.958	27.71
350.17	8.87
350.382	2.86
350.594	5.47
350.806	18.8
351.018	16.61
351.23	30.35
351.442	34.95
351.654	39.14
351.866	32.56
352.078	36.57
352.29	26.83
352.502	23.83
352.714	18.64
352.926	9.16
353.138	6.97
353.35	-5.54
353.561	-5.65
353.773	-12.19
353.985	5.15
354.197	5.2
354.409	14.09
354.621	8.86
354.832	10.51
355.044	-9.93
355.256	-11.88
355.468	-18.88
355.679	7.41
355.891	10.64
356.103	13.65
356.314	2.24
356.526	7.03
356.738	-16.05
356.949	-12.6
357.161	5.26
357.373	22.11
357.584	27.11
357.796	30.1
358.008	29.05
358.219	22.49
358.431	11.17
358.642	16.56
358.854	26.57
359.065	20.49
359.277	16.28
359.488	22.72
359.7	9.74
359.911	4.49
360.123	19.36
360.334	24.92
360.546	14.17
360.757	16.36
360.969	21.63
361.18	15.78
361.391	8.97
361.603	22.6
361.814	30.91
362.025	27.91
362.237	19.98
362.448	29.49
362.659	19.52
362.871	-0.25
363.082	-10.58
363.293	-6.99
363.504	-39.12
363.716	-26.51
363.927	5.82
364.138	-3.89
364.349	-13.01
364.56	-10.03
364.772	-10.29
364.983	-6.96
365.194	7.48
365.405	17.1
365.616	32.74
365.827	19.91
366.038	9.06
366.25	9.31
366.461	18.8
366.672	21.06
366.883	32.77
367.094	41.72
367.305	24.61
367.516	17.74
367.727	-5.52
367.938	-3.36
368.149	-7.8
368.36	2.64
368.571	-1.43
368.781	2.78
368.992	-4.4
369.203	-15.31
369.414	-21.12
369.625	-19.45
369.836	4.25
370.047	10.17
370.258	34.15
370.468	36.49
370.679	30.11
370.89	12.44
371.101	21.57
371.312	3.7
371.522	12.78
371.733	5.33
371.944	-9.95
372.155	-23.06
372.365	-14.56
372.576	-24.92
372.787	-1.53
372.997	9.92
373.208	12.21
373.419	12.05
373.629	13.24
373.84	2.27
374.05	-1.63
374.261	-22.21
374.472	-15.18
374.682	-0.42
374.893	2.41
375.103	16.58
375.314	21.75
375.524	8.89
375.735	2.02
375.945	-2.35
376.156	-10.2
376.366	-7.76
376.577	-4.4
376.787	-4.19
376.997	2.38
377.208	0.02
377.418	-1.54
377.629	-2.12
377.839	2.38
378.049	10.2
378.26	14.19
378.47	21.51
378.68	25.05
378.89	22.35
379.101	13.48
379.311	6.53
379.521	3.55
379.732	1.7
379.942	-2.76
380.152	-11.22
380.362	-9.03
380.572	12.1
380.783	19.19
380.993	24.42
381.203	29.36
381.413	35.91
381.623	26.5
381.833	27.51
382.043	22.23
382.253	20.41
382.463	25.26
382.674	25.09
382.884	18.78
383.094	16.43
383.304	15.85
383.514	8.35
383.724	-0.69
383.934	-6.41
384.144	-0.35
384.353	3.66
384.563	5.5
384.773	15.64
384.983	16.73
385.193	8.15
385.403	1.64
385.613	6.9
385.823	0.46
386.033	4.71
386.242	8.8
386.452	6.9
386.662	0.59
386.872	5.75
387.082	3.33
387.291	2.65
387.501	6.04
387.711	9.95
387.921	6.88
388.13	7.31
388.34	11.8
388.55	8.02
388.759	1.48
388.969	-1.73
389.179	-1.01
389.388	-4.19
389.598	-5.01
389.807	-3.17
390.017	-1.57
390.227	-2.84
390.436	-1.97
390.646	0.77
390.855	-2.98
391.065	-2.63
391.274	-2.74
391.484	-3.85
391.693	-5.98
391.903	0.42
392.112	0.17
392.322	-0.49
392.531	0.53
392.74	1.63
392.95	0.38
393.159	0.28
393.369	1.39
393.578	0.04
393.787	0.97
393.997	0.85
394.206	-0.43
394.415	0.76
394.625	1.61
394.834	-0.53
395.043	-0.7
395.252	1.94
395.462	1.42
395.671	1.72
395.88	3.88
396.089	3.42
396.298	2.66
396.508	2.54
396.717	2.02
396.926	1.45
397.135	1.6
397.344	1.41
397.553	1.37
397.762	1.95
397.971	1.65
398.181	2.19
398.39	2.03
398.599	2.13
398.808	2.02
399.017	2.86
399.226	2.76
399.435	2.82
399.644	3.2
399.853	2.8
400.062	2.75
400.27	2.48
400.479	2.5
400.688	2.16
400.897	2.3
401.106	2.19
401.315	2.3
401.524	2.48
401.733	2.44
401.941	2.52
402.15	2.16
402.359	2.04
402.568	2.21
402.777	2.32
402.985	2.12
403.194	2.31
403.403	2.73
403.612	2.32
403.82	2.15
404.029	2.35
404.238	2.43
404.446	2.32
404.655	2.48
404.864	2.59
405.072	2.57
405.281	2.58
405.489	2.37
405.698	2.27
405.906	2.21
406.115	2.18
406.324	2.11
406.532	2.19
406.741	2.38
406.949	2.39
407.158	2.47
407.366	2.33
407.574	2.28
407.783	2.09
407.991	2.07
408.2	2.07
408.408	2.19
408.617	2.25
408.825	2.21
409.033	2.12
409.242	2.15
409.45	2.03
409.658	1.91
409.867	1.91
410.075	2
410.283	1.94
410.491	1.96
410.7	1.92
410.908	1.97
411.116	2
411.324	1.91
411.533	1.91
411.741	2.02
411.949	1.99
412.157	1.93
412.365	1.96
412.573	2.05
412.781	1.95
412.99	2.02
413.198	2.11
413.406	2.17
413.614	2.19
413.822	2.34
414.03	2.38
414.238	2.38
414.446	2.38
414.654	2.18
414.862	2.18
415.07	2.02
415.278	2.04
415.486	1.82
415.694	1.93
415.902	1.81
416.109	1.87
416.317	1.77
416.525	1.93
416.733	1.86
416.941	1.88
417.149	1.71
417.357	1.73
417.564	1.6
417.772	1.77
417.98	1.73
418.188	1.78
418.395	1.59
418.603	1.52
418.811	1.33
419.019	1.4
419.226	1.59
419.434	1.8
419.642	1.71
419.849	1.7
420.057	1.77
420.265	1.7
420.472	1.59
420.68	1.88
420.887	1.89
421.095	1.76
421.302	1.76
421.51	1.65
421.717	1.51
421.925	1.6
422.132	1.63
422.34	1.5
422.547	1.54
422.755	1.64
422.962	1.64
423.17	1.49
423.377	1.6
423.585	1.69
423.792	1.62
423.999	1.67
424.207	1.72
424.414	1.65
424.621	1.72
424.829	2
425.036	2.1
425.243	2.21
425.451	2.28
425.658	2.17
425.865	1.96
426.072	1.84
426.28	1.76
426.487	1.74
426.694	1.76
426.901	1.78
427.108	1.73
427.315	1.72
427.523	1.67
427.73	1.67
427.937	1.48
428.144	1.41
428.351	1.4
428.558	1.43
428.765	1.44
428.972	1.66
429.179	1.59
429.386	1.74
429.593	1.74
429.8	1.74
430.007	1.68
430.214	1.82
430.421	1.78
430.628	1.72
430.835	1.74
431.042	1.68
431.249	1.73
431.456	1.66
431.662	1.89
431.869	2.02
432.076	2.01
432.283	2.1
432.49	2.13
432.697	1.97
432.903	1.81
433.11	2.02
433.317	1.95
433.524	2.02
433.73	2.09
433.937	2.3
434.144	2.07
434.35	1.97
434.557	1.95
434.764	2.03
434.97	1.93
435.177	2.09
435.384	2.24
435.59	2.24
435.797	2.21
436.003	2.21
436.21	2.11
436.416	2.07
436.623	2.17
436.829	2.14
437.036	2.02
437.242	2.09
437.449	2.06
437.655	2.05
437.862	2.06
438.068	2.21
438.275	2.3
438.481	2.42
438.687	2.39
438.894	2.44
439.1	2.33
439.307	2.3
439.513	2.24
439.719	2.23
439.926	2.18
440.132	2.32
440.338	2.3
440.544	2.28
440.751	2.25
440.957	2.39
441.163	2.32
441.369	2.35
441.575	2.24
441.782	2.26
441.988	2.25
442.194	2.22
442.4	2.16
442.606	2.42
442.812	2.43
443.018	2.42
443.224	2.56
443.431	2.57
443.637	2.46
443.843	2.56
444.049	2.51
444.255	2.6
444.461	2.66
444.667	2.66
444.873	2.6
445.079	2.62
445.284	2.55
445.49	2.52
445.696	2.49
445.902	2.51
446.108	2.5
446.314	2.4
446.52	2.47
446.726	2.6
446.931	2.6
447.137	2.6
447.343	2.69
447.549	2.76
447.755	2.71
447.96	2.71
448.166	2.76
448.372	2.74
448.578	2.62
448.783	2.61
448.989	2.71
449.195	2.78
449.4	2.88
449.606	2.9
449.812	2.87
450.017	2.94
450.223	2.88
450.428	2.78
450.634	2.79
450.84	2.88
451.045	2.75
451.251	2.82
451.456	2.87
451.662	2.93
451.867	2.95
452.073	2.98
452.278	2.9
452.483	2.95
452.689	2.9
452.894	2.97
453.1	2.91
453.305	2.99
453.51	3.04
453.716	3.06
453.921	2.97
454.127	3.04
454.332	3.05
454.537	2.99
454.742	2.99
454.948	2.99
455.153	2.99
455.358	2.97
455.563	3.05
455.769	3.11
455.974	3.11
456.179	3.1
456.384	3.04
456.589	2.9
456.795	2.84
457	2.84
457.205	2.77
457.41	2.8
457.615	2.9
457.82	2.97
458.025	2.95
458.23	3.11
458.435	3.18
458.64	3.21
458.845	3.22
459.05	3.33
459.255	3.23
459.46	3.15
459.665	3.1
459.87	3.07
460.075	3.14
460.28	3.24
460.485	3.36
460.69	3.41
460.895	3.47
461.099	3.28
461.304	3.22
461.509	3.19
461.714	3.21
461.919	3.15
462.123	3.26
462.328	3.25
462.533	3.15
462.738	3.12
462.942	3.1
463.147	3.07
463.352	3.12
463.556	3.17
463.761	3.22
463.966	3.22
464.17	3.27
464.375	3.28
464.58	3.3
464.784	3.3
464.989	3.41
465.193	3.41
465.398	3.47
465.602	3.62
465.807	3.61
466.011	3.57
466.216	3.52
466.42	3.64
466.625	3.62
466.829	3.67
467.034	3.85
467.238	4.03
467.443	3.95
467.647	3.93
467.851	3.89
468.056	3.82
468.26	3.79
