Data from Ofra_1a_PS_8HS24_Reflection_3.txt Node
Date: Tue Jul 20 11:03:46 EDT 2021
User: Adam
Spectrometer: FLMT01687
Trigger mode: 0
Integration Time (sec): 1.004000E0
Scans to average: 2
Electric dark correction enabled: true
Nonlinearity correction enabled: false
Boxcar width: 2
XAxis mode: Wavelengths
Number of Pixels in Spectrum: 3648
>>>>>Begin Spectral Data<<<<<
179.494	-330.96
179.716	-516.03
179.937	1339.13
180.158	-2175.8
180.38	299.92
180.601	208.34
180.823	208.43
181.044	180.03
181.265	64.92
181.486	157.04
181.708	80.07
181.929	-36.36
182.15	139.35
182.372	-226.6
182.593	85.79
182.814	19.02
183.035	48.77
183.257	33.6
183.478	5.49
183.699	-36.07
183.92	-71.44
184.141	-67.71
184.363	-56.3
184.584	-55.08
184.805	6.83
185.026	30.42
185.247	29.01
185.468	12.79
185.689	26.86
185.91	-19.28
186.132	14.46
186.353	4.73
186.574	5.16
186.795	4.1
187.016	43.05
187.237	30.03
187.458	31.74
187.679	22.25
187.9	15.5
188.121	23.24
188.342	41.11
188.563	36.65
188.784	54.55
189.005	36.73
189.226	22.79
189.447	1.53
189.667	-2.98
189.888	-18.7
190.109	-26.66
190.33	-15.68
190.551	-8.68
190.772	-19.6
190.993	-44.16
191.214	-42.57
191.434	-59.5
191.655	-63.45
191.876	10.82
192.097	61.19
192.318	61.09
192.538	40.94
192.759	12.87
192.98	28.35
193.201	13.7
193.421	10.87
193.642	9.22
193.863	21.62
194.083	17.14
194.304	25.49
194.525	30.46
194.745	31.63
194.966	20.75
195.187	4.02
195.407	-0.56
195.628	2.92
195.848	6.67
196.069	18.9
196.29	29.14
196.51	4.93
196.731	-30.35
196.951	-42.87
197.172	-43.51
197.392	-59.95
197.613	-13.37
197.833	-18.13
198.054	-26.05
198.274	-24.76
198.495	-16.7
198.715	-31.65
198.936	-4.23
199.156	17
199.377	10.37
199.597	8.02
199.817	20.25
200.038	7.81
200.258	6.64
200.479	13.07
200.699	17.59
200.919	-0.67
201.14	-1.43
201.36	-18.61
201.58	-42.17
201.801	-98.62
202.021	-131.27
202.241	-120.63
202.461	-83.99
202.682	-45.24
202.902	-2.24
203.122	27.63
203.342	23.84
203.563	18.28
203.783	7.47
204.003	-3.42
204.223	18.1
204.443	27.11
204.663	22.82
204.884	38.97
205.104	65.78
205.324	26.91
205.544	3.96
205.764	48.21
205.984	40.44
206.204	36.67
206.424	21.94
206.644	17.22
206.864	-61.48
207.084	-17.77
207.304	-24.84
207.525	-4.31
207.745	24.15
207.964	40.67
208.184	31.82
208.404	22.57
208.624	18.85
208.844	4.01
209.064	2.81
209.284	-9.97
209.504	-10.48
209.724	-19.8
209.944	-27.58
210.164	-27.18
210.384	-39.8
210.604	-111.55
210.823	-123.47
211.043	-68.95
211.263	-175.14
211.483	-91.97
211.703	-58.47
211.922	-50.54
212.142	-30.88
212.362	11.84
212.582	9.39
212.801	20.09
213.021	20.57
213.241	-8.53
213.461	4.05
213.68	4.44
213.9	7.84
214.12	16.36
214.339	-2.45
214.559	0.89
214.779	7.75
214.998	4.83
215.218	-7.82
215.438	1.17
215.657	-7.9
215.877	-11.25
216.096	2.41
216.316	10.41
216.535	1.24
216.755	7.6
216.974	0.72
217.194	-24.14
217.413	-17.93
217.633	2.46
217.852	-1.99
218.072	5.57
218.291	17.11
218.511	6.6
218.73	-4.63
218.95	-24.76
219.169	-40.19
219.389	-10.16
219.608	-8.55
219.827	7.81
220.047	20.81
220.266	24.55
220.485	5.93
220.705	3.4
220.924	-8.3
221.143	33.99
221.363	28.51
221.582	29.98
221.801	37.97
222.021	30.81
222.24	18.29
222.459	32.36
222.678	27.29
222.897	3.96
223.117	16.7
223.336	14.69
223.555	14.39
223.774	19.36
223.993	48.52
224.213	48.95
224.432	38.51
224.651	14.71
224.87	16.3
225.089	16.91
225.308	24.06
225.527	6.21
225.746	15.98
225.965	9.68
226.184	-7.52
226.404	-25.08
226.623	3.51
226.842	2.45
227.061	4.28
227.28	23.45
227.499	39.99
227.718	35.86
227.936	37.31
228.155	44.12
228.374	28.17
228.593	27.01
228.812	22.73
229.031	32.5
229.25	10.26
229.469	20.28
229.688	1.63
229.907	2.38
230.125	-4.12
230.344	-9.09
230.563	0.18
230.782	-1.87
231.001	-10.72
231.22	-11.66
231.438	10.77
231.657	8.54
231.876	21.51
232.095	30.78
232.313	19.4
232.532	20.7
232.751	15.25
232.969	0.84
233.188	-11.95
233.407	3.24
233.625	-1.87
233.844	4.59
234.063	4.59
234.281	4.03
234.5	-6.41
234.719	-5.22
234.937	-41.75
235.156	-32.68
235.374	-12.62
235.593	0.28
235.811	21.64
236.03	38.52
236.249	34.22
236.467	40.52
236.686	36.91
236.904	27.33
237.123	14.63
237.341	0.26
237.559	-29.05
237.778	-7.22
237.996	-56.74
238.215	-110.12
238.433	-139.41
238.652	-61.26
238.87	-76.74
239.088	-83.96
239.307	-28.61
239.525	-19.54
239.743	-32.1
239.962	-44.41
240.18	-16.39
240.398	-22.24
240.617	-20.76
240.835	-11.68
241.053	-5.49
241.271	18.79
241.49	18.46
241.708	24.38
241.926	25.99
242.144	46.58
242.363	9.68
242.581	24.45
242.799	10.87
243.017	4.31
243.235	-15.49
243.453	-21.31
243.672	-12.17
243.89	-4.08
244.108	2.46
244.326	26.8
244.544	29.8
244.762	16.12
244.98	16.58
245.198	21.65
245.416	3.5
245.634	2.1
245.852	0.76
246.07	10
246.288	-4.88
246.506	-4.47
246.724	6.17
246.942	17.61
247.16	5.36
247.378	7.3
247.596	51.5
247.814	27.51
248.032	-15.42
248.25	22.59
248.468	30.34
248.685	14.49
248.903	2.47
249.121	11.89
249.339	-1.07
249.557	-26.44
249.775	-12.08
249.992	4.69
250.21	-12.25
250.428	-7.99
250.646	1.61
250.863	-13.73
251.081	-5.92
251.299	23.5
251.517	35.81
251.734	43.51
251.952	38.89
252.17	39.7
252.387	22.33
252.605	5.6
252.823	-9.03
253.04	15.86
253.258	12.46
253.475	29.04
253.693	32.17
253.911	22.04
254.128	9.7
254.346	18.21
254.563	15.34
254.781	4.5
254.998	-1.14
255.216	-34.8
255.433	-68.04
255.651	-61.81
255.868	-36.5
256.086	-23.91
256.303	-3.27
256.521	25.26
256.738	10.24
256.956	-2.1
257.173	-18.91
257.39	-15.1
257.608	-27.13
257.825	-24.36
258.043	-7.85
258.26	9.1
258.477	13.42
258.695	22.2
258.912	16.97
259.129	16.35
259.346	10.57
259.564	17.47
259.781	-12.83
259.998	20.95
260.216	22.04
260.433	7.78
260.65	-6.51
260.867	-21.43
261.084	-32.36
261.302	-56.99
261.519	-24.36
261.736	-23.13
261.953	-2.36
262.17	9.07
262.387	-1.27
262.604	-3.75
262.822	14.36
263.039	17.05
263.256	11.61
263.473	25.16
263.69	21.54
263.907	20.22
264.124	30.8
264.341	40.66
264.558	47.98
264.775	59.37
264.992	62.62
265.209	44.8
265.426	29.29
265.643	7.77
265.86	-3.05
266.077	-18.95
266.294	0.09
266.51	27.59
266.727	-2.27
266.944	7.95
267.161	3.02
267.378	2.73
267.595	-27.33
267.812	-15.9
268.028	-41.38
268.245	-23.83
268.462	-26.26
268.679	-3.5
268.896	17.16
269.112	15.92
269.329	-12.89
269.546	13.67
269.763	8.8
269.979	-3.43
270.196	14.82
270.413	18.12
270.629	-1.25
270.846	-9.94
271.063	1.93
271.279	-7.77
271.496	-15.47
271.712	-12.62
271.929	5.59
272.146	5.43
272.362	-2.6
272.579	2.8
272.795	6.25
273.012	3.37
273.228	-3.99
273.445	8.26
273.661	10.46
273.878	1.61
274.094	0.68
274.311	9.91
274.527	-2.16
274.744	0.08
274.96	10.52
275.177	5.21
275.393	12.95
275.609	21.05
275.826	27
276.042	16.45
276.259	19.53
276.475	4.4
276.691	-5.94
276.908	-11.81
277.124	3.2
277.34	-4.97
277.557	-19.85
277.773	-18.3
277.989	-18.38
278.205	-21.71
278.422	-16.25
278.638	13.25
278.854	11.13
279.07	22.76
279.286	21.73
279.503	26.96
279.719	16.11
279.935	17.5
280.151	11.65
280.367	14.33
280.583	0.21
280.799	-2.37
281.016	-38.68
281.232	-13.04
281.448	-12.4
281.664	-0.28
281.88	11.78
282.096	24.78
282.312	6.86
282.528	-3.21
282.744	-13.63
282.96	-45.87
283.176	-68.28
283.392	-125.79
283.608	-72.55
283.824	-71.92
284.04	-102.13
284.256	-56.29
284.471	-24.94
284.687	-27.7
284.903	-17.18
285.119	21.33
285.335	29.95
285.551	42.71
285.767	46.42
285.982	42.96
286.198	-29.2
286.414	-33.98
286.63	-41.49
286.846	-42.59
287.061	-21.8
287.277	7.12
287.493	-10.78
287.709	-15.49
287.924	0.48
288.14	14.37
288.356	25.21
288.571	37.07
288.787	34.76
289.003	33.21
289.218	13.25
289.434	1.23
289.65	13.17
289.865	9.19
290.081	-2.56
290.296	2.61
290.512	2.87
290.727	-8.73
290.943	-4.59
291.159	-1.97
291.374	-20.69
291.59	-22.62
291.805	-29.71
292.021	-29.78
292.236	-22.34
292.451	-9.43
292.667	-14.55
292.882	-5.62
293.098	-15.03
293.313	-24.39
293.529	-20.99
293.744	-16.92
293.959	-22.26
294.175	-13.58
294.39	-15.96
294.605	-2.88
294.821	-3.76
295.036	-12.52
295.251	-8.77
295.467	-1.84
295.682	-4.78
295.897	-8.87
296.112	-2.7
296.328	-5.15
296.543	-14.7
296.758	-13.01
296.973	-6.09
297.188	-1.34
297.404	-26.11
297.619	-48.11
297.834	-95.57
298.049	-85.68
298.264	-72.65
298.479	-53.19
298.694	-2.64
298.909	9.69
299.125	11.47
299.34	15.44
299.555	19.85
299.77	25.19
299.985	27.32
300.2	31.92
300.415	20.26
300.63	22.65
300.845	-1.15
301.06	-4.49
301.275	-21.61
301.49	-11.91
301.704	-12.45
301.919	-18.01
302.134	-25.29
302.349	-14.08
302.564	-11.2
302.779	-47.9
302.994	-23.45
303.209	-18.84
303.423	-21.84
303.638	-35.81
303.853	-28.38
304.068	-41.28
304.283	-41.21
304.497	-48.54
304.712	-12.9
304.927	7.55
305.142	15.13
305.356	18.24
305.571	14.11
305.786	4.29
306	15.48
306.215	6.7
306.43	6.07
306.644	0.61
306.859	12.01
307.074	-6.27
307.288	8.68
307.503	11.52
307.717	8.13
307.932	4.52
308.147	-1.97
308.361	-8.51
308.576	-19.74
308.79	-9.02
309.005	-25.23
309.219	5.52
309.434	9.38
309.648	11.09
309.863	13.66
310.077	19.4
310.292	11.43
310.506	1.26
310.72	-9.99
310.935	10.76
311.149	17.65
311.364	17.39
311.578	21.42
311.792	25.79
312.007	-3.54
312.221	-30.42
312.435	-44.63
312.649	-32.25
312.864	-9.65
313.078	-2.4
313.292	17.78
313.507	36.41
313.721	39.64
313.935	33.45
314.149	29.45
314.363	28.07
314.578	20.31
314.792	-15.09
315.006	-26.39
315.22	-7.31
315.434	-10.76
315.648	-9.11
315.862	8.36
316.077	11.38
316.291	-0.12
316.505	-23.34
316.719	-25.87
316.933	-30.66
317.147	-21.09
317.361	-19.79
317.575	-10.44
317.789	-3.12
318.003	-0.42
318.217	1.24
318.431	13.8
318.645	15.21
318.859	8.33
319.073	9.98
319.287	4.68
319.5	-1.17
319.714	-8.91
319.928	-6.18
320.142	-6.45
320.356	11.08
320.57	-7.34
320.784	12.39
320.997	4.5
321.211	12.8
321.425	-22.96
321.639	-1.14
321.853	7.71
322.066	4.47
322.28	-18.88
322.494	-2
322.707	-0.09
322.921	-19.67
323.135	-9.55
323.349	23.34
323.562	23.2
323.776	26.98
323.989	31.18
324.203	20.14
324.417	3.52
324.63	-10.89
324.844	-36.2
325.057	-55.91
325.271	-47.62
325.485	-51.12
325.698	-23.79
325.912	5.99
326.125	-0.86
326.339	11.19
326.552	8.9
326.766	8.85
326.979	9.27
327.193	16.45
327.406	-0.13
327.619	15.37
327.833	16.91
328.046	10.8
328.26	7.64
328.473	-1.45
328.686	-15.85
328.9	-6.73
329.113	-18.2
329.326	-17.55
329.54	4.11
329.753	24.69
329.966	19.34
330.179	25.81
330.393	29.87
330.606	29.38
330.819	2.59
331.032	-1.48
331.246	5.18
331.459	18.91
331.672	9.82
331.885	17.24
332.098	18.94
332.311	1.06
332.525	-11.43
332.738	-13.53
332.951	-10.62
333.164	-3.96
333.377	4.25
333.59	4.67
333.803	12.09
334.016	9.68
334.229	11.73
334.442	8.02
334.655	-1.91
334.868	12.24
335.081	6.01
335.294	-4.34
335.507	6.51
335.72	14.16
335.933	2.63
336.146	5.76
336.359	21.86
336.572	12.03
336.785	23.22
336.997	22.17
337.21	26.71
337.423	-21.15
337.636	-6.37
337.849	-18.71
338.062	-8.31
338.274	-2.07
338.487	3.98
338.7	-4
338.913	10.14
339.125	1.78
339.338	-3.51
339.551	4.32
339.763	2.58
339.976	-10.42
340.189	-4.85
340.402	-1.37
340.614	7.23
340.827	15.48
341.039	24.11
341.252	26.14
341.465	11.64
341.677	7.81
341.89	-8.48
342.102	-5.1
342.315	-9.75
342.527	2.74
342.74	-13.43
342.952	-22.99
343.165	-32.6
343.377	-16.8
343.59	-28.88
343.802	-8.17
344.015	18.11
344.227	22.72
344.44	6.73
344.652	5.9
344.864	6.45
345.077	13.92
345.289	24.9
345.502	49.06
345.714	50.57
345.926	61.95
346.139	31.11
346.351	25.11
346.563	14.05
346.775	26.44
346.988	5.08
347.2	10.57
347.412	9.67
347.624	13.09
347.837	20.34
348.049	31.82
348.261	27.76
348.473	23.44
348.685	9.89
348.897	-17.33
349.11	-23.03
349.322	-17.92
349.534	-30.74
349.746	-23.2
349.958	-22.27
350.17	-31.3
350.382	-27.18
350.594	-6.22
350.806	7.71
351.018	22.05
351.23	33.49
351.442	33.33
351.654	21.58
351.866	10.71
352.078	19.06
352.29	1.01
352.502	0.67
352.714	15.05
352.926	16.01
353.138	15.43
353.35	10.51
353.561	6.89
353.773	1.45
353.985	4.45
354.197	-5.92
354.409	3.74
354.621	-0.1
354.832	-6.78
355.044	-17.75
355.256	-14.98
355.468	-22.15
355.679	-5.62
355.891	10.9
356.103	7.27
356.314	4.98
356.526	-3.01
356.738	-6.93
356.949	-16.01
357.161	7.8
357.373	9.62
357.584	5.59
357.796	3.22
358.008	4.91
358.219	-3.1
358.431	-21.59
358.642	-1.16
358.854	8.58
359.065	0.99
359.277	4.16
359.488	12.3
359.7	-1.95
359.911	-20.56
360.123	-7.9
360.334	-20.71
360.546	-21.75
360.757	-7.55
360.969	0.05
361.18	12.84
361.391	5.9
361.603	16.82
361.814	5.02
362.025	11.07
362.237	-4.47
362.448	10.9
362.659	-1.11
362.871	-4.39
363.082	1.44
363.293	-8.42
363.504	-24.67
363.716	-5.58
363.927	9.1
364.138	-21.89
364.349	-9.53
364.56	-31.71
364.772	-26.32
364.983	-20.14
365.194	-8.13
365.405	-9.58
365.616	7.51
365.827	3.09
366.038	8.6
366.25	18.46
366.461	16.41
366.672	21.19
366.883	15.84
367.094	1.98
367.305	-5.24
367.516	-1.76
367.727	-21.69
367.938	-20.01
368.149	-31.92
368.36	-43.61
368.571	-59.74
368.781	-47.38
368.992	-46.43
369.203	-40.07
369.414	-44.46
369.625	-34.88
369.836	-12.86
370.047	-6.99
370.258	5.51
370.468	10.4
370.679	3.53
370.89	-4.57
371.101	6.9
371.312	-7.56
371.522	-6.47
371.733	-4.13
371.944	-20.35
372.155	-36.02
372.365	-19.79
372.576	-20.31
372.787	0.47
372.997	-1.57
373.208	-7.11
373.419	-9.65
373.629	-4.63
373.84	-21.97
374.05	-13.11
374.261	-13.17
374.472	-14.25
374.682	3.53
374.893	4.31
375.103	19.93
375.314	26.05
375.524	22.7
375.735	10.6
375.945	9.55
376.156	-3.18
376.366	-8
376.577	-8.37
376.787	-3.74
376.997	3.89
377.208	4.01
377.418	4.47
377.629	8.83
377.839	4.39
378.049	-3.27
378.26	-6.38
378.47	-5.76
378.68	-0.3
378.89	3.68
379.101	17.58
379.311	21.89
379.521	16.36
379.732	20.97
379.942	23.33
380.152	8.99
380.362	11.65
380.572	20.61
380.783	18.61
380.993	17.28
381.203	21.44
381.413	21.31
381.623	15.3
381.833	13.95
382.043	6.07
382.253	8.15
382.463	18.61
382.674	18.85
382.884	18.63
383.094	18.87
383.304	15.08
383.514	3.92
383.724	0.58
383.934	-5.99
384.144	-1.17
384.353	5.18
384.563	10.04
384.773	15.28
384.983	13.19
385.193	14.85
385.403	5.63
385.613	3
385.823	-0.34
386.033	2.23
386.242	-4.44
386.452	0.46
386.662	-5.46
386.872	-3.84
387.082	-0.31
387.291	0.15
387.501	4.02
387.711	11.34
387.921	13.52
388.13	13.58
388.34	15.77
388.55	9.65
388.759	1.64
388.969	-5.04
389.179	-6.71
389.388	-11.53
389.598	-14.52
389.807	-15.18
390.017	-13.43
390.227	-16.18
390.436	-12.31
390.646	-10.15
390.855	-6.22
391.065	-4.77
391.274	-1.27
391.484	-4.17
391.693	-1.59
391.903	-0.34
392.112	1.46
392.322	-1.44
392.531	0.82
392.74	0.08
392.95	0.01
393.159	-0.25
393.369	2.52
393.578	2.64
393.787	2.68
393.997	3.32
394.206	2.25
394.415	1.99
394.625	1.89
394.834	0.63
395.043	0.83
395.252	2.75
395.462	3.34
395.671	3.25
395.88	5.55
396.089	4.17
396.298	3.51
396.508	2.96
396.717	3.47
396.926	1.95
397.135	3.34
397.344	3.05
397.553	2.99
397.762	3.29
397.971	3.65
398.181	3.47
398.39	2.75
398.599	2.98
398.808	2.6
399.017	2.82
399.226	2.47
399.435	2.89
399.644	2.82
399.853	3.04
400.062	3.09
400.27	2.69
400.479	2.97
400.688	2.98
400.897	2.74
401.106	2.6
401.315	3.06
401.524	2.97
401.733	2.73
401.941	3.15
402.15	3.1
402.359	3.07
402.568	3.11
402.777	3.39
402.985	2.98
403.194	3.02
403.403	3.25
403.612	3.23
403.82	2.74
404.029	2.92
404.238	2.99
404.446	2.9
404.655	2.87
404.864	3.06
405.072	2.96
405.281	2.85
405.489	2.77
405.698	2.95
405.906	3.13
406.115	3.17
406.324	3.25
406.532	3.22
406.741	3.22
406.949	3.22
407.158	3.19
407.366	3.07
407.574	3.12
407.783	2.93
407.991	2.76
408.2	3
408.408	3.03
408.617	3.02
408.825	2.93
409.033	2.99
409.242	2.91
409.45	2.92
409.658	2.77
409.867	2.83
410.075	2.77
410.283	2.63
410.491	2.47
410.7	2.5
410.908	2.59
411.116	2.64
411.324	2.62
411.533	2.63
411.741	2.64
411.949	2.64
412.157	2.62
412.365	2.67
412.573	2.68
412.781	2.65
412.99	2.65
413.198	2.58
413.406	2.6
413.614	2.76
413.822	2.84
414.03	2.76
414.238	2.97
414.446	2.87
414.654	2.7
414.862	2.67
415.07	2.64
415.278	2.53
415.486	2.5
415.694	2.66
415.902	2.58
416.109	2.48
416.317	2.51
416.525	2.45
416.733	2.4
416.941	2.38
417.149	2.42
417.357	2.44
417.564	2.53
417.772	2.6
417.98	2.68
418.188	2.61
418.395	2.33
418.603	2.14
418.811	1.89
419.019	1.88
419.226	2.14
419.434	2.11
419.642	2.08
419.849	2.05
420.057	1.93
420.265	1.79
420.472	1.89
420.68	2
420.887	2.06
421.095	2.17
421.302	2.13
421.51	2.15
421.717	2.27
421.925	2.34
422.132	2.36
422.34	2.25
422.547	2.2
422.755	2.28
422.962	2.21
423.17	1.89
423.377	1.97
423.585	2.15
423.792	2.01
423.999	2.22
424.207	2.26
424.414	2.34
424.621	2.24
424.829	2.27
425.036	2.06
425.243	2.27
425.451	2.26
425.658	2.31
425.865	2.32
426.072	2.36
426.28	2.39
426.487	2.33
426.694	2.14
426.901	2.22
427.108	2.13
427.315	1.97
427.523	1.91
427.73	2.05
427.937	1.86
428.144	1.93
428.351	1.97
428.558	2.1
428.765	2.08
428.972	2.29
429.179	2.18
429.386	2.46
429.593	2.41
429.8	2.37
430.007	2.34
430.214	2.58
430.421	2.49
430.628	2.53
430.835	2.54
431.042	2.37
431.249	2.26
431.456	2.23
431.662	2.31
431.869	2.43
432.076	2.52
432.283	2.65
432.49	2.58
432.697	2.53
432.903	2.37
433.11	2.49
433.317	2.53
433.524	2.6
433.73	2.49
433.937	2.78
434.144	2.51
434.35	2.34
434.557	2.45
434.764	2.53
434.97	2.3
435.177	2.51
435.384	2.56
435.59	2.55
435.797	2.58
436.003	2.61
436.21	2.51
436.416	2.53
436.623	2.43
436.829	2.5
437.036	2.54
437.242	2.6
437.449	2.63
437.655	2.74
437.862	2.68
438.068	2.64
438.275	2.67
438.481	2.64
438.687	2.62
438.894	2.65
439.1	2.63
439.307	2.71
439.513	2.73
439.719	2.74
439.926	2.87
440.132	2.98
440.338	2.87
440.544	2.83
440.751	2.77
440.957	2.76
441.163	2.62
441.369	2.63
441.575	2.6
441.782	2.67
441.988	2.7
442.194	2.77
442.4	2.85
442.606	3.03
442.812	3.13
443.018	3.11
443.224	3.21
443.431	3.13
443.637	3.06
443.843	2.95
444.049	3
444.255	2.99
444.461	3.03
444.667	2.99
444.873	2.96
445.079	2.87
445.284	2.8
445.49	2.83
445.696	2.8
445.902	2.84
446.108	2.89
446.314	2.95
446.52	3.01
446.726	3.06
446.931	2.96
447.137	2.95
447.343	3.01
447.549	3
447.755	3.01
447.96	3.16
448.166	3.15
448.372	3.11
448.578	3.05
448.783	3.06
448.989	3.1
449.195	3.15
449.4	3.13
449.606	3.16
449.812	3.11
450.017	3.06
450.223	2.97
450.428	2.99
450.634	2.95
450.84	3.04
451.045	3.04
451.251	3.15
451.456	3.17
451.662	3.24
451.867	3.25
452.073	3.22
452.278	3.17
452.483	3.12
452.689	3.15
452.894	3.22
453.1	3.21
453.305	3.25
453.51	3.28
453.716	3.22
453.921	3.21
454.127	3.22
454.332	3.19
454.537	3.2
454.742	3.22
454.948	3.11
455.153	3.13
455.358	3.12
455.563	3.21
455.769	3.26
455.974	3.31
456.179	3.31
456.384	3.3
456.589	3.28
456.795	3.18
457	3.2
457.205	3.18
457.41	3.18
457.615	3.15
457.82	3.25
458.025	3.2
458.23	3.19
458.435	3.23
458.64	3.18
458.845	3.19
459.05	3.25
459.255	3.29
459.46	3.23
459.665	3.28
459.87	3.19
460.075	3.24
460.28	3.28
460.485	3.42
460.69	3.41
460.895	3.52
461.099	3.38
461.304	3.28
461.509	3.22
461.714	3.21
461.919	3.2
462.123	3.27
462.328	3.33
462.533	3.23
462.738	3.17
462.942	3.06
463.147	3.09
463.352	3.14
463.556	3.22
463.761	3.29
463.966	3.41
464.17	3.43
464.375	3.47
464.58	3.44
464.784	3.45
464.989	3.45
465.193	3.37
465.398	3.41
465.602	3.6
465.807	3.59
466.011	3.58
466.216	3.66
466.42	3.62
466.625	3.57
466.829	3.51
467.034	3.6
