Data from Ofra_PS_T2_2A_2CX10_Reflection_1.txt Node
Date: Wed Jul 21 16:57:12 EDT 2021
User: Adam
Spectrometer: FLMT01687
Trigger mode: 0
Integration Time (sec): 1.100000E0
Scans to average: 2
Electric dark correction enabled: true
Nonlinearity correction enabled: false
Boxcar width: 2
XAxis mode: Wavelengths
Number of Pixels in Spectrum: 3648
>>>>>Begin Spectral Data<<<<<
179.494	521
179.716	572.71
179.937	552.47
180.158	534.31
180.38	855.78
180.601	388.54
180.823	118.48
181.044	-20.73
181.265	181.8
181.486	83.18
181.708	111.14
181.929	822.96
182.15	-310.21
182.372	131.33
182.593	84.23
182.814	111.32
183.035	128.65
183.257	54.25
183.478	-16.22
183.699	23.66
183.92	-20.21
184.141	-22.28
184.363	-41.35
184.584	-5.53
184.805	-5.98
185.026	4.82
185.247	19.19
185.468	16.98
185.689	19.76
185.91	15.29
186.132	23.32
186.353	38.25
186.574	82.95
186.795	82.91
187.016	102.25
187.237	62.97
187.458	41.35
187.679	42.46
187.9	19.7
188.121	8.5
188.342	24.97
188.563	58.66
188.784	68.54
189.005	66.47
189.226	107.18
189.447	102.84
189.667	27.06
189.888	-194.21
190.109	-917.21
190.33	-625.97
190.551	-932.96
190.772	-236.38
190.993	-191.47
191.214	-135.86
191.434	-81.14
191.655	-2.73
191.876	-16.21
192.097	-42.18
192.318	-64.19
192.538	-76.03
192.759	-115.77
192.98	-22.08
193.201	26.82
193.421	44.25
193.642	37.83
193.863	58.35
194.083	35.81
194.304	10.8
194.525	6.22
194.745	-14.76
194.966	-37.7
195.187	-40.97
195.407	-46.95
195.628	-71.53
195.848	-61.8
196.069	-56.85
196.29	14.71
196.51	8.2
196.731	4.08
196.951	26.16
197.172	1.31
197.392	-37.06
197.613	-44.36
197.833	-82.67
198.054	-70.22
198.274	-8.72
198.495	-20.85
198.715	12.27
198.936	17.53
199.156	10.83
199.377	-65.39
199.597	-61.91
199.817	-65.74
200.038	-22.08
200.258	-74.47
200.479	-3.79
200.699	-6.05
200.919	9.5
201.14	5.05
201.36	12.63
201.58	31.01
201.801	66.21
202.021	43.21
202.241	27.59
202.461	30.38
202.682	-57.66
202.902	-146.18
203.122	-93.02
203.342	-46.72
203.563	-31.64
203.783	12.04
204.003	-26.44
204.223	-25.4
204.443	14.5
204.663	14.21
204.884	31.49
205.104	68.12
205.324	84.5
205.544	71.78
205.764	56.49
205.984	49.52
206.204	65.52
206.424	54.18
206.644	42.17
206.864	57.46
207.084	26.08
207.304	28.34
207.525	36.17
207.745	39.73
207.964	63.26
208.184	38.54
208.404	-17.63
208.624	-15.3
208.844	-9.38
209.064	-180.7
209.284	-133.23
209.504	-39.63
209.724	13.52
209.944	21.98
210.164	51.71
210.384	39.48
210.604	42.18
210.823	10.34
211.043	-14.55
211.263	-12.65
211.483	-22.08
211.703	-57.08
211.922	-41.36
212.142	8.28
212.362	-1.33
212.582	21.94
212.801	29.97
213.021	8.89
213.241	6.83
213.461	-30.98
213.68	-66.28
213.9	-84.89
214.12	-70.6
214.339	-123.36
214.559	-49.47
214.779	3.91
214.998	22.79
215.218	25.12
215.438	35.26
215.657	-5.66
215.877	-7.39
216.096	13.8
216.316	16.12
216.535	10.68
216.755	5.59
216.974	-46.77
217.194	-94.1
217.413	-104.54
217.633	-112.52
217.852	-162.04
218.072	-71.62
218.291	-24.66
218.511	6.34
218.73	-13.05
218.95	-7.54
219.169	-13.95
219.389	-53.28
219.608	-36.11
219.827	-33.61
220.047	-30.68
220.266	-17.57
220.485	-3.44
220.705	10.86
220.924	-0.66
221.143	28.37
221.363	10.45
221.582	17.46
221.801	6.39
222.021	30
222.24	-27.83
222.459	18.37
222.678	-10.38
222.897	-40.55
223.117	-91.7
223.336	-88.01
223.555	-74.79
223.774	10.54
223.993	31.23
224.213	73.47
224.432	67.52
224.651	72.83
224.87	24.24
225.089	35.34
225.308	23.58
225.527	34.87
225.746	30.94
225.965	28.67
226.184	-0.1
226.404	25.83
226.623	12.93
226.842	19.2
227.061	33.64
227.28	35.74
227.499	31.14
227.718	35.94
227.936	33.05
228.155	40.39
228.374	49.73
228.593	31.42
228.812	37.63
229.031	21.22
229.25	-13.65
229.469	-4.16
229.688	8.89
229.907	26.41
230.125	53.17
230.344	72.92
230.563	61.01
230.782	61.5
231.001	11.91
231.22	-8.03
231.438	-2.09
231.657	3.12
231.876	-8.78
232.095	28.83
232.313	45.13
232.532	41.1
232.751	22.49
232.969	28.48
233.188	34.35
233.407	50.44
233.625	23.68
233.844	-6.18
234.063	-7.49
234.281	-1.01
234.5	-8.36
234.719	13.73
234.937	41.58
235.156	42.52
235.374	47.84
235.593	36.41
235.811	29.56
236.03	15.45
236.249	-1.43
236.467	-5.92
236.686	13.21
236.904	20.26
237.123	12.54
237.341	17.52
237.559	27.86
237.778	27.85
237.996	13.56
238.215	40.21
238.433	32.09
238.652	27.28
238.87	5.58
239.088	20.05
239.307	6.82
239.525	-4.03
239.743	-27.23
239.962	-5.54
240.18	-22.5
240.398	-57.57
240.617	-31.84
240.835	3.09
241.053	27.62
241.271	62.59
241.49	74.31
241.708	70.75
241.926	63.77
242.144	29.42
242.363	-18.76
242.581	-36.05
242.799	-6.61
243.017	10.14
243.235	-14.1
243.453	-1.79
243.672	-15.02
243.89	-21.11
244.108	-30.82
244.326	-2.17
244.544	2.63
244.762	21.21
244.98	43.96
245.198	50.57
245.416	35.21
245.634	7.84
245.852	7.1
246.07	-11.44
246.288	-24.01
246.506	-48.31
246.724	2.74
246.942	-16.51
247.16	27.74
247.378	21.92
247.596	30.14
247.814	18.2
248.032	21.85
248.25	1.71
248.468	21.76
248.685	30
248.903	52.57
249.121	44.06
249.339	26.63
249.557	4.9
249.775	22.97
249.992	-35.97
250.21	-32.78
250.428	-28.83
250.646	-39.74
250.863	-61.87
251.081	-18.78
251.299	-15
251.517	19
251.734	-1.93
251.952	-13.1
252.17	-14.91
252.387	-1.9
252.605	-15.39
252.823	11.3
253.04	39.18
253.258	53.44
253.475	61.06
253.693	66.36
253.911	59.46
254.128	39.47
254.346	38.41
254.563	4.33
254.781	-2.8
254.998	-27.75
255.216	-38.89
255.433	-29.51
255.651	13.3
255.868	14.51
256.086	25.04
256.303	16.24
256.521	5.38
256.738	2.12
256.956	-25
257.173	-32.19
257.39	-22.95
257.608	-43.04
257.825	-36.03
258.043	5.66
258.26	8.17
258.477	41.11
258.695	36.78
258.912	17.2
259.129	28.26
259.346	8.65
259.564	-23.29
259.781	-16.56
259.998	28.41
260.216	37.09
260.433	62.23
260.65	54.64
260.867	60.31
261.084	36.46
261.302	7.52
261.519	4.92
261.736	-20.61
261.953	-33.3
262.17	2.08
262.387	-16.93
262.604	-48.47
262.822	-45.82
263.039	-19.97
263.256	-75.05
263.473	-29.19
263.69	1.98
263.907	28.96
264.124	30.14
264.341	43.55
264.558	15.47
264.775	0.59
264.992	-19.61
265.209	-16.63
265.426	3.2
265.643	19.27
265.86	47.72
266.077	39.58
266.294	33.9
266.51	7.45
266.727	-11.7
266.944	-15.35
267.161	-4.22
267.378	11.72
267.595	30.4
267.812	13.61
268.028	-19.97
268.245	9.2
268.462	-11.59
268.679	-26.82
268.896	25.33
269.112	30.22
269.329	17.41
269.546	23.63
269.763	24.56
269.979	5.01
270.196	14.76
270.413	-2.05
270.629	-20.78
270.846	-34.13
271.063	-29.2
271.279	-57.57
271.496	-48.41
271.712	-19.49
271.929	0.88
272.146	1.49
272.362	23.07
272.579	52.31
272.795	46.44
273.012	55.58
273.228	58.32
273.445	38.52
273.661	21.41
273.878	1.82
274.094	-12.52
274.311	-22.04
274.527	18.24
274.744	10.76
274.96	5.29
275.177	-1.22
275.393	9.13
275.609	6.26
275.826	30.58
276.042	22.54
276.259	27.58
276.475	34.78
276.691	44.86
276.908	20.1
277.124	43.34
277.34	45
277.557	35.56
277.773	13.05
277.989	17.31
278.205	5.03
278.422	7.7
278.638	15.64
278.854	23.57
279.07	26.84
279.286	59.34
279.503	66.12
279.719	56.99
279.935	47.61
280.151	44.92
280.367	6.61
280.583	-14.63
280.799	-15.49
281.016	-35.23
281.232	-12.41
281.448	-17.55
281.664	7.32
281.88	-13.74
282.096	8.1
282.312	24.08
282.528	44.02
282.744	44.52
282.96	40.48
283.176	23.06
283.392	21.05
283.608	13.9
283.824	8.38
284.04	18.85
284.256	20.39
284.471	9.22
284.687	4.77
284.903	23.04
285.119	52.77
285.335	42.66
285.551	56.83
285.767	50.05
285.982	36.38
286.198	-10.09
286.414	39.13
286.63	30.06
286.846	51.34
287.061	35.05
287.277	59.2
287.493	32.86
287.709	48.57
287.924	21.65
288.14	53.97
288.356	38.75
288.571	51.27
288.787	35.88
289.003	43.06
289.218	16.22
289.434	-5.03
289.65	3
289.865	-8.03
290.081	1.51
290.296	10.43
290.512	6
290.727	-26.61
290.943	-12.51
291.159	-16.59
291.374	-15.36
291.59	-26.47
291.805	-9.19
292.021	1.2
292.236	-0.93
292.451	17.52
292.667	24.74
292.882	41.52
293.098	35.22
293.313	39.14
293.529	-4.76
293.744	-12.78
293.959	-24.06
294.175	-28.88
294.39	-3.25
294.605	15.62
294.821	28.8
295.036	36.34
295.251	37.2
295.467	27.17
295.682	24.06
295.897	10.48
296.112	-21.91
296.328	-6.95
296.543	-27.5
296.758	-25.18
296.973	2.26
297.188	29.44
297.404	7.93
297.619	-7.73
297.834	-15.61
298.049	-28.71
298.264	-49.17
298.479	4.6
298.694	15.86
298.909	30.82
299.125	38.87
299.34	51.44
299.555	28.49
299.77	30.31
299.985	-1.32
300.2	-55.26
300.415	-70.72
300.63	-44.34
300.845	-46.65
301.06	-49.14
301.275	-18.22
301.49	7.5
301.704	-2.34
301.919	-12.43
302.134	-11.72
302.349	-3.62
302.564	-61.85
302.779	-46.36
302.994	-19.95
303.209	19.06
303.423	20.91
303.638	67.63
303.853	15.34
304.068	17.71
304.283	11.34
304.497	15.67
304.712	8.75
304.927	22.22
305.142	11.78
305.356	12.02
305.571	-17.23
305.786	-27.49
306	-32.66
306.215	-24.94
306.43	-39.24
306.644	19.42
306.859	66.81
307.074	54.02
307.288	35.18
307.503	23.13
307.717	-2.55
307.932	-22.07
308.147	-20.4
308.361	-0.62
308.576	1.42
308.79	-20.1
309.005	-16.07
309.219	-14.72
309.434	-27.1
309.648	-12.03
309.863	6.38
310.077	2.22
310.292	5.33
310.506	6.49
310.72	13.29
310.935	-7.94
311.149	-3.99
311.364	3.54
311.578	15.41
311.792	-1.9
312.007	18.8
312.221	7.52
312.435	9.78
312.649	7.42
312.864	-23.64
313.078	-0.77
313.292	25.73
313.507	-8.83
313.721	-47.39
313.935	32.22
314.149	11.04
314.363	10.6
314.578	15.15
314.792	25.37
315.006	12.9
315.22	22.23
315.434	23.11
315.648	25.73
315.862	19.95
316.077	25.63
316.291	11.15
316.505	6.44
316.719	7.34
316.933	-2.33
317.147	-4.19
317.361	-48.06
317.575	-55.21
317.789	-68.25
318.003	-118.63
318.217	-102.9
318.431	-6.16
318.645	37.93
318.859	23.13
319.073	45.65
319.287	40.69
319.5	16.07
319.714	-23.22
319.928	-42.95
320.142	-69.03
320.356	-30.27
320.57	-14.41
320.784	-17.23
320.997	8.71
321.211	8.39
321.425	-42.58
321.639	-41.62
321.853	-11.16
322.066	-6.9
322.28	-0.07
322.494	9.51
322.707	16.19
322.921	20.88
323.135	12.83
323.349	27.41
323.562	12.92
323.776	8.31
323.989	3.89
324.203	9.63
324.417	-16.12
324.63	-15.13
324.844	-18.5
325.057	-17.88
325.271	-0.86
325.485	21.01
325.698	42.79
325.912	51.82
326.125	33.55
326.339	30.36
326.552	19.77
326.766	8.32
326.979	22.56
327.193	49.05
327.406	42.17
327.619	30.38
327.833	43.21
328.046	18.77
328.26	-14.82
328.473	3.6
328.686	-12.17
328.9	-20.3
329.113	-9.29
329.326	5.61
329.54	16.39
329.753	17.67
329.966	7.13
330.179	27.63
330.393	14.35
330.606	2.87
330.819	24.59
331.032	37.74
331.246	30.4
331.459	54.67
331.672	57.17
331.885	48.47
332.098	23.05
332.311	25.6
332.525	-15.21
332.738	-24.65
332.951	-4.89
333.164	29.77
333.377	38.53
333.59	46.05
333.803	58.56
334.016	47.35
334.229	41.22
334.442	41.11
334.655	63.85
334.868	71.63
335.081	68.02
335.294	62.58
335.507	53.47
335.72	25.52
335.933	-7.75
336.146	-2.17
336.359	-11.29
336.572	-35.88
336.785	-40.28
336.997	-18.47
337.21	-3.6
337.423	-12.97
337.636	-5
337.849	5.11
338.062	-9.71
338.274	-26.53
338.487	-22.04
338.7	-11.36
338.913	-34.35
339.125	-46.46
339.338	-85.42
339.551	-71.37
339.763	-49.07
339.976	-39.99
340.189	-2.08
340.402	29.92
340.614	38.12
340.827	37.97
341.039	36.48
341.252	28.03
341.465	16.24
341.677	0.96
341.89	-36.17
342.102	-5.8
342.315	-20.28
342.527	-42.35
342.74	-22.96
342.952	-1.12
343.165	-0.92
343.377	13.59
343.59	21.06
343.802	31.1
344.015	40.17
344.227	38.74
344.44	31.51
344.652	26.46
344.864	13.27
345.077	14.66
345.289	19.74
345.502	24.73
345.714	22.6
345.926	23.56
346.139	25.81
346.351	29.14
346.563	22.57
346.775	27.39
346.988	22.22
347.2	12.58
347.412	-29.2
347.624	-25.26
347.837	-25.11
348.049	-13.65
348.261	7.71
348.473	20.98
348.685	14.19
348.897	4.12
349.11	-11.89
349.322	-37.91
349.534	-31.31
349.746	-16.3
349.958	-0.09
350.17	6.07
350.382	22.09
350.594	30.79
350.806	32.46
351.018	26.78
351.23	21.3
351.442	-2.53
351.654	2.31
351.866	-6.17
352.078	-18.45
352.29	0.48
352.502	15.12
352.714	9.17
352.926	-0.6
353.138	-0.18
353.35	-4.43
353.561	-8.12
353.773	-12.38
353.985	-1.35
354.197	-4.55
354.409	-17.13
354.621	-17.5
354.832	-11.14
355.044	-9.97
355.256	-11.24
355.468	16.27
355.679	18.92
355.891	31.65
356.103	11.91
356.314	35.2
356.526	28.02
356.738	26.66
356.949	19.38
357.161	36.72
357.373	7.02
357.584	0.25
357.796	16.25
358.008	13.1
358.219	23.47
358.431	33.25
358.642	41.82
358.854	22.91
359.065	14.82
359.277	-11.49
359.488	-20.18
359.7	-33.69
359.911	-31.93
360.123	-19.05
360.334	-19.69
360.546	-33.91
360.757	-39.2
360.969	-40.11
361.18	-43.64
361.391	-22.25
361.603	-9.96
361.814	-3.93
362.025	-1.96
362.237	0.27
362.448	15.66
362.659	22.94
362.871	27.8
363.082	27.87
363.293	25.94
363.504	-2.09
363.716	-27.81
363.927	-36.98
364.138	-57.46
364.349	-70.52
364.56	-53.59
364.772	-37.16
364.983	-18.7
365.194	-11.77
365.405	9.27
365.616	29.16
365.827	29.81
366.038	13.4
366.25	3.51
366.461	-21.53
366.672	-15.27
366.883	8.92
367.094	18.35
367.305	19.3
367.516	15.7
367.727	-16.07
367.938	-34.55
368.149	-41.61
368.36	-31.53
368.571	-22.27
368.781	-23.99
368.992	-26.65
369.203	-32.3
369.414	-43.88
369.625	-44.73
369.836	-32.49
370.047	-45.15
370.258	-33.7
370.468	-36.84
370.679	-40.32
370.89	-33.55
371.101	-25.31
371.312	-29.21
371.522	-19.2
371.733	-16.23
371.944	-12.65
372.155	0.08
372.365	-2.12
372.576	7.04
372.787	12.77
372.997	3.8
373.208	4.43
373.419	25.59
373.629	-7.95
373.84	-12.25
374.05	-19.4
374.261	-20.01
374.472	-39.26
374.682	7.74
374.893	10.23
375.103	45.58
375.314	45.02
375.524	46.44
375.735	33.55
375.945	31.41
376.156	8.53
376.366	14.39
376.577	11.94
376.787	10.76
376.997	16.18
377.208	13.93
377.418	-3.95
377.629	5.86
377.839	-1.45
378.049	0.37
378.26	12.48
378.47	17.4
378.68	5.16
378.89	6.01
379.101	-3.05
379.311	-31.18
379.521	-51.95
379.732	-47.72
379.942	-44.66
380.152	-57.96
380.362	-26.62
380.572	-18.05
380.783	-4.31
380.993	5.04
381.203	20.46
381.413	24.24
381.623	26.88
381.833	22.11
382.043	17.81
382.253	14.14
382.463	12.34
382.674	8.19
382.884	-7.91
383.094	-7.64
383.304	-2.5
383.514	2.21
383.724	6.65
383.934	3.49
384.144	-11.44
384.353	-13.87
384.563	-18.31
384.773	-10.78
384.983	-9.38
385.193	13.87
385.403	7.8
385.613	10.44
385.823	-0.19
386.033	5.33
386.242	0.18
386.452	4.45
386.662	-11.38
386.872	3.45
387.082	1.97
387.291	-8.5
387.501	-17.43
387.711	-3.1
387.921	-13.07
388.13	-7.45
388.34	5.75
388.55	2.84
388.759	4.23
388.969	8.63
389.179	3.59
389.388	1.09
389.598	9.69
389.807	0.94
390.017	-2.11
390.227	-0.23
390.436	-1.7
390.646	-0.61
390.855	4.37
391.065	6.17
391.274	3.38
391.484	1.73
391.693	1.17
391.903	1.47
392.112	4.15
392.322	4.83
392.531	6.78
392.74	7.33
392.95	3.09
393.159	0.38
393.369	0.08
393.578	0.6
393.787	0.56
393.997	2.68
394.206	2.76
394.415	4.72
394.625	3.93
394.834	2.56
395.043	3.97
395.252	6.37
395.462	7.99
395.671	7.58
395.88	7.65
396.089	7.23
396.298	4.39
396.508	3.64
396.717	4.05
396.926	4.53
397.135	3.91
397.344	4.61
397.553	4.95
397.762	5.91
397.971	6.52
398.181	6.87
398.39	6.02
398.599	5.57
398.808	5.22
399.017	5.29
399.226	6.51
399.435	7.7
399.644	7.76
399.853	7.08
400.062	6.42
400.27	5.53
400.479	5.09
400.688	4.59
400.897	5.12
401.106	5.5
401.315	5.41
401.524	5.29
401.733	5.8
401.941	6.2
402.15	6.16
402.359	5.87
402.568	6.25
402.777	5.94
402.985	5.45
403.194	5.35
403.403	5.62
403.612	5.3
403.82	5.08
404.029	5.4
404.238	5.33
404.446	5.38
404.655	5.12
404.864	5.38
405.072	5.13
405.281	5.33
405.489	5.19
405.698	5.31
405.906	5.34
406.115	5.27
406.324	5.11
406.532	5.27
406.741	5.54
406.949	5.48
407.158	5.42
407.366	5.34
407.574	5.29
407.783	5.14
407.991	5.07
408.2	5.14
408.408	5.13
408.617	4.95
408.825	4.79
409.033	4.71
409.242	4.83
409.45	4.91
409.658	4.91
409.867	5.01
410.075	5
410.283	4.79
410.491	4.66
410.7	4.64
410.908	4.65
411.116	4.85
411.324	4.77
411.533	4.76
411.741	4.97
411.949	4.91
412.157	4.65
412.365	4.73
412.573	4.68
412.781	4.52
412.99	4.43
413.198	4.6
413.406	4.56
413.614	4.65
413.822	4.49
414.03	4.49
414.238	4.24
414.446	4.37
414.654	4.29
414.862	4.46
415.07	4.56
415.278	4.76
415.486	4.54
415.694	4.56
415.902	4.27
416.109	4.11
416.317	4.07
416.525	3.93
416.733	3.9
416.941	4.16
417.149	4.21
417.357	4.21
417.564	4.4
417.772	4.67
417.98	4.6
418.188	4.6
418.395	4.65
418.603	4.75
418.811	4.33
419.019	4.25
419.226	4.43
419.434	4.35
419.642	4.27
419.849	4.52
420.057	4.53
420.265	4.25
420.472	4.12
420.68	3.99
420.887	3.77
421.095	3.81
421.302	3.95
421.51	4
421.717	4.06
421.925	4.05
422.132	3.99
422.34	3.77
422.547	3.79
422.755	3.79
422.962	3.81
423.17	3.74
423.377	3.93
423.585	3.84
423.792	3.82
423.999	3.89
424.207	3.91
424.414	3.84
424.621	3.98
424.829	3.82
425.036	3.84
425.243	3.95
425.451	3.83
425.658	3.65
425.865	3.87
426.072	3.85
426.28	3.99
426.487	4.15
426.694	4.26
426.901	4.13
427.108	3.92
427.315	3.74
427.523	3.8
427.73	3.86
427.937	3.87
428.144	3.97
428.351	3.98
428.558	4.03
428.765	4.02
428.972	3.92
429.179	4.03
429.386	4.35
429.593	4.22
429.8	4.14
430.007	4.29
430.214	4.37
430.421	4.14
430.628	4.14
430.835	4.11
431.042	4.25
431.249	4.22
431.456	4.2
431.662	4.15
431.869	4.32
432.076	4.41
432.283	4.54
432.49	4.56
432.697	4.64
432.903	4.49
433.11	4.27
433.317	4.19
433.524	4.4
433.73	4.37
433.937	4.58
434.144	4.65
434.35	4.57
434.557	4.36
434.764	4.35
434.97	4.25
435.177	4.36
435.384	4.42
435.59	4.58
435.797	4.8
436.003	4.87
436.21	4.83
436.416	4.85
436.623	4.77
436.829	4.8
437.036	4.92
437.242	4.92
437.449	4.99
437.655	5.03
437.862	4.99
438.068	4.93
438.275	5.06
438.481	5.21
438.687	5.18
438.894	5.14
439.1	5.15
439.307	5.29
439.513	5.19
439.719	5.23
439.926	5.43
440.132	5.43
440.338	5.27
440.544	5.35
440.751	5.33
440.957	5.3
441.163	5.29
441.369	5.34
441.575	5.23
441.782	5.22
441.988	5.13
442.194	5.1
442.4	5.1
442.606	5.33
442.812	5.56
443.018	5.59
443.224	5.74
443.431	5.82
443.637	5.57
443.843	5.41
444.049	5.47
444.255	5.4
444.461	5.37
444.667	5.57
444.873	5.68
445.079	5.77
445.284	5.85
445.49	5.78
445.696	5.61
445.902	5.57
446.108	5.4
446.314	5.28
446.52	5.38
446.726	5.75
446.931	5.73
447.137	5.8
447.343	5.98
447.549	5.91
447.755	5.66
447.96	5.72
448.166	5.74
448.372	5.68
448.578	5.8
448.783	5.84
448.989	5.94
449.195	6.11
449.4	6.17
449.606	6.09
449.812	6.02
450.017	6
450.223	5.88
450.428	5.8
450.634	5.85
450.84	5.99
451.045	5.94
451.251	5.92
451.456	6.15
451.662	6.27
451.867	6.31
452.073	6.4
452.278	6.51
452.483	6.47
452.689	6.28
452.894	6.24
453.1	6.19
453.305	6.09
453.51	6.06
453.716	6.08
453.921	6.13
454.127	6.11
454.332	6.17
454.537	6.17
454.742	6.16
454.948	6.17
455.153	6.24
455.358	6.29
455.563	6.38
455.769	6.48
455.974	6.42
456.179	6.35
456.384	6.29
456.589	6.32
456.795	6.18
457	6.29
457.205	6.52
457.41	6.57
457.615	6.47
457.82	6.64
458.025	6.6
458.23	6.36
458.435	6.29
458.64	6.3
458.845	6.46
459.05	6.46
459.255	6.59
459.46	6.69
459.665	6.69
459.87	6.58
460.075	6.56
460.28	6.57
460.485	6.61
460.69	6.61
460.895	6.51
461.099	6.5
461.304	6.66
461.509	6.63
461.714	6.58
461.919	6.77
462.123	6.7
462.328	6.68
462.533	6.69
462.738	6.81
462.942	6.7
463.147	6.89
463.352	6.86
463.556	6.84
463.761	6.91
463.966	6.88
464.17	6.91
464.375	6.83
464.58	6.88
464.784	6.89
464.989	6.96
465.193	6.91
