Data from Ofra_PS_T2_2A_2HS27_Reflection_3.txt Node
Date: Wed Jul 21 17:09:12 EDT 2021
User: Adam
Spectrometer: FLMT01687
Trigger mode: 0
Integration Time (sec): 1.100000E0
Scans to average: 2
Electric dark correction enabled: true
Nonlinearity correction enabled: false
Boxcar width: 2
XAxis mode: Wavelengths
Number of Pixels in Spectrum: 3648
>>>>>Begin Spectral Data<<<<<
179.494	634.8
179.716	690.35
179.937	634.17
180.158	616.87
180.38	910.31
180.601	198.07
180.823	18.03
181.044	-130.09
181.265	-62.87
181.486	17.29
181.708	33.6
181.929	621.43
182.15	-373.94
182.372	91.72
182.593	-13.07
182.814	-16.78
183.035	43.04
183.257	40.71
183.478	-37.98
183.699	21.02
183.92	-39.4
184.141	-32.41
184.363	-94.89
184.584	-51.98
184.805	-40.5
185.026	-5.9
185.247	18.45
185.468	2.42
185.689	-3.44
185.91	5.59
186.132	15.85
186.353	3.75
186.574	74.74
186.795	67.11
187.016	41.77
187.237	7.99
187.458	-41.32
187.679	-47.04
187.9	-35.34
188.121	-26.83
188.342	18.04
188.563	57.53
188.784	88.25
189.005	59.37
189.226	87.2
189.447	52
189.667	-155.1
189.888	-535.71
190.109	-1388.96
190.33	-839.03
190.551	-1700.44
190.772	-383.9
190.993	-285.32
191.214	-202.73
191.434	-120.5
191.655	-14.91
191.876	-34.9
192.097	-101.49
192.318	-185.35
192.538	-307.48
192.759	-206.82
192.98	-134.29
193.201	-42.39
193.421	-31.9
193.642	-2.13
193.863	0.82
194.083	-18.82
194.304	-37.99
194.525	-24.92
194.745	-43.07
194.966	-51.55
195.187	-24.54
195.407	-58.95
195.628	-129.62
195.848	-158.22
196.069	-168.54
196.29	-129.29
196.51	-114.29
196.731	-87.32
196.951	-97.38
197.172	-93.7
197.392	-140.5
197.613	-107.49
197.833	-158.62
198.054	-107.67
198.274	-67.88
198.495	-55.04
198.715	-35.38
198.936	-31.57
199.156	-16.95
199.377	-116.62
199.597	-124.38
199.817	-128.6
200.038	-62.6
200.258	-139.27
200.479	-52.88
200.699	-52.21
200.919	-16.82
201.14	-41.4
201.36	-66.11
201.58	1.3
201.801	22.91
202.021	-2.94
202.241	-5.72
202.461	-0.87
202.682	-107.75
202.902	-163.76
203.122	-97.75
203.342	-76.2
203.563	-23.36
203.783	21.06
204.003	-4.99
204.223	-12.63
204.443	37.41
204.663	15.82
204.884	3.74
205.104	36.51
205.324	53.21
205.544	16.63
205.764	28.51
205.984	31.56
206.204	45.11
206.424	32.99
206.644	7.36
206.864	3.57
207.084	-32.72
207.304	-98.91
207.525	-291.09
207.745	-183.77
207.964	-69.53
208.184	-119.28
208.404	-123.3
208.624	-101.36
208.844	-77.63
209.064	-367.4
209.284	-364.9
209.504	-188.84
209.724	-73.94
209.944	-40.92
210.164	10.47
210.384	31.59
210.604	32.03
210.823	4.83
211.043	-22.93
211.263	-30.65
211.483	-48.13
211.703	-112.28
211.922	-101.05
212.142	-27.35
212.362	-32.11
212.582	-35.35
212.801	-17.44
213.021	-36.46
213.241	-85.54
213.461	-119.88
213.68	-131.61
213.9	-97.22
214.12	-61.62
214.339	-106.03
214.559	-62.25
214.779	-11.01
214.998	-15.59
215.218	-63.12
215.438	-31.98
215.657	-60.3
215.877	-54.66
216.096	-12.45
216.316	-3.78
216.535	-5.04
216.755	17.63
216.974	-64.22
217.194	-168.3
217.413	-151.74
217.633	-154.48
217.852	-303.17
218.072	-113.65
218.291	-39.92
218.511	10.88
218.73	-10.94
218.95	2.15
219.169	-13.96
219.389	-50.85
219.608	-47.6
219.827	-35.44
220.047	-27.64
220.266	-15.64
220.485	-16.28
220.705	-11.72
220.924	-25.06
221.143	20.83
221.363	7.27
221.582	26.46
221.801	34.58
222.021	51.71
222.24	-6.91
222.459	42.08
222.678	-20.16
222.897	-53.88
223.117	-93.27
223.336	-93.75
223.555	-79.84
223.774	-14.07
223.993	-24.83
224.213	27.32
224.432	22.3
224.651	38.54
224.87	7.36
225.089	16.42
225.308	1.14
225.527	31
225.746	24.09
225.965	16.93
226.184	13.37
226.404	32.25
226.623	-7.75
226.842	1.94
227.061	30.34
227.28	21.06
227.499	9.1
227.718	25.75
227.936	23.72
228.155	23.26
228.374	36.82
228.593	33.27
228.812	30.2
229.031	16.61
229.25	-40.55
229.469	-61.11
229.688	-31.71
229.907	7.65
230.125	24.1
230.344	28.2
230.563	41.21
230.782	18.78
231.001	-84.28
231.22	-66.84
231.438	-22.79
231.657	-17.21
231.876	-8.57
232.095	47.24
232.313	47.76
232.532	34.35
232.751	-0.77
232.969	-34.41
233.188	-117.45
233.407	-39.59
233.625	-18
233.844	-8.32
234.063	15.13
234.281	40.79
234.5	28.35
234.719	12.58
234.937	23.24
235.156	15.48
235.374	8.54
235.593	0.72
235.811	4.22
236.03	-11.41
236.249	-43.76
236.467	-45.12
236.686	-21.78
236.904	-2.03
237.123	-19.73
237.341	-18.53
237.559	-10.22
237.778	-23
237.996	-54.01
238.215	1.24
238.433	19.73
238.652	10.13
238.87	-9.66
239.088	3.17
239.307	-15
239.525	-19.3
239.743	-40.05
239.962	-29.09
240.18	-56.13
240.398	-86.32
240.617	-88.61
240.835	-62.01
241.053	-35.32
241.271	19.45
241.49	20.34
241.708	-14.77
241.926	-41.4
242.144	-60.75
242.363	-109.13
242.581	-116.17
242.799	-51.26
243.017	-1.5
243.235	2.27
243.453	15.12
243.672	2.02
243.89	0.53
244.108	-9.89
244.326	4.44
244.544	4.6
244.762	-1.55
244.98	-1.6
245.198	-4.46
245.416	-39.47
245.634	-51.81
245.852	-51.48
246.07	-68.07
246.288	-89.54
246.506	-112.15
246.724	-86.88
246.942	-68.37
247.16	-51.58
247.378	-50.59
247.596	-17.62
247.814	-14
248.032	-52.5
248.25	-32.34
248.468	-22.95
248.685	-13.47
248.903	14.42
249.121	28.04
249.339	-7.02
249.557	-14.65
249.775	-11.26
249.992	-62.14
250.21	-62.57
250.428	-31.23
250.646	-55.38
250.863	-73.1
251.081	-48.6
251.299	-40.9
251.517	-30.51
251.734	-4.47
251.952	-22.94
252.17	-18.26
252.387	-2.47
252.605	-17.04
252.823	-17.69
253.04	5.47
253.258	23.11
253.475	15.46
253.693	44.06
253.911	51.63
254.128	51.04
254.346	42.77
254.563	11.11
254.781	-24.5
254.998	-41.23
255.216	-31.05
255.433	-32.85
255.651	6.01
255.868	40.3
256.086	56.84
256.303	28.64
256.521	26.29
256.738	12.55
256.956	-25.96
257.173	-65.64
257.39	-76.24
257.608	-112.37
257.825	-27.41
258.043	16.2
258.26	32.7
258.477	72.7
258.695	78.12
258.912	12.34
259.129	15.33
259.346	-14.39
259.564	-68.71
259.781	-69.95
259.998	-25.07
260.216	-16.41
260.433	32.66
260.65	39.89
260.867	37.3
261.084	22.2
261.302	-4.59
261.519	-29.26
261.736	-35.22
261.953	-47.25
262.17	-15.7
262.387	-30.83
262.604	-74.09
262.822	-81.73
263.039	-63.33
263.256	-125.76
263.473	-88.21
263.69	-37.04
263.907	-6.72
264.124	6.84
264.341	13.62
264.558	11.19
264.775	23.01
264.992	10.07
265.209	-6.51
265.426	29.02
265.643	37.64
265.86	38.41
266.077	41.16
266.294	51.36
266.51	-4.56
266.727	-30.82
266.944	-34.91
267.161	-37.94
267.378	-49
267.595	-27.97
267.812	-42.24
268.028	-45.57
268.245	-26.51
268.462	-34.62
268.679	-27.9
268.896	21.34
269.112	16.35
269.329	22.35
269.546	34.93
269.763	18.78
269.979	-8.76
270.196	-11.51
270.413	-48.56
270.629	-75.9
270.846	-78.23
271.063	-68.39
271.279	-76.75
271.496	-59.98
271.712	-27.26
271.929	6.26
272.146	-2.26
272.362	7.23
272.579	37.06
272.795	21.57
273.012	0.54
273.228	14.83
273.445	-9.77
273.661	-46.7
273.878	-45.48
274.094	-32.23
274.311	-58.61
274.527	-0.29
274.744	-14.36
274.96	-25.36
275.177	-15.11
275.393	1.92
275.609	-6.8
275.826	33.75
276.042	27.5
276.259	12.26
276.475	12.07
276.691	8.84
276.908	-21.03
277.124	-11.95
277.34	-1.55
277.557	-19.54
277.773	-32.64
277.989	-32.65
278.205	-37.44
278.422	-32.48
278.638	-12
278.854	16.36
279.07	17.85
279.286	30.68
279.503	-1.85
279.719	-5.8
279.935	-51.59
280.151	-61.79
280.367	-45.12
280.583	-43.01
280.799	-38.34
281.016	-44.46
281.232	-4.67
281.448	-13.89
281.664	-0.95
281.88	-44.93
282.096	-36.73
282.312	-38.97
282.528	-17.87
282.744	4
282.96	23.4
283.176	25.56
283.392	11.42
283.608	8.8
283.824	5.33
284.04	-2.88
284.256	0.95
284.471	-3.24
284.687	-12.82
284.903	9.76
285.119	53.11
285.335	33.32
285.551	35.23
285.767	16.4
285.982	-14.48
286.198	-79.26
286.414	-19.1
286.63	-7.57
286.846	24.32
287.061	10.36
287.277	51.2
287.493	28.95
287.709	43
287.924	17.46
288.14	54.78
288.356	45.09
288.571	56.19
288.787	42.47
289.003	40.49
289.218	13.84
289.434	-28.93
289.65	-37
289.865	-39.03
290.081	-10.42
290.296	-5.26
290.512	6.8
290.727	-19.41
290.943	-30.33
291.159	-30.23
291.374	-36.29
291.59	-41.69
291.805	-25.99
292.021	-16.96
292.236	-27.08
292.451	-8.17
292.667	-0.5
292.882	14.9
293.098	14.36
293.313	1.97
293.529	-24.14
293.744	-41.23
293.959	-55.98
294.175	-48.75
294.39	-9.15
294.605	1.96
294.821	30.07
295.036	39.15
295.251	37.92
295.467	12.06
295.682	13.83
295.897	-53.64
296.112	-69.54
296.328	-43.38
296.543	-68.03
296.758	-59.41
296.973	-0.88
297.188	34.02
297.404	-2.08
297.619	-0.29
297.834	-10.75
298.049	-34.78
298.264	-62.94
298.479	-1.58
298.694	5.05
298.909	13.35
299.125	17.15
299.34	14.13
299.555	-11.48
299.77	-7.26
299.985	-38.61
300.2	-81.38
300.415	-88.98
300.63	-57.41
300.845	-66.18
301.06	-63.37
301.275	-35.12
301.49	-5.13
301.704	-16.3
301.919	-25.14
302.134	-27.79
302.349	-22.26
302.564	-92.39
302.779	-110.94
302.994	-113.09
303.209	-70.01
303.423	-59.21
303.638	9.75
303.853	-23.62
304.068	-10.47
304.283	-7.36
304.497	-8.67
304.712	-21.28
304.927	-8.81
305.142	-19.33
305.356	-24.7
305.571	-25.01
305.786	-35.65
306	-59.05
306.215	-49.59
306.43	-60.82
306.644	-62.04
306.859	-23.18
307.074	-2.84
307.288	-38.91
307.503	-48.89
307.717	-58.01
307.932	-63.07
308.147	-58.79
308.361	-23.93
308.576	-26
308.79	-55.35
309.005	-41.75
309.219	-24.37
309.434	-44.73
309.648	-35.78
309.863	-3.38
310.077	-5.73
310.292	-15.23
310.506	-7
310.72	3.01
310.935	9.72
311.149	1.24
311.364	19.49
311.578	25.58
311.792	9
312.007	8.89
312.221	4.11
312.435	6.86
312.649	0.61
312.864	48.29
313.078	70.14
313.292	128
313.507	114.43
313.721	143.08
313.935	47.7
314.149	27.51
314.363	10.27
314.578	-0.71
314.792	-0.49
315.006	-14.47
315.22	-0.69
315.434	5.76
315.648	18.11
315.862	17.47
316.077	24.56
316.291	-6.02
316.505	-10.06
316.719	-32.02
316.933	-52.82
317.147	-35.49
317.361	-59.87
317.575	-81.18
317.789	-109.21
318.003	-147.32
318.217	-128.12
318.431	-37.69
318.645	4.95
318.859	11.68
319.073	40.87
319.287	27
319.5	-7.99
319.714	-42.38
319.928	-78.31
320.142	-111.98
320.356	-64.99
320.57	-30.29
320.784	-65.75
320.997	-51.25
321.211	-49.44
321.425	-99.68
321.639	-109.68
321.853	-44.6
322.066	-21.78
322.28	-26.65
322.494	-15.83
322.707	-4.51
322.921	-11.26
323.135	-11.72
323.349	4.69
323.562	-5.88
323.776	-13.78
323.989	-14.94
324.203	-37.95
324.417	-48
324.63	-51.29
324.844	-58.34
325.057	-56.42
325.271	-39.85
325.485	-9.68
325.698	0.08
325.912	15.61
326.125	-8.2
326.339	0.68
326.552	-24.92
326.766	-28.24
326.979	-21.58
327.193	29.12
327.406	17.74
327.619	10.7
327.833	25.63
328.046	6.41
328.26	-44.32
328.473	-31.52
328.686	-59.42
328.9	-64.02
329.113	-37.53
329.326	-47.06
329.54	-38.13
329.753	-46.63
329.966	-60.49
330.179	-59.97
330.393	-30.92
330.606	-22.76
330.819	-2.67
331.032	16.41
331.246	16.73
331.459	41.59
331.672	39.28
331.885	42.59
332.098	15.89
332.311	19.88
332.525	-31.03
332.738	-28.41
332.951	-9.27
333.164	16.06
333.377	11.51
333.59	36.4
333.803	44.49
334.016	28.55
334.229	8.73
334.442	21.28
334.655	45.01
334.868	36.06
335.081	36.62
335.294	33.14
335.507	19.45
335.72	-11.55
335.933	-19.55
336.146	-20.45
336.359	-22.92
336.572	-44.85
336.785	-74.21
336.997	-51.32
337.21	-27.2
337.423	-21.01
337.636	-14.68
337.849	4.76
338.062	-9.16
338.274	-6.57
338.487	-16.99
338.7	-15.6
338.913	-49.81
339.125	-67.83
339.338	-136.8
339.551	-103.91
339.763	-68.97
339.976	-26.56
340.189	-8.49
340.402	6.17
340.614	-9.59
340.827	-23.89
341.039	-49.47
341.252	-49.94
341.465	-24.39
341.677	-15.78
341.89	-34.93
342.102	-11.9
342.315	-39
342.527	-84.85
342.74	-85.87
342.952	-55.01
343.165	-42.85
343.377	2.56
343.59	4.89
343.802	27.65
344.015	26.94
344.227	23.03
344.44	12.64
344.652	16.05
344.864	-2.07
345.077	23.71
345.289	23.39
345.502	23.88
345.714	13.57
345.926	21.45
346.139	16.21
346.351	23.59
346.563	21.12
346.775	34.69
346.988	23.32
347.2	-8.14
347.412	-53.48
347.624	-80.32
347.837	-109.65
348.049	-99.72
348.261	-35.58
348.473	-37.92
348.685	-33.45
348.897	-28.73
349.11	-40.01
349.322	-68.6
349.534	-25.82
349.746	-14.34
349.958	0.33
350.17	-12
350.382	-5.45
350.594	-12.57
350.806	-7.65
351.018	-15.14
351.23	-7.57
351.442	-51.86
351.654	-54.48
351.866	-41.83
352.078	-25.14
352.29	-10.62
352.502	10
352.714	14.15
352.926	6.87
353.138	5.28
353.35	-3.23
353.561	-4.69
353.773	-18.88
353.985	-7.38
354.197	-24.3
354.409	-29.17
354.621	-28.47
354.832	-15.83
355.044	-28.61
355.256	-21.04
355.468	-9.27
355.679	-14.61
355.891	-7.17
356.103	-24.97
356.314	-21.57
356.526	-25.83
356.738	-21.4
356.949	-47.63
357.161	-21.77
357.373	-10.39
357.584	-18.24
357.796	4.35
358.008	4.85
358.219	17.78
358.431	7.08
358.642	13.34
358.854	-5.28
359.065	-19.71
359.277	-53.1
359.488	-55.39
359.7	-87.94
359.911	-100.53
360.123	-64.65
360.334	-62.37
360.546	-88.22
360.757	-72.13
360.969	-47.38
361.18	-37.29
361.391	-30.17
361.603	-23.62
361.814	-1.56
362.025	-6.95
362.237	-12.19
362.448	10.86
362.659	24.8
362.871	10.36
363.082	6.91
363.293	7.14
363.504	-17.62
363.716	-33.6
363.927	-31.85
364.138	-52.94
364.349	-75.51
364.56	-56.3
364.772	-52.45
364.983	-20.85
365.194	-16.84
365.405	4.66
365.616	20.28
365.827	28
366.038	-3.37
366.25	3.17
366.461	-30.53
366.672	-33.21
366.883	-18.05
367.094	-6.29
367.305	-20.99
367.516	-8.05
367.727	-28.95
367.938	-40.03
368.149	-43.54
368.36	-17.11
368.571	-11.76
368.781	-11.57
368.992	-30.74
369.203	-38.55
369.414	-70.18
369.625	-78.81
369.836	-80.34
370.047	-99.78
370.258	-81.09
370.468	-69.45
370.679	-89.32
370.89	-75.14
371.101	-52.07
371.312	-62.48
371.522	-43.96
371.733	-23.23
371.944	-14.4
372.155	-3.67
372.365	-7.44
372.576	-22.28
372.787	-20.59
372.997	-49.41
373.208	-46.76
373.419	-17.12
373.629	-40.25
373.84	-46.1
374.05	-33.32
374.261	-20.7
374.472	-35.98
374.682	4.91
374.893	14.43
375.103	36.29
375.314	24.74
375.524	18.61
375.735	17.68
375.945	16.67
376.156	-9.59
376.366	-1.43
376.577	8.17
376.787	0.76
376.997	3.21
377.208	0.87
377.418	-13.28
377.629	-3.37
377.839	-1.57
378.049	-4.88
378.26	9.05
378.47	21.71
378.68	1.28
378.89	-6.29
379.101	-9.77
379.311	-37.24
379.521	-65.72
379.732	-56.1
379.942	-55.09
380.152	-67.43
380.362	-42.6
380.572	-38.51
380.783	-29.68
380.993	-12.78
381.203	-6.47
381.413	0.31
381.623	2.5
381.833	9.1
382.043	-3.18
382.253	-5.68
382.463	-6.79
382.674	-14.51
382.884	-31.93
383.094	-30.46
383.304	-27.19
383.514	-21.19
383.724	-10.93
383.934	-14.64
384.144	-21.89
384.353	-26.35
384.563	-29.58
384.773	-25.9
384.983	-31.29
385.193	-14.52
385.403	-9.41
385.613	-8.39
385.823	-14.18
386.033	-1.2
386.242	-8.28
386.452	-8.71
386.662	-15.53
386.872	-6.45
387.082	-11.69
387.291	-20.7
387.501	-29.84
387.711	-18.24
387.921	-24.99
388.13	-24.38
388.34	-7.94
388.55	-6.46
388.759	-8.95
388.969	-1.95
389.179	-3.79
389.388	-7.72
389.598	-3.04
389.807	-9.42
390.017	-16.05
390.227	-12.6
390.436	-12.68
390.646	-12.27
390.855	-6.59
391.065	-4.9
391.274	-7.34
391.484	-9.71
391.693	-7.94
391.903	-7.36
392.112	-1.81
392.322	2.05
392.531	8.28
392.74	6.97
392.95	3.01
393.159	0.28
393.369	-0.12
393.578	-3.35
393.787	-2.56
393.997	-0.42
394.206	-1.44
394.415	-1.85
394.625	-2
394.834	-3.8
395.043	-2.97
395.252	-1.31
395.462	1.07
395.671	1.96
395.88	2.36
396.089	2.65
396.298	1.26
396.508	-0.2
396.717	-0.7
396.926	0.71
397.135	0.34
397.344	0.56
397.553	1.22
397.762	2.53
397.971	2.2
398.181	2.45
398.39	2.25
398.599	1.9
398.808	1.65
399.017	2.58
399.226	3.13
399.435	4.43
399.644	4.52
399.853	3.49
400.062	2.74
400.27	2.45
400.479	1.86
400.688	1.27
400.897	1.93
401.106	2.01
401.315	1.74
401.524	1.51
401.733	2.19
401.941	2.3
402.15	2.57
402.359	2.45
402.568	2.95
402.777	2.99
402.985	2.91
403.194	2.73
403.403	3.07
403.612	2.52
403.82	2.2
404.029	2.31
404.238	2.26
404.446	2.36
404.655	2.06
404.864	2.14
405.072	1.96
405.281	1.99
405.489	1.62
405.698	1.9
405.906	1.95
406.115	1.95
406.324	1.84
406.532	1.97
406.741	2.34
406.949	2.32
407.158	2.33
407.366	2.5
407.574	2.61
407.783	2.44
407.991	2.22
408.2	2.39
408.408	2.37
408.617	2.34
408.825	2.16
409.033	2.44
409.242	2.48
409.45	2.53
409.658	2.39
409.867	2.58
410.075	2.35
410.283	2.2
410.491	2.05
410.7	2
410.908	1.99
411.116	2.51
411.324	2.45
411.533	2.44
411.741	2.68
411.949	2.64
412.157	2.15
412.365	2.18
412.573	2.33
412.781	2.45
412.99	2.44
413.198	2.55
413.406	2.52
413.614	2.47
413.822	2.17
414.03	2.16
414.238	2.08
414.446	2.08
414.654	1.83
414.862	1.92
415.07	1.91
415.278	2.07
415.486	1.93
415.694	2.09
415.902	1.91
416.109	1.86
416.317	1.77
416.525	1.67
416.733	1.59
416.941	1.84
417.149	1.88
417.357	1.96
417.564	2.21
417.772	2.46
417.98	2.29
418.188	2.1
418.395	2.08
418.603	2.24
418.811	1.86
419.019	1.81
419.226	1.98
419.434	1.99
419.642	1.68
419.849	1.93
420.057	1.93
420.265	2.01
420.472	1.78
420.68	1.78
420.887	1.66
421.095	1.82
421.302	1.8
421.51	1.98
421.717	2.21
421.925	2.37
422.132	2.1
422.34	1.76
422.547	1.84
422.755	1.8
422.962	1.52
423.17	1.59
423.377	1.85
423.585	1.74
423.792	1.48
423.999	1.67
424.207	1.76
424.414	1.76
424.621	1.81
424.829	1.84
425.036	1.82
425.243	1.83
425.451	1.81
425.658	1.61
425.865	1.85
426.072	1.91
426.28	2.08
426.487	1.89
426.694	2.07
426.901	1.81
427.108	1.72
427.315	1.45
427.523	1.79
427.73	1.73
427.937	1.68
428.144	1.57
428.351	1.69
428.558	1.79
428.765	1.77
428.972	1.83
429.179	2.05
429.386	2.26
429.593	1.98
429.8	1.84
430.007	2.04
430.214	2
430.421	1.74
430.628	1.63
430.835	1.61
431.042	1.82
431.249	1.9
431.456	1.94
431.662	2.1
431.869	2.23
432.076	2.05
432.283	2.12
432.49	2.08
432.697	2.15
432.903	2.01
433.11	1.9
433.317	1.96
433.524	2.28
433.73	2.19
433.937	2.5
434.144	2.56
434.35	2.51
434.557	2.19
434.764	2.22
434.97	2.08
435.177	2.18
435.384	1.97
435.59	2.01
435.797	2.21
436.003	2.33
436.21	2.28
436.416	2.52
436.623	2.55
436.829	2.58
437.036	2.56
437.242	2.56
437.449	2.46
437.655	2.56
437.862	2.52
438.068	2.42
438.275	2.6
438.481	2.75
438.687	2.68
438.894	2.65
439.1	2.76
439.307	2.85
439.513	2.71
439.719	2.75
439.926	2.84
440.132	2.83
440.338	2.61
440.544	2.8
440.751	2.82
440.957	2.8
441.163	2.72
441.369	2.79
441.575	2.54
441.782	2.53
441.988	2.38
442.194	2.36
442.4	2.43
442.606	2.78
442.812	2.82
443.018	2.93
443.224	3.01
443.431	3.06
443.637	2.81
443.843	2.77
444.049	2.75
444.255	2.69
444.461	2.7
444.667	2.63
444.873	2.83
445.079	2.89
445.284	3.11
445.49	2.9
445.696	2.83
445.902	2.69
446.108	2.54
446.314	2.36
446.52	2.44
446.726	2.68
446.931	2.68
447.137	2.9
447.343	3.02
447.549	2.93
447.755	2.86
447.96	2.89
448.166	2.73
448.372	2.65
448.578	2.85
448.783	2.8
448.989	2.83
449.195	3.02
449.4	3.03
449.606	2.89
449.812	2.84
450.017	2.85
450.223	2.75
450.428	2.72
450.634	2.92
450.84	3.14
451.045	3.16
451.251	3.04
451.456	3.33
451.662	3.37
451.867	3.38
452.073	3.38
452.278	3.53
452.483	3.5
452.689	3.44
452.894	3.48
453.1	3.41
453.305	3.45
453.51	3.3
453.716	3.14
453.921	3.09
454.127	3.06
454.332	2.98
454.537	2.95
454.742	3.06
454.948	3.01
455.153	3.08
455.358	3.14
455.563	3.35
455.769	3.45
455.974	3.43
456.179	3.33
456.384	3.3
456.589	3.16
456.795	2.95
457	2.91
457.205	3.17
457.41	3.12
457.615	3.13
457.82	3.3
458.025	3.37
458.23	3.22
458.435	3.29
458.64	3.14
458.845	3.2
459.05	3.11
459.255	3.11
459.46	3.07
459.665	3.22
459.87	3.22
460.075	3.3
460.28	3.34
460.485	3.43
