Data from Ofra_PS_T2_2A_9CX05_Reflection_3.txt Node
Date: Wed Jul 21 17:25:48 EDT 2021
User: Adam
Spectrometer: FLMT01687
Trigger mode: 0
Integration Time (sec): 1.100000E0
Scans to average: 2
Electric dark correction enabled: true
Nonlinearity correction enabled: false
Boxcar width: 2
XAxis mode: Wavelengths
Number of Pixels in Spectrum: 3648
>>>>>Begin Spectral Data<<<<<
179.494	719.2
179.716	791.06
179.937	764.11
180.158	742.75
180.38	1142.5
180.601	448.07
180.823	95.4
181.044	-69.19
181.265	102.21
181.486	104.83
181.708	158.2
181.929	1385.71
182.15	-795.77
182.372	39.19
182.593	79.09
182.814	75.22
183.035	103.65
183.257	83.45
183.478	5.53
183.699	48.1
183.92	20.32
184.141	25.1
184.363	-40.4
184.584	5.63
184.805	-9.34
185.026	35.83
185.247	23.55
185.468	22.89
185.689	27.93
185.91	32.45
186.132	23.9
186.353	35.22
186.574	106.13
186.795	51.9
187.016	0.87
187.237	-7.38
187.458	-49.39
187.679	-68.64
187.9	-24.09
188.121	-8.71
188.342	-12.3
188.563	47.32
188.784	97.08
189.005	99.26
189.226	139.89
189.447	133.55
189.667	130.58
189.888	-290.15
190.109	-928.57
190.33	-569.68
190.551	-1169.03
190.772	-271.91
190.993	-197.14
191.214	-212.45
191.434	-144.66
191.655	-68.96
191.876	-143.52
192.097	-176.92
192.318	-208.61
192.538	-317.89
192.759	-181.22
192.98	-83.8
193.201	-38.09
193.421	-15.49
193.642	13.94
193.863	3.23
194.083	-7.48
194.304	-9
194.525	-17.97
194.745	-34.89
194.966	-30.16
195.187	-47.53
195.407	-55.62
195.628	-86.56
195.848	-117.43
196.069	-120.74
196.29	-75.34
196.51	-89.88
196.731	-95.69
196.951	-101.71
197.172	-125.18
197.392	-164.19
197.613	-145.97
197.833	-136.92
198.054	-126.63
198.274	-71.43
198.495	-72.34
198.715	-41.98
198.936	-79.5
199.156	-76.69
199.377	-168.9
199.597	-151.47
199.817	-173.76
200.038	-74.81
200.258	-110.99
200.479	-11.39
200.699	-1.24
200.919	56.7
201.14	23.09
201.36	2.65
201.58	22.26
201.801	48.15
202.021	5.44
202.241	-12.1
202.461	-17.61
202.682	-133.25
202.902	-237.9
203.122	-148.54
203.342	-114.93
203.563	-73.12
203.783	-24.93
204.003	-50.91
204.223	-76.55
204.443	-9.58
204.663	-14.13
204.884	-10.07
205.104	30.36
205.324	79.47
205.544	77.51
205.764	97.78
205.984	90.71
206.204	90.15
206.424	64.77
206.644	27.74
206.864	-4.31
207.084	-57.57
207.304	-87.31
207.525	-190.63
207.745	-96.44
207.964	-24.23
208.184	-54.99
208.404	-110.12
208.624	-113.4
208.844	-104.36
209.064	-417.74
209.284	-440.93
209.504	-199.44
209.724	-49.51
209.944	-21.2
210.164	23.73
210.384	32.59
210.604	17.61
210.823	-59.41
211.043	-93.58
211.263	-76.32
211.483	-83.32
211.703	-130.97
211.922	-95.23
212.142	-11.95
212.362	-12.76
212.582	-35.3
212.801	-27.02
213.021	-41.98
213.241	-76.16
213.461	-111.87
213.68	-119.87
213.9	-73.38
214.12	-34.31
214.339	-97.88
214.559	-82.99
214.779	-19.64
214.998	-36.2
215.218	-97.82
215.438	-30.94
215.657	-35.58
215.877	-56.57
216.096	-16.61
216.316	9.22
216.535	-32.89
216.755	-35.33
216.974	-107.69
217.194	-133.55
217.413	-162.5
217.633	-145.05
217.852	-218.43
218.072	-105.26
218.291	-82.41
218.511	-30.11
218.73	-56.59
218.95	-39.34
219.169	-49.68
219.389	-74.25
219.608	-52.42
219.827	-21.09
220.047	-12.96
220.266	2.66
220.485	5.86
220.705	-12.34
220.924	-32.39
221.143	18.9
221.363	-4.57
221.582	9.64
221.801	42.76
222.021	59.26
222.24	32.54
222.459	150.6
222.678	67.65
222.897	-24.84
223.117	-88.59
223.336	-83.23
223.555	-88.4
223.774	-36.46
223.993	-5.3
224.213	50.6
224.432	28.41
224.651	56.52
224.87	22.97
225.089	31.06
225.308	22.9
225.527	34.74
225.746	16.55
225.965	17.91
226.184	-5.48
226.404	10.95
226.623	-32.97
226.842	-19.66
227.061	14.86
227.28	25.56
227.499	12.08
227.718	46.43
227.936	41
228.155	24.3
228.374	-0.29
228.593	0.96
228.812	2.33
229.031	-19.29
229.25	-54.97
229.469	-53.51
229.688	-12.12
229.907	0.84
230.125	28.98
230.344	39.1
230.563	48.42
230.782	36.04
231.001	-53.14
231.22	-52.33
231.438	-22.76
231.657	-28.46
231.876	-35.26
232.095	24.45
232.313	31.53
232.532	7.2
232.751	-15.91
232.969	-53.72
233.188	-140.9
233.407	-60.47
233.625	-41.96
233.844	-52.38
234.063	-21.53
234.281	5.54
234.5	5.78
234.719	9.02
234.937	33.29
235.156	34.49
235.374	30.42
235.593	11.41
235.811	4.98
236.03	-8.86
236.249	-46.61
236.467	-53.19
236.686	-12
236.904	4.44
237.123	-27.07
237.341	-17.19
237.559	-6.86
237.778	-28.34
237.996	-63.66
238.215	0.51
238.433	1.25
238.652	-21.38
238.87	-34.01
239.088	-12.02
239.307	-25.4
239.525	-39.6
239.743	-55.64
239.962	-33.71
240.18	-53.65
240.398	-100.48
240.617	-90.37
240.835	-44.16
241.053	-34.7
241.271	26.73
241.49	36.26
241.708	7.05
241.926	-47.5
242.144	-51.06
242.363	-113.67
242.581	-148.56
242.799	-81.24
243.017	-12.7
243.235	-44.08
243.453	-30.31
243.672	-22.22
243.89	-17.9
244.108	-43.77
244.326	-0.38
244.544	-3.49
244.762	-3.15
244.98	-1.78
245.198	15.09
245.416	-29.54
245.634	-15.91
245.852	-30.8
246.07	-19.17
246.288	-26.73
246.506	-39.21
246.724	-32.31
246.942	-14.7
247.16	11.41
247.378	23.05
247.596	45.8
247.814	43.13
248.032	23.21
248.25	11.19
248.468	3.04
248.685	20.19
248.903	35.31
249.121	35.02
249.339	4.97
249.557	-5.05
249.775	-10.54
249.992	-88.9
250.21	-90.73
250.428	-73.74
250.646	-114.32
250.863	-137.17
251.081	-83.9
251.299	-70.12
251.517	-60.82
251.734	-35.11
251.952	-36.34
252.17	-26.07
252.387	-12.2
252.605	-23.45
252.823	-11.55
253.04	7.89
253.258	19
253.475	17.27
253.693	46.93
253.911	42.95
254.128	51.62
254.346	43.5
254.563	13.71
254.781	-23.21
254.998	-56.61
255.216	-62.71
255.433	-48.93
255.651	-9.6
255.868	40.06
256.086	69.33
256.303	45.71
256.521	31.96
256.738	6.18
256.956	-33.86
257.173	-53.12
257.39	-75.99
257.608	-93.19
257.825	-39.2
258.043	0.64
258.26	4.47
258.477	51.47
258.695	37.39
258.912	-12.07
259.129	-1.85
259.346	-34.22
259.564	-74.04
259.781	-100.19
259.998	-12.67
260.216	6.35
260.433	48.27
260.65	50.06
260.867	80.34
261.084	38.6
261.302	1.49
261.519	-19.95
261.736	-54.56
261.953	-70.43
262.17	-21.73
262.387	-46.53
262.604	-100.17
262.822	-92.06
263.039	-75.67
263.256	-140.19
263.473	-96.27
263.69	-34.94
263.907	7.21
264.124	7.94
264.341	11.34
264.558	9.09
264.775	25.16
264.992	6.44
265.209	3.32
265.426	22.51
265.643	26
265.86	31.37
266.077	33.02
266.294	36.79
266.51	-18.33
266.727	-17.24
266.944	-27.24
267.161	-35.22
267.378	-31.81
267.595	3.74
267.812	-26.62
268.028	-53.97
268.245	-19.48
268.462	-47.95
268.679	-62.72
268.896	-1.79
269.112	5.42
269.329	-3.14
269.546	12.96
269.763	16.62
269.979	-8.54
270.196	-4.32
270.413	-22.13
270.629	-48.21
270.846	-57.28
271.063	-52.97
271.279	-106.91
271.496	-108.27
271.712	-49.69
271.929	-14.55
272.146	-35.49
272.362	19
272.579	59.07
272.795	41.27
273.012	30.9
273.228	57.43
273.445	25.59
273.661	-4.17
273.878	-47.65
274.094	-56.33
274.311	-91.6
274.527	-18.19
274.744	-10.72
274.96	-3.65
275.177	11.17
275.393	21.09
275.609	9.81
275.826	25.52
276.042	13.48
276.259	2.68
276.475	23.28
276.691	22.57
276.908	-5.37
277.124	5.43
277.34	-6.4
277.557	-20.84
277.773	-24.08
277.989	-17.6
278.205	-17
278.422	-4.23
278.638	2.71
278.854	18.79
279.07	12.81
279.286	-8.39
279.503	-43.27
279.719	-55.57
279.935	-89.05
280.151	-107.99
280.367	-67.48
280.583	-72.52
280.799	-59.47
281.016	-62.21
281.232	-23.48
281.448	-3.74
281.664	20.06
281.88	-10.06
282.096	2.39
282.312	26.13
282.528	20.87
282.744	23.13
282.96	33.01
283.176	17.88
283.392	8.77
283.608	-13.14
283.824	-14.3
284.04	-19.7
284.256	-7.34
284.471	-15.15
284.687	-6.34
284.903	4.3
285.119	38.52
285.335	3.11
285.551	11.86
285.767	9.63
285.982	11.07
286.198	-21.75
286.414	45.62
286.63	45.23
286.846	53.53
287.061	27.86
287.277	56.27
287.493	19.73
287.709	17.24
287.924	-0.89
288.14	31.88
288.356	22.53
288.571	52.59
288.787	30.17
289.003	28.27
289.218	0.1
289.434	-38.99
289.65	-41.68
289.865	-28.4
290.081	12.75
290.296	26.13
290.512	27.74
290.727	-7.09
290.943	-18.03
291.159	-38.04
291.374	-37.83
291.59	-49.36
291.805	-36.07
292.021	-20.88
292.236	-19.83
292.451	-10.48
292.667	1.23
292.882	22.09
293.098	8.39
293.313	-15.63
293.529	-9.41
293.744	-37.2
293.959	-53.49
294.175	-38.15
294.39	8.91
294.605	8.86
294.821	39.28
295.036	38.5
295.251	38.83
295.467	19.04
295.682	17.2
295.897	-37.86
296.112	-42.62
296.328	-33.77
296.543	-71.56
296.758	-52.34
296.973	-1.04
297.188	34.32
297.404	5.61
297.619	4.84
297.834	-15.05
298.049	-29.53
298.264	-73.7
298.479	-2.46
298.694	14.48
298.909	26.92
299.125	27.28
299.34	54.73
299.555	19.04
299.77	27.03
299.985	-20.93
300.2	-70.86
300.415	-97.58
300.63	-65.51
300.845	-72.06
301.06	-56.91
301.275	-21.08
301.49	5.49
301.704	1.24
301.919	-30.95
302.134	-48.76
302.349	-55.23
302.564	-139.91
302.779	-213.57
302.994	-158.15
303.209	-76.97
303.423	-27.39
303.638	22.64
303.853	4.18
304.068	-8.4
304.283	-13.45
304.497	-22.77
304.712	-27.02
304.927	-10.24
305.142	-13.81
305.356	-2.53
305.571	2.21
305.786	-8.7
306	-11.31
306.215	1.92
306.43	-36.87
306.644	-46.89
306.859	-9.93
307.074	-13.92
307.288	-54.3
307.503	-46.81
307.717	-40.7
307.932	-45.48
308.147	-49.47
308.361	-8.55
308.576	-12.77
308.79	-56.15
309.005	-58.09
309.219	-38.42
309.434	-59.91
309.648	-47.52
309.863	-7.13
310.077	-4.99
310.292	-13.58
310.506	-7.49
310.72	3.62
310.935	3.8
311.149	8.4
311.364	30.16
311.578	33.03
311.792	13.27
312.007	24.97
312.221	5.96
312.435	2.31
312.649	-6.16
312.864	-34.08
313.078	-53.84
313.292	-8.89
313.507	-61.91
313.721	-48.98
313.935	25.51
314.149	38.47
314.363	20.49
314.578	15.79
314.792	11.07
315.006	-3.79
315.22	8.85
315.434	17.86
315.648	27.8
315.862	15.03
316.077	26.84
316.291	-7.62
316.505	-21.65
316.719	-32.29
316.933	-30.31
317.147	-54.49
317.361	-76.86
317.575	-82.87
317.789	-105.51
318.003	-148.41
318.217	-97.24
318.431	-25.04
318.645	11.18
318.859	11.08
319.073	35.66
319.287	22.17
319.5	-12.64
319.714	-60.57
319.928	-107.45
320.142	-133.28
320.356	-94.84
320.57	-56.76
320.784	-54.82
320.997	-28.04
321.211	-42.09
321.425	-89.63
321.639	-103.33
321.853	-35.58
322.066	-14.93
322.28	-17.28
322.494	0.12
322.707	21.15
322.921	-0.58
323.135	-10.75
323.349	15.58
323.562	-8.91
323.776	-24.54
323.989	-32.75
324.203	-53.76
324.417	-61.57
324.63	-70.06
324.844	-70.11
325.057	-72.51
325.271	-46.99
325.485	-24.7
325.698	-0.35
325.912	28.88
326.125	11.42
326.339	19.02
326.552	-5.43
326.766	-12.38
326.979	-21.55
327.193	22.45
327.406	-4.9
327.619	0.1
327.833	19.7
328.046	-7.46
328.26	-45
328.473	-6.28
328.686	-37.6
328.9	-33.56
329.113	-10.87
329.326	-5.55
329.54	-5.57
329.753	5.76
329.966	-38.97
330.179	-40.07
330.393	-40.83
330.606	-34.68
330.819	-21.24
331.032	3.71
331.246	9.34
331.459	43.33
331.672	27.99
331.885	24.76
332.098	-1.57
332.311	-17.37
332.525	-80.46
332.738	-68.59
332.951	-36.26
333.164	-5.68
333.377	15.99
333.59	33.91
333.803	32.25
334.016	23.36
334.229	22.65
334.442	1.3
334.655	17.25
334.868	27.47
335.081	17.82
335.294	2.3
335.507	-5.73
335.72	-12.77
335.933	-13.72
336.146	-9.96
336.359	-2.87
336.572	-22.03
336.785	-51.78
336.997	-49.9
337.21	-13.06
337.423	-13.65
337.636	-5.33
337.849	13.98
338.062	6.17
338.274	-1.81
338.487	-8.51
338.7	10.6
338.913	-23.13
339.125	-55.72
339.338	-121.08
339.551	-90.57
339.763	-68.69
339.976	-31.44
340.189	-6.46
340.402	14.75
340.614	4.09
340.827	-4.53
341.039	-27.58
341.252	-11.49
341.465	-6.01
341.677	-8.51
341.89	-44.76
342.102	-8.74
342.315	-37.28
342.527	-70.18
342.74	-60.11
342.952	-19.13
343.165	-19.66
343.377	15.31
343.59	16.67
343.802	25.21
344.015	31.57
344.227	37.4
344.44	16.13
344.652	18.18
344.864	7.15
345.077	24.52
345.289	21.07
345.502	24.74
345.714	19.68
345.926	21.14
346.139	2.98
346.351	-0.05
346.563	5.32
346.775	12.65
346.988	-3.51
347.2	-35.62
347.412	-77.16
347.624	-94.82
347.837	-124.94
348.049	-98.02
348.261	-30.83
348.473	-4.35
348.685	-11.83
348.897	-9.66
349.11	-19.59
349.322	-59.8
349.534	-46.9
349.746	-37.52
349.958	-17.42
350.17	-23.15
350.382	15.7
350.594	5.32
350.806	8.56
351.018	-14.77
351.23	-21.45
351.442	-79.03
351.654	-91.03
351.866	-78.69
352.078	-36.06
352.29	-16.86
352.502	10.99
352.714	14.3
352.926	5.4
353.138	-7.5
353.35	-12.21
353.561	-16.17
353.773	-21.78
353.985	-7.24
354.197	-3.86
354.409	-5.36
354.621	-20.23
354.832	-12.11
355.044	-32.95
355.256	-35.92
355.468	-14.65
355.679	-13.45
355.891	-3.52
356.103	-11.24
356.314	-1.41
356.526	-12.39
356.738	4.82
356.949	-26.03
357.161	-13.57
357.373	-22.29
357.584	-26.36
357.796	-24.78
358.008	-21.43
358.219	2.25
358.431	-1.53
358.642	1.32
358.854	1.22
359.065	-3.06
359.277	-20.85
359.488	-26.37
359.7	-46.28
359.911	-66.58
360.123	-40.82
360.334	-64.47
360.546	-82.92
360.757	-71.35
360.969	-58.14
361.18	-57.65
361.391	-24.55
361.603	-22.69
361.814	-10.53
362.025	-15.5
362.237	-22.73
362.448	-10.66
362.659	23.81
362.871	16.15
363.082	16.63
363.293	14.93
363.504	-12.37
363.716	-45.13
363.927	-55.23
364.138	-73.61
364.349	-85.78
364.56	-59.13
364.772	-55.07
364.983	-22.73
365.194	-16.2
365.405	-2.51
365.616	18.53
365.827	22.66
366.038	-7.1
366.25	-4.12
366.461	-33.76
366.672	-29.77
366.883	-20.12
367.094	-6.52
367.305	-17.58
367.516	-3.28
367.727	-38.09
367.938	-49.33
368.149	-48.08
368.36	-27.67
368.571	-29.41
368.781	-38.88
368.992	-45.33
369.203	-57.53
369.414	-70.5
369.625	-69.99
369.836	-51.23
370.047	-77.31
370.258	-67.48
370.468	-68.39
370.679	-76.12
370.89	-63.81
371.101	-35.67
371.312	-33.44
371.522	-36.77
371.733	-29.65
371.944	-17.72
372.155	-4.98
372.365	-8.46
372.576	-4.91
372.787	6.57
372.997	-16.44
373.208	-25.28
373.419	1.36
373.629	-20.36
373.84	-38.38
374.05	-50.59
374.261	-25.92
374.472	-58.15
374.682	2.38
374.893	11.26
375.103	44.7
375.314	30.25
375.524	30.26
375.735	15.44
375.945	12.8
376.156	-16.47
376.366	-15.39
376.577	-5.41
376.787	-15.61
376.997	-11.62
377.208	-6.28
377.418	-18.04
377.629	-14.47
377.839	-12.85
378.049	-11.34
378.26	8.41
378.47	19.17
378.68	3.93
378.89	0.74
379.101	-6.55
379.311	-47.88
379.521	-81.18
379.732	-78.33
379.942	-72.23
380.152	-87.65
380.362	-40.46
380.572	-32.94
380.783	-19.06
380.993	-1.36
381.203	16.81
381.413	24.12
381.623	26.76
381.833	29.08
382.043	2.89
382.253	-9.11
382.463	-16.75
382.674	-28.16
382.884	-52.37
383.094	-43.58
383.304	-33.17
383.514	-29.2
383.724	-12.54
383.934	-15.2
384.144	-15.03
384.353	-21.33
384.563	-22.81
384.773	-20
384.983	-13.23
385.193	0.3
385.403	7.12
385.613	10.07
385.823	0.76
386.033	3.45
386.242	-11.15
386.452	-16.8
386.662	-28.98
386.872	-17.3
387.082	-23.33
387.291	-21.65
387.501	-21.77
387.711	-8.29
387.921	-15.74
388.13	-15.06
388.34	-2.1
388.55	-7.78
388.759	-9.96
388.969	-5.64
389.179	-7.49
389.388	-11.91
389.598	-4.51
389.807	-12.25
390.017	-16.4
390.227	-15.52
390.436	-20.12
390.646	-18.04
390.855	-13.82
391.065	-12.79
391.274	-14.69
391.484	-15.43
391.693	-14.65
391.903	-13.31
392.112	-6.37
392.322	-1.9
392.531	3.87
392.74	4.85
392.95	1.91
393.159	-0.35
393.369	-0.55
393.578	-2.89
393.787	-4.74
393.997	-3.41
394.206	-5.03
394.415	-4.91
394.625	-4.48
394.834	-6.01
395.043	-4.38
395.252	-2.34
395.462	0.1
395.671	1.19
395.88	2.48
396.089	3.8
396.298	1.85
396.508	1.28
396.717	-0.35
396.926	-0.2
397.135	-1.17
397.344	-0.62
397.553	0.02
397.762	1.99
397.971	1.82
398.181	1.98
398.39	1.07
398.599	0.23
398.808	0
399.017	0.68
399.226	2.1
399.435	3.6
399.644	3.61
399.853	2.77
400.062	2.03
400.27	1.03
400.479	0.45
400.688	-0.24
400.897	0.21
401.106	0.57
401.315	0.23
401.524	0.34
401.733	1.14
401.941	1.87
402.15	1.91
402.359	1.99
402.568	2.23
402.777	2.15
402.985	1.36
403.194	1.26
403.403	1.36
403.612	1.02
403.82	0.78
404.029	1.22
404.238	1.02
404.446	1.23
404.655	1.09
404.864	1.34
405.072	1.04
405.281	1.36
405.489	1.19
405.698	1.24
405.906	1.03
406.115	1.16
406.324	1.02
406.532	1.14
406.741	1.5
406.949	1.5
407.158	1.39
407.366	1.43
407.574	1.31
407.783	1.09
407.991	1.01
408.2	1.21
408.408	1.24
408.617	1.14
408.825	1.07
409.033	1.26
409.242	1.23
409.45	1.52
409.658	1.57
409.867	1.78
410.075	1.55
410.283	1.4
410.491	1.1
410.7	0.99
410.908	0.82
411.116	1.23
411.324	1.25
411.533	1.2
411.741	1.45
411.949	1.49
412.157	1.07
412.365	1.05
412.573	1.04
412.781	1
412.99	0.98
413.198	1.2
413.406	1.24
413.614	1.24
413.822	1.13
414.03	1.08
414.238	0.83
414.446	0.91
414.654	0.86
414.862	0.96
415.07	1.07
415.278	1.35
415.486	1.15
415.694	1.32
415.902	1.23
416.109	1.19
416.317	1.16
416.525	1.04
416.733	0.92
416.941	1.03
417.149	0.86
417.357	0.93
417.564	1.19
417.772	1.49
417.98	1.43
418.188	1.45
418.395	1.47
418.603	1.56
418.811	1.05
419.019	0.98
419.226	1.22
419.434	1.29
419.642	1.03
419.849	1.36
420.057	1.37
420.265	1.36
420.472	0.95
420.68	1.13
420.887	0.95
421.095	1.03
421.302	0.86
421.51	1.23
421.717	1.16
421.925	1.24
422.132	1.12
422.34	0.99
422.547	0.91
422.755	0.85
422.962	0.77
423.17	0.68
423.377	0.83
423.585	0.86
423.792	0.9
423.999	0.9
424.207	0.92
424.414	0.96
424.621	0.84
424.829	0.87
425.036	0.94
425.243	1.18
425.451	1.09
425.658	0.98
425.865	1.14
426.072	1.1
426.28	1.29
426.487	1.3
426.694	1.36
426.901	1.03
427.108	1.06
427.315	0.81
427.523	1.06
427.73	1.07
427.937	1.15
428.144	1.04
428.351	1
428.558	1.09
428.765	0.94
428.972	0.87
429.179	1.07
429.386	1.41
429.593	1.07
429.8	1.11
430.007	1.22
430.214	1.23
430.421	0.96
430.628	0.83
430.835	0.67
431.042	0.83
431.249	0.74
431.456	0.7
431.662	0.89
431.869	1.17
432.076	1.11
432.283	1.22
432.49	1.22
432.697	1.23
432.903	1.01
433.11	0.91
433.317	1
433.524	1.26
433.73	1.18
433.937	1.58
434.144	1.48
434.35	1.35
434.557	1.07
434.764	1.14
434.97	0.89
435.177	1.14
435.384	1.12
435.59	1.26
435.797	1.4
436.003	1.53
436.21	1.52
436.416	1.58
436.623	1.52
436.829	1.55
437.036	1.53
437.242	1.52
437.449	1.34
437.655	1.34
437.862	1.26
438.068	1.2
438.275	1.28
438.481	1.62
438.687	1.71
438.894	1.69
439.1	1.75
439.307	1.9
439.513	1.65
439.719	1.54
439.926	1.71
440.132	1.77
440.338	1.47
440.544	1.67
440.751	1.59
440.957	1.5
441.163	1.32
441.369	1.51
441.575	1.27
441.782	1.29
441.988	1.14
442.194	1.14
442.4	1.06
442.606	1.46
442.812	1.53
443.018	1.7
443.224	1.83
443.431	1.93
443.637	1.58
443.843	1.48
444.049	1.49
444.255	1.33
444.461	1.33
444.667	1.38
444.873	1.57
445.079	1.57
445.284	1.7
445.49	1.42
445.696	1.3
445.902	1.16
446.108	1.09
446.314	1.03
446.52	1.13
446.726	1.36
446.931	1.4
447.137	1.5
447.343	1.57
447.549	1.52
447.755	1.35
447.96	1.46
448.166	1.32
448.372	1.18
448.578	1.26
448.783	1.31
448.989	1.31
449.195	1.59
449.4	1.67
449.606	1.6
449.812	1.51
450.017	1.56
450.223	1.31
450.428	1.24
450.634	1.47
450.84	1.61
451.045	1.46
451.251	1.42
451.456	1.73
451.662	1.78
451.867	1.79
452.073	1.76
452.278	1.88
452.483	1.92
452.689	1.69
452.894	1.71
453.1	1.84
453.305	1.78
453.51	1.62
453.716	1.63
453.921	1.65
454.127	1.55
454.332	1.49
454.537	1.47
454.742	1.49
454.948	1.42
455.153	1.48
455.358	1.56
455.563	1.72
455.769	1.86
455.974	1.88
456.179	1.76
456.384	1.79
456.589	1.69
456.795	1.46
457	1.37
457.205	1.61
457.41	1.55
457.615	1.47
457.82	1.5
458.025	1.61
458.23	1.43
458.435	1.47
458.64	1.47
458.845	1.7
459.05	1.68
459.255	1.67
459.46	1.68
459.665	1.71
459.87	1.68
460.075	1.66
