Data from Ofra_PS_T2_2A_2GT03_Reflection_2.txt Node
Date: Wed Jul 21 17:29:04 EDT 2021
User: Adam
Spectrometer: FLMT01687
Trigger mode: 0
Integration Time (sec): 1.100000E0
Scans to average: 2
Electric dark correction enabled: true
Nonlinearity correction enabled: false
Boxcar width: 2
XAxis mode: Wavelengths
Number of Pixels in Spectrum: 3648
>>>>>Begin Spectral Data<<<<<
179.494	638.4
179.716	718.59
179.937	662.9
180.158	699.75
180.38	1168.12
180.601	522.1
180.823	153.45
181.044	45.5
181.265	24.26
181.486	0
181.708	40.18
181.929	244.9
182.15	-118.31
182.372	126.69
182.593	61.67
182.814	42.34
183.035	85.04
183.257	49.2
183.478	-38.3
183.699	19.72
183.92	11.32
184.141	39.59
184.363	-5.03
184.584	59.46
184.805	62.22
185.026	66.36
185.247	33.28
185.468	28.02
185.689	26.74
185.91	6.71
186.132	-2.21
186.353	12.23
186.574	63.34
186.795	43.19
187.016	14.95
187.237	-0.84
187.458	-39.48
187.679	-48.28
187.9	-51.81
188.121	-72.85
188.342	-41.35
188.563	30.78
188.784	62.48
189.005	88.59
189.226	176.94
189.447	116.45
189.667	34.95
189.888	-297.04
190.109	-1281.82
190.33	-706.45
190.551	-1085.84
190.772	-260.77
190.993	-188.31
191.214	-130.35
191.434	-105.64
191.655	-20.25
191.876	-45.83
192.097	-94.93
192.318	-151.23
192.538	-207.62
192.759	-204.65
192.98	-80.02
193.201	-30.06
193.421	-4.51
193.642	10.76
193.863	47.11
194.083	26.53
194.304	22.15
194.525	26.85
194.745	31.2
194.966	-31.26
195.187	-42.5
195.407	-63.85
195.628	-141.8
195.848	-143.46
196.069	-112.5
196.29	-92.49
196.51	-107.45
196.731	-101.3
196.951	-114.01
197.172	-130.93
197.392	-178.32
197.613	-163.98
197.833	-176.41
198.054	-143.17
198.274	-101.52
198.495	-96.66
198.715	-56.79
198.936	-82.44
199.156	-70.2
199.377	-168.39
199.597	-147.96
199.817	-158.11
200.038	-60.74
200.258	-95.36
200.479	-20.91
200.699	-28.09
200.919	21.65
201.14	-12.47
201.36	-49.02
201.58	8.97
201.801	32.35
202.021	-3.23
202.241	-11.83
202.461	-10.03
202.682	-95.15
202.902	-140.43
203.122	-70.92
203.342	-61.62
203.563	-35.1
203.783	-0.62
204.003	-52.32
204.223	-58.85
204.443	12.28
204.663	0.33
204.884	11.92
205.104	54.7
205.324	56.21
205.544	53.22
205.764	69.67
205.984	62.91
206.204	63.13
206.424	57.06
206.644	21.41
206.864	35.12
207.084	-3.56
207.304	17.03
207.525	-124.69
207.745	-24.2
207.964	-5.19
208.184	-72.04
208.404	-84.63
208.624	-72.82
208.844	-84.8
209.064	-414.75
209.284	-415.03
209.504	-264.54
209.724	-65.98
209.944	-39.6
210.164	5.95
210.384	22.09
210.604	0
210.823	-51.22
211.043	-78.29
211.263	-58.27
211.483	-64.17
211.703	-103.17
211.922	-83.32
212.142	1.4
212.362	-3.62
212.582	-10.39
212.801	4.33
213.021	-47.9
213.241	-86.74
213.461	-105.31
213.68	-105.23
213.9	-82.04
214.12	-19.81
214.339	-85.05
214.559	-66.27
214.779	-26.46
214.998	-31.19
215.218	-70.69
215.438	-34.36
215.657	-36.32
215.877	-53.12
216.096	-9.92
216.316	1.73
216.535	6.8
216.755	6.82
216.974	-46.15
217.194	-84.75
217.413	-115.98
217.633	-145.73
217.852	-264.88
218.072	-101.29
218.291	-54.36
218.511	-11.81
218.73	-16.36
218.95	-14.32
219.169	-16.76
219.389	-72.35
219.608	-57.54
219.827	-48.04
220.047	-35.62
220.266	-31.87
220.485	-22.5
220.705	-10.07
220.924	-24.39
221.143	13.24
221.363	-16.2
221.582	10.38
221.801	14.62
222.021	14
222.24	-45.25
222.459	46.47
222.678	-15.07
222.897	-62.66
223.117	-71.04
223.336	-57.44
223.555	-35.53
223.774	3.92
223.993	-0.79
224.213	45.15
224.432	31.55
224.651	56.6
224.87	37.13
225.089	49.51
225.308	33.12
225.527	43.86
225.746	26.95
225.965	8.89
226.184	-15.45
226.404	13.04
226.623	-15.88
226.842	-3.04
227.061	31.46
227.28	35.29
227.499	24.45
227.718	46.93
227.936	39.85
228.155	36.04
228.374	13.33
228.593	29.46
228.812	5.01
229.031	-9.4
229.25	-51.73
229.469	-51.8
229.688	-67.94
229.907	-3.66
230.125	7.15
230.344	37.53
230.563	46.93
230.782	62.68
231.001	-23.52
231.22	-16.56
231.438	-1.78
231.657	-1.69
231.876	-17.36
232.095	46.82
232.313	48.61
232.532	20.47
232.751	4.03
232.969	-9.53
233.188	-93.66
233.407	-27.56
233.625	-9.51
233.844	-17.43
234.063	-14.54
234.281	6.16
234.5	-6.25
234.719	-8.89
234.937	4.32
235.156	1.54
235.374	11.63
235.593	10.05
235.811	13.26
236.03	-1.25
236.249	-35.52
236.467	-51.93
236.686	-18.67
236.904	-1.26
237.123	-17.36
237.341	-3.66
237.559	-1.6
237.778	-21.66
237.996	-48.18
238.215	-8.4
238.433	0.65
238.652	0.21
238.87	-23.02
239.088	-12.15
239.307	-9.5
239.525	-5.55
239.743	-42.11
239.962	-5.69
240.18	-49.43
240.398	-110.25
240.617	-120.72
240.835	-77.92
241.053	-47.76
241.271	15.08
241.49	42.2
241.708	12.12
241.926	-1.93
242.144	-10.85
242.363	-61.66
242.581	-90.1
242.799	-36.52
243.017	-16.04
243.235	-45.99
243.453	-14.27
243.672	-29.19
243.89	-11.44
244.108	-28.25
244.326	-2.9
244.544	-15.32
244.762	-0.91
244.98	-12.62
245.198	-5.81
245.416	-25.64
245.634	-7.92
245.852	-2.64
246.07	-1.19
246.288	20.51
246.506	-4.38
246.724	-22
246.942	-50.05
247.16	-17.67
247.378	-8.45
247.596	6.88
247.814	7.27
248.032	2.69
248.25	-14.43
248.468	-16.16
248.685	-15.04
248.903	23.63
249.121	37.5
249.339	11.45
249.557	1.79
249.775	13.93
249.992	-63.76
250.21	-59.73
250.428	-26.04
250.646	-37.19
250.863	-78.28
251.081	-42.95
251.299	-53.57
251.517	-63.82
251.734	-57.02
251.952	-36.7
252.17	-17.18
252.387	-2.68
252.605	-19.02
252.823	-8.16
253.04	8.84
253.258	20.04
253.475	6.23
253.693	55.3
253.911	61.14
254.128	57.76
254.346	65.49
254.563	42.78
254.781	26.06
254.998	-3.43
255.216	-0
255.433	-20.87
255.651	31.03
255.868	37.86
256.086	63.18
256.303	46.7
256.521	43.66
256.738	14.65
256.956	-15.86
257.173	-33.43
257.39	-60.6
257.608	-88.71
257.825	-53.22
258.043	-12.96
258.26	-7.02
258.477	46.65
258.695	46.62
258.912	13.37
259.129	23.49
259.346	-8.54
259.564	-58.83
259.781	-80.19
259.998	-18.34
260.216	-3.9
260.433	34.95
260.65	43.62
260.867	58.98
261.084	42.49
261.302	12.99
261.519	-5.56
261.736	-37.16
261.953	-56.19
262.17	-14.73
262.387	-41.37
262.604	-47.59
262.822	-63.08
263.039	-33.28
263.256	-115.22
263.473	-78.01
263.69	-57.36
263.907	1.39
264.124	-1.78
264.341	4.45
264.558	1.37
264.775	7.53
264.992	-21.15
265.209	-15.04
265.426	16.48
265.643	14.54
265.86	12.83
266.077	10.76
266.294	3.11
266.51	-38.84
266.727	-44.48
266.944	-41.22
267.161	-40.52
267.378	-34.29
267.595	1
267.812	-15.17
268.028	-32.28
268.245	6.21
268.462	-35.55
268.679	-66.5
268.896	-9.16
269.112	0.48
269.329	-12.37
269.546	1.24
269.763	6.39
269.979	-23.37
270.196	-23.35
270.413	-53.38
270.629	-70.94
270.846	-67.87
271.063	-49.62
271.279	-63.11
271.496	-32.5
271.712	18.79
271.929	50.78
272.146	39.4
272.362	56.18
272.579	69.88
272.795	49.7
273.012	40.94
273.228	40.53
273.445	5.89
273.661	-22.99
273.878	-76.87
274.094	-73.83
274.311	-93.53
274.527	-18.12
274.744	-29.3
274.96	-18.9
275.177	-3.63
275.393	10.11
275.609	0.37
275.826	39.54
276.042	40.43
276.259	21.39
276.475	42.51
276.691	24.38
276.908	-15.01
277.124	0.61
277.34	-4.72
277.557	-34.31
277.773	-23.87
277.989	-25.48
278.205	-38.34
278.422	-20.01
278.638	-12.94
278.854	0
279.07	0.78
279.286	3.48
279.503	-35.82
279.719	-34.57
279.935	-58.58
280.151	-58.73
280.367	-29.94
280.583	-24.07
280.799	-34.16
281.016	-53.79
281.232	-4.27
281.448	-2.76
281.664	20.11
281.88	7.79
282.096	36.02
282.312	28.46
282.528	45.11
282.744	56.75
282.96	46.39
283.176	18.27
283.392	8.19
283.608	-11.2
283.824	-26.01
284.04	-13.74
284.256	-1.91
284.471	-5.97
284.687	-12.55
284.903	21.79
285.119	50.21
285.335	29.72
285.551	44.53
285.767	28.47
285.982	1.62
286.198	-60.15
286.414	6.06
286.63	17.81
286.846	42.55
287.061	21.6
287.277	63.13
287.493	33.21
287.709	45.86
287.924	24.72
288.14	51.09
288.356	33.88
288.571	47.41
288.787	9.24
289.003	4.84
289.218	-10.66
289.434	-50.41
289.65	-44.51
289.865	-34.44
290.081	13.97
290.296	30.28
290.512	41.61
290.727	-15.02
290.943	-21.26
291.159	-37.99
291.374	-49.17
291.59	-78.07
291.805	-45.79
292.021	-30.93
292.236	-39.03
292.451	-15.87
292.667	-4.68
292.882	13.7
293.098	-0.94
293.313	-0.23
293.529	-17.96
293.744	-26.78
293.959	-53.05
294.175	-43.22
294.39	-8.7
294.605	-1.78
294.821	22.8
295.036	33.17
295.251	31.1
295.467	14.5
295.682	11.14
295.897	-38.01
296.112	-47.61
296.328	-29.75
296.543	-63.62
296.758	-61.17
296.973	-19.74
297.188	2.37
297.404	-31.18
297.619	-43.36
297.834	-35.58
298.049	-53.06
298.264	-63.26
298.479	-14.89
298.694	0.28
298.909	19.93
299.125	25.95
299.34	35.9
299.555	17.17
299.77	31.16
299.985	-30.5
300.2	-77.92
300.415	-90.06
300.63	-43.69
300.845	-60.69
301.06	-61.32
301.275	-29.46
301.49	-15.64
301.704	-36.65
301.919	-66.93
302.134	-76.24
302.349	-72.74
302.564	-147.16
302.779	-181.54
302.994	-105.33
303.209	-29.56
303.423	-0.69
303.638	46.71
303.853	17.93
304.068	15.19
304.283	11.08
304.497	11.21
304.712	0.85
304.927	-0
305.142	-13.21
305.356	-3.41
305.571	-8.74
305.786	-13.63
306	-22.3
306.215	-13.09
306.43	-57.89
306.644	-73.45
306.859	-40.84
307.074	-21.25
307.288	-52.9
307.503	-50.3
307.717	-42.53
307.932	-34.42
308.147	-41.53
308.361	-9.03
308.576	-17.01
308.79	-72.13
309.005	-72.72
309.219	-40.4
309.434	-39.83
309.648	-32.56
309.863	10.54
310.077	18.85
310.292	5.05
310.506	-7.26
310.72	2.49
310.935	7.55
311.149	-4.81
311.364	4.92
311.578	25.88
311.792	17.43
312.007	29.96
312.221	21.68
312.435	26.33
312.649	0.27
312.864	42.3
313.078	46.08
313.292	111.37
313.507	120.71
313.721	201.49
313.935	92.78
314.149	60.77
314.363	33.25
314.578	20.54
314.792	8.06
315.006	-1.87
315.22	23.41
315.434	24.16
315.648	30.55
315.862	33.2
316.077	30.05
316.291	4.29
316.505	33.93
316.719	36.08
316.933	24.95
317.147	14.42
317.361	-41.4
317.575	-71.17
317.789	-111.59
318.003	-176.18
318.217	-134.92
318.431	-31.01
318.645	15.13
318.859	19.79
319.073	42.64
319.287	23.25
319.5	-0.16
319.714	-58.14
319.928	-90.73
320.142	-131.48
320.356	-76.33
320.57	-49.39
320.784	-61.55
320.997	-50.4
321.211	-31.34
321.425	-100.36
321.639	-130.04
321.853	-52.02
322.066	-30.26
322.28	-32.15
322.494	0.9
322.707	18.92
322.921	-0.87
323.135	-3.62
323.349	6.75
323.562	-14.51
323.776	-27.39
323.989	-28.07
324.203	-65.19
324.417	-75.91
324.63	-100.7
324.844	-106.27
325.057	-115.35
325.271	-60.5
325.485	-28.67
325.698	3.02
325.912	28.36
326.125	15.45
326.339	14.38
326.552	-3.18
326.766	-15.24
326.979	-7.94
327.193	30.71
327.406	11.77
327.619	14.13
327.833	40.95
328.046	6.79
328.26	-34.41
328.473	-6.86
328.686	-32.57
328.9	-43.29
329.113	-8.81
329.326	-21.85
329.54	-30.23
329.753	-29.46
329.966	-50.48
330.179	-38.35
330.393	-18.92
330.606	-8.48
330.819	-1.3
331.032	10.05
331.246	11.23
331.459	41.87
331.672	32.4
331.885	26.72
332.098	-3.04
332.311	-18.26
332.525	-77.4
332.738	-70.62
332.951	-30.74
333.164	16.33
333.377	22.08
333.59	47.23
333.803	50.1
334.016	43.99
334.229	38.67
334.442	41
334.655	38.06
334.868	42.95
335.081	23.59
335.294	0.54
335.507	-1.56
335.72	0.72
335.933	-16.05
336.146	-20.16
336.359	-9.41
336.572	-46.58
336.785	-67.2
336.997	-45.88
337.21	3.71
337.423	-1.74
337.636	7.56
337.849	11.86
338.062	9.25
338.274	-6.48
338.487	-19.15
338.7	-16.91
338.913	-60
339.125	-85.41
339.338	-155.8
339.551	-112.25
339.763	-62.7
339.976	-18.14
340.189	-10.99
340.402	14.43
340.614	-5.01
340.827	-13.43
341.039	-37.12
341.252	-25.3
341.465	0.16
341.677	15.01
341.89	-31.26
342.102	9.55
342.315	2.81
342.527	-36.11
342.74	-38.19
342.952	15.74
343.165	-8.28
343.377	15.98
343.59	18
343.802	36.51
344.015	32.21
344.227	57.2
344.44	41.62
344.652	39.18
344.864	19
345.077	37
345.289	32.67
345.502	33.2
345.714	19.04
345.926	26.25
346.139	22.45
346.351	21.86
346.563	23.02
346.775	28.73
346.988	9.96
347.2	-18.97
347.412	-76.17
347.624	-80.83
347.837	-95.57
348.049	-70.84
348.261	-50.65
348.473	-23.66
348.685	-41.26
348.897	-42.26
349.11	-57.05
349.322	-50.5
349.534	-31.91
349.746	-25.84
349.958	-12.9
350.17	5.71
350.382	3.81
350.594	-3.12
350.806	3.17
351.018	2.22
351.23	-32.68
351.442	-102.75
351.654	-106.01
351.866	-93.51
352.078	-71.01
352.29	-35.63
352.502	-0
352.714	5.64
352.926	-13.61
353.138	-17.77
353.35	-21.18
353.561	-31.59
353.773	-44.79
353.985	-19.96
354.197	-31.99
354.409	-41
354.621	-42.53
354.832	-27.1
355.044	-41.23
355.256	-36.71
355.468	-14.85
355.679	-14.54
355.891	-7.53
356.103	-18.12
356.314	-10.75
356.526	-13.41
356.738	-8.85
356.949	-32.87
357.161	-5.69
357.373	-11.28
357.584	-23.96
357.796	-5.11
358.008	-5.58
358.219	5
358.431	6.07
358.642	25.05
358.854	18.6
359.065	15.99
359.277	-5.11
359.488	-16.93
359.7	-54.04
359.911	-65.39
360.123	-51.19
360.334	-65.89
360.546	-74.95
360.757	-77.12
360.969	-78.88
361.18	-69.26
361.391	-42.8
361.603	-40.24
361.814	-13.59
362.025	-6.69
362.237	-11.93
362.448	-3.59
362.659	18.69
362.871	11.25
363.082	11.4
363.293	9.75
363.504	-5.07
363.716	-35.99
363.927	-37.79
364.138	-59.75
364.349	-66.58
364.56	-64
364.772	-50.58
364.983	-35.64
365.194	-24.05
365.405	-6.18
365.616	19.75
365.827	18.99
366.038	4.38
366.25	-1.63
366.461	-35.53
366.672	-32.95
366.883	-7.49
367.094	-1.68
367.305	-8.59
367.516	2.32
367.727	-25.87
367.938	-53.13
368.149	-47.59
368.36	-32.43
368.571	-29.62
368.781	-45.25
368.992	-52.92
369.203	-66.9
369.414	-92.35
369.625	-97.91
369.836	-75.7
370.047	-91.08
370.258	-78.69
370.468	-79.65
370.679	-100.79
370.89	-92.51
371.101	-67.7
371.312	-81.08
371.522	-68.15
371.733	-47.28
371.944	-24.38
372.155	-8.27
372.365	-3.88
372.576	-8.68
372.787	-9.32
372.997	-39.43
373.208	-52.05
373.419	-16.49
373.629	-42.14
373.84	-37.2
374.05	-38.84
374.261	-16.23
374.472	-44.74
374.682	10.49
374.893	10.87
375.103	32.16
375.314	20.75
375.524	21.27
375.735	8.68
375.945	17.67
376.156	-6.55
376.366	1.95
376.577	4.68
376.787	-3.72
376.997	-10.44
377.208	-5.54
377.418	-24.54
377.629	-21.4
377.839	-20.15
378.049	-9.46
378.26	6.92
378.47	8.19
378.68	0.7
378.89	-3.65
379.101	-16.72
379.311	-55.11
379.521	-83.56
379.732	-79.69
379.942	-70.92
380.152	-81.15
380.362	-40.17
380.572	-26.23
380.783	-12.14
380.993	3.76
381.203	25.55
381.413	30.18
381.623	42.07
381.833	28.18
382.043	6.79
382.253	-8.97
382.463	-8.96
382.674	-22.6
382.884	-39.63
383.094	-30.61
383.304	-20.45
383.514	-16.66
383.724	4.89
383.934	5.33
384.144	-6.05
384.353	-18.48
384.563	-22.6
384.773	-29.12
384.983	-39.06
385.193	-8.51
385.403	-1.84
385.613	-0.91
385.823	-9.04
386.033	3.77
386.242	-12.68
386.452	-13.08
386.662	-24.88
386.872	-13.52
387.082	-19.73
387.291	-23.19
387.501	-21.42
387.711	-10.02
387.921	-19.53
388.13	-12.52
388.34	-3.52
388.55	-11.59
388.759	-12.92
388.969	-4.45
389.179	-11.78
389.388	-14.52
389.598	-6.89
389.807	-13.63
390.017	-18.7
390.227	-13.81
390.436	-11.4
390.646	-8.78
390.855	0.59
391.065	1.13
391.274	0.56
391.484	-2.19
391.693	-1.64
391.903	-1.83
392.112	3.47
392.322	3.98
392.531	6.39
392.74	7.18
392.95	3.17
393.159	1.7
393.369	1.38
393.578	1.94
393.787	-0.71
393.997	0.17
394.206	-1.86
394.415	-0.41
394.625	-2.3
394.834	-2.53
395.043	-0.64
395.252	2.42
395.462	3.41
395.671	5.14
395.88	6.47
396.089	6.54
396.298	3.67
396.508	2.7
396.717	2.12
396.926	2.83
397.135	1.78
397.344	1.79
397.553	2.72
397.762	4.31
397.971	3.18
398.181	4.21
398.39	4.07
398.599	3.16
398.808	2.09
399.017	3.59
399.226	4.27
399.435	5.7
399.644	6.68
399.853	6.12
400.062	5.04
400.27	4.34
400.479	3.74
400.688	2.62
400.897	3.54
401.106	4.14
401.315	4.13
401.524	4.16
401.733	5.13
401.941	5.25
402.15	5.3
402.359	5.22
402.568	5.6
402.777	5.51
402.985	5.45
403.194	5.06
403.403	5.16
403.612	4.67
403.82	4.39
404.029	4.49
404.238	4.53
404.446	4.76
404.655	4.68
404.864	4.64
405.072	4.35
405.281	4.64
405.489	4.5
405.698	4.58
405.906	4.64
406.115	4.62
406.324	4.39
406.532	4.51
406.741	4.85
406.949	4.87
407.158	4.79
407.366	4.89
407.574	4.66
407.783	4.62
407.991	4.39
408.2	4.67
408.408	4.58
408.617	4.49
408.825	4.2
409.033	4.44
409.242	4.38
409.45	4.57
409.658	4.61
409.867	4.8
410.075	4.7
410.283	4.53
410.491	4.29
410.7	4.21
410.908	4.17
411.116	4.38
411.324	4.28
411.533	4.27
411.741	4.54
411.949	4.55
412.157	4.15
412.365	4.31
412.573	4.31
412.781	4.22
412.99	4.14
413.198	4.44
413.406	4.39
413.614	4.42
413.822	4.24
414.03	4.23
414.238	4
414.446	4.18
414.654	3.89
414.862	4.06
415.07	4.08
415.278	4.32
415.486	4
415.694	4.13
415.902	3.91
416.109	3.89
416.317	3.79
416.525	3.68
416.733	3.9
416.941	4.25
417.149	4.17
417.357	4.21
417.564	4.38
417.772	4.43
417.98	4.2
418.188	4.18
418.395	4.26
418.603	4.45
418.811	4
419.019	3.97
419.226	4.21
419.434	4.15
419.642	3.86
419.849	4.05
420.057	4.01
420.265	3.89
420.472	3.58
420.68	3.78
420.887	3.61
421.095	3.73
421.302	3.7
421.51	3.93
421.717	3.88
421.925	4.19
422.132	4.06
422.34	3.71
422.547	3.77
422.755	3.66
422.962	3.37
423.17	3.28
423.377	3.63
423.585	3.69
423.792	3.52
423.999	3.57
424.207	3.62
424.414	3.61
424.621	3.46
424.829	3.72
425.036	3.7
425.243	3.78
425.451	3.62
425.658	3.39
425.865	3.5
426.072	3.47
426.28	3.67
426.487	3.75
426.694	3.86
426.901	3.51
427.108	3.58
427.315	3.29
427.523	3.45
427.73	3.48
427.937	3.46
428.144	3.39
428.351	3.38
428.558	3.53
428.765	3.42
428.972	3.41
429.179	3.61
429.386	3.9
429.593	3.48
429.8	3.44
430.007	3.63
430.214	3.55
430.421	3.27
430.628	3.16
430.835	3.12
431.042	3.31
431.249	3.38
431.456	3.38
431.662	3.58
431.869	3.71
432.076	3.69
432.283	3.79
432.49	3.87
432.697	3.92
432.903	3.78
433.11	3.68
433.317	3.55
433.524	3.76
433.73	3.73
433.937	4.01
434.144	3.92
434.35	3.92
434.557	3.59
434.764	3.58
434.97	3.42
435.177	3.57
435.384	3.58
435.59	3.72
435.797	3.87
436.003	3.94
436.21	3.94
436.416	4.12
436.623	4.11
436.829	4.12
437.036	4.21
437.242	4.18
437.449	4.07
437.655	4.06
437.862	4.02
438.068	3.86
438.275	3.97
438.481	4.15
438.687	4.17
438.894	4.13
439.1	4.24
439.307	4.33
439.513	4.2
439.719	4.23
439.926	4.3
440.132	4.35
440.338	4.2
440.544	4.36
440.751	4.31
440.957	4.4
441.163	4.17
441.369	4.28
441.575	3.89
441.782	3.91
441.988	3.77
442.194	3.94
442.4	3.88
442.606	4.32
442.812	4.37
443.018	4.53
443.224	4.6
443.431	4.65
443.637	4.33
443.843	4.28
444.049	4.19
444.255	4.08
444.461	4.08
444.667	4.08
444.873	4.23
445.079	4.24
445.284	4.29
445.49	4.09
445.696	3.96
445.902	3.87
446.108	3.86
446.314	3.82
446.52	3.94
446.726	4.28
446.931	4.29
447.137	4.27
447.343	4.32
447.549	4.23
447.755	4
447.96	4.09
448.166	4.03
448.372	4.07
448.578	4.16
448.783	4.28
448.989	4.34
449.195	4.55
449.4	4.53
449.606	4.49
449.812	4.42
450.017	4.41
450.223	4.3
450.428	4.19
450.634	4.36
450.84	4.53
451.045	4.45
451.251	4.34
451.456	4.6
451.662	4.57
451.867	4.55
452.073	4.5
452.278	4.6
452.483	4.67
452.689	4.62
452.894	4.67
453.1	4.65
453.305	4.59
453.51	4.45
453.716	4.37
453.921	4.31
454.127	4.31
454.332	4.3
454.537	4.24
454.742	4.29
454.948	4.31
455.153	4.4
455.358	4.47
455.563	4.66
455.769	4.79
455.974	4.73
456.179	4.63
456.384	4.7
456.589	4.61
456.795	4.39
457	4.47
457.205	4.71
457.41	4.62
457.615	4.53
457.82	4.6
458.025	4.59
458.23	4.39
458.435	4.36
458.64	4.33
458.845	4.51
459.05	4.51
459.255	4.5
459.46	4.54
459.665	4.6
459.87	4.52
460.075	4.44
460.28	4.53
460.485	4.69
460.69	4.7
460.895	4.61
461.099	4.63
461.304	4.76
