Data from Ofra_PS_T2_1A_9CX05_Reflection_3.txt Node
Date: Wed Jul 21 18:18:12 EDT 2021
User: Adam
Spectrometer: FLMT01687
Trigger mode: 0
Integration Time (sec): 1.100000E0
Scans to average: 2
Electric dark correction enabled: true
Nonlinearity correction enabled: false
Boxcar width: 2
XAxis mode: Wavelengths
Number of Pixels in Spectrum: 3648
>>>>>Begin Spectral Data<<<<<
179.494	422
179.716	512
179.937	442.84
180.158	386.37
180.38	517.81
180.601	227.35
180.823	50
181.044	-31.04
181.265	196.69
181.486	95.84
181.708	90.88
181.929	484.69
182.15	-313.38
182.372	93.07
182.593	15.51
182.814	30.9
183.035	88.61
183.257	49.56
183.478	-28.83
183.699	46.63
183.92	38.68
184.141	8.47
184.363	-14.71
184.584	27.94
184.805	17.51
185.026	35.88
185.247	46.02
185.468	32.41
185.689	10.4
185.91	11.13
186.132	0.78
186.353	6.35
186.574	59.88
186.795	82.97
187.016	48.05
187.237	27.99
187.458	-6.17
187.679	-53.67
187.9	-24.68
188.121	-6.72
188.342	12.91
188.563	55.13
188.784	86.91
189.005	45.35
189.226	82.67
189.447	70.37
189.667	8.5
189.888	-106.65
190.109	-518.83
190.33	-395.16
190.551	-794.25
190.772	-170.82
190.993	-90.33
191.214	-45.31
191.434	-31.17
191.655	48.16
191.876	27.62
192.097	-16.35
192.318	-36.37
192.538	-52.93
192.759	-94.46
192.98	-24.18
193.201	-5.72
193.421	3.52
193.642	11.07
193.863	10.01
194.083	-4.13
194.304	-10.52
194.525	-11.63
194.745	-12.41
194.966	-24.4
195.187	-33.23
195.407	-48.67
195.628	-121.94
195.848	-131.94
196.069	-113.85
196.29	-67.63
196.51	-72.8
196.731	-38.53
196.951	-17.6
197.172	-30.5
197.392	-42.08
197.613	-43.14
197.833	-77.81
198.054	-77.57
198.274	-37.87
198.495	-57.65
198.715	-17.9
198.936	-43.34
199.156	-13.39
199.377	-77.81
199.597	-79.47
199.817	-96.03
200.038	-34.55
200.258	-108.54
200.479	-40.68
200.699	-55.74
200.919	5.35
201.14	-22.92
201.36	-60.82
201.58	-11.2
201.801	33.43
202.021	-7.63
202.241	-1.24
202.461	9.03
202.682	-81.72
202.902	-173.6
203.122	-78.82
203.342	-65.88
203.563	-6.68
203.783	21.75
204.003	-5.8
204.223	-28.2
204.443	27.3
204.663	-1.03
204.884	24.63
205.104	54.09
205.324	72.58
205.544	44.61
205.764	33.69
205.984	26.14
206.204	42.53
206.424	39.5
206.644	20.29
206.864	46.17
207.084	35.09
207.304	47.5
207.525	-32.97
207.745	8.91
207.964	32.94
208.184	-8.16
208.404	-62.5
208.624	-43.35
208.844	-22.69
209.064	-235.83
209.284	-285.36
209.504	-127.86
209.724	-24.76
209.944	-14.2
210.164	22.45
210.384	47.02
210.604	54.1
210.823	21.12
211.043	-7.14
211.263	-4.37
211.483	-18.66
211.703	-74.47
211.922	-66.87
212.142	-5.16
212.362	-8.19
212.582	-12.2
212.801	17.04
213.021	8.52
213.241	-13.12
213.461	-47.84
213.68	-65.07
213.9	-48.18
214.12	-30.4
214.339	-85.39
214.559	-63.26
214.779	-13.6
214.998	-30.1
215.218	-86.78
215.438	-33.9
215.657	-29.99
215.877	-22.97
216.096	7.46
216.316	24.82
216.535	22.23
216.755	24.07
216.974	-34.03
217.194	-57.87
217.413	-73.52
217.633	-106.72
217.852	-218.91
218.072	-94.79
218.291	-60.99
218.511	-28.83
218.73	-35.73
218.95	-18.64
219.169	-24.6
219.389	-57.3
219.608	-34.94
219.827	-31.93
220.047	-32.59
220.266	-11.88
220.485	0.56
220.705	5.88
220.924	-15.13
221.143	13.63
221.363	-1.03
221.582	8.31
221.801	-2.96
222.021	28.8
222.24	2.03
222.459	46.9
222.678	5.69
222.897	-4.35
223.117	-59.88
223.336	-31.41
223.555	-22.67
223.774	22.03
223.993	15.03
224.213	94.17
224.432	65.47
224.651	58.17
224.87	41.57
225.089	65.3
225.308	42.73
225.527	47.7
225.746	50.55
225.965	30.23
226.184	-14.27
226.404	1.33
226.623	-18.59
226.842	-4.25
227.061	26.07
227.28	33.78
227.499	26.33
227.718	30.82
227.936	14.98
228.155	2.79
228.374	-5.94
228.593	10.13
228.812	13.26
229.031	24.62
229.25	-14.72
229.469	-14.61
229.688	-27.71
229.907	0.65
230.125	0.88
230.344	21.91
230.563	37.01
230.782	42.3
231.001	-8.41
231.22	-6.34
231.438	24.43
231.657	19.15
231.876	27.38
232.095	56.42
232.313	55.58
232.532	46.21
232.751	16.68
232.969	0.25
233.188	-55.68
233.407	22.97
233.625	6.3
233.844	7.88
234.063	6.16
234.281	30.96
234.5	17.52
234.719	11.89
234.937	33.32
235.156	37.94
235.374	29.74
235.593	9.81
235.811	12.02
236.03	-9.82
236.249	-42.68
236.467	-43.86
236.686	-7.76
236.904	4.04
237.123	-18.2
237.341	-17.9
237.559	-10.04
237.778	-25.45
237.996	-49.46
238.215	-5.57
238.433	11.02
238.652	12.08
238.87	-11.15
239.088	1.6
239.307	2.95
239.525	-3.27
239.743	-36.07
239.962	-12.46
240.18	-32.43
240.398	-70.26
240.617	-62.73
240.835	-35.36
241.053	-29.5
241.271	10.8
241.49	32.6
241.708	13.63
241.926	-27.41
242.144	-29.9
242.363	-78.35
242.581	-130.55
242.799	-97.97
243.017	-50.77
243.235	-51.94
243.453	-22.1
243.672	-13.22
243.89	-1.86
244.108	-0.19
244.326	9.98
244.544	5.38
244.762	4.88
244.98	-1.32
245.198	-4.81
245.416	-33.32
245.634	-21.09
245.852	-37.48
246.07	-32.82
246.288	-16.58
246.506	-25.08
246.724	-24.92
246.942	-1.24
247.16	18.52
247.378	21.31
247.596	29.15
247.814	33.25
248.032	17.43
248.25	15.06
248.468	17.34
248.685	44.25
248.903	40.06
249.121	32.62
249.339	14.02
249.557	4.95
249.775	25.93
249.992	-26.4
250.21	-17.27
250.428	-7.86
250.646	-41.54
250.863	-85.72
251.081	-45.65
251.299	-32.71
251.517	-26.19
251.734	0.65
251.952	-1.53
252.17	1.14
252.387	-1.86
252.605	-16.72
252.823	-11.53
253.04	11.36
253.258	25.98
253.475	22.42
253.693	24.27
253.911	33.38
254.128	31.24
254.346	23.02
254.563	7.68
254.781	2.88
254.998	-20.6
255.216	-48.78
255.433	-45.81
255.651	-0.05
255.868	40.97
256.086	50.23
256.303	34.7
256.521	29.44
256.738	2.84
256.956	-37.98
257.173	-63.56
257.39	-44.9
257.608	-55.65
257.825	34.99
258.043	53.24
258.26	51.75
258.477	68.62
258.695	62.78
258.912	-27.71
259.129	-2.36
259.346	-22.87
259.564	-58.87
259.781	-61.49
259.998	9.02
260.216	35.31
260.433	63.28
260.65	68.85
260.867	82.12
261.084	61.15
261.302	36.68
261.519	37.56
261.736	-4.83
261.953	-37.19
262.17	-18.23
262.387	-31.27
262.604	-50.73
262.822	-29.49
263.039	-5.46
263.256	-22.72
263.473	3.03
263.69	9.04
263.907	34.71
264.124	27.34
264.341	25.25
264.558	15.66
264.775	15.86
264.992	6.47
265.209	29.89
265.426	45.99
265.643	52.56
265.86	71.76
266.077	59.17
266.294	32.76
266.51	-9.95
266.727	-25.42
266.944	-32.68
267.161	-27.12
267.378	-32.24
267.595	9.19
267.812	-15.84
268.028	-44
268.245	-26.68
268.462	-24.28
268.679	-35.96
268.896	14.83
269.112	27.2
269.329	18.07
269.546	21.97
269.763	12.91
269.979	-2.86
270.196	-6.16
270.413	-30.76
270.629	-49.86
270.846	-52.53
271.063	-49.86
271.279	-62.02
271.496	-57.13
271.712	-28.01
271.929	-18.68
272.146	-1.91
272.362	28.32
272.579	43.64
272.795	53.95
273.012	61.48
273.228	41.17
273.445	12.68
273.661	2.86
273.878	-37.65
274.094	-52.07
274.311	-71.39
274.527	-21.05
274.744	-9.35
274.96	3.35
275.177	6.25
275.393	25.1
275.609	26.99
275.826	42.54
276.042	23.27
276.259	26.65
276.475	31.14
276.691	22.28
276.908	-8.31
277.124	13.07
277.34	5.83
277.557	-16.99
277.773	-16.94
277.989	-7.11
278.205	-10.23
278.422	6.69
278.638	19.03
278.854	41.6
279.07	46.78
279.286	37.13
279.503	12.12
279.719	-1.18
279.935	-34.65
280.151	-43.11
280.367	-9.46
280.583	-16.96
280.799	-5.04
281.016	-22.75
281.232	4.09
281.448	-20.08
281.664	16.82
281.88	-13.68
282.096	13.27
282.312	25.04
282.528	65.04
282.744	66.77
282.96	56.97
283.176	42.04
283.392	28.34
283.608	11.61
283.824	-9.43
284.04	9.73
284.256	6.91
284.471	-3.01
284.687	-8.1
284.903	14.94
285.119	14.24
285.335	2.78
285.551	-5.55
285.767	-14.89
285.982	-24.34
286.198	-33.4
286.414	10.68
286.63	26.44
286.846	53.85
287.061	43.17
287.277	52.76
287.493	36.21
287.709	48.15
287.924	30.04
288.14	46.81
288.356	41.44
288.571	51.3
288.787	28.88
289.003	27.44
289.218	30.32
289.434	-0.03
289.65	-0.03
289.865	-1.26
290.081	23.32
290.296	9.41
290.512	16.2
290.727	-10.76
290.943	-9.01
291.159	-25.83
291.374	-18.44
291.59	-25.5
291.805	-5.24
292.021	1.39
292.236	13.21
292.451	9.47
292.667	20.38
292.882	33.43
293.098	30.38
293.313	15.98
293.529	-3.3
293.744	-12.49
293.959	-22.69
294.175	-25
294.39	-0.02
294.605	15.88
294.821	35.92
295.036	29.92
295.251	28.58
295.467	8.26
295.682	-1.33
295.897	-52.89
296.112	-55.58
296.328	-27.5
296.543	-33.16
296.758	-39.88
296.973	-8.83
297.188	13.33
297.404	-18.7
297.619	-36.13
297.834	-44.82
298.049	-65.63
298.264	-80.64
298.479	-28.91
298.694	-14.41
298.909	8.71
299.125	21.68
299.34	31.97
299.555	23.1
299.77	32.87
299.985	-3.6
300.2	-41.56
300.415	-63.8
300.63	-35.03
300.845	-47.1
301.06	-45.59
301.275	-17.46
301.49	3.84
301.704	-9.76
301.919	-15.82
302.134	-22.44
302.349	-24.51
302.564	-79.77
302.779	-99.45
302.994	-62.15
303.209	-12.99
303.423	-22.5
303.638	36.18
303.853	19.83
304.068	3.3
304.283	-4.33
304.497	7.99
304.712	1.33
304.927	-7.45
305.142	-1.12
305.356	10.51
305.571	1.27
305.786	-1.36
306	-11.47
306.215	-12.68
306.43	-31.68
306.644	-40.92
306.859	-22.47
307.074	2.68
307.288	-32.66
307.503	-64.13
307.717	-36.3
307.932	-36.75
308.147	-32.45
308.361	-1.11
308.576	12.69
308.79	-27.55
309.005	-35.37
309.219	-26.9
309.434	-36.26
309.648	-32.4
309.863	-6
310.077	4.73
310.292	-4.72
310.506	0.14
310.72	9.07
310.935	18.92
311.149	9.3
311.364	23.66
311.578	27.9
311.792	18.26
312.007	14.02
312.221	5.07
312.435	11.2
312.649	7.32
312.864	3.23
313.078	14.42
313.292	45.88
313.507	23.77
313.721	16.62
313.935	25.54
314.149	19.9
314.363	16.75
314.578	15.03
314.792	11.23
315.006	-2.76
315.22	8.99
315.434	15.61
315.648	17.9
315.862	30.72
316.077	33.48
316.291	7.32
316.505	2.87
316.719	2.55
316.933	-23.61
317.147	-1.41
317.361	-35.15
317.575	-76.89
317.789	-121.73
318.003	-184.27
318.217	-140.61
318.431	-35.84
318.645	29.64
318.859	37.24
319.073	62.93
319.287	42.64
319.5	9.01
319.714	-34.48
319.928	-47.23
320.142	-80.5
320.356	-39.28
320.57	21.01
320.784	29.17
320.997	-3.46
321.211	-14.96
321.425	-50.9
321.639	-73.07
321.853	-28.86
322.066	-6.5
322.28	-0.85
322.494	4.31
322.707	13.58
322.921	9.75
323.135	19.01
323.349	27.95
323.562	5.78
323.776	-10.02
323.989	-18.19
324.203	-58.29
324.417	-70.47
324.63	-69.81
324.844	-73.48
325.057	-68.49
325.271	-37.07
325.485	-2.75
325.698	15.07
325.912	42.02
326.125	26.26
326.339	23.13
326.552	3.94
326.766	15.21
326.979	13.52
327.193	36.92
327.406	24.03
327.619	19.49
327.833	24.66
328.046	-8.05
328.26	-28.99
328.473	-10.56
328.686	-30.01
328.9	-49.25
329.113	-23.65
329.326	-50.95
329.54	-30.73
329.753	-27.56
329.966	-40.67
330.179	-49.27
330.393	-17.59
330.606	-18.21
330.819	-6.8
331.032	7.97
331.246	12.95
331.459	28.89
331.672	23.12
331.885	13.88
332.098	-0.94
332.311	-17.34
332.525	-56.83
332.738	-58.96
332.951	-19.66
333.164	5.76
333.377	16.81
333.59	29.74
333.803	33.92
334.016	16.23
334.229	16.11
334.442	21.73
334.655	36.32
334.868	52.98
335.081	52.47
335.294	37.74
335.507	31.82
335.72	19.48
335.933	-1.74
336.146	-1.55
336.359	-2.64
336.572	-22.61
336.785	-53
336.997	-50.26
337.21	-26.58
337.423	-36.46
337.636	-30.28
337.849	-10.72
338.062	-17.59
338.274	-14.75
338.487	-22.37
338.7	-19.77
338.913	-46.6
339.125	-52.23
339.338	-110.3
339.551	-76.11
339.763	-45.7
339.976	-16.89
340.189	-11.22
340.402	-1.17
340.614	-6.08
340.827	-14.09
341.039	-44.69
341.252	-28.14
341.465	-13.51
341.677	-14.86
341.89	-61.5
342.102	-13.4
342.315	-24.91
342.527	-53.38
342.74	-54.56
342.952	-13.5
343.165	-31.13
343.377	-17.71
343.59	-10.65
343.802	8.76
344.015	15.56
344.227	39.45
344.44	34.53
344.652	33.73
344.864	19.89
345.077	25.78
345.289	15.71
345.502	12.53
345.714	8.77
345.926	11.23
346.139	5.89
346.351	8.28
346.563	25.61
346.775	33.33
346.988	29.31
347.2	20.52
347.412	-11.05
347.624	-37.89
347.837	-55.71
348.049	-42.35
348.261	-20.75
348.473	-5.81
348.685	-9.29
348.897	-8.41
349.11	-19.39
349.322	-49.39
349.534	-39.75
349.746	-37.92
349.958	-24.94
350.17	-29.28
350.382	-3.66
350.594	-10.78
350.806	12.1
351.018	6.64
351.23	1.38
351.442	-28.7
351.654	-7.85
351.866	-26.07
352.078	-25.77
352.29	-14.8
352.502	0.25
352.714	9.2
352.926	3.38
353.138	-0.64
353.35	-4.28
353.561	-5.57
353.773	-29.57
353.985	-16.2
354.197	-26.43
354.409	-31.23
354.621	-24.68
354.832	-12.59
355.044	-18.66
355.256	-15.89
355.468	0.47
355.679	-9.51
355.891	-9.58
356.103	-25.24
356.314	-12.29
356.526	-10
356.738	0.15
356.949	4.57
357.161	31.96
357.373	27.85
357.584	20.02
357.796	21.53
358.008	19.38
358.219	21.88
358.431	22.49
358.642	12.43
358.854	13.08
359.065	-3.98
359.277	-29.18
359.488	-42.43
359.7	-53.31
359.911	-51.48
360.123	-30.68
360.334	-46.62
360.546	-56.75
360.757	-47.24
360.969	-41.43
361.18	-42.95
361.391	-6.59
361.603	-8.65
361.814	14.66
362.025	4.26
362.237	-8.04
362.448	-4.99
362.659	9.75
362.871	1.49
363.082	6.53
363.293	13.26
363.504	-6.98
363.716	-19.35
363.927	-25.75
364.138	-50.7
364.349	-56.87
364.56	-54.82
364.772	-42.96
364.983	-19.15
365.194	-21.98
365.405	-5.74
365.616	9.8
365.827	7.82
366.038	-16.62
366.25	1.27
366.461	-17.8
366.672	-0.37
366.883	8.36
367.094	17.86
367.305	-3.17
367.516	2.64
367.727	-20.83
367.938	-25.33
368.149	-35.98
368.36	-12.67
368.571	-13.53
368.781	-22.25
368.992	-33.06
369.203	-33.93
369.414	-55.58
369.625	-54.72
369.836	-44.54
370.047	-64.18
370.258	-62.48
370.468	-58.98
370.679	-66.63
370.89	-52.21
371.101	-34.55
371.312	-48.28
371.522	-35.04
371.733	-25.51
371.944	-13.01
372.155	5.31
372.365	14.34
372.576	6.55
372.787	12.13
372.997	-10.7
373.208	-27.57
373.419	-2.98
373.629	-24.28
373.84	-43
374.05	-54.97
374.261	-47.18
374.472	-68.35
374.682	-13.6
374.893	-0.17
375.103	25.53
375.314	29.79
375.524	33.37
375.735	24.14
375.945	31.56
376.156	9.98
376.366	2.27
376.577	3.98
376.787	-7.69
376.997	-10.09
377.208	-6.49
377.418	-13.23
377.629	-15.75
377.839	-15.51
378.049	-8.45
378.26	10.6
378.47	20.5
378.68	17.24
378.89	24.94
379.101	8.64
379.311	-16.73
379.521	-55.49
379.732	-57.79
379.942	-50.12
380.152	-55.23
380.362	-32.95
380.572	-22.58
380.783	-19.37
380.993	-15.4
381.203	-5.98
381.413	2.86
381.623	13.45
381.833	18.28
382.043	7.5
382.253	-3.36
382.463	-7.59
382.674	-17.89
382.884	-29.74
383.094	-37.24
383.304	-28.66
383.514	-20.12
383.724	-7.64
383.934	-14.03
384.144	-13.88
384.353	-22.59
384.563	-26.04
384.773	-25.48
384.983	-29.38
385.193	-12.28
385.403	-3.09
385.613	-5.93
385.823	-14
386.033	0.79
386.242	-10.08
386.452	-16.29
386.662	-21.69
386.872	-6.29
387.082	-13.95
387.291	-20.45
387.501	-19.1
387.711	-5.86
387.921	-13.55
388.13	-6.8
388.34	8.02
388.55	3
388.759	-1.55
388.969	0.4
389.179	-6.39
389.388	-10.38
389.598	-4.41
389.807	-10.13
390.017	-15.58
390.227	-12.33
390.436	-12.43
390.646	-10.68
390.855	-4.98
391.065	-4.23
391.274	-5.82
391.484	-7.61
391.693	-6.68
391.903	-8.7
392.112	0.05
392.322	1.88
392.531	6.04
392.74	4.8
392.95	2.97
393.159	-1.31
393.369	-0.21
393.578	-1.62
393.787	-3.63
393.997	-2.17
394.206	-3.3
394.415	-3.37
394.625	-3.27
394.834	-3.21
395.043	-1.81
395.252	0.5
395.462	2.06
395.671	2.26
395.88	2.92
396.089	2.93
396.298	0.42
396.508	-0.06
396.717	-0.72
396.926	0.06
397.135	-0.97
397.344	-0.42
397.553	0.44
397.762	2.21
397.971	2.44
398.181	2.92
398.39	2.66
398.599	1.97
398.808	1.35
399.017	1.32
399.226	2.45
399.435	3.33
399.644	3.37
399.853	2.52
400.062	2.44
400.27	1.56
400.479	1.08
400.688	0.63
400.897	1.12
401.106	1.11
401.315	1.19
401.524	1.37
401.733	1.67
401.941	2.16
402.15	2.06
402.359	1.87
402.568	2.24
402.777	2.38
402.985	1.8
403.194	1.82
403.403	2.14
403.612	1.64
403.82	1.26
404.029	1.67
404.238	1.75
404.446	1.82
404.655	1.89
404.864	2.09
405.072	1.81
405.281	1.75
405.489	1.49
405.698	1.5
405.906	1.49
406.115	1.5
406.324	1.45
406.532	1.69
406.741	1.91
406.949	1.98
407.158	1.96
407.366	2.05
407.574	1.99
407.783	1.91
407.991	1.76
408.2	1.92
408.408	1.9
408.617	1.77
408.825	1.58
409.033	1.71
409.242	1.68
409.45	1.72
409.658	1.6
409.867	1.8
410.075	1.59
410.283	1.5
410.491	1.4
410.7	1.61
410.908	1.51
411.116	1.79
411.324	1.81
411.533	1.78
411.741	1.86
411.949	1.85
412.157	1.65
412.365	1.66
412.573	1.77
412.781	1.68
412.99	1.6
413.198	1.77
413.406	1.67
413.614	1.69
413.822	1.65
414.03	1.7
414.238	1.4
414.446	1.6
414.654	1.25
414.862	1.42
415.07	1.48
415.278	1.82
415.486	1.55
415.694	1.8
415.902	1.56
416.109	1.46
416.317	1.31
416.525	1.21
416.733	1.22
416.941	1.41
417.149	1.4
417.357	1.49
417.564	1.86
417.772	2.06
417.98	1.93
418.188	1.89
418.395	1.91
418.603	1.98
418.811	1.59
419.019	1.51
419.226	1.77
419.434	1.81
419.642	1.42
419.849	1.62
420.057	1.65
420.265	1.59
420.472	1.32
420.68	1.54
420.887	1.49
421.095	1.51
421.302	1.41
421.51	1.62
421.717	1.71
421.925	1.76
422.132	1.69
422.34	1.5
422.547	1.5
422.755	1.29
422.962	1.25
423.17	1.23
423.377	1.37
423.585	1.29
423.792	1.22
423.999	1.1
424.207	1.11
424.414	1.22
424.621	1.18
424.829	1.26
425.036	1.39
425.243	1.45
425.451	1.3
425.658	1.2
425.865	1.37
426.072	1.46
426.28	1.71
426.487	1.72
426.694	1.85
426.901	1.65
427.108	1.6
427.315	1.27
427.523	1.51
427.73	1.52
427.937	1.58
428.144	1.38
428.351	1.51
428.558	1.57
428.765	1.49
428.972	1.33
429.179	1.42
429.386	1.55
429.593	1.36
429.8	1.24
430.007	1.4
430.214	1.54
430.421	1.35
430.628	1.21
430.835	1.17
431.042	1.17
431.249	1.13
431.456	1.15
431.662	1.22
431.869	1.42
432.076	1.52
432.283	1.57
432.49	1.54
432.697	1.65
432.903	1.49
433.11	1.44
433.317	1.49
433.524	1.7
433.73	1.64
433.937	1.93
434.144	1.93
434.35	1.9
434.557	1.73
434.764	1.71
434.97	1.57
435.177	1.66
435.384	1.57
435.59	1.69
435.797	1.93
436.003	1.95
436.21	1.86
436.416	1.97
436.623	1.95
436.829	2.02
437.036	2.1
437.242	2.14
437.449	2.11
437.655	2.16
437.862	2
438.068	1.97
438.275	2.1
438.481	2.24
438.687	2.18
438.894	2.16
439.1	2.13
439.307	2.19
439.513	2.03
439.719	2.06
439.926	2.11
440.132	2.15
440.338	2.01
440.544	2.08
440.751	1.97
440.957	2.01
441.163	1.95
441.369	2.03
441.575	1.9
441.782	1.96
441.988	1.85
442.194	1.83
442.4	1.84
442.606	2.1
442.812	2.1
443.018	2.22
443.224	2.26
443.431	2.4
443.637	2.15
443.843	2.13
444.049	2.18
444.255	2.22
444.461	2.11
444.667	2.17
444.873	2.3
445.079	2.18
445.284	2.23
445.49	2
445.696	1.97
445.902	1.87
446.108	1.87
446.314	1.79
446.52	1.94
446.726	2.17
446.931	2.18
447.137	2.23
447.343	2.29
447.549	2.23
447.755	2.1
447.96	2.22
448.166	2.19
448.372	2.1
448.578	2.15
448.783	2.17
448.989	2.17
449.195	2.29
449.4	2.4
449.606	2.38
449.812	2.23
450.017	2.24
450.223	2.15
450.428	2.13
450.634	2.26
450.84	2.45
451.045	2.39
451.251	2.35
451.456	2.52
451.662	2.57
451.867	2.63
452.073	2.64
452.278	2.76
452.483	2.74
452.689	2.58
452.894	2.51
453.1	2.5
453.305	2.39
453.51	2.34
453.716	2.34
453.921	2.43
454.127	2.44
454.332	2.46
454.537	2.32
454.742	2.41
454.948	2.33
455.153	2.37
455.358	2.46
455.563	2.68
455.769	2.66
455.974	2.71
456.179	2.55
456.384	2.48
456.589	2.41
456.795	2.26
457	2.18
457.205	2.45
457.41	2.44
457.615	2.42
457.82	2.55
458.025	2.61
458.23	2.45
458.435	2.45
458.64	2.37
458.845	2.47
459.05	2.5
459.255	2.45
459.46	2.56
459.665	2.57
459.87	2.51
460.075	2.49
460.28	2.6
460.485	2.58
460.69	2.57
460.895	2.54
461.099	2.51
461.304	2.62
461.509	2.62
461.714	2.65
461.919	2.77
462.123	2.6
462.328	2.56
462.533	2.48
462.738	2.66
462.942	2.57
