Data from Ofra_1a_PS_OCX4_Reflection_1.txt Node
Date: Tue Jul 20 10:38:58 EDT 2021
User: Adam
Spectrometer: FLMT01687
Trigger mode: 0
Integration Time (sec): 1.004000E0
Scans to average: 2
Electric dark correction enabled: true
Nonlinearity correction enabled: false
Boxcar width: 2
XAxis mode: Wavelengths
Number of Pixels in Spectrum: 3648
>>>>>Begin Spectral Data<<<<<
179.494	-225.38
179.716	-229.01
179.937	581.94
180.158	-672.61
180.38	108.34
180.601	13.09
180.823	-36.59
181.044	-109.09
181.265	45.82
181.486	35.77
181.708	-91.84
181.929	9600
182.15	-130.32
182.372	-94.58
182.593	-60.17
182.814	191.51
183.035	84.32
183.257	89.38
183.478	60.16
183.699	37.34
183.92	7.19
184.141	-11.3
184.363	-6.57
184.584	-69.01
184.805	-15.63
185.026	23.07
185.247	12.52
185.468	-9.19
185.689	42.01
185.91	20.61
186.132	24.5
186.353	16.97
186.574	13.56
186.795	11.05
187.016	26.31
187.237	-7.63
187.458	-19.6
187.679	-4.75
187.9	2.74
188.121	1.7
188.342	34.46
188.563	52.55
188.784	39.74
189.005	33.18
189.226	18.29
189.447	9.19
189.667	1.14
189.888	-2.24
190.109	-17.4
190.33	16.47
190.551	19.35
190.772	24.61
190.993	3.4
191.214	-25.62
191.434	-89.25
191.655	-176.34
191.876	-109.79
192.097	-38.9
192.318	37.28
192.538	18
192.759	22.79
192.98	32.52
193.201	29.01
193.421	12.79
193.642	18.19
193.863	30.85
194.083	34.37
194.304	11.89
194.525	-3.8
194.745	18.09
194.966	15.06
195.187	12.89
195.407	21.13
195.628	21.46
195.848	1
196.069	-7.82
196.29	7.88
196.51	-2.43
196.731	-7.61
196.951	2.75
197.172	1.23
197.392	-24.74
197.613	6.71
197.833	20.71
198.054	26.13
198.274	34.2
198.495	45.31
198.715	45.83
198.936	56.76
199.156	63.46
199.377	58.34
199.597	40.35
199.817	34.69
200.038	-23.71
200.258	-9.41
200.479	21.81
200.699	32.09
200.919	34
201.14	51.6
201.36	54.9
201.58	34.27
201.801	33.22
202.021	43.26
202.241	38.65
202.461	19.94
202.682	29.53
202.902	39.62
203.122	31.19
203.342	33.61
203.563	30.97
203.783	-2.02
204.003	-11.42
204.223	0.98
204.443	12.68
204.663	6.1
204.884	53.81
205.104	56.19
205.324	73.18
205.544	29.88
205.764	45.98
205.984	31.61
206.204	27.09
206.424	-1.12
206.644	8.42
206.864	-19.71
207.084	-3.44
207.304	-5.63
207.525	7.56
207.745	33.06
207.964	36.52
208.184	46.66
208.404	37.52
208.624	37.77
208.844	26.55
209.064	45.98
209.284	34.46
209.504	26.05
209.724	22.62
209.944	3.32
210.164	-8.2
210.384	-12.76
210.604	-47.64
210.823	-62.38
211.043	-46.7
211.263	-126.58
211.483	-79.9
211.703	-32.22
211.922	-37.99
212.142	-34.82
212.362	3.68
212.582	3.1
212.801	-4.77
213.021	12.94
213.241	28.71
213.461	13.55
213.68	27.61
213.9	12.86
214.12	-1.65
214.339	-11.04
214.559	8.86
214.779	3.22
214.998	24.74
215.218	40.72
215.438	39.07
215.657	6.68
215.877	-11.93
216.096	10.08
216.316	0.68
216.535	-3.93
216.755	16.87
216.974	19.48
217.194	-14.01
217.413	-9.54
217.633	-14.56
217.852	-14.71
218.072	0.61
218.291	5.39
218.511	1.73
218.73	5.13
218.95	-6.57
219.169	-17.91
219.389	-3.75
219.608	-4.71
219.827	-1.26
220.047	10.19
220.266	-7.45
220.485	-24.53
220.705	-26.72
220.924	1.2
221.143	25.92
221.363	40.69
221.582	56.61
221.801	72.79
222.021	58.29
222.24	44.44
222.459	50.62
222.678	44.18
222.897	35.47
223.117	27.98
223.336	30.1
223.555	17.84
223.774	14.98
223.993	12.25
224.213	38.34
224.432	34.66
224.651	25.15
224.87	24.9
225.089	29.3
225.308	1.8
225.527	-5.24
225.746	-1.08
225.965	3.07
226.184	-17.51
226.404	-0.2
226.623	16.18
226.842	12.74
227.061	16.19
227.28	31.91
227.499	34.29
227.718	30.7
227.936	39.38
228.155	28.24
228.374	28.12
228.593	21.24
228.812	22.32
229.031	21.35
229.25	8.43
229.469	16.73
229.688	27.17
229.907	29.59
230.125	25.04
230.344	41.06
230.563	35.14
230.782	30.78
231.001	27.42
231.22	29.3
231.438	31.51
231.657	32.28
231.876	27.83
232.095	26.01
232.313	14.36
232.532	-5.41
232.751	-28.26
232.969	-25.53
233.188	-31.39
233.407	-16.08
233.625	3.33
233.844	12.94
234.063	9.41
234.281	15.29
234.5	18.61
234.719	8.22
234.937	-6.42
235.156	5.64
235.374	-0.94
235.593	-10.42
235.811	4.84
236.03	9.48
236.249	3.62
236.467	8.68
236.686	10.41
236.904	12.39
237.123	11.86
237.341	7.71
237.559	-4.89
237.778	22.47
237.996	-12.82
238.215	-43.33
238.433	-85.82
238.652	4.66
238.87	-23.42
239.088	-1.5
239.307	9.7
239.525	33.95
239.743	18.8
239.962	7.69
240.18	10.46
240.398	6.26
240.617	2.34
240.835	-15.8
241.053	8.23
241.271	11.93
241.49	35.76
241.708	17.61
241.926	7.09
242.144	-5.78
242.363	-18.35
242.581	-70.53
242.799	-74.22
243.017	-35.38
243.235	-13.9
243.453	-27.61
243.672	-10.91
243.89	4.54
244.108	11.99
244.326	22.13
244.544	37.26
244.762	32.28
244.98	38.93
245.198	49.72
245.416	29.93
245.634	24.21
245.852	3.87
246.07	15.17
246.288	-8.06
246.506	-3.08
246.724	-7.78
246.942	8.95
247.16	6.49
247.378	4.38
247.596	45.16
247.814	30.24
248.032	37.83
248.25	33.75
248.468	42.46
248.685	25.24
248.903	24.53
249.121	24.21
249.339	18.22
249.557	12.66
249.775	18.28
249.992	34.58
250.21	27.44
250.428	37.5
250.646	35.03
250.863	24.35
251.081	26.57
251.299	29.66
251.517	22.18
251.734	15.53
251.952	27.61
252.17	17.37
252.387	2.58
252.605	0.19
252.823	-10.67
253.04	13.24
253.258	11.61
253.475	16.9
253.693	12.68
253.911	23.58
254.128	-5.89
254.346	0.36
254.563	17.72
254.781	8.13
254.998	2.02
255.216	-7.55
255.433	-26.1
255.651	-25.81
255.868	-25.75
256.086	-11.38
256.303	11.46
256.521	22.18
256.738	18.18
256.956	31.89
257.173	16.2
257.39	7.97
257.608	1.56
257.825	9.36
258.043	-2.91
258.26	0.69
258.477	6.55
258.695	12.92
258.912	-4.52
259.129	7.93
259.346	6.14
259.564	-7.12
259.781	-6.89
259.998	13.62
260.216	20.56
260.433	11.44
260.65	10
260.867	1.73
261.084	2.55
261.302	-3.94
261.519	18.83
261.736	25.05
261.953	34.63
262.17	44.74
262.387	35.97
262.604	47.36
262.822	49.8
263.039	50.61
263.256	41.56
263.473	42.19
263.69	38.16
263.907	41.97
264.124	39.6
264.341	41.42
264.558	50.57
264.775	43
264.992	34.27
265.209	15.49
265.426	-0.55
265.643	-4.96
265.86	-20.77
266.077	-15.05
266.294	28.49
266.51	45.65
266.727	44.55
266.944	48.02
267.161	47.79
267.378	40.26
267.595	16.08
267.812	11.93
268.028	-3.54
268.245	-5.75
268.462	-4.91
268.679	19.4
268.896	26.27
269.112	32.75
269.329	26.11
269.546	40.2
269.763	48.26
269.979	36.04
270.196	29.85
270.413	34.73
270.629	19.9
270.846	0.19
271.063	2.98
271.279	14.36
271.496	4.91
271.712	19.85
271.929	24.92
272.146	37.17
272.362	35.11
272.579	21.84
272.795	-0.19
273.012	-2.2
273.228	9.13
273.445	8.38
273.661	10.4
273.878	6.37
274.094	-4.29
274.311	-14.96
274.527	-33.16
274.744	-12.9
274.96	0.17
275.177	3.99
275.393	18.93
275.609	32.05
275.826	22.91
276.042	32.36
276.259	39.4
276.475	13.71
276.691	-6.51
276.908	2.54
277.124	0.18
277.34	0.42
277.557	-2.44
277.773	-9.07
277.989	-11.43
278.205	2.27
278.422	2.99
278.638	19.09
278.854	31.96
279.07	33.53
279.286	19.93
279.503	18.38
279.719	9.83
279.935	-2.65
280.151	-8.66
280.367	4.81
280.583	-9.98
280.799	-4.54
281.016	-22.89
281.232	-12.5
281.448	-20.65
281.664	-1.33
281.88	15.58
282.096	36.59
282.312	28.91
282.528	16.38
282.744	13.85
282.96	-6.95
283.176	-39.84
283.392	-49.82
283.608	-3.1
283.824	3.37
284.04	-6.1
284.256	9.97
284.471	16.72
284.687	5.36
284.903	7.06
285.119	15.84
285.335	35.31
285.551	42.22
285.767	46.92
285.982	48.48
286.198	33.51
286.414	-15.73
286.63	-29.56
286.846	1.69
287.061	18.73
287.277	22.36
287.493	30.12
287.709	34.92
287.924	38.79
288.14	35.33
288.356	49.68
288.571	49.19
288.787	33.38
289.003	26.08
289.218	9.13
289.434	-9.88
289.65	-4.96
289.865	5.8
290.081	3.98
290.296	8.93
290.512	23.26
290.727	10.11
290.943	10.93
291.159	7.81
291.374	-12.07
291.59	-11.41
291.805	-12.66
292.021	-12.18
292.236	-1.67
292.451	18.3
292.667	15.49
292.882	31.18
293.098	33.39
293.313	23.17
293.529	28.86
293.744	17.82
293.959	11.61
294.175	19.17
294.39	16.6
294.605	21.45
294.821	16.4
295.036	19.27
295.251	23.63
295.467	25.7
295.682	27.45
295.897	30.03
296.112	27.83
296.328	29.77
296.543	24.1
296.758	14.55
296.973	12.79
297.188	10.66
297.404	-21.36
297.619	-26.68
297.834	-49.82
298.049	-13.54
298.264	-6.88
298.479	-14.6
298.694	8.67
298.909	15.81
299.125	-4.25
299.34	-3.44
299.555	11.91
299.77	21.96
299.985	16.77
300.2	25.29
300.415	26.18
300.63	22.14
300.845	0.45
301.06	-1.9
301.275	-2
301.49	-5.9
301.704	-6.32
301.919	-2.85
302.134	12.32
302.349	7.68
302.564	10.29
302.779	9.05
302.994	24.63
303.209	32.81
303.423	34.97
303.638	46.75
303.853	32.72
304.068	14.77
304.283	-2.9
304.497	-12.22
304.712	-9.81
304.927	7.78
305.142	19.89
305.356	33.05
305.571	33.57
305.786	32.12
306	39.56
306.215	40.23
306.43	36.42
306.644	30.2
306.859	21.24
307.074	18.81
307.288	17.61
307.503	21.55
307.717	26.98
307.932	38.86
308.147	33.2
308.361	22.44
308.576	11.54
308.79	21.88
309.005	10.64
309.219	16.03
309.434	13.69
309.648	1
309.863	-14.94
310.077	-13.68
310.292	8.15
310.506	18.09
310.72	31.55
310.935	35.25
311.149	35.2
311.364	22.62
311.578	22.05
311.792	29.22
312.007	30.43
312.221	23.07
312.435	7.71
312.649	27.18
312.864	20.54
313.078	27.19
313.292	35.05
313.507	53
313.721	35.08
313.935	40.07
314.149	35.38
314.363	28.75
314.578	34.35
314.792	13.87
315.006	10.87
315.22	17.67
315.434	20.07
315.648	0.36
315.862	24.91
316.077	13.79
316.291	3.7
316.505	-11.16
316.719	0.84
316.933	-6.89
317.147	-4.91
317.361	5.54
317.575	21.3
317.789	23.97
318.003	23.09
318.217	43.91
318.431	29
318.645	16.97
318.859	17.92
319.073	34.09
319.287	21.9
319.5	31.91
319.714	19.2
319.928	17.19
320.142	-3.18
320.356	-2.03
320.57	-34.95
320.784	-8.17
320.997	-24.26
321.211	-0.7
321.425	-3.13
321.639	31.21
321.853	35.13
322.066	24.68
322.28	22.09
322.494	20.69
322.707	13.16
322.921	2.16
323.135	22.64
323.349	9.52
323.562	18.43
323.776	20.15
323.989	25.37
324.203	10.74
324.417	20.14
324.63	20.1
324.844	17.57
325.057	6.82
325.271	20.64
325.485	17.72
325.698	11.75
325.912	24.06
326.125	16.84
326.339	19.25
326.552	14.22
326.766	-5
326.979	-13.44
327.193	6.19
327.406	-0.38
327.619	7.74
327.833	11.73
328.046	14.82
328.26	2.11
328.473	0.95
328.686	2.67
328.9	19.67
329.113	11.91
329.326	8.5
329.54	13.04
329.753	20.23
329.966	10.37
330.179	20.2
330.393	28.82
330.606	25.16
330.819	11.04
331.032	24.46
331.246	15.4
331.459	28.73
331.672	28.28
331.885	39.51
332.098	36.44
332.311	37.24
332.525	27.04
332.738	36.02
332.951	28
333.164	33.25
333.377	32.59
333.59	13.38
333.803	17.96
334.016	25.77
334.229	6.39
334.442	-4.39
334.655	9.64
334.868	-5.69
335.081	-5.71
335.294	-12.38
335.507	10.36
335.72	9.41
335.933	17.9
336.146	10.34
336.359	28.45
336.572	14.1
336.785	2.39
336.997	-6.51
337.21	-2.4
337.423	-31.34
337.636	-21.33
337.849	0.96
338.062	-1.98
338.274	17.81
338.487	13.9
338.7	8.1
338.913	14.24
339.125	26.57
339.338	14.56
339.551	22.13
339.763	15.93
339.976	12.33
340.189	5.58
340.402	8.24
340.614	15.03
340.827	34.06
341.039	38.69
341.252	36.55
341.465	25.5
341.677	22.44
341.89	6.73
342.102	6.25
342.315	-5.47
342.527	-5.7
342.74	-7.4
342.952	-3.68
343.165	-11.49
343.377	-1.6
343.59	-3.7
343.802	-21.76
344.015	-4.64
344.227	-7.56
344.44	-12.14
344.652	-7.57
344.864	17.35
345.077	7.77
345.289	18.06
345.502	31.37
345.714	35.18
345.926	27.37
346.139	28.19
346.351	22.6
346.563	29.85
346.775	32.1
346.988	41.63
347.2	36.2
347.412	33.49
347.624	16.89
347.837	18.12
348.049	3.87
348.261	-4.89
348.473	-9.59
348.685	-3.28
348.897	-19.2
349.11	-18.31
349.322	-9.57
349.534	-0.16
349.746	5.12
349.958	1.53
350.17	-0.78
350.382	9.42
350.594	6.11
350.806	16.51
351.018	20.65
351.23	28.04
351.442	31.99
351.654	18.38
351.866	6.23
352.078	21.52
352.29	11.46
352.502	4.35
352.714	26.56
352.926	22.96
353.138	16.74
353.35	20.78
353.561	28.16
353.773	21.03
353.985	20.86
354.197	16.98
354.409	23.33
354.621	8.25
354.832	8.04
355.044	-1.63
355.256	4.4
355.468	-4.53
355.679	13.57
355.891	21.59
356.103	22.39
356.314	3.64
356.526	-10.49
356.738	-19.57
356.949	-28.86
357.161	-6.17
357.373	16.22
357.584	32.17
357.796	33.37
358.008	38.43
358.219	23.79
358.431	7.25
358.642	-0.54
358.854	-1.18
359.065	-19.37
359.277	-7.79
359.488	-8.98
359.7	-17.18
359.911	-29.66
360.123	-7.04
360.334	-25.18
360.546	-8.06
360.757	9.75
360.969	21.33
361.18	24.75
361.391	36.01
361.603	31.86
361.814	35.39
362.025	41.09
362.237	32.58
362.448	31.4
362.659	27.18
362.871	13.04
363.082	1.08
363.293	-11.73
363.504	-24.33
363.716	-16.11
363.927	5.34
364.138	-24.2
364.349	-17.35
364.56	-14.92
364.772	-3.74
364.983	-14.17
365.194	17.22
365.405	26.22
365.616	31.56
365.827	21.24
366.038	36.23
366.25	28.49
366.461	25.44
366.672	30.41
366.883	24.27
367.094	20.92
367.305	12.13
367.516	5.75
367.727	-4.92
367.938	10.62
368.149	1.06
368.36	1.3
368.571	-0.19
368.781	-12.95
368.992	-21.54
369.203	-13.52
369.414	-7.84
369.625	-7.2
369.836	11.88
370.047	15.63
370.258	13.74
370.468	11.32
370.679	16.85
370.89	1.32
371.101	9.23
371.312	1.46
371.522	-2.73
371.733	-0.14
371.944	-2.17
372.155	-4.11
372.365	18.09
372.576	22.66
372.787	16.95
372.997	23.15
373.208	5.59
373.419	-10.71
373.629	-9.63
373.84	-7.74
374.05	-12.6
374.261	-0.32
374.472	14.61
374.682	14.39
374.893	16.87
375.103	27.46
375.314	28.42
375.524	30.34
375.735	45.96
375.945	37.03
376.156	35.4
376.366	42.26
376.577	29.98
376.787	15.54
376.997	26.66
377.208	22.62
377.418	19
377.629	23.16
377.839	24.61
378.049	16.49
378.26	6.72
378.47	-8.02
378.68	-6.56
378.89	1.99
379.101	11.19
379.311	23.24
379.521	26.51
379.732	25.72
379.942	21.34
380.152	13.75
380.362	12.47
380.572	24.25
380.783	24.8
380.993	18.44
381.203	13.21
381.413	11.51
381.623	-0.18
381.833	1.63
382.043	-3.17
382.253	5.88
382.463	15.77
382.674	17.56
382.884	24.2
383.094	19.98
383.304	21.68
383.514	18.15
383.724	15.65
383.934	-0.58
384.144	7.98
384.353	5.84
384.563	3.99
384.773	6.18
384.983	8.14
385.193	2.87
385.403	3.61
385.613	1.42
385.823	0.96
386.033	-1.35
386.242	-1.88
386.452	-12.74
386.662	-10.18
386.872	-1.66
387.082	4.1
387.291	4.58
387.501	9.91
387.711	10.06
387.921	2.36
388.13	4.16
388.34	2.73
388.55	3.21
388.759	-4.62
388.969	-1.58
389.179	-2.24
389.388	-1.92
389.598	-4.39
389.807	-0.14
390.017	-0.44
390.227	-1.62
390.436	0.36
390.646	1.91
390.855	2.77
391.065	1.65
391.274	3.01
391.484	2.2
391.693	-1.54
391.903	-1.69
392.112	-1.73
392.322	-3.77
392.531	-3.39
392.74	-0.86
392.95	0.16
393.159	-0.11
393.369	1.55
393.578	1.35
393.787	3.06
393.997	2.41
394.206	1.56
394.415	2
394.625	1.4
394.834	0.11
395.043	0.91
395.252	3.76
395.462	3.29
395.671	3.28
395.88	5.06
396.089	4.94
396.298	3.18
396.508	2.81
396.717	3.17
396.926	1.83
397.135	2.47
397.344	2.41
397.553	2.4
397.762	3.14
397.971	2.72
398.181	1.45
398.39	1.57
398.599	1.76
398.808	1.78
399.017	2.85
399.226	3.76
399.435	3.84
399.644	3.97
399.853	3.74
400.062	3.21
400.27	2.58
400.479	2.77
400.688	2.68
400.897	2.72
401.106	2.45
401.315	2.45
401.524	2.52
401.733	2.11
401.941	2.1
402.15	2.16
402.359	2.41
402.568	2.23
402.777	2.68
402.985	2.43
403.194	2.49
403.403	2.64
403.612	2.62
403.82	2.36
404.029	2.54
404.238	2.6
404.446	2.56
404.655	2.65
404.864	2.79
405.072	2.7
405.281	2.63
405.489	2.61
405.698	2.65
405.906	2.82
406.115	2.81
406.324	2.89
406.532	2.76
406.741	2.65
406.949	2.48
407.158	2.54
407.366	2.29
407.574	2.36
407.783	2.39
407.991	2.35
408.2	2.38
408.408	2.6
408.617	2.54
408.825	2.42
409.033	2.44
409.242	2.41
409.45	2.34
409.658	2.32
409.867	2.4
410.075	2.41
410.283	2.27
410.491	2.17
410.7	2.18
410.908	2.27
411.116	2.34
411.324	2.51
411.533	2.48
411.741	2.42
411.949	2.32
412.157	2.06
412.365	1.94
412.573	2
412.781	2.04
412.99	2.04
413.198	2.14
413.406	2.27
413.614	2.39
413.822	2.51
414.03	2.55
414.238	2.67
414.446	2.63
414.654	2.53
414.862	2.39
415.07	2.28
415.278	2.28
415.486	2.13
415.694	2.28
415.902	2.31
416.109	2.33
416.317	2.29
416.525	2.36
416.733	2.2
416.941	2.19
417.149	2.17
417.357	2.2
417.564	2.25
417.772	2.42
417.98	2.5
418.188	2.49
418.395	2.27
418.603	2.11
418.811	1.92
419.019	1.83
419.226	1.96
419.434	2.09
419.642	2.21
419.849	2.13
420.057	2.11
420.265	2.05
420.472	2.09
420.68	2.13
420.887	2.32
421.095	2.38
421.302	2.4
421.51	2.27
421.717	2.28
421.925	2.2
422.132	2.24
422.34	1.95
422.547	1.9
422.755	1.99
422.962	2.11
423.17	1.94
423.377	2.13
423.585	2.35
423.792	2.16
423.999	2
424.207	1.92
424.414	1.99
424.621	1.86
424.829	1.86
425.036	1.87
425.243	2.09
425.451	2.06
425.658	2.12
425.865	2.08
426.072	2.14
426.28	2.12
426.487	2.1
426.694	2.05
426.901	2.19
427.108	2.09
427.315	1.97
427.523	1.87
427.73	1.85
427.937	1.71
428.144	1.8
428.351	1.79
428.558	1.85
428.765	1.97
428.972	2
429.179	1.75
429.386	1.92
429.593	1.84
429.8	1.81
430.007	1.86
430.214	2.03
430.421	2
430.628	2.05
430.835	1.99
431.042	1.9
431.249	1.95
431.456	1.88
431.662	1.98
431.869	2.03
432.076	2.07
432.283	2.09
432.49	2.04
432.697	2
432.903	1.93
433.11	2.09
433.317	2.07
433.524	2.09
433.73	2.03
433.937	2.14
434.144	1.92
434.35	1.95
434.557	2.06
434.764	2.17
434.97	2
435.177	2.21
435.384	2.22
435.59	2.21
435.797	2.21
436.003	2.39
436.21	2.24
436.416	2.25
436.623	2.34
436.829	2.3
437.036	2.22
437.242	2.26
437.449	2.22
437.655	2.15
437.862	2.15
438.068	2.09
438.275	2.28
438.481	2.29
438.687	2.22
438.894	2.37
439.1	2.36
439.307	2.32
439.513	2.34
439.719	2.48
439.926	2.41
440.132	2.53
440.338	2.48
440.544	2.43
440.751	2.32
440.957	2.36
441.163	2.34
441.369	2.3
441.575	2.28
441.782	2.36
441.988	2.35
442.194	2.33
442.4	2.34
442.606	2.5
442.812	2.48
443.018	2.39
443.224	2.44
443.431	2.45
443.637	2.39
443.843	2.4
444.049	2.51
444.255	2.55
444.461	2.47
444.667	2.43
444.873	2.45
445.079	2.36
445.284	2.38
445.49	2.44
445.696	2.43
445.902	2.34
446.108	2.41
446.314	2.4
446.52	2.43
446.726	2.5
446.931	2.53
447.137	2.55
447.343	2.56
447.549	2.59
447.755	2.64
447.96	2.72
448.166	2.78
448.372	2.78
448.578	2.69
448.783	2.6
448.989	2.6
449.195	2.46
449.4	2.48
449.606	2.48
449.812	2.42
450.017	2.39
450.223	2.45
450.428	2.36
450.634	2.4
450.84	2.46
451.045	2.52
451.251	2.55
451.456	2.66
451.662	2.68
451.867	2.73
452.073	2.75
452.278	2.78
452.483	2.7
452.689	2.74
452.894	2.77
453.1	2.67
453.305	2.67
453.51	2.73
453.716	2.73
453.921	2.7
454.127	2.73
454.332	2.69
454.537	2.61
454.742	2.54
454.948	2.49
455.153	2.48
455.358	2.47
455.563	2.58
455.769	2.59
455.974	2.61
456.179	2.6
456.384	2.54
456.589	2.41
456.795	2.47
457	2.44
457.205	2.45
457.41	2.49
457.615	2.5
457.82	2.52
458.025	2.52
458.23	2.55
458.435	2.57
458.64	2.65
458.845	2.6
459.05	2.7
459.255	2.71
459.46	2.67
459.665	2.63
459.87	2.61
460.075	2.64
460.28	2.72
460.485	2.76
460.69	2.73
460.895	2.84
461.099	2.7
461.304	2.56
461.509	2.57
461.714	2.69
461.919	2.59
462.123	2.61
462.328	2.54
462.533	2.5
462.738	2.36
462.942	2.36
463.147	2.43
463.352	2.5
463.556	2.52
463.761	2.59
463.966	2.55
464.17	2.58
464.375	2.72
464.58	2.68
464.784	2.69
464.989	2.75
465.193	2.71
465.398	2.64
465.602	2.75
465.807	2.86
466.011	2.87
466.216	2.87
466.42	2.93
466.625	2.98
466.829	2.86
467.034	2.97
467.238	3.07
467.443	3.04
467.647	2.94
467.851	2.99
468.056	2.94
468.26	2.89
468.464	2.94
468.669	3.02
468.873	3.04
469.077	3.03
