Data from Ofra_PS_T2_2A_1GT36_Reflection_1.txt Node
Date: Wed Jul 21 16:53:10 EDT 2021
User: Adam
Spectrometer: FLMT01687
Trigger mode: 0
Integration Time (sec): 1.100000E0
Scans to average: 2
Electric dark correction enabled: true
Nonlinearity correction enabled: false
Boxcar width: 2
XAxis mode: Wavelengths
Number of Pixels in Spectrum: 3648
>>>>>Begin Spectral Data<<<<<
179.494	352.6
179.716	396.47
179.937	408.01
180.158	387.44
180.38	681.72
180.601	387.15
180.823	164.64
181.044	49.17
181.265	270.4
181.486	116.29
181.708	72.46
181.929	46.43
182.15	-116.55
182.372	76.44
182.593	133.19
182.814	33.78
183.035	22.13
183.257	35.89
183.478	6.01
183.699	4.89
183.92	31.53
184.141	39.75
184.363	15.28
184.584	22.79
184.805	32.47
185.026	28.91
185.247	34.83
185.468	27.9
185.689	35.25
185.91	39.59
186.132	48.92
186.353	37.37
186.574	78.46
186.795	75.88
187.016	37.51
187.237	37.13
187.458	60.01
187.679	31.75
187.9	35.63
188.121	51
188.342	52.87
188.563	56.4
188.784	87.12
189.005	80.18
189.226	106.26
189.447	128.15
189.667	171
189.888	0.62
190.109	-220.45
190.33	-136.61
190.551	-389.16
190.772	-46.91
190.993	-3.28
191.214	42.19
191.434	-15.82
191.655	48.01
191.876	56.17
192.097	27.49
192.318	-3.43
192.538	88.34
192.759	-36.88
192.98	18.42
193.201	20.82
193.421	40.89
193.642	37.46
193.863	43.35
194.083	25.24
194.304	13.88
194.525	3.75
194.745	-30.42
194.966	-16.11
195.187	-13.05
195.407	5.59
195.628	-32.61
195.848	-16.28
196.069	-13.03
196.29	-11.9
196.51	-18.21
196.731	13.65
196.951	38.52
197.172	48.56
197.392	54.6
197.613	59.48
197.833	-2.78
198.054	-22.75
198.274	-2.06
198.495	-18.69
198.715	6.51
198.936	4.8
199.156	16.66
199.377	-42.7
199.597	-47.71
199.817	-83.75
200.038	-49.5
200.258	-78.11
200.479	-33.61
200.699	-5.08
200.919	41.14
201.14	48.64
201.36	22.58
201.58	46.33
201.801	50.65
202.021	28.37
202.241	28.56
202.461	32.09
202.682	-43.88
202.902	-77.23
203.122	-28.74
203.342	-10.4
203.563	23.58
203.783	42
204.003	25.23
204.223	18.36
204.443	40.87
204.663	8.94
204.884	23.13
205.104	46.36
205.324	72.45
205.544	60.32
205.764	71.32
205.984	86.65
206.204	79.73
206.424	66.55
206.644	68.89
206.864	76.69
207.084	58.94
207.304	67.82
207.525	14.45
207.745	-5.39
207.964	32.79
208.184	-25.75
208.404	-31.69
208.624	-21.25
208.844	-11.98
209.064	-251.32
209.284	-145.79
209.504	-101.08
209.724	10.54
209.944	6.82
210.164	24.78
210.384	14.1
210.604	21.01
210.823	-23.15
211.043	-20.42
211.263	13.3
211.483	21.86
211.703	10.12
211.922	39.16
212.142	66.19
212.362	51.68
212.582	30.51
212.801	28.73
213.021	5.22
213.241	-0.16
213.461	-24.29
213.68	-17.28
213.9	-57.04
214.12	-39.52
214.339	-84.35
214.559	-42.03
214.779	-4.8
214.998	32.4
215.218	20.02
215.438	50.52
215.657	35.88
215.877	29.19
216.096	54.76
216.316	62.34
216.535	54.94
216.755	61.28
216.974	74.64
217.194	38.72
217.413	10.21
217.633	19.3
217.852	-21.07
218.072	-0.77
218.291	-0.59
218.511	30.96
218.73	-10.53
218.95	-7.57
219.169	-19.24
219.389	-34.36
219.608	-18.04
219.827	0.8
220.047	24.34
220.266	42.24
220.485	47.25
220.705	45.86
220.924	37.05
221.143	52.03
221.363	40.49
221.582	54.35
221.801	51.69
222.021	71.54
222.24	49.2
222.459	94.19
222.678	35.19
222.897	19.66
223.117	-43.74
223.336	-14.04
223.555	-27.48
223.774	16.18
223.993	16.85
224.213	24.67
224.432	12.26
224.651	42.2
224.87	18.44
225.089	32.22
225.308	31.44
225.527	50.61
225.746	51.77
225.965	50.39
226.184	22.42
226.404	46.12
226.623	17.3
226.842	12.58
227.061	22.73
227.28	38.7
227.499	38.4
227.718	42.86
227.936	50.79
228.155	67.13
228.374	59.09
228.593	45.27
228.812	50.24
229.031	25.16
229.25	-10.98
229.469	-17.42
229.688	-38.05
229.907	14.03
230.125	39.3
230.344	40.28
230.563	51.47
230.782	70.63
231.001	12.91
231.22	3.36
231.438	29.45
231.657	37.13
231.876	24.31
232.095	50.27
232.313	57.01
232.532	62.92
232.751	46.93
232.969	50.77
233.188	19.24
233.407	38.87
233.625	28.85
233.844	17.54
234.063	25.83
234.281	41.33
234.5	32.97
234.719	36.77
234.937	51.74
235.156	56.68
235.374	50.46
235.593	45.81
235.811	50.5
236.03	29.45
236.249	6.92
236.467	11.73
236.686	24.96
236.904	27.94
237.123	4
237.341	4.16
237.559	12.61
237.778	8.13
237.996	-23.24
238.215	37.51
238.433	44.73
238.652	45.63
238.87	30.32
239.088	42.49
239.307	35.67
239.525	42.62
239.743	22.67
239.962	45.11
240.18	22.02
240.398	-4.52
240.617	-17.43
240.835	16.17
241.053	29.29
241.271	79.42
241.49	77.76
241.708	81.58
241.926	59.47
242.144	42.94
242.363	-3.61
242.581	-58.89
242.799	-31.27
243.017	0.89
243.235	-8.6
243.453	8.07
243.672	15.72
243.89	14.55
244.108	13.2
244.326	27.66
244.544	26.04
244.762	37.01
244.98	35.16
245.198	25
245.416	8.64
245.634	10.72
245.852	14.5
246.07	24.85
246.288	31.35
246.506	27.66
246.724	26.59
246.942	23.66
247.16	34.33
247.378	58.58
247.596	50.12
247.814	28.09
248.032	12.85
248.25	23.99
248.468	4.37
248.685	27.45
248.903	53.03
249.121	55.99
249.339	17.93
249.557	22.01
249.775	6.43
249.992	-28.87
250.21	-28.7
250.428	-5.88
250.646	-30.74
250.863	-24.67
251.081	1.93
251.299	18.4
251.517	18.67
251.734	14.98
251.952	-1.4
252.17	-6.6
252.387	-8.84
252.605	-10.34
252.823	-4.31
253.04	8.75
253.258	26.91
253.475	30.78
253.693	58.63
253.911	51.79
254.128	61.14
254.346	45.06
254.563	29.27
254.781	4.88
254.998	10.62
255.216	1.16
255.433	16.7
255.651	58.27
255.868	62.64
256.086	84.95
256.303	77.17
256.521	52.47
256.738	24.83
256.956	9.52
257.173	-20.41
257.39	-35.5
257.608	-36.1
257.825	6.69
258.043	35.62
258.26	49.19
258.477	78.51
258.695	69.33
258.912	49.9
259.129	43.47
259.346	-0.31
259.564	-20.16
259.781	-17.76
259.998	14.45
260.216	30.62
260.433	74.58
260.65	65.9
260.867	72.75
261.084	48.32
261.302	31.44
261.519	31.62
261.736	17.19
261.953	-11.98
262.17	20.45
262.387	8.12
262.604	-34.29
262.822	-29.32
263.039	-10.21
263.256	-26.94
263.473	11.58
263.69	29.38
263.907	36.35
264.124	48.24
264.341	37.64
264.558	30.52
264.775	37.9
264.992	33.44
265.209	22.89
265.426	39.4
265.643	29.64
265.86	35.04
266.077	26.79
266.294	42.96
266.51	22.52
266.727	23.31
266.944	30.84
267.161	30.07
267.378	22.1
267.595	44.4
267.812	32.53
268.028	25.19
268.245	34.25
268.462	5.02
268.679	-7.82
268.896	31.87
269.112	30.2
269.329	29.29
269.546	43.43
269.763	47.29
269.979	31.17
270.196	21.89
270.413	5.01
270.629	-9.83
270.846	-28.83
271.063	-33.13
271.279	-34.62
271.496	-2.9
271.712	23.37
271.929	42.54
272.146	50.95
272.362	54.11
272.579	44.28
272.795	53.86
273.012	64.86
273.228	86.13
273.445	71.21
273.661	68.79
273.878	28.59
274.094	16.04
274.311	-25.61
274.527	9.72
274.744	0.08
274.96	-2.3
275.177	4.03
275.393	23.97
275.609	32.31
275.826	54.86
276.042	59.87
276.259	46.58
276.475	54.09
276.691	38.46
276.908	21.17
277.124	33.87
277.34	29.35
277.557	8.28
277.773	12.55
277.989	7.66
278.205	4.68
278.422	28.29
278.638	30.74
278.854	44.96
279.07	49.63
279.286	38.98
279.503	7.04
279.719	-3.54
279.935	-24.32
280.151	-25.84
280.367	-5.98
280.583	-4.9
280.799	10.29
281.016	-14.05
281.232	7.19
281.448	-11.7
281.664	1.79
281.88	-24.74
282.096	5.61
282.312	29.01
282.528	48.17
282.744	60.73
282.96	59.8
283.176	43.98
283.392	24.33
283.608	28.56
283.824	21.51
284.04	18.09
284.256	26.43
284.471	16.33
284.687	2.76
284.903	36.09
285.119	62.26
285.335	53.36
285.551	75.61
285.767	71.68
285.982	44.65
286.198	21.29
286.414	40.52
286.63	38.86
286.846	43.19
287.061	27.98
287.277	39.43
287.493	23.74
287.709	30.79
287.924	25.29
288.14	52.96
288.356	53.54
288.571	70.09
288.787	50.82
289.003	51.01
289.218	33.95
289.434	5.8
289.65	0.8
289.865	-2.56
290.081	9.26
290.296	1.16
290.512	32.56
290.727	-5.58
290.943	-1.66
291.159	-8.78
291.374	-10.7
291.59	-24.85
291.805	-0.26
292.021	17.43
292.236	26.72
292.451	46.59
292.667	40.3
292.882	52.48
293.098	37.25
293.313	27.96
293.529	5.93
293.744	1.74
293.959	-3.7
294.175	5.67
294.39	17.45
294.605	22.12
294.821	33.9
295.036	29.47
295.251	33.07
295.467	23.3
295.682	26.25
295.897	-5.98
296.112	-1.67
296.328	-0.33
296.543	13.2
296.758	0.33
296.973	32.33
297.188	42.5
297.404	24.75
297.619	9.5
297.834	-5.52
298.049	-8.27
298.264	-19.8
298.479	15.86
298.694	16.11
298.909	42
299.125	34.36
299.34	29.1
299.555	7.78
299.77	12.27
299.985	-14.37
300.2	-36.31
300.415	-30.92
300.63	-10.14
300.845	-17.48
301.06	-10.24
301.275	-1.36
301.49	15.71
301.704	7.69
301.919	4.19
302.134	-8.57
302.349	-17.84
302.564	-86.49
302.779	-107.67
302.994	-129.58
303.209	-63.39
303.423	-25.4
303.638	33.09
303.853	12.03
304.068	12.31
304.283	16.94
304.497	23.07
304.712	8.04
304.927	11.42
305.142	13.41
305.356	0.22
305.571	-4.95
305.786	-0.76
306	-8.45
306.215	11.19
306.43	18.85
306.644	26.78
306.859	41.27
307.074	44.09
307.288	13.76
307.503	10.06
307.717	9.76
307.932	4.33
308.147	0.77
308.361	12.72
308.576	7.33
308.79	-29.52
309.005	-17.41
309.219	5.27
309.434	1.48
309.648	1.55
309.863	17.53
310.077	21.21
310.292	13.6
310.506	17.35
310.72	31.6
310.935	52.26
311.149	47.1
311.364	49.55
311.578	58.04
311.792	53.91
312.007	53.02
312.221	37.28
312.435	42.6
312.649	29.42
312.864	46.97
313.078	38.72
313.292	96.36
313.507	80.61
313.721	73.44
313.935	53.1
314.149	50.88
314.363	39.9
314.578	36.29
314.792	41.33
315.006	37.63
315.22	38.24
315.434	32.6
315.648	43.37
315.862	38.77
316.077	21.54
316.291	5.19
316.505	27.48
316.719	17.04
316.933	14.26
317.147	18.88
317.361	-1.99
317.575	-46.85
317.789	-49.23
318.003	-95.38
318.217	-87.71
318.431	-11.74
318.645	29.56
318.859	29.29
319.073	50.24
319.287	54.94
319.5	25.89
319.714	-7.03
319.928	-37.29
320.142	-50.43
320.356	-12.43
320.57	24.03
320.784	11.94
320.997	-4.97
321.211	-24.82
321.425	-51.56
321.639	-73.97
321.853	-21.64
322.066	3.57
322.28	10.4
322.494	-3
322.707	9.62
322.921	4.44
323.135	8.09
323.349	36.93
323.562	29.7
323.776	30.84
323.989	43.49
324.203	24.85
324.417	-6.21
324.63	-5.97
324.844	5.69
325.057	11.81
325.271	34.21
325.485	49.65
325.698	66.76
325.912	54.22
326.125	29.86
326.339	22.62
326.552	-13.02
326.766	-10.67
326.979	11.89
327.193	45.83
327.406	42.66
327.619	36.18
327.833	38.11
328.046	11.8
328.26	-19.76
328.473	-1.53
328.686	-10.05
328.9	-12.37
329.113	14.89
329.326	-17.28
329.54	-7.46
329.753	7.16
329.966	13.76
330.179	22.96
330.393	36.36
330.606	36.08
330.819	40.86
331.032	48.38
331.246	38.95
331.459	56.26
331.672	48.66
331.885	46.54
332.098	19.07
332.311	5.98
332.525	-34.03
332.738	-30.77
332.951	-14.95
333.164	13.41
333.377	17.69
333.59	39.18
333.803	42.24
334.016	37.49
334.229	38.38
334.442	57.4
334.655	66.16
334.868	77.14
335.081	71.04
335.294	59.1
335.507	44.84
335.72	43.21
335.933	26.37
336.146	25
336.359	11.49
336.572	5.58
336.785	-25.24
336.997	-3.28
337.21	9.73
337.423	24.65
337.636	25.4
337.849	39.66
338.062	23.3
338.274	10.06
338.487	13.97
338.7	20.62
338.913	-7.07
339.125	-15.22
339.338	-35.86
339.551	-29.57
339.763	0.1
339.976	16.31
340.189	34.84
340.402	29.32
340.614	20.29
340.827	17.01
341.039	25.71
341.252	23.5
341.465	33.31
341.677	45.96
341.89	9.11
342.102	26.13
342.315	4.38
342.527	-4.86
342.74	-2.77
342.952	33.13
343.165	13.76
343.377	34.97
343.59	33.64
343.802	32.86
344.015	23.52
344.227	29.6
344.44	34.15
344.652	48.28
344.864	39.44
345.077	48.71
345.289	53.1
345.502	47.27
345.714	40.38
345.926	48.13
346.139	48.37
346.351	37.7
346.563	48.7
346.775	39.81
346.988	24.55
347.2	18.4
347.412	-5.9
347.624	-22.02
347.837	-17.49
348.049	16.98
348.261	23.05
348.473	32.5
348.685	29.19
348.897	26.27
349.11	3.5
349.322	-14.66
349.534	8.82
349.746	11.7
349.958	16.77
350.17	14.03
350.382	18.42
350.594	5.79
350.806	4.65
351.018	9.65
351.23	1.7
351.442	-5.24
351.654	-8.77
351.866	3.64
352.078	1.53
352.29	11.71
352.502	13.86
352.714	27.34
352.926	13.67
353.138	9.75
353.35	7.6
353.561	20.94
353.773	4.56
353.985	18.12
354.197	15.03
354.409	8.87
354.621	-10.46
354.832	0.67
355.044	-1.13
355.256	-1.05
355.468	21.78
355.679	25.6
355.891	35.24
356.103	20.55
356.314	35.03
356.526	35.6
356.738	38.73
356.949	42.79
357.161	40.95
357.373	31.48
357.584	10.56
357.796	16.09
358.008	4.44
358.219	21.15
358.431	11.92
358.642	20.18
358.854	11.05
359.065	10.99
359.277	-6.07
359.488	-2.44
359.7	-8.32
359.911	-20.08
360.123	-8.65
360.334	-21.35
360.546	-17.54
360.757	-16.29
360.969	0.67
361.18	-1.82
361.391	28.23
361.603	4.21
361.814	21.37
362.025	23.24
362.237	16.26
362.448	5.54
362.659	29.67
362.871	17.76
363.082	13.74
363.293	12.78
363.504	1.8
363.716	-16.28
363.927	-21.04
364.138	-26.62
364.349	-20.34
364.56	-10.26
364.772	-1.19
364.983	15.38
365.194	26.45
365.405	29.35
365.616	42.15
365.827	42.17
366.038	18.07
366.25	6.9
366.461	-12.37
366.672	-9.66
366.883	-3.23
367.094	13.79
367.305	10.57
367.516	11.63
367.727	-3.78
367.938	0.95
368.149	7.28
368.36	11.46
368.571	26.43
368.781	18.23
368.992	-0.47
369.203	-21.22
369.414	-37.08
369.625	-65.2
369.836	-55.48
370.047	-60.89
370.258	-46.48
370.468	-44.6
370.679	-36.35
370.89	-24.78
371.101	-17.55
371.312	-13.24
371.522	5.67
371.733	9.24
371.944	14.52
372.155	22.73
372.365	14.29
372.576	9.39
372.787	4.24
372.997	-11.22
373.208	-7.62
373.419	14.43
373.629	-3.73
373.84	-1.06
374.05	-7.9
374.261	-5.34
374.472	-20.91
374.682	6.51
374.893	6.3
375.103	40.1
375.314	33.67
375.524	33.32
375.735	37.43
375.945	49.77
376.156	26.25
376.366	23.2
376.577	23.57
376.787	10.74
376.997	0.18
377.208	1.78
377.418	10.5
377.629	15.78
377.839	26.14
378.049	23.38
378.26	28.11
378.47	19.41
378.68	11.04
378.89	2.25
379.101	3.73
379.311	-3.95
379.521	-9.83
379.732	-1.51
379.942	-8.38
380.152	-25.14
380.362	-11.17
380.572	-1.07
380.783	8.68
380.993	17.2
381.203	27.55
381.413	34.11
381.623	28.66
381.833	25.31
382.043	20.61
382.253	15.48
382.463	4.56
382.674	-6.39
382.884	-25.26
383.094	-15.56
383.304	-6.84
383.514	2.19
383.724	19.41
383.934	21.02
384.144	8.99
384.353	0.22
384.563	-2.39
384.773	-6.57
384.983	-11.82
385.193	8.21
385.403	13.02
385.613	10.43
385.823	2.08
386.033	10.11
386.242	-0.39
386.452	-0.61
386.662	-9.64
386.872	5.29
387.082	-1.26
387.291	-1.83
387.501	-4.72
387.711	5.95
387.921	-0.82
388.13	2.92
388.34	11.11
388.55	9.01
388.759	7.35
388.969	10.04
389.179	7.1
389.388	0.48
389.598	3.27
389.807	-3.59
390.017	-6.97
390.227	-2.15
390.436	-2.34
390.646	-1.09
390.855	3.69
391.065	3.4
391.274	-0.2
391.484	0.6
391.693	2.28
391.903	3.8
392.112	8.57
392.322	9.26
392.531	11.33
392.74	8.52
392.95	5.42
393.159	3.26
393.369	5.13
393.578	4.11
393.787	4.72
393.997	6.48
394.206	4.32
394.415	3.98
394.625	3.91
394.834	3.99
395.043	4.55
395.252	6.92
395.462	8.3
395.671	8.47
395.88	7.13
396.089	6.28
396.298	3.55
396.508	2.46
396.717	2.22
396.926	3.31
397.135	3.2
397.344	3.73
397.553	4.09
397.762	4.9
397.971	4.38
398.181	4.76
398.39	4.58
398.599	4.11
398.808	3.78
399.017	4.35
399.226	5.22
399.435	6.48
399.644	6.38
399.853	5.39
400.062	5.1
400.27	4.23
400.479	3.38
400.688	3.25
400.897	3.64
401.106	3.84
401.315	3.67
401.524	3.83
401.733	4.23
401.941	4.55
402.15	4.44
402.359	4.55
402.568	4.73
402.777	4.67
402.985	4.64
403.194	4.36
403.403	4.27
403.612	4.11
403.82	3.87
404.029	3.89
404.238	4.04
404.446	4.37
404.655	4.02
404.864	3.9
405.072	3.75
405.281	3.79
405.489	3.37
405.698	3.52
405.906	3.78
406.115	3.65
406.324	3.65
406.532	3.93
406.741	4.09
406.949	3.88
407.158	3.93
407.366	3.87
407.574	3.8
407.783	3.63
407.991	3.49
408.2	3.51
408.408	3.55
408.617	3.41
408.825	3.37
409.033	3.57
409.242	3.63
409.45	3.74
409.658	3.76
409.867	3.97
410.075	3.84
410.283	3.68
410.491	3.49
410.7	3.38
410.908	3.23
411.116	3.44
411.324	3.55
411.533	3.49
411.741	3.68
411.949	3.65
412.157	3.29
412.365	3.17
412.573	3.22
412.781	3.23
412.99	3.26
413.198	3.55
413.406	3.56
413.614	3.47
413.822	3.24
414.03	3.17
414.238	2.95
414.446	3.11
414.654	3
414.862	3.13
415.07	3.19
415.278	3.4
415.486	3.1
415.694	3.27
415.902	3.22
416.109	3.12
416.317	2.97
416.525	3
416.733	2.92
416.941	3.12
417.149	3.1
417.357	3.06
417.564	3.21
417.772	3.3
417.98	3.1
418.188	3.15
418.395	3.22
418.603	3.36
418.811	3.07
419.019	3.09
419.226	3.21
419.434	3.4
419.642	3.13
419.849	3.32
420.057	3.3
420.265	3.36
420.472	3.21
420.68	3.25
420.887	3.17
421.095	3.12
421.302	2.97
421.51	2.88
421.717	2.95
421.925	3.11
422.132	3.2
422.34	2.87
422.547	2.96
422.755	2.8
422.962	2.59
423.17	2.37
423.377	2.53
423.585	2.57
423.792	2.5
423.999	2.54
424.207	2.64
424.414	2.75
424.621	2.43
424.829	2.72
425.036	2.86
425.243	2.99
425.451	2.92
425.658	3.01
425.865	2.96
426.072	2.87
426.28	2.93
426.487	2.93
426.694	3
426.901	2.9
427.108	2.91
427.315	2.8
427.523	3.03
427.73	3.05
427.937	3.07
428.144	2.99
428.351	3.02
428.558	2.95
428.765	2.92
428.972	2.82
429.179	2.88
429.386	2.96
429.593	2.8
429.8	2.67
430.007	2.83
430.214	2.84
430.421	2.74
430.628	2.68
430.835	2.73
431.042	2.78
431.249	2.97
431.456	3
431.662	3.21
431.869	3.28
432.076	3.26
432.283	3.29
432.49	3.25
432.697	3.22
432.903	3.11
433.11	3.18
433.317	3.19
433.524	3.27
433.73	3.22
433.937	3.56
434.144	3.45
434.35	3.36
434.557	3.24
434.764	3.32
434.97	3.18
435.177	3.34
435.384	3.3
435.59	3.32
435.797	3.43
436.003	3.45
436.21	3.36
436.416	3.43
436.623	3.45
436.829	3.48
437.036	3.58
437.242	3.69
437.449	3.66
437.655	3.7
437.862	3.69
438.068	3.6
438.275	3.62
438.481	3.76
438.687	3.81
438.894	3.8
439.1	3.85
439.307	3.88
439.513	3.77
439.719	3.79
439.926	3.72
440.132	3.76
440.338	3.66
440.544	3.84
440.751	3.82
440.957	3.88
441.163	3.75
441.369	3.84
441.575	3.7
441.782	3.76
441.988	3.78
442.194	3.77
442.4	3.72
442.606	3.89
442.812	3.92
443.018	3.98
443.224	4.11
443.431	4.22
443.637	4.09
443.843	4.01
444.049	4.05
444.255	3.98
444.461	4.02
444.667	4.04
444.873	4.11
445.079	4.04
445.284	4.2
445.49	4.09
445.696	3.93
445.902	3.89
446.108	3.92
446.314	3.78
446.52	3.83
446.726	4.08
446.931	4.17
447.137	4.18
447.343	4.29
447.549	4.24
447.755	4.17
447.96	4.1
448.166	3.99
448.372	3.8
448.578	3.88
448.783	3.9
448.989	4.1
449.195	4.33
449.4	4.52
449.606	4.42
449.812	4.38
450.017	4.24
450.223	4.14
450.428	4.03
450.634	4.17
450.84	4.21
451.045	4.15
451.251	4.07
451.456	4.32
451.662	4.4
451.867	4.56
452.073	4.68
452.278	4.77
452.483	4.76
452.689	4.62
452.894	4.52
453.1	4.45
453.305	4.49
453.51	4.4
453.716	4.39
453.921	4.46
454.127	4.39
454.332	4.23
454.537	4.2
454.742	4.23
454.948	4.12
455.153	4.23
455.358	4.4
455.563	4.55
455.769	4.58
455.974	4.58
456.179	4.5
456.384	4.44
456.589	4.38
456.795	4.2
457	4.12
457.205	4.2
457.41	4.18
457.615	4.09
457.82	4.16
458.025	4.18
458.23	4.17
458.435	4.2
458.64	4.13
458.845	4.35
459.05	4.39
459.255	4.41
459.46	4.42
459.665	4.59
459.87	4.49
460.075	4.52
460.28	4.56
460.485	4.64
460.69	4.64
460.895	4.58
461.099	4.54
461.304	4.57
461.509	4.52
461.714	4.42
461.919	4.54
462.123	4.52
462.328	4.55
462.533	4.55
462.738	4.66
462.942	4.58
463.147	4.66
463.352	4.64
463.556	4.69
463.761	4.74
463.966	4.77
464.17	4.8
464.375	4.72
464.58	4.58
464.784	4.5
464.989	4.47
465.193	4.47
465.398	4.5
465.602	4.64
465.807	4.66
466.011	4.75
466.216	4.77
466.42	4.85
466.625	4.88
466.829	4.94
467.034	4.94
467.238	5.09
467.443	5.03
467.647	4.92
