Data from Ofra_PS_T2_2A_4HS13_Reflection_3.txt Node
Date: Wed Jul 21 17:13:12 EDT 2021
User: Adam
Spectrometer: FLMT01687
Trigger mode: 0
Integration Time (sec): 1.100000E0
Scans to average: 2
Electric dark correction enabled: true
Nonlinearity correction enabled: false
Boxcar width: 2
XAxis mode: Wavelengths
Number of Pixels in Spectrum: 3648
>>>>>Begin Spectral Data<<<<<
179.494	451
179.716	518.59
179.937	533.82
180.158	558.44
180.38	822.34
180.601	363.95
180.823	160.81
181.044	86.14
181.265	318.93
181.486	161.33
181.708	132.74
181.929	450.51
182.15	191.9
182.372	269
182.593	138.41
182.814	17.77
183.035	52.39
183.257	69.41
183.478	-16.33
183.699	91.57
183.92	112.95
184.141	121.25
184.363	26.26
184.584	101.44
184.805	55.88
185.026	58.52
185.247	41.82
185.468	42.43
185.689	41.11
185.91	53.5
186.132	49.2
186.353	52.94
186.574	101.62
186.795	57.52
187.016	1.11
187.237	-8.29
187.458	-66.99
187.679	-62.34
187.9	-12.66
188.121	9.01
188.342	56.52
188.563	93.55
188.784	132.8
189.005	118.89
189.226	158.03
189.447	144.93
189.667	175.36
189.888	-68.84
190.109	-660.71
190.33	-512.1
190.551	-1143.14
190.772	-302.6
190.993	-218.79
191.214	-196.23
191.434	-113.22
191.655	-0.21
191.876	-20.03
192.097	-56.95
192.318	-91.96
192.538	-154.47
192.759	-148.6
192.98	-40.77
193.201	-27.1
193.421	-16.5
193.642	0.07
193.863	-0.84
194.083	-33.86
194.304	-35.28
194.525	-15.78
194.745	3.39
194.966	-9.79
195.187	3.95
195.407	5.59
195.628	-74.26
195.848	-108.19
196.069	-117.44
196.29	-79.46
196.51	-73.94
196.731	-68.71
196.951	-76.58
197.172	-82.73
197.392	-129.57
197.613	-161.93
197.833	-171.12
198.054	-129.68
198.274	-61.19
198.495	-53.36
198.715	-19.14
198.936	-32.15
199.156	-27.91
199.377	-118.93
199.597	-115.58
199.817	-115.85
200.038	-48.08
200.258	-83.28
200.479	-9.48
200.699	-13.03
200.919	35.73
201.14	9.5
201.36	-12.63
201.58	13.64
201.801	45.26
202.021	0.27
202.241	4.29
202.461	-13.03
202.682	-118.43
202.902	-210.07
203.122	-104.68
203.342	-55.49
203.563	4.37
203.783	39.95
204.003	30.67
204.223	12.61
204.443	45.73
204.663	15.79
204.884	26.73
205.104	66.09
205.324	104.66
205.544	78.38
205.764	88.63
205.984	87.07
206.204	85.01
206.424	77.3
206.644	75.31
206.864	78.01
207.084	67.84
207.304	59.31
207.525	-1.48
207.745	4.17
207.964	26.48
208.184	-23.57
208.404	-52.99
208.624	-65.39
208.844	-63.31
209.064	-349.48
209.284	-305.89
209.504	-132.6
209.724	4.04
209.944	1.54
210.164	57.4
210.384	49.63
210.604	23.81
210.823	-13.48
211.043	-25.99
211.263	-38.25
211.483	-36.71
211.703	-58.15
211.922	-51.58
212.142	10.8
212.362	20.03
212.582	12.27
212.801	18.87
213.021	-10.39
213.241	-35.65
213.461	-63.88
213.68	-95.7
213.9	-61.96
214.12	-22.02
214.339	-69.89
214.559	-48.96
214.779	22.11
214.998	6.6
215.218	-23.34
215.438	12.4
215.657	-5.15
215.877	-26.72
216.096	-3.43
216.316	10.68
216.535	-6.7
216.755	10.1
216.974	-51.63
217.194	-72.99
217.413	-86.82
217.633	-77.58
217.852	-147.17
218.072	-68.1
218.291	-20.83
218.511	21.22
218.73	-2.04
218.95	-7.57
219.169	3.74
219.389	-41.29
219.608	-42.61
219.827	-31.47
220.047	-7.12
220.266	-1.28
220.485	12.52
220.705	42.14
220.924	26.4
221.143	44.23
221.363	28.13
221.582	36.66
221.801	42.5
222.021	59.84
222.24	46.26
222.459	109.17
222.678	73.3
222.897	11.12
223.117	13.5
223.336	37.7
223.555	46.8
223.774	73.19
223.993	84.4
224.213	117.91
224.432	71.41
224.651	67.73
224.87	45.54
225.089	58.52
225.308	33.02
225.527	54.47
225.746	46.6
225.965	40.37
226.184	4.27
226.404	11.58
226.623	-17.71
226.842	-10.58
227.061	26.6
227.28	33.23
227.499	28.51
227.718	49.05
227.936	50.1
228.155	39.35
228.374	33.3
228.593	32.24
228.812	21.46
229.031	5.31
229.25	-38.08
229.469	-29.83
229.688	-24.52
229.907	-5.85
230.125	7.71
230.344	29.2
230.563	20.44
230.782	36.73
231.001	-29.68
231.22	-2
231.438	19.89
231.657	31.49
231.876	2.15
232.095	52.3
232.313	40.94
232.532	8.81
232.751	4.47
232.969	20.98
233.188	-53.38
233.407	9.56
233.625	11.42
233.844	-8.87
234.063	-7.05
234.281	21.36
234.5	6.54
234.719	31.86
234.937	53.47
235.156	53.26
235.374	59.26
235.593	48.48
235.811	32.66
236.03	11.89
236.249	8.53
236.467	-2.78
236.686	20.75
236.904	22.62
237.123	3.34
237.341	-9.75
237.559	-6.36
237.778	-28.03
237.996	-34.42
238.215	-0.68
238.433	34.01
238.652	40.2
238.87	27.39
239.088	33.61
239.307	32.69
239.525	21.59
239.743	-8.16
239.962	-7.65
240.18	-16.21
240.398	-40.5
240.617	-55.35
240.835	-39.57
241.053	7.84
241.271	18.22
241.49	35.55
241.708	21.89
241.926	42.14
242.144	17.31
242.363	-14.79
242.581	-41.97
242.799	9.04
243.017	36.78
243.235	18.04
243.453	17.96
243.672	15.37
243.89	-0.39
244.108	-29.18
244.326	-2.19
244.544	13.06
244.762	22.27
244.98	40.5
245.198	60.09
245.416	45.97
245.634	29.69
245.852	30.34
246.07	29.32
246.288	18.49
246.506	-18.64
246.724	12.25
246.942	17.11
247.16	21.08
247.378	47.68
247.596	70.34
247.814	56.08
248.032	8.15
248.25	23.08
248.468	0.59
248.685	7.4
248.903	35.1
249.121	51.47
249.339	21.92
249.557	6.26
249.775	10.04
249.992	-45.3
250.21	-39.67
250.428	-14.9
250.646	-24.16
250.863	-55.98
251.081	-32.59
251.299	-35.17
251.517	-28.84
251.734	-25.1
251.952	-34.9
252.17	-30.45
252.387	-12.8
252.605	-28.41
252.823	-19.89
253.04	-4.43
253.258	24.25
253.475	5.87
253.693	38.98
253.911	47.7
254.128	75.49
254.346	86.57
254.563	72.6
254.781	56.58
254.998	34.6
255.216	9.28
255.433	6.03
255.651	41.22
255.868	66.66
256.086	89.1
256.303	79.93
256.521	46.65
256.738	20.62
256.956	-25.03
257.173	-49.83
257.39	-51.89
257.608	-60.15
257.825	32.39
258.043	97.78
258.26	95
258.477	129.29
258.695	130.58
258.912	72.27
259.129	48.49
259.346	21.92
259.564	-29.19
259.781	-61.32
259.998	-21.78
260.216	2.62
260.433	51.41
260.65	59.39
260.867	77.66
261.084	44.92
261.302	11.06
261.519	-14.45
261.736	-37.52
261.953	-55.86
262.17	0.52
262.387	-3.36
262.604	-33.77
262.822	-45.02
263.039	-38.59
263.256	-100.6
263.473	-52.73
263.69	-22.2
263.907	18.28
264.124	36.69
264.341	54.91
264.558	34.78
264.775	40.35
264.992	29.78
265.209	26.94
265.426	39.84
265.643	43.54
265.86	54.94
266.077	60.68
266.294	54.21
266.51	24.35
266.727	-3.53
266.944	-7.53
267.161	-15.01
267.378	-2.45
267.595	23.35
267.812	7.25
268.028	2.09
268.245	38.13
268.462	-0.53
268.679	-15.09
268.896	38.78
269.112	26.01
269.329	8.88
269.546	16.64
269.763	8.64
269.979	-3.69
270.196	1.26
270.413	-13.12
270.629	-44.46
270.846	-51.38
271.063	-42.77
271.279	-60.99
271.496	-60.21
271.712	-11.96
271.929	15.07
272.146	-12.4
272.362	21.66
272.579	41.04
272.795	44.37
273.012	20.02
273.228	30.89
273.445	0.57
273.661	-19.08
273.878	-60.44
274.094	-29.67
274.311	-58.38
274.527	2.97
274.744	12.25
274.96	21.37
275.177	28.63
275.393	49.71
275.609	34.55
275.826	45.65
276.042	31.77
276.259	2.44
276.475	4.06
276.691	21.57
276.908	-6.5
277.124	17.88
277.34	23.5
277.557	11.9
277.773	-4.99
277.989	-1.11
278.205	-11.29
278.422	9.17
278.638	12.57
278.854	25.09
279.07	26.41
279.286	27.37
279.503	-8.59
279.719	-13.55
279.935	-36.52
280.151	-49.57
280.367	-36.55
280.583	-51.13
280.799	-36.68
281.016	-47.91
281.232	-3.26
281.448	18.29
281.664	52.51
281.88	47.1
282.096	68.43
282.312	82.55
282.528	88.35
282.744	91.42
282.96	77.48
283.176	48.34
283.392	43.24
283.608	22.46
283.824	22.34
284.04	36.12
284.256	47.76
284.471	19.98
284.687	11.73
284.903	21.3
285.119	43.41
285.335	9.75
285.551	34.98
285.767	21.96
285.982	-5.79
286.198	-57.85
286.414	12.62
286.63	9.56
286.846	36.65
287.061	14.31
287.277	51.3
287.493	21.28
287.709	34.96
287.924	27.96
288.14	75.23
288.356	51.07
288.571	67.34
288.787	49.79
289.003	43.32
289.218	16.93
289.434	-13.28
289.65	-15.12
289.865	-30.69
290.081	-7.46
290.296	-10.86
290.512	5.97
290.727	-26.25
290.943	-10.82
291.159	-27.05
291.374	-19.13
291.59	-29.43
291.805	-16.55
292.021	-17.29
292.236	-7.49
292.451	6.91
292.667	19.62
292.882	44.52
293.098	44.38
293.313	20.53
293.529	3.6
293.744	-26.21
293.959	-42.78
294.175	-35.15
294.39	0.44
294.605	17.14
294.821	51.23
295.036	63.44
295.251	70.33
295.467	51.42
295.682	42.59
295.897	-17.22
296.112	-44.65
296.328	-39.65
296.543	-57.57
296.758	-38.81
296.973	14.93
297.188	39.71
297.404	19.58
297.619	24.8
297.834	8.93
298.049	-8.06
298.264	-29.32
298.479	11.95
298.694	13.9
298.909	33.14
299.125	36.73
299.34	53.13
299.555	39.15
299.77	60.08
299.985	-4.21
300.2	-58.06
300.415	-76.83
300.63	-34.54
300.845	-48.97
301.06	-31.65
301.275	11.21
301.49	21.59
301.704	-8.69
301.919	-37.34
302.134	-58.51
302.349	-70.36
302.564	-152.98
302.779	-166.72
302.994	-83.5
303.209	-3.17
303.423	23.62
303.638	71.23
303.853	20.9
304.068	-4.93
304.283	-9.19
304.497	-8.24
304.712	-17.06
304.927	4.43
305.142	7.08
305.356	20.82
305.571	8.81
305.786	10.04
306	-16.6
306.215	1.42
306.43	-19.59
306.644	-13.8
306.859	15.17
307.074	39.15
307.288	-5.64
307.503	-5
307.717	-8.66
307.932	-10.04
308.147	-11.84
308.361	20.85
308.576	5.02
308.79	-26.6
309.005	-36.93
309.219	-25.86
309.434	-45.35
309.648	-44.25
309.863	7.77
310.077	17.34
310.292	14.68
310.506	10.1
310.72	33.07
310.935	22.71
311.149	7.2
311.364	22.41
311.578	42.46
311.792	24.86
312.007	22.53
312.221	10.5
312.435	10.73
312.649	-6.74
312.864	22.98
313.078	43.92
313.292	115.6
313.507	97.67
313.721	129.21
313.935	52.16
314.149	41.87
314.363	34.41
314.578	28.61
314.792	29.24
315.006	21.22
315.22	32.61
315.434	32.18
315.648	43.5
315.862	35.44
316.077	34.91
316.291	24.59
316.505	5.19
316.719	-6.69
316.933	-4.04
317.147	-5.05
317.361	-65.66
317.575	-69.09
317.789	-96.33
318.003	-178.31
318.217	-123.51
318.431	-31.66
318.645	24.13
318.859	12.74
319.073	47.93
319.287	23.01
319.5	-12.36
319.714	-62.44
319.928	-74.91
320.142	-101.7
320.356	-33.79
320.57	10.77
320.784	4.17
320.997	-2.58
321.211	-10.83
321.425	-61.02
321.639	-69.77
321.853	2.8
322.066	11.79
322.28	21.06
322.494	31.56
322.707	49.75
322.921	16.49
323.135	13.12
323.349	10.93
323.562	-9.1
323.776	-29.26
323.989	-9.67
324.203	-20.53
324.417	-15.95
324.63	-27.07
324.844	-38.54
325.057	-56.65
325.271	-31.53
325.485	-4.38
325.698	21.49
325.912	39.11
326.125	21.42
326.339	25.04
326.552	18.35
326.766	8.29
326.979	25.82
327.193	54.5
327.406	39.02
327.619	19.14
327.833	32.59
328.046	-5.49
328.26	-43.64
328.473	-10.15
328.686	-40.03
328.9	-34.02
329.113	6.89
329.326	18.48
329.54	4.22
329.753	14.47
329.966	15.21
330.179	10.18
330.393	12.57
330.606	8.73
330.819	22.26
331.032	28.88
331.246	27.95
331.459	51.1
331.672	44.42
331.885	44.63
332.098	21.96
332.311	29.19
332.525	-30.82
332.738	-9.72
332.951	21.24
333.164	32.55
333.377	31.03
333.59	52.46
333.803	56.14
334.016	38.08
334.229	41.76
334.442	45.55
334.655	61.89
334.868	56.39
335.081	46.12
335.294	28.22
335.507	18.06
335.72	13.14
335.933	-11.2
336.146	-9.43
336.359	10.89
336.572	-18.83
336.785	-35.92
336.997	-4.86
337.21	6.95
337.423	-7.07
337.636	-3.62
337.849	3.91
338.062	-1.81
338.274	-10.62
338.487	-7.24
338.7	1.9
338.913	-41.55
339.125	-74.53
339.338	-108.68
339.551	-74.25
339.763	-28.53
339.976	15.67
340.189	53.81
340.402	73.75
340.614	42.58
340.827	22.28
341.039	14.4
341.252	11.32
341.465	6.18
341.677	17.67
341.89	-9.35
342.102	14.32
342.315	-3.85
342.527	-14.3
342.74	-19.52
342.952	32.78
343.165	21.54
343.377	44.43
343.59	50.22
343.802	54.68
344.015	49.49
344.227	58.11
344.44	40.59
344.652	23.72
344.864	12.47
345.077	27.89
345.289	25.81
345.502	32.62
345.714	26.07
345.926	38.32
346.139	17.78
346.351	31.47
346.563	26.47
346.775	52.38
346.988	31.88
347.2	29.31
347.412	-23.63
347.624	-35.73
347.837	-78.57
348.049	-41.03
348.261	16.49
348.473	26.54
348.685	30.16
348.897	29.58
349.11	16.35
349.322	-18.58
349.534	21.67
349.746	31.41
349.958	39.23
350.17	17.23
350.382	24.31
350.594	-3.74
350.806	-7.14
351.018	-3.52
351.23	-1.93
351.442	-35.85
351.654	-37.02
351.866	-29.21
352.078	-30.4
352.29	-2.14
352.502	13.99
352.714	28.62
352.926	26.74
353.138	23.17
353.35	15.14
353.561	14.59
353.773	0.06
353.985	7.84
354.197	-1.03
354.409	-11.84
354.621	-13.2
354.832	-11.53
355.044	-28.76
355.256	-26.85
355.468	-2.04
355.679	-3.99
355.891	1.94
356.103	-6.87
356.314	3.39
356.526	-13.52
356.738	-1.55
356.949	-7.66
357.161	23.18
357.373	30.03
357.584	25.9
357.796	17.47
358.008	16
358.219	17.77
358.431	11.25
358.642	25.92
358.854	28.66
359.065	24.76
359.277	-5.55
359.488	-10.15
359.7	-35.06
359.911	-56.83
360.123	-33.55
360.334	-48.81
360.546	-67.78
360.757	-65.75
360.969	-32.29
361.18	-29.87
361.391	13.19
361.603	15.16
361.814	37.16
362.025	19.29
362.237	14.22
362.448	21.79
362.659	34.13
362.871	27.64
363.082	22.29
363.293	21.26
363.504	1.37
363.716	-38.57
363.927	-66.45
364.138	-78.19
364.349	-96.12
364.56	-87.92
364.772	-60.25
364.983	-24.43
365.194	-24.13
365.405	-7.48
365.616	19.8
365.827	22.21
366.038	-7.29
366.25	-4.49
366.461	-18.29
366.672	-5.9
366.883	9.05
367.094	21.83
367.305	7.79
367.516	11.28
367.727	-27.32
367.938	-39.9
368.149	-40.46
368.36	-9.43
368.571	-4.1
368.781	-10.54
368.992	-24.69
369.203	-43.42
369.414	-73.17
369.625	-84.56
369.836	-68.79
370.047	-91.19
370.258	-59.57
370.468	-66.04
370.679	-74.09
370.89	-64.13
371.101	-29.97
371.312	-43.1
371.522	-19.39
371.733	-3.37
371.944	8.9
372.155	12.33
372.365	4.58
372.576	1.24
372.787	-12.5
372.997	-43.23
373.208	-44.74
373.419	-14.17
373.629	-53.9
373.84	-50.12
374.05	-47.41
374.261	-36.94
374.472	-63.05
374.682	12.02
374.893	23.99
375.103	57.51
375.314	47.98
375.524	50.38
375.735	40.7
375.945	42.12
376.156	6
376.366	8.07
376.577	13.75
376.787	-2.51
376.997	-3.85
377.208	2.13
377.418	-9.26
377.629	1.47
377.839	-2.16
378.049	-5.82
378.26	12.08
378.47	18.44
378.68	10.96
378.89	13.1
379.101	11.12
379.311	-18.36
379.521	-35.92
379.732	-41.44
379.942	-47.22
380.152	-61.89
380.362	-32.38
380.572	-29.96
380.783	-10.23
380.993	10.67
381.203	26.4
381.413	51.51
381.623	57.51
381.833	45.49
382.043	32.31
382.253	15.48
382.463	-2.55
382.674	-16.43
382.884	-38.29
383.094	-37.58
383.304	-20.94
383.514	-10.67
383.724	8.09
383.934	3.56
384.144	-3.12
384.353	-11.98
384.563	-16.26
384.773	-16.12
384.983	-15.59
385.193	0.44
385.403	2.64
385.613	4.51
385.823	-8.53
386.033	3.94
386.242	-8.63
386.452	-12.77
386.662	-21.87
386.872	-6.18
387.082	-12.27
387.291	-11.41
387.501	-5.85
387.711	1.79
387.921	-4.98
388.13	-10.23
388.34	-1.02
388.55	-8.05
388.759	-12.33
388.969	-6.2
389.179	-2.7
389.388	-3.01
389.598	8.01
389.807	2.48
390.017	-4.16
390.227	-2.87
390.436	-5.51
390.646	-8.64
390.855	-2.32
391.065	-1.51
391.274	-5.24
391.484	-5.84
391.693	-2.45
391.903	-3.01
392.112	3.86
392.322	9.26
392.531	12.48
392.74	9.19
392.95	5.52
393.159	3.35
393.369	1.39
393.578	-0.34
393.787	-1.49
393.997	0.42
394.206	-2.09
394.415	-1.84
394.625	-2.69
394.834	-1.83
395.043	-0.5
395.252	1.86
395.462	4.23
395.671	6.38
395.88	6.55
396.089	6.94
396.298	4.78
396.508	3.38
396.717	2.76
396.926	3.32
397.135	3.12
397.344	3.73
397.553	4.88
397.762	5.55
397.971	5.24
398.181	5.25
398.39	4.51
398.599	3.23
398.808	3.06
399.017	3.93
399.226	4.82
399.435	5.83
399.644	6.21
399.853	5.57
400.062	4.97
400.27	4.06
400.479	3.84
400.688	3.05
400.897	3.29
401.106	3.42
401.315	3.58
401.524	3.53
401.733	4.18
401.941	4.54
402.15	4.44
402.359	3.98
402.568	4.54
402.777	4.67
402.985	4.24
403.194	4.18
403.403	4.53
403.612	3.85
403.82	3.53
404.029	3.94
404.238	3.81
404.446	3.99
404.655	3.81
404.864	3.92
405.072	3.47
405.281	3.74
405.489	3.52
405.698	3.61
405.906	3.66
406.115	3.67
406.324	3.63
406.532	3.76
406.741	3.97
406.949	3.88
407.158	3.83
407.366	3.73
407.574	3.55
407.783	3.54
407.991	3.39
408.2	3.55
408.408	3.57
408.617	3.51
408.825	3.41
409.033	3.53
409.242	3.55
409.45	3.67
409.658	3.68
409.867	3.77
410.075	3.61
410.283	3.44
410.491	3.18
410.7	3.09
410.908	3.06
411.116	3.32
411.324	3.31
411.533	3.25
411.741	3.49
411.949	3.47
412.157	3.24
412.365	3.37
412.573	3.53
412.781	3.46
412.99	3.42
413.198	3.67
413.406	3.68
413.614	3.57
413.822	3.45
414.03	3.4
414.238	3.13
414.446	3.19
414.654	3.12
414.862	3.26
415.07	3.3
415.278	3.4
415.486	3.16
415.694	3.32
415.902	3.1
416.109	3.05
416.317	3.04
416.525	2.92
416.733	2.78
416.941	2.97
417.149	3
417.357	3.11
417.564	3.3
417.772	3.62
417.98	3.52
418.188	3.5
418.395	3.37
418.603	3.48
418.811	3.15
419.019	3.13
419.226	3.36
419.434	3.53
419.642	3.31
419.849	3.39
420.057	3.41
420.265	3.27
420.472	2.94
420.68	2.97
420.887	2.87
421.095	2.94
421.302	2.86
421.51	3.08
421.717	3.21
421.925	3.26
422.132	3.15
422.34	2.94
422.547	2.99
422.755	2.8
422.962	2.75
423.17	2.61
423.377	2.64
423.585	2.63
423.792	2.59
423.999	2.6
424.207	2.67
424.414	2.93
424.621	2.91
424.829	2.94
425.036	2.91
425.243	3.12
425.451	2.96
425.658	2.67
425.865	3.06
426.072	3.14
426.28	3.28
426.487	3.08
426.694	3.3
426.901	2.89
427.108	2.79
427.315	2.58
427.523	2.96
427.73	2.88
427.937	2.9
428.144	2.82
428.351	2.65
428.558	2.67
428.765	2.55
428.972	2.48
429.179	2.75
429.386	3.09
429.593	2.82
429.8	2.85
430.007	3.05
430.214	3.08
430.421	2.79
430.628	2.72
430.835	2.61
431.042	2.73
431.249	2.7
431.456	2.78
431.662	2.98
431.869	3.26
432.076	3.18
432.283	3.25
432.49	3.18
432.697	3.13
432.903	2.78
433.11	2.71
433.317	2.72
433.524	2.89
433.73	2.82
433.937	3.15
434.144	3.03
434.35	2.92
434.557	2.72
434.764	2.78
434.97	2.66
435.177	2.9
435.384	2.83
435.59	3
435.797	3.26
436.003	3.33
436.21	3.16
436.416	3.31
436.623	3.23
436.829	3.12
437.036	3.17
437.242	3.22
437.449	3.1
437.655	3.21
437.862	3.22
438.068	3.09
438.275	3.2
438.481	3.44
438.687	3.32
438.894	3.25
439.1	3.3
439.307	3.4
439.513	3.32
439.719	3.31
439.926	3.42
440.132	3.41
440.338	3.26
440.544	3.35
440.751	3.39
440.957	3.43
441.163	3.5
441.369	3.61
441.575	3.34
441.782	3.28
441.988	3.1
442.194	3.01
442.4	2.92
442.606	3.34
442.812	3.48
443.018	3.61
443.224	3.63
443.431	3.78
443.637	3.5
443.843	3.38
444.049	3.42
444.255	3.37
444.461	3.34
444.667	3.33
444.873	3.51
445.079	3.47
445.284	3.52
445.49	3.26
445.696	3.05
445.902	2.86
446.108	2.78
446.314	2.75
446.52	2.86
446.726	3.19
446.931	3.28
447.137	3.35
447.343	3.4
447.549	3.39
447.755	3.21
447.96	3.25
448.166	3.15
448.372	3.13
448.578	3.18
448.783	3.19
448.989	3.26
449.195	3.45
449.4	3.45
449.606	3.38
449.812	3.32
450.017	3.28
450.223	3.17
450.428	3.06
450.634	3.18
450.84	3.3
451.045	3.22
451.251	3.19
451.456	3.49
451.662	3.55
451.867	3.62
452.073	3.64
452.278	3.73
452.483	3.74
452.689	3.65
452.894	3.64
453.1	3.64
453.305	3.54
453.51	3.4
453.716	3.33
453.921	3.23
454.127	3.22
454.332	3.13
454.537	3.09
454.742	3.15
454.948	3.17
455.153	3.16
455.358	3.3
455.563	3.49
455.769	3.55
455.974	3.54
456.179	3.45
456.384	3.46
456.589	3.3
456.795	3.19
457	3.17
457.205	3.47
457.41	3.44
457.615	3.4
457.82	3.39
458.025	3.41
458.23	3.15
458.435	3.13
458.64	3.18
458.845	3.33
459.05	3.25
459.255	3.32
459.46	3.39
459.665	3.34
459.87	3.32
460.075	3.34
460.28	3.31
460.485	3.31
460.69	3.3
460.895	3.13
461.099	3.2
461.304	3.32
461.509	3.31
461.714	3.3
461.919	3.48
462.123	3.34
462.328	3.34
462.533	3.28
462.738	3.35
462.942	3.27
463.147	3.43
463.352	3.46
463.556	3.53
463.761	3.57
