Data from Ofra_PS_T2_2A_4HS13_Reflection_2.txt Node
Date: Wed Jul 21 17:12:36 EDT 2021
User: Adam
Spectrometer: FLMT01687
Trigger mode: 0
Integration Time (sec): 1.100000E0
Scans to average: 2
Electric dark correction enabled: true
Nonlinearity correction enabled: false
Boxcar width: 2
XAxis mode: Wavelengths
Number of Pixels in Spectrum: 3648
>>>>>Begin Spectral Data<<<<<
179.494	498
179.716	608.47
179.937	596.07
180.158	636.37
180.38	1129.69
180.601	428.45
180.823	89.39
181.044	-138.63
181.265	3.31
181.486	19.71
181.708	116.74
181.929	896.94
182.15	-547.18
182.372	136.32
182.593	59.06
182.814	33.82
183.035	83.22
183.257	44.63
183.478	-43.72
183.699	42.3
183.92	-3.27
184.141	-9.51
184.363	-59.22
184.584	9.78
184.805	-26.64
185.026	32.5
185.247	17.24
185.468	13.17
185.689	1.91
185.91	16.02
186.132	-1.24
186.353	-7.09
186.574	47.84
186.795	19.01
187.016	-20.31
187.237	-45.56
187.458	-57.19
187.679	-59.11
187.9	-19.35
188.121	-36.56
188.342	-3.04
188.563	37.85
188.784	22.11
189.005	29.22
189.226	123.69
189.447	65.89
189.667	-109.95
189.888	-324.38
190.109	-1260.39
190.33	-914.52
190.551	-1259.73
190.772	-228.45
190.993	-147.85
191.214	-156.22
191.434	-92.15
191.655	-15.28
191.876	-97.25
192.097	-120.89
192.318	-191.5
192.538	-300.44
192.759	-264.61
192.98	-142.69
193.201	-105.06
193.421	-72.21
193.642	-20.4
193.863	-10.13
194.083	-32.87
194.304	-26.52
194.525	-21.46
194.745	-78.17
194.966	-85.52
195.187	-68.14
195.407	-104.66
195.628	-180.13
195.848	-150.75
196.069	-154.05
196.29	-126.47
196.51	-115.63
196.731	-72.6
196.951	-90.07
197.172	-97.37
197.392	-121.5
197.613	-121.1
197.833	-145.42
198.054	-123.12
198.274	-80.57
198.495	-91.42
198.715	-59.2
198.936	-82.58
199.156	-82.87
199.377	-156.07
199.597	-144.4
199.817	-164.15
200.038	-98.24
200.258	-138.08
200.479	-82.64
200.699	-93.55
200.919	-17.98
201.14	-58.03
201.36	-78.19
201.58	-9.07
201.801	17.2
202.021	-20.22
202.241	1.91
202.461	3.95
202.682	-86.09
202.902	-164.96
203.122	-101.52
203.342	-88.23
203.563	-33.56
203.783	-14.08
204.003	-41.58
204.223	-43.02
204.443	18.19
204.663	-10.6
204.884	15.94
205.104	53.15
205.324	70.89
205.544	21.7
205.764	32.73
205.984	24.17
206.204	28.58
206.424	3.89
206.644	-44.29
206.864	-32.61
207.084	-118.62
207.304	-118.95
207.525	-282.66
207.745	-110.6
207.964	-37.64
208.184	-58.16
208.404	-98.49
208.624	-76.05
208.844	-88.47
209.064	-412.33
209.284	-409.2
209.504	-173.64
209.724	-27.14
209.944	-0.84
210.164	40.89
210.384	47.92
210.604	43.03
210.823	-7.19
211.043	-38.39
211.263	-42.78
211.483	-59.57
211.703	-124.08
211.922	-97.75
212.142	-27.81
212.362	-7.09
212.582	-15.58
212.801	-3.25
213.021	-28.76
213.241	-38.03
213.461	-92.74
213.68	-106.8
213.9	-99.13
214.12	-60.59
214.339	-139.01
214.559	-97.18
214.779	-21.46
214.998	-19.63
215.218	-83.91
215.438	-55.31
215.657	-79.44
215.877	-100.79
216.096	-56.54
216.316	-37.5
216.535	-22.85
216.755	-7.16
216.974	-106.02
217.194	-153.85
217.413	-151.35
217.633	-189.48
217.852	-304.32
218.072	-110.38
218.291	-51.06
218.511	7.98
218.73	-10.09
218.95	-8.67
219.169	-20.66
219.389	-70.82
219.608	-69.91
219.827	-46.86
220.047	-46.21
220.266	-20.89
220.485	-17.86
220.705	-15.66
220.924	-52.16
221.143	-2.58
221.363	-47.52
221.582	-26.63
221.801	-34.16
222.021	-3.66
222.24	-91.13
222.459	-13.17
222.678	-33.01
222.897	-80.93
223.117	-100.43
223.336	-101.82
223.555	-46.83
223.774	-12.65
223.993	22.45
224.213	54.47
224.432	52.33
224.651	51.42
224.87	28.7
225.089	42.55
225.308	37.24
225.527	58.35
225.746	55.48
225.965	44.74
226.184	15.09
226.404	18.88
226.623	-23.05
226.842	-19.69
227.061	5.29
227.28	4.04
227.499	-18.82
227.718	-1.25
227.936	-9.75
228.155	-12.79
228.374	-13.44
228.593	3.3
228.812	4.69
229.031	-1.36
229.25	-49.59
229.469	-39.52
229.688	-20.89
229.907	-4.68
230.125	13.72
230.344	23.07
230.563	42.18
230.782	49.57
231.001	2.48
231.22	-6.65
231.438	21.68
231.657	7.99
231.876	-32.33
232.095	19.86
232.313	31.49
232.532	10.79
232.751	-33.63
232.969	-25.17
233.188	-101.42
233.407	-51.45
233.625	-16.87
233.844	-18.09
234.063	-21.56
234.281	-2.15
234.5	-18.66
234.719	-22.79
234.937	-5.44
235.156	6.24
235.374	6.43
235.593	-7.48
235.811	-10.73
236.03	-18.94
236.249	-66.04
236.467	-58.75
236.686	-20.6
236.904	-4.69
237.123	-23.5
237.341	-12.82
237.559	-10.08
237.778	-24.43
237.996	-70.16
238.215	-15.75
238.433	-3.82
238.652	-24.97
238.87	-48.47
239.088	-10.6
239.307	-28.6
239.525	-31.32
239.743	-49.38
239.962	-38.92
240.18	-63.43
240.398	-104.01
240.617	-121.88
240.835	-93.82
241.053	-77.65
241.271	-45.68
241.49	1.63
241.708	-20.67
241.926	-59.5
242.144	-1.36
242.363	-64.1
242.581	-87.17
242.799	-30.43
243.017	17.95
243.235	-24.18
243.453	7.89
243.672	-4.84
243.89	-9.53
244.108	-36.81
244.326	-6.21
244.544	-21
244.762	-17.92
244.98	-22.77
245.198	-5.92
245.416	-25.07
245.634	-25.96
245.852	-33.24
246.07	-48.41
246.288	-55.87
246.506	-94.63
246.724	-47.34
246.942	-35
247.16	0.77
247.378	17.01
247.596	46.8
247.814	26.34
248.032	-6.6
248.25	-5.75
248.468	-5.24
248.685	-5.33
248.903	21.75
249.121	34.83
249.339	-1.3
249.557	-7.28
249.775	-3.01
249.992	-65.6
250.21	-69.42
250.428	-38.71
250.646	-69.35
250.863	-103.77
251.081	-73.87
251.299	-68.34
251.517	-63.96
251.734	-31.26
251.952	-15.68
252.17	-7.75
252.387	-6.71
252.605	-15.81
252.823	-15.07
253.04	-1.12
253.258	13
253.475	6.78
253.693	33.93
253.911	34.21
254.128	34.3
254.346	29.63
254.563	20.47
254.781	-12.4
254.998	-30.71
255.216	-31.83
255.433	-30.71
255.651	12.44
255.868	30.54
256.086	48.54
256.303	20.59
256.521	17.01
256.738	-10.02
256.956	-33.7
257.173	-68.31
257.39	-77.53
257.608	-116.51
257.825	-24.45
258.043	13.56
258.26	20.74
258.477	54.83
258.695	62.13
258.912	-11.88
259.129	-11.57
259.346	-39.01
259.564	-75.55
259.781	-119.28
259.998	-61.52
260.216	-27.89
260.433	18.48
260.65	32.62
260.867	54.86
261.084	10.09
261.302	-26.08
261.519	-64.47
261.736	-86.97
261.953	-93.23
262.17	-28.92
262.387	-48.98
262.604	-50.3
262.822	-49.77
263.039	-38.82
263.256	-83.26
263.473	-49.07
263.69	-32.5
263.907	-5.17
264.124	3.11
264.341	1.51
264.558	-5.86
264.775	5.98
264.992	-5.19
265.209	-2.62
265.426	26.94
265.643	30.45
265.86	35.62
266.077	49.34
266.294	35.08
266.51	-5.86
266.727	-19.46
266.944	-24.66
267.161	-29.26
267.378	-20.5
267.595	15.74
267.812	-11.48
268.028	-24.71
268.245	-8.66
268.462	-33.8
268.679	-52.71
268.896	13.74
269.112	15.55
269.329	4.87
269.546	13.86
269.763	16.6
269.979	-4.62
270.196	-13.04
270.413	-28.66
270.629	-59.64
270.846	-77.82
271.063	-66.75
271.279	-78.32
271.496	-88.42
271.712	-27.67
271.929	-4.54
272.146	-15.31
272.362	1.77
272.579	37.81
272.795	13.89
273.012	6.17
273.228	-8.04
273.445	-22.72
273.661	-63
273.878	-98.57
274.094	-67.85
274.311	-73.99
274.527	-21.88
274.744	-20.83
274.96	-11.44
275.177	-21.71
275.393	-1.46
275.609	-1.96
275.826	28.98
276.042	24.59
276.259	21.29
276.475	27.25
276.691	18.08
276.908	0.7
277.124	18.35
277.34	17.98
277.557	10.96
277.773	3.56
277.989	-0.08
278.205	-10.45
278.422	7.09
278.638	9.82
278.854	34.18
279.07	37.35
279.286	40.55
279.503	0.54
279.719	-20.36
279.935	-56.69
280.151	-83.56
280.367	-58.3
280.583	-85.19
280.799	-58.01
281.016	-96.11
281.232	-37.28
281.448	-42.95
281.664	6.96
281.88	-32.51
282.096	-4.6
282.312	-0.56
282.528	3.08
282.744	-13.03
282.96	3.22
283.176	-4.44
283.392	-5.59
283.608	1.67
283.824	-4.64
284.04	5.1
284.256	21.42
284.471	5.89
284.687	-14.79
284.903	-1.8
285.119	10.83
285.335	-5.89
285.551	-7.46
285.767	-17.23
285.982	-22.59
286.198	-61.49
286.414	-2.53
286.63	25.72
286.846	40.88
287.061	24.31
287.277	45.2
287.493	13.07
287.709	14.9
287.924	-1.09
288.14	31.03
288.356	33.97
288.571	46.62
288.787	16.21
289.003	25.4
289.218	-8.66
289.434	-42.89
289.65	-36.28
289.865	-41.07
290.081	-17.06
290.296	20.08
290.512	23.44
290.727	-9.66
290.943	-7.17
291.159	-22.69
291.374	-28.33
291.59	-44.62
291.805	-32.18
292.021	-11.28
292.236	-23.47
292.451	-9.1
292.667	7.86
292.882	12.98
293.098	-8.54
293.313	-23.1
293.529	-53.3
293.744	-93.38
293.959	-82.98
294.175	-69.88
294.39	-21.3
294.605	-5.76
294.821	31.47
295.036	34.18
295.251	43.06
295.467	19.76
295.682	13.64
295.897	-48.01
296.112	-58.08
296.328	-46.91
296.543	-84
296.758	-82.85
296.973	-13.78
297.188	24.7
297.404	-17.43
297.619	-11.67
297.834	-11.65
298.049	-47.32
298.264	-79.02
298.479	-13.47
298.694	-10.72
298.909	-2.8
299.125	12.66
299.34	21.77
299.555	-1.84
299.77	15
299.985	-8.83
300.2	-64.96
300.415	-90.35
300.63	-41.33
300.845	-52.57
301.06	-56.94
301.275	-16.62
301.49	4.46
301.704	-23.43
301.919	-38.01
302.134	-47.03
302.349	-64.31
302.564	-119.6
302.779	-175.12
302.994	-171.87
303.209	-105.85
303.423	-56.1
303.638	-2.89
303.853	-14.36
304.068	-11.95
304.283	-17.61
304.497	-10.12
304.712	-20.77
304.927	-13.33
305.142	-16.17
305.356	-5.03
305.571	-17.08
305.786	-40.8
306	-32.48
306.215	-25.85
306.43	-38.79
306.644	-40.42
306.859	42.84
307.074	14.46
307.288	-20.17
307.503	-32.3
307.717	-27.44
307.932	-33.44
308.147	-37.94
308.361	-15.08
308.576	-14.45
308.79	-51.18
309.005	-57.01
309.219	-35.3
309.434	-45.93
309.648	-48.28
309.863	-15.97
310.077	-17.53
310.292	-31.28
310.506	-29.98
310.72	-10.64
310.935	1.53
311.149	0.95
311.364	29.47
311.578	41.51
311.792	35.21
312.007	20.53
312.221	8.95
312.435	10.18
312.649	-12.57
312.864	4.03
313.078	12.99
313.292	76.86
313.507	24.95
313.721	101.56
313.935	43.96
314.149	37.28
314.363	22.66
314.578	24.07
314.792	20.08
315.006	9.72
315.22	10.83
315.434	0.21
315.648	1.48
315.862	-9.5
316.077	-5.33
316.291	-15.21
316.505	-0.85
316.719	6.01
316.933	-34.8
317.147	-53.99
317.361	-107.82
317.575	-120.47
317.789	-162.48
318.003	-204.65
318.217	-144.7
318.431	-43.24
318.645	-3.39
318.859	6.42
319.073	27.32
319.287	13.32
319.5	-11.54
319.714	-60.97
319.928	-89.02
320.142	-125.22
320.356	-65.52
320.57	-26.91
320.784	-25.65
320.997	-1.87
321.211	12.93
321.425	-71.28
321.639	-108.36
321.853	-51.5
322.066	-49.94
322.28	-45.84
322.494	-32.66
322.707	-14.05
322.921	-23.84
323.135	-13.45
323.349	-18.35
323.562	-24.67
323.776	-41.33
323.989	-43.18
324.203	-81.34
324.417	-70.94
324.63	-83.67
324.844	-71.75
325.057	-60.82
325.271	-14.84
325.485	4.66
325.698	26.33
325.912	35.42
326.125	6.61
326.339	-0.38
326.552	-23.92
326.766	-25.31
326.979	-16.74
327.193	28.36
327.406	11.17
327.619	12.45
327.833	21.42
328.046	1.62
328.26	-41.16
328.473	-26.89
328.686	-73.65
328.9	-84.65
329.113	-50.53
329.326	-76.61
329.54	-49.35
329.753	-55.64
329.966	-82.83
330.179	-89.89
330.393	-51.2
330.606	-31.94
330.819	-4.97
331.032	23.68
331.246	27.04
331.459	49.96
331.672	38.38
331.885	31.55
332.098	1.9
332.311	-17.41
332.525	-79.35
332.738	-74.71
332.951	-31.29
333.164	15.89
333.377	24.22
333.59	50.93
333.803	51.82
334.016	37.8
334.229	26.56
334.442	33.52
334.655	49.93
334.868	55.79
335.081	46.13
335.294	26.79
335.507	7.92
335.72	-4.92
335.933	-29.62
336.146	-42.14
336.359	-50.53
336.572	-71.08
336.785	-100.59
336.997	-72.28
337.21	-38.52
337.423	-44.54
337.636	-31.21
337.849	-13.78
338.062	-35.78
338.274	-29.35
338.487	-31.45
338.7	-29.5
338.913	-64.59
339.125	-85.3
339.338	-136.8
339.551	-70.55
339.763	-54.3
339.976	-22.08
340.189	11.88
340.402	26.68
340.614	-11.84
340.827	-11.11
341.039	-35.52
341.252	-51.62
341.465	-34.58
341.677	-30.45
341.89	-61.99
342.102	-21.97
342.315	-26.47
342.527	-55.35
342.74	-47.28
342.952	-18.45
343.165	-22.39
343.377	5.82
343.59	0.5
343.802	15.99
344.015	18.33
344.227	28.6
344.44	8.56
344.652	4.9
344.864	-16.32
345.077	10.69
345.289	8.07
345.502	15.97
345.714	12.11
345.926	23.33
346.139	2.82
346.351	9.2
346.563	17.85
346.775	21.61
346.988	-0.62
347.2	-12.09
347.412	-63.57
347.624	-93.21
347.837	-122.95
348.049	-87.12
348.261	-50.14
348.473	-18.35
348.685	-14.56
348.897	3.58
349.11	-14.31
349.322	-37.01
349.534	-35.69
349.746	-38.87
349.958	-45.03
350.17	-34.62
350.382	-17.4
350.594	-28.35
350.806	-14.33
351.018	-5.56
351.23	-23.91
351.442	-64.74
351.654	-36.73
351.866	-40.56
352.078	-57.78
352.29	-18.18
352.502	3.52
352.714	-2.24
352.926	-16.95
353.138	-10.25
353.35	-26.11
353.561	-28.61
353.773	-41.67
353.985	-22.03
354.197	-24.43
354.409	-23.16
354.621	-20.69
354.832	-13.98
355.044	-31.78
355.256	-30.15
355.468	-20.07
355.679	-29.78
355.891	-19.47
356.103	-32.22
356.314	-34.13
356.526	-32.9
356.738	-8.58
356.949	-27.95
357.161	8.62
357.373	12.81
357.584	-3.99
357.796	-4.63
358.008	-4.05
358.219	10.07
358.431	1.69
358.642	17.31
358.854	11.77
359.065	-8.94
359.277	-42.36
359.488	-44.5
359.7	-68.84
359.911	-97.33
360.123	-49.09
360.334	-60.25
360.546	-79.3
360.757	-74.2
360.969	-31.69
361.18	-35.8
361.391	-24
361.603	-32.25
361.814	-37
362.025	-47.8
362.237	-53.1
362.448	-24.2
362.659	6.68
362.871	8.3
363.082	12.33
363.293	6.71
363.504	-23.56
363.716	-55.89
363.927	-71.41
364.138	-101.06
364.349	-107.33
364.56	-92.35
364.772	-81.36
364.983	-37.96
365.194	-34.85
365.405	-19.37
365.616	-1.01
365.827	7.91
366.038	-33.74
366.25	-33.43
366.461	-63.82
366.672	-40.21
366.883	-21.49
367.094	-1.23
367.305	-8.53
367.516	0.52
367.727	-29.22
367.938	-42.11
368.149	-48.7
368.36	-29.2
368.571	-19.68
368.781	-20.07
368.992	-38.5
369.203	-42.65
369.414	-56.51
369.625	-85.98
369.836	-88.41
370.047	-102.96
370.258	-102.79
370.468	-105.33
370.679	-98.35
370.89	-95.23
371.101	-70.63
371.312	-65.87
371.522	-52.2
371.733	-39.81
371.944	-20.16
372.155	-14.07
372.365	-16.5
372.576	-17.29
372.787	-21.67
372.997	-48.63
373.208	-42.99
373.419	-11.06
373.629	-39.94
373.84	-40.81
374.05	-35.7
374.261	-38.96
374.472	-56.45
374.682	5.71
374.893	1.09
375.103	38.07
375.314	39.17
375.524	23.8
375.735	10.63
375.945	24.45
376.156	-14.35
376.366	-9.45
376.577	4.51
376.787	-4.59
376.997	0.69
377.208	11.26
377.418	-3.84
377.629	6.56
377.839	4.83
378.049	-1.39
378.26	12.47
378.47	20.12
378.68	2.33
378.89	-2.54
379.101	-8.21
379.311	-51.66
379.521	-93.38
379.732	-90.03
379.942	-76.48
380.152	-97.58
380.362	-46.47
380.572	-24.95
380.783	-0.71
380.993	9.68
381.203	28.71
381.413	29.99
381.623	33.92
381.833	17.11
382.043	-1.51
382.253	-5.16
382.463	-7.9
382.674	-18.53
382.884	-46.46
383.094	-38.96
383.304	-36.79
383.514	-31.89
383.724	-23.7
383.934	-18.24
384.144	-29.7
384.353	-40.19
384.563	-34.98
384.773	-29.16
384.983	-30.66
385.193	-12.47
385.403	-2.73
385.613	-3.6
385.823	-7.27
386.033	3.95
386.242	-1.3
386.452	-1.81
386.662	-19.17
386.872	-8.98
387.082	-22.27
387.291	-28.2
387.501	-27.02
387.711	-14.08
387.921	-22.87
388.13	-18.34
388.34	-4.13
388.55	-13.4
388.759	-12.53
388.969	-4.18
389.179	-6.41
389.388	-11.31
389.598	-2.65
389.807	-7.2
390.017	-12.92
390.227	-10.43
390.436	-12.6
390.646	-14.37
390.855	-8.78
391.065	-10.28
391.274	-8.74
391.484	-8.45
391.693	-5.31
391.903	-5.03
392.112	1.57
392.322	2.56
392.531	6.57
392.74	6.1
392.95	2.56
393.159	3.02
393.369	3.19
393.578	1.47
393.787	1.16
393.997	1.37
394.206	-2.28
394.415	-1.67
394.625	-1.58
394.834	-3.8
395.043	-3.11
395.252	-0.34
395.462	1.3
395.671	1.81
395.88	3.72
396.089	5.22
396.298	3.4
396.508	2.24
396.717	1.68
396.926	2.16
397.135	1.88
397.344	1.44
397.553	2.58
397.762	4.11
397.971	4.03
398.181	4.16
398.39	4.38
398.599	3.54
398.808	3.36
399.017	4.33
399.226	5.53
399.435	6.52
399.644	7.04
399.853	5.87
400.062	4.98
400.27	4.25
400.479	3.96
400.688	3.33
400.897	3.83
401.106	3.97
401.315	3.81
401.524	3.72
401.733	4.17
401.941	4.68
402.15	5.16
402.359	5.19
402.568	5.77
402.777	6.05
402.985	5.7
403.194	5.3
403.403	5.13
403.612	4.37
403.82	3.99
404.029	4.3
404.238	4.1
404.446	4.43
404.655	4.43
404.864	4.49
405.072	4.15
405.281	4.52
405.489	4.26
405.698	4.42
405.906	4.32
406.115	4.4
406.324	4.28
406.532	4.46
406.741	4.62
406.949	4.71
407.158	4.64
407.366	4.73
407.574	4.7
407.783	4.56
407.991	4.34
408.2	4.72
408.408	4.53
408.617	4.4
408.825	4.38
409.033	4.57
409.242	4.39
409.45	4.56
409.658	4.44
409.867	4.56
410.075	4.46
410.283	4.32
410.491	4.23
410.7	4.28
410.908	4.23
411.116	4.42
411.324	4.44
411.533	4.37
411.741	4.59
411.949	4.45
412.157	4.18
412.365	4.12
412.573	4.11
412.781	4.09
412.99	4.04
413.198	4.25
413.406	4.3
413.614	4.33
413.822	4.18
414.03	4.12
414.238	3.86
414.446	3.87
414.654	3.61
414.862	3.69
415.07	3.91
415.278	4.2
415.486	3.96
415.694	4.16
415.902	3.84
416.109	3.58
416.317	3.5
416.525	3.41
416.733	3.38
416.941	3.71
417.149	3.88
417.357	3.83
417.564	4.14
417.772	4.21
417.98	4
418.188	3.86
418.395	3.99
418.603	3.95
418.811	3.74
419.019	3.85
419.226	4.09
419.434	4.05
419.642	3.85
419.849	3.94
420.057	3.91
420.265	3.82
420.472	3.51
420.68	3.6
420.887	3.53
421.095	3.52
421.302	3.51
421.51	3.86
421.717	3.9
421.925	4.04
422.132	3.99
422.34	3.7
422.547	3.51
422.755	3.42
422.962	3.22
423.17	3.07
423.377	3.2
423.585	3.19
423.792	3.17
423.999	3.2
424.207	3.25
424.414	3.33
424.621	3.3
424.829	3.26
425.036	3.36
425.243	3.54
425.451	3.36
425.658	3.32
425.865	3.59
426.072	3.59
426.28	3.66
426.487	3.81
426.694	3.82
426.901	3.49
427.108	3.43
427.315	3.29
427.523	3.47
427.73	3.55
427.937	3.62
428.144	3.49
428.351	3.46
428.558	3.48
428.765	3.33
428.972	3.23
429.179	3.43
429.386	3.72
429.593	3.44
429.8	3.4
430.007	3.67
430.214	3.75
430.421	3.44
430.628	3.36
430.835	3.3
431.042	3.37
431.249	3.3
431.456	3.45
431.662	3.61
431.869	3.87
432.076	3.78
432.283	3.96
432.49	3.79
432.697	3.82
432.903	3.55
433.11	3.46
433.317	3.47
433.524	3.81
433.73	3.66
433.937	3.95
434.144	3.96
434.35	3.89
434.557	3.64
434.764	3.71
434.97	3.54
435.177	3.77
435.384	3.61
435.59	3.66
435.797	3.89
436.003	3.98
436.21	3.81
436.416	3.91
436.623	3.86
436.829	3.84
437.036	3.89
437.242	3.91
437.449	3.86
437.655	4
437.862	3.93
438.068	3.85
438.275	3.99
438.481	4.24
438.687	4.2
438.894	4.24
439.1	4.29
439.307	4.31
439.513	4.12
439.719	4.09
439.926	4.07
440.132	3.99
440.338	3.86
440.544	4.06
440.751	4.03
440.957	4.09
441.163	4.04
441.369	4.12
441.575	3.86
441.782	3.9
441.988	3.75
442.194	3.9
442.4	3.9
442.606	4.19
442.812	4.26
443.018	4.37
443.224	4.34
443.431	4.43
443.637	4.13
443.843	3.96
444.049	3.98
444.255	3.84
444.461	3.77
444.667	3.87
444.873	4.11
445.079	4.03
445.284	4.22
445.49	4.01
445.696	3.88
445.902	3.76
446.108	3.79
446.314	3.62
446.52	3.76
446.726	4.01
446.931	4.01
447.137	4.08
447.343	4.29
447.549	4.21
447.755	4.1
447.96	4.15
448.166	4.02
448.372	3.92
448.578	4.07
448.783	4.09
448.989	4.15
449.195	4.43
449.4	4.47
449.606	4.39
449.812	4.28
450.017	4.31
450.223	4.12
450.428	4.03
450.634	4.15
450.84	4.3
451.045	4.16
451.251	4.03
451.456	4.36
451.662	4.35
451.867	4.39
452.073	4.37
452.278	4.53
452.483	4.48
452.689	4.44
452.894	4.43
453.1	4.46
453.305	4.4
453.51	4.24
453.716	4.1
453.921	4.1
454.127	4.11
454.332	4.05
454.537	3.99
454.742	4.16
454.948	4.07
455.153	4.05
455.358	4.22
455.563	4.38
455.769	4.32
455.974	4.25
456.179	4.1
456.384	4.06
456.589	3.95
456.795	3.83
457	3.88
457.205	4.14
457.41	4.07
457.615	4.03
457.82	4.15
458.025	4.13
458.23	4
458.435	4.03
458.64	3.96
458.845	4.11
459.05	4.15
459.255	4.16
