Data from Ofra_1a_PS_1GT37_Reflection_2.txt Node
Date: Tue Jul 20 10:44:43 EDT 2021
User: Adam
Spectrometer: FLMT01687
Trigger mode: 0
Integration Time (sec): 1.004000E0
Scans to average: 2
Electric dark correction enabled: true
Nonlinearity correction enabled: false
Boxcar width: 2
XAxis mode: Wavelengths
Number of Pixels in Spectrum: 3648
>>>>>Begin Spectral Data<<<<<
179.494	-417.26
179.716	-522.14
179.937	1105.69
180.158	-1471.34
180.38	147.36
180.601	95.06
180.823	31.75
181.044	38.45
181.265	7.16
181.486	157.25
181.708	104.46
181.929	-2236.36
182.15	11
182.372	32.51
182.593	352.65
182.814	-221.05
183.035	-57.24
183.257	2.33
183.478	-11.22
183.699	-33.96
183.92	-79.94
184.141	-53.16
184.363	-42.53
184.584	-38.98
184.805	-24.93
185.026	21.72
185.247	-6.8
185.468	-44.45
185.689	-35.5
185.91	-57.68
186.132	-39.85
186.353	-26.86
186.574	-27.96
186.795	-49.11
187.016	-10.85
187.237	-23.02
187.458	-17.5
187.679	-23.25
187.9	14.05
188.121	11.73
188.342	25.78
188.563	29.75
188.784	51.81
189.005	42.62
189.226	43.5
189.447	37.22
189.667	21.95
189.888	6.63
190.109	-16.49
190.33	-19.41
190.551	-25.69
190.772	-16.19
190.993	-15.94
191.214	-11.92
191.434	-36.97
191.655	-71.62
191.876	-28.41
192.097	-25.63
192.318	-9.08
192.538	-36.71
192.759	-12.21
192.98	-1.11
193.201	3.71
193.421	9.64
193.642	12.77
193.863	5.11
194.083	1.8
194.304	9.05
194.525	-4.43
194.745	1.74
194.966	10.07
195.187	6.53
195.407	-10.14
195.628	1.52
195.848	-7.1
196.069	-12.34
196.29	-19.82
196.51	-28.03
196.731	-41.85
196.951	-30.98
197.172	-35.83
197.392	-35.69
197.613	-3.36
197.833	-2.2
198.054	-15.46
198.274	-8.39
198.495	-30.82
198.715	-56.54
198.936	-34.08
199.156	-21.73
199.377	-23.68
199.597	9.04
199.817	10.77
200.038	-33.56
200.258	-7.55
200.479	-9.68
200.699	-27.98
200.919	-16.24
201.14	-10.21
201.36	-23.48
201.58	-38.52
201.801	-51.55
202.021	-55.91
202.241	-24.75
202.461	-7.08
202.682	4.27
202.902	26.72
203.122	24.68
203.342	14.67
203.563	-11.84
203.783	-34.63
204.003	-53.95
204.223	-44.21
204.443	-50.35
204.663	-89.64
204.884	-50.65
205.104	-46.56
205.324	-33.01
205.544	-46.92
205.764	22.86
205.984	12.72
206.204	14.22
206.424	-6.02
206.644	0.14
206.864	-45.94
207.084	-16.02
207.304	-38.2
207.525	-15.48
207.745	-6.02
207.964	8.47
208.184	-9.2
208.404	8.91
208.624	7.94
208.844	-7.99
209.064	-11.71
209.284	-12.21
209.504	-19.6
209.724	-19.34
209.944	-12.94
210.164	-10.55
210.384	-13.96
210.604	-66.58
210.823	-104.42
211.043	-66.92
211.263	-166.51
211.483	-85.1
211.703	-34.65
211.922	-7.16
212.142	-26.67
212.362	4.53
212.582	-22.09
212.801	-52.08
213.021	-66.16
213.241	-70.87
213.461	-68.8
213.68	-30.19
213.9	-20.56
214.12	-33.42
214.339	-32.07
214.559	-23.19
214.779	-44.67
214.998	-39.12
215.218	-18.23
215.438	-6.39
215.657	-0.54
215.877	-1.13
216.096	11.17
216.316	15.87
216.535	16.79
216.755	14.99
216.974	-2.71
217.194	-6.77
217.413	1.19
217.633	-0.33
217.852	-3.44
218.072	17.71
218.291	20.73
218.511	9.33
218.73	7.16
218.95	-19.57
219.169	-38.65
219.389	-24.37
219.608	-12.69
219.827	-10.35
220.047	13.68
220.266	-1.2
220.485	-11.19
220.705	-0.75
220.924	13.85
221.143	-7.55
221.363	16.3
221.582	16.55
221.801	8.46
222.021	3.68
222.24	6.11
222.459	19.68
222.678	31.14
222.897	25.63
223.117	30.23
223.336	37.52
223.555	23.82
223.774	5.96
223.993	14.67
224.213	38.2
224.432	14.5
224.651	-2.58
224.87	-1.2
225.089	3.2
225.308	-3.16
225.527	-3.16
225.746	-2.9
225.965	-1.74
226.184	-24.78
226.404	-20.55
226.623	5.73
226.842	15.07
227.061	12.06
227.28	24.18
227.499	17.28
227.718	-1.73
227.936	-11.6
228.155	-15.33
228.374	-13.35
228.593	-5.47
228.812	9.02
229.031	22.27
229.25	18.72
229.469	10.57
229.688	0.09
229.907	-3.28
230.125	-6.26
230.344	-9.77
230.563	-8.07
230.782	-7.29
231.001	3.2
231.22	-5.4
231.438	15.25
231.657	9.9
231.876	7.23
232.095	1.38
232.313	-13.9
232.532	-17.17
232.751	-28.75
232.969	-28.36
233.188	-46.6
233.407	-15.99
233.625	-11.99
233.844	6.81
234.063	4.45
234.281	23.93
234.5	15.31
234.719	6.12
234.937	-23.91
235.156	-23.53
235.374	-39.87
235.593	-24.78
235.811	-11.19
236.03	15.49
236.249	23.39
236.467	24.3
236.686	-1.07
236.904	5.38
237.123	-14.02
237.341	-39.62
237.559	-63.51
237.778	-26.41
237.996	-67.48
238.215	-151.23
238.433	-213.83
238.652	-71.08
238.87	-64.7
239.088	-83.91
239.307	-30.6
239.525	-7.68
239.743	-34.18
239.962	-63.71
240.18	-27.82
240.398	-22.21
240.617	-25.64
240.835	-21.12
241.053	-5.66
241.271	-6.48
241.49	0.26
241.708	-9.48
241.926	-18.19
242.144	-18.43
242.363	-43.14
242.581	-110
242.799	-115.62
243.017	-70.91
243.235	-47.61
243.453	-57.82
243.672	-31.29
243.89	-9.56
244.108	3.23
244.326	21.1
244.544	34.92
244.762	25.38
244.98	17.8
245.198	10.04
245.416	-5.56
245.634	-7.31
245.852	-15.9
246.07	14.08
246.288	12.91
246.506	6.61
246.724	-1.94
246.942	1.98
247.16	-5.73
247.378	-17.65
247.596	-9.51
247.814	-36.11
248.032	-21.11
248.25	7.29
248.468	11.49
248.685	22.79
248.903	31.73
249.121	30.58
249.339	16.48
249.557	20.41
249.775	16.58
249.992	16.39
250.21	19.16
250.428	21.35
250.646	19.93
250.863	-6.35
251.081	-8.73
251.299	-27.26
251.517	-26.86
251.734	-26.09
251.952	-0.39
252.17	-12.02
252.387	-15.41
252.605	-12.69
252.823	-16.79
253.04	-5.21
253.258	2.65
253.475	19.41
253.693	3.78
253.911	-2.75
254.128	-18.3
254.346	-7.74
254.563	-4.31
254.781	-0.28
254.998	8.57
255.216	-4.04
255.433	-9.27
255.651	-4.39
255.868	-16.77
256.086	4.37
256.303	21.67
256.521	19.75
256.738	12.45
256.956	13.6
257.173	-31.12
257.39	-42.82
257.608	-40.39
257.825	-28.87
258.043	-16.55
258.26	-0.48
258.477	6.2
258.695	-3.48
258.912	-18.34
259.129	-41.43
259.346	-37.2
259.564	-23.21
259.781	-27.72
259.998	4.5
260.216	26.5
260.433	13.89
260.65	-3.52
260.867	11.18
261.084	-6.28
261.302	-33.75
261.519	-21.86
261.736	-6.47
261.953	-14.24
262.17	-5.26
262.387	-1.84
262.604	4.75
262.822	10.96
263.039	14.51
263.256	9.58
263.473	9.33
263.69	2.6
263.907	-8.17
264.124	-14.74
264.341	-2.67
264.558	-6.03
264.775	-11.2
264.992	-12.21
265.209	-37.18
265.426	-56.05
265.643	-42.05
265.86	-64.95
266.077	-51.32
266.294	-19.65
266.51	-3.17
266.727	-5.74
266.944	5.2
267.161	7.58
267.378	16.71
267.595	2.15
267.812	-16.05
268.028	-40.72
268.245	-40.11
268.462	-30.55
268.679	-23.66
268.896	-0.44
269.112	1.98
269.329	-18.92
269.546	-15.56
269.763	1.18
269.979	-0.75
270.196	12.92
270.413	19.55
270.629	6.77
270.846	-17.5
271.063	-18.56
271.279	-21.17
271.496	-36.5
271.712	-15.53
271.929	10.01
272.146	11.43
272.362	25.77
272.579	30.98
272.795	41.68
273.012	34.61
273.228	48.57
273.445	30.57
273.661	25.1
273.878	-2.09
274.094	-14.82
274.311	-34.15
274.527	-55.23
274.744	-25.69
274.96	-5.4
275.177	5.41
275.393	27.42
275.609	34.63
275.826	19.55
276.042	12.26
276.259	8.18
276.475	-9.95
276.691	-0.94
276.908	5
277.124	-1.2
277.34	4.94
277.557	-13.92
277.773	-40.8
277.989	-35.71
278.205	-18.27
278.422	-32.36
278.638	-14.15
278.854	-16.53
279.07	-0.84
279.286	-7.99
279.503	7.6
279.719	3.39
279.935	8.87
280.151	2.72
280.367	6.01
280.583	-9.9
280.799	-15.38
281.016	-42.86
281.232	-39.85
281.448	-39.36
281.664	-13.02
281.88	1.76
282.096	15.01
282.312	1.18
282.528	-5.53
282.744	-26.49
282.96	-60.7
283.176	-106.53
283.392	-141.09
283.608	-103.23
283.824	-125.72
284.04	-150.14
284.256	-81.07
284.471	-40.28
284.687	-43.26
284.903	-14.76
285.119	10.84
285.335	23.91
285.551	20.66
285.767	11.45
285.982	11.07
286.198	-20.7
286.414	-33.27
286.63	-49.59
286.846	-31.69
287.061	-32.99
287.277	-0.38
287.493	-20.12
287.709	-17.21
287.924	5.7
288.14	18.11
288.356	19.54
288.571	27.96
288.787	22.72
289.003	15.97
289.218	-20.99
289.434	-33.23
289.65	-5.04
289.865	0.22
290.081	5.42
290.296	20.01
290.512	10.22
290.727	-19.75
290.943	-14.43
291.159	-23.86
291.374	-55.64
291.59	-37.01
291.805	-34.45
292.021	-33.01
292.236	-23.79
292.451	-2.08
292.667	-8.71
292.882	2.13
293.098	-7.64
293.313	-20.55
293.529	-15.19
293.744	-9.08
293.959	-13.52
294.175	-7.17
294.39	-18.63
294.605	3.16
294.821	7.69
295.036	12.64
295.251	15.15
295.467	15.81
295.682	13.31
295.897	0.08
296.112	-0.57
296.328	5.41
296.543	3.85
296.758	-6.17
296.973	-14.37
297.188	-21.63
297.404	-61.38
297.619	-33.59
297.834	-41.74
298.049	-8.55
298.264	0.13
298.479	12.77
298.694	24.88
298.909	23.11
299.125	32.57
299.34	29.37
299.555	22.06
299.77	20.88
299.985	19.33
300.2	9.7
300.415	10.9
300.63	17.02
300.845	-0.83
301.06	-5.64
301.275	-9.58
301.49	9.17
301.704	6.54
301.919	6.1
302.134	9.42
302.349	7.3
302.564	-14.39
302.779	-29.96
302.994	-8.61
303.209	-15.03
303.423	-13.84
303.638	-14.79
303.853	-14.33
304.068	-56.92
304.283	-38.69
304.497	-57.47
304.712	-32.31
304.927	-12.98
305.142	-1.27
305.356	7.71
305.571	16
305.786	14.16
306	16.24
306.215	29
306.43	20.49
306.644	20.53
306.859	-1.07
307.074	9.41
307.288	13.48
307.503	15.89
307.717	7.7
307.932	22.94
308.147	14.45
308.361	6.38
308.576	-14.9
308.79	-0.89
309.005	-13.55
309.219	-8.47
309.434	2.19
309.648	8.78
309.863	10.82
310.077	15.23
310.292	24.53
310.506	9.24
310.72	0.3
310.935	15.57
311.149	4.88
311.364	-5.56
311.578	2.48
311.792	13.51
312.007	-25.24
312.221	-34.74
312.435	-20.9
312.649	-11.71
312.864	-0.21
313.078	3.52
313.292	13.48
313.507	19.18
313.721	11.72
313.935	-5.1
314.149	-15.64
314.363	-12.5
314.578	-21.24
314.792	-65.56
315.006	-58.26
315.22	-32.71
315.434	-40.22
315.648	-60.87
315.862	-37.71
316.077	-34.56
316.291	-36.7
316.505	-49.33
316.719	-14.03
316.933	-3.82
317.147	-16.33
317.361	-7.24
317.575	1.51
317.789	4.21
318.003	-4.91
318.217	19.85
318.431	8.68
318.645	-2.72
318.859	-13.33
319.073	-2.89
319.287	-11.49
319.5	-7.81
319.714	-3.36
319.928	3.48
320.142	-0.07
320.356	9.22
320.57	-7.48
320.784	-2.42
320.997	-34.28
321.211	-21.2
321.425	-54.24
321.639	-15.86
321.853	-14.64
322.066	-5.21
322.28	-25.66
322.494	-17.05
322.707	-21.81
322.921	-34.59
323.135	-32.49
323.349	-20.95
323.562	-11.87
323.776	-24.8
323.989	-9.73
324.203	-20.42
324.417	-17.71
324.63	-25.41
324.844	-31.55
325.057	-60.01
325.271	-42.38
325.485	-59.18
325.698	-38.92
325.912	-17.11
326.125	-11.91
326.339	-6.73
326.552	-7.91
326.766	-38.01
326.979	-50.54
327.193	-46.35
327.406	-60.77
327.619	-35
327.833	-19.25
328.046	-7.63
328.26	-13.29
328.473	-2.79
328.686	-17.46
328.9	-3.51
329.113	-18.78
329.326	-14.19
329.54	-0.35
329.753	11.87
329.966	7.9
330.179	14.68
330.393	17.13
330.606	-1.11
330.819	-19.77
331.032	-21.79
331.246	-16.37
331.459	-3.85
331.672	-10.86
331.885	0.26
332.098	6.45
332.311	5.28
332.525	-1.39
332.738	0.53
332.951	-10.47
333.164	-11.81
333.377	-12.29
333.59	-19.61
333.803	-8.9
334.016	-5.05
334.229	-8.33
334.442	-10
334.655	-7.76
334.868	-18.9
335.081	-11.09
335.294	-26.41
335.507	-21.98
335.72	-21.92
335.933	-17.98
336.146	-30.39
336.359	-10.09
336.572	-20.52
336.785	-32.62
336.997	-39.18
337.21	-17.14
337.423	-29.14
337.636	-11.22
337.849	-14.65
338.062	-3.19
338.274	-2.86
338.487	-10.04
338.7	-14.18
338.913	-3.93
339.125	-20.17
339.338	-11.57
339.551	-8.93
339.763	-7.96
339.976	-11.74
340.189	-8.54
340.402	-4.93
340.614	13.02
340.827	15
341.039	6.78
341.252	0.56
341.465	-14.45
341.677	-16.58
341.89	-23.89
342.102	-5.55
342.315	5.71
342.527	2.45
342.74	-7.32
342.952	-12.3
343.165	-21.62
343.377	-15.65
343.59	-25
343.802	-21.84
344.015	-7.14
344.227	0.2
344.44	-5.39
344.652	13.64
344.864	9.54
345.077	19.89
345.289	20.16
345.502	26.92
345.714	24.13
345.926	31.21
346.139	20.47
346.351	11.2
346.563	14.64
346.775	12.57
346.988	8.46
347.2	-9.66
347.412	-9.85
347.624	-13.94
347.837	-9.88
348.049	-13.82
348.261	-14.47
348.473	-23.61
348.685	-32.37
348.897	-54.97
349.11	-42.11
349.322	-33.06
349.534	-38.97
349.746	-33.56
349.958	-41.05
350.17	-71.65
350.382	-75.44
350.594	-49.14
350.806	-29.05
351.018	3.6
351.23	25.93
351.442	38.12
351.654	32.22
351.866	22.04
352.078	14.33
352.29	0.35
352.502	-8.63
352.714	-13.75
352.926	-7.08
353.138	-5.35
353.35	-8.16
353.561	-13.89
353.773	-6.52
353.985	1.97
354.197	4.56
354.409	9.1
354.621	1.95
354.832	-6.6
355.044	-27.86
355.256	-27.79
355.468	-23.56
355.679	4.54
355.891	12.44
356.103	19.73
356.314	14.11
356.526	-2.4
356.738	-8.12
356.949	-16.46
357.161	-18.91
357.373	-29.19
357.584	-11.17
357.796	-11.85
358.008	-0.28
358.219	6.22
358.431	7.19
358.642	12.97
358.854	16.23
359.065	3.59
359.277	-5.51
359.488	4.31
359.7	0.93
359.911	-10.79
360.123	11.07
360.334	10.68
360.546	9.18
360.757	1.84
360.969	1.56
361.18	-10.41
361.391	-3.29
361.603	-4.65
361.814	0.08
362.025	14.24
362.237	8.17
362.448	16.61
362.659	15.65
362.871	2.51
363.082	-7.15
363.293	-16.15
363.504	-26.49
363.716	-37.96
363.927	4.67
364.138	-16.6
364.349	-20.74
364.56	-35.75
364.772	-19.52
364.983	-27.93
365.194	-3.72
365.405	19.19
365.616	37.66
365.827	27.08
366.038	30.24
366.25	26.27
366.461	20.84
366.672	7.15
366.883	9.67
367.094	-8.09
367.305	-23.87
367.516	-19.89
367.727	-24.68
367.938	-16.59
368.149	-17.27
368.36	-8.36
368.571	-39.16
368.781	-29.28
368.992	-35.98
369.203	-22.87
369.414	-21.86
369.625	-8.77
369.836	-3.26
370.047	-3.31
370.258	-2.44
370.468	-4.49
370.679	0.07
370.89	-13.47
371.101	-4.41
371.312	-13.1
371.522	-20.86
371.733	-25.41
371.944	-26.26
372.155	-27.92
372.365	-22.46
372.576	-19.22
372.787	-7.34
372.997	-3.02
373.208	-7.38
373.419	-24.09
373.629	-19.19
373.84	-29.09
374.05	-33.44
374.261	-52.33
374.472	-16.06
374.682	-7.35
374.893	-14.59
375.103	-3.57
375.314	19.77
375.524	5.79
375.735	-0.68
375.945	14.66
376.156	5.69
376.366	-9.2
376.577	-0.72
376.787	8.05
376.997	3.05
377.208	8.11
377.418	13.2
377.629	11.49
377.839	9.58
378.049	9.28
378.26	4.39
378.47	-2.28
378.68	-8.4
378.89	-8.12
379.101	-10.17
379.311	-7.2
379.521	-7.51
379.732	1.28
379.942	-1.7
380.152	-8.9
380.362	-3.25
380.572	13.86
380.783	18.92
380.993	14.26
381.203	12.29
381.413	10.09
381.623	1.37
381.833	0.68
382.043	-2.51
382.253	6.64
382.463	15.73
382.674	21.49
382.884	14.94
383.094	17.34
383.304	21.02
383.514	17.72
383.724	8.54
383.934	1.61
384.144	4.66
384.353	-0.34
384.563	-7.63
384.773	-0.86
384.983	-3
385.193	-5.78
385.403	-1.22
385.613	2.38
385.823	-0.63
386.033	1.81
386.242	-1.01
386.452	-6.55
386.662	-9.79
386.872	-4.45
387.082	-3.08
387.291	-0.28
387.501	6.18
387.711	11.11
387.921	7.06
388.13	10.56
388.34	15.11
388.55	7.22
388.759	-0.18
388.969	4.5
389.179	5.32
389.388	-3.47
389.598	-2.49
389.807	1.52
390.017	-6.48
390.227	-10.82
390.436	-6.97
390.646	-6.29
390.855	-6.5
391.065	-2.06
391.274	-2.34
391.484	-1.67
391.693	-1.31
391.903	-1.62
392.112	-1.52
392.322	-0.4
392.531	-3.17
392.74	-5.26
392.95	-3.44
393.159	-3.79
393.369	-3.65
393.578	-0.39
393.787	1.22
393.997	0.69
394.206	0.06
394.415	1.61
394.625	0.55
394.834	0.6
395.043	1.09
395.252	3.39
395.462	2.87
395.671	3.05
395.88	3.93
396.089	3.32
396.298	2.41
396.508	3.62
396.717	3.03
396.926	2.4
397.135	2.88
397.344	2.31
397.553	1.19
397.762	2.83
397.971	2.47
398.181	2.28
398.39	1.82
398.599	2.14
398.808	1.42
399.017	2.54
399.226	2.93
399.435	3.33
399.644	3.59
399.853	3.68
400.062	3.58
400.27	3.15
400.479	3.31
400.688	3.19
400.897	3.03
401.106	2.8
401.315	2.83
401.524	2.7
401.733	2.3
401.941	2.19
402.15	2.12
402.359	2.11
402.568	2.33
402.777	2.65
402.985	2.43
403.194	2.4
403.403	2.92
403.612	2.74
403.82	2.41
404.029	2.93
404.238	3.1
404.446	2.99
404.655	3.13
404.864	3.48
405.072	3.35
405.281	3.22
405.489	2.97
405.698	3
405.906	3.03
406.115	2.89
406.324	2.86
406.532	2.94
406.741	3.01
406.949	2.91
407.158	2.97
407.366	2.94
407.574	3
407.783	2.94
407.991	3.01
408.2	3.16
408.408	3.18
408.617	3.06
408.825	2.9
409.033	2.77
409.242	2.67
409.45	2.68
409.658	2.63
409.867	2.8
410.075	2.86
410.283	2.8
410.491	2.68
410.7	2.7
410.908	2.66
411.116	2.72
411.324	2.74
411.533	2.82
411.741	2.82
411.949	2.78
412.157	2.71
412.365	2.75
412.573	2.79
412.781	2.82
412.99	2.81
413.198	2.85
413.406	2.85
413.614	2.96
413.822	3.01
414.03	3.04
414.238	2.97
414.446	3
414.654	2.87
414.862	2.81
415.07	2.73
415.278	2.75
415.486	2.55
415.694	2.66
415.902	2.65
416.109	2.65
416.317	2.7
416.525	2.81
416.733	2.64
416.941	2.61
417.149	2.49
417.357	2.5
417.564	2.46
417.772	2.53
417.98	2.55
418.188	2.55
418.395	2.28
418.603	2.23
418.811	2.16
419.019	2.13
419.226	2.32
419.434	2.43
419.642	2.31
419.849	2.22
420.057	2.22
420.265	2.03
420.472	2.01
420.68	2.22
420.887	2.29
421.095	2.3
421.302	2.4
421.51	2.51
421.717	2.5
421.925	2.6
422.132	2.48
422.34	2.38
422.547	2.26
422.755	2.23
422.962	2.16
423.17	2.05
423.377	2.14
423.585	2.3
423.792	2.2
423.999	2.31
424.207	2.34
424.414	2.3
424.621	2.17
424.829	2.38
425.036	2.31
425.243	2.54
425.451	2.56
425.658	2.51
425.865	2.48
426.072	2.47
426.28	2.5
426.487	2.45
426.694	2.46
426.901	2.43
427.108	2.23
427.315	2.05
427.523	1.95
427.73	1.94
427.937	1.8
428.144	2.07
428.351	2.14
428.558	2.32
428.765	2.3
428.972	2.43
429.179	2.06
429.386	2.08
429.593	1.93
429.8	1.91
430.007	1.93
430.214	2.13
430.421	2.19
430.628	2.25
430.835	2.4
431.042	2.29
431.249	2.29
431.456	2.28
431.662	2.47
431.869	2.51
432.076	2.66
432.283	2.8
432.49	2.71
432.697	2.67
432.903	2.59
433.11	2.51
433.317	2.57
433.524	2.65
433.73	2.59
433.937	2.73
434.144	2.64
434.35	2.5
434.557	2.56
434.764	2.56
434.97	2.39
435.177	2.51
435.384	2.61
435.59	2.5
435.797	2.57
436.003	2.58
436.21	2.51
436.416	2.49
436.623	2.6
436.829	2.53
437.036	2.56
437.242	2.7
437.449	2.63
437.655	2.68
437.862	2.74
438.068	2.74
438.275	2.72
438.481	2.78
438.687	2.65
438.894	2.7
439.1	2.56
439.307	2.6
439.513	2.6
439.719	2.7
439.926	2.64
440.132	2.81
440.338	2.71
440.544	2.76
440.751	2.63
440.957	2.72
441.163	2.62
441.369	2.7
441.575	2.58
441.782	2.68
441.988	2.65
442.194	2.65
442.4	2.61
442.606	2.79
442.812	2.79
443.018	2.77
443.224	2.91
443.431	2.91
443.637	2.77
443.843	2.82
444.049	2.92
444.255	2.92
444.461	2.78
444.667	2.79
444.873	2.74
445.079	2.75
445.284	2.7
445.49	2.85
445.696	2.89
445.902	2.9
446.108	2.83
446.314	2.89
446.52	3.03
446.726	3.11
446.931	3.05
447.137	3.04
447.343	3.07
447.549	3.01
447.755	2.9
447.96	3
448.166	3.12
448.372	3.05
448.578	3
448.783	3.07
448.989	3.09
449.195	3.01
449.4	3.1
449.606	3.12
449.812	2.98
450.017	2.98
450.223	2.89
450.428	2.8
450.634	2.75
450.84	2.83
451.045	2.79
451.251	2.96
451.456	3.08
451.662	3.23
451.867	3.31
452.073	3.4
452.278	3.34
452.483	3.31
452.689	3.31
452.894	3.31
453.1	3.22
453.305	3.18
453.51	3.23
453.716	3.11
453.921	3.12
454.127	3.14
454.332	3.14
454.537	3.1
454.742	3.09
454.948	3.04
455.153	3.07
455.358	3.09
455.563	3.2
455.769	3.28
455.974	3.33
456.179	3.25
456.384	3.19
456.589	3
456.795	3.03
457	2.89
457.205	2.93
457.41	2.93
457.615	2.97
457.82	3.02
458.025	3.12
458.23	3.12
458.435	3.16
458.64	3.21
458.845	3.07
459.05	3.12
459.255	3.08
459.46	3.04
459.665	2.97
459.87	3
460.075	3
460.28	3.07
460.485	3.22
460.69	3.25
460.895	3.29
461.099	3.22
461.304	3.11
461.509	3.06
461.714	3.12
461.919	3.1
462.123	3.12
462.328	3.1
462.533	2.96
462.738	2.83
462.942	2.83
463.147	2.85
463.352	2.94
463.556	3.08
463.761	3.19
463.966	3.24
464.17	3.35
464.375	3.37
