Data from Ofra_PS_T2_2A_1GT42_Reflection_1.txt Node
Date: Wed Jul 21 16:55:03 EDT 2021
User: Adam
Spectrometer: FLMT01687
Trigger mode: 0
Integration Time (sec): 1.100000E0
Scans to average: 2
Electric dark correction enabled: true
Nonlinearity correction enabled: false
Boxcar width: 2
XAxis mode: Wavelengths
Number of Pixels in Spectrum: 3648
>>>>>Begin Spectral Data<<<<<
179.494	459.8
179.716	524
179.937	483.82
180.158	483.69
180.38	813.59
180.601	386.05
180.823	93.54
181.044	-25.71
181.265	-26.65
181.486	26.47
181.708	51.21
181.929	513.78
182.15	-675.7
182.372	59.88
182.593	52.35
182.814	6.76
183.035	59.52
183.257	63.61
183.478	-24.84
183.699	-11.38
183.92	3.52
184.141	-1.91
184.363	-10.02
184.584	-10.71
184.805	34.52
185.026	64.47
185.247	56.45
185.468	27.19
185.689	28.29
185.91	2.26
186.132	-11.01
186.353	8.36
186.574	44.64
186.795	59.76
187.016	18.88
187.237	9.56
187.458	-13.4
187.679	-9.91
187.9	-19.16
188.121	14.2
188.342	22.33
188.563	30.8
188.784	31.09
189.005	36.88
189.226	81.08
189.447	91.57
189.667	-55.22
189.888	-209.73
190.109	-743.83
190.33	-510.81
190.551	-1112.17
190.772	-188.8
190.993	-174.64
191.214	-128.33
191.434	-85.48
191.655	-5.86
191.876	-48.45
192.097	-78.63
192.318	-134.58
192.538	-226.03
192.759	-150.68
192.98	-82.92
193.201	-18.69
193.421	-7.09
193.642	3.6
193.863	-10.76
194.083	-23.59
194.304	-22.72
194.525	-32.12
194.745	-59.78
194.966	-48.37
195.187	-38.09
195.407	-91.38
195.628	-115.18
195.848	-102.71
196.069	-101.38
196.29	-57.88
196.51	-67.05
196.731	-78.73
196.951	-85.48
197.172	-82.85
197.392	-126.77
197.613	-100.47
197.833	-98.62
198.054	-94.43
198.274	-53.61
198.495	-51.48
198.715	-29.75
198.936	-49.61
199.156	-39.21
199.377	-126.64
199.597	-126.89
199.817	-148.76
200.038	-102.64
200.258	-157.72
200.479	-112.57
200.699	-130.87
200.919	-37.47
201.14	-40.5
201.36	-37.6
201.58	1.81
201.801	23
202.021	-17.45
202.241	-14.02
202.461	-12.52
202.682	-66.01
202.902	-130.02
203.122	-46.73
203.342	-18.91
203.563	-12.08
203.783	-3.89
204.003	-23.26
204.223	-32.92
204.443	-19.21
204.663	-51.17
204.884	-32.42
205.104	-10.13
205.324	0.66
205.544	27.27
205.764	38.85
205.984	34.22
206.204	45.21
206.424	33.59
206.644	0.83
206.864	-0.51
207.084	-13.32
207.304	-32.51
207.525	-117.11
207.745	-71.44
207.964	13.01
208.184	-38.64
208.404	-64.18
208.624	-68.86
208.844	-61.5
209.064	-322.75
209.284	-361.33
209.504	-203.14
209.724	-73.1
209.944	-54.7
210.164	-19.38
210.384	7.7
210.604	-13.79
210.823	-48.32
211.043	-50.15
211.263	-42.22
211.483	-40.82
211.703	-55.41
211.922	-29.12
212.142	13.75
212.362	12.69
212.582	-7.07
212.801	-2.15
213.021	-27.35
213.241	-39.48
213.461	-56.49
213.68	-64.42
213.9	-82.02
214.12	-60.44
214.339	-107.88
214.559	-90.64
214.779	-44.01
214.998	-10.3
215.218	-37.4
215.438	-15.28
215.657	-11.62
215.877	-10.32
216.096	-0.42
216.316	7.8
216.535	-9.59
216.755	-17.27
216.974	-91.4
217.194	-174.76
217.413	-142.62
217.633	-126.56
217.852	-182.49
218.072	-68.79
218.291	7.52
218.511	34.2
218.73	22.75
218.95	11.94
219.169	6.08
219.389	-47.27
219.608	-30.37
219.827	-40.95
220.047	-26.2
220.266	-24.85
220.485	-3.73
220.705	-8.3
220.924	-17.4
221.143	5.45
221.363	-5.5
221.582	12.1
221.801	6.08
222.021	37
222.24	-13.37
222.459	16.57
222.678	-40.29
222.897	-121
223.117	-180.37
223.336	-148.54
223.555	-112.29
223.774	-71.59
223.993	-9.5
224.213	63.5
224.432	56.45
224.651	66.05
224.87	39.92
225.089	31.82
225.308	12.98
225.527	34.95
225.746	27.52
225.965	31.98
226.184	22.59
226.404	18.64
226.623	-12.8
226.842	10.32
227.061	23.87
227.28	18.15
227.499	13.37
227.718	38.08
227.936	24.86
228.155	33.24
228.374	32.57
228.593	30.32
228.812	20.51
229.031	11.3
229.25	-40.19
229.469	-45.84
229.688	-43.86
229.907	-13.23
230.125	-20.73
230.344	-6.34
230.563	10.68
230.782	24.21
231.001	-39.7
231.22	-28.44
231.438	-21.55
231.657	-31.21
231.876	-55.96
232.095	-6.75
232.313	-6.98
232.532	-15.96
232.751	-3.38
232.969	-17.55
233.188	-82.1
233.407	11.89
233.625	8.62
233.844	2.13
234.063	35.29
234.281	55.83
234.5	27.66
234.719	30.09
234.937	35.79
235.156	21.56
235.374	0.72
235.593	-5.52
235.811	-5.29
236.03	-11.02
236.249	-47.12
236.467	-57.71
236.686	-17.14
236.904	-2.23
237.123	-34.7
237.341	-19.47
237.559	-8
237.778	-28.45
237.996	-63.06
238.215	-11.44
238.433	2.94
238.652	-8.97
238.87	-34.9
239.088	-24.64
239.307	-36.13
239.525	-65.16
239.743	-74.01
239.962	-57.39
240.18	-63.78
240.398	-99.49
240.617	-85.88
240.835	-68.56
241.053	-34.87
241.271	-23.49
241.49	21.56
241.708	10.28
241.926	5.42
242.144	4.85
242.363	-12.88
242.581	-44.16
242.799	-34.06
243.017	-13.02
243.235	-27.62
243.453	-34.99
243.672	-24.25
243.89	-20.58
244.108	-30.9
244.326	-20
244.544	-15.13
244.762	-28.18
244.98	-30.56
245.198	-19.29
245.416	-40.46
245.634	-36.67
245.852	-51.82
246.07	-70.28
246.288	-60.28
246.506	-83.81
246.724	-59.59
246.942	-13.68
247.16	12.17
247.378	15.81
247.596	43.59
247.814	49.17
248.032	20.39
248.25	31.8
248.468	26.83
248.685	31.35
248.903	37.66
249.121	31.86
249.339	18.05
249.557	6.4
249.775	11.02
249.992	-46.24
250.21	-28.57
250.428	-33.68
250.646	-55.46
250.863	-70.01
251.081	-33.68
251.299	-23.76
251.517	-12.91
251.734	9.18
251.952	13.67
252.17	1.51
252.387	5.66
252.605	3.16
252.823	4.24
253.04	10.35
253.258	26.85
253.475	4.47
253.693	19.67
253.911	34.49
254.128	34.78
254.346	34.61
254.563	27.92
254.781	12.32
254.998	-2.67
255.216	-2.34
255.433	5
255.651	56.5
255.868	84.06
256.086	78.42
256.303	64.9
256.521	44.95
256.738	9.11
256.956	-25.28
257.173	-51.91
257.39	-60.8
257.608	-56.1
257.825	4.57
258.043	36.5
258.26	38.39
258.477	55.5
258.695	20.5
258.912	-34.57
259.129	-22.94
259.346	-45.85
259.564	-78.82
259.781	-71.51
259.998	-14.56
260.216	-9.39
260.433	24.38
260.65	26.23
260.867	29.51
261.084	-0.19
261.302	-2.44
261.519	-13.48
261.736	-21.18
261.953	-32.72
262.17	9.77
262.387	-25.07
262.604	-32.05
262.822	-24.93
263.039	3.12
263.256	-45.3
263.473	-1.1
263.69	0.64
263.907	23.17
264.124	29.69
264.341	28.15
264.558	23.31
264.775	17.37
264.992	-9.54
265.209	-26.18
265.426	1.5
265.643	-2.54
265.86	6.71
266.077	20.55
266.294	26.84
266.51	-18.48
266.727	-24.88
266.944	-20.23
267.161	-42.57
267.378	-53.73
267.595	-21.44
267.812	-40.22
268.028	-58.34
268.245	-26.36
268.462	-20.53
268.679	-16.45
268.896	18.68
269.112	3.56
269.329	8.36
269.546	13.02
269.763	0.95
269.979	-7.71
270.196	1.55
270.413	-32.29
270.629	-37.56
270.846	-35.25
271.063	-33.41
271.279	-20.72
271.496	-11.32
271.712	8.59
271.929	18.17
272.146	3.22
272.362	-7.34
272.579	9.5
272.795	7.25
273.012	8.25
273.228	35.79
273.445	8.73
273.661	2.06
273.878	-19.06
274.094	-9.36
274.311	-55.19
274.527	9.85
274.744	10.67
274.96	1.21
275.177	-4.11
275.393	5.84
275.609	-1.85
275.826	13.35
276.042	19.03
276.259	36.12
276.475	47.64
276.691	38.09
276.908	15.65
277.124	28.34
277.34	15.79
277.557	7.45
277.773	1.28
277.989	1.87
278.205	-14.14
278.422	-4.47
278.638	3.79
278.854	18.18
279.07	25.18
279.286	24.21
279.503	2.84
279.719	-9.08
279.935	-31.27
280.151	-35.95
280.367	-16.1
280.583	-35.25
280.799	-36.37
281.016	-58.91
281.232	-32.44
281.448	-35.12
281.664	-14.26
281.88	-39.18
282.096	-18.61
282.312	-1.34
282.528	-12.55
282.744	-12.62
282.96	-0.81
283.176	1.86
283.392	-17.95
283.608	-14.68
283.824	-12.44
284.04	2.67
284.256	4.52
284.471	-1.98
284.687	5.22
284.903	25.22
285.119	15.16
285.335	1.77
285.551	12.87
285.767	-8.03
285.982	-25.51
286.198	-49.17
286.414	-2.21
286.63	1.85
286.846	23.1
287.061	7.36
287.277	37.51
287.493	11.42
287.709	23.64
287.924	7.86
288.14	40.63
288.356	30.37
288.571	47.57
288.787	33.9
289.003	35.31
289.218	9.93
289.434	-17.67
289.65	-18.8
289.865	-33.2
290.081	-14.18
290.296	14.19
290.512	23.56
290.727	1.38
290.943	10.21
291.159	5.67
291.374	-1.24
291.59	-24.18
291.805	-11.07
292.021	-8.98
292.236	-21.82
292.451	-8.08
292.667	7.24
292.882	9.89
293.098	-1.86
293.313	-22.27
293.529	-45.24
293.744	-57.07
293.959	-62.67
294.175	-40.01
294.39	-15.72
294.605	-9.84
294.821	6.87
295.036	10.62
295.251	9.99
295.467	11.26
295.682	11.53
295.897	-2.23
296.112	-25.55
296.328	-24.95
296.543	-57.64
296.758	-40.76
296.973	-21.48
297.188	12.67
297.404	-25.83
297.619	-30.98
297.834	-43.87
298.049	-55.97
298.264	-83.55
298.479	-15.33
298.694	-2.89
298.909	7.44
299.125	10.61
299.34	24.05
299.555	3.17
299.77	16.08
299.985	-4.98
300.2	-46.26
300.415	-56.1
300.63	-41.41
300.845	-55.26
301.06	-60.14
301.275	-23.52
301.49	-14.28
301.704	-18.64
301.919	-20.58
302.134	-29.28
302.349	-38.13
302.564	-80.19
302.779	-85.06
302.994	-108.11
303.209	-36.92
303.423	-21.38
303.638	16.95
303.853	-11.55
304.068	-3.32
304.283	-6.93
304.497	-1.3
304.712	-2.87
304.927	12.68
305.142	7.17
305.356	-0.3
305.571	-13.91
305.786	-21.93
306	-44.78
306.215	-49.46
306.43	-44.28
306.644	-25.44
306.859	9.85
307.074	28.93
307.288	18.53
307.503	5.89
307.717	11.79
307.932	2.14
308.147	-7.17
308.361	-1.07
308.576	-8.41
308.79	-61.9
309.005	-68.8
309.219	-41.12
309.434	-46.41
309.648	-33.46
309.863	-1.25
310.077	16.93
310.292	4.34
310.506	2.26
310.72	16.44
310.935	21.85
311.149	13.12
311.364	22.36
311.578	33.08
311.792	17.73
312.007	14.86
312.221	2.1
312.435	7.22
312.649	0.15
312.864	35.99
313.078	36.84
313.292	92.97
313.507	42.19
313.721	59.87
313.935	20.18
314.149	14.58
314.363	3.31
314.578	11.77
314.792	6.26
315.006	-13.95
315.22	2.77
315.434	5.55
315.648	14.06
315.862	22.34
316.077	26.6
316.291	-4.27
316.505	-6.28
316.719	-34.43
316.933	-59.59
317.147	-50.57
317.361	-70.46
317.575	-81.03
317.789	-103.71
318.003	-137.55
318.217	-118.31
318.431	-28.97
318.645	6.03
318.859	20.43
319.073	27.57
319.287	29.73
319.5	2.27
319.714	-34.8
319.928	-56.52
320.142	-66.95
320.356	-36.54
320.57	-17.92
320.784	-31.99
320.997	-65.01
321.211	-51.39
321.425	-91.95
321.639	-96.39
321.853	-43.23
322.066	-17.13
322.28	-12.78
322.494	-8.13
322.707	7.79
322.921	3.16
323.135	2.22
323.349	4.62
323.562	1.54
323.776	-8.85
323.989	-10.88
324.203	-14.05
324.417	-29.82
324.63	-37.38
324.844	-29.2
325.057	-24.9
325.271	-15.5
325.485	7.9
325.698	21.89
325.912	33.5
326.125	21.36
326.339	18.33
326.552	1.41
326.766	15.07
326.979	18.6
327.193	39.7
327.406	27.19
327.619	19.38
327.833	16.28
328.046	-5.7
328.26	-36.32
328.473	-10.52
328.686	-23.06
328.9	-44.91
329.113	-39.41
329.326	-58.59
329.54	-55.86
329.753	-46.98
329.966	-28.99
330.179	-26.09
330.393	-8.76
330.606	8.32
330.819	14.14
331.032	19.75
331.246	30
331.459	47.28
331.672	34.99
331.885	30.41
332.098	9.59
332.311	-22.81
332.525	-61.81
332.738	-55.4
332.951	-28.54
333.164	1.95
333.377	12.56
333.59	35.22
333.803	33.21
334.016	30.13
334.229	29.49
334.442	38.29
334.655	39.15
334.868	37.21
335.081	18.85
335.294	-3.8
335.507	-8.39
335.72	-30.59
335.933	-29.35
336.146	-43.93
336.359	-30
336.572	-54.69
336.785	-72.42
336.997	-48.83
337.21	-17.06
337.423	-25.96
337.636	-5.26
337.849	15.05
338.062	-8.1
338.274	-7.35
338.487	-1.86
338.7	-16.9
338.913	-34.01
339.125	-54.33
339.338	-89.92
339.551	-76.6
339.763	-39.49
339.976	-1.05
340.189	18.99
340.402	27.55
340.614	17.99
340.827	8.8
341.039	-25.24
341.252	-22.1
341.465	0.64
341.677	7.26
341.89	-19.28
342.102	1.75
342.315	-8.96
342.527	-50.73
342.74	-51.24
342.952	-5.41
343.165	3.23
343.377	20.49
343.59	18.01
343.802	25.4
344.015	7.88
344.227	18.57
344.44	10.38
344.652	12.37
344.864	7.83
345.077	29.77
345.289	26.79
345.502	24.36
345.714	18.26
345.926	13.35
346.139	0.54
346.351	6.79
346.563	24.47
346.775	25.02
346.988	26.16
347.2	15.19
347.412	-44.04
347.624	-65.88
347.837	-80
348.049	-72.25
348.261	-22.33
348.473	-0.92
348.685	5.03
348.897	8.4
349.11	4.81
349.322	-37.34
349.534	-21.56
349.746	-19.69
349.958	-13.99
350.17	-4.78
350.382	28.06
350.594	24.29
350.806	22.17
351.018	31.14
351.23	7.48
351.442	-25.24
351.654	-40.07
351.866	-34.86
352.078	-35.25
352.29	-9.95
352.502	4.98
352.714	12.69
352.926	-1.35
353.138	-8.07
353.35	-4.98
353.561	-9.77
353.773	-13.24
353.985	-0.34
354.197	9.4
354.409	1.27
354.621	-4.6
354.832	-7.87
355.044	-14.92
355.256	-25.66
355.468	-7.6
355.679	-4.67
355.891	-0.28
356.103	-17.16
356.314	1.83
356.526	-11.95
356.738	-18.59
356.949	-37.67
357.161	-4.43
357.373	-21.25
357.584	-29.89
357.796	-11.04
358.008	3.6
358.219	13.94
358.431	23.2
358.642	26.15
358.854	19.46
359.065	12.36
359.277	-14.3
359.488	-31.49
359.7	-38.37
359.911	-40.12
360.123	-28.77
360.334	-36.12
360.546	-48.4
360.757	-47.76
360.969	-48.25
361.18	-43.54
361.391	-27.17
361.603	-24.96
361.814	-17.61
362.025	-24.01
362.237	-25.21
362.448	-4.77
362.659	22.72
362.871	21.56
363.082	29.51
363.293	26.15
363.504	15.67
363.716	-4.44
363.927	4.27
364.138	-5.25
364.349	-19.48
364.56	-15.87
364.772	-21.39
364.983	-12.47
365.194	-20.34
365.405	-2.46
365.616	-4.01
365.827	-5.08
366.038	-33.49
366.25	-25.69
366.461	-53.9
366.672	-21.5
366.883	-5.68
367.094	11.8
367.305	12.71
367.516	14.83
367.727	-13.4
367.938	-10.05
368.149	-12.95
368.36	-12.77
368.571	-14.8
368.781	-25.36
368.992	-39.22
369.203	-60.66
369.414	-77.09
369.625	-71
369.836	-55.36
370.047	-89.95
370.258	-69.23
370.468	-50.46
370.679	-57.26
370.89	-46.17
371.101	-12.82
371.312	-14.28
371.522	-24.42
371.733	-21.64
371.944	-18.74
372.155	-22.27
372.365	-27.69
372.576	-26.81
372.787	-19.84
372.997	-37.72
373.208	-37.54
373.419	-9.43
373.629	-32.12
373.84	-35.58
374.05	-31.36
374.261	-19.08
374.472	-32.93
374.682	15.88
374.893	19.88
375.103	41.96
375.314	36.62
375.524	29.69
375.735	19.89
375.945	25.58
376.156	7.51
376.366	13.42
376.577	16
376.787	10.12
376.997	1.39
377.208	0.13
377.418	-13.45
377.629	-3.66
377.839	-6.74
378.049	-3.18
378.26	10.34
378.47	13.22
378.68	3.62
378.89	4.42
379.101	2.63
379.311	-23.49
379.521	-44.85
379.732	-37.39
379.942	-31.51
380.152	-41.39
380.362	-23.81
380.572	-17.22
380.783	-7.64
380.993	-9.29
381.203	-5.03
381.413	9.4
381.623	17.07
381.833	16.85
382.043	13.9
382.253	10.34
382.463	5
382.674	0.91
382.884	-19.05
383.094	-13.52
383.304	-6.07
383.514	4.67
383.724	12.01
383.934	17.06
384.144	6.85
384.353	-0.99
384.563	-11.25
384.773	-8.75
384.983	-15.89
385.193	-4.25
385.403	5.15
385.613	5.62
385.823	-7.38
386.033	1.75
386.242	-2.25
386.452	-8.6
386.662	-13.45
386.872	4.17
387.082	-0.49
387.291	-3.93
387.501	-7.64
387.711	-5.55
387.921	-18.67
388.13	-11.82
388.34	-6.23
388.55	-8.06
388.759	-8.56
388.969	-0.3
389.179	-8.61
389.388	-4.09
389.598	4.17
389.807	1.74
390.017	-1.54
390.227	3.66
390.436	-0.98
390.646	-4.82
390.855	-3.15
391.065	-3.05
391.274	-5.39
391.484	-3.42
391.693	-1.15
391.903	1.93
392.112	5.81
392.322	7.27
392.531	8.75
392.74	9.31
392.95	6.67
393.159	3.98
393.369	5.28
393.578	3.51
393.787	1.8
393.997	1.7
394.206	0.75
394.415	0.09
394.625	-0.47
394.834	-0.93
395.043	-0.61
395.252	2.6
395.462	4.86
395.671	6.3
395.88	7.56
396.089	8.47
396.298	6.57
396.508	4.52
396.717	3.91
396.926	4.39
397.135	3.99
397.344	4.12
397.553	5.22
397.762	6.13
397.971	5.98
398.181	5.91
398.39	5.78
398.599	5.26
398.808	5.38
399.017	5.47
399.226	6.12
399.435	6.5
399.644	6.73
399.853	5.68
400.062	5.49
400.27	4.88
400.479	4.56
400.688	3.78
400.897	4.34
401.106	4.48
401.315	4.83
401.524	4.97
401.733	5.62
401.941	5.65
402.15	5.76
402.359	5.52
402.568	5.78
402.777	5.72
402.985	5.54
403.194	5.22
403.403	5.17
403.612	4.6
403.82	4.29
404.029	4.6
404.238	4.59
404.446	4.85
404.655	4.76
404.864	4.84
405.072	4.42
405.281	4.57
405.489	4.18
405.698	4.28
405.906	4.32
406.115	4.42
406.324	4.36
406.532	4.66
406.741	4.88
406.949	4.93
407.158	4.89
407.366	4.9
407.574	4.84
407.783	4.84
407.991	4.61
408.2	4.78
408.408	4.83
408.617	4.79
408.825	4.71
409.033	4.75
409.242	4.68
409.45	4.62
409.658	4.44
409.867	4.49
410.075	4.43
410.283	4.31
410.491	4.22
410.7	4.32
410.908	4.23
411.116	4.56
411.324	4.59
411.533	4.65
411.741	4.82
411.949	4.71
412.157	4.36
412.365	4.35
412.573	4.31
412.781	4.25
412.99	4.38
413.198	4.5
413.406	4.46
413.614	4.46
413.822	4.25
414.03	4.05
414.238	3.9
414.446	3.98
414.654	3.82
414.862	3.96
415.07	4.06
415.278	4.34
415.486	4.14
415.694	4.25
415.902	4
416.109	4.04
416.317	3.87
416.525	3.84
416.733	3.83
416.941	4.12
417.149	4.1
417.357	4.07
417.564	4.32
417.772	4.38
417.98	4.11
418.188	4.08
418.395	4.09
418.603	4.09
418.811	3.79
419.019	3.82
419.226	3.91
419.434	4.02
419.642	3.84
419.849	3.98
420.057	4.12
420.265	3.98
420.472	3.79
420.68	3.85
420.887	3.94
421.095	3.76
421.302	3.87
421.51	4.03
421.717	4.01
421.925	4.07
422.132	4.01
422.34	3.62
422.547	3.56
422.755	3.44
422.962	3.21
423.17	3.17
423.377	3.47
423.585	3.44
423.792	3.49
423.999	3.52
424.207	3.55
424.414	3.52
424.621	3.44
424.829	3.44
425.036	3.58
425.243	3.8
425.451	3.68
425.658	3.52
425.865	3.64
426.072	3.62
426.28	3.62
426.487	3.7
426.694	3.81
426.901	3.73
427.108	3.72
427.315	3.62
427.523	3.71
427.73	3.67
427.937	3.5
428.144	3.36
428.351	3.39
428.558	3.43
428.765	3.47
428.972	3.52
429.179	3.62
429.386	3.79
429.593	3.67
429.8	3.61
430.007	3.76
430.214	3.84
430.421	3.6
430.628	3.45
430.835	3.51
431.042	3.55
431.249	3.56
431.456	3.51
431.662	3.73
431.869	3.87
432.076	3.88
432.283	3.94
432.49	4.09
432.697	4.05
432.903	3.85
433.11	3.85
433.317	3.91
433.524	3.86
433.73	3.78
433.937	3.96
434.144	3.87
434.35	3.7
434.557	3.75
434.764	3.79
434.97	3.73
435.177	3.81
435.384	3.79
435.59	3.8
435.797	3.95
436.003	4.02
436.21	4.04
436.416	4.21
436.623	4.25
436.829	4.26
437.036	4.36
437.242	4.36
437.449	4.12
437.655	4.07
437.862	4.13
438.068	4.03
438.275	4.12
438.481	4.43
438.687	4.43
438.894	4.41
439.1	4.41
439.307	4.47
439.513	4.39
439.719	4.45
439.926	4.56
440.132	4.48
440.338	4.33
440.544	4.39
440.751	4.38
440.957	4.34
441.163	4.45
441.369	4.64
441.575	4.49
441.782	4.44
441.988	4.37
442.194	4.34
442.4	4.25
442.606	4.52
442.812	4.6
443.018	4.64
443.224	4.7
443.431	4.74
443.637	4.48
443.843	4.41
444.049	4.4
444.255	4.32
444.461	4.35
444.667	4.41
444.873	4.57
445.079	4.54
445.284	4.62
445.49	4.47
445.696	4.42
445.902	4.33
446.108	4.32
446.314	4.28
446.52	4.28
446.726	4.4
446.931	4.46
447.137	4.54
447.343	4.63
447.549	4.61
447.755	4.54
447.96	4.51
448.166	4.44
448.372	4.35
448.578	4.5
448.783	4.48
448.989	4.58
449.195	4.77
449.4	4.85
449.606	4.74
449.812	4.72
450.017	4.74
450.223	4.66
450.428	4.51
450.634	4.59
450.84	4.64
451.045	4.55
451.251	4.49
451.456	4.82
451.662	4.94
451.867	5.05
452.073	4.98
452.278	5.02
452.483	5.02
452.689	4.88
452.894	4.88
453.1	4.91
453.305	4.96
453.51	4.86
453.716	4.8
453.921	4.83
454.127	4.77
454.332	4.68
454.537	4.63
454.742	4.65
454.948	4.54
455.153	4.7
455.358	4.79
455.563	4.92
455.769	5.07
455.974	5.17
456.179	5.05
456.384	4.94
456.589	4.94
456.795	4.81
457	4.76
457.205	4.87
457.41	4.91
457.615	4.82
457.82	4.92
458.025	4.93
458.23	4.91
458.435	4.89
458.64	4.8
458.845	4.79
459.05	4.83
459.255	4.82
459.46	4.88
459.665	4.92
459.87	4.95
460.075	4.84
460.28	4.81
460.485	4.89
460.69	4.94
460.895	4.82
461.099	4.87
461.304	5.05
461.509	5.04
461.714	5.01
461.919	5.15
462.123	5.06
462.328	5.08
462.533	5.02
