Data from Ofra_1a_PS_9CX5_Reflection_2.txt Node
Date: Tue Jul 20 11:04:16 EDT 2021
User: Adam
Spectrometer: FLMT01687
Trigger mode: 0
Integration Time (sec): 1.004000E0
Scans to average: 2
Electric dark correction enabled: true
Nonlinearity correction enabled: false
Boxcar width: 2
XAxis mode: Wavelengths
Number of Pixels in Spectrum: 3648
>>>>>Begin Spectral Data<<<<<
179.494	-206.6
179.716	-487.02
179.937	917.39
180.158	-1066.88
180.38	244.76
180.601	172.1
180.823	85.65
181.044	86.89
181.265	136.28
181.486	194.14
181.708	112.45
181.929	1700
182.15	-126.23
182.372	233.99
182.593	172.42
182.814	-48.05
183.035	38.2
183.257	77.27
183.478	14.79
183.699	-13.4
183.92	-61.83
184.141	-48.95
184.363	-42.55
184.584	-50.2
184.805	-17.13
185.026	36.05
185.247	35.72
185.468	19.57
185.689	47.27
185.91	43.81
186.132	45.74
186.353	38.46
186.574	43.19
186.795	30.25
187.016	44.82
187.237	43.89
187.458	49.4
187.679	51.7
187.9	50.84
188.121	57.95
188.342	47.69
188.563	61.14
188.784	69.52
189.005	62.99
189.226	48.44
189.447	58.16
189.667	34.86
189.888	22.94
190.109	2.19
190.33	16.09
190.551	8.16
190.772	28.86
190.993	10.03
191.214	46.04
191.434	59.37
191.655	37.19
191.876	25.38
192.097	47.77
192.318	50.94
192.538	26.11
192.759	24.51
192.98	36.44
193.201	37.37
193.421	46.91
193.642	54.03
193.863	74.23
194.083	68.12
194.304	68.48
194.525	37.82
194.745	28.17
194.966	8.79
195.187	10.81
195.407	-4.72
195.628	-5.47
195.848	-7.12
196.069	-2.34
196.29	3.3
196.51	3.01
196.731	4.31
196.951	9.75
197.172	6.51
197.392	-15.87
197.613	19.31
197.833	11.38
198.054	-3.02
198.274	-3.61
198.495	14.69
198.715	-2.16
198.936	11.92
199.156	7.02
199.377	14.28
199.597	9.23
199.817	11.66
200.038	12.69
200.258	46.03
200.479	48.38
200.699	55.54
200.919	37.63
201.14	16.43
201.36	5.24
201.58	-0.92
201.801	-16.79
202.021	-4.99
202.241	9.08
202.461	9.66
202.682	22.38
202.902	40.54
203.122	36.19
203.342	40.55
203.563	33.68
203.783	17.58
204.003	19.91
204.223	26.16
204.443	39.57
204.663	22.17
204.884	36.67
205.104	-7.05
205.324	-5.88
205.544	-56.91
205.764	14.81
205.984	18.36
206.204	40.48
206.424	33.44
206.644	33.26
206.864	7.19
207.084	3.96
207.304	1.99
207.525	-5.26
207.745	25.18
207.964	36
208.184	50.5
208.404	28.78
208.624	48.79
208.844	36.59
209.064	28.99
209.284	19.2
209.504	24.98
209.724	22.28
209.944	13.14
210.164	13.4
210.384	24.84
210.604	29.45
210.823	9.07
211.043	52.1
211.263	9.25
211.483	19.14
211.703	11.1
211.922	6.47
212.142	2.37
212.362	37.35
212.582	46.87
212.801	60.11
213.021	47.81
213.241	34.57
213.461	24.63
213.68	19.31
213.9	3.12
214.12	14.73
214.339	13.26
214.559	19.88
214.779	21.88
214.998	50.84
215.218	35.05
215.438	41.92
215.657	22.07
215.877	-0.94
216.096	1.58
216.316	-4.34
216.535	-18.97
216.755	-4.41
216.974	-7.7
217.194	2.71
217.413	-3.38
217.633	-21.21
217.852	-22.82
218.072	-11.13
218.291	-16.44
218.511	-1.84
218.73	18.46
218.95	17.54
219.169	4
219.389	-0.4
219.608	6.39
219.827	-5.14
220.047	12.53
220.266	11.81
220.485	9.63
220.705	10.03
220.924	41.52
221.143	45.69
221.363	58.72
221.582	52.6
221.801	58.75
222.021	51.77
222.24	63.41
222.459	59.24
222.678	58.53
222.897	43.54
223.117	37.26
223.336	29.98
223.555	26.62
223.774	31.01
223.993	36.29
224.213	52.95
224.432	31.46
224.651	24.41
224.87	17.42
225.089	25.71
225.308	20.29
225.527	28.46
225.746	29.12
225.965	25.64
226.184	8.74
226.404	0.29
226.623	5.53
226.842	18.35
227.061	29.82
227.28	44.88
227.499	51.02
227.718	44.59
227.936	36.34
228.155	28.44
228.374	17.44
228.593	29.64
228.812	25.78
229.031	32.68
229.25	27.94
229.469	41.06
229.688	26.2
229.907	28.19
230.125	36.12
230.344	38.17
230.563	36.01
230.782	37.02
231.001	42.85
231.22	30.11
231.438	40.28
231.657	43.49
231.876	33.65
232.095	40.06
232.313	31.38
232.532	17.5
232.751	12.77
232.969	28.34
233.188	9.77
233.407	13.97
233.625	27.91
233.844	14.02
234.063	1.25
234.281	15.2
234.5	28.52
234.719	30.6
234.937	23.06
235.156	44.55
235.374	51.85
235.593	33.49
235.811	30.12
236.03	37.54
236.249	33.83
236.467	29.89
236.686	15.93
236.904	19.68
237.123	22.02
237.341	7.79
237.559	12.22
237.778	70.72
237.996	60.46
238.215	57.24
238.433	78.47
238.652	57.36
238.87	15.54
239.088	31.35
239.307	25.94
239.525	23.38
239.743	9.91
239.962	2.17
240.18	11.86
240.398	6.73
240.617	-2.71
240.835	19.94
241.053	24.16
241.271	25.6
241.49	33.57
241.708	34.46
241.926	34.77
242.144	61.53
242.363	41.47
242.581	58.12
242.799	61.96
243.017	41.4
243.235	18.55
243.453	20
243.672	28.82
243.89	24.54
244.108	24.61
244.326	38.28
244.544	37.59
244.762	21.57
244.98	17.79
245.198	19.72
245.416	-0.88
245.634	1.32
245.852	15.71
246.07	34.8
246.288	31.31
246.506	31.23
246.724	43.4
246.942	41.72
247.16	48.61
247.378	35.15
247.596	77.09
247.814	59.21
248.032	33.58
248.25	7.27
248.468	19.85
248.685	14.78
248.903	9.62
249.121	15.06
249.339	15.08
249.557	18.23
249.775	19.64
249.992	30.6
250.21	27.19
250.428	34.43
250.646	38.49
250.863	24.87
251.081	14.21
251.299	21.21
251.517	34.49
251.734	24.5
251.952	23.46
252.17	42.17
252.387	38.45
252.605	15.34
252.823	14.95
253.04	45.46
253.258	32.93
253.475	30.66
253.693	34.64
253.911	19.75
254.128	9.89
254.346	13.95
254.563	18.6
254.781	15.97
254.998	36.97
255.216	-0.41
255.433	-33.57
255.651	-45
255.868	-62.45
256.086	-56.41
256.303	-21.85
256.521	6.79
256.738	24.25
256.956	41.51
257.173	35.76
257.39	43.44
257.608	42.4
257.825	34.85
258.043	44.93
258.26	39.15
258.477	36.82
258.695	32.02
258.912	41.1
259.129	29.52
259.346	36.16
259.564	23.76
259.781	30.28
259.998	26.02
260.216	41.03
260.433	28.44
260.65	37.72
260.867	24.51
261.084	33.22
261.302	16.57
261.519	48.29
261.736	51
261.953	49.05
262.17	47.31
262.387	40.14
262.604	29.74
262.822	24.64
263.039	26.3
263.256	13.54
263.473	22.37
263.69	19.37
263.907	27.89
264.124	37.32
264.341	37.93
264.558	27.17
264.775	33.94
264.992	28.19
265.209	22.26
265.426	30.69
265.643	32.35
265.86	49.08
266.077	30.23
266.294	31.24
266.51	49.34
266.727	48.71
266.944	44.27
267.161	38.52
267.378	45.69
267.595	23.15
267.812	14.63
268.028	-5.12
268.245	17.79
268.462	4.01
268.679	12.95
268.896	33.05
269.112	39.03
269.329	5.95
269.546	30.8
269.763	29.94
269.979	10.7
270.196	27.35
270.413	44.3
270.629	24.7
270.846	22.48
271.063	35.15
271.279	13.7
271.496	-8.91
271.712	1.91
271.929	10.98
272.146	16.38
272.362	32.32
272.579	35.34
272.795	34.31
273.012	29.98
273.228	40.04
273.445	30.02
273.661	22.88
273.878	7.12
274.094	2.13
274.311	-8.97
274.527	-34.3
274.744	9.54
274.96	17.51
275.177	19.04
275.393	14.78
275.609	29.46
275.826	24.35
276.042	24.15
276.259	29.22
276.475	27.49
276.691	18.9
276.908	1.77
277.124	2.48
277.34	-7.68
277.557	-15.56
277.773	-30.04
277.989	-13.75
278.205	-4.28
278.422	0.73
278.638	8.58
278.854	14.3
279.07	19.57
279.286	19.05
279.503	23.36
279.719	29
279.935	28.27
280.151	14.16
280.367	18.73
280.583	11.16
280.799	3.85
281.016	-19.59
281.232	-6.47
281.448	-16.27
281.664	-14.03
281.88	-0.1
282.096	15.64
282.312	21.76
282.528	28.66
282.744	36.46
282.96	17.84
283.176	20.93
283.392	-15.55
283.608	-34.95
283.824	-42.95
284.04	-88.74
284.256	-44.21
284.471	-14.62
284.687	-7.72
284.903	5
285.119	38.71
285.335	46.69
285.551	37.83
285.767	42.9
285.982	24.8
286.198	0.4
286.414	-34.28
286.63	-2.56
286.846	3.87
287.061	37
287.277	20.45
287.493	5.29
287.709	6.89
287.924	21.45
288.14	19.51
288.356	34.08
288.571	50.22
288.787	40.89
289.003	30.81
289.218	22.6
289.434	15.78
289.65	21.5
289.865	21.54
290.081	17.61
290.296	24.53
290.512	18.95
290.727	9.36
290.943	16.2
291.159	15.29
291.374	-12.16
291.59	-3.24
291.805	-18.51
292.021	-24.28
292.236	-21.77
292.451	5.56
292.667	2.19
292.882	25.1
293.098	21.96
293.313	22.6
293.529	24.01
293.744	17.56
293.959	14.59
294.175	28.74
294.39	15.91
294.605	37.87
294.821	37.68
295.036	41.39
295.251	31.69
295.467	32.35
295.682	17.43
295.897	25.71
296.112	18.03
296.328	25.34
296.543	21.05
296.758	12.05
296.973	8.71
297.188	4.51
297.404	-37.48
297.619	-16.9
297.834	-28.57
298.049	-14.7
298.264	-17.88
298.479	16.4
298.694	23.38
298.909	33.94
299.125	38.27
299.34	46.54
299.555	37.15
299.77	37.63
299.985	34.59
300.2	29.34
300.415	32.69
300.63	40.45
300.845	44.72
301.06	41.93
301.275	45.06
301.49	46.31
301.704	34.17
301.919	24.79
302.134	13.98
302.349	26.64
302.564	7.62
302.779	2.01
302.994	13.11
303.209	17.94
303.423	4.48
303.638	17.82
303.853	7.81
304.068	-13.31
304.283	2.58
304.497	-19.09
304.712	-2.7
304.927	18.39
305.142	27.02
305.356	22.97
305.571	29.61
305.786	28.85
306	35.46
306.215	37.77
306.43	38.69
306.644	36.54
306.859	21.34
307.074	20.59
307.288	23.74
307.503	35.87
307.717	48.53
307.932	55.86
308.147	46.02
308.361	47.46
308.576	31.61
308.79	4.12
309.005	-19.79
309.219	-8.12
309.434	-3.34
309.648	-10.3
309.863	9.85
310.077	25.25
310.292	31.65
310.506	27.12
310.72	37.16
310.935	18.02
311.149	8.71
311.364	10.11
311.578	10.67
311.792	5.77
312.007	32.22
312.221	8.31
312.435	11.06
312.649	13.4
312.864	18.46
313.078	3.51
313.292	24.5
313.507	28.57
313.721	22.62
313.935	36.62
314.149	43.65
314.363	35.22
314.578	26.47
314.792	17.38
315.006	8.61
315.22	12.7
315.434	21.36
315.648	17.52
315.862	23.8
316.077	12.38
316.291	6.94
316.505	-11.5
316.719	-6.24
316.933	-4.02
317.147	10.22
317.361	15.64
317.575	14.21
317.789	21.81
318.003	18.94
318.217	20.34
318.431	17.06
318.645	13.25
318.859	12.11
319.073	28.78
319.287	19.93
319.5	23.32
319.714	23.72
319.928	22.61
320.142	15.95
320.356	22.26
320.57	-1.11
320.784	9.9
320.997	-11.72
321.211	-9.87
321.425	-27.87
321.639	1.27
321.853	4.72
322.066	13.32
322.28	14.52
322.494	14.23
322.707	18.89
322.921	11.93
323.135	12.77
323.349	12.13
323.562	19.82
323.776	9.99
323.989	23.27
324.203	10.8
324.417	8.81
324.63	3.01
324.844	-5.84
325.057	-24.7
325.271	1.69
325.485	9.5
325.698	21.7
325.912	36.31
326.125	33.14
326.339	36.09
326.552	12.54
326.766	9.73
326.979	5.97
327.193	14.65
327.406	-0.49
327.619	14.23
327.833	8.17
328.046	8.34
328.26	-0.64
328.473	14.34
328.686	16.7
328.9	31.34
329.113	27.21
329.326	32.68
329.54	25.58
329.753	34.02
329.966	22
330.179	25.08
330.393	14.84
330.606	7.88
330.819	-9.04
331.032	-2.99
331.246	9.04
331.459	41.86
331.672	42.32
331.885	50.24
332.098	41.75
332.311	35.97
332.525	7.57
332.738	15.95
332.951	1.79
333.164	11.05
333.377	3.08
333.59	2.53
333.803	7.36
334.016	21.65
334.229	20.47
334.442	41.53
334.655	54.72
334.868	34.74
335.081	24.18
335.294	13.54
335.507	13.48
335.72	10.53
335.933	15.23
336.146	24.85
336.359	38.94
336.572	27.42
336.785	16.43
336.997	4.51
337.21	4.68
337.423	-15.17
337.636	-13.02
337.849	-8.54
338.062	5.87
338.274	28.66
338.487	13.2
338.7	1.69
338.913	6.14
339.125	7.73
339.338	-17.08
339.551	0.89
339.763	17.26
339.976	24.56
340.189	14.45
340.402	34.66
340.614	38.88
340.827	33.63
341.039	21.77
341.252	30.34
341.465	21.08
341.677	16.57
341.89	7.78
342.102	26
342.315	28.04
342.527	30.44
342.74	26.71
342.952	55.5
343.165	50.8
343.377	43.56
343.59	44.11
343.802	54.39
344.015	37.41
344.227	31.09
344.44	26.31
344.652	25.06
344.864	25.42
345.077	41.22
345.289	30.84
345.502	44.25
345.714	38.4
345.926	26.19
346.139	-3.73
346.351	13.26
346.563	7.73
346.775	18.49
346.988	32.04
347.2	41.91
347.412	34.36
347.624	29.72
347.837	42.29
348.049	26.89
348.261	28.04
348.473	28.99
348.685	43.18
348.897	18.55
349.11	29.36
349.322	22.3
349.534	20.16
349.746	11.38
349.958	7.4
350.17	-13.05
350.382	-9.33
350.594	5.67
350.806	10.72
351.018	13.23
351.23	22.55
351.442	27.37
351.654	25.78
351.866	19.87
352.078	30.59
352.29	23.54
352.502	21.68
352.714	18.86
352.926	17.66
353.138	8.06
353.35	6.47
353.561	9.36
353.773	5.81
353.985	10.06
354.197	8.15
354.409	16.73
354.621	0.78
354.832	0.82
355.044	-7.77
355.256	-1.21
355.468	-15.14
355.679	9.54
355.891	16.72
356.103	24.81
356.314	18.91
356.526	25.28
356.738	16.15
356.949	8.18
357.161	6.24
357.373	12.16
357.584	10.93
357.796	13.49
358.008	28.73
358.219	22.03
358.431	15.34
358.642	31.5
358.854	38.16
359.065	10.08
359.277	16.64
359.488	16.43
359.7	5.16
359.911	-14.42
360.123	4.53
360.334	-17.32
360.546	-12.76
360.757	-10.2
360.969	0.74
361.18	2.85
361.391	27.73
361.603	33.75
361.814	37.71
362.025	30.23
362.237	24.4
362.448	23.38
362.659	22.29
362.871	6.36
363.082	11.75
363.293	10.36
363.504	-9.81
363.716	-4.51
363.927	16.23
364.138	-3.49
364.349	-9.02
364.56	-15.23
364.772	-2.78
364.983	-5.31
365.194	3.42
365.405	10.49
365.616	25.74
365.827	7.04
366.038	15.93
366.25	20.22
366.461	12.52
366.672	11.35
366.883	7.76
367.094	-7.21
367.305	-15.95
367.516	-8.11
367.727	-19.14
367.938	-15.42
368.149	-19.84
368.36	-14.54
368.571	-18.44
368.781	-12.15
368.992	-10.7
369.203	-1.76
369.414	-5.11
369.625	-2.64
369.836	12.57
370.047	23.72
370.258	21.92
370.468	20.91
370.679	10.64
370.89	2.55
371.101	9.99
371.312	1.52
371.522	5.68
371.733	12.59
371.944	-0.37
372.155	-16.86
372.365	-6.92
372.576	-8.2
372.787	-5.07
372.997	-3.04
373.208	1.64
373.419	-2.69
373.629	-11.08
373.84	-18.69
374.05	-15.45
374.261	-21.06
374.472	-12.72
374.682	15.36
374.893	9.21
375.103	21.46
375.314	18.82
375.524	15.55
375.735	11.23
375.945	17.49
376.156	14.76
376.366	20.39
376.577	32.68
376.787	26.46
376.997	27.67
377.208	28.68
377.418	21
377.629	11.92
377.839	13.75
378.049	13.52
378.26	3.15
378.47	2.89
378.68	18.18
378.89	14.19
379.101	22.86
379.311	26.59
379.521	20.5
379.732	15.3
379.942	8.6
380.152	3.65
380.362	4.42
380.572	16.66
380.783	17.26
380.993	28.02
381.203	23.38
381.413	24.51
381.623	19.54
381.833	18.84
382.043	16.32
382.253	14.95
382.463	18.97
382.674	18.86
382.884	12.3
383.094	6.37
383.304	10.33
383.514	7.35
383.724	11.55
383.934	7.12
384.144	13.98
384.353	14.97
384.563	12.55
384.773	9.85
384.983	8.02
385.193	-3.23
385.403	-1.44
385.613	4
385.823	4.82
386.033	5.5
386.242	10.06
386.452	2.85
386.662	-0.04
386.872	5.83
387.082	8.63
387.291	4.23
387.501	12.2
387.711	14.99
387.921	9.03
388.13	10.12
388.34	13.98
388.55	7.67
388.759	1.75
388.969	2.34
389.179	2.57
389.388	1.08
389.598	0.46
389.807	-1.62
390.017	1.51
390.227	0.61
390.436	0.57
390.646	1.35
390.855	3.83
391.065	-0.55
391.274	-0.44
391.484	-1.45
391.693	-2.17
391.903	-1.5
392.112	-0.77
392.322	-1.79
392.531	-1.54
392.74	0.08
392.95	0.21
393.159	0.72
393.369	0.85
393.578	1.16
393.787	1.18
393.997	1.27
394.206	0.8
394.415	2.77
394.625	2.4
394.834	1.06
395.043	0.69
395.252	3.73
395.462	3.44
395.671	4.39
395.88	5.33
396.089	5.39
396.298	4.05
396.508	4.02
396.717	3.02
396.926	2.57
397.135	2.51
397.344	1.48
397.553	1.01
397.762	2.48
397.971	2.31
398.181	2.63
398.39	2.4
398.599	2.59
398.808	1.63
399.017	2.24
399.226	1.9
399.435	2.26
399.644	2.68
399.853	3.01
400.062	2.47
400.27	2.1
400.479	2.11
400.688	2.06
400.897	1.74
401.106	1.81
401.315	2.09
401.524	1.91
401.733	1.38
401.941	1.77
402.15	1.64
402.359	1.78
402.568	2
402.777	2.28
402.985	1.61
403.194	1.6
403.403	1.48
403.612	1.27
403.82	0.93
404.029	1.35
404.238	1.51
404.446	1.47
404.655	1.65
404.864	1.94
405.072	1.93
405.281	2.07
405.489	1.91
405.698	1.81
405.906	1.77
406.115	1.61
406.324	1.48
406.532	1.65
406.741	1.66
406.949	1.52
407.158	1.7
407.366	1.56
407.574	1.62
407.783	1.68
407.991	1.66
408.2	1.72
408.408	1.82
408.617	1.69
408.825	1.43
409.033	1.41
409.242	1.47
409.45	1.38
409.658	1.22
409.867	1.34
410.075	1.46
410.283	1.26
410.491	1.22
410.7	1.35
410.908	1.38
411.116	1.34
411.324	1.33
411.533	1.38
411.741	1.39
411.949	1.5
412.157	1.42
412.365	1.53
412.573	1.57
412.781	1.56
412.99	1.46
413.198	1.6
413.406	1.74
413.614	1.74
413.822	1.88
414.03	1.85
414.238	1.81
414.446	1.64
414.654	1.54
414.862	1.42
415.07	1.43
415.278	1.52
415.486	1.24
415.694	1.38
415.902	1.41
416.109	1.4
416.317	1.45
416.525	1.6
416.733	1.54
416.941	1.66
417.149	1.65
417.357	1.62
417.564	1.65
417.772	1.69
417.98	1.55
418.188	1.46
418.395	1.07
418.603	1.09
418.811	0.93
419.019	0.9
419.226	1.06
419.434	1.33
419.642	1.19
419.849	1.23
420.057	1.27
420.265	1.12
420.472	0.99
420.68	1.07
420.887	1.09
421.095	1.2
421.302	1.23
421.51	1.28
421.717	1.43
421.925	1.43
422.132	1.34
422.34	1.29
422.547	1.23
422.755	1.14
422.962	1.16
423.17	1
423.377	1.11
423.585	1.26
423.792	1.29
423.999	1.37
424.207	1.32
424.414	1.36
424.621	1.26
424.829	1.3
425.036	1.23
425.243	1.39
425.451	1.31
425.658	1.29
425.865	1.23
426.072	1.21
426.28	1.41
426.487	1.4
426.694	1.34
426.901	1.46
427.108	1.47
427.315	1.21
427.523	1.23
427.73	1.44
427.937	1.1
428.144	1.07
428.351	0.99
428.558	1.06
428.765	0.84
428.972	1.09
429.179	0.92
429.386	1.17
429.593	1.01
429.8	1.12
430.007	1.04
430.214	1.16
430.421	1.23
430.628	1.27
430.835	1.21
431.042	1.31
431.249	1.44
431.456	1.21
431.662	1.33
431.869	1.47
432.076	1.41
432.283	1.53
432.49	1.53
432.697	1.42
432.903	1.31
433.11	1.38
433.317	1.31
433.524	1.4
433.73	1.39
433.937	1.48
434.144	1.38
434.35	1.31
434.557	1.31
434.764	1.38
434.97	1.23
435.177	1.41
435.384	1.48
435.59	1.45
435.797	1.48
436.003	1.63
436.21	1.46
436.416	1.34
436.623	1.37
436.829	1.24
437.036	1.08
437.242	1.26
437.449	1.25
437.655	1.28
437.862	1.34
438.068	1.4
438.275	1.33
438.481	1.45
438.687	1.36
438.894	1.54
439.1	1.55
439.307	1.64
439.513	1.64
439.719	1.77
439.926	1.68
440.132	1.76
440.338	1.65
440.544	1.62
440.751	1.55
440.957	1.62
441.163	1.53
441.369	1.59
441.575	1.53
441.782	1.64
441.988	1.55
442.194	1.5
442.4	1.45
442.606	1.61
442.812	1.55
443.018	1.56
443.224	1.81
443.431	1.81
443.637	1.68
443.843	1.7
444.049	1.74
444.255	1.63
444.461	1.54
444.667	1.58
444.873	1.6
445.079	1.61
445.284	1.63
445.49	1.66
445.696	1.63
445.902	1.6
446.108	1.55
446.314	1.52
446.52	1.64
446.726	1.65
446.931	1.62
447.137	1.65
447.343	1.77
447.549	1.79
447.755	1.84
447.96	1.88
448.166	1.91
448.372	1.84
448.578	1.76
448.783	1.73
448.989	1.85
449.195	1.8
449.4	1.82
449.606	1.9
449.812	1.87
450.017	1.76
450.223	1.74
450.428	1.7
450.634	1.64
450.84	1.67
451.045	1.69
451.251	1.8
451.456	1.88
451.662	1.95
451.867	1.96
452.073	1.94
452.278	1.95
452.483	1.96
452.689	1.95
452.894	2.04
453.1	2.07
453.305	2.03
453.51	2.03
453.716	2.03
453.921	2
454.127	2.03
454.332	2.01
454.537	1.94
454.742	1.88
454.948	1.83
455.153	1.78
455.358	1.81
455.563	1.89
455.769	1.96
455.974	1.99
456.179	1.99
456.384	1.94
456.589	1.85
456.795	1.79
457	1.82
457.205	1.78
457.41	1.74
457.615	1.76
457.82	1.85
458.025	1.8
458.23	1.88
458.435	1.94
458.64	1.99
458.845	1.95
459.05	1.96
459.255	1.86
459.46	1.88
459.665	1.86
459.87	1.84
460.075	1.79
460.28	1.88
460.485	1.94
460.69	1.91
460.895	1.98
461.099	1.93
461.304	1.83
461.509	1.8
461.714	1.87
461.919	1.84
462.123	1.97
462.328	1.9
462.533	1.79
462.738	1.74
462.942	1.7
463.147	1.71
463.352	1.89
463.556	2.01
463.761	1.97
463.966	1.96
464.17	2
464.375	2.01
464.58	1.9
464.784	1.95
464.989	2.01
465.193	1.97
465.398	1.93
465.602	2.09
465.807	2.11
466.011	2.05
466.216	1.99
466.42	2.1
466.625	2.15
466.829	2.15
467.034	2.28
467.238	2.42
467.443	2.39
467.647	2.33
467.851	2.36
468.056	2.36
468.26	2.35
468.464	2.32
468.669	2.33
468.873	2.32
469.077	2.24
