Data from Ofra_1a_PS_9CX6_Reflection_3.txt Node
Date: Tue Jul 20 11:05:58 EDT 2021
User: Adam
Spectrometer: FLMT01687
Trigger mode: 0
Integration Time (sec): 1.004000E0
Scans to average: 2
Electric dark correction enabled: true
Nonlinearity correction enabled: false
Boxcar width: 2
XAxis mode: Wavelengths
Number of Pixels in Spectrum: 3648
>>>>>Begin Spectral Data<<<<<
179.494	-147.72
179.716	-254.2
179.937	775.59
180.158	-827.39
180.38	134.28
180.601	40.99
180.823	-39.55
181.044	-121.16
181.265	-70.88
181.486	81.09
181.708	-36.59
181.929	9627.27
182.15	-47.81
182.372	403.45
182.593	214.76
182.814	-206.28
183.035	-31.97
183.257	-29.33
183.478	-36.59
183.699	-63.29
183.92	-72.33
184.141	-76.74
184.363	-52.3
184.584	-39.26
184.805	0.74
185.026	17.62
185.247	2.11
185.468	-7.9
185.689	5.34
185.91	-23.46
186.132	6.13
186.353	19.71
186.574	17.37
186.795	12.75
187.016	37.22
187.237	19.7
187.458	7.21
187.679	14.16
187.9	31.52
188.121	31.54
188.342	53.76
188.563	65.16
188.784	60.19
189.005	46.58
189.226	54.65
189.447	43.33
189.667	21.24
189.888	0.77
190.109	-19.02
190.33	-20.29
190.551	-8.58
190.772	12.89
190.993	28.09
191.214	22.32
191.434	1.91
191.655	13.21
191.876	32.79
192.097	27.54
192.318	36.01
192.538	4.21
192.759	-17.96
192.98	-12.37
193.201	-15.93
193.421	-3.11
193.642	16.93
193.863	16.68
194.083	21.57
194.304	32.36
194.525	10.82
194.745	-1.45
194.966	3.4
195.187	-0.04
195.407	7.27
195.628	4.78
195.848	16.15
196.069	23.89
196.29	12.25
196.51	-6.86
196.731	-19.48
196.951	-35.32
197.172	-35.03
197.392	-45.42
197.613	-2.77
197.833	5.8
198.054	7.37
198.274	27.83
198.495	48.74
198.715	23.11
198.936	37.14
199.156	31.98
199.377	9.78
199.597	5.12
199.817	5.16
200.038	-14.07
200.258	25.1
200.479	26.4
200.699	41.04
200.919	45.52
201.14	29.83
201.36	6.72
201.58	9.73
201.801	4.94
202.021	3.12
202.241	17.81
202.461	23.91
202.682	27.39
202.902	21.54
203.122	24.09
203.342	14.08
203.563	0.15
203.783	-15.52
204.003	-15.67
204.223	2.89
204.443	28.4
204.663	49.39
204.884	78.3
205.104	70.81
205.324	31.22
205.544	-9.29
205.764	-8.62
205.984	-35.79
206.204	-35.83
206.424	-33.4
206.644	-35.17
206.864	-43.39
207.084	-0.48
207.304	-0.87
207.525	15.55
207.745	35.66
207.964	38.72
208.184	30.86
208.404	21.34
208.624	20.75
208.844	10.94
209.064	-1.32
209.284	7.91
209.504	10.5
209.724	26.79
209.944	28.7
210.164	34.98
210.384	19.08
210.604	-12.2
210.823	-79.14
211.043	-71.12
211.263	-137.25
211.483	-45.95
211.703	-32.54
211.922	-1.75
212.142	13.34
212.362	21.26
212.582	6.91
212.801	22.31
213.021	-25.4
213.241	-30.61
213.461	-10.8
213.68	1.29
213.9	-4.78
214.12	10.58
214.339	13.52
214.559	10.05
214.779	14.29
214.998	20.43
215.218	25.32
215.438	23.1
215.657	3.18
215.877	-25.15
216.096	-6.43
216.316	-9.21
216.535	-10.07
216.755	0.31
216.974	1.68
217.194	-20.48
217.413	-23.91
217.633	-34.61
217.852	-16.62
218.072	-8.93
218.291	-2.74
218.511	6.68
218.73	-2.83
218.95	-38.92
219.169	-36.19
219.389	-25.81
219.608	-49.27
219.827	-16.79
220.047	0.71
220.266	-20.54
220.485	-37.18
220.705	-13.59
220.924	-71.96
221.143	-13.46
221.363	22.48
221.582	42.86
221.801	39.77
222.021	54.1
222.24	35.49
222.459	23.9
222.678	11.09
222.897	5.02
223.117	11.3
223.336	13.28
223.555	28.34
223.774	35.69
223.993	54.62
224.213	60.14
224.432	62.19
224.651	37.26
224.87	43.67
225.089	43.72
225.308	38.04
225.527	33.77
225.746	30.05
225.965	22.03
226.184	2.06
226.404	4.24
226.623	-4.23
226.842	-5.13
227.061	2.77
227.28	15.71
227.499	13.46
227.718	16.01
227.936	22.89
228.155	22.36
228.374	21.28
228.593	36.39
228.812	32.09
229.031	40.18
229.25	31.88
229.469	36.9
229.688	29.39
229.907	31.01
230.125	28.67
230.344	17.97
230.563	13.4
230.782	10.71
231.001	14.03
231.22	33.1
231.438	44.59
231.657	44.88
231.876	31.84
232.095	40.28
232.313	15.05
232.532	-3.76
232.751	-11.97
232.969	-9.21
233.188	-20.01
233.407	0.96
233.625	17.29
233.844	26.51
234.063	30.54
234.281	28.55
234.5	19.96
234.719	17.63
234.937	1.4
235.156	-2.44
235.374	1.35
235.593	18.03
235.811	45.3
236.03	37.58
236.249	36.16
236.467	44.36
236.686	30.04
236.904	16.92
237.123	24.32
237.341	23.46
237.559	13.93
237.778	53.58
237.996	28.2
238.215	15.34
238.433	-19.92
238.652	-9.66
238.87	-67.48
239.088	-46.31
239.307	-26.31
239.525	-15.24
239.743	-7.07
239.962	-6.91
240.18	-16.98
240.398	-9.05
240.617	-15.04
240.835	-50.63
241.053	-37.29
241.271	-18.57
241.49	-13.58
241.708	-6.92
241.926	-3.96
242.144	8.85
242.363	2.4
242.581	-25.81
242.799	-53.31
243.017	-20.85
243.235	-28.06
243.453	-35.38
243.672	-38.36
243.89	-24.5
244.108	-13.14
244.326	21.93
244.544	34.01
244.762	29.71
244.98	36.76
245.198	30.99
245.416	19.24
245.634	15.05
245.852	2.94
246.07	14.8
246.288	5.22
246.506	-19.61
246.724	-17.27
246.942	1.51
247.16	-1.75
247.378	-24.29
247.596	0.78
247.814	-39.58
248.032	-48.04
248.25	-15.41
248.468	12.75
248.685	14.69
248.903	18.7
249.121	28.97
249.339	15.82
249.557	21.29
249.775	29.41
249.992	29.9
250.21	17.94
250.428	30.91
250.646	29.61
250.863	21.55
251.081	32.66
251.299	46.31
251.517	33.03
251.734	18.98
251.952	12.13
252.17	-3.03
252.387	-24.7
252.605	-19.32
252.823	-25.58
253.04	1.9
253.258	9.78
253.475	32.34
253.693	28.78
253.911	34.7
254.128	29.42
254.346	42.83
254.563	42.88
254.781	54.29
254.998	47.12
255.216	25.45
255.433	-10.77
255.651	0.19
255.868	-11.74
256.086	-8.99
256.303	9.26
256.521	33.06
256.738	19.77
256.956	11.85
257.173	8.75
257.39	10.96
257.608	-1.45
257.825	6.83
258.043	29.05
258.26	36.31
258.477	33.94
258.695	38.17
258.912	17.71
259.129	2.04
259.346	-14.89
259.564	-3.77
259.781	-25.07
259.998	20.16
260.216	23.18
260.433	15.86
260.65	9.02
260.867	16.42
261.084	-3.87
261.302	-12.82
261.519	18.1
261.736	4.47
261.953	11.12
262.17	20.32
262.387	16.85
262.604	7.56
262.822	27.98
263.039	20.22
263.256	11.9
263.473	12.53
263.69	5.89
263.907	-1.51
264.124	-0.59
264.341	1.09
264.558	3.43
264.775	13.21
264.992	8.39
265.209	3.01
265.426	17.56
265.643	13.83
265.86	-14.87
266.077	-25.83
266.294	-4.29
266.51	5.93
266.727	-7.25
266.944	22.36
267.161	31.96
267.378	41.04
267.595	29.1
267.812	20.13
268.028	2.24
268.245	-3.73
268.462	-18.71
268.679	10.44
268.896	22.88
269.112	17.2
269.329	-8.35
269.546	8.4
269.763	-10.06
269.979	-8.18
270.196	10.87
270.413	12.42
270.629	-8.52
270.846	-0.97
271.063	2.56
271.279	-9.19
271.496	-2.91
271.712	6.02
271.929	2.24
272.146	2.93
272.362	14.73
272.579	16.79
272.795	20.64
273.012	26.97
273.228	28.34
273.445	15.64
273.661	10.75
273.878	-2.91
274.094	0.77
274.311	8.81
274.527	-0.31
274.744	25.28
274.96	30.02
275.177	28.41
275.393	29.55
275.609	38.98
275.826	34.14
276.042	21.3
276.259	21.44
276.475	19.86
276.691	16.22
276.908	5.89
277.124	26.38
277.34	33.13
277.557	15.39
277.773	22.73
277.989	27.19
278.205	25.52
278.422	17.76
278.638	26.52
278.854	10.72
279.07	18.71
279.286	5.34
279.503	9.22
279.719	4.12
279.935	11.42
280.151	4.22
280.367	9.3
280.583	1.07
280.799	-2.16
281.016	-38.6
281.232	-39.18
281.448	-23.36
281.664	-4.35
281.88	-11.1
282.096	2.67
282.312	1.33
282.528	-8.87
282.744	-23.87
282.96	-41.55
283.176	-63.8
283.392	-105.52
283.608	-85.46
283.824	-97.03
284.04	-106.55
284.256	-35.78
284.471	-16.43
284.687	-23.74
284.903	-6.67
285.119	12.39
285.335	8.53
285.551	21.44
285.767	34.21
285.982	21.85
286.198	-12.46
286.414	25.48
286.63	7.29
286.846	-5.85
287.061	-22.26
287.277	14.51
287.493	-28.45
287.709	-33.22
287.924	-9.59
288.14	6.49
288.356	9.45
288.571	18.87
288.787	17.15
289.003	14.98
289.218	9.08
289.434	5.57
289.65	19.96
289.865	12.88
290.081	28.36
290.296	31.55
290.512	24.9
290.727	5.68
290.943	19.8
291.159	10.29
291.374	-10.41
291.59	1.01
291.805	7.03
292.021	3.9
292.236	-17.08
292.451	10.44
292.667	15.09
292.882	21.69
293.098	22.21
293.313	15.83
293.529	15.07
293.744	-0.55
293.959	0.5
294.175	-6.78
294.39	5.36
294.605	12.31
294.821	18.7
295.036	9.04
295.251	11.05
295.467	4.81
295.682	0.93
295.897	-5.23
296.112	-12.01
296.328	-2.84
296.543	-6.43
296.758	-5.94
296.973	9.76
297.188	20.07
297.404	3.63
297.619	6.35
297.834	-10.31
298.049	-25.24
298.264	-13.03
298.479	8.94
298.694	17.15
298.909	29.78
299.125	35.83
299.34	36.28
299.555	35.02
299.77	51.26
299.985	30.13
300.2	26.32
300.415	23.6
300.63	24.11
300.845	4.77
301.06	9.48
301.275	0.79
301.49	1.55
301.704	-2.24
301.919	-6.85
302.134	-0.57
302.349	8.41
302.564	3.01
302.779	-4.48
302.994	10.1
303.209	12.67
303.423	3.86
303.638	20.37
303.853	12.55
304.068	-1.42
304.283	0.57
304.497	-0.06
304.712	-9.3
304.927	-1.28
305.142	0.1
305.356	4.69
305.571	15.17
305.786	10.72
306	25.72
306.215	24.56
306.43	9.42
306.644	-8.15
306.859	-8.89
307.074	-3.01
307.288	12.06
307.503	17.01
307.717	19.17
307.932	37.38
308.147	29.53
308.361	26.89
308.576	15.72
308.79	15.03
309.005	-12.5
309.219	5.05
309.434	14.02
309.648	19.02
309.863	6.27
310.077	3.97
310.292	10.31
310.506	-11.58
310.72	-8.33
310.935	21.04
311.149	10.36
311.364	-9.17
311.578	3.55
311.792	4.73
312.007	-24.69
312.221	-22.88
312.435	-13.92
312.649	-0.21
312.864	-27.14
313.078	-20.18
313.292	-8.27
313.507	-5.74
313.721	-7.6
313.935	16.28
314.149	27.47
314.363	25.89
314.578	29.06
314.792	14.07
315.006	12
315.22	10.24
315.434	16.36
315.648	1.57
315.862	-6.31
316.077	-12.85
316.291	-10.43
316.505	-35.72
316.719	-6.8
316.933	7.03
317.147	11.46
317.361	1.21
317.575	5.52
317.789	4.09
318.003	-8.15
318.217	9.92
318.431	6.82
318.645	7.37
318.859	2.97
319.073	20.37
319.287	1.28
319.5	-1.01
319.714	-0.15
319.928	8.51
320.142	4.2
320.356	23.76
320.57	11.72
320.784	1.29
320.997	-25.79
321.211	-0.04
321.425	-12.58
321.639	18.65
321.853	34.04
322.066	33.2
322.28	23.38
322.494	18.87
322.707	9.52
322.921	0.58
323.135	8.1
323.349	4.65
323.562	12.5
323.776	22
323.989	35.94
324.203	10.46
324.417	7.6
324.63	-17.85
324.844	-37.89
325.057	-70.49
325.271	-30.91
325.485	-35.5
325.698	-3.79
325.912	14.33
326.125	18.47
326.339	31.36
326.552	20.72
326.766	13.58
326.979	17.26
327.193	10.7
327.406	-9.5
327.619	11
327.833	17.48
328.046	13.92
328.26	7.42
328.473	9.49
328.686	9.03
328.9	18.87
329.113	21.23
329.326	26.51
329.54	42.04
329.753	38.83
329.966	35.31
330.179	29.83
330.393	25.88
330.606	5.96
330.819	-5.71
331.032	-9.06
331.246	1.38
331.459	16.94
331.672	28.07
331.885	31.22
332.098	42.75
332.311	28.98
332.525	11.97
332.738	1.61
332.951	1.3
333.164	0.97
333.377	3.78
333.59	6.88
333.803	25.55
334.016	34.74
334.229	28.31
334.442	29.71
334.655	40.62
334.868	18.53
335.081	-2.76
335.294	-15.24
335.507	8.62
335.72	-0.64
335.933	11.73
336.146	15.1
336.359	27.88
336.572	11.67
336.785	2.89
336.997	6.92
337.21	29.85
337.423	5.37
337.636	1.06
337.849	4.74
338.062	-4.99
338.274	5.02
338.487	-3.21
338.7	-14.79
338.913	-6.42
339.125	-21.84
339.338	-36.28
339.551	-19.87
339.763	-11.71
339.976	-9.67
340.189	-6.47
340.402	18.05
340.614	19.53
340.827	17.92
341.039	9.36
341.252	21.21
341.465	-17.19
341.677	-25.78
341.89	-35.18
342.102	-21.75
342.315	-20.13
342.527	21.16
342.74	9.17
342.952	11.58
343.165	7.98
343.377	2.21
343.59	-25.12
343.802	-9.02
344.015	12.06
344.227	2.88
344.44	-7.93
344.652	1.82
344.864	9.71
345.077	8.04
345.289	16.87
345.502	28.62
345.714	19.66
345.926	11.4
346.139	0.14
346.351	0.33
346.563	2.94
346.775	18.76
346.988	30.25
347.2	22.84
347.412	29.92
347.624	27.3
347.837	29.12
348.049	27.2
348.261	22.52
348.473	1.01
348.685	2.42
348.897	1.04
349.11	8.4
349.322	17.05
349.534	32.53
349.746	30.19
349.958	15.86
350.17	-23.77
350.382	-16.88
350.594	-3.61
350.806	6.42
351.018	15.86
351.23	41.36
351.442	41.94
351.654	33.78
351.866	24.62
352.078	28.63
352.29	15.16
352.502	9.91
352.714	2.42
352.926	3.05
353.138	4.64
353.35	-6.87
353.561	-4.42
353.773	-4.96
353.985	8.43
354.197	-0.14
354.409	8.26
354.621	-6.11
354.832	10.58
355.044	-13.6
355.256	-12.34
355.468	-14.04
355.679	18.81
355.891	8.68
356.103	8.97
356.314	10.63
356.526	6.38
356.738	-16.73
356.949	-8.31
357.161	17.68
357.373	22.84
357.584	28.09
357.796	37.58
358.008	34.66
358.219	26.9
358.431	17.19
358.642	14.21
358.854	14.29
359.065	1.32
359.277	0.53
359.488	-0.39
359.7	-2.15
359.911	-18.83
360.123	1.25
360.334	-2.39
360.546	-8.22
360.757	-3.32
360.969	0.65
361.18	-11.02
361.391	-5.31
361.603	0.11
361.814	-1.54
362.025	15.24
362.237	13.27
362.448	10.19
362.659	2.95
362.871	-4.91
363.082	-23.42
363.293	-22.79
363.504	-41.69
363.716	-25.78
363.927	-3.75
364.138	-12.8
364.349	-29.62
364.56	-32.6
364.772	-13.77
364.983	-9.65
365.194	-5.73
365.405	9.12
365.616	22.49
365.827	11.64
366.038	11.16
366.25	19.59
366.461	10.42
366.672	16.31
366.883	15.26
367.094	9.61
367.305	-11.55
367.516	-2.46
367.727	-15.43
367.938	-24.52
368.149	-34.42
368.36	-16.43
368.571	-28.38
368.781	-43.1
368.992	-31.49
369.203	-19.64
369.414	-19.63
369.625	-12.63
369.836	17.46
370.047	17.29
370.258	18.57
370.468	8.25
370.679	5.81
370.89	-20.7
371.101	-5.07
371.312	-7.36
371.522	-1.4
371.733	-4.21
371.944	-13.64
372.155	-20.13
372.365	-19.72
372.576	-14.43
372.787	-3.74
372.997	7.63
373.208	13
373.419	15.3
373.629	-6.77
373.84	-16.4
374.05	-19.28
374.261	-38.74
374.472	-30.78
374.682	-6.7
374.893	-10.45
375.103	13.47
375.314	22.89
375.524	18.85
375.735	23.82
375.945	29.87
376.156	17.9
376.366	12.64
376.577	6.83
376.787	-0.47
376.997	-0.45
377.208	2.5
377.418	-0.6
377.629	3.4
377.839	4.25
378.049	1.48
378.26	-13.57
378.47	-12.99
378.68	-18.6
378.89	-13.4
379.101	-13.16
379.311	-1.41
379.521	-0.43
379.732	8.55
379.942	4.41
380.152	0.52
380.362	4.34
380.572	12.44
380.783	19.14
380.993	21.08
381.203	21.83
381.413	24.27
381.623	17.63
381.833	16.61
382.043	11.74
382.253	24.11
382.463	24.43
382.674	21.42
382.884	21.95
383.094	22.4
383.304	17.69
383.514	17.11
383.724	16.42
383.934	2.45
384.144	5.57
384.353	5.06
384.563	3.27
384.773	11.96
384.983	18.03
385.193	15.6
385.403	11.63
385.613	19.63
385.823	12.15
386.033	9.72
386.242	5.42
386.452	4.91
386.662	-2.08
386.872	2.74
387.082	1.51
387.291	1.74
387.501	7.57
387.711	3.52
387.921	-0.8
388.13	1.55
388.34	4.78
388.55	-2.82
388.759	-8.99
388.969	-8.86
389.179	-8.06
389.388	-13.28
389.598	-10.21
389.807	-11.23
390.017	-8.31
390.227	-12.55
390.436	-6.21
390.646	-2.34
390.855	3.05
391.065	0.87
391.274	3.99
391.484	1.2
391.693	-0.41
391.903	-0.44
392.112	0.8
392.322	-1.21
392.531	0.05
392.74	-1.63
392.95	-1.97
393.159	-1.04
393.369	-0.37
393.578	-0.33
393.787	0.01
393.997	0.88
394.206	-0.48
394.415	0.59
394.625	-0.69
394.834	-1.56
395.043	-1.04
395.252	1.09
395.462	2.28
395.671	2.98
395.88	5.02
396.089	4.66
396.298	3.77
396.508	3.49
396.717	2.89
396.926	2.18
397.135	2.02
397.344	1.37
397.553	0.51
397.762	1.82
397.971	1.68
398.181	1.63
398.39	1.8
398.599	2.31
398.808	2.11
399.017	2.88
399.226	3.09
399.435	3.45
399.644	3.37
399.853	3.09
400.062	2.63
400.27	2.53
400.479	2.44
400.688	2.33
400.897	2.31
401.106	2.27
401.315	2.19
401.524	2.23
401.733	1.81
401.941	1.5
402.15	1.29
402.359	1.47
402.568	1.4
402.777	1.85
402.985	2.19
403.194	2.16
403.403	2.18
403.612	2.22
403.82	1.94
404.029	1.89
404.238	2.04
404.446	2.21
404.655	2.25
404.864	2.31
405.072	2.38
405.281	2.42
405.489	2.18
405.698	2.35
405.906	2.37
406.115	2.2
406.324	2.29
406.532	2.41
406.741	2.24
406.949	2.36
407.158	2.61
407.366	2.45
407.574	2.46
407.783	2.49
407.991	2.51
408.2	2.53
408.408	2.5
408.617	2.4
408.825	2.33
409.033	2.29
409.242	2.24
409.45	2.31
409.658	2.25
409.867	2.28
410.075	2.28
410.283	2.14
410.491	1.97
410.7	1.92
410.908	1.97
411.116	2
411.324	1.96
411.533	2.11
411.741	2.32
411.949	2.28
412.157	2.12
412.365	2.3
412.573	2.17
412.781	2.07
412.99	1.99
413.198	2.1
413.406	2.07
413.614	2.27
413.822	2.41
414.03	2.58
414.238	2.48
414.446	2.47
414.654	2.35
414.862	2.09
415.07	1.84
415.278	2
415.486	1.8
415.694	1.86
415.902	1.97
416.109	1.92
416.317	1.83
416.525	1.87
416.733	1.77
416.941	1.8
417.149	1.9
417.357	1.89
417.564	1.9
417.772	1.93
417.98	1.84
418.188	1.73
418.395	1.63
418.603	1.58
418.811	1.5
419.019	1.47
419.226	1.63
419.434	1.77
419.642	1.75
419.849	1.66
420.057	1.79
420.265	1.78
420.472	1.68
420.68	1.85
420.887	1.99
421.095	2.14
421.302	2.18
421.51	2.18
421.717	2.23
421.925	2.23
422.132	1.95
422.34	1.63
422.547	1.62
422.755	1.49
422.962	1.54
423.17	1.51
423.377	1.59
423.585	1.75
423.792	1.66
423.999	1.6
424.207	1.55
424.414	1.61
424.621	1.54
424.829	1.6
425.036	1.6
425.243	1.78
425.451	1.85
425.658	1.83
425.865	1.95
426.072	1.99
426.28	2.03
426.487	1.96
426.694	1.95
426.901	1.89
427.108	1.72
427.315	1.55
427.523	1.46
427.73	1.35
427.937	1.15
428.144	1.27
428.351	1.3
428.558	1.47
428.765	1.51
428.972	1.66
429.179	1.62
429.386	1.74
429.593	1.65
429.8	1.68
430.007	1.76
430.214	1.7
430.421	1.74
430.628	1.88
430.835	1.79
431.042	1.73
431.249	1.74
431.456	1.71
431.662	1.79
431.869	1.95
432.076	1.87
432.283	2.05
432.49	1.93
432.697	1.81
432.903	1.7
433.11	1.8
433.317	1.81
433.524	1.92
433.73	1.95
433.937	2.08
434.144	1.95
434.35	1.73
434.557	1.7
434.764	1.66
434.97	1.47
435.177	1.68
435.384	1.81
435.59	1.81
435.797	1.95
436.003	2.19
436.21	2.1
436.416	2.13
436.623	2.11
436.829	2.04
437.036	1.88
437.242	1.97
437.449	1.95
437.655	2.09
437.862	2.15
438.068	2.19
438.275	2.13
438.481	2.23
438.687	2.2
438.894	2.22
439.1	2.19
439.307	2.36
439.513	2.35
439.719	2.3
439.926	2.27
440.132	2.41
440.338	2.31
440.544	2.2
440.751	2.18
440.957	2.19
441.163	1.93
441.369	1.92
441.575	1.91
441.782	2.07
441.988	2.03
442.194	2.19
442.4	2.2
442.606	2.44
442.812	2.32
443.018	2.33
443.224	2.37
443.431	2.25
443.637	2.02
443.843	2
444.049	2.08
444.255	2.09
444.461	2.1
444.667	2.12
444.873	2.18
445.079	2.09
445.284	2.1
445.49	2.12
445.696	2.15
445.902	2.14
446.108	2.22
446.314	2.19
446.52	2.35
446.726	2.38
446.931	2.31
447.137	2.3
447.343	2.39
447.549	2.29
447.755	2.25
447.96	2.32
448.166	2.3
448.372	2.27
448.578	2.18
448.783	2.27
448.989	2.29
449.195	2.3
449.4	2.29
449.606	2.38
449.812	2.26
450.017	2.32
450.223	2.26
450.428	2.24
450.634	2.21
450.84	2.35
451.045	2.27
451.251	2.37
451.456	2.42
451.662	2.49
451.867	2.48
452.073	2.48
452.278	2.44
452.483	2.36
452.689	2.35
452.894	2.41
453.1	2.41
453.305	2.39
453.51	2.47
453.716	2.46
453.921	2.39
454.127	2.45
454.332	2.45
454.537	2.38
454.742	2.35
454.948	2.33
455.153	2.29
455.358	2.27
455.563	2.31
455.769	2.36
455.974	2.33
456.179	2.29
456.384	2.31
456.589	2.33
456.795	2.31
457	2.29
457.205	2.26
457.41	2.24
457.615	2.18
457.82	2.19
458.025	2.25
458.23	2.28
458.435	2.38
458.64	2.4
458.845	2.35
459.05	2.35
459.255	2.38
459.46	2.31
459.665	2.32
459.87	2.36
460.075	2.39
460.28	2.39
460.485	2.5
460.69	2.43
460.895	2.49
461.099	2.41
461.304	2.36
461.509	2.34
461.714	2.48
461.919	2.45
462.123	2.45
462.328	2.43
462.533	2.3
462.738	2.2
462.942	2.19
463.147	2.19
463.352	2.27
463.556	2.38
463.761	2.42
463.966	2.43
464.17	2.5
464.375	2.54
464.58	2.42
464.784	2.37
464.989	2.38
465.193	2.28
465.398	2.25
465.602	2.45
465.807	2.52
466.011	2.58
466.216	2.7
466.42	2.71
466.625	2.69
466.829	2.6
467.034	2.58
467.238	2.57
467.443	2.68
467.647	2.64
467.851	2.74
