Data from Ofra_2a_PS_2GT3_Reflection_2.txt Node
Date: Tue Jul 20 09:40:41 EDT 2021
User: Adam
Spectrometer: FLMT01687
Trigger mode: 0
Integration Time (sec): 9.450000E-1
Scans to average: 3
Electric dark correction enabled: true
Nonlinearity correction enabled: false
Boxcar width: 3
XAxis mode: Wavelengths
Number of Pixels in Spectrum: 3648
>>>>>Begin Spectral Data<<<<<
179.494	991.72
179.716	558.36
179.937	604.95
180.158	1975.39
180.38	-890.99
180.601	-93.03
180.823	38.29
181.044	49.7
181.265	-46.53
181.486	31.25
181.708	-1296.74
181.929	35.7
182.15	-432.39
182.372	67.6
182.593	-74.57
182.814	428.59
183.035	269.73
183.257	143.69
183.478	87.25
183.699	111.74
183.92	70.29
184.141	56.27
184.363	48.9
184.584	50.6
184.805	54.07
185.026	73.1
185.247	48.76
185.468	69.43
185.689	65.66
185.91	43.97
186.132	38.12
186.353	25.91
186.574	21.41
186.795	14.12
187.016	8.76
187.237	7.6
187.458	24.34
187.679	40.22
187.9	60.26
188.121	38.41
188.342	50.61
188.563	52.07
188.784	56.64
189.005	69.39
189.226	59.92
189.447	50.22
189.667	61.15
189.888	55.78
190.109	55.61
190.33	36.23
190.551	17.47
190.772	5.88
190.993	12.19
191.214	14.38
191.434	17.74
191.655	32.1
191.876	44.16
192.097	45.32
192.318	51.59
192.538	54.22
192.759	58.24
192.98	51.41
193.201	58.31
193.421	54.6
193.642	57.94
193.863	77.57
194.083	63.21
194.304	40.57
194.525	57.73
194.745	39.45
194.966	51.82
195.187	49.5
195.407	34.11
195.628	35.24
195.848	44.08
196.069	33.3
196.29	27.72
196.51	10.34
196.731	12.96
196.951	20.07
197.172	27.77
197.392	28.95
197.613	26.51
197.833	38.16
198.054	37.08
198.274	30.14
198.495	42.98
198.715	29.41
198.936	23.02
199.156	13.51
199.377	9.35
199.597	21.23
199.817	40.4
200.038	31.79
200.258	51.16
200.479	56.6
200.699	63.24
200.919	53.44
201.14	39.78
201.36	33.62
201.58	35.31
201.801	12
202.021	18.98
202.241	22.07
202.461	29.82
202.682	37.83
202.902	30.51
203.122	29.38
203.342	46.42
203.563	47.64
203.783	49.75
204.003	48.38
204.223	54.12
204.443	60.84
204.663	52.3
204.884	44.43
205.104	48.77
205.324	72.9
205.544	78.24
205.764	69.07
205.984	61.63
206.204	82.75
206.424	72.34
206.644	63.14
206.864	44.98
207.084	51.86
207.304	49.31
207.525	50.08
207.745	51.81
207.964	64.86
208.184	49.2
208.404	46.12
208.624	25.94
208.844	19.61
209.064	18.81
209.284	17.21
209.504	10.38
209.724	3.68
209.944	10.29
210.164	34.91
210.384	52.42
210.604	57.99
210.823	30.63
211.043	31.04
211.263	42.7
211.483	41.98
211.703	36.08
211.922	36.45
212.142	49.72
212.362	63.29
212.582	66.68
212.801	65.17
213.021	67.99
213.241	63.15
213.461	46.5
213.68	44
213.9	41.47
214.12	28.09
214.339	31.23
214.559	38.46
214.779	42.71
214.998	43.05
215.218	44.12
215.438	44.07
215.657	53.75
215.877	54.57
216.096	40.42
216.316	35.53
216.535	40.25
216.755	24.85
216.974	25.73
217.194	29.08
217.413	35.85
217.633	36.91
217.852	46.38
218.072	65.92
218.291	72.15
218.511	63.92
218.73	59.9
218.95	59.33
219.169	62.06
219.389	61.08
219.608	49.08
219.827	38.13
220.047	40.89
220.266	42.81
220.485	41.58
220.705	38.85
220.924	43.55
221.143	36.35
221.363	41.35
221.582	39.88
221.801	50.08
222.021	46.91
222.24	55.03
222.459	46.99
222.678	67.17
222.897	55.99
223.117	61.81
223.336	48.94
223.555	51.65
223.774	72.58
223.993	71.05
224.213	59.78
224.432	71.16
224.651	66.73
224.87	69.16
225.089	72.34
225.308	53.17
225.527	51.74
225.746	64.7
225.965	55.46
226.184	50.09
226.404	44.16
226.623	46.69
226.842	49.11
227.061	53.93
227.28	53.65
227.499	53.99
227.718	56.25
227.936	44.38
228.155	40.17
228.374	44.01
228.593	36.52
228.812	29.3
229.031	21.35
229.25	25.19
229.469	50.26
229.688	59.96
229.907	53.5
230.125	58
230.344	52.4
230.563	57.26
230.782	54.42
231.001	45.94
231.22	34.86
231.438	27.85
231.657	33.23
231.876	41.56
232.095	44.6
232.313	57.73
232.532	50.22
232.751	54.64
232.969	66.51
233.188	60.17
233.407	59.27
233.625	58.71
233.844	46.79
234.063	51.45
234.281	40.71
234.5	40.72
234.719	36.47
234.937	56.47
235.156	47.08
235.374	38.83
235.593	33.81
235.811	52.62
236.03	56.68
236.249	74.67
236.467	49.58
236.686	59.12
236.904	57.74
237.123	65.48
237.341	49.5
237.559	36.84
237.778	29.71
237.996	23.51
238.215	17.26
238.433	29.4
238.652	24.43
238.87	29.72
239.088	22.12
239.307	15.58
239.525	12.05
239.743	9.3
239.962	10.82
240.18	15.34
240.398	15.19
240.617	33.54
240.835	43.29
241.053	53.7
241.271	64.71
241.49	51.24
241.708	51.27
241.926	36.56
242.144	39.54
242.363	30.28
242.581	22.79
242.799	8.46
243.017	16.33
243.235	7.19
243.453	28.59
243.672	26.51
243.89	29.03
244.108	36.55
244.326	33.91
244.544	38.44
244.762	43.95
244.98	39.62
245.198	37.54
245.416	36.53
245.634	42.8
245.852	55.65
246.07	49.7
246.288	39.95
246.506	37.61
246.724	35.08
246.942	50.58
247.16	34.72
247.378	19.66
247.596	24.21
247.814	25.94
248.032	29.03
248.25	26.3
248.468	16.92
248.685	29.2
248.903	37.94
249.121	41.42
249.339	39.93
249.557	40.35
249.775	27.19
249.992	26.68
250.21	17.8
250.428	13.29
250.646	9.24
250.863	14.78
251.081	10.43
251.299	38.69
251.517	33.54
251.734	36.03
251.952	51.21
252.17	41.47
252.387	48.04
252.605	55.52
252.823	43.98
253.04	58.19
253.258	54.88
253.475	41.81
253.693	50.92
253.911	39.07
254.128	28.01
254.346	24.92
254.563	14.73
254.781	14.33
254.998	13.65
255.216	13.52
255.433	17.4
255.651	18.43
255.868	32.33
256.086	42.74
256.303	47.42
256.521	34.47
256.738	32.58
256.956	21.97
257.173	27.07
257.39	22.74
257.608	23.01
257.825	28.2
258.043	38.43
258.26	28.7
258.477	45.22
258.695	48.15
258.912	53.71
259.129	47.64
259.346	43.93
259.564	55.76
259.781	70.04
259.998	56.73
260.216	55.77
260.433	49.62
260.65	65.55
260.867	57.18
261.084	42.3
261.302	29.86
261.519	27.04
261.736	18.57
261.953	20.14
262.17	6.74
262.387	8.9
262.604	0.98
262.822	11.99
263.039	20.15
263.256	23.64
263.473	14.66
263.69	21.98
263.907	20.86
264.124	10.86
264.341	8.7
264.558	13.52
264.775	16.16
264.992	22.54
265.209	30.48
265.426	37.63
265.643	52.81
265.86	50.78
266.077	49.95
266.294	45.83
266.51	43.45
266.727	30.56
266.944	22.56
267.161	12.65
267.378	4.9
267.595	-4.04
267.812	3.54
268.028	19.94
268.245	29.74
268.462	36.1
268.679	35.49
268.896	34.82
269.112	46.24
269.329	52.31
269.546	43.88
269.763	43.22
269.979	35.5
270.196	38.04
270.413	44.12
270.629	36.87
270.846	33.92
271.063	35.31
271.279	31.45
271.496	31.14
271.712	31.99
271.929	35.77
272.146	37.81
272.362	31.1
272.579	24.69
272.795	25.04
273.012	30.78
273.228	26.21
273.445	23.52
273.661	22.5
273.878	23.54
274.094	28.55
274.311	24.04
274.527	21.57
274.744	30.12
274.96	29.9
275.177	37.85
275.393	41.34
275.609	47.09
275.826	53.07
276.042	64.13
276.259	58.89
276.475	52.92
276.691	50.98
276.908	45.78
277.124	38.49
277.34	41.06
277.557	32.75
277.773	25.26
277.989	27.17
278.205	15.44
278.422	30.47
278.638	41.68
278.854	33.54
279.07	25.63
279.286	23.02
279.503	27.04
279.719	44.16
279.935	28.56
280.151	20.79
280.367	26.09
280.583	32.86
280.799	46.44
281.016	45.36
281.232	40.11
281.448	42.65
281.664	49.29
281.88	48.52
282.096	53.07
282.312	45.36
282.528	34.88
282.744	25.57
282.96	34.46
283.176	33.19
283.392	41.58
283.608	32.83
283.824	32.62
284.04	41.34
284.256	47.41
284.471	37.65
284.687	32.32
284.903	29.39
285.119	16.15
285.335	14.32
285.551	15.12
285.767	10.24
285.982	7.58
286.198	9.5
286.414	21.16
286.63	44.81
286.846	44.55
287.061	44.81
287.277	43.35
287.493	50.65
287.709	42.34
287.924	34.27
288.14	28.49
288.356	34.79
288.571	24.03
288.787	28.62
289.003	33.11
289.218	41.02
289.434	34.91
289.65	32.03
289.865	33.97
290.081	31.83
290.296	34.14
290.512	34.68
290.727	42.38
290.943	35.06
291.159	30.96
291.374	34.85
291.59	37.12
291.805	41.54
292.021	30.51
292.236	15.31
292.451	32.85
292.667	33.23
292.882	20.34
293.098	22.58
293.313	14.82
293.529	15.97
293.744	20.17
293.959	22.28
294.175	16.77
294.39	24.65
294.605	23.75
294.821	17.33
295.036	21.27
295.251	17.81
295.467	7.65
295.682	15.73
295.897	13.71
296.112	16.1
296.328	26.14
296.543	23.99
296.758	29.53
296.973	34.22
297.188	33.55
297.404	39.15
297.619	41.58
297.834	36.39
298.049	42.05
298.264	40.48
298.479	35.13
298.694	37.34
298.909	35.44
299.125	35.12
299.34	30.97
299.555	35.31
299.77	35.24
299.985	33.59
300.2	29.73
300.415	36.21
300.63	35.71
300.845	43.18
301.06	38.65
301.275	43.98
301.49	49.2
301.704	53.2
301.919	47.8
302.134	37.58
302.349	26.99
302.564	29.52
302.779	28.57
302.994	22.41
303.209	13.97
303.423	20.78
303.638	37.21
303.853	49.46
304.068	47.13
304.283	38.92
304.497	44.82
304.712	40.78
304.927	34.21
305.142	38.76
305.356	41.35
305.571	34.85
305.786	28.18
306	30.9
306.215	36.53
306.43	42.65
306.644	33.7
306.859	33.69
307.074	37.29
307.288	44.46
307.503	39.04
307.717	38.6
307.932	40.7
308.147	40.41
308.361	36.54
308.576	34.12
308.79	31.87
309.005	34.22
309.219	32.09
309.434	28.52
309.648	22.48
309.863	25.69
310.077	26.07
310.292	34.11
310.506	38.59
310.72	49.64
310.935	51.46
311.149	43.32
311.364	45.99
311.578	45.17
311.792	38.59
312.007	31.66
312.221	24.69
312.435	25.22
312.649	46.24
312.864	35.47
313.078	28.91
313.292	40.61
313.507	45.13
313.721	49.52
313.935	47.92
314.149	35.03
314.363	39.76
314.578	63.3
314.792	54.18
315.006	54.79
315.22	55.21
315.434	53.55
315.648	56.95
315.862	47.24
316.077	28.22
316.291	29.3
316.505	26.43
316.719	19.66
316.933	15.13
317.147	12.23
317.361	19.92
317.575	30.66
317.789	35.39
318.003	30.94
318.217	33.1
318.431	31.95
318.645	37.32
318.859	27.26
319.073	19.2
319.287	17.04
319.5	20.98
319.714	22.35
319.928	31.94
320.142	33.57
320.356	50.37
320.57	51.21
320.784	47.07
320.997	44.46
321.211	47.15
321.425	33.81
321.639	32.64
321.853	24.04
322.066	23.25
322.28	33.96
322.494	39.02
322.707	33.9
322.921	37.94
323.135	40.86
323.349	41.55
323.562	43.9
323.776	38.37
323.989	34.22
324.203	38.47
324.417	33.29
324.63	28.45
324.844	24.49
325.057	34.19
325.271	24.85
325.485	28.83
325.698	29.5
325.912	35.68
326.125	36.22
326.339	36.5
326.552	30.24
326.766	40.13
326.979	38.17
327.193	34
327.406	35.81
327.619	24.85
327.833	26.5
328.046	19.58
328.26	4.88
328.473	9.28
328.686	19.13
328.9	17.97
329.113	22.95
329.326	26.29
329.54	24.09
329.753	34.12
329.966	31.02
330.179	27.01
330.393	24.02
330.606	24.51
330.819	27.42
331.032	32.79
331.246	36.8
331.459	34.21
331.672	31.8
331.885	31.91
332.098	40.58
332.311	22.25
332.525	21.46
332.738	21.56
332.951	18.64
333.164	15.01
333.377	7.64
333.59	5.26
333.803	22.56
334.016	19.98
334.229	8.13
334.442	18.75
334.655	29.79
334.868	43.91
335.081	42.1
335.294	33.59
335.507	40.18
335.72	37.23
335.933	33.38
336.146	33.52
336.359	26.87
336.572	27.9
336.785	36.75
336.997	40.04
337.21	44.22
337.423	44.38
337.636	43.76
337.849	46.21
338.062	43.41
338.274	44.24
338.487	34.65
338.7	38.39
338.913	38.15
339.125	30.63
339.338	38.42
339.551	37.73
339.763	34.03
339.976	34.72
340.189	26.08
340.402	25.45
340.614	29.83
340.827	11.95
341.039	11.49
341.252	8.51
341.465	9.28
341.677	10.4
341.89	11
342.102	15.13
342.315	25.64
342.527	24.59
342.74	23.9
342.952	19.69
343.165	25.42
343.377	31.25
343.59	30.59
343.802	27.14
344.015	29.05
344.227	31.54
344.44	34.39
344.652	32.68
344.864	29.61
345.077	25.37
345.289	29.45
345.502	32.42
345.714	18.42
345.926	21.72
346.139	31.95
346.351	23.57
346.563	29.12
346.775	23.33
346.988	14.85
347.2	26.53
347.412	18.27
347.624	13.56
347.837	19.04
348.049	12.75
348.261	13.64
348.473	14.45
348.685	19.47
348.897	28.7
349.11	27.23
349.322	27.06
349.534	29.79
349.746	40.6
349.958	37.37
350.17	26.07
350.382	14.34
350.594	13.06
350.806	10.54
351.018	18.1
351.23	13.28
351.442	13.62
351.654	24.62
351.866	30.27
352.078	30.39
352.29	38.9
352.502	35.46
352.714	39.32
352.926	41.62
353.138	38.5
353.35	37.11
353.561	33.31
353.773	34.86
353.985	42.05
354.197	40.56
354.409	45.15
354.621	39.14
354.832	32.97
355.044	42.46
355.256	35.09
355.468	28.95
355.679	31.55
355.891	28.52
356.103	29.49
356.314	31.2
356.526	23.48
356.738	26.15
356.949	33.5
357.161	29.95
357.373	32.08
357.584	40.78
357.796	43.17
358.008	42.74
358.219	44.09
358.431	39.84
358.642	36.42
358.854	38.13
359.065	28.37
359.277	30.45
359.488	31.38
359.7	31.33
359.911	27.68
360.123	38.31
360.334	31.06
360.546	28.83
360.757	31.21
360.969	36.72
361.18	31.7
361.391	29.35
361.603	24.29
361.814	26.82
362.025	27.15
362.237	26.41
362.448	21.81
362.659	9.84
362.871	11.14
363.082	20.45
363.293	25.89
363.504	31.44
363.716	26.43
363.927	31.88
364.138	42.94
364.349	43.65
364.56	34.36
364.772	30.9
364.983	26.13
365.194	32.28
365.405	19.81
365.616	15.53
365.827	12.36
366.038	20.51
366.25	25.85
366.461	32.47
366.672	28.14
366.883	38.27
367.094	34.93
367.305	41.57
367.516	40.46
367.727	35.25
367.938	34.9
368.149	41.17
368.36	37.18
368.571	37.8
368.781	31.7
368.992	33.37
369.203	37.66
369.414	37.79
369.625	36.16
369.836	40.87
370.047	39.2
370.258	38.86
370.468	37.47
370.679	34.41
370.89	38.56
371.101	35.17
371.312	34.13
371.522	37.65
371.733	34.78
371.944	35.67
372.155	29.17
372.365	21.56
372.576	21.28
372.787	10.8
372.997	10.43
373.208	19.3
373.419	12.92
373.629	22.49
373.84	17.07
374.05	16.58
374.261	21.58
374.472	22.71
374.682	12.46
374.893	13.41
375.103	10.86
375.314	19.24
375.524	18.92
375.735	22.04
375.945	21.39
376.156	28.78
376.366	31.18
376.577	29.21
376.787	27.26
376.997	28.69
377.208	25.84
377.418	22.31
377.629	13.73
377.839	13.42
378.049	21.5
378.26	20.55
378.47	20.43
378.68	16.06
378.89	15.16
379.101	12.5
379.311	11.43
379.521	4.59
379.732	-2.49
379.942	1.78
380.152	11
380.362	14.3
380.572	21.34
380.783	18.58
380.993	19.33
381.203	25.9
381.413	25.43
381.623	25.7
381.833	25.37
382.043	19.76
382.253	23.71
382.463	26.56
382.674	24.71
382.884	22.29
383.094	22.36
383.304	22.81
383.514	28.78
383.724	22.89
383.934	18.83
384.144	19.4
384.353	16.99
384.563	11.39
384.773	11.38
384.983	6.99
385.193	10.85
385.403	13.64
385.613	8.34
385.823	10.36
386.033	8.6
386.242	9.52
386.452	10.81
386.662	12.32
386.872	8.97
387.082	12.7
387.291	13.84
387.501	17.53
387.711	15.46
387.921	14.7
388.13	13.5
388.34	13.98
388.55	16.71
388.759	14.35
388.969	12.06
389.179	14.59
389.388	14.42
389.598	11.47
389.807	12.35
390.017	8.67
390.227	7.9
390.436	8.49
390.646	9.29
390.855	9.26
391.065	10.24
391.274	8.4
391.484	9.82
391.693	10.49
391.903	10.09
392.112	7.81
392.322	9.15
392.531	9.39
392.74	7.98
392.95	7.99
393.159	7.33
393.369	8.99
393.578	8.32
393.787	6.97
393.997	7.39
394.206	8.27
394.415	7.57
394.625	6.57
394.834	4.21
395.043	4.95
395.252	5.04
395.462	4.45
395.671	4.84
395.88	4.92
396.089	5.42
396.298	6.23
396.508	5.61
396.717	5.4
396.926	5.12
397.135	4.23
397.344	3.94
397.553	4.09
397.762	3.42
397.971	3.46
398.181	3.08
398.39	3.37
398.599	3.93
398.808	4.13
399.017	4.05
399.226	4.56
399.435	4.58
399.644	4.6
399.853	4.64
400.062	4.2
400.27	4.28
400.479	4.19
400.688	4.36
400.897	4.46
401.106	4.58
401.315	4.31
401.524	4.44
401.733	4.41
401.941	4.45
402.15	4.04
402.359	4.08
402.568	4.05
402.777	4.05
402.985	4.09
403.194	4.1
403.403	3.78
403.612	3.82
403.82	3.74
404.029	3.75
404.238	3.82
404.446	3.71
404.655	3.55
404.864	3.65
405.072	3.68
405.281	3.55
405.489	3.59
405.698	3.47
405.906	3.5
406.115	3.48
406.324	3.44
406.532	3.42
406.741	3.45
406.949	3.34
407.158	3.37
407.366	3.36
407.574	3.42
407.783	3.37
407.991	3.24
408.2	3.2
408.408	3.19
408.617	3.15
408.825	3.19
409.033	3.15
409.242	3.17
409.45	3.19
409.658	3.22
409.867	3.22
410.075	3.23
410.283	3.08
410.491	3.02
410.7	3.08
410.908	3.09
411.116	2.99
411.324	3.01
411.533	2.87
411.741	2.94
411.949	2.9
412.157	2.87
412.365	2.93
412.573	2.92
412.781	2.91
412.99	3.06
413.198	3.09
413.406	3.07
413.614	3.09
413.822	3.06
414.03	3.09
414.238	3.14
414.446	3.08
414.654	3.04
414.862	3.09
415.07	3.14
415.278	3.07
415.486	3.1
415.694	2.97
415.902	2.92
416.109	2.97
416.317	2.95
416.525	2.95
416.733	3.07
416.941	3.04
417.149	3.21
417.357	3.26
417.564	3.18
417.772	3.18
417.98	3.09
418.188	2.89
418.395	2.88
418.603	2.68
418.811	2.57
419.019	2.55
419.226	2.6
419.434	2.43
419.642	2.56
419.849	2.6
420.057	2.58
420.265	2.64
420.472	2.63
420.68	2.57
420.887	2.66
421.095	2.6
421.302	2.65
421.51	2.79
421.717	2.83
421.925	2.79
422.132	2.76
422.34	2.76
422.547	2.74
422.755	2.58
422.962	2.48
423.17	2.41
423.377	2.53
423.585	2.57
423.792	2.6
423.999	2.62
424.207	2.61
424.414	2.72
424.621	2.74
424.829	2.6
425.036	2.47
425.243	2.51
425.451	2.51
425.658	2.54
425.865	2.38
426.072	2.51
426.28	2.56
426.487	2.59
426.694	2.5
426.901	2.45
427.108	2.51
427.315	2.57
427.523	2.54
427.73	2.53
427.937	2.54
428.144	2.58
428.351	2.64
428.558	2.53
428.765	2.46
428.972	2.37
429.179	2.33
429.386	2.43
429.593	2.39
429.8	2.5
430.007	2.64
430.214	2.65
430.421	2.68
430.628	2.59
430.835	2.54
431.042	2.63
431.249	2.53
431.456	2.55
431.662	2.6
431.869	2.67
432.076	2.79
432.283	2.76
432.49	2.72
432.697	2.67
432.903	2.64
433.11	2.66
433.317	2.61
433.524	2.54
433.73	2.54
433.937	2.53
434.144	2.63
434.35	2.6
434.557	2.56
434.764	2.47
434.97	2.59
435.177	2.59
435.384	2.69
435.59	2.64
435.797	2.62
436.003	2.57
436.21	2.61
436.416	2.56
436.623	2.62
436.829	2.54
437.036	2.56
437.242	2.62
437.449	2.71
437.655	2.79
437.862	2.82
438.068	2.85
438.275	2.85
438.481	2.89
438.687	2.92
438.894	2.92
439.1	2.9
439.307	2.85
439.513	2.81
439.719	2.83
439.926	2.84
440.132	2.83
440.338	2.84
440.544	2.83
440.751	2.84
440.957	2.78
441.163	2.84
441.369	2.79
441.575	2.8
441.782	2.78
441.988	2.78
442.194	2.87
442.4	3
442.606	3.01
442.812	3.07
443.018	3.13
443.224	3.12
443.431	3.17
443.637	3.12
443.843	3.12
444.049	3.04
444.255	2.97
444.461	2.9
444.667	2.89
444.873	2.83
445.079	2.91
445.284	2.88
445.49	2.88
445.696	2.89
445.902	2.92
446.108	2.96
446.314	3.03
446.52	2.97
446.726	2.96
446.931	2.98
447.137	3.04
447.343	3.05
447.549	3.04
447.755	3
447.96	3.07
448.166	3.13
448.372	3.14
448.578	3.12
448.783	3.07
448.989	3.15
449.195	3.17
449.4	3.14
449.606	3.11
449.812	3.15
450.017	3.18
450.223	3.25
450.428	3.21
450.634	3.19
450.84	3.24
451.045	3.23
451.251	3.22
451.456	3.2
451.662	3.13
451.867	3.15
452.073	3.18
452.278	3.11
452.483	3.1
452.689	3.11
452.894	3.09
453.1	3.1
453.305	3.08
453.51	3.07
453.716	3.08
453.921	3.1
454.127	3.1
454.332	3.12
454.537	3.2
454.742	3.22
454.948	3.28
455.153	3.3
455.358	3.31
455.563	3.29
455.769	3.3
455.974	3.22
456.179	3.18
456.384	3.13
456.589	3.14
456.795	3.13
457	3.13
457.205	3.07
457.41	3.17
457.615	3.22
457.82	3.28
458.025	3.3
458.23	3.32
458.435	3.32
458.64	3.4
458.845	3.31
459.05	3.28
459.255	3.26
459.46	3.24
459.665	3.3
459.87	3.33
460.075	3.33
460.28	3.37
460.485	3.42
460.69	3.33
460.895	3.34
461.099	3.33
461.304	3.33
461.509	3.24
461.714	3.27
461.919	3.22
462.123	3.31
462.328	3.3
462.533	3.27
462.738	3.28
462.942	3.35
463.147	3.37
463.352	3.41
463.556	3.39
463.761	3.42
463.966	3.48
464.17	3.51
464.375	3.5
464.58	3.44
464.784	3.5
464.989	3.54
465.193	3.57
465.398	3.58
465.602	3.55
465.807	3.64
466.011	3.69
466.216	3.59
466.42	3.6
466.625	3.58
466.829	3.58
467.034	3.63
467.238	3.61
467.443	3.64
467.647	3.73
467.851	3.73
468.056	3.76
468.26	3.74
468.464	3.72
