Data from Ofra_2a_PS_2GT31_Reflection_3.txt Node
Date: Tue Jul 20 09:41:43 EDT 2021
User: Adam
Spectrometer: FLMT01687
Trigger mode: 0
Integration Time (sec): 9.450000E-1
Scans to average: 3
Electric dark correction enabled: true
Nonlinearity correction enabled: false
Boxcar width: 3
XAxis mode: Wavelengths
Number of Pixels in Spectrum: 3648
>>>>>Begin Spectral Data<<<<<
179.494	474.56
179.716	212.5
179.937	235.16
180.158	505.47
180.38	-138.95
180.601	-34.39
180.823	-8.08
181.044	3.78
181.265	-97.37
181.486	-89.6
181.708	-2776.09
181.929	-165.81
182.15	-646.59
182.372	-16.43
182.593	-15.58
182.814	368.56
183.035	482.44
183.257	224.84
183.478	124.58
183.699	128.74
183.92	68.79
184.141	75.56
184.363	77.37
184.584	62.01
184.805	51.09
185.026	61.89
185.247	32.53
185.468	51.85
185.689	48.29
185.91	27.44
186.132	27.59
186.353	14.21
186.574	19.98
186.795	13.95
187.016	11.17
187.237	5.57
187.458	-7.13
187.679	-14.52
187.9	7.09
188.121	-3.24
188.342	27.01
188.563	16.4
188.784	8.49
189.005	24.66
189.226	30.26
189.447	23.07
189.667	19.32
189.888	28.39
190.109	43.43
190.33	44.6
190.551	40.66
190.772	22.94
190.993	37.41
191.214	36.71
191.434	37.02
191.655	26.37
191.876	32.86
192.097	25.28
192.318	38.19
192.538	30.5
192.759	46.24
192.98	30.33
193.201	51.21
193.421	61.28
193.642	71.92
193.863	83.6
194.083	89.48
194.304	54.64
194.525	76.04
194.745	65.01
194.966	51.53
195.187	61.39
195.407	50.56
195.628	37.58
195.848	44.76
196.069	26.75
196.29	20.35
196.51	18.41
196.731	11.14
196.951	-0.87
197.172	3.57
197.392	26.54
197.613	29.84
197.833	27.58
198.054	25.8
198.274	13.37
198.495	45.83
198.715	56.25
198.936	65.03
199.156	49.23
199.377	67.46
199.597	54.79
199.817	51.37
200.038	37.24
200.258	38.24
200.479	37.16
200.699	47.52
200.919	34.87
201.14	52.11
201.36	71.93
201.58	61.34
201.801	56.35
202.021	49.37
202.241	51.48
202.461	46.49
202.682	54.25
202.902	51.17
203.122	47.19
203.342	49.94
203.563	56.86
203.783	52.27
204.003	58.82
204.223	53.44
204.443	39.25
204.663	50.43
204.884	42
205.104	40.57
205.324	49.7
205.544	56.45
205.764	54.59
205.984	65.54
206.204	60.04
206.424	61.82
206.644	57.51
206.864	48.94
207.084	59.46
207.304	51.56
207.525	46.03
207.745	51.05
207.964	46.71
208.184	41.73
208.404	37.9
208.624	6.35
208.844	5.77
209.064	9.11
209.284	15.97
209.504	20.88
209.724	11.54
209.944	21.53
210.164	41.11
210.384	50.24
210.604	58.44
210.823	27.63
211.043	28.65
211.263	53.28
211.483	50.64
211.703	46.62
211.922	39.81
212.142	53.78
212.362	65.27
212.582	64.04
212.801	48.47
213.021	49.76
213.241	43.54
213.461	53.39
213.68	42.79
213.9	37.22
214.12	31.93
214.339	28.98
214.559	30
214.779	42.28
214.998	42.47
215.218	53.9
215.438	66.09
215.657	66.92
215.877	74.89
216.096	70.7
216.316	59.98
216.535	62.59
216.755	36.44
216.974	20.6
217.194	8.92
217.413	29.31
217.633	25.8
217.852	19.26
218.072	11.69
218.291	41.27
218.511	39.19
218.73	48.19
218.95	40.12
219.169	42.65
219.389	40.46
219.608	44.25
219.827	40.74
220.047	65.87
220.266	53.18
220.485	44.51
220.705	41.02
220.924	54.5
221.143	47.08
221.363	43.13
221.582	30.21
221.801	39.24
222.021	35.9
222.24	31.6
222.459	23.91
222.678	33.71
222.897	38.76
223.117	47.15
223.336	44.33
223.555	44.64
223.774	69.45
223.993	75.61
224.213	64.34
224.432	78.93
224.651	67.68
224.87	61.34
225.089	72.08
225.308	52.7
225.527	36.03
225.746	32.71
225.965	15.9
226.184	17.82
226.404	3.24
226.623	7.22
226.842	21.16
227.061	33.87
227.28	57.35
227.499	58.67
227.718	52.6
227.936	52.41
228.155	48.12
228.374	44.38
228.593	43.46
228.812	30.22
229.031	9.3
229.25	20.95
229.469	31.72
229.688	31.86
229.907	32.96
230.125	24.54
230.344	27.79
230.563	40.19
230.782	33.54
231.001	36.79
231.22	34.44
231.438	41.24
231.657	56.73
231.876	53.73
232.095	58.52
232.313	66.88
232.532	58.31
232.751	62.56
232.969	64.89
233.188	62.22
233.407	65.55
233.625	54.14
233.844	50.63
234.063	41.39
234.281	37.33
234.5	22.71
234.719	22.13
234.937	23.77
235.156	35.18
235.374	39.28
235.593	43.66
235.811	44.62
236.03	57.77
236.249	45.84
236.467	46.63
236.686	42.44
236.904	37.38
237.123	48.58
237.341	50.07
237.559	48.1
237.778	58.88
237.996	53.12
238.215	48.32
238.433	49.7
238.652	36.63
238.87	39.82
239.088	28.38
239.307	23.28
239.525	19.52
239.743	16.54
239.962	9.37
240.18	33.97
240.398	41.47
240.617	48.97
240.835	57.15
241.053	64.28
241.271	67.35
241.49	55.05
241.708	47.74
241.926	25.83
242.144	36.63
242.363	30.24
242.581	29
242.799	21.13
243.017	28.52
243.235	13.45
243.453	17.4
243.672	8.6
243.89	12.94
244.108	14.58
244.326	18.31
244.544	34.84
244.762	39.74
244.98	43.64
245.198	47.75
245.416	51.08
245.634	53.32
245.852	47.5
246.07	43.37
246.288	48.3
246.506	57.94
246.724	55.71
246.942	40.76
247.16	38.84
247.378	45.04
247.596	37.57
247.814	22.85
248.032	21.5
248.25	31.41
248.468	44.25
248.685	54.17
248.903	41.49
249.121	59.73
249.339	70.36
249.557	72.55
249.775	51.45
249.992	37.2
250.21	25.76
250.428	20.26
250.646	9.65
250.863	7.47
251.081	-11.92
251.299	6.71
251.517	12.96
251.734	23.5
251.952	32.54
252.17	18.32
252.387	19.66
252.605	33.4
252.823	15.61
253.04	44.24
253.258	52.18
253.475	56.56
253.693	70.65
253.911	84.77
254.128	69.11
254.346	60.36
254.563	44.15
254.781	38.78
254.998	35.69
255.216	26.83
255.433	19.01
255.651	19.99
255.868	30.86
256.086	29.79
256.303	33.9
256.521	33.26
256.738	32.54
256.956	36.77
257.173	45.04
257.39	48.12
257.608	45.5
257.825	44.61
258.043	52.21
258.26	60.09
258.477	56.45
258.695	53.04
258.912	57.12
259.129	52.92
259.346	47.4
259.564	40.5
259.781	41.86
259.998	31.3
260.216	30.86
260.433	26.31
260.65	34.45
260.867	27.28
261.084	33
261.302	22.15
261.519	19.56
261.736	20.21
261.953	21.77
262.17	24.11
262.387	45.75
262.604	30.86
262.822	42.36
263.039	44.35
263.256	48.69
263.473	35.73
263.69	35.62
263.907	13.27
264.124	24.49
264.341	13.66
264.558	21.63
264.775	11.56
264.992	21.77
265.209	29.8
265.426	39.33
265.643	43.09
265.86	43.32
266.077	40.55
266.294	51.45
266.51	55.13
266.727	43.89
266.944	33.56
267.161	17.7
267.378	15.73
267.595	19.18
267.812	4.28
268.028	9.59
268.245	11.93
268.462	21.68
268.679	24.98
268.896	19.16
269.112	24.13
269.329	31.23
269.546	12.61
269.763	22.58
269.979	18.36
270.196	21.97
270.413	29.3
270.629	21.58
270.846	22.19
271.063	31.7
271.279	27.64
271.496	21.43
271.712	28.01
271.929	34.46
272.146	41.47
272.362	32.95
272.579	23.35
272.795	24.12
273.012	27.04
273.228	23.23
273.445	16.45
273.661	10.45
273.878	10.15
274.094	23.07
274.311	19.16
274.527	22.39
274.744	13.57
274.96	9.09
275.177	21.41
275.393	32.19
275.609	28.85
275.826	37.17
276.042	48.54
276.259	58.1
276.475	57.95
276.691	47.95
276.908	42.38
277.124	40.56
277.34	37.23
277.557	27.06
277.773	28.48
277.989	23.57
278.205	25.02
278.422	30.09
278.638	32.58
278.854	33.36
279.07	30.22
279.286	26.01
279.503	33.24
279.719	41.93
279.935	33.68
280.151	35.17
280.367	34.37
280.583	34.18
280.799	37.93
281.016	40.06
281.232	34
281.448	34.7
281.664	32.84
281.88	32.47
282.096	29.53
282.312	22.81
282.528	6.67
282.744	12.09
282.96	22.13
283.176	23.06
283.392	42.3
283.608	62.8
283.824	63.02
284.04	69.98
284.256	68.09
284.471	64.39
284.687	65.07
284.903	56.02
285.119	43.47
285.335	42.05
285.551	47.8
285.767	47.72
285.982	46.89
286.198	39.66
286.414	38.94
286.63	46.82
286.846	46.93
287.061	53.61
287.277	58.11
287.493	58.06
287.709	62.52
287.924	66.98
288.14	71.19
288.356	77.51
288.571	76.08
288.787	60
289.003	62.03
289.218	60.64
289.434	68.86
289.65	65.42
289.865	68.8
290.081	54.11
290.296	62.17
290.512	62.21
290.727	73.12
290.943	60.2
291.159	58.8
291.374	51.33
291.59	51.69
291.805	52.09
292.021	45.21
292.236	31.69
292.451	29.62
292.667	27.81
292.882	21.96
293.098	16.36
293.313	6.87
293.529	10.74
293.744	8.17
293.959	19.82
294.175	20.15
294.39	27.21
294.605	38.09
294.821	53.98
295.036	67.11
295.251	70.73
295.467	65.17
295.682	59
295.897	55.48
296.112	62.29
296.328	58.54
296.543	46.79
296.758	45.97
296.973	49
297.188	49.39
297.404	47.15
297.619	38.83
297.834	42.42
298.049	48.18
298.264	44.61
298.479	27.33
298.694	32.29
298.909	22.86
299.125	29.28
299.34	18.36
299.555	22.34
299.77	17.75
299.985	23.65
300.2	22.39
300.415	29.12
300.63	17.26
300.845	27.47
301.06	20.09
301.275	30.18
301.49	34.26
301.704	29.56
301.919	27.54
302.134	28.31
302.349	19.94
302.564	21.51
302.779	20.65
302.994	8.64
303.209	6.5
303.423	15.86
303.638	32.78
303.853	32.95
304.068	37.62
304.283	28.53
304.497	41.21
304.712	43.99
304.927	33.04
305.142	30.56
305.356	23.92
305.571	24.48
305.786	29.87
306	31.18
306.215	20.9
306.43	37.65
306.644	40.44
306.859	52.61
307.074	49.62
307.288	46.36
307.503	37.39
307.717	43.3
307.932	38.33
308.147	37.1
308.361	28.55
308.576	29.72
308.79	34.17
309.005	36.02
309.219	37.83
309.434	37.91
309.648	29.13
309.863	35.52
310.077	24.6
310.292	17.56
310.506	28.7
310.72	16.57
310.935	14.8
311.149	19.52
311.364	18.1
311.578	30.26
311.792	24.88
312.007	18.41
312.221	27.59
312.435	31.49
312.649	52.82
312.864	49.12
313.078	31.08
313.292	46.84
313.507	57.17
313.721	64.13
313.935	70.01
314.149	47.69
314.363	49.47
314.578	78.5
314.792	72.22
315.006	63.67
315.22	68.39
315.434	55.45
315.648	55.18
315.862	55.72
316.077	42.45
316.291	47.63
316.505	50.36
316.719	30.7
316.933	35.9
317.147	40.73
317.361	39.41
317.575	36.8
317.789	34.02
318.003	40.95
318.217	49.36
318.431	51.59
318.645	52.54
318.859	41.77
319.073	36.16
319.287	36.37
319.5	28.37
319.714	22.85
319.928	22.08
320.142	17.31
320.356	36.54
320.57	32.29
320.784	27.77
320.997	34.18
321.211	33.98
321.425	26.84
321.639	31
321.853	22
322.066	25.24
322.28	29.86
322.494	24.66
322.707	33.67
322.921	39.61
323.135	40.83
323.349	42.67
323.562	47.97
323.776	50.32
323.989	46.26
324.203	45.93
324.417	41.95
324.63	27.97
324.844	16.06
325.057	14.44
325.271	3.05
325.485	6.12
325.698	1.67
325.912	13.01
326.125	26.84
326.339	32.66
326.552	36.81
326.766	50.19
326.979	51.92
327.193	52.57
327.406	43.72
327.619	33.81
327.833	38.1
328.046	28.81
328.26	17.9
328.473	22.3
328.686	18.02
328.9	11.34
329.113	19.27
329.326	23.94
329.54	30.88
329.753	31.49
329.966	29.61
330.179	35.95
330.393	48.75
330.606	46.44
330.819	50.38
331.032	47.77
331.246	42
331.459	43.27
331.672	42.38
331.885	37.84
332.098	42.57
332.311	27.17
332.525	26.14
332.738	30.62
332.951	38.86
333.164	35.38
333.377	29.84
333.59	30.77
333.803	40.91
334.016	48.93
334.229	51.65
334.442	51.28
334.655	62.88
334.868	67.41
335.081	66.36
335.294	63.95
335.507	60.09
335.72	50.5
335.933	45.2
336.146	36.34
336.359	35.71
336.572	29.96
336.785	33.5
336.997	26.62
337.21	27.13
337.423	22.33
337.636	26.56
337.849	15.52
338.062	20.18
338.274	16.33
338.487	22.26
338.7	26.36
338.913	25.93
339.125	20.96
339.338	32.17
339.551	37.97
339.763	32.21
339.976	28.91
340.189	27.82
340.402	29.4
340.614	33.71
340.827	21.56
341.039	14.88
341.252	16.71
341.465	16.62
341.677	9.84
341.89	11.67
342.102	12.1
342.315	24.52
342.527	25.95
342.74	30
342.952	30.77
343.165	57.16
343.377	59.25
343.59	59.72
343.802	59.62
344.015	55.28
344.227	54.88
344.44	54.19
344.652	43.24
344.864	39.16
345.077	31.75
345.289	31.75
345.502	32.13
345.714	22.3
345.926	21.94
346.139	24.1
346.351	16.21
346.563	32.33
346.775	30.64
346.988	36.24
347.2	38
347.412	43.33
347.624	41.89
347.837	39.74
348.049	31.86
348.261	27.52
348.473	22.37
348.685	31.82
348.897	30.07
349.11	38.15
349.322	38.63
349.534	44.32
349.746	52.44
349.958	48.44
350.17	47.22
350.382	34.36
350.594	22.34
350.806	27.04
351.018	27.59
351.23	30.82
351.442	32.67
351.654	34.09
351.866	40.76
352.078	43.63
352.29	51.09
352.502	42.35
352.714	39.08
352.926	39.05
353.138	34.28
353.35	31.63
353.561	23.31
353.773	16.08
353.985	25.7
354.197	20.27
354.409	22.04
354.621	26.83
354.832	26.83
355.044	38.36
355.256	39.58
355.468	39.45
355.679	52.6
355.891	45.38
356.103	37.44
356.314	34.51
356.526	27.45
356.738	26.8
356.949	26.87
357.161	16.32
357.373	24.77
357.584	35.56
357.796	41.71
358.008	45.66
358.219	51.9
358.431	55.02
358.642	61.27
358.854	55.53
359.065	52.13
359.277	43.49
359.488	33.35
359.7	27.87
359.911	27.72
360.123	27.91
360.334	22.57
360.546	13.58
360.757	21.57
360.969	28.84
361.18	28.68
361.391	26.54
361.603	26.35
361.814	32.71
362.025	35.35
362.237	35.38
362.448	37.85
362.659	33.77
362.871	34.57
363.082	36.22
363.293	34.41
363.504	36
363.716	29.23
363.927	33.06
364.138	38.21
364.349	39.76
364.56	39.25
364.772	39.58
364.983	41.82
365.194	47.46
365.405	41.35
365.616	37.08
365.827	31.52
366.038	32.54
366.25	34.93
366.461	37.12
366.672	38.99
366.883	45.2
367.094	50.41
367.305	51.96
367.516	48.93
367.727	43.4
367.938	46.59
368.149	44.95
368.36	39.44
368.571	37.55
368.781	31.74
368.992	30.78
369.203	34.11
369.414	28.73
369.625	24.33
369.836	27.82
370.047	29.76
370.258	30.25
370.468	27.44
370.679	13.72
370.89	18.88
371.101	20.62
371.312	16.91
371.522	16.95
371.733	11.88
371.944	10.65
372.155	14.3
372.365	7.08
372.576	6.61
372.787	2.15
372.997	-5.62
373.208	9.19
373.419	10.12
373.629	17.8
373.84	18.55
374.05	17.64
374.261	21.05
374.472	24.24
374.682	15.07
374.893	17.39
375.103	21.22
375.314	26
375.524	29.62
375.735	25.31
375.945	20.96
376.156	27.07
376.366	25.47
376.577	18.24
376.787	16.19
376.997	16.3
377.208	16.93
377.418	18.15
377.629	17.98
377.839	22.14
378.049	30.79
378.26	27.59
378.47	27.19
378.68	29.11
378.89	25.91
379.101	17.15
379.311	12.7
379.521	15.73
379.732	9.92
379.942	13.44
380.152	14.58
380.362	22.63
380.572	30.11
380.783	32.24
380.993	25.81
381.203	28.31
381.413	30.47
381.623	37.4
381.833	34.91
382.043	26.92
382.253	27.85
382.463	35.11
382.674	41.08
382.884	35.07
383.094	27.97
383.304	27.01
383.514	33.33
383.724	29.5
383.934	21.1
384.144	18.02
384.353	19.04
384.563	17.45
384.773	19.21
384.983	18.34
385.193	20.69
385.403	25.13
385.613	25.31
385.823	23.46
386.033	24.47
386.242	22.18
386.452	18.28
386.662	16.75
386.872	15.08
387.082	11.13
387.291	12.24
387.501	14.27
387.711	13.06
387.921	14.69
388.13	14.38
388.34	13.37
388.55	16.94
388.759	15.34
388.969	12.9
389.179	16.79
389.388	14.94
389.598	13.15
389.807	12.36
390.017	11.67
390.227	12.25
390.436	10.87
390.646	9.66
390.855	11.12
391.065	11.76
391.274	12.12
391.484	12.63
391.693	13.49
391.903	13.38
392.112	11.78
392.322	12.51
392.531	13.62
392.74	12.17
392.95	11.19
393.159	10.81
393.369	11.57
393.578	11.7
393.787	10.67
393.997	11.04
394.206	11.36
394.415	11.81
394.625	10.63
394.834	9.83
395.043	9.87
395.252	10.3
395.462	9.1
395.671	9.2
395.88	8.69
396.089	8.68
396.298	8.64
396.508	8.38
396.717	8.07
396.926	8.12
397.135	7.71
397.344	7.63
397.553	8.01
397.762	8.13
397.971	8.15
398.181	7.42
398.39	7.48
398.599	7.87
398.808	8.02
399.017	7.99
399.226	8.06
399.435	7.95
399.644	8.15
399.853	8.06
400.062	7.97
400.27	8.13
400.479	8.03
400.688	7.93
400.897	8.06
401.106	8.04
401.315	7.84
401.524	7.78
401.733	7.69
401.941	7.6
402.15	7.45
402.359	7.38
402.568	7.37
402.777	7.42
402.985	7.12
403.194	6.93
403.403	6.65
403.612	6.66
403.82	6.68
404.029	6.66
404.238	6.67
404.446	6.82
404.655	6.7
404.864	6.89
405.072	6.87
405.281	6.64
405.489	6.66
405.698	6.51
405.906	6.52
406.115	6.68
406.324	6.47
406.532	6.51
406.741	6.63
406.949	6.55
407.158	6.64
407.366	6.64
407.574	6.59
407.783	6.59
407.991	6.42
408.2	6.43
408.408	6.41
408.617	6.39
408.825	6.38
409.033	6.25
409.242	6.22
409.45	6.3
409.658	6.2
409.867	6.2
410.075	6.1
410.283	6.02
410.491	6.04
410.7	6.09
410.908	6.07
411.116	5.96
411.324	5.9
411.533	5.84
411.741	5.78
411.949	5.8
412.157	5.77
412.365	5.74
412.573	5.83
412.781	5.87
412.99	5.94
413.198	6.01
413.406	5.94
413.614	5.98
413.822	5.99
414.03	5.82
414.238	5.88
414.446	5.88
414.654	5.78
414.862	5.75
415.07	5.68
415.278	5.55
415.486	5.77
415.694	5.59
415.902	5.54
416.109	5.61
416.317	5.55
416.525	5.62
416.733	5.68
416.941	5.55
417.149	5.67
417.357	5.7
417.564	5.62
417.772	5.64
417.98	5.58
418.188	5.56
418.395	5.56
418.603	5.44
418.811	5.33
419.019	5.32
419.226	5.33
419.434	5.2
419.642	5.2
419.849	5.16
420.057	5.22
420.265	5.28
420.472	5.2
420.68	5.15
420.887	5.15
421.095	5.15
421.302	5.2
421.51	5.19
421.717	5.14
421.925	5.11
422.132	5.05
422.34	5.15
422.547	5.1
422.755	5
422.962	4.88
423.17	4.87
423.377	5.01
423.585	5.07
423.792	5.03
423.999	4.98
424.207	4.97
424.414	5.08
424.621	5.15
424.829	4.95
425.036	4.9
425.243	4.97
425.451	5.01
425.658	5.05
425.865	4.93
426.072	4.96
426.28	5.02
426.487	5.05
426.694	4.98
426.901	4.94
427.108	4.96
427.315	4.93
427.523	4.87
427.73	4.92
427.937	5
428.144	4.97
428.351	4.99
428.558	4.91
428.765	4.99
428.972	4.95
429.179	4.89
429.386	4.87
429.593	4.84
429.8	4.94
430.007	5.06
430.214	5.07
430.421	5.06
430.628	5.02
430.835	5
431.042	5.08
431.249	5.09
431.456	5.07
431.662	5.11
431.869	5.2
432.076	5.28
432.283	5.23
432.49	5.2
432.697	5.17
432.903	5.19
433.11	5.19
433.317	5.14
433.524	5.07
433.73	5.2
433.937	5.18
434.144	5.31
434.35	5.33
434.557	5.36
434.764	5.39
434.97	5.57
435.177	5.54
435.384	5.66
435.59	5.63
435.797	5.63
436.003	5.63
436.21	5.58
436.416	5.54
436.623	5.64
436.829	5.62
437.036	5.59
437.242	5.61
437.449	5.66
437.655	5.79
437.862	5.81
438.068	5.79
438.275	5.78
438.481	5.92
438.687	6
438.894	5.98
439.1	6.05
439.307	6.05
439.513	6.08
439.719	6.12
439.926	6.08
440.132	6.08
440.338	6.2
440.544	6.13
440.751	6.17
440.957	6.23
441.163	6.31
441.369	6.31
441.575	6.3
441.782	6.26
441.988	6.33
442.194	6.43
442.4	6.45
442.606	6.41
442.812	6.49
443.018	6.53
443.224	6.53
443.431	6.54
443.637	6.48
443.843	6.52
444.049	6.53
444.255	6.52
444.461	6.47
444.667	6.51
444.873	6.52
445.079	6.63
445.284	6.61
445.49	6.62
445.696	6.64
445.902	6.77
446.108	6.78
446.314	6.84
446.52	6.8
446.726	6.8
446.931	6.83
447.137	6.86
447.343	6.85
447.549	6.9
447.755	6.92
447.96	6.92
448.166	6.96
448.372	7
448.578	7.07
448.783	7.07
448.989	7.09
449.195	7.09
449.4	7.09
449.606	7.1
449.812	7.15
450.017	7.11
450.223	7.13
450.428	7.14
450.634	7.13
450.84	7.16
451.045	7.16
451.251	7.17
451.456	7.14
451.662	7.13
451.867	7.16
452.073	7.2
452.278	7.22
452.483	7.29
452.689	7.31
452.894	7.34
453.1	7.31
453.305	7.29
453.51	7.36
453.716	7.38
453.921	7.36
454.127	7.33
454.332	7.34
454.537	7.45
454.742	7.47
454.948	7.44
455.153	7.43
455.358	7.5
455.563	7.55
455.769	7.62
455.974	7.56
456.179	7.52
456.384	7.54
456.589	7.63
456.795	7.55
457	7.54
457.205	7.49
457.41	7.5
457.615	7.56
457.82	7.61
458.025	7.52
458.23	7.58
458.435	7.58
458.64	7.67
458.845	7.67
459.05	7.67
459.255	7.68
459.46	7.74
459.665	7.79
459.87	7.84
460.075	7.85
460.28	7.92
460.485	7.99
460.69	7.88
460.895	7.92
461.099	7.88
461.304	7.92
461.509	7.86
461.714	7.89
461.919	7.91
462.123	8.04
462.328	8.04
462.533	8.07
462.738	8.05
462.942	8.18
463.147	8.16
463.352	8.19
463.556	8.22
463.761	8.26
463.966	8.33
464.17	8.39
464.375	8.35
464.58	8.45
464.784	8.48
464.989	8.56
465.193	8.64
465.398	8.65
465.602	8.74
465.807	8.81
466.011	8.86
466.216	8.87
466.42	8.91
466.625	8.93
466.829	8.96
467.034	8.95
467.238	8.99
467.443	8.98
467.647	9.04
467.851	9.06
468.056	9.06
468.26	9.14
