Data from Ofra_PS_T2_2A_1GT37_Reflection_1.txt Node
Date: Wed Jul 21 16:54:21 EDT 2021
User: Adam
Spectrometer: FLMT01687
Trigger mode: 0
Integration Time (sec): 1.100000E0
Scans to average: 2
Electric dark correction enabled: true
Nonlinearity correction enabled: false
Boxcar width: 2
XAxis mode: Wavelengths
Number of Pixels in Spectrum: 3648
>>>>>Begin Spectral Data<<<<<
179.494	483.6
179.716	520.94
179.937	485.99
180.158	439.12
180.38	621.56
180.601	252.76
180.823	45.65
181.044	-84.6
181.265	-3.31
181.486	30.16
181.708	28.06
181.929	119.39
182.15	-120.42
182.372	75.51
182.593	-32.93
182.814	-29.69
183.035	5.48
183.257	58.56
183.478	62.23
183.699	93.17
183.92	100.8
184.141	82.08
184.363	12.58
184.584	30.12
184.805	57.75
185.026	58.55
185.247	54.38
185.468	48.98
185.689	51.57
185.91	35.64
186.132	42.05
186.353	19.6
186.574	66.23
186.795	47.46
187.016	21.29
187.237	3.22
187.458	19.74
187.679	-22.19
187.9	-1.12
188.121	4.03
188.342	32.23
188.563	39.79
188.784	49.51
189.005	32.94
189.226	86.78
189.447	62.06
189.667	-57.52
189.888	-108.62
190.109	-656.49
190.33	-399.68
190.551	-776.55
190.772	-128.93
190.993	-108.47
191.214	-49.45
191.434	-8.46
191.655	49.88
191.876	25.31
192.097	-14.95
192.318	-45.8
192.538	-57.62
192.759	-34.91
192.98	14.8
193.201	42.67
193.421	49.21
193.642	34.75
193.863	41.54
194.083	45.16
194.304	36.63
194.525	40.37
194.745	24.86
194.966	-1.05
195.187	-30.3
195.407	-69.11
195.628	-133.16
195.848	-110.77
196.069	-126.35
196.29	-71.78
196.51	-52.22
196.731	-43.44
196.951	-75.82
197.172	-81.97
197.392	-119.31
197.613	-129.03
197.833	-143.95
198.054	-74.7
198.274	-42.02
198.495	-40.15
198.715	20.04
198.936	37.09
199.156	39.37
199.377	-7.77
199.597	-18.5
199.817	-77.85
200.038	-44.63
200.258	-107.48
200.479	-41.22
200.699	-48.5
200.919	11.02
201.14	-3.98
201.36	-19.85
201.58	17.24
201.801	49.71
202.021	20.03
202.241	13.74
202.461	23.62
202.682	-34.97
202.902	-91.95
203.122	-19.3
203.342	16.38
203.563	35.93
203.783	62.16
204.003	78.18
204.223	69.24
204.443	92.55
204.663	100.27
204.884	85.54
205.104	101.08
205.324	121.74
205.544	83.47
205.764	90.42
205.984	77.59
206.204	81.68
206.424	71.53
206.644	68.38
206.864	44.76
207.084	51.85
207.304	2.75
207.525	-136.41
207.745	-84.71
207.964	-13.91
208.184	-53.17
208.404	-71.06
208.624	-61.72
208.844	-65.52
209.064	-321.08
209.284	-263.08
209.504	-107.22
209.724	-16.09
209.944	12.84
210.164	43.75
210.384	34.48
210.604	14.99
210.823	-13.46
211.043	-29.52
211.263	-12.67
211.483	-7.97
211.703	-26.3
211.922	7.29
212.142	50.39
212.362	41.46
212.582	22.68
212.801	14.31
213.021	-11.65
213.241	-35.9
213.461	-62.12
213.68	-52.04
213.9	-51
214.12	-9.39
214.339	-62.05
214.559	-28.42
214.779	-12.34
214.998	15.15
215.218	-28.66
215.438	12.67
215.657	-0.42
215.877	8.53
216.096	19.07
216.316	34.69
216.535	12.77
216.755	31.73
216.974	-16.33
217.194	-67.17
217.413	-81.38
217.633	-78.36
217.852	-172.46
218.072	-70.75
218.291	-26.5
218.511	7.15
218.73	2.23
218.95	-6.44
219.169	-2.15
219.389	-21.09
219.608	-16.24
219.827	-3.53
220.047	24.14
220.266	21.86
220.485	25.16
220.705	31.86
220.924	19.45
221.143	36.3
221.363	19.46
221.582	29.18
221.801	25.17
222.021	30.19
222.24	-16.55
222.459	43.12
222.678	-1.55
222.897	-29.67
223.117	-74.36
223.336	-43.43
223.555	-44.32
223.774	-15.5
223.993	-0.6
224.213	57.09
224.432	40.19
224.651	61.77
224.87	48.33
225.089	64.21
225.308	43.02
225.527	47.5
225.746	47.35
225.965	34.71
226.184	-5.03
226.404	24.63
226.623	-9.09
226.842	-2.28
227.061	28.55
227.28	37.22
227.499	27.49
227.718	48.62
227.936	44.08
228.155	47.21
228.374	40.09
228.593	35.98
228.812	39.79
229.031	31.02
229.25	-17.06
229.469	-19.83
229.688	-35.32
229.907	13.59
230.125	28.02
230.344	37.63
230.563	40.24
230.782	49.57
231.001	-20.78
231.22	-20.65
231.438	3
231.657	-6.11
231.876	-14.05
232.095	23.24
232.313	17.88
232.532	-2.1
232.751	-9.76
232.969	-4.02
233.188	-67.86
233.407	3.31
233.625	1.02
233.844	10.43
234.063	-2.26
234.281	24.36
234.5	8.98
234.719	19.58
234.937	23.42
235.156	23.18
235.374	17.7
235.593	-4.61
235.811	-12.18
236.03	-21.45
236.249	-34.39
236.467	-10.59
236.686	13.71
236.904	16.32
237.123	7.12
237.341	19.41
237.559	15.16
237.778	4.39
237.996	7.08
238.215	25.49
238.433	25.74
238.652	17.44
238.87	10.83
239.088	1.54
239.307	-6.8
239.525	-15.83
239.743	-23.55
239.962	-22.89
240.18	-25.45
240.398	-60.2
240.617	-58.68
240.835	-44.8
241.053	-28.46
241.271	-4.07
241.49	17.3
241.708	-16.94
241.926	-38.32
242.144	-11.61
242.363	-40.87
242.581	-37.46
242.799	-3.65
243.017	18.95
243.235	13.91
243.453	17.79
243.672	15.56
243.89	15.94
244.108	0.75
244.326	14.93
244.544	38.13
244.762	30.29
244.98	35.6
245.198	50.97
245.416	13.38
245.634	8.65
245.852	16.92
246.07	19.81
246.288	13.93
246.506	6.1
246.724	-6.85
246.942	6.7
247.16	14.69
247.378	27.91
247.596	45.76
247.814	49.27
248.032	17.35
248.25	26.03
248.468	6.28
248.685	-14.94
248.903	11.65
249.121	21.09
249.339	3.38
249.557	-4.68
249.775	17.28
249.992	-36.2
250.21	-42.79
250.428	-36.5
250.646	-57.64
250.863	-66.96
251.081	-39.76
251.299	-30.44
251.517	-16.17
251.734	16.37
251.952	20.38
252.17	11.59
252.387	18.86
252.605	15.53
252.823	16.67
253.04	29.43
253.258	37.02
253.475	38.14
253.693	53.58
253.911	48.07
254.128	52.88
254.346	65.37
254.563	42.32
254.781	1.15
254.998	-6
255.216	-23.71
255.433	-12.92
255.651	33.13
255.868	51.48
256.086	40.7
256.303	29.79
256.521	27.93
256.738	9.85
256.956	-1.23
257.173	0.56
257.39	-7.66
257.608	-21.34
257.825	-9.21
258.043	18.36
258.26	17.23
258.477	41.1
258.695	29.55
258.912	0.58
259.129	3.86
259.346	-20.95
259.564	-54.56
259.781	-66.2
259.998	-12.04
260.216	-4.48
260.433	11.88
260.65	18.46
260.867	39.94
261.084	10.52
261.302	3.69
261.519	28.2
261.736	5.13
261.953	-16.83
262.17	22.64
262.387	13.48
262.604	-33.75
262.822	-36.87
263.039	-16.9
263.256	-44.86
263.473	-5.17
263.69	23.01
263.907	44.39
264.124	51.81
264.341	52.08
264.558	28.55
264.775	33.65
264.992	32.24
265.209	26.62
265.426	28.43
265.643	34.76
265.86	30.22
266.077	31.99
266.294	11.85
266.51	-19.42
266.727	-39.77
266.944	-12.75
267.161	-43.31
267.378	-19.34
267.595	21.76
267.812	25.39
268.028	2.11
268.245	40.73
268.462	10.58
268.679	-2.89
268.896	24.97
269.112	24.09
269.329	26.68
269.546	28.27
269.763	27.82
269.979	17.05
270.196	10.31
270.413	-24.52
270.629	-35.57
270.846	-41.93
271.063	-32.71
271.279	-29.41
271.496	-10.8
271.712	21.14
271.929	28.82
272.146	14.24
272.362	35.05
272.579	43.05
272.795	37.16
273.012	29.35
273.228	45.62
273.445	10.95
273.661	3.35
273.878	-26.41
274.094	-5.98
274.311	-47.27
274.527	16.48
274.744	19.5
274.96	7.26
275.177	20.06
275.393	37.92
275.609	14.07
275.826	27.55
276.042	36.07
276.259	11.87
276.475	22.3
276.691	26.85
276.908	8.21
277.124	20.33
277.34	15.54
277.557	2.57
277.773	-1.98
277.989	-1.77
278.205	-6.5
278.422	9.93
278.638	18.83
278.854	45.66
279.07	58.42
279.286	59.52
279.503	42.22
279.719	28.77
279.935	6.77
280.151	6.24
280.367	4.5
280.583	-13.22
280.799	-3.06
281.016	-30.11
281.232	-12.27
281.448	-11.68
281.664	10.74
281.88	-20.82
282.096	18.32
282.312	25.19
282.528	45.97
282.744	64.62
282.96	60.64
283.176	30.42
283.392	26.23
283.608	4.44
283.824	-5.05
284.04	-7.32
284.256	-15.87
284.471	-30.28
284.687	-27.7
284.903	-26.25
285.119	11.54
285.335	3.25
285.551	23.99
285.767	16.2
285.982	22.38
286.198	-20.58
286.414	14.45
286.63	12.07
286.846	19.09
287.061	-3.31
287.277	32.74
287.493	11.77
287.709	18.61
287.924	28.65
288.14	64.6
288.356	45.44
288.571	60.1
288.787	45.26
289.003	33.94
289.218	13.69
289.434	-12.8
289.65	5.7
289.865	7.44
290.081	36.98
290.296	44.99
290.512	57.95
290.727	11.41
290.943	14.43
291.159	1.96
291.374	-1.17
291.59	-6.87
291.805	22.24
292.021	23.12
292.236	27.59
292.451	41
292.667	44.71
292.882	37.2
293.098	23.19
293.313	14.28
293.529	-12.01
293.744	-32.07
293.959	-32.76
294.175	-22.81
294.39	-3.13
294.605	2.91
294.821	18.44
295.036	14.84
295.251	27.51
295.467	24.49
295.682	20.88
295.897	-0.34
296.112	-12.67
296.328	-36.72
296.543	-73.51
296.758	-46.29
296.973	-12.02
297.188	15.51
297.404	2.92
297.619	-6.77
297.834	-22.31
298.049	-51.29
298.264	-59.77
298.479	-14.37
298.694	-1.73
298.909	14.79
299.125	28
299.34	28.49
299.555	6.92
299.77	4.55
299.985	-40.04
300.2	-89.49
300.415	-88.98
300.63	-53.44
300.845	-48.63
301.06	-23.07
301.275	14.28
301.49	41.45
301.704	41.76
301.919	39.56
302.134	20.74
302.349	8.78
302.564	-54.06
302.779	-94.8
302.994	-116.38
303.209	-62.62
303.423	-54.03
303.638	12.96
303.853	-11.47
304.068	-0.09
304.283	-4.55
304.497	10.41
304.712	-1.78
304.927	8.52
305.142	3.23
305.356	26.72
305.571	13.03
305.786	16.54
306	15.22
306.215	26.07
306.43	-9.73
306.644	27.69
306.859	46.52
307.074	45.59
307.288	13.12
307.503	37.4
307.717	19.27
307.932	-3.99
308.147	-11.83
308.361	7.68
308.576	-24.68
308.79	-74.11
309.005	-51.24
309.219	-20.48
309.434	-22.31
309.648	-3.59
309.863	16.44
310.077	18.58
310.292	4.06
310.506	3.89
310.72	19.73
310.935	15.98
311.149	10.12
311.364	22.28
311.578	33.61
311.792	18.78
312.007	29.22
312.221	24.75
312.435	11.85
312.649	0.88
312.864	26.27
313.078	22.93
313.292	68.06
313.507	63.89
313.721	75.1
313.935	36.5
314.149	41.5
314.363	29.56
314.578	31.91
314.792	39.12
315.006	34.62
315.22	32.37
315.434	38.3
315.648	45.06
315.862	34.73
316.077	32.37
316.291	35.02
316.505	46.41
316.719	64.84
316.933	43.67
317.147	35.77
317.361	-7.21
317.575	-34.72
317.789	-58.18
318.003	-86.56
318.217	-44.25
318.431	32.65
318.645	52.84
318.859	54.2
319.073	65.96
319.287	40.39
319.5	11.22
319.714	-17.41
319.928	-50.27
320.142	-64.15
320.356	-23.09
320.57	1.43
320.784	3.26
320.997	-5.96
321.211	8.67
321.425	-16.64
321.639	-27.19
321.853	-0.73
322.066	17.76
322.28	18.12
322.494	31.39
322.707	41.28
322.921	40.77
323.135	47.43
323.349	40.4
323.562	10.77
323.776	-0.73
323.989	-14.78
324.203	-41.71
324.417	-52.27
324.63	-45.65
324.844	-31.72
325.057	-20.2
325.271	-14.25
325.485	12.97
325.698	22.26
325.912	21.88
326.125	-0.88
326.339	9.46
326.552	-1.09
326.766	8.89
326.979	26.42
327.193	59.22
327.406	45.79
327.619	41
327.833	47.12
328.046	18.61
328.26	-13.43
328.473	5.51
328.686	-16.93
328.9	-14.4
329.113	11.51
329.326	-2.61
329.54	-1.72
329.753	-0.61
329.966	-26.26
330.179	-24.61
330.393	1.66
330.606	-2.86
330.819	24.58
331.032	42.57
331.246	37.23
331.459	61.66
331.672	54.84
331.885	42.19
332.098	20.6
332.311	25.4
332.525	-25.31
332.738	-12.04
332.951	-1.2
333.164	21.15
333.377	17.39
333.59	27.18
333.803	43.59
334.016	30.49
334.229	4.79
334.442	29.63
334.655	43.73
334.868	33.18
335.081	44.8
335.294	53.12
335.507	33.91
335.72	13.51
335.933	20.92
336.146	6.75
336.359	-10.11
336.572	-19.42
336.785	-27.11
336.997	-43.61
337.21	-27.38
337.423	-15.08
337.636	-12.4
337.849	9.27
338.062	5.57
338.274	-0.61
338.487	-2.72
338.7	-9.77
338.913	-42.65
339.125	-58.77
339.338	-107.21
339.551	-95.43
339.763	-56.9
339.976	-25.5
340.189	-0.7
340.402	23.64
340.614	18.75
340.827	14.46
341.039	0.09
341.252	7.59
341.465	22.82
341.677	28.72
341.89	-14.16
342.102	12.07
342.315	-5.52
342.527	-41.66
342.74	-34.62
342.952	23.7
343.165	12.93
343.377	33.58
343.59	39.61
343.802	42.34
344.015	33.77
344.227	37.71
344.44	26.78
344.652	26.59
344.864	17.85
345.077	25.97
345.289	21.56
345.502	21.13
345.714	16.28
345.926	17.26
346.139	10.18
346.351	18.33
346.563	20.47
346.775	22.89
346.988	21.38
347.2	11.62
347.412	-7.93
347.624	-9.52
347.837	-35.73
348.049	-10.34
348.261	8.71
348.473	14.25
348.685	4.15
348.897	13.36
349.11	-11.56
349.322	-44.39
349.534	-46.02
349.746	-37.34
349.958	-31.91
350.17	-22.73
350.382	2.68
350.594	4.6
350.806	12.22
351.018	17.87
351.23	13.42
351.442	-13.72
351.654	-19.24
351.866	-17.31
352.078	-17.75
352.29	-1.2
352.502	22.7
352.714	33.5
352.926	26.07
353.138	24.05
353.35	16
353.561	14.6
353.773	2.98
353.985	13.05
354.197	8.92
354.409	4.41
354.621	-8.15
354.832	-9.67
355.044	-20.29
355.256	-7.38
355.468	11.72
355.679	12.84
355.891	23.82
356.103	16.78
356.314	19.75
356.526	23.11
356.738	22.13
356.949	23.76
357.161	45.41
357.373	30.05
357.584	15.74
357.796	30.06
358.008	15.21
358.219	22.92
358.431	19.89
358.642	21.56
358.854	3.59
359.065	-1.03
359.277	-28.04
359.488	-31.09
359.7	-47.84
359.911	-39.29
360.123	-20.46
360.334	-30.82
360.546	-34.74
360.757	-24.92
360.969	-15.79
361.18	8.39
361.391	34.42
361.603	23.62
361.814	21.39
362.025	25.14
362.237	4.01
362.448	4.87
362.659	13.3
362.871	16.13
363.082	9.76
363.293	8.41
363.504	-3.99
363.716	-11.14
363.927	-17.3
364.138	-29.87
364.349	-37.43
364.56	-35.18
364.772	-34.39
364.983	-9.45
365.194	-3.76
365.405	11.4
365.616	22.76
365.827	29.93
366.038	7.12
366.25	-2.85
366.461	-18.89
366.672	-4.35
366.883	5.47
367.094	12.76
367.305	13.13
367.516	19.74
367.727	10.74
367.938	1.7
368.149	3.17
368.36	11.06
368.571	13.19
368.781	-10.53
368.992	-18.1
369.203	-30.33
369.414	-48.45
369.625	-66.62
369.836	-47.05
370.047	-62.19
370.258	-44.64
370.468	-40.42
370.679	-38.41
370.89	-40.12
371.101	-19.31
371.312	-23.56
371.522	-6.77
371.733	7.61
371.944	18.82
372.155	21.14
372.365	16.89
372.576	9.66
372.787	-4.39
372.997	-27.14
373.208	-30.38
373.419	-10.64
373.629	-22.66
373.84	-22.85
374.05	-12.13
374.261	-0.93
374.472	-18.47
374.682	11.63
374.893	12.83
375.103	23.33
375.314	21.88
375.524	24.05
375.735	12.9
375.945	29.16
376.156	17.45
376.366	9.8
376.577	8.39
376.787	6.1
376.997	-7.11
377.208	-7.22
377.418	-5.6
377.629	-5.14
377.839	-2.39
378.049	0.15
378.26	15.98
378.47	23.73
378.68	25.23
378.89	15.98
379.101	14.44
379.311	-9.39
379.521	-29.74
379.732	-37.8
379.942	-36.66
380.152	-47.02
380.362	-15.28
380.572	-9.28
380.783	3.33
380.993	13.45
381.203	17.93
381.413	21.1
381.623	21.36
381.833	21.27
382.043	15.61
382.253	4.33
382.463	1.89
382.674	-9.39
382.884	-29.88
383.094	-16.74
383.304	-5.33
383.514	-11
383.724	-6.73
383.934	-1.6
384.144	-14.35
384.353	-17.43
384.563	-14.63
384.773	-6.96
384.983	-11
385.193	4.54
385.403	13.41
385.613	21.29
385.823	12.77
386.033	14.82
386.242	7.57
386.452	1.88
386.662	-4.69
386.872	-0.03
387.082	-5.83
387.291	-13.56
387.501	-18.72
387.711	-14.29
387.921	-10.33
388.13	-6.26
388.34	3.44
388.55	2.83
388.759	-0.9
388.969	3.82
389.179	2.15
389.388	3.06
389.598	9.16
389.807	7.25
390.017	0.84
390.227	3.46
390.436	1.39
390.646	-0.45
390.855	0.58
391.065	1.98
391.274	-2.33
391.484	-4.16
391.693	-4.19
391.903	-0.05
392.112	6.08
392.322	10.55
392.531	13.44
392.74	13.49
392.95	9.61
393.159	5.25
393.369	4.52
393.578	2.15
393.787	2.07
393.997	3.3
394.206	1.2
394.415	1.03
394.625	1.25
394.834	0.3
395.043	1.25
395.252	4.22
395.462	6.68
395.671	7.26
395.88	7.99
396.089	7.86
396.298	6.11
396.508	4.46
396.717	4.24
396.926	4.5
397.135	4.19
397.344	4.06
397.553	4.89
397.762	5.58
397.971	5.32
398.181	5.15
398.39	5.07
398.599	4.41
398.808	4.65
399.017	5.42
399.226	6.4
399.435	7.54
399.644	7.93
399.853	6.9
400.062	6.13
400.27	5.88
400.479	5.27
400.688	4.2
400.897	4.77
401.106	4.96
401.315	4.53
401.524	4.59
401.733	5.04
401.941	5.24
402.15	5.28
402.359	5.17
402.568	5.27
402.777	5.39
402.985	5.17
403.194	5.01
403.403	5.11
403.612	5.01
403.82	4.9
404.029	4.73
404.238	4.71
404.446	4.81
404.655	4.48
404.864	4.48
405.072	4.48
405.281	4.54
405.489	4.35
405.698	4.51
405.906	4.56
406.115	4.38
406.324	4.31
406.532	4.49
406.741	4.62
406.949	4.64
407.158	4.71
407.366	4.83
407.574	4.79
407.783	4.72
407.991	4.55
408.2	4.72
408.408	4.64
408.617	4.48
408.825	4.49
409.033	4.63
409.242	4.59
409.45	4.68
409.658	4.62
409.867	4.64
410.075	4.44
410.283	4.3
410.491	4.19
410.7	4.33
410.908	4.26
411.116	4.59
411.324	4.65
411.533	4.59
411.741	4.66
411.949	4.64
412.157	4.32
412.365	4.28
412.573	4.15
412.781	4.1
412.99	4.1
413.198	4.26
413.406	4.33
413.614	4.34
413.822	4.19
414.03	4.1
414.238	3.94
414.446	3.87
414.654	3.82
414.862	3.88
415.07	3.96
415.278	4.09
415.486	3.99
415.694	4.1
415.902	4.02
416.109	3.85
416.317	3.74
416.525	3.59
416.733	3.49
416.941	3.6
417.149	3.71
417.357	3.79
417.564	4.02
417.772	4.22
417.98	4.14
418.188	4.04
418.395	3.95
418.603	4.09
418.811	3.89
419.019	3.91
419.226	4.07
419.434	4.23
419.642	4.06
419.849	4.18
420.057	4.15
420.265	4.08
420.472	3.82
420.68	3.77
420.887	3.66
421.095	3.6
421.302	3.55
421.51	3.8
421.717	3.88
421.925	3.93
422.132	3.91
422.34	3.71
422.547	3.59
422.755	3.48
422.962	3.48
423.17	3.35
423.377	3.48
423.585	3.52
423.792	3.5
423.999	3.48
424.207	3.54
424.414	3.62
424.621	3.57
424.829	3.57
425.036	3.63
425.243	3.72
425.451	3.57
425.658	3.45
425.865	3.68
426.072	3.63
426.28	3.86
426.487	3.99
426.694	4.05
426.901	3.83
427.108	3.72
427.315	3.5
427.523	3.65
427.73	3.52
427.937	3.47
428.144	3.45
428.351	3.4
428.558	3.38
428.765	3.55
428.972	3.56
429.179	3.61
429.386	3.86
429.593	3.69
429.8	3.55
430.007	3.61
430.214	3.75
430.421	3.5
430.628	3.35
430.835	3.31
431.042	3.52
431.249	3.54
431.456	3.64
431.662	3.84
431.869	3.98
432.076	3.94
432.283	3.99
432.49	3.99
432.697	4.05
432.903	3.96
433.11	3.9
433.317	3.99
433.524	4.07
433.73	4.01
433.937	4.24
434.144	4.08
434.35	3.94
434.557	3.87
434.764	3.9
434.97	3.85
435.177	4.04
435.384	4.02
435.59	4.04
435.797	4.22
436.003	4.17
436.21	4.09
436.416	4.11
436.623	4.18
436.829	4.14
437.036	4.26
437.242	4.44
437.449	4.49
437.655	4.52
437.862	4.58
438.068	4.48
438.275	4.58
438.481	4.71
438.687	4.71
438.894	4.73
439.1	4.88
439.307	4.87
439.513	4.73
439.719	4.68
439.926	4.73
440.132	4.72
440.338	4.61
440.544	4.76
440.751	4.83
440.957	4.84
441.163	4.8
441.369	4.91
441.575	4.73
441.782	4.85
441.988	4.77
442.194	4.81
442.4	4.82
442.606	5.15
442.812	5.13
443.018	5.16
443.224	5.19
443.431	5.25
443.637	5.01
443.843	4.95
444.049	4.92
444.255	4.83
444.461	4.89
444.667	4.91
444.873	5.03
445.079	5.05
445.284	5.2
445.49	5.01
445.696	4.95
445.902	4.89
446.108	4.89
446.314	4.94
446.52	5.02
446.726	5.26
446.931	5.22
447.137	5.24
447.343	5.22
447.549	5.2
447.755	5.09
447.96	5.21
448.166	5.14
448.372	4.99
448.578	5.08
448.783	5.06
448.989	5.09
449.195	5.25
449.4	5.43
449.606	5.36
449.812	5.36
450.017	5.38
450.223	5.33
450.428	5.24
450.634	5.26
450.84	5.4
451.045	5.3
451.251	5.28
451.456	5.47
451.662	5.55
451.867	5.56
452.073	5.61
452.278	5.65
452.483	5.65
452.689	5.64
452.894	5.62
453.1	5.64
453.305	5.63
453.51	5.58
453.716	5.51
453.921	5.53
454.127	5.44
454.332	5.43
454.537	5.36
454.742	5.39
454.948	5.37
455.153	5.5
455.358	5.59
455.563	5.69
455.769	5.81
455.974	5.82
456.179	5.73
456.384	5.67
456.589	5.69
456.795	5.55
457	5.56
457.205	5.72
457.41	5.73
457.615	5.72
457.82	5.84
458.025	5.8
458.23	5.69
458.435	5.62
458.64	5.51
458.845	5.6
459.05	5.73
459.255	5.81
459.46	5.86
459.665	5.88
459.87	5.72
460.075	5.63
460.28	5.65
460.485	5.84
460.69	5.88
460.895	5.88
461.099	5.91
461.304	5.93
461.509	5.88
461.714	5.85
461.919	5.98
462.123	5.92
462.328	5.97
462.533	5.9
462.738	6.03
462.942	6.02
463.147	6.07
463.352	6.08
463.556	6.09
463.761	6.11
463.966	6.04
464.17	6.08
464.375	6.03
464.58	6.04
464.784	5.98
