Data from Ofra_PS_T2_2A_2GT07_Reflection_3.txt Node
Date: Wed Jul 21 17:06:31 EDT 2021
User: Adam
Spectrometer: FLMT01687
Trigger mode: 0
Integration Time (sec): 1.100000E0
Scans to average: 2
Electric dark correction enabled: true
Nonlinearity correction enabled: false
Boxcar width: 2
XAxis mode: Wavelengths
Number of Pixels in Spectrum: 3648
>>>>>Begin Spectral Data<<<<<
179.494	520.8
179.716	564
179.937	536.49
180.158	474.75
180.38	748.12
180.601	343.09
180.823	116.62
181.044	-38.39
181.265	123.53
181.486	60.32
181.708	83.83
181.929	361.22
182.15	-388.73
182.372	63.85
182.593	21.95
182.814	74.87
183.035	96.52
183.257	126.71
183.478	64.47
183.699	104.84
183.92	63.57
184.141	84.22
184.363	37.5
184.584	91.3
184.805	85.93
185.026	125.05
185.247	104.9
185.468	80.27
185.689	105.43
185.91	107.78
186.132	101.19
186.353	91.47
186.574	153.23
186.795	101.12
187.016	71.18
187.237	62.24
187.458	52.1
187.679	45.8
187.9	58.85
188.121	60.61
188.342	106.22
188.563	130.04
188.784	169.91
189.005	174.19
189.226	220.65
189.447	168.69
189.667	215.53
189.888	-0
190.109	-416.88
190.33	-181.94
190.551	-546.9
190.772	-106.78
190.993	-70.17
191.214	-72.71
191.434	-58.54
191.655	5.15
191.876	3.2
192.097	-35.66
192.318	-27.66
192.538	-59.82
192.759	-63.56
192.98	-17.54
193.201	23.53
193.421	22.06
193.642	21.34
193.863	37.61
194.083	22.04
194.304	15.74
194.525	20.34
194.745	39.65
194.966	1.5
195.187	-1.65
195.407	-15.96
195.628	-78.88
195.848	-81.44
196.069	-67.76
196.29	-1.21
196.51	-27.36
196.731	-2.1
196.951	-1.46
197.172	17.24
197.392	-29.23
197.613	7.56
197.833	-43.64
198.054	-50.79
198.274	-24.66
198.495	-21.72
198.715	-8.02
198.936	0.55
199.156	19.22
199.377	-44.75
199.597	-35.63
199.817	-35.21
200.038	15.4
200.258	-30.99
200.479	43.83
200.699	57.24
200.919	64.56
201.14	17.67
201.36	49.02
201.58	57.81
201.801	77.22
202.021	51.08
202.241	59.56
202.461	56.3
202.682	-14.91
202.902	-79.39
203.122	-19.14
203.342	-0
203.563	17.55
203.783	65.14
204.003	51.11
204.223	58.53
204.443	85.95
204.663	89.35
204.884	75.97
205.104	113.06
205.324	145.58
205.544	124.82
205.764	106.29
205.984	95
206.204	92.15
206.424	76.24
206.644	73.33
206.864	76.85
207.084	60.98
207.304	111.69
207.525	104.06
207.745	79.92
207.964	81.21
208.184	74.22
208.404	9.63
208.624	23.06
208.844	37.3
209.064	-104.38
209.284	-141.45
209.504	-69.23
209.724	-9.43
209.944	11.52
210.164	46.51
210.384	56.08
210.604	67.72
210.823	38.41
211.043	27.36
211.263	31.19
211.483	23.78
211.703	-17.71
211.922	26.4
212.142	57.02
212.362	71.76
212.582	71.2
212.801	75.54
213.021	48.54
213.241	53.65
213.461	20.17
213.68	-0.29
213.9	40.47
214.12	47.34
214.339	19.09
214.559	23.84
214.779	46.26
214.998	38.59
215.218	-2.08
215.438	-8.53
215.657	-11.09
215.877	8.39
216.096	19.4
216.316	45.17
216.535	48.98
216.755	56.86
216.974	21.34
217.194	-20.71
217.413	-40.59
217.633	-28.09
217.852	-82.34
218.072	-12.51
218.291	18.42
218.511	48.07
218.73	18.06
218.95	16.07
219.169	6.22
219.389	-31.39
219.608	-18.75
219.827	-0.36
220.047	14.2
220.266	24.87
220.485	40.66
220.705	58.91
220.924	39.1
221.143	60.33
221.363	47.27
221.582	55.47
221.801	58.08
222.021	79.81
222.24	53.21
222.459	149.74
222.678	114.33
222.897	73.58
223.117	19.42
223.336	23.26
223.555	9.69
223.774	40.62
223.993	65.56
224.213	128.57
224.432	104.04
224.651	97.32
224.87	73.61
225.089	64.99
225.308	49.77
225.527	66.3
225.746	72.74
225.965	65.64
226.184	78.5
226.404	66.03
226.623	44.2
226.842	47.15
227.061	69.63
227.28	56.92
227.499	46.13
227.718	64.93
227.936	53.13
228.155	62.62
228.374	71.23
228.593	82.62
228.812	98.11
229.031	79.39
229.25	32.3
229.469	31.29
229.688	19.24
229.907	35.42
230.125	70.79
230.344	72.8
230.563	81.84
230.782	103.91
231.001	57.49
231.22	40.12
231.438	72.94
231.657	52.85
231.876	29.02
232.095	52.56
232.313	60.34
232.532	49.63
232.751	42.77
232.969	51.54
233.188	83.14
233.407	83.72
233.625	36.45
233.844	38.03
234.063	31.22
234.281	36.96
234.5	34.3
234.719	49.94
234.937	61.35
235.156	45.67
235.374	45.63
235.593	59.88
235.811	68.73
236.03	48.16
236.249	54.57
236.467	47.29
236.686	24.38
236.904	29.01
237.123	36.03
237.341	52.73
237.559	52.23
237.778	52.27
237.996	46.44
238.215	55.76
238.433	34.76
238.652	49.3
238.87	48.57
239.088	63.63
239.307	46.21
239.525	71.88
239.743	34.08
239.962	28.71
240.18	-0.24
240.398	-31.62
240.617	-44.37
240.835	-16.05
241.053	24.88
241.271	85.03
241.49	101.16
241.708	128.08
241.926	95.12
242.144	59.4
242.363	13.19
242.581	17.26
242.799	40.31
243.017	67.18
243.235	53.68
243.453	63.73
243.672	44.84
243.89	27
244.108	22.94
244.326	38.73
244.544	43.63
244.762	46.03
244.98	77.41
245.198	67.27
245.416	51.5
245.634	39.19
245.852	28.32
246.07	1.19
246.288	15.92
246.506	13.45
246.724	34.75
246.942	75.07
247.16	91.02
247.378	99.41
247.596	105.07
247.814	103.38
248.032	72.09
248.25	53.64
248.468	36.45
248.685	45.33
248.903	58.17
249.121	57.38
249.339	39.02
249.557	40.07
249.775	38.51
249.992	-16.43
250.21	-9.79
250.428	11.57
250.646	5.34
250.863	-15.02
251.081	15.21
251.299	11.24
251.517	-8.72
251.734	0.46
251.952	-1.92
252.17	0.33
252.387	18.37
252.605	12.45
252.823	11.21
253.04	26.06
253.258	37.93
253.475	36.25
253.693	49.63
253.911	46.03
254.128	57.02
254.346	80.71
254.563	43.88
254.781	30.65
254.998	21.78
255.216	7.86
255.433	14.7
255.651	79.68
255.868	102.68
256.086	123.37
256.303	115.95
256.521	69.5
256.738	44.47
256.956	40.21
257.173	6.24
257.39	-16.39
257.608	-18.36
257.825	58.23
258.043	75.36
258.26	92.43
258.477	121.69
258.695	113.91
258.912	31.59
259.129	37.12
259.346	-1.19
259.564	-25.63
259.781	-33.17
259.998	29.82
260.216	62.66
260.433	104.26
260.65	110.59
260.867	115.33
261.084	89.87
261.302	43.88
261.519	25.15
261.736	-27.58
261.953	-31.58
262.17	13.86
262.387	-0.53
262.604	12.41
262.822	44.3
263.039	44.11
263.256	31.16
263.473	78.84
263.69	31.57
263.907	57.75
264.124	74.29
264.341	68.01
264.558	52.39
264.775	75.82
264.992	70.37
265.209	61.35
265.426	72.29
265.643	67.77
265.86	71.61
266.077	78.94
266.294	61.29
266.51	31.28
266.727	23.69
266.944	18.35
267.161	7.65
267.378	30.12
267.595	56.15
267.812	48.67
268.028	48.92
268.245	67.76
268.462	30.82
268.679	28.44
268.896	60.83
269.112	66.86
269.329	59.07
269.546	70.16
269.763	57.04
269.979	49.18
270.196	42.27
270.413	14.58
270.629	-7.18
270.846	-5.13
271.063	7.79
271.279	0.68
271.496	20.1
271.712	58.61
271.929	76.78
272.146	61.22
272.362	60.27
272.579	82.36
272.795	90.14
273.012	106.14
273.228	95.77
273.445	98.43
273.661	105.33
273.878	46.73
274.094	11.95
274.311	4.29
274.527	43.38
274.744	27.58
274.96	24.07
275.177	32.36
275.393	49.49
275.609	59.81
275.826	69.88
276.042	81.72
276.259	69.26
276.475	68.57
276.691	48.11
276.908	38.77
277.124	33.5
277.34	43.11
277.557	31.83
277.773	21.02
277.989	19.4
278.205	27.15
278.422	39.12
278.638	41.01
278.854	65.28
279.07	82.9
279.286	63.48
279.503	42.11
279.719	50.04
279.935	15.75
280.151	3.43
280.367	28.05
280.583	18.11
280.799	2.97
281.016	-11.14
281.232	12.51
281.448	15.63
281.664	40.4
281.88	58.2
282.096	82.06
282.312	106.4
282.528	125.47
282.744	133.62
282.96	98.2
283.176	68.55
283.392	57.83
283.608	33.74
283.824	23.11
284.04	31.03
284.256	38.67
284.471	18.75
284.687	33.89
284.903	61.02
285.119	81.39
285.335	67.7
285.551	84.93
285.767	64.79
285.982	50.84
286.198	23.62
286.414	68.94
286.63	62.93
286.846	80.15
287.061	48.48
287.277	67.95
287.493	38.26
287.709	54.5
287.924	32.07
288.14	65.67
288.356	50.12
288.571	74.53
288.787	56.48
289.003	56.21
289.218	50.62
289.434	25.9
289.65	28.77
289.865	23.03
290.081	75.57
290.296	83.32
290.512	105.55
290.727	69.83
290.943	66.88
291.159	30.88
291.374	25.75
291.59	7.15
291.805	20.04
292.021	20.83
292.236	21.83
292.451	31.9
292.667	20.69
292.882	29.31
293.098	42.62
293.313	28.79
293.529	10.73
293.744	27.02
293.959	2.27
294.175	-5.44
294.39	33.52
294.605	39.52
294.821	57.35
295.036	75.34
295.251	66.45
295.467	38.18
295.682	39.91
295.897	11.92
296.112	-6.39
296.328	9.15
296.543	1.91
296.758	-3.05
296.973	24.63
297.188	39.52
297.404	25.35
297.619	22.17
297.834	15.17
298.049	7.94
298.264	10.58
298.479	38.82
298.694	48.43
298.909	58.1
299.125	66.74
299.34	66.34
299.555	52.75
299.77	63.29
299.985	21.4
300.2	-39.35
300.415	-57.68
300.63	-40.86
300.845	-60.85
301.06	-49.64
301.275	-7.01
301.49	11.1
301.704	9.73
301.919	6.18
302.134	3.35
302.349	-6.56
302.564	-42.11
302.779	-22
302.994	24.92
303.209	41.38
303.423	93.21
303.638	95.14
303.853	57.26
304.068	55.03
304.283	56.06
304.497	35.53
304.712	30.02
304.927	42.23
305.142	33.72
305.356	34.69
305.571	43.07
305.786	25.43
306	-6.4
306.215	5.1
306.43	0.7
306.644	15.7
306.859	75.23
307.074	105.02
307.288	74.06
307.503	63.06
307.717	25.82
307.932	14.55
308.147	-0.7
308.361	26.19
308.576	28.23
308.79	10.22
309.005	10.23
309.219	49.85
309.434	40.43
309.648	31.82
309.863	60.25
310.077	73.81
310.292	45.07
310.506	46.66
310.72	44.74
310.935	51.23
311.149	36.7
311.364	52.68
311.578	58.23
311.792	68.87
312.007	58.18
312.221	51.46
312.435	50.85
312.649	26.37
312.864	-2.4
313.078	8.36
313.292	59.67
313.507	29.94
313.721	78.97
313.935	94.09
314.149	86.84
314.363	55.51
314.578	58.02
314.792	57.39
315.006	47.07
315.22	48.96
315.434	61.11
315.648	68.72
315.862	59.45
316.077	56.63
316.291	39.41
316.505	41.68
316.719	44.53
316.933	38.26
317.147	32.91
317.361	15.46
317.575	-3.21
317.789	-10.65
318.003	-40.13
318.217	-17.9
318.431	39.58
318.645	61.86
318.859	39.28
319.073	69.27
319.287	54.73
319.5	34.21
319.714	2
319.928	6.16
320.142	-14.96
320.356	39.5
320.57	68.89
320.784	88.6
320.997	72.19
321.211	71.81
321.425	37.87
321.639	20.75
321.853	71.66
322.066	78.37
322.28	61.18
322.494	63.15
322.707	66.82
322.921	34.4
323.135	27.84
323.349	56.94
323.562	41.85
323.776	30.13
323.989	28.23
324.203	17.83
324.417	-2.23
324.63	-34.05
324.844	-39.43
325.057	-27.84
325.271	-5.04
325.485	15.77
325.698	53.12
325.912	68.84
326.125	46.36
326.339	40.11
326.552	30.77
326.766	17.59
326.979	36
327.193	65.38
327.406	72.71
327.619	55.92
327.833	68.25
328.046	45.39
328.26	22.29
328.473	36.7
328.686	35.59
328.9	38.39
329.113	51.63
329.326	43.21
329.54	28.63
329.753	26.79
329.966	20.02
330.179	6.26
330.393	15.02
330.606	30.29
330.819	44.26
331.032	48.57
331.246	56.5
331.459	68.95
331.672	43.08
331.885	41.57
332.098	18.85
332.311	11.41
332.525	-14.66
332.738	21.51
332.951	29.87
333.164	47.05
333.377	49.07
333.59	75.03
333.803	78.36
334.016	68.14
334.229	88.42
334.442	95.6
334.655	99.43
334.868	94.11
335.081	86.94
335.294	66.46
335.507	64.1
335.72	41.89
335.933	30.9
336.146	23.21
336.359	29.62
336.572	8.75
336.785	1.05
336.997	9.69
337.21	43.63
337.423	24.75
337.636	32.53
337.849	49.78
338.062	40.21
338.274	31.54
338.487	15.39
338.7	28.59
338.913	-16.12
339.125	-32.35
339.338	-80.08
339.551	-20.08
339.763	1.66
339.976	36.91
340.189	50.33
340.402	63.61
340.614	46.14
340.827	26.85
341.039	9.8
341.252	14.99
341.465	34.03
341.677	46.06
341.89	24.76
342.102	46.03
342.315	43.02
342.527	7.32
342.74	-10.01
342.952	21.17
343.165	17.92
343.377	27.46
343.59	28.06
343.802	48.03
344.015	45.42
344.227	56.52
344.44	61.41
344.652	70.67
344.864	54.09
345.077	71.07
345.289	60.87
345.502	54.39
345.714	40.44
345.926	47.76
346.139	31.64
346.351	35.29
346.563	52.31
346.775	64.39
346.988	45.8
347.2	36.2
347.412	14.56
347.624	7.16
347.837	-2.93
348.049	59.43
348.261	70.75
348.473	71.18
348.685	56.11
348.897	50.12
349.11	9.42
349.322	3.46
349.534	18.36
349.746	37.01
349.958	33.58
350.17	46.84
350.382	52.45
350.594	50.81
350.806	39.92
351.018	40.36
351.23	24.82
351.442	-21.13
351.654	-23.14
351.866	-3.29
352.078	14.77
352.29	43.94
352.502	60.17
352.714	65.58
352.926	48.73
353.138	46.6
353.35	24.22
353.561	10.04
353.773	-12.06
353.985	0.24
354.197	-16.74
354.409	-3.92
354.621	-2.02
354.832	2.34
355.044	1.06
355.256	4.42
355.468	26.51
355.679	28.46
355.891	50.1
356.103	41.28
356.314	59.33
356.526	41.33
356.738	53.28
356.949	35.17
357.161	52.78
357.373	36.73
357.584	41.34
357.796	40.76
358.008	35.21
358.219	44.34
358.431	43.96
358.642	48.04
358.854	49.74
359.065	60.32
359.277	29.32
359.488	16.42
359.7	5.73
359.911	-16.58
360.123	-9.8
360.334	-2.45
360.546	-2.43
360.757	5.64
360.969	23.35
361.18	38.24
361.391	46.47
361.603	42.04
361.814	34.7
362.025	39.65
362.237	31.02
362.448	35.92
362.659	48.16
362.871	48.03
363.082	38.91
363.293	42.39
363.504	29.72
363.716	16.35
363.927	18.98
364.138	-3.81
364.349	-20.05
364.56	-17.15
364.772	-19.59
364.983	-2.26
365.194	16.53
365.405	33.35
365.616	60.78
365.827	80.09
366.038	69.36
366.25	61.98
366.461	45.13
366.672	28.34
366.883	29.96
367.094	33.56
367.305	23.47
367.516	39.6
367.727	22.58
367.938	22.35
368.149	25.79
368.36	39.3
368.571	38.85
368.781	30.6
368.992	11.32
369.203	-8.06
369.414	-21.73
369.625	-39.81
369.836	-39.6
370.047	-52.37
370.258	-40.59
370.468	-34.84
370.679	-39.07
370.89	-26.65
371.101	0.41
371.312	2.41
371.522	12.91
371.733	18.36
371.944	20.36
372.155	23.74
372.365	18.64
372.576	17.75
372.787	12.83
372.997	1.08
373.208	-1.74
373.419	24.38
373.629	3.94
373.84	5.77
374.05	12.55
374.261	14.87
374.472	1.56
374.682	33.35
374.893	42.48
375.103	63.31
375.314	54.61
375.524	51.2
375.735	53.48
375.945	46.78
376.156	15.24
376.366	17.99
376.577	22.95
376.787	8.48
376.997	20.89
377.208	30.15
377.418	14.22
377.629	11.23
377.839	14.79
378.049	13.78
378.26	30.06
378.47	44.91
378.68	36.01
378.89	36.29
379.101	28.29
379.311	4.6
379.521	-11.61
379.732	16.25
379.942	1.13
380.152	-15.75
380.362	10.35
380.572	10.11
380.783	18.8
380.993	43.6
381.203	65.55
381.413	77.75
381.623	87.6
381.833	69.05
382.043	50.33
382.253	47.04
382.463	34.36
382.674	23.6
382.884	9.26
383.094	10.96
383.304	9.78
383.514	12
383.724	26.49
383.934	23.53
384.144	11.49
384.353	1.46
384.563	3.24
384.773	0.8
384.983	0.9
385.193	21.84
385.403	30.35
385.613	35.44
385.823	27.74
386.033	35.15
386.242	28.95
386.452	23.6
386.662	12.29
386.872	28.27
387.082	23.02
387.291	23.11
387.501	36.64
387.711	41.46
387.921	26.64
388.13	23.46
388.34	30.38
388.55	13.68
388.759	14.35
388.969	23.33
389.179	24.79
389.388	22.01
389.598	31.66
389.807	23.85
390.017	18.02
390.227	18.57
390.436	17.48
390.646	19.53
390.855	25.54
391.065	26.9
391.274	26.06
391.484	25.94
391.693	28.82
391.903	29.12
392.112	33.95
392.322	38.17
392.531	39.4
392.74	39.88
392.95	36.58
393.159	33.63
393.369	32.06
393.578	31.18
393.787	26.73
393.997	29.3
394.206	27.7
394.415	27.68
394.625	26.98
394.834	26.86
395.043	26.89
395.252	29.9
395.462	30.6
395.671	31.96
395.88	33.07
396.089	33.45
396.298	30.85
396.508	30.38
396.717	29.75
396.926	30.46
397.135	29.78
397.344	30.52
397.553	31.05
397.762	31.31
397.971	30.36
398.181	30.72
398.39	29.92
398.599	29.14
398.808	28.93
399.017	29.42
399.226	29.88
399.435	31.39
399.644	31.89
399.853	31.7
400.062	31.32
400.27	31.12
400.479	30.27
400.688	29.42
400.897	29.79
401.106	29.74
401.315	29.76
401.524	30.06
401.733	30.41
401.941	30.49
402.15	30.69
402.359	30.2
402.568	29.94
402.777	30.03
402.985	29.74
403.194	29.56
403.403	29.32
403.612	28.83
403.82	28.71
404.029	28.7
404.238	28.64
404.446	28.92
404.655	28.98
404.864	28.74
405.072	28.48
405.281	28.44
405.489	28.36
405.698	28.44
405.906	28.43
406.115	28.28
406.324	28.05
406.532	27.95
406.741	28.02
406.949	27.86
407.158	27.99
407.366	28.07
407.574	27.93
407.783	27.76
407.991	27.61
408.2	27.6
408.408	27.47
408.617	27.44
408.825	27.25
409.033	27.27
409.242	27.13
409.45	27.07
409.658	26.93
409.867	27.02
410.075	26.81
410.283	26.62
410.491	26.42
410.7	26.26
410.908	26.12
411.116	26.38
411.324	26.27
411.533	26.27
411.741	26.28
411.949	26.38
412.157	26.03
412.365	26.09
412.573	26.01
412.781	26.04
412.99	25.85
413.198	25.96
413.406	25.68
413.614	25.69
413.822	25.61
414.03	25.4
414.238	25.19
414.446	25.48
414.654	25.2
414.862	25.18
415.07	25.25
415.278	25.37
415.486	25.07
415.694	25.19
415.902	24.92
416.109	24.71
416.317	24.75
416.525	24.65
416.733	24.63
416.941	24.65
417.149	24.54
417.357	24.28
417.564	24.44
417.772	24.53
417.98	24.51
418.188	24.7
418.395	24.81
418.603	24.66
418.811	24.19
419.019	24.02
419.226	24.24
419.434	24.22
419.642	24.09
419.849	24.38
420.057	24.35
420.265	23.95
420.472	23.61
420.68	23.5
420.887	23.1
421.095	23.26
421.302	23.32
421.51	23.46
421.717	23.4
421.925	23.65
422.132	23.52
422.34	23.23
422.547	23.15
422.755	23.21
422.962	23.09
423.17	22.86
423.377	22.95
423.585	22.86
423.792	22.72
423.999	22.77
424.207	22.86
424.414	22.97
424.621	22.96
424.829	22.91
425.036	23.02
425.243	23.17
425.451	23.06
425.658	23.24
425.865	23.57
426.072	23.32
426.28	23.65
426.487	23.61
426.694	23.66
426.901	23.58
427.108	23.59
427.315	23.3
427.523	23.61
427.73	23.53
427.937	23.38
428.144	23.19
428.351	23.18
428.558	23.13
428.765	23.09
428.972	23.31
429.179	23.8
429.386	24.02
429.593	23.96
429.8	23.97
430.007	24.09
430.214	24.1
430.421	23.94
430.628	23.91
430.835	23.72
431.042	23.96
431.249	24.14
431.456	24.47
431.662	24.82
431.869	25.32
432.076	25.44
432.283	25.57
432.49	25.45
432.697	25.4
432.903	25.33
433.11	25.12
433.317	25.19
433.524	25.51
433.73	25.51
433.937	25.91
434.144	26.06
434.35	26.11
434.557	26.04
434.764	26.24
434.97	26.15
435.177	26.35
435.384	26.24
435.59	26.27
435.797	26.5
436.003	26.48
436.21	26.41
436.416	26.66
436.623	26.71
436.829	26.81
437.036	26.86
437.242	27.01
437.449	27.03
437.655	27.22
437.862	27.08
438.068	27.29
438.275	27.59
438.481	27.8
438.687	27.78
438.894	28.02
439.1	27.95
439.307	28.05
439.513	28.04
439.719	28.23
439.926	28.26
440.132	28.41
440.338	28.22
440.544	28.39
440.751	28.33
440.957	28.49
441.163	28.52
441.369	28.64
441.575	28.57
441.782	28.73
441.988	28.69
442.194	28.71
442.4	28.76
442.606	28.98
442.812	29.06
443.018	29.23
443.224	29.23
443.431	29.31
443.637	29.25
443.843	29.14
444.049	29.27
444.255	29.45
444.461	29.64
444.667	29.51
444.873	29.95
445.079	29.84
445.284	29.91
445.49	29.71
445.696	29.89
445.902	29.73
446.108	29.73
446.314	29.9
446.52	30.11
446.726	30.36
446.931	30.52
447.137	30.68
447.343	30.73
447.549	30.71
447.755	30.54
447.96	30.51
448.166	30.42
448.372	30.37
448.578	30.5
448.783	30.64
448.989	30.67
449.195	31.04
449.4	31.03
449.606	31.09
449.812	31.03
450.017	31.03
450.223	30.89
450.428	30.88
450.634	30.99
450.84	31.21
451.045	31.29
451.251	31.28
451.456	31.63
451.662	31.71
451.867	31.72
452.073	31.82
452.278	32.01
452.483	32.05
452.689	31.99
452.894	32.02
453.1	31.98
453.305	32.05
453.51	31.91
453.716	31.94
453.921	32.05
454.127	32.14
454.332	32.01
454.537	32.12
454.742	32.17
454.948	32.19
455.153	32.12
455.358	32.25
455.563	32.26
455.769	32.42
455.974	32.34
456.179	32.31
456.384	32.4
456.589	32.42
456.795	32.26
457	32.41
457.205	32.64
457.41	32.69
457.615	32.81
457.82	32.91
458.025	32.84
458.23	32.65
458.435	32.63
458.64	32.53
458.845	32.72
459.05	32.69
459.255	32.88
459.46	32.97
459.665	33.08
459.87	33.04
460.075	33.14
460.28	33.23
460.485	33.26
460.69	33.25
460.895	33.12
461.099	33.19
461.304	33.29
461.509	33.37
