Data from Ofra_2a_PS_8HS24_Reflection_1.txt Node
Date: Tue Jul 20 09:57:30 EDT 2021
User: Adam
Spectrometer: FLMT01687
Trigger mode: 0
Integration Time (sec): 9.450000E-1
Scans to average: 3
Electric dark correction enabled: true
Nonlinearity correction enabled: false
Boxcar width: 3
XAxis mode: Wavelengths
Number of Pixels in Spectrum: 3648
>>>>>Begin Spectral Data<<<<<
179.494	1297.04
179.716	801.58
179.937	883.52
180.158	3178.91
180.38	-1280.81
180.601	-268.96
180.823	-32.19
181.044	142.03
181.265	137.56
181.486	117.64
181.708	493.48
181.929	3.95
182.15	-178.41
182.372	119.31
182.593	259.08
182.814	-199.7
183.035	-72.11
183.257	2.74
183.478	8.62
183.699	16.16
183.92	26.21
184.141	34.09
184.363	27.65
184.584	11.31
184.805	15.68
185.026	-5.9
185.247	-3.52
185.468	9.26
185.689	19.49
185.91	29.24
186.132	37.53
186.353	18.28
186.574	30.88
186.795	23.44
187.016	19.71
187.237	15.29
187.458	-12.23
187.679	-25
187.9	2.94
188.121	-10.81
188.342	15.91
188.563	16.65
188.784	20.93
189.005	34.91
189.226	31.88
189.447	25.43
189.667	18.91
189.888	22.77
190.109	20.35
190.33	4.64
190.551	6.69
190.772	11.73
190.993	17.84
191.214	22.56
191.434	13.3
191.655	16.56
191.876	34.32
192.097	29.06
192.318	33.63
192.538	35.47
192.759	45.48
192.98	40.96
193.201	43.53
193.421	43.13
193.642	42.56
193.863	39.78
194.083	34.1
194.304	1.87
194.525	25.81
194.745	-0.83
194.966	-12.54
195.187	-5.7
195.407	-5.23
195.628	-4.85
195.848	0.71
196.069	2.19
196.29	6.25
196.51	8.67
196.731	20.18
196.951	12.5
197.172	12.46
197.392	20.25
197.613	10.54
197.833	20.94
198.054	13.78
198.274	-13.12
198.495	7.39
198.715	-12.87
198.936	-22.32
199.156	-7.48
199.377	-3.22
199.597	11.97
199.817	36.46
200.038	10.51
200.258	21.71
200.479	18.24
200.699	13.91
200.919	-10.37
201.14	-15.62
201.36	-19.35
201.58	-7.96
201.801	-1.17
202.021	2.96
202.241	0.91
202.461	18.37
202.682	26.26
202.902	28.53
203.122	33.94
203.342	45.96
203.563	40.88
203.783	36.62
204.003	31.26
204.223	37.43
204.443	33.27
204.663	31.92
204.884	21.88
205.104	24.13
205.324	31.23
205.544	38.42
205.764	31.94
205.984	22.27
206.204	16.01
206.424	21.04
206.644	29.07
206.864	27.3
207.084	38.78
207.304	25.71
207.525	22.48
207.745	33.37
207.964	34.21
208.184	9.05
208.404	10.76
208.624	-8.59
208.844	-5.1
209.064	19.72
209.284	21.03
209.504	16.69
209.724	7.89
209.944	3.8
210.164	6.23
210.384	11.37
210.604	-14.03
210.823	-23.14
211.043	-11.58
211.263	18.42
211.483	20.23
211.703	31.53
211.922	35.83
212.142	40.31
212.362	44.19
212.582	36.52
212.801	28
213.021	24.04
213.241	0.1
213.461	1.69
213.68	-10.1
213.9	-5.8
214.12	-14.57
214.339	-17.56
214.559	-8.54
214.779	-0.02
214.998	-12.97
215.218	-9.44
215.438	-7.14
215.657	11.87
215.877	19.61
216.096	17.17
216.316	14.9
216.535	23.88
216.755	21.7
216.974	20.56
217.194	6.81
217.413	28.58
217.633	13.21
217.852	11.01
218.072	10.26
218.291	24.32
218.511	17.84
218.73	7.36
218.95	-5.73
219.169	-2.9
219.389	-3.31
219.608	8.45
219.827	-0.38
220.047	22.17
220.266	36.33
220.485	22.92
220.705	16.07
220.924	25.21
221.143	5.41
221.363	-9.55
221.582	-19.46
221.801	-19.27
222.021	-13.76
222.24	-16.32
222.459	-25.87
222.678	-29.66
222.897	-19.08
223.117	-4.73
223.336	-5.27
223.555	-14.31
223.774	1.13
223.993	15.1
224.213	16.99
224.432	24.96
224.651	13.91
224.87	15.06
225.089	22.41
225.308	22.91
225.527	29.36
225.746	27.71
225.965	21.35
226.184	20.45
226.404	2.36
226.623	4.43
226.842	3.54
227.061	10.1
227.28	25.83
227.499	35.07
227.718	31.91
227.936	32.23
228.155	32.28
228.374	34.18
228.593	24.06
228.812	17.79
229.031	0.44
229.25	11.71
229.469	24.06
229.688	26.97
229.907	26.15
230.125	25.26
230.344	34.92
230.563	47.63
230.782	36.61
231.001	31.99
231.22	24.49
231.438	22.76
231.657	23.92
231.876	13.5
232.095	2.92
232.313	6.67
232.532	5.62
232.751	17.92
232.969	25.62
233.188	23.12
233.407	22.88
233.625	19.35
233.844	21.51
234.063	29.04
234.281	11.98
234.5	10.12
234.719	6.18
234.937	11.78
235.156	9.88
235.374	10.19
235.593	2.63
235.811	3.23
236.03	-15.32
236.249	-9.28
236.467	-8.29
236.686	9.13
236.904	8.45
237.123	18.11
237.341	27.23
237.559	29.94
237.778	36.46
237.996	38.85
238.215	36.9
238.433	40.06
238.652	31.37
238.87	25.84
239.088	24.99
239.307	17.68
239.525	4.78
239.743	-3.54
239.962	-7.86
240.18	3.53
240.398	4.76
240.617	13.48
240.835	19.06
241.053	39.95
241.271	45.32
241.49	29.48
241.708	25.06
241.926	10.4
242.144	9.19
242.363	0.58
242.581	-6.55
242.799	-19.49
243.017	-5.12
243.235	-9.22
243.453	14.86
243.672	10.78
243.89	26.58
244.108	31.66
244.326	34.14
244.544	47.63
244.762	44.33
244.98	34.15
245.198	30.03
245.416	24.97
245.634	30.07
245.852	39.07
246.07	22.35
246.288	14.88
246.506	26.31
246.724	38.44
246.942	34.35
247.16	25.04
247.378	9.3
247.596	20.62
247.814	15.89
248.032	-4.97
248.25	-7.63
248.468	5.48
248.685	19.9
248.903	26.89
249.121	25.59
249.339	28.7
249.557	43.51
249.775	23.77
249.992	11.27
250.21	-8.28
250.428	-11.46
250.646	-16.7
250.863	-14.1
251.081	-26.31
251.299	-7.85
251.517	1.35
251.734	1.45
251.952	24.32
252.17	21.26
252.387	26.6
252.605	34.23
252.823	27.55
253.04	5.2
253.258	13.21
253.475	-0.13
253.693	12.27
253.911	10.11
254.128	12.84
254.346	2.86
254.563	6.21
254.781	9.49
254.998	13.11
255.216	14.48
255.433	16.96
255.651	9.35
255.868	35.04
256.086	44.78
256.303	42.23
256.521	38.41
256.738	38.25
256.956	29.16
257.173	34.04
257.39	31.12
257.608	24.75
257.825	20.76
258.043	23.66
258.26	20.83
258.477	24.83
258.695	23.15
258.912	28.82
259.129	20.16
259.346	21.09
259.564	19.97
259.781	24.67
259.998	21.76
260.216	25.58
260.433	17.25
260.65	23.35
260.867	12.53
261.084	19.04
261.302	6.48
261.519	-6.46
261.736	-14.49
261.953	-16.86
262.17	-1.8
262.387	11.01
262.604	-7.64
262.822	11.19
263.039	19.36
263.256	18.94
263.473	9.57
263.69	2.99
263.907	10.44
264.124	14.3
264.341	3.21
264.558	3.54
264.775	11.45
264.992	21.42
265.209	28.56
265.426	23.23
265.643	22.77
265.86	20.52
266.077	24.38
266.294	21.04
266.51	16.8
266.727	-3.29
266.944	-20.41
267.161	-18.14
267.378	-14.28
267.595	-20.21
267.812	-18.52
268.028	-15.63
268.245	3.99
268.462	8.72
268.679	4.16
268.896	0.07
269.112	6.69
269.329	11.34
269.546	20.98
269.763	22.95
269.979	22.16
270.196	26.28
270.413	31.84
270.629	26.5
270.846	23.19
271.063	16.01
271.279	9.22
271.496	3.79
271.712	1.67
271.929	1.35
272.146	11.42
272.362	3.96
272.579	-10.99
272.795	-11.77
273.012	-8.11
273.228	-1.44
273.445	-7.29
273.661	-12.76
273.878	-11.4
274.094	2.33
274.311	3.53
274.527	10.22
274.744	2.71
274.96	5.41
275.177	13.51
275.393	22.87
275.609	30.52
275.826	34.64
276.042	50.44
276.259	53.57
276.475	56.72
276.691	48.39
276.908	38.26
277.124	33.5
277.34	31.78
277.557	15.5
277.773	15.13
277.989	9.58
278.205	5.92
278.422	17.88
278.638	27.1
278.854	25.5
279.07	19.55
279.286	10.75
279.503	12.1
279.719	24.12
279.935	15.37
280.151	9.28
280.367	3.58
280.583	9.2
280.799	23.61
281.016	23.43
281.232	15.75
281.448	8.24
281.664	-0.75
281.88	7.65
282.096	2.04
282.312	-7.48
282.528	-10.83
282.744	-6.84
282.96	3.26
283.176	17.25
283.392	14.97
283.608	29.8
283.824	18.82
284.04	23.85
284.256	19.12
284.471	24.48
284.687	18.13
284.903	17.66
285.119	1.35
285.335	7.92
285.551	18.08
285.767	26.57
285.982	23.92
286.198	24.08
286.414	27.55
286.63	38.87
286.846	31.97
287.061	22.79
287.277	21.26
287.493	13.53
287.709	4.68
287.924	8.44
288.14	16.26
288.356	31.61
288.571	29.73
288.787	26.77
289.003	39.54
289.218	48.18
289.434	48.65
289.65	40.92
289.865	29.02
290.081	25.69
290.296	27.64
290.512	22.84
290.727	25.67
290.943	23.83
291.159	20.73
291.374	35.38
291.59	34.24
291.805	37.25
292.021	31.81
292.236	18.1
292.451	20.76
292.667	18.55
292.882	11.16
293.098	10.68
293.313	3.06
293.529	10.29
293.744	14.08
293.959	11.63
294.175	14.19
294.39	15.3
294.605	22.27
294.821	20.23
295.036	17.2
295.251	18.91
295.467	9.79
295.682	11.92
295.897	4.33
296.112	8.13
296.328	11.68
296.543	11.32
296.758	11.58
296.973	16.77
297.188	14.51
297.404	19.1
297.619	15.31
297.834	19.22
298.049	15.6
298.264	8.62
298.479	9.3
298.694	12.06
298.909	14.93
299.125	15.56
299.34	10.48
299.555	21.74
299.77	21.85
299.985	13.11
300.2	13.67
300.415	20.11
300.63	14.43
300.845	22.32
301.06	10.25
301.275	17.95
301.49	26.6
301.704	20.57
301.919	9.78
302.134	6.36
302.349	-4.88
302.564	-3.39
302.779	-4.27
302.994	-12.9
303.209	-15.52
303.423	-3.9
303.638	-1.66
303.853	13.44
304.068	23.15
304.283	27.45
304.497	26.39
304.712	39.17
304.927	36.53
305.142	39.92
305.356	39.48
305.571	41.56
305.786	30.35
306	42.98
306.215	31.19
306.43	33.43
306.644	27.53
306.859	25.17
307.074	16.16
307.288	26.33
307.503	18.04
307.717	15.39
307.932	12.16
308.147	18.93
308.361	15.83
308.576	12.92
308.79	12.3
309.005	12.73
309.219	14.45
309.434	10.25
309.648	-1.32
309.863	4.55
310.077	3.52
310.292	-0.79
310.506	10.49
310.72	14.62
310.935	23.39
311.149	24.51
311.364	24.62
311.578	16.74
311.792	11.31
312.007	1.14
312.221	2.17
312.435	-2.35
312.649	7.03
312.864	-2.76
313.078	27.89
313.292	41.17
313.507	58.17
313.721	63.07
313.935	67.76
314.149	42.58
314.363	45.58
314.578	57.17
314.792	54.75
315.006	41.91
315.22	38.53
315.434	28
315.648	28.02
315.862	31.91
316.077	17.97
316.291	16.21
316.505	17.94
316.719	6.4
316.933	18.88
317.147	14.33
317.361	17.47
317.575	6.25
317.789	8.32
318.003	12.5
318.217	30.38
318.431	22.94
318.645	26.19
318.859	9.2
319.073	9.79
319.287	10.4
319.5	7.98
319.714	-2.84
319.928	2.21
320.142	4.65
320.356	21.43
320.57	20.37
320.784	20.75
320.997	26.34
321.211	33.81
321.425	23.11
321.639	25.49
321.853	16.34
322.066	16.6
322.28	12.53
322.494	7.51
322.707	2.89
322.921	7.27
323.135	4.98
323.349	11.19
323.562	14.79
323.776	18.49
323.989	15.11
324.203	21.18
324.417	17.74
324.63	8.91
324.844	0.07
325.057	4.07
325.271	-2.86
325.485	2.43
325.698	-8.99
325.912	4.89
326.125	14.91
326.339	14.48
326.552	11.51
326.766	17.63
326.979	16.1
327.193	18.74
327.406	11.18
327.619	-2.79
327.833	-0.11
328.046	-2.96
328.26	-0.3
328.473	4.46
328.686	8.33
328.9	2.09
329.113	8
329.326	13.49
329.54	18.92
329.753	17.62
329.966	16.42
330.179	24.22
330.393	35.32
330.606	38.57
330.819	42.89
331.032	43.51
331.246	45.88
331.459	47.65
331.672	37.23
331.885	24.15
332.098	25.46
332.311	6.18
332.525	7.15
332.738	5.47
332.951	0.4
333.164	-5.66
333.377	-11
333.59	-12.99
333.803	6.07
334.016	-10.98
334.229	-14.64
334.442	-0.11
334.655	11.18
334.868	22.3
335.081	26.28
335.294	16.67
335.507	35.9
335.72	32.46
335.933	34.07
336.146	27.08
336.359	23.1
336.572	16.5
336.785	30.58
336.997	18.54
337.21	23.39
337.423	12.37
337.636	19.34
337.849	20.55
338.062	18.97
338.274	7.34
338.487	10.16
338.7	7.58
338.913	5.62
339.125	-5.52
339.338	0.55
339.551	7.33
339.763	5.21
339.976	6.49
340.189	10.31
340.402	13.09
340.614	20.83
340.827	9.81
341.039	11.39
341.252	14.31
341.465	9.71
341.677	-0.34
341.89	8.42
342.102	7.81
342.315	17.51
342.527	9.46
342.74	7.56
342.952	17.12
343.165	30.45
343.377	24.55
343.59	28.1
343.802	29.57
344.015	38.71
344.227	33.97
344.44	19.95
344.652	17.09
344.864	16.99
345.077	10.59
345.289	4.57
345.502	6.16
345.714	5.64
345.926	23.66
346.139	18.25
346.351	5.84
346.563	13.69
346.775	12.32
346.988	11.63
347.2	13.33
347.412	11.38
347.624	14.04
347.837	20.48
348.049	17.24
348.261	19.78
348.473	7.1
348.685	14.16
348.897	11.09
349.11	6.96
349.322	5.39
349.534	-3.93
349.746	-5.44
349.958	11.02
350.17	4.47
350.382	-3.52
350.594	-0.69
350.806	7.43
351.018	20.83
351.23	26.28
351.442	22.17
351.654	26.13
351.866	33.21
352.078	30.96
352.29	30.25
352.502	22.78
352.714	24.72
352.926	23.17
353.138	16.34
353.35	10.46
353.561	7.21
353.773	6.71
353.985	12
354.197	-3.1
354.409	-4.38
354.621	4.19
354.832	-2.93
355.044	6.62
355.256	-6.05
355.468	-11.15
355.679	0.28
355.891	2.44
356.103	-1.24
356.314	8.84
356.526	-0.34
356.738	5.89
356.949	15.61
357.161	17.35
357.373	20.34
357.584	28.18
357.796	24.77
358.008	29.02
358.219	40.92
358.431	30.27
358.642	27.04
358.854	25.34
359.065	12.95
359.277	8.38
359.488	7.77
359.7	1.81
359.911	-3.87
360.123	-2.22
360.334	-2.33
360.546	-1.86
360.757	8.29
360.969	13.93
361.18	11.71
361.391	17.07
361.603	15.34
361.814	17.64
362.025	16.96
362.237	14.9
362.448	13.89
362.659	3.21
362.871	1.17
363.082	7.67
363.293	11.89
363.504	19
363.716	23.08
363.927	20.33
364.138	29.45
364.349	32.61
364.56	26.33
364.772	24.12
364.983	17.67
365.194	7.62
365.405	3.73
365.616	-5.88
365.827	-6.98
366.038	9.89
366.25	7.86
366.461	13.36
366.672	21.98
366.883	26.9
367.094	25.91
367.305	27.3
367.516	19.18
367.727	18.65
367.938	10.36
368.149	6.13
368.36	3.26
368.571	6.43
368.781	4.94
368.992	1.68
369.203	-1.43
369.414	-2.55
369.625	-1.89
369.836	0.85
370.047	0.7
370.258	-2.16
370.468	-2.87
370.679	1.54
370.89	12.78
371.101	8.96
371.312	4.55
371.522	6.99
371.733	5.25
371.944	9.42
372.155	-6.29
372.365	-15.36
372.576	-12.07
372.787	-11.51
372.997	-12.39
373.208	-5.6
373.419	-9.35
373.629	5.26
373.84	0.74
374.05	3.84
374.261	-3.54
374.472	-5
374.682	-9.47
374.893	-9.94
375.103	-5.07
375.314	4.09
375.524	-2.17
375.735	4.08
375.945	2.02
376.156	0.83
376.366	6.57
376.577	4.43
376.787	7.17
376.997	11.87
377.208	6.16
377.418	5.19
377.629	6.64
377.839	8
378.049	8.92
378.26	0.84
378.47	3.83
378.68	6.08
378.89	5.63
379.101	-0.18
379.311	-7.98
379.521	-1.9
379.732	-9.81
379.942	-8.85
380.152	-1.25
380.362	0.81
380.572	8.13
380.783	12.02
380.993	9.49
381.203	17.38
381.413	20.93
381.623	21.63
381.833	26.33
382.043	22.33
382.253	19.06
382.463	16.87
382.674	20.32
382.884	12.88
383.094	11.69
383.304	4.71
383.514	8.51
383.724	10.25
383.934	9.22
384.144	9.98
384.353	12.71
384.563	10.32
384.773	15.76
384.983	13.96
385.193	15.79
385.403	15.65
385.613	9.99
385.823	6.42
386.033	6.47
386.242	1.6
386.452	0.64
386.662	-1.07
386.872	-3.34
387.082	-4.02
387.291	-1.44
387.501	0.37
387.711	1.6
387.921	1.68
388.13	1.84
388.34	3.49
388.55	9.12
388.759	7.51
388.969	5.95
389.179	9.68
389.388	9.41
389.598	6.66
389.807	4.88
390.017	1.32
390.227	1.69
390.436	2.89
390.646	1.08
390.855	3.59
391.065	4.71
391.274	4.97
391.484	6.36
391.693	7.49
391.903	6.92
392.112	5.83
392.322	5.78
392.531	7.12
392.74	5.75
392.95	6.47
393.159	6.38
393.369	5.5
393.578	6.49
393.787	5.49
393.997	5.21
394.206	6.09
394.415	5.48
394.625	3.76
394.834	4.07
395.043	3.81
395.252	4.12
395.462	4.36
395.671	4.93
395.88	4.47
396.089	5.63
396.298	5.63
396.508	5.74
396.717	5.19
396.926	4.51
397.135	4.06
397.344	4.53
397.553	4.73
397.762	4.41
397.971	4.18
398.181	3.92
398.39	4.24
398.599	4.44
398.808	4.37
399.017	4.44
399.226	4.92
399.435	5.07
399.644	5.28
399.853	5.53
400.062	5.37
400.27	5.15
400.479	5.04
400.688	5.01
400.897	5.1
401.106	5.14
401.315	4.72
401.524	4.89
401.733	4.75
401.941	4.52
402.15	4.27
402.359	4.03
402.568	3.91
402.777	3.98
402.985	3.77
403.194	3.84
403.403	3.66
403.612	3.67
403.82	3.77
404.029	3.73
404.238	3.6
404.446	3.61
404.655	3.55
404.864	3.59
405.072	3.65
405.281	3.5
405.489	3.65
405.698	3.68
405.906	3.67
406.115	3.69
406.324	3.75
406.532	3.69
406.741	3.76
406.949	3.6
407.158	3.72
407.366	3.86
407.574	3.88
407.783	3.75
407.991	3.69
408.2	3.6
408.408	3.66
408.617	3.48
408.825	3.33
409.033	3.32
409.242	3.37
409.45	3.44
409.658	3.42
409.867	3.38
410.075	3.41
410.283	3.32
410.491	3.26
410.7	3.26
410.908	3.24
411.116	3.24
411.324	3.32
411.533	3.24
411.741	3.3
411.949	3.33
412.157	3.36
412.365	3.31
412.573	3.37
412.781	3.31
412.99	3.43
413.198	3.43
413.406	3.41
413.614	3.36
413.822	3.31
414.03	3.17
414.238	3.22
414.446	3.16
414.654	3.14
414.862	3.13
415.07	3.15
415.278	3.15
415.486	3.3
415.694	3.16
415.902	3.08
416.109	3.11
416.317	3.13
416.525	3.23
416.733	3.32
416.941	3.2
417.149	3.36
417.357	3.41
417.564	3.37
417.772	3.34
417.98	3.19
418.188	3.06
418.395	3.08
418.603	2.9
418.811	2.86
419.019	2.93
419.226	3.01
419.434	2.92
419.642	2.98
419.849	3.01
420.057	3.1
420.265	3.12
420.472	3.04
420.68	2.88
420.887	3.03
421.095	3.07
421.302	3.05
421.51	3.08
421.717	3.11
421.925	3.12
422.132	3.08
422.34	2.99
422.547	2.91
422.755	2.87
422.962	2.8
423.17	2.76
423.377	2.77
423.585	2.87
423.792	2.88
423.999	2.92
424.207	2.92
424.414	2.95
424.621	2.96
424.829	2.97
425.036	2.97
425.243	2.97
425.451	2.99
425.658	3.05
425.865	2.9
426.072	2.93
426.28	2.9
426.487	2.84
426.694	2.8
426.901	2.72
427.108	2.71
427.315	2.78
427.523	2.8
427.73	2.83
427.937	2.92
428.144	2.93
428.351	3.05
428.558	2.98
428.765	2.95
428.972	2.93
429.179	2.78
429.386	2.81
429.593	2.84
429.8	2.92
430.007	2.96
430.214	3.07
430.421	3.06
430.628	3.01
430.835	2.91
431.042	2.89
431.249	2.79
431.456	2.85
431.662	2.84
431.869	2.88
432.076	3.05
432.283	3.1
432.49	3.12
432.697	3.12
432.903	3.09
433.11	3.1
433.317	3.12
433.524	3.01
433.73	3.02
433.937	3.01
434.144	3.09
434.35	3.08
434.557	3.06
434.764	3
434.97	3.11
435.177	3.08
435.384	3.14
435.59	3.06
435.797	3.06
436.003	3.06
436.21	3.03
436.416	3.01
436.623	3.04
436.829	2.99
437.036	3
437.242	3
437.449	3.04
437.655	3.05
437.862	3.11
438.068	3.14
438.275	3.12
438.481	3.19
438.687	3.23
438.894	3.2
439.1	3.26
439.307	3.25
439.513	3.19
439.719	3.29
439.926	3.28
440.132	3.27
440.338	3.29
440.544	3.24
440.751	3.21
440.957	3.21
441.163	3.2
441.369	3.17
441.575	3.09
441.782	3.07
441.988	3.1
442.194	3.14
442.4	3.2
442.606	3.2
442.812	3.21
443.018	3.31
443.224	3.34
443.431	3.38
443.637	3.34
443.843	3.39
444.049	3.36
444.255	3.29
444.461	3.26
444.667	3.29
444.873	3.24
445.079	3.26
445.284	3.15
445.49	3.11
445.696	3.22
445.902	3.26
446.108	3.2
446.314	3.25
446.52	3.26
446.726	3.31
446.931	3.39
447.137	3.35
447.343	3.32
447.549	3.32
447.755	3.33
447.96	3.34
448.166	3.44
448.372	3.4
448.578	3.42
448.783	3.37
448.989	3.46
449.195	3.45
449.4	3.43
449.606	3.37
449.812	3.45
450.017	3.48
450.223	3.52
450.428	3.49
450.634	3.5
450.84	3.51
451.045	3.47
451.251	3.49
451.456	3.47
451.662	3.44
451.867	3.41
452.073	3.4
452.278	3.38
452.483	3.42
452.689	3.37
452.894	3.36
453.1	3.41
453.305	3.47
453.51	3.48
453.716	3.52
453.921	3.51
454.127	3.49
454.332	3.48
454.537	3.55
454.742	3.51
454.948	3.47
455.153	3.46
455.358	3.53
455.563	3.57
455.769	3.57
455.974	3.49
456.179	3.42
456.384	3.46
456.589	3.44
456.795	3.37
457	3.37
457.205	3.33
457.41	3.36
457.615	3.46
457.82	3.47
458.025	3.45
458.23	3.44
458.435	3.39
458.64	3.51
458.845	3.48
459.05	3.49
459.255	3.51
459.46	3.52
459.665	3.57
459.87	3.61
460.075	3.57
460.28	3.6
460.485	3.61
460.69	3.6
460.895	3.63
461.099	3.67
461.304	3.66
461.509	3.62
461.714	3.65
461.919	3.58
462.123	3.59
462.328	3.57
462.533	3.52
462.738	3.55
462.942	3.64
463.147	3.57
463.352	3.64
463.556	3.71
463.761	3.74
463.966	3.79
464.17	3.79
464.375	3.78
464.58	3.81
464.784	3.81
464.989	3.73
465.193	3.74
465.398	3.76
465.602	3.76
465.807	3.72
466.011	3.8
466.216	3.82
466.42	3.88
466.625	3.88
466.829	3.86
467.034	3.87
467.238	3.91
467.443	3.9
467.647	3.85
467.851	3.85
468.056	3.86
468.26	3.84
468.464	3.87
468.669	3.88
468.873	3.85
469.077	3.94
469.282	3.94
469.486	3.93
469.69	3.94
469.894	3.95
470.099	3.95
