Data from Ofra_PS_T2_1A_2GT41_Reflection_2.txt Node
Date: Wed Jul 21 17:57:01 EDT 2021
User: Adam
Spectrometer: FLMT01687
Trigger mode: 0
Integration Time (sec): 1.100000E0
Scans to average: 2
Electric dark correction enabled: true
Nonlinearity correction enabled: false
Boxcar width: 2
XAxis mode: Wavelengths
Number of Pixels in Spectrum: 3648
>>>>>Begin Spectral Data<<<<<
179.494	500.2
179.716	580.71
179.937	560.74
180.158	528.81
180.38	832.66
180.601	341.57
180.823	107.48
181.044	-69.55
181.265	194.3
181.486	66.02
181.708	95.67
181.929	386.22
182.15	-355.28
182.372	81
182.593	16.64
182.814	35.07
183.035	82.91
183.257	99.24
183.478	101.44
183.699	120.89
183.92	59.18
184.141	60.51
184.363	17.8
184.584	49.46
184.805	62.19
185.026	105.28
185.247	83.9
185.468	56.23
185.689	54.22
185.91	34.25
186.132	21.76
186.353	14.71
186.574	47.64
186.795	38.77
187.016	22.4
187.237	-2.55
187.458	-22.01
187.679	-31.63
187.9	-35.85
188.121	-50.9
188.342	-34.09
188.563	24.1
188.784	77.8
189.005	107.17
189.226	169.27
189.447	141.81
189.667	120.75
189.888	-245.44
190.109	-1161.36
190.33	-696.94
190.551	-1317.04
190.772	-332.02
190.993	-271.42
191.214	-215.56
191.434	-145.92
191.655	-47.15
191.876	-69.85
192.097	-89.2
192.318	-139.6
192.538	-198.02
192.759	-135.83
192.98	-23.42
193.201	8.48
193.421	45.04
193.642	43.87
193.863	57.5
194.083	18.9
194.304	13.2
194.525	-11
194.745	-27.98
194.966	-68.86
195.187	-65.29
195.407	-103.42
195.628	-145.38
195.848	-137.52
196.069	-117.65
196.29	-55.93
196.51	-65.43
196.731	-62.85
196.951	-58.5
197.172	-59.44
197.392	-96.13
197.613	-82.02
197.833	-97.59
198.054	-103.99
198.274	-44.31
198.495	-56.16
198.715	-23.84
198.936	-37.52
199.156	-6.96
199.377	-105.47
199.597	-103.2
199.817	-118.79
200.038	-44.8
200.258	-120.83
200.479	-49.9
200.699	-27.08
200.919	20.07
201.14	-1.41
201.36	2.39
201.58	21.51
201.801	37.72
202.021	0.93
202.241	-12.65
202.461	-11.97
202.682	-96.24
202.902	-169.98
203.122	-89.46
203.342	-67.66
203.563	-17.81
203.783	9.85
204.003	-29.36
204.223	-19.54
204.443	35.89
204.663	0.95
204.884	-7.23
205.104	47.63
205.324	60.92
205.544	53.51
205.764	66.33
205.984	88.02
206.204	85.27
206.424	64.98
206.644	27.54
206.864	30.35
207.084	-19.62
207.304	14.48
207.525	-70.39
207.745	-5.68
207.964	22.96
208.184	-38.38
208.404	-103.92
208.624	-95.06
208.844	-95.35
209.064	-396.14
209.284	-352.91
209.504	-178.47
209.724	-29.93
209.944	-12.74
210.164	19.6
210.384	39.93
210.604	35.57
210.823	-10.74
211.043	-27.64
211.263	-28.83
211.483	-37.94
211.703	-79.32
211.922	-55.57
212.142	4.87
212.362	28.02
212.582	5.3
212.801	8.64
213.021	-15.63
213.241	-38.19
213.461	-57.03
213.68	-80.73
213.9	-40.5
214.12	-12.63
214.339	-50.07
214.559	-34.96
214.779	18.22
214.998	0.65
215.218	-23.49
215.438	-0.27
215.657	-10.28
215.877	-19.59
216.096	12.99
216.316	16.62
216.535	6.31
216.755	-4.11
216.974	-92.78
217.194	-149.8
217.413	-151.58
217.633	-153.09
217.852	-244.77
218.072	-111.15
218.291	-54.15
218.511	-13.48
218.73	-33.16
218.95	-21.81
219.169	-22.51
219.389	-69.11
219.608	-60.79
219.827	-54.94
220.047	-47.21
220.266	-16.73
220.485	-3.37
220.705	8.74
220.924	-7.56
221.143	17.41
221.363	-13.04
221.582	1.69
221.801	2.28
222.021	10.64
222.24	-37.33
222.459	61.92
222.678	30.54
222.897	7.56
223.117	16.82
223.336	52.65
223.555	8.58
223.774	60.54
223.993	62.35
224.213	78.49
224.432	32.74
224.651	32.42
224.87	-11.54
225.089	4.97
225.308	5.42
225.527	21.84
225.746	24.35
225.965	36.49
226.184	29.66
226.404	33.85
226.623	8.98
226.842	13.85
227.061	21.16
227.28	18.63
227.499	2.24
227.718	19.17
227.936	14.13
228.155	25.96
228.374	25.98
228.593	22.33
228.812	22.87
229.031	5.62
229.25	-60.79
229.469	-75.29
229.688	-50.23
229.907	-8.7
230.125	13.59
230.344	38.53
230.563	57
230.782	49.28
231.001	-27.98
231.22	-35.24
231.438	0.65
231.657	-6.03
231.876	-8.47
232.095	53.06
232.313	68.46
232.532	59.7
232.751	41.81
232.969	18.15
233.188	-43.11
233.407	9.39
233.625	2.92
233.844	-7.68
234.063	2.36
234.281	3.53
234.5	-16.36
234.719	-4.56
234.937	24.01
235.156	23.25
235.374	27.64
235.593	21.1
235.811	-1.95
236.03	-27.11
236.249	-59.12
236.467	-40.64
236.686	-7.58
236.904	9.24
237.123	-7.71
237.341	-13.93
237.559	-7.76
237.778	-34.74
237.996	-56.64
238.215	2.08
238.433	28.09
238.652	30.48
238.87	9.74
239.088	21.19
239.307	-1.32
239.525	-15.04
239.743	-38.01
239.962	-13.47
240.18	-49.21
240.398	-76.33
240.617	-82.31
240.835	-81.74
241.053	-43.78
241.271	31.03
241.49	41.75
241.708	29.82
241.926	64.67
242.144	12.94
242.363	-53.08
242.581	-69.07
242.799	-22.75
243.017	-7.24
243.235	-18.17
243.453	-10.1
243.672	-18.3
243.89	-19.99
244.108	-41.57
244.326	-14.21
244.544	-7.05
244.762	2.9
244.98	11.1
245.198	21.37
245.416	-15.31
245.634	-20.24
245.852	-31.46
246.07	-35.48
246.288	-35.84
246.506	-48.2
246.724	-9.59
246.942	-0.02
247.16	37.54
247.378	49.13
247.596	71.7
247.814	70.52
248.032	42.29
248.25	37.85
248.468	26.63
248.685	38.42
248.903	43.01
249.121	47.67
249.339	-5.74
249.557	-14.17
249.775	-9.81
249.992	-75.45
250.21	-78.54
250.428	-42.56
250.646	-69.26
250.863	-84.22
251.081	-41.73
251.299	-6.82
251.517	3.35
251.734	27
251.952	25.37
252.17	9.99
252.387	3.24
252.605	-17.67
252.823	-17.34
253.04	0.74
253.258	24.17
253.475	16.44
253.693	39.08
253.911	40.68
254.128	38.24
254.346	19.81
254.563	15.22
254.781	3.11
254.998	-27.18
255.216	-36.18
255.433	-22.55
255.651	20.11
255.868	55.62
256.086	90.83
256.303	80.27
256.521	66.21
256.738	43.11
256.956	8.86
257.173	-26.76
257.39	-47.68
257.608	-69.85
257.825	-23.9
258.043	4.78
258.26	27.22
258.477	74.66
258.695	77.62
258.912	25.12
259.129	28.68
259.346	-21.66
259.564	-58.12
259.781	-81.37
259.998	-7.09
260.216	23.62
260.433	77.08
260.65	69.82
260.867	70.2
261.084	41.63
261.302	23.04
261.519	10.3
261.736	-21.68
261.953	-37.4
262.17	9.08
262.387	-40.59
262.604	-62.61
262.822	-72.36
263.039	-49.29
263.256	-119.96
263.473	-46.16
263.69	-30.97
263.907	16.66
264.124	18.47
264.341	25.27
264.558	20.24
264.775	37.65
264.992	30.08
265.209	32.27
265.426	56.4
265.643	51.77
265.86	45.18
266.077	40.85
266.294	34.94
266.51	-12.53
266.727	-36.52
266.944	-20.04
267.161	-24
267.378	-19.02
267.595	6.6
267.812	-4.23
268.028	-25.85
268.245	7.74
268.462	-25.09
268.679	-36.37
268.896	7.24
269.112	20.13
269.329	3.08
269.546	20.9
269.763	10.43
269.979	2.43
270.196	-15.87
270.413	-44.34
270.629	-73.7
270.846	-79.99
271.063	-71.17
271.279	-76.65
271.496	-64.81
271.712	-21.05
271.929	16.91
272.146	-16.53
272.362	-8.75
272.579	34.17
272.795	34.09
273.012	28.14
273.228	47.75
273.445	38.36
273.661	4.92
273.878	-53.66
274.094	-51.82
274.311	-78.17
274.527	-22.57
274.744	-8.39
274.96	14.11
275.177	25.25
275.393	43.65
275.609	48.43
275.826	50.01
276.042	38.71
276.259	31.77
276.475	37.87
276.691	36.95
276.908	21.25
277.124	37.14
277.34	19.02
277.557	-1.54
277.773	-13.13
277.989	-18.41
278.205	-13.67
278.422	15.82
278.638	23.25
278.854	47.1
279.07	53.43
279.286	39.85
279.503	-7.83
279.719	-16.85
279.935	-52.61
280.151	-69.03
280.367	-42.31
280.583	-36
280.799	-27.12
281.016	-31.95
281.232	3.31
281.448	-0.57
281.664	19.76
281.88	-8.3
282.096	8.99
282.312	30.48
282.528	50.76
282.744	66.27
282.96	58.65
283.176	26.8
283.392	13.54
283.608	6.24
283.824	-4.02
284.04	11.37
284.256	30.85
284.471	17.41
284.687	9.31
284.903	28.22
285.119	37.86
285.335	16.69
285.551	33.72
285.767	23.92
285.982	4.64
286.198	-31.19
286.414	19.59
286.63	19.96
286.846	36
287.061	7.48
287.277	43.37
287.493	8.07
287.709	20.06
287.924	-4.19
288.14	31.75
288.356	21.51
288.571	33.34
288.787	11.43
289.003	17.64
289.218	11.09
289.434	-24.21
289.65	-1.46
289.865	-3.89
290.081	19.22
290.296	9.65
290.512	17.85
290.727	-20.5
290.943	-16.26
291.159	-20.89
291.374	-24.05
291.59	-33.19
291.805	-18.43
292.021	-11.38
292.236	-19.1
292.451	5.59
292.667	18.55
292.882	41.57
293.098	44.1
293.313	46.42
293.529	17.94
293.744	-18.58
293.959	-38.91
294.175	-31.55
294.39	1.65
294.605	15.54
294.821	40.35
295.036	48.06
295.251	52.51
295.467	9.46
295.682	-0.02
295.897	-54.22
296.112	-68.35
296.328	-54.52
296.543	-56.73
296.758	-73.38
296.973	-15.85
297.188	8.89
297.404	-41.37
297.619	-47.69
297.834	-40.83
298.049	-47.23
298.264	-74.7
298.479	-5.88
298.694	2.34
298.909	23.31
299.125	9.35
299.34	18.41
299.555	-21.22
299.77	-4.27
299.985	-53.88
300.2	-92.57
300.415	-97.14
300.63	-48.06
300.845	-53.32
301.06	-42.65
301.275	-1.09
301.49	17.47
301.704	4.53
301.919	-22.15
302.134	-35.31
302.349	-39.58
302.564	-128.49
302.779	-170.57
302.994	-146.28
303.209	-78.36
303.423	-26.96
303.638	45.2
303.853	8.66
304.068	5.91
304.283	12.06
304.497	-5.84
304.712	-10.02
304.927	3.19
305.142	-0.56
305.356	6.65
305.571	3.87
305.786	-11.48
306	-22.71
306.215	-11.11
306.43	-35.18
306.644	-11.28
306.859	29.15
307.074	42.98
307.288	10.78
307.503	4.57
307.717	-25.27
307.932	-35.14
308.147	-46.63
308.361	-28.73
308.576	-30.06
308.79	-56.93
309.005	-41.49
309.219	-30.78
309.434	-35.24
309.648	-30.18
309.863	-5.52
310.077	-6.53
310.292	-5.24
310.506	-1.05
310.72	6.59
310.935	16.85
311.149	14.84
311.364	21.81
311.578	30.42
311.792	18.27
312.007	20.32
312.221	3.91
312.435	15.79
312.649	-4.36
312.864	27.67
313.078	39.06
313.292	107.49
313.507	83.66
313.721	139.59
313.935	70.74
314.149	44.84
314.363	17.86
314.578	12.85
314.792	4.43
315.006	-15.85
315.22	7.5
315.434	15.48
315.648	24.61
315.862	14.92
316.077	21.92
316.291	-8.19
316.505	3.37
316.719	-21.8
316.933	-3.63
317.147	16.84
317.361	-10.76
317.575	-54.39
317.789	-60.58
318.003	-109.33
318.217	-125.33
318.431	-23.47
318.645	27.71
318.859	29.83
319.073	60.94
319.287	47.66
319.5	9.19
319.714	-30.09
319.928	-72.28
320.142	-100.59
320.356	-18.71
320.57	15.06
320.784	19.87
320.997	56.5
321.211	35.27
321.425	-44.93
321.639	-67.27
321.853	-22.79
322.066	-26.43
322.28	-20.02
322.494	-3.81
322.707	18.72
322.921	-2.98
323.135	5.96
323.349	10.19
323.562	-18.04
323.776	-42.87
323.989	-30.06
324.203	-62.43
324.417	-50.76
324.63	-58.1
324.844	-51.25
325.057	-49.42
325.271	-27.55
325.485	-11.05
325.698	15.53
325.912	28.92
326.125	1.74
326.339	12.55
326.552	-8.75
326.766	-9.4
326.979	9.85
327.193	36.33
327.406	23.87
327.619	23.29
327.833	43.26
328.046	12.18
328.26	-6.33
328.473	16.74
328.686	-17.92
328.9	-29.42
329.113	-2.22
329.326	-19.64
329.54	3.19
329.753	27.98
329.966	-20.04
330.179	-10.36
330.393	0.37
330.606	-18.02
330.819	4.46
331.032	28.21
331.246	20.83
331.459	48.17
331.672	40.5
331.885	19.89
332.098	-5.33
332.311	-14.09
332.525	-72.84
332.738	-33.22
332.951	15.46
333.164	36.85
333.377	50.01
333.59	68.04
333.803	50.69
334.016	26.68
334.229	26.83
334.442	20.77
334.655	37.4
334.868	47.86
335.081	50.59
335.294	43.57
335.507	36.73
335.72	13.95
335.933	-9.06
336.146	-8.77
336.359	-5.42
336.572	-25.03
336.785	-50.26
336.997	-39.57
337.21	-28.05
337.423	-35.23
337.636	-26.04
337.849	-13.54
338.062	-3.41
338.274	11.73
338.487	13.88
338.7	-4.24
338.913	-20.84
339.125	-46.82
339.338	-103.02
339.551	-84.57
339.763	-29.83
339.976	-19.65
340.189	-2.01
340.402	6.25
340.614	-3.82
340.827	-1.13
341.039	-2.28
341.252	-6.57
341.465	16.45
341.677	24.83
341.89	-21.21
342.102	2.59
342.315	-0.95
342.527	-44.16
342.74	-37.8
342.952	3.83
343.165	-5.76
343.377	21.39
343.59	26.77
343.802	36.22
344.015	42
344.227	51.11
344.44	28.89
344.652	33.74
344.864	20.52
345.077	31
345.289	30.53
345.502	40.68
345.714	26.13
345.926	27.12
346.139	19.81
346.351	26.97
346.563	35.43
346.775	45.52
346.988	39.84
347.2	20.69
347.412	-17
347.624	-54.45
347.837	-71.24
348.049	-36.15
348.261	-2.07
348.473	14.7
348.685	20.81
348.897	8.54
349.11	-9.78
349.322	-35.07
349.534	-25.27
349.746	-24.32
349.958	-4.91
350.17	-19.9
350.382	6.74
350.594	-0.36
350.806	2.1
351.018	-5.49
351.23	-14.54
351.442	-49.33
351.654	-74.82
351.866	-52.34
352.078	-36
352.29	-11.28
352.502	11.3
352.714	32.01
352.926	20.54
353.138	15.65
353.35	8.39
353.561	2.37
353.773	-17.63
353.985	-12.18
354.197	-8.72
354.409	-4.35
354.621	-8.23
354.832	4.43
355.044	4.35
355.256	5.37
355.468	12.02
355.679	7.58
355.891	16.06
356.103	-4.11
356.314	1.65
356.526	10.86
356.738	6.67
356.949	-10.9
357.161	23.44
357.373	9.98
357.584	-12.38
357.796	5.93
358.008	2.38
358.219	8.91
358.431	15.09
358.642	26.13
358.854	19.29
359.065	5.21
359.277	-19.62
359.488	-34.37
359.7	-49.86
359.911	-58.62
360.123	-25.06
360.334	-40.23
360.546	-32.22
360.757	-34.81
360.969	-22.78
361.18	-26.79
361.391	-20.84
361.603	-48.52
361.814	-40.96
362.025	-53.22
362.237	-46.04
362.448	-20.54
362.659	4.16
362.871	0.26
363.082	-0.3
363.293	-0.86
363.504	-13.35
363.716	-38.32
363.927	-40.64
364.138	-53.22
364.349	-67.89
364.56	-51.31
364.772	-32.94
364.983	-12.6
365.194	-4.08
365.405	10.43
365.616	20.68
365.827	7.14
366.038	-19.74
366.25	-23.28
366.461	-64.14
366.672	-35.36
366.883	1.64
367.094	11.13
367.305	5.07
367.516	24.65
367.727	-8.36
367.938	-28.13
368.149	-23.74
368.36	-9.49
368.571	-9.63
368.781	-11.78
368.992	-23.97
369.203	-37.27
369.414	-52.06
369.625	-66.36
369.836	-60.82
370.047	-67.16
370.258	-49.71
370.468	-42
370.679	-50.63
370.89	-44.52
371.101	-21.99
371.312	-32.84
371.522	-38.45
371.733	-24.54
371.944	-18.23
372.155	-8.68
372.365	-5.45
372.576	4.06
372.787	6.33
372.997	-15.63
373.208	-22.78
373.419	5.91
373.629	-15.78
373.84	-19.25
374.05	-11.21
374.261	-4.58
374.472	-31.05
374.682	3.62
374.893	0.71
375.103	31.01
375.314	23.36
375.524	23.24
375.735	29.69
375.945	35.22
376.156	13.69
376.366	11.56
376.577	17.46
376.787	2.9
376.997	9.05
377.208	2.53
377.418	1.88
377.629	10.4
377.839	13.85
378.049	9.24
378.26	19.71
378.47	27.11
378.68	13.46
378.89	1.14
379.101	-13.42
379.311	-40.7
379.521	-75.26
379.732	-76.71
379.942	-54.89
380.152	-47.71
380.362	-27.33
380.572	-25.57
380.783	-8.32
380.993	0.88
381.203	4.92
381.413	27.66
381.623	41.55
381.833	26.82
382.043	10.54
382.253	4.06
382.463	-2.96
382.674	-11.86
382.884	-25.1
383.094	-23.71
383.304	-17.81
383.514	-11.66
383.724	-4.89
383.934	-3.45
384.144	-12.64
384.353	-20.49
384.563	-25.49
384.773	-21.65
384.983	-29.28
385.193	-11.7
385.403	-2.39
385.613	-3.19
385.823	-11.64
386.033	-3.05
386.242	-10.22
386.452	-18.49
386.662	-20.88
386.872	-4.24
387.082	-6.37
387.291	-12.49
387.501	-10.07
387.711	-8.56
387.921	-20.1
388.13	-19.19
388.34	-2.2
388.55	-8.33
388.759	-8
388.969	1.56
389.179	1.28
389.388	-7.14
389.598	-0.48
389.807	-6.7
390.017	-12.08
390.227	-11.35
390.436	-11.21
390.646	-7.91
390.855	-2.6
391.065	-3.46
391.274	-5.26
391.484	-5.35
391.693	-5
391.903	-2.78
392.112	3.7
392.322	7.87
392.531	10.59
392.74	12.6
392.95	6.29
393.159	3.7
393.369	1.62
393.578	0.7
393.787	-3.16
393.997	-0.49
394.206	-2.87
394.415	-1.79
394.625	-1.54
394.834	-2.16
395.043	-1.59
395.252	0.91
395.462	2.44
395.671	4.16
395.88	5.25
396.089	5.95
396.298	3.87
396.508	3.71
396.717	2.23
396.926	2.66
397.135	2.18
397.344	2.48
397.553	2.18
397.762	3.6
397.971	3.56
398.181	3.69
398.39	3.39
398.599	2.89
398.808	2.58
399.017	3.26
399.226	4.46
399.435	5.98
399.644	6.15
399.853	5
400.062	4.06
400.27	3.41
400.479	2.56
400.688	2.03
400.897	2.46
401.106	2.8
401.315	2.27
401.524	2.09
401.733	2.65
401.941	3.14
402.15	3.29
402.359	3.18
402.568	3.71
402.777	3.68
402.985	3.39
403.194	3.04
403.403	3.2
403.612	2.58
403.82	2.36
404.029	2.5
404.238	2.45
404.446	2.78
404.655	2.72
404.864	2.73
405.072	2.44
405.281	2.75
405.489	2.37
405.698	2.57
405.906	2.6
406.115	2.62
406.324	2.6
406.532	2.73
406.741	2.94
406.949	2.9
407.158	2.89
407.366	2.88
407.574	2.94
407.783	2.77
407.991	2.54
408.2	2.66
408.408	2.58
408.617	2.37
408.825	2.25
409.033	2.47
409.242	2.45
409.45	2.47
409.658	2.48
409.867	2.66
410.075	2.51
410.283	2.47
410.491	2.39
410.7	2.31
410.908	2.3
411.116	2.66
411.324	2.64
411.533	2.59
411.741	2.88
411.949	2.81
412.157	2.48
412.365	2.45
412.573	2.52
412.781	2.53
412.99	2.41
413.198	2.57
413.406	2.58
413.614	2.64
413.822	2.41
414.03	2.43
414.238	2.31
414.446	2.32
414.654	2.11
414.862	2.24
415.07	2.3
415.278	2.41
415.486	2.27
415.694	2.31
415.902	2.23
416.109	2.09
416.317	2.08
416.525	1.98
416.733	1.97
416.941	2.05
417.149	2
417.357	2.03
417.564	2.24
417.772	2.48
417.98	2.38
418.188	2.58
418.395	2.55
418.603	2.61
418.811	2.3
419.019	2.28
419.226	2.39
419.434	2.52
419.642	2.34
419.849	2.54
420.057	2.6
420.265	2.54
420.472	2.28
420.68	2.32
420.887	2.18
421.095	2.17
421.302	2.03
421.51	2.16
421.717	2.25
421.925	2.38
422.132	2.31
422.34	2.2
422.547	2.29
422.755	2.2
422.962	1.96
423.17	1.87
423.377	2
423.585	2.02
423.792	1.91
423.999	2.07
424.207	2.1
424.414	2.27
424.621	2.12
424.829	2.29
425.036	2.31
425.243	2.47
425.451	2.26
425.658	2.1
425.865	2.27
426.072	2.2
426.28	2.41
426.487	2.43
426.694	2.6
426.901	2.3
427.108	2.28
427.315	2.06
427.523	2.3
427.73	2.38
427.937	2.34
428.144	2.17
428.351	2.09
428.558	2.27
428.765	2.13
428.972	2.14
429.179	2.47
429.386	2.74
429.593	2.27
429.8	2.19
430.007	2.3
430.214	2.41
430.421	2.15
430.628	2.11
430.835	1.96
431.042	2.03
431.249	1.94
431.456	1.93
431.662	2.1
431.869	2.45
432.076	2.43
432.283	2.55
432.49	2.51
432.697	2.52
432.903	2.21
433.11	2.16
433.317	2.07
433.524	2.35
433.73	2.22
433.937	2.49
434.144	2.39
434.35	2.38
434.557	2.22
434.764	2.29
434.97	2.19
435.177	2.4
435.384	2.28
435.59	2.36
435.797	2.54
436.003	2.71
436.21	2.66
436.416	2.83
436.623	2.83
436.829	2.91
437.036	2.94
437.242	2.94
437.449	2.83
437.655	2.78
437.862	2.65
438.068	2.51
438.275	2.59
438.481	2.79
438.687	2.75
438.894	2.68
439.1	2.73
439.307	2.78
439.513	2.61
439.719	2.68
439.926	2.86
440.132	2.87
440.338	2.7
440.544	2.9
440.751	2.84
440.957	2.81
441.163	2.73
441.369	2.88
441.575	2.66
441.782	2.64
441.988	2.55
442.194	2.57
442.4	2.55
442.606	2.86
442.812	2.98
443.018	3.03
443.224	3.02
443.431	3.19
443.637	2.93
443.843	2.74
444.049	2.75
444.255	2.82
444.461	2.72
444.667	2.71
444.873	2.94
445.079	2.98
445.284	3.03
445.49	2.77
445.696	2.65
445.902	2.52
446.108	2.4
446.314	2.32
446.52	2.44
446.726	2.73
446.931	2.75
447.137	2.84
447.343	2.94
447.549	2.85
447.755	2.68
447.96	2.69
448.166	2.56
448.372	2.45
448.578	2.6
448.783	2.67
448.989	2.79
449.195	3.01
449.4	3.04
449.606	2.98
449.812	2.84
450.017	2.89
450.223	2.7
450.428	2.59
450.634	2.73
450.84	2.88
451.045	2.69
451.251	2.65
451.456	3
451.662	3.03
451.867	3.09
452.073	3.14
452.278	3.28
452.483	3.35
452.689	3.19
452.894	3.13
453.1	3.13
453.305	3.08
453.51	2.83
453.716	2.78
453.921	2.86
454.127	2.77
454.332	2.71
454.537	2.64
454.742	2.82
454.948	2.78
455.153	2.91
455.358	2.99
455.563	3.17
455.769	3.17
455.974	3.13
456.179	2.93
456.384	2.93
456.589	2.84
456.795	2.68
457	2.62
457.205	2.93
457.41	2.94
457.615	2.94
457.82	3.04
458.025	3.13
458.23	2.95
458.435	2.98
458.64	2.83
458.845	2.97
459.05	2.96
459.255	3.01
459.46	2.98
459.665	3.03
459.87	2.93
460.075	2.96
460.28	2.99
460.485	3.15
460.69	3.24
460.895	3.15
461.099	3.1
461.304	3.13
461.509	3
461.714	2.96
461.919	3.08
462.123	2.99
462.328	3.04
462.533	2.95
462.738	3.12
