Data from Ofra_PS_T2_2A_8HS24_Reflection_1.txt Node
Date: Wed Jul 21 17:21:24 EDT 2021
User: Adam
Spectrometer: FLMT01687
Trigger mode: 0
Integration Time (sec): 1.100000E0
Scans to average: 2
Electric dark correction enabled: true
Nonlinearity correction enabled: false
Boxcar width: 2
XAxis mode: Wavelengths
Number of Pixels in Spectrum: 3648
>>>>>Begin Spectral Data<<<<<
179.494	531
179.716	595.76
179.937	549.34
180.158	494.44
180.38	799.22
180.601	383.29
180.823	136
181.044	131.16
181.265	560.85
181.486	185.99
181.708	165.07
181.929	1201.53
182.15	-250.35
182.372	241.98
182.593	200.44
182.814	131.54
183.035	214.3
183.257	138.79
183.478	61.76
183.699	91.22
183.92	53.88
184.141	-14.84
184.363	-52.25
184.584	-33.09
184.805	3.31
185.026	41.34
185.247	61.68
185.468	37.66
185.689	77.87
185.91	56.06
186.132	59.21
186.353	54.43
186.574	135.44
186.795	63.56
187.016	20.07
187.237	-16.05
187.458	-36.74
187.679	-53.34
187.9	-24.39
188.121	-9.8
188.342	2.33
188.563	28.49
188.784	36.81
189.005	38.99
189.226	79.67
189.447	63.14
189.667	4
189.888	-211.7
190.109	-772.4
190.33	-557.9
190.551	-1086.5
190.772	-210.84
190.993	-141.95
191.214	-115.45
191.434	-44.93
191.655	51.81
191.876	21.18
192.097	-30.03
192.318	-56.71
192.538	-125.15
192.759	-135.43
192.98	-65.5
193.201	-12.55
193.421	-5.99
193.642	22.5
193.863	24.97
194.083	4.83
194.304	-8.79
194.525	-19.17
194.745	-76.46
194.966	-78.83
195.187	-52.99
195.407	-74.82
195.628	-95.83
195.848	-62.86
196.069	-31.21
196.29	5.53
196.51	-33.12
196.731	-46.97
196.951	-65.5
197.172	-124.42
197.392	-179.14
197.613	-136.87
197.833	-132.49
198.054	-106.41
198.274	-19.69
198.495	-34.97
198.715	-7.61
198.936	-6.69
199.156	-12.08
199.377	-119.56
199.597	-72.71
199.817	-81.9
200.038	-10.05
200.258	-26.72
200.479	34.48
200.699	20.54
200.919	63.69
201.14	11
201.36	-12.86
201.58	29.25
201.801	63.23
202.021	19.32
202.241	30.43
202.461	36.01
202.682	-22.81
202.902	-120.58
203.122	-42.13
203.342	-50.58
203.563	-14.05
203.783	-0.46
204.003	-24.87
204.223	-39.1
204.443	24.96
204.663	10.35
204.884	16.01
205.104	49.84
205.324	64.66
205.544	52.51
205.764	52.76
205.984	51.46
206.204	61.86
206.424	45.93
206.644	2.88
206.864	-2.44
207.084	-21.03
207.304	-29.17
207.525	-86.48
207.745	-0.14
207.964	43.29
208.184	-1.95
208.404	-63.4
208.624	-67.55
208.844	-74.68
209.064	-352.02
209.284	-345.27
209.504	-144.23
209.724	-9.18
209.944	10.74
210.164	40.28
210.384	47.97
210.604	45.45
210.823	-7.12
211.043	-29.96
211.263	-9.58
211.483	-23.62
211.703	-78.34
211.922	-34.99
212.142	24.84
212.362	18.32
212.582	7.28
212.801	23.28
213.021	-14.59
213.241	-39.3
213.461	-76.49
213.68	-103.3
213.9	-65.7
214.12	-40.72
214.339	-95.54
214.559	-53.58
214.779	17.96
214.998	8.69
215.218	-42.25
215.438	-16.12
215.657	-22.8
215.877	-25.23
216.096	1.05
216.316	27.18
216.535	20.8
216.755	15.18
216.974	-47.13
217.194	-98.35
217.413	-77.42
217.633	-66.04
217.852	-153.89
218.072	-101.37
218.291	-46
218.511	-18.28
218.73	-46.16
218.95	-31.38
219.169	-19.19
219.389	-64.66
219.608	-46.11
219.827	-18.35
220.047	1.47
220.266	13.75
220.485	23.83
220.705	30.16
220.924	1.31
221.143	37.87
221.363	18.5
221.582	35.35
221.801	48
222.021	57.4
222.24	-11.42
222.459	43.24
222.678	-3.21
222.897	-84.61
223.117	-113.59
223.336	-48.06
223.555	-20.54
223.774	33.05
223.993	63.48
224.213	103.95
224.432	65.44
224.651	71.95
224.87	39.21
225.089	53.25
225.308	44.47
225.527	54.22
225.746	56.45
225.965	39.11
226.184	20.3
226.404	30.6
226.623	13.73
226.842	8.75
227.061	33.81
227.28	32.28
227.499	6.89
227.718	25.79
227.936	12.38
228.155	46.26
228.374	42.55
228.593	46.18
228.812	43.33
229.031	41.1
229.25	-44.56
229.469	-56.45
229.688	-30.74
229.907	2.23
230.125	22.77
230.344	45.68
230.563	46.49
230.782	50.72
231.001	-23.58
231.22	-17.09
231.438	17.96
231.657	20.45
231.876	-0.06
232.095	58.1
232.313	41.57
232.532	-2.87
232.751	-35.41
232.969	-54.29
233.188	-196.45
233.407	-74.39
233.625	-46.92
233.844	-63.97
234.063	-21.51
234.281	6.3
234.5	-1.06
234.719	20.95
234.937	53.18
235.156	43.23
235.374	45.76
235.593	35.22
235.811	34.43
236.03	16.74
236.249	-16.87
236.467	-47.36
236.686	-16.02
236.904	-7.46
237.123	-34.59
237.341	-28.75
237.559	-6.44
237.778	-26.54
237.996	-54.2
238.215	-18.95
238.433	-0.2
238.652	-6.32
238.87	-21.31
239.088	-10.02
239.307	2.75
239.525	-6.76
239.743	-38.26
239.962	-23.86
240.18	-45.6
240.398	-118.45
240.617	-108.92
240.835	-99
241.053	-80.15
241.271	-23.59
241.49	19.09
241.708	-0.39
241.926	23.78
242.144	7.46
242.363	-44.53
242.581	-77.76
242.799	-36.86
243.017	-27.92
243.235	-28.27
243.453	-9.94
243.672	-0.75
243.89	-2.78
244.108	-7.52
244.326	15.45
244.544	10.23
244.762	4.5
244.98	13.2
245.198	21.12
245.416	-22.1
245.634	-10.48
245.852	-24.06
246.07	-42.38
246.288	-60.99
246.506	-71.09
246.724	-43.44
246.942	-11.69
247.16	30.87
247.378	50.87
247.596	75.63
247.814	49.76
248.032	13.38
248.25	-21.24
248.468	-14.31
248.685	-21.15
248.903	20.33
249.121	36.17
249.339	26.84
249.557	27.86
249.775	29.53
249.992	-40.9
250.21	-49.59
250.428	-28.97
250.646	-58.82
250.863	-71.99
251.081	-24.09
251.299	0.2
251.517	6.68
251.734	7.27
251.952	1.87
252.17	-7.88
252.387	-5.69
252.605	-28.5
252.823	-12.12
253.04	5.5
253.258	20.67
253.475	17.07
253.693	67
253.911	50.61
254.128	50.72
254.346	60.13
254.563	37.41
254.781	0.36
254.998	-11.56
255.216	-12.64
255.433	-18.79
255.651	42.15
255.868	69.62
256.086	79.04
256.303	68.04
256.521	58.72
256.738	17.81
256.956	-21.38
257.173	-41.07
257.39	-62.81
257.608	-107.13
257.825	5.17
258.043	80.82
258.26	77.11
258.477	111.68
258.695	132.2
258.912	46.29
259.129	34.38
259.346	0.55
259.564	-29.84
259.781	-64.69
259.998	-23.91
260.216	-24.62
260.433	27.51
260.65	39.17
260.867	70.87
261.084	61.77
261.302	54.57
261.519	55.27
261.736	-5.76
261.953	-39.3
262.17	0.16
262.387	-37.17
262.604	-74.81
262.822	-71.85
263.039	-59.39
263.256	-83.5
263.473	-34.46
263.69	-21.3
263.907	12.31
264.124	17.91
264.341	-0.93
264.558	-6.43
264.775	17.48
264.992	19.27
265.209	23.62
265.426	63.64
265.643	66.61
265.86	65.98
266.077	70.32
266.294	53.81
266.51	-3.71
266.727	-23.99
266.944	-25.32
267.161	-43.47
267.378	-20.44
267.595	9.37
267.812	-6.58
268.028	-31.85
268.245	0.71
268.462	-28.61
268.679	-49.45
268.896	24.15
269.112	32.51
269.329	31.82
269.546	50.14
269.763	62.3
269.979	41.41
270.196	29.62
270.413	-3.2
270.629	-31.93
270.846	-46.8
271.063	-43.93
271.279	-57.08
271.496	-47.52
271.712	-15.37
271.929	20.54
272.146	-4.06
272.362	35.66
272.579	55.1
272.795	65.46
273.012	41.1
273.228	50.66
273.445	23.72
273.661	21.17
273.878	-28
274.094	-19.98
274.311	-33.84
274.527	32.73
274.744	35.72
274.96	41.33
275.177	42.23
275.393	49.14
275.609	32
275.826	43.16
276.042	42.79
276.259	21.14
276.475	34
276.691	38.36
276.908	18.25
277.124	21.89
277.34	28.43
277.557	22.25
277.773	-8.42
277.989	-10.67
278.205	-17.32
278.422	-0.19
278.638	-1.35
278.854	23.26
279.07	14.19
279.286	11.37
279.503	-17.64
279.719	-21.89
279.935	-31.56
280.151	-34.07
280.367	-13.87
280.583	-39.61
280.799	-31.42
281.016	-74.63
281.232	-21.41
281.448	-26.35
281.664	5.63
281.88	-11.02
282.096	32.69
282.312	42.87
282.528	80.05
282.744	92.28
282.96	74.84
283.176	42.86
283.392	26.12
283.608	7.09
283.824	-2.25
284.04	6.76
284.256	15.04
284.471	-3.53
284.687	-6.68
284.903	25.35
285.119	47.52
285.335	30.2
285.551	65.13
285.767	50.29
285.982	5.42
286.198	-41.94
286.414	7.83
286.63	18.6
286.846	36.12
287.061	29.2
287.277	52.64
287.493	23.35
287.709	26.52
287.924	11.48
288.14	30.42
288.356	41.78
288.571	66.37
288.787	39.57
289.003	38.96
289.218	35.34
289.434	-16.02
289.65	-13.98
289.865	-3.92
290.081	19.87
290.296	17.98
290.512	31.21
290.727	-8.05
290.943	-15.25
291.159	-23.38
291.374	-12.99
291.59	-36.88
291.805	-17.97
292.021	-6.04
292.236	-3.31
292.451	-2.68
292.667	17.68
292.882	28.64
293.098	21.54
293.313	15.03
293.529	-17.79
293.744	-25.2
293.959	-42.53
294.175	-32.54
294.39	6.75
294.605	27.5
294.821	51.39
295.036	57.04
295.251	59.38
295.467	27.79
295.682	17.78
295.897	-48.41
296.112	-44.14
296.328	-40.62
296.543	-66.54
296.758	-56.54
296.973	-0.05
297.188	27.1
297.404	1.79
297.619	-4.95
297.834	-28.58
298.049	-50.61
298.264	-73.68
298.479	-7.26
298.694	4.12
298.909	27.19
299.125	34.9
299.34	43.2
299.555	6.09
299.77	29.76
299.985	-19.84
300.2	-68.47
300.415	-82.26
300.63	-35.99
300.845	-64.01
301.06	-49.69
301.275	-29.51
301.49	-12.32
301.704	-21.93
301.919	-39.86
302.134	-41.34
302.349	-26.83
302.564	-97.3
302.779	-123.69
302.994	-67.36
303.209	-33.34
303.423	-56.01
303.638	25.02
303.853	-2.36
304.068	0.88
304.283	4.26
304.497	6.66
304.712	-9.2
304.927	4.19
305.142	-5.13
305.356	-8.25
305.571	-1.98
305.786	-9.35
306	-36.89
306.215	-42.88
306.43	-53.5
306.644	-48.64
306.859	-4.07
307.074	24.65
307.288	-10.86
307.503	-0.32
307.717	-17.52
307.932	-23.99
308.147	-38.07
308.361	6.46
308.576	-22.83
308.79	-55.72
309.005	-47.85
309.219	-30.06
309.434	-49.88
309.648	-24.51
309.863	15.85
310.077	13.52
310.292	3.74
310.506	6.35
310.72	13.61
310.935	13.29
311.149	18.31
311.364	38.28
311.578	52.93
311.792	42.76
312.007	39.42
312.221	19.82
312.435	25.46
312.649	5.68
312.864	43.99
313.078	41.51
313.292	99.75
313.507	38.55
313.721	47.52
313.935	16.75
314.149	10.69
314.363	3.72
314.578	22.7
314.792	25.25
315.006	9.46
315.22	23.26
315.434	25.83
315.648	30.14
315.862	36.94
316.077	42.48
316.291	23.03
316.505	42.1
316.719	33.4
316.933	15.46
317.147	26.59
317.361	-18.14
317.575	-60.85
317.789	-112.78
318.003	-207.61
318.217	-175.11
318.431	-79.47
318.645	-6.45
318.859	10.79
319.073	48.76
319.287	29.24
319.5	3.51
319.714	-64.2
319.928	-85.54
320.142	-122.71
320.356	-58.25
320.57	0.19
320.784	-12.82
320.997	-10.64
321.211	-14.38
321.425	-61.74
321.639	-105.41
321.853	-20.94
322.066	-3.19
322.28	-5.95
322.494	-1.85
322.707	18.69
322.921	7.64
323.135	4.52
323.349	15.76
323.562	1.79
323.776	-11
323.989	-13.58
324.203	-40.47
324.417	-52.62
324.63	-79.02
324.844	-76.9
325.057	-80.02
325.271	-40
325.485	-16.81
325.698	11.58
325.912	28.47
326.125	4.26
326.339	-5.79
326.552	-20.9
326.766	-6.69
326.979	-7.6
327.193	44.06
327.406	31.46
327.619	32
327.833	34.09
328.046	16.33
328.26	-30.94
328.473	-6.26
328.686	-33.7
328.9	-38.04
329.113	-21.06
329.326	-25.89
329.54	-9.22
329.753	-5.17
329.966	-39.53
330.179	-29.17
330.393	-15.46
330.606	-9.39
330.819	-0.9
331.032	22.86
331.246	23.94
331.459	59.51
331.672	45.62
331.885	40.99
332.098	20.64
332.311	12.32
332.525	-66.7
332.738	-55.71
332.951	-17.5
333.164	12.6
333.377	28.55
333.59	49.43
333.803	58.89
334.016	45.29
334.229	31.49
334.442	32.98
334.655	59.39
334.868	45.36
335.081	31.15
335.294	16.66
335.507	3.66
335.72	-16.15
335.933	-24.8
336.146	-27.63
336.359	-18.86
336.572	-39.92
336.785	-71.02
336.997	-45.93
337.21	-14.16
337.423	-10.15
337.636	-4.44
337.849	13.49
338.062	-0.05
338.274	-0.39
338.487	-31.59
338.7	-34.28
338.913	-73.04
339.125	-91.5
339.338	-172.99
339.551	-126.46
339.763	-70.56
339.976	-37.61
340.189	-20.42
340.402	1.47
340.614	0.82
340.827	-9.31
341.039	-11.35
341.252	-0.23
341.465	9.68
341.677	12.38
341.89	-32.78
342.102	-9.94
342.315	-23.8
342.527	-54.58
342.74	-38.04
342.952	16.22
343.165	6.55
343.377	27.57
343.59	34.54
343.802	46.08
344.015	43.6
344.227	53.78
344.44	45.82
344.652	45.47
344.864	20.65
345.077	31.66
345.289	33.35
345.502	30.33
345.714	20.25
345.926	31.3
346.139	20.71
346.351	32.9
346.563	42.99
346.775	53.2
346.988	44.38
347.2	28.25
347.412	-27.12
347.624	-58.58
347.837	-83.9
348.049	-63.29
348.261	-12.97
348.473	14.3
348.685	16.15
348.897	22.48
349.11	2.7
349.322	-20.81
349.534	-23.93
349.746	-10.57
349.958	-18.96
350.17	-19.48
350.382	-2.81
350.594	1.52
350.806	1.01
351.018	9.54
351.23	-0.25
351.442	-42.09
351.654	-53.61
351.866	-51.12
352.078	-53.44
352.29	-25.34
352.502	13.07
352.714	25.2
352.926	22.43
353.138	23.21
353.35	11.9
353.561	-2.15
353.773	-21.1
353.985	-11.13
354.197	-13.51
354.409	-8.15
354.621	-15.46
354.832	-8.29
355.044	-25.41
355.256	-30.39
355.468	-19.3
355.679	-12.93
355.891	-4.67
356.103	-8.39
356.314	3.44
356.526	8.47
356.738	8.8
356.949	6.65
357.161	21.46
357.373	20.42
357.584	6.54
357.796	15.44
358.008	9.93
358.219	20.65
358.431	14.53
358.642	18.58
358.854	15.89
359.065	6.77
359.277	-19.3
359.488	-33.56
359.7	-50.84
359.911	-75.61
360.123	-56.37
360.334	-64.46
360.546	-95.66
360.757	-78.29
360.969	-46.94
361.18	-22.36
361.391	-1.21
361.603	6.96
361.814	9.87
362.025	-4.85
362.237	-5.5
362.448	6.63
362.659	30.15
362.871	24.81
363.082	22.2
363.293	5.48
363.504	-4.1
363.716	-33.23
363.927	-35.7
364.138	-56.52
364.349	-62.03
364.56	-55.94
364.772	-38.94
364.983	-10.25
365.194	-5.34
365.405	11.2
365.616	23.27
365.827	25.97
366.038	-3.8
366.25	-2.97
366.461	-38.24
366.672	-19.51
366.883	1.91
367.094	11.24
367.305	3.84
367.516	14.68
367.727	-13.04
367.938	-35.41
368.149	-32.6
368.36	-13.64
368.571	-6.27
368.781	-13.24
368.992	-25.04
369.203	-42.16
369.414	-57.35
369.625	-73.74
369.836	-72.06
370.047	-101.42
370.258	-81.71
370.468	-86.99
370.679	-102.45
370.89	-81.94
371.101	-37.43
371.312	-34.56
371.522	-22.29
371.733	-9.35
371.944	0.77
372.155	-4.04
372.365	-16.08
372.576	-19.62
372.787	-25.42
372.997	-42.41
373.208	-32.08
373.419	-6.8
373.629	-25.96
373.84	-18.16
374.05	-44.14
374.261	-46.18
374.472	-62.12
374.682	-12
374.893	-9.61
375.103	36.96
375.314	31.69
375.524	30.14
375.735	21.36
375.945	21.18
376.156	-9.32
376.366	-1.17
376.577	1.8
376.787	-1.07
376.997	13.56
377.208	13.02
377.418	0.47
377.629	1.63
377.839	3.93
378.049	-4.55
378.26	15.81
378.47	19.53
378.68	14.77
378.89	10.34
379.101	2.79
379.311	-30.91
379.521	-63.53
379.732	-62.38
379.942	-55.05
380.152	-58.54
380.362	-21.11
380.572	-10.25
380.783	1.07
380.993	7.72
381.203	16.93
381.413	28.39
381.623	27.16
381.833	22.12
382.043	4.46
382.253	-11.08
382.463	-17.85
382.674	-21.72
382.884	-44.5
383.094	-36.96
383.304	-21.17
383.514	-17.89
383.724	-4.91
383.934	0.23
384.144	-2.74
384.353	-14.22
384.563	-20.37
384.773	-18.24
384.983	-19.24
385.193	-2.56
385.403	3.51
385.613	2.03
385.823	-9.45
386.033	-6.32
386.242	-14.11
386.452	-14.31
386.662	-21.55
386.872	-7.25
387.082	-6.02
387.291	-16
387.501	-18.3
387.711	-2.72
387.921	-9.89
388.13	-13.23
388.34	2.01
388.55	-4.45
388.759	-9.96
388.969	-3.1
389.179	-0.56
389.388	-4.36
389.598	3.43
389.807	-0.64
390.017	-6.96
390.227	-8.98
390.436	-11.18
390.646	-9.69
390.855	-4.2
391.065	-3.9
391.274	-4.11
391.484	-3.71
391.693	-1.88
391.903	-4.07
392.112	3.6
392.322	3.97
392.531	7.94
392.74	6.82
392.95	2.46
393.159	-1.48
393.369	-0.64
393.578	-3.06
393.787	-4.01
393.997	0.52
394.206	-0.69
394.415	0.57
394.625	0.18
394.834	-0.89
395.043	-1.1
395.252	0.42
395.462	1.83
395.671	4.26
395.88	5.74
396.089	6.76
396.298	5.24
396.508	5.51
396.717	4.1
396.926	4.31
397.135	3.63
397.344	4.08
397.553	3.75
397.762	5.39
397.971	5.11
398.181	5.23
398.39	4.07
398.599	3.41
398.808	2.97
399.017	3.43
399.226	4.65
399.435	6.01
399.644	6.01
399.853	4.83
400.062	4.2
400.27	3.25
400.479	3.01
400.688	2.32
400.897	2.63
401.106	2.66
401.315	2.41
401.524	2.43
401.733	3.51
401.941	3.93
402.15	4.16
402.359	4.08
402.568	4.55
402.777	4.47
402.985	4.31
403.194	4.36
403.403	4.68
403.612	3.96
403.82	3.76
404.029	3.86
404.238	3.58
404.446	3.77
404.655	3.69
404.864	3.59
405.072	3.34
405.281	3.65
405.489	3.2
405.698	3.33
405.906	3.35
406.115	3.27
406.324	3.14
406.532	3.41
406.741	3.63
406.949	3.48
407.158	3.62
407.366	3.62
407.574	3.53
407.783	3.41
407.991	3.22
408.2	3.31
408.408	3.22
408.617	3.06
408.825	2.95
409.033	3.23
409.242	3.3
409.45	3.43
409.658	3.34
409.867	3.45
410.075	3.3
410.283	2.99
410.491	2.81
410.7	2.81
410.908	2.85
411.116	3.08
411.324	3.14
411.533	3.18
411.741	3.58
411.949	3.49
412.157	3.14
412.365	3.15
412.573	3.18
412.781	3.05
412.99	2.84
413.198	3.09
413.406	3.1
413.614	3.06
413.822	2.85
414.03	2.94
414.238	2.72
414.446	2.87
414.654	2.66
414.862	2.81
415.07	2.84
415.278	3.1
415.486	2.82
415.694	2.93
415.902	2.77
416.109	2.7
416.317	2.69
416.525	2.59
416.733	2.65
416.941	2.7
417.149	2.73
417.357	2.64
417.564	2.82
417.772	3.09
417.98	3.14
418.188	3.11
418.395	3.17
418.603	3.4
418.811	2.99
419.019	2.78
419.226	3.02
419.434	2.97
419.642	2.58
419.849	2.77
420.057	2.9
420.265	2.78
420.472	2.52
420.68	2.65
420.887	2.52
421.095	2.54
421.302	2.38
421.51	2.72
421.717	2.82
421.925	2.94
422.132	2.82
422.34	2.66
422.547	2.61
422.755	2.48
422.962	2.26
423.17	2.11
423.377	2.29
423.585	2.23
423.792	2.22
423.999	2.33
424.207	2.52
424.414	2.68
424.621	2.6
424.829	2.54
425.036	2.54
425.243	2.66
425.451	2.49
425.658	2.39
425.865	2.69
426.072	2.78
426.28	2.94
426.487	3.02
426.694	3.23
426.901	2.9
427.108	2.86
427.315	2.61
427.523	2.78
427.73	2.61
427.937	2.58
428.144	2.44
428.351	2.31
428.558	2.37
428.765	2.36
428.972	2.33
429.179	2.58
429.386	3.1
429.593	2.74
429.8	2.72
430.007	2.95
430.214	3
430.421	2.58
430.628	2.58
430.835	2.45
431.042	2.48
431.249	2.46
431.456	2.51
431.662	2.65
431.869	2.85
432.076	2.81
432.283	2.8
432.49	2.81
432.697	2.8
432.903	2.58
433.11	2.54
433.317	2.65
433.524	2.8
433.73	2.75
433.937	3.2
434.144	3.11
434.35	3
434.557	2.85
434.764	2.86
434.97	2.64
435.177	2.8
435.384	2.68
435.59	2.75
435.797	2.97
436.003	2.97
436.21	2.89
436.416	3.1
436.623	2.96
436.829	3
437.036	3.12
437.242	3.19
437.449	3.07
437.655	3.15
437.862	2.93
438.068	2.84
438.275	2.95
438.481	3.09
438.687	2.98
438.894	3.03
439.1	3.02
439.307	3.17
439.513	3.12
439.719	3.2
439.926	3.33
440.132	3.28
440.338	2.99
440.544	3.07
440.751	3.04
440.957	3.06
441.163	2.99
441.369	3.14
441.575	2.88
441.782	2.89
441.988	2.79
442.194	2.82
442.4	2.75
442.606	3.12
442.812	3.32
443.018	3.41
443.224	3.51
443.431	3.65
443.637	3.3
443.843	3.1
444.049	3.03
444.255	2.93
444.461	2.94
444.667	2.94
444.873	3.13
445.079	3.19
445.284	3.42
445.49	3.13
445.696	3.06
445.902	2.9
446.108	2.81
446.314	2.65
446.52	2.85
446.726	3.1
446.931	3.15
447.137	3.21
447.343	3.19
447.549	3.08
447.755	2.92
447.96	2.9
448.166	2.78
448.372	2.79
448.578	2.85
448.783	2.89
448.989	3.02
449.195	3.24
449.4	3.27
449.606	3.26
449.812	3.27
450.017	3.35
450.223	3.17
450.428	3.04
450.634	3.11
450.84	3.25
451.045	3.01
451.251	2.99
451.456	3.26
451.662	3.32
451.867	3.3
452.073	3.35
452.278	3.5
452.483	3.6
452.689	3.45
452.894	3.46
453.1	3.52
453.305	3.46
453.51	3.3
453.716	3.26
453.921	3.23
454.127	3.17
454.332	3.06
454.537	2.96
454.742	3.03
454.948	2.98
455.153	3.04
455.358	3.17
455.563	3.38
455.769	3.53
455.974	3.49
456.179	3.34
456.384	3.34
456.589	3.28
456.795	3.09
457	3.13
457.205	3.41
457.41	3.35
457.615	3.28
457.82	3.33
458.025	3.38
458.23	3.22
458.435	3.27
458.64	3.16
458.845	3.32
459.05	3.22
459.255	3.24
459.46	3.19
459.665	3.22
459.87	3.16
460.075	3.11
460.28	3.1
460.485	3.14
460.69	3.23
460.895	3.12
461.099	3.2
461.304	3.27
461.509	3.31
461.714	3.27
461.919	3.34
462.123	3.29
462.328	3.33
462.533	3.22
462.738	3.3
462.942	3.28
