Data from Ofra_PS_T2_1A_8HS21_Reflection_1.txt Node
Date: Wed Jul 21 18:14:48 EDT 2021
User: Adam
Spectrometer: FLMT01687
Trigger mode: 0
Integration Time (sec): 1.100000E0
Scans to average: 2
Electric dark correction enabled: true
Nonlinearity correction enabled: false
Boxcar width: 2
XAxis mode: Wavelengths
Number of Pixels in Spectrum: 3648
>>>>>Begin Spectral Data<<<<<
179.494	635.2
179.716	686.59
179.937	615.93
180.158	555.25
180.38	818.12
180.601	197.79
180.823	68.54
181.044	-3.79
181.265	342.65
181.486	108.85
181.708	177.6
181.929	993.88
182.15	-330.99
182.372	163.85
182.593	86.41
182.814	105.16
183.035	158.96
183.257	94.34
183.478	48.94
183.699	78.72
183.92	19.45
184.141	6.47
184.363	-36.28
184.584	-22.76
184.805	-22.9
185.026	22.67
185.247	27.65
185.468	16.57
185.689	1.44
185.91	11.59
186.132	-6.71
186.353	-22.89
186.574	22.02
186.795	58.62
187.016	19.07
187.237	4.39
187.458	13.3
187.679	6.27
187.9	-10.66
188.121	11.58
188.342	24.59
188.563	32.35
188.784	59.81
189.005	81.02
189.226	91.09
189.447	90.89
189.667	56.31
189.888	-130.54
190.109	-601.3
190.33	-327.74
190.551	-911.5
190.772	-207.99
190.993	-171.36
191.214	-166.59
191.434	-116.31
191.655	-13.01
191.876	-44.4
192.097	-121.33
192.318	-150.2
192.538	-212.32
192.759	-155.7
192.98	-29.72
193.201	25.71
193.421	37.39
193.642	25.55
193.863	18.75
194.083	-9.43
194.304	-24.55
194.525	-32.41
194.745	-51.79
194.966	-69.24
195.187	-69.2
195.407	-102.06
195.628	-186.26
195.848	-160.02
196.069	-121.59
196.29	-78.95
196.51	-93.55
196.731	-56.31
196.951	-80.88
197.172	-98.04
197.392	-148.48
197.613	-139.17
197.833	-184.6
198.054	-142.67
198.274	-86.99
198.495	-88.2
198.715	-38.55
198.936	-45.86
199.156	-33.19
199.377	-108.6
199.597	-108.37
199.817	-136.82
200.038	-70.53
200.258	-119.34
200.479	-54.02
200.699	-27.74
200.919	22.29
201.14	-1.5
201.36	-0.12
201.58	19.87
201.801	28.96
202.021	-16.96
202.241	-15.11
202.461	-26.09
202.682	-129.35
202.902	-183.64
203.122	-68.2
203.342	-45.79
203.563	7.51
203.783	33.84
204.003	10.48
204.223	-33.37
204.443	7.1
204.663	-73.8
204.884	-44.73
205.104	-4.32
205.324	22.63
205.544	28.72
205.764	68.71
205.984	51.44
206.204	46.01
206.424	31.04
206.644	-19.09
206.864	-5.63
207.084	-51.34
207.304	-18.2
207.525	-36.87
207.745	20.64
207.964	25.09
208.184	-0.73
208.404	-60.8
208.624	-76.01
208.844	-64.82
209.064	-347.24
209.284	-391.97
209.504	-172.98
209.724	-42.04
209.944	-35.12
210.164	2.13
210.384	19.91
210.604	12.22
210.823	-23.08
211.043	-39.86
211.263	-14.8
211.483	-2.09
211.703	-22.93
211.922	7.33
212.142	49.5
212.362	62.01
212.582	39.44
212.801	20.61
213.021	-12.69
213.241	-40.93
213.461	-64.32
213.68	-62.55
213.9	-36.74
214.12	-16.55
214.339	-47.54
214.559	-40.85
214.779	-20.98
214.998	-20.49
215.218	-57.43
215.438	-40.97
215.657	-42.24
215.877	-41.75
216.096	-30.27
216.316	-13.69
216.535	-6.64
216.755	-4.4
216.974	-71.55
217.194	-111.4
217.413	-90.98
217.633	-136.5
217.852	-248.37
218.072	-123.73
218.291	-69.67
218.511	-38.6
218.73	-49.58
218.95	-37.91
219.169	-39.79
219.389	-76.09
219.608	-61.15
219.827	-39.4
220.047	-28.04
220.266	-18.91
220.485	-20.39
220.705	-21.53
220.924	-32.19
221.143	19.32
221.363	5.12
221.582	26.15
221.801	40.25
222.021	51.53
222.24	-42.04
222.459	30.29
222.678	7.83
222.897	-15.35
223.117	-58.94
223.336	-10.13
223.555	-38.16
223.774	2.73
223.993	-14.04
224.213	19.52
224.432	8.39
224.651	46.4
224.87	11.66
225.089	30.37
225.308	28.33
225.527	27.9
225.746	14.52
225.965	10.53
226.184	-18.48
226.404	7.73
226.623	4.15
226.842	-0.39
227.061	27.09
227.28	31.28
227.499	26.13
227.718	29.17
227.936	32.03
228.155	28.72
228.374	11.73
228.593	9.26
228.812	0.8
229.031	-10.52
229.25	-48.87
229.469	-53.24
229.688	-41.88
229.907	-11.27
230.125	5.46
230.344	19.41
230.563	31.35
230.782	30.36
231.001	-33.8
231.22	-26.91
231.438	-12.08
231.657	-16.05
231.876	-49.89
232.095	3.66
232.313	11.1
232.532	-5.14
232.751	-42.87
232.969	-15
233.188	-71.29
233.407	-33.26
233.625	-20.68
233.844	-13.29
234.063	-9.85
234.281	13.57
234.5	0.54
234.719	11.1
234.937	22.24
235.156	29.7
235.374	19.85
235.593	13.06
235.811	5.71
236.03	6.69
236.249	-34.98
236.467	-7.64
236.686	0.11
236.904	5.28
237.123	-18.07
237.341	-18.51
237.559	-24.35
237.778	-39.62
237.996	-76.57
238.215	-28.13
238.433	-4.11
238.652	-0.91
238.87	-25.03
239.088	-11.66
239.307	-12.17
239.525	-30.59
239.743	-50.43
239.962	-30.86
240.18	-54.14
240.398	-104.26
240.617	-74.89
240.835	-62.55
241.053	-26.98
241.271	24.02
241.49	50.4
241.708	24.15
241.926	10.65
242.144	-16.08
242.363	-36.23
242.581	-66.74
242.799	-45
243.017	-29.55
243.235	-39.93
243.453	-41.53
243.672	-49.12
243.89	-30.4
244.108	-25.82
244.326	-14.58
244.544	-16.29
244.762	-5.52
244.98	-16.32
245.198	-8.17
245.416	-30.43
245.634	-21.33
245.852	-25.76
246.07	-20.95
246.288	-31.33
246.506	-40.15
246.724	-41.55
246.942	-18.27
247.16	1.25
247.378	16.16
247.596	49.76
247.814	54.37
248.032	16.72
248.25	13
248.468	0.63
248.685	3.06
248.903	31.07
249.121	34.7
249.339	12.25
249.557	2.52
249.775	-4.53
249.992	-82.85
250.21	-62.14
250.428	-47.7
250.646	-73.22
250.863	-95.06
251.081	-62.95
251.299	-71.43
251.517	-73.2
251.734	-36.95
251.952	-18.42
252.17	-3.22
252.387	7.87
252.605	-3.47
252.823	6.07
253.04	21.97
253.258	39.87
253.475	29.73
253.693	77.52
253.911	74.05
254.128	73.15
254.346	63.57
254.563	43.08
254.781	8.27
254.998	-8.4
255.216	-20.52
255.433	-4.11
255.651	38.49
255.868	70.46
256.086	69.79
256.303	60.43
256.521	54.7
256.738	24.71
256.956	-16.49
257.173	-36.4
257.39	-46.87
257.608	-99.66
257.825	-9.4
258.043	33.52
258.26	16.02
258.477	52.6
258.695	52.21
258.912	-26.36
259.129	-20.32
259.346	-32.63
259.564	-77.22
259.781	-87.79
259.998	-31.66
260.216	-13.62
260.433	35.09
260.65	25.19
260.867	37.51
261.084	13.31
261.302	-5.67
261.519	-41.92
261.736	-47.49
261.953	-81.81
262.17	-39.49
262.387	-79.09
262.604	-103.53
262.822	-113.64
263.039	-65.86
263.256	-123.82
263.473	-58.81
263.69	-26.89
263.907	12.45
264.124	17
264.341	30.92
264.558	12.28
264.775	29.26
264.992	9.08
265.209	7.38
265.426	16.72
265.643	21.84
265.86	30.25
266.077	30.43
266.294	10.93
266.51	-36.32
266.727	-45.29
266.944	-64.42
267.161	-49.28
267.378	-32.51
267.595	6.55
267.812	3.09
268.028	-3.81
268.245	-6.03
268.462	-29.45
268.679	-39.84
268.896	-4.21
269.112	-15.52
269.329	-5
269.546	3.2
269.763	5.71
269.979	-11.56
270.196	3.35
270.413	-28.43
270.629	-51.79
270.846	-58.71
271.063	-42.52
271.279	-47.86
271.496	-33.43
271.712	3.61
271.929	19.3
272.146	-8.87
272.362	-6.91
272.579	14.14
272.795	11.45
273.012	2.96
273.228	4.91
273.445	-20.09
273.661	-64.99
273.878	-94.93
274.094	-78.36
274.311	-99.66
274.527	-33.42
274.744	-25.75
274.96	-20.16
275.177	-14.42
275.393	3.32
275.609	-1.18
275.826	19.8
276.042	21.02
276.259	15.24
276.475	26.32
276.691	33.88
276.908	8.86
277.124	19.29
277.34	12.64
277.557	-5.78
277.773	-23.6
277.989	-16.76
278.205	-15.19
278.422	5.18
278.638	11.73
278.854	43.97
279.07	46.36
279.286	26.65
279.503	2.75
279.719	-20.09
279.935	-65.31
280.151	-82.06
280.367	-58.48
280.583	-85.39
280.799	-45.54
281.016	-73.36
281.232	-21.9
281.448	-13.67
281.664	17.31
281.88	-22
282.096	6.28
282.312	1.05
282.528	23.58
282.744	14.1
282.96	17.82
283.176	18.04
283.392	8.46
283.608	-8.92
283.824	-7.93
284.04	9.56
284.256	8.96
284.471	4.92
284.687	8.91
284.903	38.22
285.119	41.34
285.335	18.93
285.551	14.15
285.767	5.09
285.982	-12.63
286.198	-38.8
286.414	17.92
286.63	33.57
286.846	49.76
287.061	16.11
287.277	46.51
287.493	14.39
287.709	22.65
287.924	-1.06
288.14	36.14
288.356	20.24
288.571	49.4
288.787	36.19
289.003	31.69
289.218	12.53
289.434	-20.37
289.65	-21.05
289.865	-34.1
290.081	-9.69
290.296	-12.96
290.512	-0.47
290.727	-33.62
290.943	-38.94
291.159	-53.41
291.374	-38.14
291.59	-52.84
291.805	-40.63
292.021	-18.99
292.236	-2.64
292.451	-3.01
292.667	16.67
292.882	37.07
293.098	26.97
293.313	-10.53
293.529	-25.74
293.744	-52.23
293.959	-54.06
294.175	-43.28
294.39	2.64
294.605	20.85
294.821	40.56
295.036	46.69
295.251	56.72
295.467	17.41
295.682	9.03
295.897	-54.5
296.112	-68.41
296.328	-71.84
296.543	-59.89
296.758	-60.55
296.973	4.82
297.188	28.9
297.404	-8.06
297.619	-15.37
297.834	-30.22
298.049	-51.25
298.264	-62.06
298.479	1.15
298.694	10.33
298.909	26.27
299.125	28.77
299.34	28.67
299.555	7.13
299.77	12.13
299.985	-25.92
300.2	-72.25
300.415	-96.4
300.63	-71
300.845	-77.15
301.06	-69.37
301.275	-42.63
301.49	-14.52
301.704	-13.68
301.919	-18.42
302.134	-20.53
302.349	-9.82
302.564	-69.4
302.779	-82.64
302.994	-75.86
303.209	-52.22
303.423	-44.99
303.638	25.86
303.853	-6.04
304.068	-9.14
304.283	-1.54
304.497	-3.25
304.712	-18.2
304.927	-2.38
305.142	-6.1
305.356	-7.18
305.571	-11.55
305.786	-27.81
306	-41.18
306.215	-41.79
306.43	-75.08
306.644	-76.51
306.859	-32.04
307.074	-13.18
307.288	-50.33
307.503	-47.83
307.717	-50.57
307.932	-47.6
308.147	-53.15
308.361	-15.59
308.576	-26.14
308.79	-56.98
309.005	-51.77
309.219	-32.86
309.434	-34.49
309.648	-12.02
309.863	18.51
310.077	21.96
310.292	10.94
310.506	5.3
310.72	3.18
310.935	4.6
311.149	-1.65
311.364	9
311.578	14.82
311.792	8.31
312.007	7.98
312.221	2.7
312.435	9.79
312.649	2.67
312.864	11.7
313.078	12.58
313.292	60.4
313.507	6.97
313.721	41.38
313.935	38.58
314.149	40
314.363	16.41
314.578	28.33
314.792	12.88
315.006	-10.7
315.22	1.84
315.434	-3.03
315.648	6.66
315.862	15.9
316.077	37.21
316.291	28.32
316.505	38.69
316.719	49.3
316.933	-4.25
317.147	-23.48
317.361	-69.78
317.575	-88.3
317.789	-132.71
318.003	-166.75
318.217	-137.35
318.431	-40.42
318.645	3.62
318.859	16.19
319.073	40.74
319.287	28.2
319.5	-11.03
319.714	-39.61
319.928	-58.43
320.142	-72.69
320.356	-19.31
320.57	37.09
320.784	20.73
320.997	-10.67
321.211	-26.27
321.425	-69.34
321.639	-109.89
321.853	-55.64
322.066	-35.04
322.28	-24.99
322.494	-18.7
322.707	-4.66
322.921	-22.93
323.135	-19.72
323.349	-22.6
323.562	-33.81
323.776	-41.46
323.989	-18.05
324.203	-33.55
324.417	-41.07
324.63	-47.7
324.844	-48.5
325.057	-55.55
325.271	-24.31
325.485	2.39
325.698	16.7
325.912	28.6
326.125	5.84
326.339	4.04
326.552	-17.94
326.766	-11.79
326.979	-0.84
327.193	42.98
327.406	31.79
327.619	29.51
327.833	39.16
328.046	9.98
328.26	-30.95
328.473	-8.03
328.686	-40.19
328.9	-55.62
329.113	-19.48
329.326	-35.1
329.54	-22.75
329.753	-27.11
329.966	-31.72
330.179	-27.02
330.393	-18.01
330.606	-32.6
330.819	4.57
331.032	16.19
331.246	12.12
331.459	33.58
331.672	37.63
331.885	21.63
332.098	-1.57
332.311	-14.71
332.525	-64.89
332.738	-47.08
332.951	-11.19
333.164	13.28
333.377	24.56
333.59	42.43
333.803	48.26
334.016	34.1
334.229	33.92
334.442	39.57
334.655	57.66
334.868	41.44
335.081	24.1
335.294	17.19
335.507	-6.12
335.72	-27.27
335.933	-49.74
336.146	-47.43
336.359	-41.49
336.572	-51.32
336.785	-50.52
336.997	-28.94
337.21	-17.88
337.423	-28.82
337.636	-16.24
337.849	-2.23
338.062	-23.85
338.274	-4.44
338.487	-4.38
338.7	-11.74
338.913	-49.55
339.125	-47.74
339.338	-107.16
339.551	-98.21
339.763	-61.83
339.976	-32.29
340.189	-12.65
340.402	5.44
340.614	7.89
340.827	0.27
341.039	-13.44
341.252	-9.99
341.465	-4.76
341.677	-15.07
341.89	-58.39
342.102	-27.85
342.315	-50.56
342.527	-95.67
342.74	-76.24
342.952	-26.47
343.165	-21.01
343.377	13.6
343.59	23.76
343.802	25.75
344.015	25.33
344.227	22.22
344.44	2.46
344.652	-5.78
344.864	-9.24
345.077	13.32
345.289	18.13
345.502	19.04
345.714	15.96
345.926	26.99
346.139	8.36
346.351	12.13
346.563	24.15
346.775	43.05
346.988	29.98
347.2	20.97
347.412	-27.13
347.624	-52.66
347.837	-94.97
348.049	-72.58
348.261	-26.52
348.473	-8.63
348.685	-10.28
348.897	1.34
349.11	-30.55
349.322	-52.88
349.534	-24.41
349.746	-6.2
349.958	-7.86
350.17	16.15
350.382	25.56
350.594	15.9
350.806	11.72
351.018	11.57
351.23	5.58
351.442	-30.69
351.654	-37.49
351.866	-35.47
352.078	-29.39
352.29	-18.52
352.502	5.47
352.714	11.49
352.926	1.86
353.138	0.08
353.35	-2.72
353.561	-16.83
353.773	-23.9
353.985	-5.94
354.197	-1.68
354.409	-3.68
354.621	0.82
354.832	1.07
355.044	-5.33
355.256	-16.47
355.468	-11.09
355.679	-20.78
355.891	-14.24
356.103	-36.45
356.314	-25.63
356.526	-27.25
356.738	-7.83
356.949	-12.42
357.161	2.78
357.373	-5.37
357.584	-8.19
357.796	-7.37
358.008	-11.2
358.219	-0.99
358.431	0.63
358.642	6.52
358.854	13.06
359.065	4.7
359.277	-12.67
359.488	-12.29
359.7	-29.09
359.911	-57.54
360.123	-33.82
360.334	-48.12
360.546	-59.01
360.757	-52.16
360.969	-35.97
361.18	-40.01
361.391	-12.4
361.603	-24.85
361.814	-15.12
362.025	-24.43
362.237	-27.16
362.448	-11.86
362.659	7
362.871	0.37
363.082	3.09
363.293	2.5
363.504	-16.58
363.716	-45.13
363.927	-63.22
364.138	-70.52
364.349	-85.04
364.56	-56.11
364.772	-32.56
364.983	-7.17
365.194	0.45
365.405	16.58
365.616	21.84
365.827	21.01
366.038	-1.15
366.25	-10.63
366.461	-44.59
366.672	-33.86
366.883	-17.87
367.094	-0.69
367.305	-11.05
367.516	-0.96
367.727	-30.02
367.938	-45.78
368.149	-45.58
368.36	-24.37
368.571	-23.17
368.781	-29.34
368.992	-36.77
369.203	-56.46
369.414	-78.21
369.625	-72.86
369.836	-54.21
370.047	-92.46
370.258	-65.16
370.468	-54.99
370.679	-65.32
370.89	-58.93
371.101	-20.38
371.312	-24.25
371.522	-19.35
371.733	-11.69
371.944	-10.89
372.155	-8.18
372.365	-16.61
372.576	-24.23
372.787	-30.96
372.997	-51.39
373.208	-53.84
373.419	-23.58
373.629	-38.86
373.84	-43.83
374.05	-41.1
374.261	-32.34
374.472	-57.28
374.682	-15.91
374.893	-4.54
375.103	20.55
375.314	21.54
375.524	26.05
375.735	28.4
375.945	28.95
376.156	3.77
376.366	4.77
376.577	4.76
376.787	-10.61
376.997	-16.02
377.208	-4.54
377.418	-15.9
377.629	-6.19
377.839	-3.88
378.049	-8.46
378.26	6.8
378.47	8.25
378.68	-1.35
378.89	-8.19
379.101	-3.24
379.311	-39.28
379.521	-59.96
379.732	-59.07
379.942	-52.81
380.152	-75.35
380.362	-39.71
380.572	-32.38
380.783	-25.29
380.993	-12.21
381.203	-3.93
381.413	4.34
381.623	22.92
381.833	23.78
382.043	11.76
382.253	13.42
382.463	12.53
382.674	1.37
382.884	-17.91
383.094	-11.19
383.304	-7.87
383.514	-7.02
383.724	2.63
383.934	2.35
384.144	-12.75
384.353	-17.23
384.563	-24.43
384.773	-24.38
384.983	-29.12
385.193	-9.84
385.403	-5.48
385.613	1.04
385.823	-9.53
386.033	-0.31
386.242	-3.33
386.452	-6.35
386.662	-17.92
386.872	-2.62
387.082	-2.96
387.291	-7.83
387.501	-7.68
387.711	2.1
387.921	-7.14
388.13	-10.65
388.34	-0.83
388.55	-3.9
388.759	-5.86
388.969	-0.83
389.179	-1.3
389.388	-6.75
389.598	-1.5
389.807	-7.68
390.017	-12.23
390.227	-11.83
390.436	-10.32
390.646	-9.86
390.855	-6.88
391.065	-6.13
391.274	-7.09
391.484	-10.19
391.693	-9.49
391.903	-5.9
392.112	-0.73
392.322	2.74
392.531	7.8
392.74	7.35
392.95	2.58
393.159	0.69
393.369	-2.11
393.578	-4.5
393.787	-4.86
393.997	-1.71
394.206	-2.78
394.415	-1.78
394.625	-1.41
394.834	-1.83
395.043	-1.41
395.252	-0.17
395.462	2.37
395.671	3.91
395.88	2.99
396.089	3.81
396.298	3.19
396.508	1.95
396.717	0.43
396.926	1.75
397.135	0.21
397.344	-0.48
397.553	0.78
397.762	2.51
397.971	2.81
398.181	2.89
398.39	3.45
398.599	2.42
398.808	1.95
399.017	1.98
399.226	3
399.435	3.62
399.644	3.66
399.853	2.61
400.062	2.3
400.27	1.84
400.479	1.5
400.688	0.98
400.897	1.32
401.106	1.32
401.315	1.19
401.524	1.01
401.733	1.82
401.941	2.17
402.15	2.39
402.359	2.47
402.568	2.95
402.777	2.81
402.985	2.87
403.194	2.58
403.403	2.45
403.612	2.07
403.82	1.99
404.029	1.99
404.238	1.97
404.446	2.22
404.655	1.92
404.864	1.77
405.072	1.55
405.281	1.67
405.489	1.29
405.698	1.47
405.906	1.33
406.115	1.28
406.324	1.28
406.532	1.53
406.741	1.66
406.949	1.71
407.158	1.64
407.366	1.79
407.574	1.67
407.783	1.72
407.991	1.64
408.2	1.93
408.408	1.78
408.617	1.81
408.825	1.61
409.033	1.72
409.242	1.72
409.45	1.73
409.658	1.63
409.867	1.78
410.075	1.7
410.283	1.45
410.491	1.41
410.7	1.36
410.908	1.32
411.116	1.54
411.324	1.59
411.533	1.51
411.741	1.76
411.949	1.74
412.157	1.53
412.365	1.58
412.573	1.67
412.781	1.53
412.99	1.41
413.198	1.66
413.406	1.7
413.614	1.69
413.822	1.62
414.03	1.67
414.238	1.38
414.446	1.37
414.654	1.15
414.862	1.23
415.07	1.34
415.278	1.46
415.486	1.28
415.694	1.51
415.902	1.48
416.109	1.36
416.317	1.38
416.525	1.36
416.733	1.38
416.941	1.62
417.149	1.57
417.357	1.62
417.564	1.78
417.772	1.85
417.98	1.68
418.188	1.68
418.395	1.79
418.603	1.89
418.811	1.52
419.019	1.49
419.226	1.66
419.434	1.61
419.642	1.41
419.849	1.64
420.057	1.69
420.265	1.65
420.472	1.47
420.68	1.59
420.887	1.53
421.095	1.54
421.302	1.34
421.51	1.63
421.717	1.75
421.925	1.89
422.132	1.74
422.34	1.66
422.547	1.51
422.755	1.3
422.962	1.08
423.17	1.07
423.377	1.28
423.585	1.19
423.792	1.24
423.999	1.27
424.207	1.33
424.414	1.35
424.621	1.29
424.829	1.24
425.036	1.36
425.243	1.45
425.451	1.33
425.658	1.25
425.865	1.45
426.072	1.42
426.28	1.56
426.487	1.52
426.694	1.67
426.901	1.43
427.108	1.32
427.315	1.15
427.523	1.42
427.73	1.41
427.937	1.48
428.144	1.55
428.351	1.51
428.558	1.48
428.765	1.41
428.972	1.39
429.179	1.55
429.386	1.76
429.593	1.62
429.8	1.51
430.007	1.55
430.214	1.54
430.421	1.36
430.628	1.21
430.835	1.19
431.042	1.38
431.249	1.37
431.456	1.39
431.662	1.54
431.869	1.77
432.076	1.69
432.283	1.63
432.49	1.6
432.697	1.65
432.903	1.45
433.11	1.38
433.317	1.41
433.524	1.66
433.73	1.49
433.937	1.65
434.144	1.57
434.35	1.57
434.557	1.29
434.764	1.42
434.97	1.39
435.177	1.52
435.384	1.47
435.59	1.59
435.797	1.77
436.003	1.8
436.21	1.75
436.416	1.92
436.623	1.93
436.829	1.84
437.036	1.97
437.242	1.99
437.449	1.74
437.655	1.8
437.862	1.86
438.068	1.71
438.275	1.78
438.481	2.07
438.687	1.98
438.894	2.02
439.1	2.1
439.307	2.21
439.513	2.09
439.719	2.07
439.926	2.07
440.132	1.87
440.338	1.64
440.544	1.77
440.751	1.66
440.957	1.69
441.163	1.73
441.369	1.85
441.575	1.69
441.782	1.81
441.988	1.64
442.194	1.71
442.4	1.69
442.606	1.97
442.812	2.05
443.018	2.2
443.224	2.3
443.431	2.39
443.637	2.09
443.843	1.94
444.049	1.94
444.255	1.77
444.461	1.73
444.667	1.8
444.873	1.95
445.079	1.86
445.284	1.99
445.49	1.75
445.696	1.56
445.902	1.51
446.108	1.54
446.314	1.53
446.52	1.63
446.726	1.92
446.931	1.91
447.137	1.9
447.343	1.96
447.549	1.93
447.755	1.78
447.96	1.87
448.166	1.79
448.372	1.74
448.578	1.83
448.783	1.84
448.989	1.91
449.195	2.12
449.4	2.13
449.606	2.12
449.812	2.1
450.017	2.06
450.223	1.93
450.428	1.87
450.634	2
450.84	2.13
451.045	2.08
451.251	1.99
451.456	2.25
451.662	2.24
451.867	2.23
452.073	2.21
452.278	2.4
452.483	2.38
452.689	2.32
452.894	2.35
453.1	2.36
453.305	2.31
453.51	2.2
453.716	2.19
453.921	2.12
454.127	2.04
454.332	1.91
454.537	1.84
454.742	1.83
454.948	1.82
455.153	1.94
455.358	2.09
455.563	2.2
455.769	2.28
455.974	2.31
456.179	2.2
456.384	2.18
456.589	2.1
456.795	1.95
457	1.97
457.205	2.18
457.41	2.12
457.615	2.12
457.82	2.2
458.025	2.13
458.23	1.92
458.435	1.92
458.64	1.91
458.845	2.03
459.05	2.06
459.255	2.12
459.46	2.18
459.665	2.17
459.87	2.13
460.075	2.12
460.28	2.17
460.485	2.2
460.69	2.17
460.895	2.03
461.099	1.98
461.304	2.13
