Data from Ofra_PS_T2_2A_2CX10_Reflection_2.txt Node
Date: Wed Jul 21 16:57:23 EDT 2021
User: Adam
Spectrometer: FLMT01687
Trigger mode: 0
Integration Time (sec): 1.100000E0
Scans to average: 2
Electric dark correction enabled: true
Nonlinearity correction enabled: false
Boxcar width: 2
XAxis mode: Wavelengths
Number of Pixels in Spectrum: 3648
>>>>>Begin Spectral Data<<<<<
179.494	507.6
179.716	569.65
179.937	530.75
180.158	495.37
180.38	812.81
180.601	231.22
180.823	64.83
181.044	19.19
181.265	133.46
181.486	34.99
181.708	93.19
181.929	443.88
182.15	-280.99
182.372	67.4
182.593	23.52
182.814	12.65
183.035	59.74
183.257	84.25
183.478	22.66
183.699	38.15
183.92	47.24
184.141	30.85
184.363	-19.89
184.584	31.65
184.805	33.73
185.026	45.66
185.247	32.19
185.468	31.71
185.689	28.14
185.91	25.46
186.132	9.24
186.353	17.1
186.574	65.21
186.795	45.13
187.016	0.49
187.237	6.03
187.458	-5.9
187.679	-28.58
187.9	-4.32
188.121	5.42
188.342	34.66
188.563	71.4
188.784	100.67
189.005	74.63
189.226	96.53
189.447	85.54
189.667	-25.49
189.888	-155.91
190.109	-492.86
190.33	-237.1
190.551	-742.04
190.772	-158.72
190.993	-126.37
191.214	-105.13
191.434	-38.64
191.655	12.33
191.876	-9.33
192.097	-71.07
192.318	-122.03
192.538	-219.5
192.759	-154.33
192.98	-69.98
193.201	-21.41
193.421	6.52
193.642	23.31
193.863	38.25
194.083	34.04
194.304	27.1
194.525	28.98
194.745	29.74
194.966	5.26
195.187	-10.01
195.407	-37.55
195.628	-68.91
195.848	-74.53
196.069	-86.29
196.29	-44.03
196.51	-69.24
196.731	-66.28
196.951	-77.65
197.172	-87.84
197.392	-137.21
197.613	-96.91
197.833	-121.21
198.054	-116.88
198.274	-67.4
198.495	-69.69
198.715	-45
198.936	-64.66
199.156	-54.05
199.377	-125.35
199.597	-112.84
199.817	-104.78
200.038	-29.8
200.258	-52.65
200.479	11.06
200.699	2.92
200.919	34.6
201.14	5.02
201.36	-3.97
201.58	2.49
201.801	38.29
202.021	5.03
202.241	0.7
202.461	-1.06
202.682	-47.04
202.902	-138.63
203.122	-80.49
203.342	-77.71
203.563	-25.26
203.783	10.58
204.003	-3.18
204.223	0.16
204.443	26.06
204.663	-9.95
204.884	-14.28
205.104	41.31
205.324	44.68
205.544	71.75
205.764	78.66
205.984	81.81
206.204	60.76
206.424	54.16
206.644	19.13
206.864	17.03
207.084	-24.26
207.304	-10.27
207.525	-122.34
207.745	-0.28
207.964	30.22
208.184	-17.93
208.404	-71.94
208.624	-51.03
208.844	-79.54
209.064	-344.59
209.284	-252.2
209.504	-66.14
209.724	15.11
209.944	17.4
210.164	54.78
210.384	41.58
210.604	33.32
210.823	-12.41
211.043	-9.76
211.263	-17
211.483	-17.84
211.703	-40.16
211.922	-40.01
212.142	-0.35
212.362	8.89
212.582	-11.53
212.801	-18.64
213.021	-11.23
213.241	-26.56
213.461	-44.94
213.68	-39.78
213.9	-37.06
214.12	-22.26
214.339	-61.19
214.559	-61.14
214.779	-25.02
214.998	1.91
215.218	-27.77
215.438	0.63
215.657	-5.96
215.877	-11.32
216.096	8.27
216.316	18.7
216.535	-3.16
216.755	2.62
216.974	-54.64
217.194	-119.18
217.413	-117.33
217.633	-114.59
217.852	-188.58
218.072	-55.86
218.291	-20.58
218.511	9.84
218.73	-7.12
218.95	-2.47
219.169	-3.75
219.389	-26.6
219.608	-7.68
219.827	14.23
220.047	28.73
220.266	8.84
220.485	15.1
220.705	11.72
220.924	-5.13
221.143	24.31
221.363	10.27
221.582	17.78
221.801	20.16
222.021	34.78
222.24	-13.62
222.459	69.45
222.678	-16.62
222.897	-70.97
223.117	-128.02
223.336	-107.52
223.555	-90.25
223.774	-7.3
223.993	1.39
224.213	39.75
224.432	41.41
224.651	59.47
224.87	20.16
225.089	34.64
225.308	38.29
225.527	53.3
225.746	48.46
225.965	52.3
226.184	28.09
226.404	31.74
226.623	-8.32
226.842	-2.79
227.061	18.41
227.28	33.62
227.499	24.02
227.718	29.44
227.936	24.41
228.155	34.53
228.374	12.35
228.593	19.38
228.812	30.63
229.031	29.14
229.25	-18.64
229.469	-9.31
229.688	-19.39
229.907	13.59
230.125	8.42
230.344	13.23
230.563	18.52
230.782	28.68
231.001	-37.5
231.22	-31.38
231.438	-6.12
231.657	0.66
231.876	-7.65
232.095	34.9
232.313	44.55
232.532	43.32
232.751	28.36
232.969	15.34
233.188	-50.33
233.407	-12.03
233.625	-8.72
233.844	-23.9
234.063	-21.56
234.281	12.6
234.5	2.93
234.719	5.39
234.937	12.7
235.156	19.41
235.374	9.25
235.593	1.74
235.811	-2.29
236.03	13.67
236.249	-0.48
236.467	20.74
236.686	28.17
236.904	40.99
237.123	18.09
237.341	12.08
237.559	10.35
237.778	-9.22
237.996	-22.97
238.215	11.55
238.433	22.17
238.652	28.1
238.87	21.16
239.088	21.12
239.307	19.66
239.525	3.58
239.743	-34.19
239.962	-27.03
240.18	-41.27
240.398	-86.61
240.617	-78.03
240.835	-47.13
241.053	-18.16
241.271	-0.75
241.49	32.52
241.708	31.24
241.926	11.36
242.144	-6.18
242.363	-27.1
242.581	-68.87
242.799	-31.51
243.017	1.1
243.235	-4.24
243.453	11.7
243.672	12.75
243.89	4.04
244.108	-2.74
244.326	8.63
244.544	-4.96
244.762	-2.09
244.98	4.6
245.198	12.77
245.416	-7.53
245.634	-11.15
245.852	-24.12
246.07	-22.49
246.288	-36.28
246.506	-48.64
246.724	-30.45
246.942	-10.58
247.16	18.45
247.378	16.35
247.596	16.37
247.814	27
248.032	8.17
248.25	2.82
248.468	5.07
248.685	12.22
248.903	27.46
249.121	42.59
249.339	15.69
249.557	23.42
249.775	21.75
249.992	-23.88
250.21	-31.23
250.428	-24.93
250.646	-60.72
250.863	-60.4
251.081	-39.14
251.299	-39.85
251.517	-14.48
251.734	6.3
251.952	-14.62
252.17	-14.42
252.387	-9.82
252.605	-12.93
252.823	-7.94
253.04	22.24
253.258	43.32
253.475	42.36
253.693	64.11
253.911	65.14
254.128	56.38
254.346	67.22
254.563	54.62
254.781	33.67
254.998	16.52
255.216	7.21
255.433	-4.86
255.651	37.6
255.868	42.59
256.086	57.07
256.303	51.65
256.521	44.48
256.738	18.61
256.956	-10.67
257.173	-38.45
257.39	-39.14
257.608	-70.22
257.825	-46.74
258.043	-9.96
258.26	-7.53
258.477	23.79
258.695	31.5
258.912	13.95
259.129	13.18
259.346	4.67
259.564	-46.01
259.781	-66.78
259.998	-11.38
260.216	5.62
260.433	33.85
260.65	46.21
260.867	65.04
261.084	51.1
261.302	46.23
261.519	35.35
261.736	11.74
261.953	-21.48
262.17	0.11
262.387	-25.22
262.604	-62.72
262.822	-61.54
263.039	-30.57
263.256	-70.36
263.473	-53.26
263.69	-8.77
263.907	17.22
264.124	-0.62
264.341	-6.14
264.558	-11.04
264.775	-13.18
264.992	-35.49
265.209	-6.51
265.426	10.32
265.643	26.61
265.86	38.59
266.077	44.55
266.294	36.75
266.51	10.3
266.727	-18.49
266.944	-17.28
267.161	-31.32
267.378	-45.29
267.595	-4.71
267.812	-20.96
268.028	-39.86
268.245	-18.23
268.462	-22.09
268.679	-48.43
268.896	-0.43
269.112	10.71
269.329	14.92
269.546	20.68
269.763	31.87
269.979	17.81
270.196	9.63
270.413	-20.98
270.629	-32.83
270.846	-46.65
271.063	-51.37
271.279	-52.63
271.496	-35.82
271.712	3.78
271.929	13.12
272.146	26.49
272.362	10.23
272.579	13.6
272.795	16.6
273.012	16.35
273.228	10.98
273.445	-6.48
273.661	-27.79
273.878	-71.75
274.094	-54.96
274.311	-60.38
274.527	5.49
274.744	13.41
274.96	12.63
275.177	16.43
275.393	27.04
275.609	16.49
275.826	42.64
276.042	50.11
276.259	59.74
276.475	58.74
276.691	50.27
276.908	23.06
277.124	34.04
277.34	21.72
277.557	3.53
277.773	0.71
277.989	7.17
278.205	-10.29
278.422	-0.07
278.638	11.12
278.854	33.15
279.07	18.82
279.286	59.32
279.503	39.83
279.719	34.91
279.935	5.21
280.151	3.55
280.367	-32.34
280.583	-40.63
280.799	-25.53
281.016	-42.32
281.232	-10.84
281.448	-6.71
281.664	18.83
281.88	-10.59
282.096	13.61
282.312	41.45
282.528	58.05
282.744	42.18
282.96	50.66
283.176	39.13
283.392	30.33
283.608	26.25
283.824	27.05
284.04	27.27
284.256	30.26
284.471	15.85
284.687	0.99
284.903	7.86
285.119	17.35
285.335	-1.67
285.551	2.87
285.767	2.79
285.982	-7.19
286.198	-29.34
286.414	29.41
286.63	23.22
286.846	25.19
287.061	10.95
287.277	38.26
287.493	-3.54
287.709	4.4
287.924	6.43
288.14	45.44
288.356	23.56
288.571	51.4
288.787	35.57
289.003	33.94
289.218	11.91
289.434	-12.49
289.65	-17.1
289.865	-25.37
290.081	-6.53
290.296	5.48
290.512	20.2
290.727	-13.17
290.943	-9.07
291.159	-24.58
291.374	-35.35
291.59	-43.16
291.805	-20.94
292.021	-15.7
292.236	-9.2
292.451	25.91
292.667	34.22
292.882	36.09
293.098	56.23
293.313	45.63
293.529	-1.52
293.744	-19.85
293.959	-7.46
294.175	-30.5
294.39	1.73
294.605	12.05
294.821	34.49
295.036	30.68
295.251	47.02
295.467	40.77
295.682	25.34
295.897	-9.11
296.112	-7.16
296.328	-9.26
296.543	-38.72
296.758	-17.46
296.973	10.26
297.188	29.43
297.404	12.26
297.619	2.84
297.834	-2.98
298.049	-17.65
298.264	-36.92
298.479	3.69
298.694	13.63
298.909	22.73
299.125	27.75
299.34	29.27
299.555	13.93
299.77	26.23
299.985	-5.44
300.2	-58.24
300.415	-72.11
300.63	-49.27
300.845	-51.75
301.06	-49.94
301.275	-15
301.49	0.08
301.704	-8.84
301.919	-19.48
302.134	-15.09
302.349	-14.46
302.564	-55.24
302.779	-76.1
302.994	-88.64
303.209	-34.17
303.423	11.57
303.638	48.32
303.853	13.59
304.068	18.81
304.283	-2.07
304.497	-14.34
304.712	-38.58
304.927	-11.87
305.142	-7.22
305.356	12.78
305.571	27.12
305.786	34.82
306	16.58
306.215	13.87
306.43	-9.73
306.644	-27.69
306.859	11.21
307.074	24.09
307.288	6.28
307.503	-17.74
307.717	-12.25
307.932	-21.38
308.147	-20.41
308.361	-8.94
308.576	-7.02
308.79	-41.59
309.005	-30.41
309.219	-13.06
309.434	-12.91
309.648	-3.4
309.863	15.5
310.077	19.47
310.292	20.1
310.506	20.82
310.72	25.16
310.935	20.48
311.149	3.42
311.364	15.1
311.578	32.65
311.792	21.19
312.007	19.06
312.221	9.99
312.435	-1.32
312.649	-21.55
312.864	-53.31
313.078	-32.64
313.292	-2.06
313.507	-30.42
313.721	-42.13
313.935	25.48
314.149	17.16
314.363	20.31
314.578	26.58
314.792	28.55
315.006	19.94
315.22	32.12
315.434	24.94
315.648	24.56
315.862	23.13
316.077	25.01
316.291	-5
316.505	11.27
316.719	8.94
316.933	-18.16
317.147	-50.18
317.361	-82.93
317.575	-110.34
317.789	-140.33
318.003	-210.38
318.217	-140.39
318.431	-37.44
318.645	2.42
318.859	11.83
319.073	41.17
319.287	34.94
319.5	13.64
319.714	-20.14
319.928	-27.01
320.142	-60.71
320.356	-20.15
320.57	0.91
320.784	13.52
320.997	-21.28
321.211	-2.59
321.425	-54.24
321.639	-81.04
321.853	-41.89
322.066	-12.86
322.28	-16.81
322.494	-6.79
322.707	15.29
322.921	-0.44
323.135	4.8
323.349	4.53
323.562	-19.17
323.776	-27.31
323.989	-21.22
324.203	-37.15
324.417	-23.85
324.63	-15.77
324.844	-33.92
325.057	-30.67
325.271	-10.37
325.485	10.54
325.698	19.54
325.912	34.85
326.125	17.92
326.339	11.88
326.552	-13.8
326.766	-3.62
326.979	3.97
327.193	44.63
327.406	37.82
327.619	24.25
327.833	28.24
328.046	7.95
328.26	-20.8
328.473	-7.9
328.686	-2.48
328.9	-9.29
329.113	8.11
329.326	-27.44
329.54	-12.25
329.753	-36.16
329.966	-49.18
330.179	-44.74
330.393	-10.44
330.606	-16.19
330.819	14.06
331.032	27.31
331.246	30.16
331.459	49.73
331.672	51.5
331.885	39.46
332.098	26.38
332.311	9.23
332.525	-39.05
332.738	-49.69
332.951	-18.42
333.164	-3.42
333.377	19.61
333.59	35.98
333.803	45.54
334.016	31.83
334.229	28.63
334.442	27.88
334.655	34.96
334.868	25.38
335.081	12.08
335.294	22.61
335.507	23.55
335.72	12.8
335.933	0.43
336.146	5.04
336.359	-16.11
336.572	-53.39
336.785	-68.98
336.997	-52.9
337.21	-28.87
337.423	-13.86
337.636	1.32
337.849	23.97
338.062	6.51
338.274	4.29
338.487	-6.66
338.7	-8.76
338.913	-36.83
339.125	-35.05
339.338	-91.54
339.551	-71.39
339.763	-50.51
339.976	-46.19
340.189	-16.48
340.402	2.37
340.614	-0.6
340.827	6.47
341.039	6.88
341.252	8.9
341.465	14.82
341.677	15.09
341.89	-13.53
342.102	17.46
342.315	6.27
342.527	-4.37
342.74	1.74
342.952	18.8
343.165	-2.11
343.377	12.49
343.59	15.23
343.802	9.54
344.015	6.01
344.227	19.32
344.44	13.12
344.652	8.36
344.864	10.19
345.077	32.2
345.289	29.37
345.502	20.19
345.714	23.71
345.926	32.59
346.139	21.86
346.351	23.18
346.563	32.24
346.775	42.13
346.988	23.87
347.2	14.3
347.412	-33.14
347.624	-40.42
347.837	-74.72
348.049	-45.52
348.261	-26.97
348.473	-0.28
348.685	-4.92
348.897	-9.87
349.11	-20.13
349.322	-44.39
349.534	-29.72
349.746	-12.37
349.958	8.12
350.17	0.8
350.382	18.09
350.594	7.72
350.806	23.48
351.018	14.62
351.23	20.07
351.442	-0.85
351.654	10.63
351.866	-7.96
352.078	-16.56
352.29	-6.18
352.502	17.73
352.714	31.58
352.926	30.01
353.138	37.1
353.35	24.65
353.561	22.14
353.773	-1.26
353.985	5.85
354.197	0.75
354.409	3.57
354.621	-10.16
354.832	5.11
355.044	-6.15
355.256	6.14
355.468	17.49
355.679	32.57
355.891	31.49
356.103	25.76
356.314	22.48
356.526	17.67
356.738	0.45
356.949	-14.76
357.161	13.24
357.373	5.56
357.584	-3.99
357.796	13.06
358.008	12.29
358.219	1.83
358.431	1.96
358.642	3.22
358.854	-13.18
359.065	-20.98
359.277	-31.28
359.488	-33.1
359.7	-39.24
359.911	-39.67
360.123	-13.46
360.334	-12.67
360.546	-23.6
360.757	-18.15
360.969	-13.44
361.18	1.38
361.391	23.43
361.603	15
361.814	18.27
362.025	12.44
362.237	-8.27
362.448	-7.78
362.659	13.3
362.871	4.32
363.082	20.31
363.293	23.39
363.504	-3.55
363.716	-22.87
363.927	-17.12
364.138	-54.75
364.349	-60.06
364.56	-39.15
364.772	-37.59
364.983	-18.24
365.194	2.04
365.405	17.57
365.616	31.63
365.827	52.78
366.038	36.4
366.25	19.6
366.461	-22.57
366.672	-1.11
366.883	-4.42
367.094	6.67
367.305	9.25
367.516	28.31
367.727	-3.76
367.938	-6.29
368.149	-9.95
368.36	1.03
368.571	6.82
368.781	7.78
368.992	-13.1
369.203	-24.56
369.414	-39.34
369.625	-54.6
369.836	-44.6
370.047	-57.7
370.258	-35.2
370.468	-33.72
370.679	-43.44
370.89	-45
371.101	-25.59
371.312	-28.09
371.522	-26.06
371.733	-16.38
371.944	-7.83
372.155	4.07
372.365	-11.45
372.576	-17.68
372.787	-25.86
372.997	-48.32
373.208	-49.66
373.419	-20.93
373.629	-40.1
373.84	-30.38
374.05	-31.46
374.261	-34.23
374.472	-52.11
374.682	-3.43
374.893	1.52
375.103	41.76
375.314	51.21
375.524	56.7
375.735	44.99
375.945	42.83
376.156	16.85
376.366	8.54
376.577	5.08
376.787	6.56
376.997	15.29
377.208	8.14
377.418	-3.96
377.629	0.53
377.839	-0.64
378.049	-7.25
378.26	2.89
378.47	18.1
378.68	10.17
378.89	5.62
379.101	1.12
379.311	-17.62
379.521	-40.49
379.732	-26.59
379.942	-23.71
380.152	-35.93
380.362	-8.54
380.572	-6.84
380.783	-0.71
380.993	5.04
381.203	14.15
381.413	28.48
381.623	22.77
381.833	26.05
382.043	18.43
382.253	16.01
382.463	4.11
382.674	4.77
382.884	-11.58
383.094	-9.73
383.304	-3.3
383.514	7.98
383.724	17.19
383.934	12.42
384.144	7.68
384.353	-1.59
384.563	-8.33
384.773	-1.79
384.983	-0.67
385.193	13.86
385.403	20.4
385.613	17.49
385.823	7.35
386.033	11.63
386.242	1.3
386.452	-6.15
386.662	-9.2
386.872	0.03
387.082	-5.68
387.291	-8.66
387.501	-4.71
387.711	-7.2
387.921	-11.6
388.13	-5.63
388.34	4.01
388.55	-3.09
388.759	-0.64
388.969	2.05
389.179	0.62
389.388	-1.39
389.598	6.24
389.807	-1.23
390.017	-4.24
390.227	-5.76
390.436	-6.8
390.646	-5.16
390.855	0.32
391.065	1.04
391.274	1.94
391.484	2.69
391.693	2.81
391.903	4.93
392.112	8.71
392.322	9.32
392.531	12.32
392.74	12.1
392.95	7.16
393.159	3.99
393.369	5.27
393.578	1.91
393.787	0.96
393.997	4.48
394.206	4.03
394.415	1.66
394.625	2.32
394.834	1.81
395.043	1.29
395.252	2.66
395.462	4.37
395.671	4.69
395.88	5.57
396.089	6.57
396.298	5.17
396.508	5.37
396.717	5.15
396.926	5.24
397.135	4.15
397.344	4.59
397.553	4.58
397.762	5.48
397.971	5.55
398.181	5.76
398.39	5.68
398.599	6.04
398.808	6.11
399.017	6.2
399.226	7.19
399.435	8
399.644	8.11
399.853	7.02
400.062	6.9
400.27	6.19
400.479	5.63
400.688	4.8
400.897	5.16
401.106	5.1
401.315	5.31
401.524	5.28
401.733	5.79
401.941	6.21
402.15	6.26
402.359	6.18
402.568	6.58
402.777	6.78
402.985	6.41
403.194	6.61
403.403	6.64
403.612	6.27
403.82	6.04
404.029	6.09
404.238	5.81
404.446	5.78
404.655	5.74
404.864	5.53
405.072	5.37
405.281	5.44
405.489	5.41
405.698	5.22
405.906	5.33
406.115	5.41
406.324	5.41
406.532	5.56
406.741	6.02
406.949	6.04
407.158	6.14
407.366	6.17
407.574	6
407.783	5.89
407.991	5.76
408.2	5.73
408.408	5.72
408.617	5.67
408.825	5.48
409.033	5.59
409.242	5.52
409.45	5.53
409.658	5.36
409.867	5.55
410.075	5.4
410.283	5.43
410.491	5.31
410.7	5.39
410.908	5.32
411.116	5.6
411.324	5.56
411.533	5.56
411.741	5.69
411.949	5.66
412.157	5.43
412.365	5.41
412.573	5.4
412.781	5.35
412.99	5.28
413.198	5.42
413.406	5.32
413.614	5.33
413.822	5.24
414.03	5.14
414.238	5.01
414.446	5.03
414.654	4.84
414.862	4.9
415.07	5.03
415.278	5.11
415.486	5.08
415.694	5.2
415.902	5.04
416.109	4.91
416.317	4.82
416.525	4.68
416.733	4.67
416.941	4.89
417.149	4.87
417.357	4.9
417.564	5.11
417.772	5.26
417.98	5.12
418.188	5.09
418.395	5.07
418.603	5.11
418.811	4.71
419.019	4.62
419.226	4.85
419.434	4.98
419.642	4.82
419.849	5.05
420.057	5.08
420.265	4.99
420.472	4.75
420.68	4.75
420.887	4.62
421.095	4.63
421.302	4.53
421.51	4.69
421.717	4.7
421.925	4.84
422.132	4.79
422.34	4.51
422.547	4.36
422.755	4.3
422.962	4.14
423.17	4.14
423.377	4.31
423.585	4.28
423.792	4.35
423.999	4.41
424.207	4.36
424.414	4.52
424.621	4.58
424.829	4.48
425.036	4.53
425.243	4.61
425.451	4.37
425.658	4.14
425.865	4.29
426.072	4.38
426.28	4.54
426.487	4.56
426.694	4.64
426.901	4.51
427.108	4.39
427.315	4.26
427.523	4.52
427.73	4.56
427.937	4.54
428.144	4.5
428.351	4.44
428.558	4.41
428.765	4.44
428.972	4.48
429.179	4.59
429.386	4.81
429.593	4.67
429.8	4.64
430.007	4.79
430.214	4.91
430.421	4.64
430.628	4.61
430.835	4.59
431.042	4.59
431.249	4.63
431.456	4.82
431.662	5.03
431.869	5.25
432.076	5.35
432.283	5.28
432.49	5.31
432.697	5.35
432.903	5.15
433.11	5.12
433.317	5.22
433.524	5.37
433.73	5.41
433.937	5.71
434.144	5.66
434.35	5.66
434.557	5.59
434.764	5.51
434.97	5.38
435.177	5.66
435.384	5.53
435.59	5.71
435.797	5.95
436.003	6
436.21	5.88
436.416	6.07
436.623	5.93
436.829	5.91
437.036	5.94
437.242	5.97
437.449	5.93
437.655	6.05
437.862	6.09
438.068	6.17
438.275	6.27
438.481	6.58
438.687	6.6
438.894	6.62
439.1	6.62
439.307	6.67
439.513	6.55
439.719	6.42
439.926	6.59
440.132	6.74
440.338	6.66
440.544	6.78
440.751	6.91
440.957	6.78
441.163	6.72
441.369	6.96
441.575	6.69
441.782	6.66
441.988	6.65
442.194	6.62
442.4	6.54
442.606	7.01
442.812	7.2
443.018	7.24
443.224	7.28
443.431	7.36
443.637	7.09
443.843	6.97
444.049	7.02
444.255	7
444.461	7.06
444.667	7.05
444.873	7.22
445.079	7.24
445.284	7.39
445.49	7.17
445.696	7.1
445.902	6.93
446.108	6.97
446.314	6.88
446.52	7.03
446.726	7.28
446.931	7.42
447.137	7.45
447.343	7.54
447.549	7.47
447.755	7.38
447.96	7.44
448.166	7.4
448.372	7.37
448.578	7.5
448.783	7.43
448.989	7.55
449.195	7.75
449.4	7.75
449.606	7.65
449.812	7.69
450.017	7.64
450.223	7.5
450.428	7.5
450.634	7.7
450.84	7.86
451.045	7.82
451.251	7.75
451.456	8.02
451.662	8.04
451.867	8.1
452.073	8.12
452.278	8.22
452.483	8.23
452.689	8.14
452.894	8.13
453.1	8.14
453.305	8.21
453.51	8.14
453.716	8.14
453.921	8.13
454.127	8.06
454.332	8.01
454.537	7.96
454.742	7.97
454.948	8
455.153	8.08
455.358	8.12
455.563	8.24
455.769	8.32
455.974	8.27
456.179	8.17
456.384	8.1
456.589	8.1
456.795	7.96
457	8
457.205	8.18
457.41	8.31
457.615	8.31
457.82	8.39
458.025	8.37
458.23	8.37
458.435	8.26
458.64	8.11
458.845	8.29
459.05	8.31
459.255	8.32
459.46	8.35
459.665	8.45
459.87	8.42
460.075	8.45
460.28	8.5
460.485	8.7
460.69	8.78
460.895	8.62
461.099	8.62
461.304	8.69
461.509	8.55
461.714	8.46
461.919	8.71
462.123	8.64
462.328	8.65
462.533	8.67
462.738	8.82
462.942	8.68
463.147	8.81
463.352	8.79
463.556	8.89
463.761	8.82
463.966	8.75
464.17	8.84
464.375	8.84
