Data from Ofra_1a_PS_2HS9_Reflection_3.txt Node
Date: Tue Jul 20 10:54:54 EDT 2021
User: Adam
Spectrometer: FLMT01687
Trigger mode: 0
Integration Time (sec): 1.004000E0
Scans to average: 2
Electric dark correction enabled: true
Nonlinearity correction enabled: false
Boxcar width: 2
XAxis mode: Wavelengths
Number of Pixels in Spectrum: 3648
>>>>>Begin Spectral Data<<<<<
179.494	-31.47
179.716	-79.39
179.937	492.98
180.158	-778.34
180.38	124.71
180.601	62.99
180.823	78.39
181.044	10.43
181.265	28.16
181.486	59.4
181.708	18.33
181.929	2818.18
182.15	44.29
182.372	64.04
182.593	83.01
182.814	-91.34
183.035	1.77
183.257	-5.44
183.478	-4.14
183.699	-38.77
183.92	-97.18
184.141	-105.21
184.363	-99.03
184.584	-114.83
184.805	-44.69
185.026	15.83
185.247	22.49
185.468	20.58
185.689	11.83
185.91	-29.17
186.132	-35.72
186.353	-42.28
186.574	-43.78
186.795	-38.89
187.016	-17.72
187.237	-25.37
187.458	-21.24
187.679	-45.5
187.9	-6.67
188.121	16.04
188.342	21.13
188.563	48.38
188.784	61.14
189.005	24.11
189.226	20.03
189.447	0.58
189.667	-19.55
189.888	-32
190.109	-35.53
190.33	-40.19
190.551	-41.2
190.772	-44.51
190.993	-35.23
191.214	-56.51
191.434	-103.44
191.655	-173.69
191.876	-69.99
192.097	-26.11
192.318	1.98
192.538	-27.37
192.759	4.22
192.98	8.11
193.201	-8.43
193.421	-10.78
193.642	13.17
193.863	19.36
194.083	3.4
194.304	5.99
194.525	-9.83
194.745	-17.36
194.966	-19.02
195.187	-11.38
195.407	-32.39
195.628	-8.2
195.848	-6.77
196.069	-5.09
196.29	-21.63
196.51	-22.29
196.731	-28.3
196.951	-35.21
197.172	-52.66
197.392	-57.93
197.613	-21.93
197.833	-27.37
198.054	-38.32
198.274	-19.35
198.495	-1.49
198.715	-20.1
198.936	-9.64
199.156	-14.86
199.377	-21.47
199.597	-3.15
199.817	13.64
200.038	0.9
200.258	28.26
200.479	43.17
200.699	28.15
200.919	1.8
201.14	6.27
201.36	3.54
201.58	-33.46
201.801	-59.81
202.021	-66.28
202.241	-75.33
202.461	-56.59
202.682	-8.76
202.902	-0.8
203.122	19.05
203.342	33.22
203.563	-7.86
203.783	-17.67
204.003	-22.57
204.223	-23.3
204.443	-29.62
204.663	-22.99
204.884	-1.94
205.104	11.16
205.324	11
205.544	-25.98
205.764	20.63
205.984	3.13
206.204	1.67
206.424	-32.44
206.644	-42.36
206.864	-86.18
207.084	-40.17
207.304	-49.81
207.525	-22.39
207.745	12.07
207.964	20.44
208.184	19.77
208.404	22.54
208.624	35.97
208.844	17.25
209.064	18.81
209.284	2.68
209.504	-26.25
209.724	-31.67
209.944	-28.06
210.164	-36.03
210.384	-27.88
210.604	-41.33
210.823	-48.76
211.043	-27.24
211.263	-75.26
211.483	-71.6
211.703	-55.7
211.922	-67.26
212.142	-56.8
212.362	-31.33
212.582	-31.73
212.801	-35.46
213.021	-44.96
213.241	-60.52
213.461	-41.07
213.68	-25.11
213.9	-13.51
214.12	-6.2
214.339	-8.88
214.559	-11.51
214.779	7.96
214.998	11.79
215.218	13.68
215.438	21.14
215.657	3.27
215.877	-19.51
216.096	-6.53
216.316	0.2
216.535	7.5
216.755	11.7
216.974	1.12
217.194	-17.3
217.413	-39
217.633	-69.08
217.852	-46.89
218.072	-32.18
218.291	-30.85
218.511	-15.35
218.73	1.1
218.95	-21.95
219.169	-19.35
219.389	-24.2
219.608	-34.24
219.827	-28.83
220.047	0.22
220.266	-14.05
220.485	-16.2
220.705	-12.56
220.924	-9.57
221.143	-8.21
221.363	12.29
221.582	3.01
221.801	4.96
222.021	14.75
222.24	6.7
222.459	17.95
222.678	28.26
222.897	15.43
223.117	10.01
223.336	17.88
223.555	13.18
223.774	33.68
223.993	53.03
224.213	42.93
224.432	18.67
224.651	12.82
224.87	-0.52
225.089	-6.38
225.308	1.83
225.527	-0.33
225.746	-10.71
225.965	-10.8
226.184	-6.93
226.404	-11.01
226.623	3.12
226.842	1.37
227.061	-0.32
227.28	13.36
227.499	20.54
227.718	19.11
227.936	23.65
228.155	28.27
228.374	12.35
228.593	-0.3
228.812	0.39
229.031	7.97
229.25	-1.27
229.469	12.34
229.688	29.82
229.907	32.82
230.125	24.9
230.344	30.12
230.563	16.85
230.782	-1.15
231.001	-15.69
231.22	-3.82
231.438	-5.02
231.657	1.19
231.876	7.02
232.095	22.46
232.313	-2.36
232.532	-9.95
232.751	-4.01
232.969	-7.76
233.188	-21.86
233.407	3.21
233.625	5.46
233.844	6.25
234.063	10.61
234.281	9.2
234.5	3.72
234.719	-3.38
234.937	-25.84
235.156	-24.69
235.374	-27.25
235.593	-19.11
235.811	-5.01
236.03	14.17
236.249	19.59
236.467	26.35
236.686	22.01
236.904	25.39
237.123	7.88
237.341	-14
237.559	-25.6
237.778	-4.42
237.996	-41.63
238.215	-66.43
238.433	-71.59
238.652	-25.43
238.87	-39.66
239.088	-23.97
239.307	-4.41
239.525	1.38
239.743	-10.87
239.962	-32.6
240.18	-19.74
240.398	-24.62
240.617	-32.74
240.835	-37.59
241.053	-19.92
241.271	-30.82
241.49	-7.61
241.708	-5.51
241.926	-11.16
242.144	-8.39
242.363	-22.14
242.581	-90.54
242.799	-85.31
243.017	-52.75
243.235	-34.61
243.453	-34.53
243.672	-9.09
243.89	-15.94
244.108	1.14
244.326	22.95
244.544	42.78
244.762	30.9
244.98	38.15
245.198	32.57
245.416	8.18
245.634	-11.76
245.852	-23.17
246.07	-12.62
246.288	-11.48
246.506	3.83
246.724	6.14
246.942	6.22
247.16	-2.19
247.378	-25.47
247.596	-29.78
247.814	-56.15
248.032	-35.74
248.25	3.88
248.468	13.42
248.685	12.5
248.903	20.51
249.121	24.23
249.339	6.84
249.557	13.19
249.775	10.22
249.992	-3.12
250.21	-8.33
250.428	1.51
250.646	-3.95
250.863	-29.68
251.081	-16.64
251.299	-18.8
251.517	-5.89
251.734	-6.43
251.952	6.73
252.17	-7.16
252.387	-30.18
252.605	-56.45
252.823	-85.35
253.04	-44.17
253.258	-28.99
253.475	-16.87
253.693	-7.33
253.911	-8.66
254.128	-22.29
254.346	-18.47
254.563	0.68
254.781	-3.11
254.998	-17.1
255.216	-40.57
255.433	-56.86
255.651	-42.05
255.868	-36.1
256.086	7.96
256.303	3.68
256.521	23.55
256.738	8.03
256.956	20.39
257.173	1.06
257.39	8
257.608	0.03
257.825	-3.48
258.043	-5.52
258.26	4.55
258.477	2.81
258.695	-1.82
258.912	-1.65
259.129	-17.29
259.346	-50.07
259.564	-22.45
259.781	-27.53
259.998	-17.76
260.216	9.25
260.433	5.67
260.65	-3.41
260.867	10.08
261.084	11.87
261.302	2.82
261.519	39.49
261.736	31.24
261.953	19.95
262.17	38.59
262.387	30.56
262.604	26.78
262.822	34.36
263.039	29.83
263.256	15.32
263.473	17.34
263.69	12.34
263.907	7.98
264.124	12.32
264.341	20.74
264.558	9.28
264.775	2.9
264.992	10.57
265.209	-19.66
265.426	-59.44
265.643	-45.36
265.86	-87.94
266.077	-103.26
266.294	-37.15
266.51	8.36
266.727	17.15
266.944	31.35
267.161	31.24
267.378	38.81
267.595	21.84
267.812	-1.55
268.028	-23.5
268.245	-25.24
268.462	-36.7
268.679	-18.58
268.896	11.49
269.112	7.1
269.329	-7.45
269.546	4.36
269.763	1.31
269.979	-8.61
270.196	11.42
270.413	4.39
270.629	-12.04
270.846	-22.56
271.063	-35.6
271.279	-41.19
271.496	-36.36
271.712	-23.5
271.929	-16.91
272.146	-7.12
272.362	-4.48
272.579	-6.61
272.795	4.87
273.012	23.77
273.228	36.34
273.445	18.92
273.661	35.63
273.878	7.29
274.094	2.49
274.311	-14.33
274.527	-20.65
274.744	-15.17
274.96	3.52
275.177	-14.95
275.393	-3.76
275.609	14.9
275.826	14.7
276.042	6.7
276.259	16.66
276.475	7.38
276.691	-6.48
276.908	-16.75
277.124	-18.27
277.34	-28.11
277.557	-37.76
277.773	-37.94
277.989	-36.22
278.205	-24.96
278.422	-21.1
278.638	5.06
278.854	-5.19
279.07	10.69
279.286	3.03
279.503	10.01
279.719	0.72
279.935	2.82
280.151	-14.36
280.367	-3.09
280.583	-11.54
280.799	-10.88
281.016	-32.89
281.232	-19.43
281.448	-19.8
281.664	-10.42
281.88	-18.06
282.096	0.92
282.312	1.51
282.528	-4.01
282.744	-14.14
282.96	-22.17
283.176	-44.93
283.392	-69.89
283.608	-62.04
283.824	-74
284.04	-110.21
284.256	-56.79
284.471	-42.2
284.687	-25.62
284.903	-10.99
285.119	9.91
285.335	11.35
285.551	13.5
285.767	-2.02
285.982	-6.72
286.198	-16.29
286.414	-23.55
286.63	-11.6
286.846	-2.32
287.061	-13.21
287.277	-27.59
287.493	-41.93
287.709	-57.73
287.924	-40.83
288.14	-13.75
288.356	3.19
288.571	22.78
288.787	8.13
289.003	4.86
289.218	-36.67
289.434	-42.21
289.65	-34.53
289.865	-20.15
290.081	-15.48
290.296	12.75
290.512	7.48
290.727	-9.55
290.943	1.92
291.159	8.84
291.374	-15.14
291.59	-4.78
291.805	-2.77
292.021	-20.38
292.236	-29.96
292.451	-17.11
292.667	-5.25
292.882	8.37
293.098	29.27
293.313	15.26
293.529	10.55
293.744	-1.5
293.959	-9.41
294.175	-17.93
294.39	-34.52
294.605	0.49
294.821	-14.03
295.036	-15.48
295.251	-9.32
295.467	-3.75
295.682	-23.84
295.897	-30
296.112	-38.64
296.328	-29.61
296.543	-30.79
296.758	-33.11
296.973	-17.74
297.188	1.04
297.404	-7.93
297.619	-38.52
297.834	-55.71
298.049	-41.55
298.264	-42.27
298.479	-52.75
298.694	5.85
298.909	20.96
299.125	11.88
299.34	2.12
299.555	9.25
299.77	11.15
299.985	3.27
300.2	14.25
300.415	17.68
300.63	17.69
300.845	3.63
301.06	8.37
301.275	-2.64
301.49	1.94
301.704	3.11
301.919	-4.73
302.134	-11.06
302.349	3.4
302.564	1.15
302.779	-13.07
302.994	1.48
303.209	14.29
303.423	0.88
303.638	10.72
303.853	-0.58
304.068	-19.05
304.283	-5.98
304.497	-11.68
304.712	-4.23
304.927	-0.67
305.142	4.43
305.356	-4.84
305.571	-9.44
305.786	-15.58
306	6.74
306.215	0.62
306.43	-20.91
306.644	-11.94
306.859	-35.28
307.074	-41.4
307.288	-26.39
307.503	-6.79
307.717	-21.31
307.932	-4.7
308.147	-11
308.361	-8.67
308.576	-26.31
308.79	-0.62
309.005	-19.24
309.219	-5.98
309.434	-7.95
309.648	1.87
309.863	-7.44
310.077	-14.02
310.292	-11.18
310.506	-14.48
310.72	-21.46
310.935	-15.79
311.149	9.47
311.364	7.15
311.578	13.36
311.792	26.13
312.007	21.29
312.221	-6.88
312.435	-6.71
312.649	-4.07
312.864	-12.67
313.078	-1.27
313.292	-2.35
313.507	0.49
313.721	-17.88
313.935	-29.09
314.149	-21.34
314.363	-4.86
314.578	-5.21
314.792	-26.13
315.006	-15.56
315.22	-20.35
315.434	-22.13
315.648	-22.45
315.862	-10.65
316.077	-10.97
316.291	-18.1
316.505	-41.53
316.719	-43.42
316.933	-39.07
317.147	-43.62
317.361	-45.94
317.575	-25.25
317.789	-22.67
318.003	-5.28
318.217	17.42
318.431	23.5
318.645	9.75
318.859	19.15
319.073	16.66
319.287	1.33
319.5	1.99
319.714	-2.22
319.928	-4.25
320.142	-4.75
320.356	19.76
320.57	13.3
320.784	17.53
320.997	-2.29
321.211	1.43
321.425	-34.86
321.639	-13.35
321.853	10.38
322.066	13.15
322.28	7.34
322.494	9.22
322.707	4.18
322.921	-15.84
323.135	-5.67
323.349	-10.77
323.562	-1.89
323.776	0.03
323.989	25.39
324.203	13.93
324.417	14.47
324.63	-1.12
324.844	-14.19
325.057	-59.87
325.271	-57.07
325.485	-47.22
325.698	-13.26
325.912	4.09
326.125	10.04
326.339	18.84
326.552	9.31
326.766	-6.35
326.979	-10.46
327.193	-1.06
327.406	-5.45
327.619	-0.3
327.833	-4.27
328.046	-1.57
328.26	-11.93
328.473	-1.88
328.686	3
328.9	12.79
329.113	21.29
329.326	21.72
329.54	19.66
329.753	28.31
329.966	22.09
330.179	12.41
330.393	17.09
330.606	2.37
330.819	-16.54
331.032	-7.16
331.246	5.54
331.459	6.7
331.672	19.89
331.885	23.56
332.098	25.26
332.311	11.44
332.525	8.07
332.738	9.02
332.951	1.36
333.164	4.15
333.377	8.17
333.59	-2.13
333.803	-13.87
334.016	-4.63
334.229	0.18
334.442	-17.37
334.655	-0.73
334.868	-9.87
335.081	-11.52
335.294	-25.68
335.507	-6.42
335.72	-15.3
335.933	-8.36
336.146	-14.58
336.359	-5.67
336.572	-6.6
336.785	-16.88
336.997	-15.07
337.21	8.55
337.423	-18.35
337.636	-21.96
337.849	-8.2
338.062	3.42
338.274	9.99
338.487	2.14
338.7	-6.62
338.913	4.48
339.125	-23.29
339.338	-39.13
339.551	-27.35
339.763	-18.11
339.976	-28.01
340.189	-17.23
340.402	-1.94
340.614	3.7
340.827	9.01
341.039	14.86
341.252	17.42
341.465	11.62
341.677	9.93
341.89	-2.44
342.102	7.84
342.315	8.23
342.527	3.03
342.74	-5.56
342.952	-7.91
343.165	-16.39
343.377	-23.41
343.59	-19.26
343.802	-11.39
344.015	0.51
344.227	0.55
344.44	-0.28
344.652	4.17
344.864	11.24
345.077	16.64
345.289	16.79
345.502	35.01
345.714	24.68
345.926	11.83
346.139	-0.16
346.351	-1.66
346.563	-2.21
346.775	5.76
346.988	24.93
347.2	29.86
347.412	31.59
347.624	18.02
347.837	24.54
348.049	19.38
348.261	3.28
348.473	-12.57
348.685	-2.76
348.897	-16.45
349.11	-8.89
349.322	10.04
349.534	8.62
349.746	-4.31
349.958	-16.49
350.17	-31.53
350.382	-18.4
350.594	1.9
350.806	17.44
351.018	27.19
351.23	27.57
351.442	25.18
351.654	17.99
351.866	7.9
352.078	21.55
352.29	21.84
352.502	9.98
352.714	18.81
352.926	19.89
353.138	8.32
353.35	-2.91
353.561	-6.95
353.773	-13.73
353.985	-10.94
354.197	-10.22
354.409	-4.45
354.621	-7.93
354.832	-2.25
355.044	-3.73
355.256	-4.01
355.468	-14.37
355.679	4.9
355.891	11.76
356.103	4.4
356.314	-9.99
356.526	-8.72
356.738	-21.06
356.949	-30.7
357.161	-24.5
357.373	-5.56
357.584	4.3
357.796	20.3
358.008	34.14
358.219	35.89
358.431	23.21
358.642	32.55
358.854	24.2
359.065	2.6
359.277	3.8
359.488	14.46
359.7	1.89
359.911	-12.23
360.123	9.75
360.334	6.06
360.546	-3.68
360.757	-0.74
360.969	9.94
361.18	-13.41
361.391	-0.41
361.603	7.49
361.814	13.88
362.025	11.41
362.237	12.08
362.448	12.06
362.659	9.65
362.871	-8.71
363.082	-12.9
363.293	5.81
363.504	-6.97
363.716	-4.36
363.927	16.19
364.138	-6.35
364.349	-27.24
364.56	-54.42
364.772	-47.38
364.983	-43.13
365.194	-19.68
365.405	-15.93
365.616	-3.56
365.827	-13.78
366.038	-10.86
366.25	6.34
366.461	8.46
366.672	10.36
366.883	10.01
367.094	-2.5
367.305	-32.78
367.516	-39.46
367.727	-38.54
367.938	-41.12
368.149	-45.22
368.36	-38.28
368.571	-63.66
368.781	-58.17
368.992	-49.37
369.203	-50.58
369.414	-52.79
369.625	-28.01
369.836	-2.92
370.047	-8.43
370.258	2.24
370.468	3.75
370.679	-5.27
370.89	-30.22
371.101	5.48
371.312	2.22
371.522	2.3
371.733	-3.18
371.944	-18.79
372.155	-31.14
372.365	-28.07
372.576	-34.12
372.787	-13.93
372.997	-2.92
373.208	-8.57
373.419	-19.94
373.629	-18.68
373.84	-27.95
374.05	-34.18
374.261	-56.58
374.472	-47
374.682	-26.94
374.893	-35.14
375.103	2.6
375.314	18.65
375.524	19.94
375.735	13.31
375.945	26.97
376.156	3.12
376.366	-5.7
376.577	-0.87
376.787	4.79
376.997	-0.95
377.208	3.9
377.418	7.74
377.629	7.88
377.839	4.37
378.049	8.97
378.26	1.98
378.47	-6.28
378.68	-4.43
378.89	-7.05
379.101	-6.66
379.311	-1.9
379.521	-1.5
379.732	3.92
379.942	-1.01
380.152	-10.13
380.362	-10.54
380.572	-2.11
380.783	0.31
380.993	6.71
381.203	6.8
381.413	18
381.623	20.23
381.833	14.93
382.043	9.23
382.253	15.63
382.463	10.97
382.674	15.04
382.884	16.31
383.094	20
383.304	17.02
383.514	14.03
383.724	3.83
383.934	-4.69
384.144	-5.95
384.353	-9.39
384.563	-10.24
384.773	-5.87
384.983	-5.68
385.193	-3.89
385.403	-3.45
385.613	1.22
385.823	-3.23
386.033	0.79
386.242	-3.26
386.452	-2.23
386.662	-9.39
386.872	-1.64
387.082	-5.75
387.291	-5.82
387.501	-5.18
387.711	0.37
387.921	-3.31
388.13	-1.88
388.34	-0.87
388.55	-4.17
388.759	-14.11
388.969	-15.01
389.179	-11.96
389.388	-14.88
389.598	-12.9
389.807	-11.17
390.017	-11.46
390.227	-12.71
390.436	-8.61
390.646	-6.99
390.855	-3.34
391.065	-3.44
391.274	-3.73
391.484	-3.44
391.693	-3.65
391.903	-4.95
392.112	-2.84
392.322	-2.78
392.531	-4.12
392.74	-3.5
392.95	-1.69
393.159	-2.73
393.369	-0.62
393.578	-0.93
393.787	-0.62
393.997	-0.61
394.206	-0.73
394.415	-1.17
394.625	-0.28
394.834	-1.95
395.043	-2.43
395.252	-0.01
395.462	0.22
395.671	0.84
395.88	2.23
396.089	1.7
396.298	0.65
396.508	0.75
396.717	0.03
396.926	-0.4
397.135	-0.03
397.344	-0.17
397.553	-0.12
397.762	1.78
397.971	2.13
398.181	2.58
398.39	2.66
398.599	2.7
398.808	1.81
399.017	2.59
399.226	2.86
399.435	2.75
399.644	2.94
399.853	2.81
400.062	2.38
400.27	1.73
400.479	1.97
400.688	1.77
400.897	1.51
401.106	1.48
401.315	1.64
401.524	1.75
401.733	1.49
401.941	1.97
402.15	1.51
402.359	1.79
402.568	1.9
402.777	2.14
402.985	1.77
403.194	2.01
403.403	2.1
403.612	1.87
403.82	1.55
404.029	1.56
404.238	1.67
404.446	1.76
404.655	1.87
404.864	2.23
405.072	2.36
405.281	2.29
405.489	2.12
405.698	2.19
405.906	2.19
406.115	2.24
406.324	2.29
406.532	2.55
406.741	2.48
406.949	2.52
407.158	2.51
407.366	2.34
407.574	2.24
407.783	2.29
407.991	2.17
408.2	2.37
408.408	2.5
408.617	2.39
408.825	2.22
409.033	2.23
409.242	2.18
409.45	2.18
409.658	2.14
409.867	2.16
410.075	2.15
410.283	2.02
410.491	1.95
410.7	1.83
410.908	1.99
411.116	2.13
411.324	2.1
411.533	2.02
411.741	2.08
411.949	2.05
412.157	1.81
412.365	1.86
412.573	1.96
412.781	2.02
412.99	1.95
413.198	2.11
413.406	2.16
413.614	2.25
413.822	2.28
414.03	2.23
414.238	2.17
414.446	2.14
414.654	1.96
414.862	1.86
415.07	1.85
415.278	2.03
415.486	1.82
415.694	1.91
415.902	1.88
416.109	1.75
416.317	1.63
416.525	1.78
416.733	1.8
416.941	2
417.149	2.08
417.357	1.93
417.564	1.96
417.772	1.9
417.98	1.75
418.188	1.67
418.395	1.5
418.603	1.42
418.811	1.46
419.019	1.45
419.226	1.56
419.434	1.75
419.642	1.55
419.849	1.47
420.057	1.41
420.265	1.36
420.472	1.37
420.68	1.59
420.887	1.71
421.095	1.87
421.302	1.89
421.51	1.86
421.717	1.93
421.925	1.95
422.132	1.94
422.34	1.83
422.547	1.83
422.755	1.73
422.962	1.65
423.17	1.45
423.377	1.58
423.585	1.72
423.792	1.68
423.999	1.74
424.207	1.72
424.414	1.68
424.621	1.64
424.829	1.76
425.036	1.67
425.243	1.77
425.451	1.8
425.658	1.74
425.865	1.79
426.072	1.87
426.28	1.96
426.487	1.9
426.694	1.85
426.901	1.81
427.108	1.74
427.315	1.72
427.523	1.7
427.73	1.77
427.937	1.68
428.144	1.58
428.351	1.48
428.558	1.57
428.765	1.43
428.972	1.47
429.179	1.56
429.386	1.72
429.593	1.7
429.8	1.72
430.007	1.77
430.214	1.71
430.421	1.79
430.628	1.84
430.835	1.92
431.042	1.88
431.249	1.97
431.456	1.83
431.662	1.85
431.869	1.98
432.076	2
432.283	2.05
432.49	2
432.697	2
432.903	1.94
433.11	2.01
433.317	2.03
433.524	2.12
433.73	1.94
433.937	1.99
434.144	1.79
434.35	1.64
434.557	1.74
434.764	1.91
434.97	1.86
435.177	2.08
435.384	2.27
435.59	2.21
435.797	2.24
436.003	2.28
436.21	2.09
436.416	2.08
436.623	2.07
436.829	1.96
437.036	1.9
437.242	2.05
437.449	1.92
437.655	2
437.862	2.14
438.068	2.09
438.275	2.22
438.481	2.35
438.687	2.27
438.894	2.34
439.1	2.36
439.307	2.37
439.513	2.36
439.719	2.42
439.926	2.36
440.132	2.43
440.338	2.35
440.544	2.36
440.751	2.28
440.957	2.29
441.163	2.19
441.369	2.23
441.575	2.17
441.782	2.26
441.988	2.28
442.194	2.39
442.4	2.26
442.606	2.41
442.812	2.41
443.018	2.4
443.224	2.46
443.431	2.61
443.637	2.45
443.843	2.45
444.049	2.56
444.255	2.56
444.461	2.5
444.667	2.54
444.873	2.56
445.079	2.41
445.284	2.39
445.49	2.34
445.696	2.3
445.902	2.23
446.108	2.36
446.314	2.33
446.52	2.38
446.726	2.41
446.931	2.47
447.137	2.42
447.343	2.59
447.549	2.62
447.755	2.66
447.96	2.68
448.166	2.72
448.372	2.63
448.578	2.57
448.783	2.64
448.989	2.65
449.195	2.64
449.4	2.69
449.606	2.73
449.812	2.6
450.017	2.74
450.223	2.64
450.428	2.57
450.634	2.65
450.84	2.67
451.045	2.58
451.251	2.67
451.456	2.72
451.662	2.77
451.867	2.83
452.073	2.84
452.278	2.85
452.483	2.83
452.689	2.78
452.894	2.81
453.1	2.73
453.305	2.73
453.51	2.78
453.716	2.76
453.921	2.83
454.127	2.83
454.332	2.81
454.537	2.72
454.742	2.7
454.948	2.63
455.153	2.61
455.358	2.6
455.563	2.77
455.769	2.74
455.974	2.75
456.179	2.74
456.384	2.75
456.589	2.63
456.795	2.65
457	2.65
457.205	2.71
457.41	2.71
457.615	2.71
457.82	2.83
458.025	2.81
458.23	2.81
458.435	2.86
458.64	2.84
458.845	2.78
459.05	2.85
459.255	2.88
459.46	2.84
459.665	2.88
459.87	2.92
460.075	3.03
460.28	3.08
460.485	3.16
460.69	3.21
460.895	3.19
461.099	2.98
461.304	2.88
461.509	2.85
461.714	2.86
461.919	2.79
462.123	2.81
462.328	2.81
462.533	2.7
462.738	2.64
462.942	2.66
463.147	2.63
463.352	2.72
463.556	2.85
463.761	2.9
463.966	2.99
464.17	3.13
464.375	3.16
464.58	3.1
464.784	3.06
464.989	2.94
