Data from Ofra_PS_T2_2A_4HS15_Reflection_1.txt Node
Date: Wed Jul 21 17:13:38 EDT 2021
User: Adam
Spectrometer: FLMT01687
Trigger mode: 0
Integration Time (sec): 1.100000E0
Scans to average: 2
Electric dark correction enabled: true
Nonlinearity correction enabled: false
Boxcar width: 2
XAxis mode: Wavelengths
Number of Pixels in Spectrum: 3648
>>>>>Begin Spectral Data<<<<<
179.494	616
179.716	669.65
179.937	602.02
180.158	516.25
180.38	735.62
180.601	167.96
180.823	62.4
181.044	-27.96
181.265	384.56
181.486	114.48
181.708	131.87
181.929	595.92
182.15	-200
182.372	191.22
182.593	55.05
182.814	34.94
183.035	63.48
183.257	38.61
183.478	-98.51
183.699	-25.61
183.92	-18.87
184.141	17.72
184.363	-20.27
184.584	53.96
184.805	73.2
185.026	88.21
185.247	80.71
185.468	65.03
185.689	61.04
185.91	49.59
186.132	58.09
186.353	50.23
186.574	132.01
186.795	113.97
187.016	66.52
187.237	33.83
187.458	8.01
187.679	-40.95
187.9	-11.94
188.121	6.02
188.342	35.54
188.563	58.96
188.784	97.81
189.005	61.66
189.226	124.19
189.447	111.02
189.667	78.16
189.888	-118.72
190.109	-429.87
190.33	-381.94
190.551	-908.85
190.772	-178.21
190.993	-179.24
191.214	-173.8
191.434	-110.82
191.655	-43.56
191.876	-84.37
192.097	-139.16
192.318	-140.98
192.538	-241.35
192.759	-159.07
192.98	-53.47
193.201	8.13
193.421	-5.3
193.642	6.09
193.863	26.23
194.083	5.79
194.304	-1.62
194.525	16.61
194.745	21.67
194.966	-23.55
195.187	-36.56
195.407	-57.44
195.628	-137.08
195.848	-114.07
196.069	-109.66
196.29	-51.21
196.51	-86.87
196.731	-70.74
196.951	-70.65
197.172	-84.11
197.392	-153.59
197.613	-125.19
197.833	-131.05
198.054	-142.38
198.274	-79.09
198.495	-68.43
198.715	-52.52
198.936	-78.95
199.156	-51.33
199.377	-153.35
199.597	-138.91
199.817	-113.35
200.038	-29.47
200.258	-73.64
200.479	14.75
200.699	32.69
200.919	57.47
201.14	10.28
201.36	-2.53
201.58	21.46
201.801	41.49
202.021	5.82
202.241	12.17
202.461	19.22
202.682	-54.08
202.902	-151.33
203.122	-81.38
203.342	-85.17
203.563	-39.92
203.783	-14.45
204.003	-38.81
204.223	-50.32
204.443	40.46
204.663	6.41
204.884	24.03
205.104	68.14
205.324	112.63
205.544	69.9
205.764	75.81
205.984	70.65
206.204	60.26
206.424	43.11
206.644	18.64
206.864	27.9
207.084	-0.59
207.304	34.89
207.525	-141.88
207.745	-85.74
207.964	-42.77
208.184	-72.77
208.404	-115.95
208.624	-89.22
208.844	-73.11
209.064	-300.92
209.284	-285.49
209.504	-136.4
209.724	-8.56
209.944	-9.44
210.164	12.49
210.384	11.46
210.604	15.89
210.823	-38.76
211.043	-50.76
211.263	-47.94
211.483	-55.95
211.703	-124.55
211.922	-94.13
212.142	-28.47
212.362	10.45
212.582	20.95
212.801	29.51
213.021	23.45
213.241	6.05
213.461	-46.39
213.68	-84.51
213.9	-56.43
214.12	-39.71
214.339	-99.9
214.559	-73.57
214.779	10.16
214.998	22.59
215.218	-16.73
215.438	11.71
215.657	12.94
215.877	-9.6
216.096	8.52
216.316	22.19
216.535	19.38
216.755	22.9
216.974	-37.16
217.194	-87.8
217.413	-96.39
217.633	-85.21
217.852	-212.67
218.072	-57.3
218.291	-15.77
218.511	29.77
218.73	5.67
218.95	12.35
219.169	-8.83
219.389	-47.15
219.608	-48.87
219.827	-26.16
220.047	5.39
220.266	13.34
220.485	10.59
220.705	26.2
220.924	-9.35
221.143	19.74
221.363	-3.56
221.582	15.26
221.801	17.06
222.021	36.91
222.24	-33.66
222.459	69.02
222.678	43.72
222.897	8.86
223.117	-20.61
223.336	-22.47
223.555	-22.01
223.774	8.79
223.993	9.8
224.213	62.05
224.432	75.13
224.651	71.47
224.87	34.5
225.089	41.03
225.308	28.33
225.527	26.86
225.746	9.72
225.965	7.5
226.184	-26.33
226.404	-2.77
226.623	-28.38
226.842	-15.61
227.061	15.46
227.28	28.79
227.499	22.49
227.718	41.12
227.936	38.93
228.155	43.02
228.374	28.77
228.593	11.96
228.812	-7.05
229.031	-19.5
229.25	-62.65
229.469	-57.28
229.688	-31.36
229.907	15.23
230.125	47.66
230.344	46.89
230.563	35.62
230.782	46.85
231.001	-34.06
231.22	-41.84
231.438	-14.75
231.657	17.05
231.876	1.29
232.095	50.65
232.313	65.01
232.532	75.89
232.751	29.65
232.969	29.1
233.188	-18.7
233.407	18.37
233.625	0.38
233.844	-18.84
234.063	-4.85
234.281	21.22
234.5	-6.72
234.719	9.39
234.937	28.11
235.156	23.03
235.374	21.26
235.593	26.79
235.811	9.81
236.03	9.2
236.249	-33.05
236.467	-40.43
236.686	-16.37
236.904	2.2
237.123	-11.35
237.341	-0.78
237.559	3.43
237.778	-4.71
237.996	-28.39
238.215	2.04
238.433	10.99
238.652	27.92
238.87	8.71
239.088	27.85
239.307	16.34
239.525	12.87
239.743	-29.38
239.962	-1.12
240.18	-27.6
240.398	-57.54
240.617	-77.99
240.835	-76.56
241.053	-71.31
241.271	-20
241.49	1.67
241.708	3.63
241.926	32.22
242.144	7.14
242.363	-60.9
242.581	-74.34
242.799	-29.04
243.017	-10.29
243.235	-18.62
243.453	6.4
243.672	-4.28
243.89	-6.46
244.108	-15.68
244.326	7.21
244.544	-0.24
244.762	3.58
244.98	6.13
245.198	0.14
245.416	-26.16
245.634	-34.89
245.852	-37.76
246.07	-47.77
246.288	-30.1
246.506	-61.73
246.724	-22.42
246.942	-19.76
247.16	7.44
247.378	3.26
247.596	42.25
247.814	34.97
248.032	19.85
248.25	7.36
248.468	3.9
248.685	-4.67
248.903	27
249.121	32.44
249.339	5.66
249.557	4.72
249.775	8.88
249.992	-51.95
250.21	-53.72
250.428	-26.94
250.646	-45.68
250.863	-63.96
251.081	-40.14
251.299	-22.56
251.517	-11.34
251.734	-11.07
251.952	-13.94
252.17	-5.56
252.387	-1.04
252.605	-14.96
252.823	-1.21
253.04	19.42
253.258	29.76
253.475	25.5
253.693	43.08
253.911	36.91
254.128	42.8
254.346	50.19
254.563	15.54
254.781	0.97
254.998	-7.91
255.216	-25.76
255.433	-16.68
255.651	55.82
255.868	68.45
256.086	88.93
256.303	98.39
256.521	70.71
256.738	36.16
256.956	7.68
257.173	-24.37
257.39	-56.15
257.608	-89.83
257.825	1.06
258.043	61.6
258.26	57.08
258.477	82.88
258.695	96.29
258.912	4.53
259.129	0.12
259.346	-17.74
259.564	-43.04
259.781	-75.67
259.998	-4.71
260.216	13.47
260.433	52.66
260.65	60.97
260.867	65.94
261.084	47.95
261.302	13.36
261.519	-18.36
261.736	-52.28
261.953	-63.24
262.17	-24.55
262.387	-34.79
262.604	-38.88
262.822	-54.21
263.039	-29.49
263.256	-71.88
263.473	-52.38
263.69	-39.06
263.907	16.62
264.124	12.91
264.341	2.43
264.558	-1.42
264.775	13.05
264.992	-10.85
265.209	-2.76
265.426	28.75
265.643	33.99
265.86	38.62
266.077	45.18
266.294	37.99
266.51	-6.6
266.727	-33.44
266.944	-31.53
267.161	-51.55
267.378	-45.95
267.595	-4.48
267.812	-6.39
268.028	-37.33
268.245	-15.6
268.462	-36.44
268.679	-54.38
268.896	2.71
269.112	3.65
269.329	-4.54
269.546	8.16
269.763	-2.39
269.979	-27.39
270.196	-21.19
270.413	-37.89
270.629	-61.72
270.846	-58.92
271.063	-55.02
271.279	-68.82
271.496	-63.58
271.712	-32.54
271.929	2.86
272.146	-22.98
272.362	-15.91
272.579	15.64
272.795	47.82
273.012	24.62
273.228	31.4
273.445	0.86
273.661	-19.3
273.878	-82.49
274.094	-64.06
274.311	-77.98
274.527	0.71
274.744	-0.06
274.96	-4.24
275.177	-5.17
275.393	8.99
275.609	-2.11
275.826	12.33
276.042	12.45
276.259	-4.38
276.475	10.02
276.691	13.81
276.908	-1.46
277.124	7.11
277.34	11.17
277.557	-7.31
277.773	-24.08
277.989	-32.45
278.205	-31.65
278.422	-13.49
278.638	-10.08
278.854	9.71
279.07	14.95
279.286	0.32
279.503	-32.42
279.719	-36.92
279.935	-70.41
280.151	-80.59
280.367	-48.22
280.583	-40.83
280.799	-27.54
281.016	-44.86
281.232	-10.98
281.448	2.51
281.664	22.46
281.88	-3.98
282.096	38.81
282.312	74.7
282.528	85.46
282.744	86.84
282.96	79.82
283.176	48.88
283.392	43.28
283.608	25.98
283.824	14.21
284.04	28.77
284.256	36.71
284.471	10.73
284.687	13.03
284.903	34.05
285.119	51.73
285.335	16.47
285.551	22.65
285.767	-2.34
285.982	-10.6
286.198	-63.88
286.414	8.42
286.63	8.1
286.846	35.38
287.061	17.29
287.277	51.57
287.493	24.64
287.709	36.54
287.924	22.16
288.14	57.26
288.356	64.35
288.571	81.3
288.787	63.03
289.003	65.56
289.218	39.02
289.434	-12.15
289.65	-5.85
289.865	-29.21
290.081	-3.51
290.296	-4.58
290.512	6.22
290.727	-30.88
290.943	-11.98
291.159	-20.49
291.374	-10.2
291.59	-11.06
291.805	-10.81
292.021	-5.42
292.236	-14.33
292.451	2.9
292.667	4.2
292.882	31.33
293.098	45.74
293.313	21.28
293.529	-9.88
293.744	-25.92
293.959	-49.72
294.175	-60.89
294.39	-14.24
294.605	-2.06
294.821	29.39
295.036	43.33
295.251	60.39
295.467	51.31
295.682	53.4
295.897	6.67
296.112	-14.84
296.328	-23.99
296.543	-57.98
296.758	-54.69
296.973	-6.91
297.188	26.25
297.404	12.95
297.619	21.91
297.834	8.43
298.049	-7.59
298.264	-35.83
298.479	6.87
298.694	0.37
298.909	28.09
299.125	35.76
299.34	34.91
299.555	8.88
299.77	25.1
299.985	-28.06
300.2	-84.71
300.415	-92.09
300.63	-58.32
300.845	-62.06
301.06	-55.55
301.275	-17.84
301.49	15.75
301.704	-11.08
301.919	-29.58
302.134	-36.94
302.349	-33.23
302.564	-106.07
302.779	-89.61
302.994	-31.66
303.209	10.59
303.423	38.2
303.638	71.29
303.853	42.93
304.068	23.84
304.283	11.69
304.497	-0.78
304.712	-17.18
304.927	-11.26
305.142	-12.29
305.356	-14.46
305.571	-13.98
305.786	-22.66
306	-40.59
306.215	-34.25
306.43	-31.72
306.644	-40.67
306.859	21.08
307.074	44.15
307.288	19.32
307.503	23.15
307.717	12.47
307.932	-11.24
308.147	-26.87
308.361	2.47
308.576	-3.03
308.79	-41.77
309.005	-22.75
309.219	-1.54
309.434	-26.08
309.648	-29.86
309.863	6.24
310.077	4.52
310.292	-7.81
310.506	17.05
310.72	26.94
310.935	25.64
311.149	24.27
311.364	43.86
311.578	42.49
311.792	29.15
312.007	29.25
312.221	7.79
312.435	10.35
312.649	-0.18
312.864	47.46
313.078	54.14
313.292	137.12
313.507	108.37
313.721	130.12
313.935	34.66
314.149	34.82
314.363	19.71
314.578	24.41
314.792	28.3
315.006	27.74
315.22	30.13
315.434	26.67
315.648	26.64
315.862	22.28
316.077	19.78
316.291	8.71
316.505	4.52
316.719	8.67
316.933	-4.81
317.147	-8.52
317.361	-51.44
317.575	-53.95
317.789	-76.64
318.003	-140
318.217	-118.45
318.431	-46.97
318.645	9.44
318.859	10
319.073	30.73
319.287	27.61
319.5	1.56
319.714	-66.59
319.928	-108.81
320.142	-116.84
320.356	-65.75
320.57	-10.23
320.784	-3.21
320.997	22.36
321.211	34.28
321.425	-42.02
321.639	-57.36
321.853	8.29
322.066	16.91
322.28	7.65
322.494	27.08
322.707	36
322.921	13.04
323.135	9.54
323.349	6.03
323.562	-13.49
323.776	-30.34
323.989	-25.65
324.203	-54.56
324.417	-52.64
324.63	-65.88
324.844	-59.31
325.057	-58.9
325.271	-33.03
325.485	-10.94
325.698	18.96
325.912	28.46
326.125	5.84
326.339	7.52
326.552	1.72
326.766	-1.63
326.979	9.03
327.193	40.09
327.406	31.97
327.619	25.29
327.833	50.34
328.046	26.04
328.26	-7.26
328.473	0.74
328.686	-28.97
328.9	-66.03
329.113	-58.31
329.326	-77.57
329.54	-37.86
329.753	-55.11
329.966	-62.48
330.179	-41.98
330.393	-12.35
330.606	-16.33
330.819	10.19
331.032	21.03
331.246	23.7
331.459	48.72
331.672	31.98
331.885	20.54
332.098	-4.16
332.311	-10.91
332.525	-99.24
332.738	-62.74
332.951	-20.35
333.164	29.08
333.377	28.37
333.59	63.67
333.803	55.88
334.016	51.54
334.229	32.6
334.442	41.71
334.655	54.88
334.868	55.21
335.081	39.32
335.294	35.71
335.507	9.51
335.72	-9.19
335.933	-19.35
336.146	-29.36
336.359	-36.69
336.572	-39.12
336.785	-62.88
336.997	-60.18
337.21	-37.56
337.423	-36.49
337.636	-34.53
337.849	-5.57
338.062	-7.05
338.274	-7.24
338.487	-13.95
338.7	3.36
338.913	-42.61
339.125	-66.71
339.338	-114.12
339.551	-81.24
339.763	-57.33
339.976	-37.2
340.189	-8.46
340.402	2.97
340.614	-2.82
340.827	-20.03
341.039	-24.94
341.252	-19.74
341.465	9.98
341.677	6.67
341.89	-21.47
342.102	4.28
342.315	-2.68
342.527	-50.35
342.74	-46.22
342.952	1.87
343.165	-1.58
343.377	20.11
343.59	27.3
343.802	48.4
344.015	40.92
344.227	49.04
344.44	28.06
344.652	13.06
344.864	-5.41
345.077	16.71
345.289	14.58
345.502	20.94
345.714	24.52
345.926	27.65
346.139	22.41
346.351	38.01
346.563	44.81
346.775	51.13
346.988	43.82
347.2	34.25
347.412	-7.34
347.624	-28.92
347.837	-51.01
348.049	-18.62
348.261	-0.89
348.473	-7.14
348.685	-21.27
348.897	-23.46
349.11	-42.2
349.322	-56.57
349.534	-28.54
349.746	-10.36
349.958	20.16
350.17	21.4
350.382	16.91
350.594	13.29
350.806	12.6
351.018	-4.68
351.23	-20.24
351.442	-64.21
351.654	-75.96
351.866	-61.25
352.078	-28.2
352.29	-7.08
352.502	18.58
352.714	33.65
352.926	25.14
353.138	14.37
353.35	6.53
353.561	1.01
353.773	-27.87
353.985	-16.22
354.197	-27.27
354.409	-27.33
354.621	-31.48
354.832	-12.85
355.044	-23.7
355.256	-19.09
355.468	-15.26
355.679	-12.06
355.891	-3.96
356.103	-9.51
356.314	-3.53
356.526	14.08
356.738	9.33
356.949	-11.79
357.161	-3.08
357.373	-1.18
357.584	-20.56
357.796	-7.65
358.008	-8.15
358.219	13.07
358.431	6.97
358.642	20.35
358.854	16.58
359.065	16.89
359.277	-23.07
359.488	-33.58
359.7	-56.59
359.911	-70.92
360.123	-43
360.334	-47.14
360.546	-50.1
360.757	-53.1
360.969	-36.56
361.18	-57.22
361.391	-30.53
361.603	-27.54
361.814	-14.93
362.025	-14.99
362.237	2.5
362.448	11.92
362.659	22.66
362.871	18.62
363.082	6.65
363.293	-6.83
363.504	-14.11
363.716	-44.14
363.927	-50.09
364.138	-50.91
364.349	-53.22
364.56	-53.57
364.772	-43.12
364.983	-17.86
365.194	-14.47
365.405	-1.61
365.616	23.85
365.827	30.78
366.038	5.27
366.25	9.54
366.461	-24.98
366.672	-26.18
366.883	-4.54
367.094	2.16
367.305	-13.71
367.516	7.72
367.727	-17.43
367.938	-43.56
368.149	-31.73
368.36	-13.24
368.571	-8.1
368.781	-17.18
368.992	-23.21
369.203	-47.34
369.414	-63.49
369.625	-77.7
369.836	-65.95
370.047	-87.22
370.258	-64.33
370.468	-64.22
370.679	-72.27
370.89	-67.72
371.101	-34.71
371.312	-39.53
371.522	-29.77
371.733	-22.38
371.944	-8.88
372.155	-4.45
372.365	-16.35
372.576	-18.32
372.787	-28.13
372.997	-58.35
373.208	-54.86
373.419	-7.37
373.629	-30.37
373.84	-24.27
374.05	-21.59
374.261	-18.82
374.472	-49.13
374.682	-2.47
374.893	6.77
375.103	41.27
375.314	30.48
375.524	28.52
375.735	22.73
375.945	23.88
376.156	-10.04
376.366	-10.47
376.577	-6.09
376.787	-8.17
376.997	-6.71
377.208	-2.7
377.418	-9.23
377.629	0.55
377.839	-4.11
378.049	-3.53
378.26	10.11
378.47	18.02
378.68	2
378.89	-4.74
379.101	-13.06
379.311	-35.04
379.521	-58.82
379.732	-58.44
379.942	-59.43
380.152	-70.85
380.362	-43.2
380.572	-32.38
380.783	-10.42
380.993	0.41
381.203	7.52
381.413	18.99
381.623	18.43
381.833	9.32
382.043	-4.94
382.253	-8.17
382.463	-14.07
382.674	-15
382.884	-34.49
383.094	-21.76
383.304	-14.04
383.514	-17.46
383.724	-11.6
383.934	-10.03
384.144	-24.33
384.353	-35.16
384.563	-27.67
384.773	-21.51
384.983	-23.2
385.193	-0.93
385.403	12.19
385.613	14.39
385.823	4.45
386.033	12.08
386.242	1.67
386.452	-8.98
386.662	-20.76
386.872	-9.44
387.082	-18.61
387.291	-24.4
387.501	-17.91
387.711	-11.43
387.921	-22.02
388.13	-16.75
388.34	-3.2
388.55	-8.95
388.759	-11.24
388.969	-2.6
389.179	-2.64
389.388	-1.08
389.598	5.82
389.807	0.18
390.017	-3.78
390.227	-5.28
390.436	-7.62
390.646	-9.9
390.855	-2.31
391.065	-3.91
391.274	-4.36
391.484	-5.63
391.693	-1.59
391.903	-2.06
392.112	6
392.322	10.47
392.531	13.69
392.74	13.29
392.95	9.28
393.159	5.73
393.369	3.94
393.578	1.83
393.787	-0.41
393.997	2.05
394.206	-0.29
394.415	-0.31
394.625	-0.41
394.834	-1.07
395.043	0.33
395.252	2.9
395.462	6
395.671	6.99
395.88	7.17
396.089	7.26
396.298	5.46
396.508	3.84
396.717	3.49
396.926	5.04
397.135	4.53
397.344	4.24
397.553	4.58
397.762	5.6
397.971	5.2
398.181	5.18
398.39	4.88
398.599	4.11
398.808	3.7
399.017	3.9
399.226	5.79
399.435	6.87
399.644	7.45
399.853	6.68
400.062	6.21
400.27	5.25
400.479	4.87
400.688	4.26
400.897	4.84
401.106	4.77
401.315	4.29
401.524	4.61
401.733	4.85
401.941	5.02
402.15	5.2
402.359	5.16
402.568	5.14
402.777	5.43
402.985	5.04
403.194	4.92
403.403	5.05
403.612	4.81
403.82	4.53
404.029	4.88
404.238	4.74
404.446	4.88
404.655	4.74
404.864	4.7
405.072	4.25
405.281	4.57
405.489	4.48
405.698	4.46
405.906	4.5
406.115	4.65
406.324	4.45
406.532	4.48
406.741	4.68
406.949	4.67
407.158	4.68
407.366	4.7
407.574	4.61
407.783	4.6
407.991	4.3
408.2	4.52
408.408	4.47
408.617	4.44
408.825	4.4
409.033	4.63
409.242	4.57
409.45	4.68
409.658	4.54
409.867	4.63
410.075	4.46
410.283	4.22
410.491	4.11
410.7	4.07
410.908	4.04
411.116	4.45
411.324	4.54
411.533	4.5
411.741	4.75
411.949	4.78
412.157	4.41
412.365	4.49
412.573	4.49
412.781	4.44
412.99	4.23
413.198	4.55
413.406	4.54
413.614	4.55
413.822	4.34
414.03	4.28
414.238	3.92
414.446	3.87
414.654	3.74
414.862	4
415.07	4.15
415.278	4.37
415.486	4.15
415.694	4.26
415.902	4.08
416.109	3.88
416.317	3.91
416.525	3.81
416.733	3.82
416.941	3.89
417.149	4.06
417.357	3.91
417.564	4.22
417.772	4.41
417.98	4.34
418.188	4.23
418.395	4.39
418.603	4.45
418.811	4.06
419.019	4.02
419.226	4.11
419.434	4.16
419.642	3.84
419.849	4.1
420.057	4.1
420.265	4.09
420.472	3.63
420.68	3.8
420.887	3.68
421.095	3.85
421.302	3.79
421.51	4.29
421.717	4.3
421.925	4.35
422.132	4.11
422.34	3.96
422.547	3.85
422.755	3.83
422.962	3.74
423.17	3.56
423.377	3.66
423.585	3.66
423.792	3.47
423.999	3.43
424.207	3.65
424.414	3.87
424.621	3.78
424.829	3.85
425.036	3.93
425.243	4.05
425.451	3.72
425.658	3.4
425.865	3.57
426.072	3.54
426.28	3.68
426.487	3.74
426.694	4.17
426.901	3.96
427.108	3.89
427.315	3.62
427.523	3.88
427.73	3.73
427.937	3.71
428.144	3.61
428.351	3.57
428.558	3.49
428.765	3.41
428.972	3.5
429.179	3.76
429.386	4.19
429.593	4.03
429.8	3.91
430.007	4
430.214	4.05
430.421	3.73
430.628	3.67
430.835	3.75
431.042	3.91
431.249	3.9
431.456	4
431.662	4.26
431.869	4.54
432.076	4.54
432.283	4.62
432.49	4.58
432.697	4.57
432.903	4.25
433.11	4.09
433.317	4.16
433.524	4.39
433.73	4.23
433.937	4.53
434.144	4.54
434.35	4.51
434.557	4.35
434.764	4.39
434.97	4.3
435.177	4.56
435.384	4.46
435.59	4.56
435.797	4.8
436.003	4.74
436.21	4.62
436.416	4.64
436.623	4.57
436.829	4.61
437.036	4.83
437.242	4.79
437.449	4.81
437.655	4.91
437.862	4.81
438.068	4.67
438.275	4.79
438.481	4.96
438.687	4.81
438.894	4.86
439.1	4.95
439.307	5.16
439.513	5.05
439.719	5.12
439.926	5.29
440.132	5.33
440.338	5.13
440.544	5.36
440.751	5.39
440.957	5.31
441.163	5.27
441.369	5.41
441.575	5.1
441.782	5.08
441.988	4.98
442.194	5
442.4	4.91
442.606	5.25
442.812	5.32
443.018	5.42
443.224	5.41
443.431	5.55
443.637	5.32
443.843	5.22
444.049	5.29
444.255	5.31
444.461	5.33
444.667	5.3
444.873	5.45
445.079	5.42
445.284	5.52
445.49	5.3
445.696	5.22
445.902	5.16
446.108	5.11
446.314	5.04
446.52	5.16
446.726	5.49
446.931	5.57
447.137	5.62
447.343	5.67
447.549	5.62
447.755	5.43
447.96	5.42
448.166	5.31
448.372	5.21
448.578	5.27
448.783	5.28
448.989	5.4
449.195	5.68
449.4	5.78
449.606	5.75
449.812	5.75
450.017	5.71
450.223	5.5
450.428	5.38
450.634	5.5
450.84	5.66
451.045	5.63
451.251	5.62
451.456	5.87
451.662	5.97
451.867	5.97
452.073	6.01
452.278	6.17
452.483	6.28
452.689	6.16
452.894	6.15
453.1	6.15
453.305	6.08
453.51	5.88
453.716	5.81
453.921	5.81
454.127	5.75
454.332	5.71
454.537	5.74
454.742	5.79
454.948	5.8
455.153	5.93
455.358	6.06
455.563	6.17
455.769	6.34
455.974	6.3
456.179	6.2
456.384	6.11
456.589	6.09
456.795	5.77
457	5.83
457.205	6.1
457.41	6.03
457.615	6
457.82	6.21
458.025	6.14
458.23	5.93
458.435	6.1
458.64	6.02
458.845	6.13
459.05	6.15
459.255	6.21
459.46	6.18
459.665	6.23
459.87	6.23
460.075	6.24
460.28	6.33
460.485	6.44
460.69	6.51
460.895	6.38
461.099	6.4
461.304	6.48
461.509	6.46
461.714	6.43
461.919	6.6
462.123	6.49
462.328	6.51
462.533	6.39
