Data from Ofra_1a_PS_OCX5_Reflection_2.txt Node
Date: Tue Jul 20 10:39:56 EDT 2021
User: Adam
Spectrometer: FLMT01687
Trigger mode: 0
Integration Time (sec): 1.004000E0
Scans to average: 2
Electric dark correction enabled: true
Nonlinearity correction enabled: false
Boxcar width: 2
XAxis mode: Wavelengths
Number of Pixels in Spectrum: 3648
>>>>>Begin Spectral Data<<<<<
179.494	-262.94
179.716	-283.21
179.937	1018.73
180.158	-992.36
180.38	158.68
180.601	88.39
180.823	127.89
181.044	-12.82
181.265	165.63
181.486	49.54
181.708	44.58
181.929	2709.09
182.15	1.97
182.372	-30.54
182.593	116.43
182.814	-132.09
183.035	26.9
183.257	23.37
183.478	-1.75
183.699	-15.54
183.92	-56.78
184.141	-69.18
184.363	-54.56
184.584	-77.9
184.805	-50.35
185.026	-7.45
185.247	-20.91
185.468	-36.43
185.689	-11.26
185.91	-52.24
186.132	-37.41
186.353	-16.47
186.574	-25.86
186.795	-22.32
187.016	25.69
187.237	6.54
187.458	-1.63
187.679	9.54
187.9	26.16
188.121	17.06
188.342	41.92
188.563	43.85
188.784	53.66
189.005	19.99
189.226	23.96
189.447	19.7
189.667	20.75
189.888	-5.48
190.109	1.08
190.33	1.45
190.551	-7.33
190.772	-30.26
190.993	-34
191.214	-74.3
191.434	-112.62
191.655	-180.69
191.876	-44.36
192.097	-5.76
192.318	37.56
192.538	14.04
192.759	16.31
192.98	15.79
193.201	11.94
193.421	15.52
193.642	27.39
193.863	48.54
194.083	35.85
194.304	33.01
194.525	8.39
194.745	9.09
194.966	9.65
195.187	4.16
195.407	-26.95
195.628	-10.88
195.848	-26.76
196.069	-59.85
196.29	-59.55
196.51	-45.58
196.731	-45.88
196.951	-22.26
197.172	10.63
197.392	31.22
197.613	42.49
197.833	24.93
198.054	17.78
198.274	7.88
198.495	-0.18
198.715	0.55
198.936	26.91
199.156	15.75
199.377	12.39
199.597	22.3
199.817	11.15
200.038	-14.23
200.258	11.85
200.479	23.57
200.699	24.18
200.919	34.8
201.14	35.08
201.36	22.46
201.58	12.93
201.801	-26.59
202.021	-37.44
202.241	-29.33
202.461	-3.71
202.682	-19.12
202.902	10.31
203.122	21.83
203.342	9.03
203.563	0.03
203.783	2.95
204.003	-2.76
204.223	6.31
204.443	27.07
204.663	38.01
204.884	71.8
205.104	60.17
205.324	31.37
205.544	11.94
205.764	15.55
205.984	-15.12
206.204	24.16
206.424	-3.31
206.644	-22.42
206.864	-81.96
207.084	-37.81
207.304	-99.13
207.525	-39.71
207.745	-6.7
207.964	25.95
208.184	46.43
208.404	43.74
208.624	36.34
208.844	29.49
209.064	27.03
209.284	21.62
209.504	24.45
209.724	5.53
209.944	-5.05
210.164	-10.82
210.384	-30.53
210.604	-60.07
210.823	-47.21
211.043	-22.97
211.263	-97.36
211.483	-64.8
211.703	-22.97
211.922	-53.93
212.142	-35.08
212.362	2.98
212.582	-0.22
212.801	-13.38
213.021	-5.08
213.241	-38.07
213.461	-27.99
213.68	4.6
213.9	-3.86
214.12	0.58
214.339	13.6
214.559	16.11
214.779	0.29
214.998	9.79
215.218	17.3
215.438	17.99
215.657	13.61
215.877	-10.46
216.096	12.13
216.316	1.56
216.535	1.21
216.755	12.95
216.974	23.19
217.194	-9.93
217.413	-9.72
217.633	-26.7
217.852	-33.3
218.072	-22.52
218.291	-21.69
218.511	-21.31
218.73	-10.43
218.95	-31.66
219.169	-30.39
219.389	-4.21
219.608	-3.62
219.827	-0.59
220.047	8.14
220.266	-3.68
220.485	-20.19
220.705	-10.76
220.924	-26.83
221.143	-5.08
221.363	22.13
221.582	23.78
221.801	24.01
222.021	30.59
222.24	26.92
222.459	32.53
222.678	30.75
222.897	10.17
223.117	16.86
223.336	17.67
223.555	23.51
223.774	27.57
223.993	65.27
224.213	64.8
224.432	41.3
224.651	24.15
224.87	18.85
225.089	10.65
225.308	8.87
225.527	15.76
225.746	14.87
225.965	6.17
226.184	3.2
226.404	-2.22
226.623	7.3
226.842	-0.72
227.061	-0.5
227.28	15.06
227.499	12.28
227.718	-1.77
227.936	1.15
228.155	3.59
228.374	-6.61
228.593	0.35
228.812	17.71
229.031	21.55
229.25	4.73
229.469	5.18
229.688	4.21
229.907	6.58
230.125	2.7
230.344	18.45
230.563	16.98
230.782	16.66
231.001	15.02
231.22	11.75
231.438	10.13
231.657	21.66
231.876	25.22
232.095	25.71
232.313	8.87
232.532	5.78
232.751	-2.28
232.969	-3.48
233.188	-17.21
233.407	11.08
233.625	27.35
233.844	25.57
234.063	15.99
234.281	25.56
234.5	24.95
234.719	13.05
234.937	-11.97
235.156	-16.23
235.374	-16.9
235.593	-15.49
235.811	2.65
236.03	29.58
236.249	40.9
236.467	37.55
236.686	34.4
236.904	16.84
237.123	10.92
237.341	-5.5
237.559	5.63
237.778	40.11
237.996	66.8
238.215	64.43
238.433	45.34
238.652	23.88
238.87	-21.95
239.088	-50.09
239.307	-22.18
239.525	-13.99
239.743	-20.53
239.962	-31.35
240.18	-16.91
240.398	-31.47
240.617	-26.19
240.835	-20.92
241.053	-21.77
241.271	-7.99
241.49	19.64
241.708	12.95
241.926	-9.3
242.144	7.27
242.363	-16.39
242.581	-93.34
242.799	-116.2
243.017	-32.53
243.235	-16.15
243.453	-19.36
243.672	0.26
243.89	12.85
244.108	7.23
244.326	6.4
244.544	10.48
244.762	4.2
244.98	3.89
245.198	2.24
245.416	-3.26
245.634	5.21
245.852	-6.82
246.07	15.03
246.288	21.08
246.506	17.96
246.724	13.92
246.942	21.88
247.16	6.35
247.378	-11.29
247.596	6.58
247.814	8.6
248.032	18.97
248.25	21.27
248.468	16.61
248.685	18.96
248.903	8.24
249.121	8.47
249.339	11.57
249.557	29.36
249.775	28.02
249.992	37.45
250.21	30.62
250.428	43.17
250.646	24.56
250.863	11.05
251.081	8.67
251.299	17.43
251.517	-5.7
251.734	-7.82
251.952	-0.91
252.17	1.96
252.387	-5.53
252.605	2.51
252.823	23.48
253.04	44.54
253.258	52.81
253.475	44.49
253.693	40.93
253.911	14.57
254.128	8.96
254.346	4.48
254.563	15.31
254.781	16.85
254.998	15.76
255.216	-31.46
255.433	-70.7
255.651	-79.64
255.868	-77.66
256.086	-42.85
256.303	5.34
256.521	31.62
256.738	30.21
256.956	29.76
257.173	22.61
257.39	2.1
257.608	-8.88
257.825	-8.45
258.043	-0.25
258.26	-7.52
258.477	-4.43
258.695	-11.2
258.912	-12.2
259.129	-34.41
259.346	-52.12
259.564	-52.08
259.781	-19.77
259.998	5.97
260.216	26.98
260.433	26.17
260.65	26.9
260.867	28.1
261.084	17.15
261.302	6.3
261.519	30.75
261.736	24.05
261.953	6.18
262.17	20.23
262.387	20.87
262.604	13.91
262.822	22.71
263.039	30.49
263.256	17.37
263.473	14.77
263.69	22.96
263.907	33.16
264.124	28.05
264.341	30.77
264.558	33.08
264.775	7.73
264.992	-5.77
265.209	-16.22
265.426	-48.15
265.643	-52.06
265.86	-67.53
266.077	-55.11
266.294	-30.29
266.51	13.62
266.727	23.76
266.944	41.02
267.161	35.38
267.378	42.43
267.595	15.95
267.812	-1.37
268.028	-35.58
268.245	-35.36
268.462	-25.9
268.679	1.81
268.896	17.31
269.112	27.27
269.329	9.14
269.546	27.66
269.763	27.53
269.979	25.44
270.196	27.95
270.413	36
270.629	9
270.846	5.96
271.063	10.29
271.279	8.8
271.496	12.1
271.712	21.53
271.929	15.66
272.146	14.34
272.362	9.89
272.579	-7.58
272.795	-14.47
273.012	-1.72
273.228	4.09
273.445	6.45
273.661	18.03
273.878	11.9
274.094	-4.87
274.311	-24.37
274.527	-61.54
274.744	-43.73
274.96	-15.25
275.177	-11.95
275.393	1.99
275.609	26.91
275.826	16.22
276.042	1.77
276.259	-2.68
276.475	1.37
276.691	-4.94
276.908	1.55
277.124	3.17
277.34	0.67
277.557	-9.11
277.773	-11.72
277.989	-2.82
278.205	7.04
278.422	7.68
278.638	17.73
278.854	11.1
279.07	14.35
279.286	16.64
279.503	25.78
279.719	20.52
279.935	14.69
280.151	4.14
280.367	-3.65
280.583	-11.7
280.799	-15.73
281.016	-27.47
281.232	-10.62
281.448	-3.85
281.664	-6.94
281.88	4.88
282.096	4.4
282.312	3.99
282.528	-0.37
282.744	8.72
282.96	-23.9
283.176	-26.69
283.392	-55.56
283.608	-33.17
283.824	-48.42
284.04	-59.84
284.256	-25.94
284.471	-14.5
284.687	-2.57
284.903	0.02
285.119	24.86
285.335	30.98
285.551	19.58
285.767	12.13
285.982	7.96
286.198	-15.44
286.414	-36.33
286.63	1.23
286.846	1.75
287.061	4.66
287.277	14.11
287.493	6.46
287.709	5.57
287.924	24.72
288.14	28.47
288.356	33.41
288.571	36.88
288.787	24.16
289.003	21.27
289.218	-0.78
289.434	-0.94
289.65	25.94
289.865	32.82
290.081	20.46
290.296	37.47
290.512	26.88
290.727	13.72
290.943	16.53
291.159	23.7
291.374	9.16
291.59	16.54
291.805	-10.33
292.021	-16.26
292.236	-25.71
292.451	-20.27
292.667	-17.05
292.882	14.98
293.098	28.89
293.313	13.83
293.529	20.23
293.744	13.27
293.959	2.57
294.175	-1.18
294.39	-1.71
294.605	11.14
294.821	-0.56
295.036	0.58
295.251	9.23
295.467	4.33
295.682	-3.15
295.897	-4.36
296.112	-12.27
296.328	-15.85
296.543	-18.17
296.758	-22.43
296.973	-19.74
297.188	-15.05
297.404	-37.55
297.619	-50.09
297.834	-70.22
298.049	-41.87
298.264	-12.65
298.479	-29.39
298.694	16.02
298.909	28.03
299.125	9.83
299.34	3.31
299.555	12.61
299.77	16.35
299.985	12.91
300.2	35.07
300.415	31.81
300.63	26.17
300.845	1.23
301.06	-6.42
301.275	-16.97
301.49	-20.39
301.704	-16.15
301.919	-19.31
302.134	-22.85
302.349	-19.17
302.564	-7.37
302.779	3.5
302.994	26.75
303.209	38.85
303.423	38.22
303.638	42.39
303.853	23.2
304.068	-7.92
304.283	-9.3
304.497	-11.43
304.712	-14.6
304.927	1.83
305.142	22.18
305.356	43.49
305.571	31.58
305.786	34.41
306	38.5
306.215	36.35
306.43	0.03
306.644	-8.07
306.859	-28.12
307.074	-8.63
307.288	-21.25
307.503	-7.42
307.717	7.19
307.932	17.21
308.147	0.96
308.361	3.39
308.576	-17.27
308.79	-17.15
309.005	-39.12
309.219	-27.65
309.434	-20.5
309.648	-10
309.863	-14.53
310.077	-8.73
310.292	7.67
310.506	-4.54
310.72	1.41
310.935	30.01
311.149	37.3
311.364	33.24
311.578	36.6
311.792	43.59
312.007	21.78
312.221	-5.08
312.435	-9.21
312.649	-0.66
312.864	5.87
313.078	10.53
313.292	20.97
313.507	30.99
313.721	28.99
313.935	35.28
314.149	19.51
314.363	21.27
314.578	6.18
314.792	-18.28
315.006	-46.52
315.22	-22.29
315.434	-4.33
315.648	3.09
315.862	15.28
316.077	16.28
316.291	8.48
316.505	-24.03
316.719	-17.68
316.933	-16.73
317.147	5.95
317.361	15.77
317.575	25.94
317.789	30.66
318.003	21.24
318.217	11.18
318.431	1.94
318.645	-16.12
318.859	-9.46
319.073	0.56
319.287	1.92
319.5	4.39
319.714	14.39
319.928	1.61
320.142	-2.76
320.356	0.31
320.57	-31.06
320.784	-28.63
320.997	-47.85
321.211	-24.05
321.425	-54.32
321.639	-5.46
321.853	0.48
322.066	-4.26
322.28	-19.4
322.494	-3.55
322.707	-19.92
322.921	-31.56
323.135	-15.44
323.349	-10.2
323.562	-0.12
323.776	11.05
323.989	18.01
324.203	10.77
324.417	18.35
324.63	3.78
324.844	-9.72
325.057	-36.74
325.271	-21.21
325.485	-43.5
325.698	-21.6
325.912	9.56
326.125	12.32
326.339	20.14
326.552	20.2
326.766	7.44
326.979	-29.25
327.193	-20.19
327.406	-40.04
327.619	-26
327.833	-30.55
328.046	-3.75
328.26	-7.57
328.473	-6.1
328.686	5.08
328.9	14.32
329.113	17.22
329.326	9.89
329.54	16.85
329.753	21.61
329.966	24.26
330.179	15.14
330.393	21.89
330.606	13.71
330.819	-13.41
331.032	-10.37
331.246	-2.55
331.459	5.25
331.672	13.83
331.885	18.93
332.098	18.91
332.311	16.97
332.525	7.15
332.738	6.8
332.951	-0.51
333.164	0.52
333.377	-0.24
333.59	-4.59
333.803	-4.89
334.016	-15.66
334.229	-18.35
334.442	-27.61
334.655	-17.44
334.868	-16.78
335.081	-0.37
335.294	1.91
335.507	13.95
335.72	19.29
335.933	25.02
336.146	27.48
336.359	26.31
336.572	32.74
336.785	27.42
336.997	4.92
337.21	7.02
337.423	-17.31
337.636	-19.74
337.849	-3.8
338.062	1.72
338.274	7.22
338.487	-1.64
338.7	-15.37
338.913	-6.5
339.125	-18.89
339.338	-20.2
339.551	-5.22
339.763	4.92
339.976	-18.55
340.189	-7.75
340.402	3.97
340.614	7.2
340.827	14.26
341.039	27.33
341.252	31.75
341.465	14.4
341.677	16.03
341.89	8.56
342.102	15.02
342.315	8.71
342.527	15.85
342.74	-5.73
342.952	-12.18
343.165	-31.53
343.377	-12.33
343.59	-1.26
343.802	14.33
344.015	28.83
344.227	42.19
344.44	26.73
344.652	15.59
344.864	11.5
345.077	8.1
345.289	5.66
345.502	15.71
345.714	11
345.926	9.33
346.139	-23.01
346.351	-21.43
346.563	-11.72
346.775	9.64
346.988	30.32
347.2	52.93
347.412	51.46
347.624	40.54
347.837	33.4
348.049	22.98
348.261	2.88
348.473	-13.32
348.685	-28.66
348.897	-37.28
349.11	-30.54
349.322	-10.43
349.534	-17.15
349.746	-11.29
349.958	-17.4
350.17	-40.35
350.382	-39.64
350.594	-17.12
350.806	5.88
351.018	1.79
351.23	8.08
351.442	16.07
351.654	16.26
351.866	2.18
352.078	11.03
352.29	16.6
352.502	9.51
352.714	8.57
352.926	11.1
353.138	29.28
353.35	31.96
353.561	20.82
353.773	17.29
353.985	21
354.197	1.14
354.409	-2.05
354.621	-6.78
354.832	-11.51
355.044	-30.2
355.256	-21.8
355.468	-42.14
355.679	0.15
355.891	15.17
356.103	26.2
356.314	23.43
356.526	24.8
356.738	-7.56
356.949	-22.59
357.161	-13.58
357.373	-5.43
357.584	6.5
357.796	23.01
358.008	33.12
358.219	22.84
358.431	19.84
358.642	24.08
358.854	21.96
359.065	2.19
359.277	0.35
359.488	-0.22
359.7	0.77
359.911	-15.57
360.123	0.15
360.334	6.8
360.546	-0.37
360.757	-4.79
360.969	-4.19
361.18	5.6
361.391	14.52
361.603	18.77
361.814	14.48
362.025	27.77
362.237	23.13
362.448	15.39
362.659	8.16
362.871	1.89
363.082	-14.43
363.293	-16.75
363.504	-27.18
363.716	-16.91
363.927	-0.57
364.138	-8.41
364.349	-18.81
364.56	-21.48
364.772	-4.07
364.983	-7.46
365.194	1.34
365.405	11.24
365.616	15.37
365.827	1.09
366.038	4.54
366.25	9.43
366.461	8.08
366.672	6.27
366.883	4.82
367.094	1.06
367.305	-16.46
367.516	-25.39
367.727	-29.33
367.938	-27.11
368.149	-29.99
368.36	-15.07
368.571	-23.48
368.781	-16.21
368.992	-16.55
369.203	-8.64
369.414	-10
369.625	-8.07
369.836	11.26
370.047	21.15
370.258	14.94
370.468	17.42
370.679	19.52
370.89	-1.46
371.101	6.6
371.312	5.44
371.522	11.25
371.733	5.45
371.944	-3.45
372.155	-8.52
372.365	3.52
372.576	-9.77
372.787	-0.12
372.997	17.72
373.208	10.48
373.419	11.6
373.629	7.72
373.84	2.41
374.05	-9.26
374.261	-18.52
374.472	-24.78
374.682	-15.43
374.893	-13.69
375.103	-12.11
375.314	5.65
375.524	7.83
375.735	4.12
375.945	0.13
376.156	2.2
376.366	-2.42
376.577	-3.41
376.787	6.68
376.997	20.25
377.208	21.18
377.418	16.87
377.629	16.94
377.839	14.27
378.049	12.17
378.26	2.5
378.47	0.14
378.68	-0.54
378.89	-0.75
379.101	-3.53
379.311	9.51
379.521	5.06
379.732	14.16
379.942	10.53
380.152	1.44
380.362	-7.76
380.572	13.25
380.783	17.43
380.993	17.17
381.203	23.27
381.413	24.58
381.623	12.28
381.833	5.53
382.043	3.6
382.253	2.35
382.463	14.3
382.674	13.59
382.884	19.77
383.094	18.86
383.304	12.02
383.514	5.7
383.724	-0.46
383.934	-14.66
384.144	-7.82
384.353	-0.9
384.563	-2.73
384.773	6.19
384.983	2.38
385.193	0.09
385.403	-3.38
385.613	-1.97
385.823	-9.65
386.033	-1.69
386.242	-5.84
386.452	-3.68
386.662	-3.98
386.872	3.32
387.082	-4.36
387.291	-6.58
387.501	-6.5
387.711	-2.92
387.921	-5.39
388.13	1.14
388.34	5.47
388.55	6.64
388.759	0.01
388.969	-0.73
389.179	-4.53
389.388	-4.14
389.598	-8.86
389.807	-9.06
390.017	-8.65
390.227	-8.24
390.436	-7.42
390.646	-2.82
390.855	1.16
391.065	0.57
391.274	4
391.484	2.17
391.693	0.34
391.903	-2.18
392.112	-2.92
392.322	-5.38
392.531	-3.86
392.74	-5.83
392.95	-3.81
393.159	-2.6
393.369	-1.87
393.578	-3.45
393.787	-1.04
393.997	-0.68
394.206	0.35
394.415	0.81
394.625	1.16
394.834	1.16
395.043	0.82
395.252	2.55
395.462	3.3
395.671	3.83
395.88	4.83
396.089	4.36
396.298	2.88
396.508	2.21
396.717	1.88
396.926	0.83
397.135	1.78
397.344	2.02
397.553	1.72
397.762	3
397.971	2.64
398.181	2.52
398.39	2.13
398.599	2.85
398.808	2.45
399.017	2.63
399.226	2.95
399.435	2.72
399.644	2.75
399.853	3.04
400.062	3.38
400.27	2.36
400.479	2.87
400.688	2.85
400.897	2.49
401.106	2.4
401.315	2.68
401.524	2.5
401.733	2.36
401.941	2.6
402.15	2.34
402.359	2.43
402.568	2.68
402.777	2.91
402.985	2.34
403.194	2.51
403.403	2.72
403.612	2.45
403.82	2.05
404.029	2.36
404.238	2.48
404.446	2.59
404.655	2.81
404.864	2.99
405.072	3.02
405.281	2.99
405.489	2.77
405.698	2.7
405.906	2.72
406.115	2.49
406.324	2.45
406.532	2.64
406.741	2.55
406.949	2.58
407.158	2.71
407.366	2.68
407.574	2.48
407.783	2.57
407.991	2.45
408.2	2.63
408.408	2.58
408.617	2.62
408.825	2.57
409.033	2.58
409.242	2.55
409.45	2.6
409.658	2.62
409.867	2.54
410.075	2.62
410.283	2.43
410.491	2.4
410.7	2.34
410.908	2.4
411.116	2.47
411.324	2.51
411.533	2.46
411.741	2.48
411.949	2.56
412.157	2.39
412.365	2.53
412.573	2.49
412.781	2.46
412.99	2.35
413.198	2.47
413.406	2.41
413.614	2.6
413.822	2.73
414.03	2.79
414.238	2.81
414.446	2.85
414.654	2.68
414.862	2.5
415.07	2.28
415.278	2.27
415.486	2.12
415.694	2.21
415.902	2.17
416.109	2.35
416.317	2.3
416.525	2.25
416.733	2.11
416.941	2.13
417.149	2.06
417.357	2.11
417.564	2.24
417.772	2.48
417.98	2.64
418.188	2.64
418.395	2.41
418.603	2.26
418.811	2.08
419.019	2.01
419.226	2.07
419.434	2.1
419.642	2.04
419.849	2.08
420.057	2.09
420.265	2.09
420.472	2.13
420.68	2.25
420.887	2.2
421.095	2.34
421.302	2.25
421.51	2.26
421.717	2.41
421.925	2.47
422.132	2.38
422.34	2.3
422.547	2.28
422.755	2.19
422.962	2.19
423.17	1.92
423.377	2.17
423.585	2.33
423.792	2.26
423.999	2.18
424.207	2.3
424.414	2.1
424.621	1.92
424.829	1.99
425.036	2.04
425.243	2.04
425.451	2.05
425.658	2.16
425.865	2.19
426.072	2.1
426.28	2.15
426.487	2.25
426.694	2.13
426.901	2
427.108	1.99
427.315	2
427.523	1.9
427.73	2
427.937	1.93
428.144	1.98
428.351	1.98
428.558	2.08
428.765	2.06
428.972	2.14
429.179	2.01
429.386	1.97
429.593	1.91
429.8	1.93
430.007	1.96
430.214	2.08
430.421	2.17
430.628	2.17
430.835	2.09
431.042	1.98
431.249	1.94
431.456	1.87
431.662	1.98
431.869	2.17
432.076	2.25
432.283	2.37
432.49	2.35
432.697	2.23
432.903	2.07
433.11	2.14
433.317	2.14
433.524	2.23
433.73	2.21
433.937	2.34
434.144	2.19
434.35	2.01
434.557	2.12
434.764	2.08
434.97	1.9
435.177	2.08
435.384	2.36
435.59	2.12
435.797	2.3
436.003	2.37
436.21	2.25
436.416	2.11
436.623	2.28
436.829	2.22
437.036	2.15
437.242	2.32
437.449	2.34
437.655	2.29
437.862	2.33
438.068	2.34
438.275	2.36
438.481	2.3
438.687	2.32
438.894	2.35
439.1	2.28
439.307	2.29
439.513	2.34
439.719	2.41
439.926	2.35
440.132	2.5
440.338	2.39
440.544	2.41
440.751	2.27
440.957	2.35
441.163	2.36
441.369	2.37
441.575	2.35
441.782	2.44
441.988	2.49
442.194	2.47
442.4	2.46
442.606	2.56
442.812	2.52
443.018	2.47
443.224	2.57
443.431	2.6
443.637	2.57
443.843	2.68
444.049	2.73
444.255	2.68
444.461	2.62
444.667	2.59
444.873	2.55
445.079	2.45
445.284	2.49
445.49	2.52
445.696	2.55
445.902	2.51
446.108	2.57
446.314	2.54
446.52	2.58
446.726	2.58
446.931	2.48
447.137	2.51
447.343	2.59
447.549	2.63
447.755	2.58
447.96	2.74
448.166	2.72
448.372	2.7
448.578	2.59
448.783	2.59
448.989	2.63
449.195	2.56
449.4	2.59
449.606	2.67
449.812	2.66
450.017	2.6
450.223	2.66
450.428	2.66
450.634	2.7
450.84	2.73
451.045	2.78
451.251	2.84
451.456	2.79
451.662	2.78
451.867	2.84
452.073	2.84
452.278	2.8
452.483	2.84
452.689	2.88
452.894	2.87
453.1	2.78
453.305	2.85
453.51	2.9
453.716	2.86
453.921	2.88
454.127	2.92
454.332	2.91
454.537	2.8
454.742	2.71
454.948	2.73
455.153	2.81
455.358	2.79
455.563	2.87
455.769	3.02
455.974	2.95
456.179	2.85
456.384	2.73
456.589	2.58
456.795	2.5
457	2.52
457.205	2.48
457.41	2.51
457.615	2.6
457.82	2.7
458.025	2.7
458.23	2.79
458.435	2.83
458.64	2.83
458.845	2.78
459.05	2.82
459.255	2.78
459.46	2.79
459.665	2.79
459.87	2.77
460.075	2.82
460.28	2.95
460.485	2.97
460.69	2.99
460.895	3.1
461.099	2.92
461.304	2.72
461.509	2.79
461.714	2.86
461.919	2.78
462.123	2.96
462.328	3.01
462.533	2.94
462.738	2.84
462.942	2.82
463.147	2.72
463.352	2.79
463.556	2.79
463.761	2.8
463.966	2.85
464.17	2.89
464.375	2.99
464.58	2.98
464.784	2.99
464.989	2.99
465.193	2.97
465.398	2.92
465.602	3.09
465.807	3.11
466.011	3.04
466.216	3
466.42	3.03
466.625	2.97
466.829	2.96
467.034	3.1
467.238	3.2
