Data from Ofra_1a_PS_4HS15_Reflection_3.txt Node
Date: Tue Jul 20 10:57:38 EDT 2021
User: Adam
Spectrometer: FLMT01687
Trigger mode: 0
Integration Time (sec): 1.004000E0
Scans to average: 2
Electric dark correction enabled: true
Nonlinearity correction enabled: false
Boxcar width: 2
XAxis mode: Wavelengths
Number of Pixels in Spectrum: 3648
>>>>>Begin Spectral Data<<<<<
179.494	-181.73
179.716	-348.85
179.937	735.12
180.158	-513.38
180.38	91.05
180.601	1.67
180.823	-80.54
181.044	-178.54
181.265	74.94
181.486	120.66
181.708	-4.21
181.929	5472.73
182.15	-127.22
182.372	30.54
182.593	408.36
182.814	-206.11
183.035	-50.35
183.257	5.86
183.478	-11.42
183.699	-0.93
183.92	-23
184.141	-11.36
184.363	-9.9
184.584	8.89
184.805	22.05
185.026	36.76
185.247	22.64
185.468	-9.77
185.689	-2.99
185.91	-48.35
186.132	-35.53
186.353	-23.06
186.574	-23.76
186.795	-31.19
187.016	-5.96
187.237	-26.31
187.458	-40.93
187.679	-24.73
187.9	-19.19
188.121	-14.34
188.342	34.99
188.563	68.51
188.784	65.98
189.005	73.7
189.226	53.64
189.447	45.37
189.667	32.28
189.888	24.45
190.109	-2.38
190.33	11.25
190.551	-8.1
190.772	-5.22
190.993	-35.34
191.214	-45.95
191.434	-91.37
191.655	-126.15
191.876	-54.75
192.097	-4.79
192.318	29.98
192.538	0.81
192.759	25.07
192.98	24.2
193.201	10.16
193.421	4.65
193.642	27.65
193.863	21.71
194.083	6.93
194.304	20.49
194.525	6.54
194.745	-13.49
194.966	-10.55
195.187	0.96
195.407	-38.31
195.628	-17.38
195.848	-14.03
196.069	-41.6
196.29	-45.6
196.51	-16.54
196.731	-20.25
196.951	-40.81
197.172	-31.56
197.392	-52.87
197.613	-15.82
197.833	-38.94
198.054	-36.96
198.274	-24.87
198.495	-5.05
198.715	-52.42
198.936	-17.02
199.156	2.21
199.377	2.48
199.597	10.5
199.817	32.61
200.038	10.81
200.258	6.75
200.479	12.95
200.699	2.61
200.919	-3.32
201.14	6.41
201.36	-9.38
201.58	-18.34
201.801	-17.29
202.021	-10.95
202.241	-21.13
202.461	-2.65
202.682	-8.33
202.902	-0.24
203.122	2.31
203.342	7.03
203.563	-7.72
203.783	-11.02
204.003	-39.66
204.223	-21.4
204.443	-35.44
204.663	-56.65
204.884	-44.23
205.104	-14.43
205.324	2.58
205.544	-3.89
205.764	21.88
205.984	7.41
206.204	-0.05
206.424	-56.62
206.644	-62.11
206.864	-84.54
207.084	-37.23
207.304	-53.12
207.525	-23.45
207.745	3.84
207.964	-3.71
208.184	9.29
208.404	12.91
208.624	20.4
208.844	14.28
209.064	26.75
209.284	8.11
209.504	-1.21
209.724	7.15
209.944	-6.67
210.164	-0.85
210.384	-2.44
210.604	-14.9
210.823	-76.01
211.043	-32.28
211.263	-106.57
211.483	-47.36
211.703	-24.08
211.922	-32.38
212.142	-22.73
212.362	-22.1
212.582	-22.78
212.801	-29.3
213.021	-22.95
213.241	-22.49
213.461	-15.92
213.68	-1.56
213.9	-3.75
214.12	14.07
214.339	-4.3
214.559	5.12
214.779	-1.77
214.998	3.21
215.218	-18.16
215.438	-3.73
215.657	-15.55
215.877	-23.28
216.096	9.72
216.316	15.59
216.535	7.04
216.755	23.49
216.974	4.08
217.194	-17.61
217.413	1.92
217.633	9.31
217.852	3.88
218.072	19.3
218.291	13.61
218.511	-10.61
218.73	-26.95
218.95	-54.61
219.169	-76.45
219.389	-65.78
219.608	-52.39
219.827	-24.09
220.047	-10.97
220.266	-16.26
220.485	-24.28
220.705	-22.27
220.924	-75.54
221.143	-30.24
221.363	-6.82
221.582	5.67
221.801	3.18
222.021	26.38
222.24	45.73
222.459	57.46
222.678	50.96
222.897	54.34
223.117	56.91
223.336	36.95
223.555	30
223.774	38.78
223.993	58.91
224.213	67.27
224.432	61.03
224.651	46.35
224.87	34.1
225.089	13.7
225.308	13.33
225.527	-0.75
225.746	0.18
225.965	-7.19
226.184	-8.26
226.404	-21.91
226.623	-6.39
226.842	-13.67
227.061	-5.49
227.28	17.7
227.499	29.59
227.718	23.07
227.936	32.74
228.155	34.64
228.374	26.67
228.593	25.79
228.812	27.29
229.031	28.61
229.25	4.83
229.469	2.54
229.688	-6.65
229.907	-2.36
230.125	-6.54
230.344	11.65
230.563	20.87
230.782	21.33
231.001	14.78
231.22	16.45
231.438	18.95
231.657	8.29
231.876	4.95
232.095	20.13
232.313	-2.24
232.532	-12.89
232.751	-20.8
232.969	-24.98
233.188	-42.27
233.407	-14.6
233.625	-11.24
233.844	-10.11
234.063	-2.04
234.281	13.58
234.5	7.82
234.719	10.52
234.937	4.31
235.156	-2.86
235.374	-20.74
235.593	-18.33
235.811	-4.47
236.03	1.67
236.249	9.49
236.467	6.56
236.686	-2.34
236.904	-1.5
237.123	3.5
237.341	-11.1
237.559	-2.84
237.778	25.87
237.996	-0.63
238.215	-15.09
238.433	-43.46
238.652	-20.86
238.87	-40.32
239.088	-37.58
239.307	-14.78
239.525	-6.78
239.743	-12.33
239.962	-25.81
240.18	-1.36
240.398	-4.92
240.617	2.54
240.835	10.87
241.053	11.69
241.271	9.63
241.49	17.68
241.708	3.5
241.926	-6.93
242.144	-2.93
242.363	3.79
242.581	-19.7
242.799	33.39
243.017	49.66
243.235	24.44
243.453	-1.53
243.672	-4.05
243.89	-19.16
244.108	-20.88
244.326	-2.73
244.544	8.42
244.762	0.86
244.98	10.64
245.198	12.3
245.416	2.64
245.634	4.06
245.852	7.35
246.07	14.81
246.288	11.81
246.506	15.18
246.724	8.12
246.942	18.9
247.16	14.84
247.378	7.43
247.596	19.83
247.814	33.03
248.032	18.18
248.25	16.83
248.468	30.56
248.685	29.57
248.903	27.6
249.121	32.64
249.339	25.01
249.557	16.97
249.775	13.73
249.992	8.96
250.21	-5.7
250.428	11.88
250.646	18.27
250.863	7.48
251.081	12.87
251.299	30.87
251.517	25.59
251.734	7.3
251.952	13.54
252.17	2.6
252.387	-22.3
252.605	-26.75
252.823	-41.44
253.04	17.41
253.258	36.82
253.475	49.66
253.693	53.74
253.911	64.5
254.128	29.07
254.346	28.26
254.563	37.04
254.781	32.5
254.998	13.67
255.216	-12.8
255.433	-37.89
255.651	-49.4
255.868	-54.14
256.086	-30.72
256.303	-10.82
256.521	10.73
256.738	-12.57
256.956	-0.93
257.173	-11.75
257.39	-11.67
257.608	-24.4
257.825	-3.83
258.043	19.92
258.26	22.2
258.477	19.61
258.695	15.88
258.912	10.36
259.129	-29.26
259.346	-56.81
259.564	-44.2
259.781	-44.58
259.998	-27.5
260.216	-12.97
260.433	-5.22
260.65	-15.49
260.867	-6.61
261.084	-12.78
261.302	-27.41
261.519	0.41
261.736	20.5
261.953	19.33
262.17	28.68
262.387	30.37
262.604	26
262.822	36.86
263.039	41.13
263.256	36.96
263.473	31.44
263.69	25.58
263.907	16.62
264.124	7.93
264.341	9.52
264.558	25.26
264.775	33.48
264.992	14.38
265.209	2.64
265.426	-15.47
265.643	-21.62
265.86	-41.95
266.077	-1.73
266.294	5.23
266.51	32.57
266.727	29.92
266.944	35.7
267.161	21.87
267.378	17.16
267.595	-6.24
267.812	-20.2
268.028	-29.82
268.245	-23.71
268.462	-17.32
268.679	-3.6
268.896	9.49
269.112	-12.61
269.329	-25.13
269.546	-4.78
269.763	-11.87
269.979	-3.18
270.196	20.03
270.413	26.29
270.629	12.53
270.846	21.26
271.063	21.79
271.279	4.26
271.496	5.49
271.712	16.51
271.929	10.56
272.146	-0.03
272.362	12.49
272.579	8.06
272.795	0.93
273.012	27.65
273.228	40.32
273.445	34.37
273.661	28.56
273.878	15.13
274.094	4.46
274.311	-10.86
274.527	-28.96
274.744	-24.69
274.96	-1.36
275.177	-1.03
275.393	18.21
275.609	25.43
275.826	29.6
276.042	22.03
276.259	22.16
276.475	-4.21
276.691	-11.67
276.908	-18.5
277.124	-1.69
277.34	-13.27
277.557	-5.11
277.773	-10.58
277.989	-4.65
278.205	-22.38
278.422	-21.16
278.638	-26.07
278.854	-22.65
279.07	-13.13
279.286	-12.84
279.503	-4.51
279.719	-0.44
279.935	4.17
280.151	-1.05
280.367	7.61
280.583	3.14
280.799	-3.96
281.016	-32.56
281.232	-14.17
281.448	-15.98
281.664	-14.12
281.88	7.68
282.096	15.05
282.312	5.44
282.528	-9.64
282.744	-6.79
282.96	-36.13
283.176	-51.45
283.392	-77.51
283.608	-42.59
283.824	-63.67
284.04	-87.44
284.256	-40.87
284.471	-23.5
284.687	-16.75
284.903	-8.21
285.119	10.75
285.335	11.04
285.551	1.9
285.767	-10.46
285.982	-15.19
286.198	-28.21
286.414	-31.19
286.63	-24.57
286.846	-11.92
287.061	-19.35
287.277	-9.09
287.493	-24.48
287.709	-18.38
287.924	-3.35
288.14	11.81
288.356	25.92
288.571	30.26
288.787	24.1
289.003	20.52
289.218	-4.9
289.434	-23.67
289.65	-3.23
289.865	7.52
290.081	8.34
290.296	24.82
290.512	25.04
290.727	12.08
290.943	5.32
291.159	-5.69
291.374	-23.55
291.59	-15.19
291.805	-34.56
292.021	-24.55
292.236	-24.1
292.451	-8.01
292.667	-16.93
292.882	16.98
293.098	15.25
293.313	19.49
293.529	8.29
293.744	7.95
293.959	-4.57
294.175	-0.03
294.39	-19.14
294.605	5.84
294.821	-8.37
295.036	-11.89
295.251	-9.23
295.467	1.32
295.682	-6.64
295.897	-1
296.112	-5.69
296.328	-7.61
296.543	-19.21
296.758	-32.62
296.973	-18.13
297.188	-13.71
297.404	-48.75
297.619	-53.42
297.834	-80.89
298.049	-73.9
298.264	-63.26
298.479	-55.99
298.694	-13.78
298.909	0.73
299.125	-7.64
299.34	9.09
299.555	25.98
299.77	36.97
299.985	34.14
300.2	35.39
300.415	27.38
300.63	21.06
300.845	6.14
301.06	9.34
301.275	12.8
301.49	11.77
301.704	21
301.919	24.85
302.134	17.57
302.349	18.87
302.564	15.24
302.779	-0.03
302.994	-2.44
303.209	-1.23
303.423	-11.4
303.638	-6.14
303.853	-7.35
304.068	-25.71
304.283	-20.78
304.497	-33.95
304.712	-31.88
304.927	-19.47
305.142	-4.16
305.356	3.59
305.571	8.58
305.786	10.43
306	23.92
306.215	13.05
306.43	10.35
306.644	5.86
306.859	13.32
307.074	8.84
307.288	12.08
307.503	20.44
307.717	14
307.932	15.96
308.147	6.29
308.361	10.49
308.576	-7.92
308.79	-1.97
309.005	-6.86
309.219	8.35
309.434	20.69
309.648	16.36
309.863	22.76
310.077	25.51
310.292	25.77
310.506	9.91
310.72	26.39
310.935	29.79
311.149	24.29
311.364	9.46
311.578	29.54
311.792	22.21
312.007	23.63
312.221	-1.58
312.435	3.44
312.649	-7.21
312.864	-3.02
313.078	-6.79
313.292	15.2
313.507	17.08
313.721	14.97
313.935	11.28
314.149	14.16
314.363	5.23
314.578	2.68
314.792	-35.38
315.006	-39.75
315.22	-21.58
315.434	-32.14
315.648	-31.5
315.862	-19.35
316.077	-11.19
316.291	-19.04
316.505	-23.01
316.719	-11
316.933	0.9
317.147	-2.9
317.361	2.12
317.575	-5.27
317.789	-7.17
318.003	-2.99
318.217	-8.14
318.431	-20.64
318.645	-12.55
318.859	-3.04
319.073	8.16
319.287	19.98
319.5	19.65
319.714	8.46
319.928	5.1
320.142	-9.95
320.356	-12.07
320.57	-21.37
320.784	-4.03
320.997	-28.51
321.211	-15.91
321.425	-43.88
321.639	-15.64
321.853	-2.13
322.066	-3.45
322.28	-0.36
322.494	1.51
322.707	-3.76
322.921	-6.34
323.135	1.76
323.349	-7.84
323.562	12.95
323.776	11.47
323.989	19.84
324.203	15.15
324.417	13.45
324.63	-2.97
324.844	-13.92
325.057	-57.67
325.271	-51.93
325.485	-41.82
325.698	-21.49
325.912	-2.53
326.125	-0.03
326.339	10.68
326.552	3.31
326.766	-6.92
326.979	-7.58
327.193	18.91
327.406	10.36
327.619	19.57
327.833	20.63
328.046	17.42
328.26	7.15
328.473	1.61
328.686	-5.52
328.9	-0.53
329.113	-19.03
329.326	-33.4
329.54	-13.07
329.753	3.84
329.966	4.93
330.179	13.11
330.393	22.86
330.606	13.41
330.819	-18.08
331.032	-25.71
331.246	-10.16
331.459	-1.19
331.672	-6.59
331.885	15.6
332.098	38.28
332.311	33.86
332.525	21.48
332.738	26.76
332.951	25.04
333.164	16.1
333.377	11.41
333.59	3.51
333.803	-0.37
334.016	-6.08
334.229	-9.21
334.442	-12.71
334.655	-0.78
334.868	-11.54
335.081	-17.01
335.294	-32.94
335.507	-25.66
335.72	-19.6
335.933	-10.99
336.146	-3.77
336.359	13.66
336.572	11.82
336.785	3.46
336.997	1.12
337.21	27.91
337.423	3.58
337.636	-3.15
337.849	4.18
338.062	2.24
338.274	-6.4
338.487	-15.88
338.7	-24.66
338.913	-24.65
339.125	-35.59
339.338	-20.41
339.551	2.27
339.763	15.59
339.976	27.16
340.189	37.87
340.402	37.24
340.614	38.08
340.827	25.39
341.039	22.39
341.252	18.65
341.465	5.85
341.677	13.83
341.89	9.82
342.102	4.82
342.315	7.85
342.527	14.85
342.74	-9.89
342.952	4.42
343.165	0.88
343.377	11.53
343.59	3.67
343.802	10.48
344.015	8.77
344.227	10.32
344.44	-16.56
344.652	-18.45
344.864	-4.03
345.077	-10.24
345.289	-3.93
345.502	9.93
345.714	24.33
345.926	21.08
346.139	9.49
346.351	6.37
346.563	8.55
346.775	-3.51
346.988	-3.56
347.2	2.97
347.412	8.15
347.624	1.08
347.837	7.2
348.049	0.24
348.261	-9.8
348.473	-18.31
348.685	-10.19
348.897	-8.18
349.11	8.89
349.322	28.69
349.534	32.71
349.746	32.53
349.958	10.68
350.17	-15.32
350.382	-13.86
350.594	-0.54
350.806	10.18
351.018	17.64
351.23	26.69
351.442	28.07
351.654	25.41
351.866	7.86
352.078	11.24
352.29	8.13
352.502	0.44
352.714	-10.47
352.926	1.93
353.138	16.71
353.35	11.69
353.561	9.41
353.773	4.21
353.985	14.64
354.197	13.37
354.409	10.23
354.621	-1.62
354.832	-10.04
355.044	-38.09
355.256	-46.08
355.468	-47.76
355.679	-14.12
355.891	2.88
356.103	11
356.314	4.79
356.526	-2.06
356.738	-5.34
356.949	-12.19
357.161	-0.82
357.373	-3.88
357.584	9.82
357.796	7.29
358.008	11.43
358.219	-2.56
358.431	-6.11
358.642	-15.21
358.854	-11.58
359.065	-20.07
359.277	-10.93
359.488	-18.83
359.7	-4.88
359.911	-12
360.123	8.94
360.334	-4.74
360.546	2.36
360.757	-9.26
360.969	-1.11
361.18	-22.81
361.391	5.25
361.603	11.41
361.814	22.41
362.025	18.16
362.237	23.54
362.448	25.68
362.659	17.64
362.871	-0.02
363.082	9.97
363.293	8.63
363.504	-11.37
363.716	-11.96
363.927	12.58
364.138	-18.23
364.349	-38.87
364.56	-39.56
364.772	-28.72
364.983	-22.66
365.194	-3.24
365.405	11.5
365.616	10.88
365.827	12.87
366.038	10.39
366.25	9.79
366.461	16.6
366.672	17.77
366.883	17.93
367.094	13.62
367.305	1.53
367.516	7.69
367.727	-0.66
367.938	-3.27
368.149	-11.94
368.36	1.92
368.571	-25.03
368.781	-23.02
368.992	-20.2
369.203	-12.03
369.414	-27.61
369.625	-21.61
369.836	11.22
370.047	14.34
370.258	21.1
370.468	14.75
370.679	27.83
370.89	8.07
371.101	12.14
371.312	-14.22
371.522	-2
371.733	-18.41
371.944	-34.46
372.155	-36.89
372.365	-4.47
372.576	6.71
372.787	33.59
372.997	28
373.208	25.62
373.419	7.93
373.629	-7.45
373.84	-38.71
374.05	-27.17
374.261	-33.89
374.472	-16.01
374.682	-10.93
374.893	-13.75
375.103	2.25
375.314	-8.87
375.524	-15.65
375.735	-5.24
375.945	4.17
376.156	-8.29
376.366	3.02
376.577	8.94
376.787	4.42
376.997	8.76
377.208	7.75
377.418	4.02
377.629	5.8
377.839	9.52
378.049	7.05
378.26	7.63
378.47	-5.82
378.68	-13.48
378.89	-12.39
379.101	-4.22
379.311	-1.51
379.521	7.74
379.732	17.57
379.942	3.28
380.152	-11.04
380.362	-14.41
380.572	-1.47
380.783	6.01
380.993	15.12
381.203	15.31
381.413	26.65
381.623	27.43
381.833	24.12
382.043	21.78
382.253	26.55
382.463	24.61
382.674	20.44
382.884	13.15
383.094	15.1
383.304	16.05
383.514	11.82
383.724	7.61
383.934	3.86
384.144	6.92
384.353	10.07
384.563	10.31
384.773	14.87
384.983	11.3
385.193	7.72
385.403	1.68
385.613	-5.26
385.823	-7.61
386.033	-4.13
386.242	-10.05
386.452	-12.39
386.662	-3.5
386.872	-3.39
387.082	-0.54
387.291	-2.83
387.501	1.3
387.711	-1.51
387.921	-1.25
388.13	-0.44
388.34	2.67
388.55	0.35
388.759	-5.73
388.969	-5.65
389.179	-5.76
389.388	-2.59
389.598	-1.98
389.807	-3.51
390.017	-3.92
390.227	-5.75
390.436	-4.19
390.646	-4.02
390.855	0.35
391.065	0.91
391.274	2.78
391.484	0.15
391.693	0.76
391.903	1.22
392.112	0.69
392.322	-4.24
392.531	-2.18
392.74	-1.67
392.95	-1.63
393.159	-0.82
393.369	3.72
393.578	2.86
393.787	2.74
393.997	2.73
394.206	1.42
394.415	1.22
394.625	0.6
394.834	-0.2
395.043	0.86
395.252	3.38
395.462	4.46
395.671	5.43
395.88	6.5
396.089	6.2
396.298	5.15
396.508	3.86
396.717	3.82
396.926	2.93
397.135	3.58
397.344	3.75
397.553	3
397.762	4
397.971	3.98
398.181	3.34
398.39	3.4
398.599	4.06
398.808	3.83
399.017	4.34
399.226	4.31
399.435	3.89
399.644	4.4
399.853	4.16
400.062	4.23
400.27	3.74
400.479	3.69
400.688	3.47
400.897	3.08
401.106	3.32
401.315	3.62
401.524	3.72
401.733	3.5
401.941	3.75
402.15	3.4
402.359	3.55
402.568	3.72
402.777	3.9
402.985	3.49
403.194	3.41
403.403	3.64
403.612	3.63
403.82	3.25
404.029	3.39
404.238	3.21
404.446	3.08
404.655	2.89
404.864	3.13
405.072	3.18
405.281	3.4
405.489	3.25
405.698	3.5
405.906	3.58
406.115	3.71
406.324	3.64
406.532	3.72
406.741	3.55
406.949	3.5
407.158	3.54
407.366	3.38
407.574	3.27
407.783	3.22
407.991	3.07
408.2	3.02
408.408	3.17
408.617	3.14
408.825	3.03
409.033	3.09
409.242	3.17
409.45	3.04
409.658	3.08
409.867	3.15
410.075	3.18
410.283	3
410.491	3.01
410.7	2.92
410.908	3
411.116	2.99
411.324	3
411.533	2.91
411.741	2.94
411.949	2.9
412.157	2.85
412.365	2.86
412.573	3.02
412.781	2.96
412.99	2.98
413.198	2.9
413.406	2.91
413.614	2.99
413.822	3.17
414.03	3.05
414.238	3.21
414.446	3.28
414.654	3.07
414.862	2.88
415.07	2.86
415.278	2.8
415.486	2.68
415.694	2.83
415.902	2.82
416.109	2.81
416.317	2.77
416.525	2.69
416.733	2.47
416.941	2.66
417.149	2.66
417.357	2.67
417.564	2.68
417.772	2.89
417.98	2.71
418.188	2.7
418.395	2.55
418.603	2.48
418.811	2.29
419.019	2.35
419.226	2.45
419.434	2.57
419.642	2.41
419.849	2.47
420.057	2.33
420.265	2.21
420.472	2.07
420.68	2.22
420.887	2.28
421.095	2.5
421.302	2.69
421.51	2.85
421.717	2.87
421.925	2.95
422.132	2.84
422.34	2.6
422.547	2.56
422.755	2.61
422.962	2.56
423.17	2.46
423.377	2.53
423.585	2.69
423.792	2.71
423.999	2.69
424.207	2.66
424.414	2.75
424.621	2.66
424.829	2.7
425.036	2.7
425.243	2.9
425.451	2.8
425.658	2.7
425.865	2.61
426.072	2.65
426.28	2.62
426.487	2.61
426.694	2.56
426.901	2.62
427.108	2.46
427.315	2.31
427.523	2.24
427.73	2.3
427.937	2.21
428.144	2.33
428.351	2.49
428.558	2.61
428.765	2.69
428.972	2.8
429.179	2.65
429.386	2.59
429.593	2.5
429.8	2.49
430.007	2.47
430.214	2.51
430.421	2.56
430.628	2.7
430.835	2.66
431.042	2.52
431.249	2.54
431.456	2.45
431.662	2.53
431.869	2.74
432.076	2.78
432.283	2.87
432.49	2.99
432.697	2.87
432.903	2.71
433.11	2.89
433.317	2.86
433.524	2.79
433.73	2.7
433.937	2.79
434.144	2.58
434.35	2.55
434.557	2.61
434.764	2.66
434.97	2.5
435.177	2.71
435.384	2.73
435.59	2.69
435.797	2.77
436.003	2.8
436.21	2.63
436.416	2.72
436.623	2.81
436.829	2.77
437.036	2.77
437.242	2.92
437.449	2.92
437.655	2.93
437.862	2.97
438.068	2.97
438.275	2.98
438.481	3.03
438.687	2.82
438.894	2.98
439.1	3.05
439.307	3.07
439.513	3.09
439.719	3.2
439.926	3.18
440.132	3.16
440.338	3.1
440.544	3.01
440.751	3.02
440.957	2.96
441.163	2.85
441.369	2.86
441.575	2.8
441.782	2.77
441.988	2.84
442.194	2.94
442.4	2.87
442.606	3.02
442.812	3.07
443.018	2.99
443.224	3.1
443.431	3.16
443.637	3.1
443.843	3.09
444.049	3.25
444.255	3.13
444.461	3.09
444.667	3.12
444.873	3.22
445.079	3.08
445.284	3.14
445.49	3.13
445.696	3.06
445.902	3.01
446.108	3.05
446.314	3.05
446.52	3.15
446.726	3.21
446.931	3.13
447.137	3.07
447.343	3.17
447.549	3.12
447.755	3.12
447.96	3.13
448.166	3.17
448.372	3.06
448.578	3.01
448.783	3.01
448.989	3.11
449.195	3.13
449.4	3.18
449.606	3.25
449.812	3.15
450.017	3.12
450.223	3.16
450.428	3.11
450.634	3.15
450.84	3.27
451.045	3.27
451.251	3.22
451.456	3.32
451.662	3.26
451.867	3.26
452.073	3.3
452.278	3.33
452.483	3.3
452.689	3.32
452.894	3.34
453.1	3.28
453.305	3.31
453.51	3.35
453.716	3.35
453.921	3.36
454.127	3.39
454.332	3.34
454.537	3.27
454.742	3.31
454.948	3.29
455.153	3.22
455.358	3.19
455.563	3.28
455.769	3.31
455.974	3.34
456.179	3.4
456.384	3.43
456.589	3.37
456.795	3.3
457	3.34
457.205	3.29
457.41	3.37
457.615	3.32
457.82	3.47
458.025	3.47
458.23	3.57
458.435	3.55
458.64	3.62
458.845	3.47
459.05	3.47
459.255	3.43
459.46	3.37
459.665	3.37
459.87	3.37
460.075	3.35
460.28	3.42
460.485	3.54
460.69	3.5
460.895	3.62
461.099	3.56
461.304	3.44
461.509	3.37
461.714	3.47
461.919	3.36
462.123	3.44
462.328	3.42
462.533	3.33
462.738	3.31
462.942	3.27
463.147	3.29
463.352	3.38
463.556	3.44
463.761	3.35
463.966	3.44
464.17	3.48
464.375	3.67
464.58	3.64
464.784	3.73
464.989	3.78
465.193	3.76
465.398	3.64
465.602	3.75
465.807	3.77
466.011	3.79
466.216	3.77
