Data from Ofra_PS_T2_2A_0GT01_Reflection_2.txt Node
Date: Wed Jul 21 16:50:45 EDT 2021
User: Adam
Spectrometer: FLMT01687
Trigger mode: 0
Integration Time (sec): 1.100000E0
Scans to average: 2
Electric dark correction enabled: true
Nonlinearity correction enabled: false
Boxcar width: 2
XAxis mode: Wavelengths
Number of Pixels in Spectrum: 3648
>>>>>Begin Spectral Data<<<<<
179.494	391.6
179.716	448.71
179.937	443.85
180.158	456.62
180.38	815.31
180.601	374.31
180.823	111.13
181.044	-62.8
181.265	-128.31
181.486	-99.06
181.708	-19.52
181.929	-13.27
182.15	-282.39
182.372	7.26
182.593	-100.17
182.814	-38.64
183.035	16.78
183.257	52.32
183.478	7.77
183.699	27.6
183.92	30.55
184.141	-14.29
184.363	-89.56
184.584	-64
184.805	-58.47
185.026	-54.52
185.247	-26.49
185.468	-17.66
185.689	-33.83
185.91	-11.13
186.132	-22.01
186.353	-10.52
186.574	21.85
186.795	48.15
187.016	-15.55
187.237	-15.93
187.458	-68.32
187.679	-79.47
187.9	-83.42
188.121	-36.65
188.342	-39.26
188.563	8.64
188.784	11.75
189.005	25
189.226	15.77
189.447	32.19
189.667	-135.19
189.888	-282.02
190.109	-1000.65
190.33	-413.87
190.551	-854.42
190.772	-179.3
190.993	-168.85
191.214	-147.27
191.434	-110.14
191.655	-61.04
191.876	-138.45
192.097	-159.88
192.318	-196.62
192.538	-269.06
192.759	-150.16
192.98	-62.06
193.201	-1.37
193.421	13.32
193.642	22.23
193.863	19.75
194.083	5.88
194.304	-17.65
194.525	-22.75
194.745	-63.65
194.966	-52.86
195.187	-23.26
195.407	-16.26
195.628	-45.13
195.848	-29.83
196.069	-2.06
196.29	-11.19
196.51	-14.63
196.731	-9.27
196.951	-25.52
197.172	-65.95
197.392	-100.79
197.613	-109.13
197.833	-123.17
198.054	-85.79
198.274	-30.61
198.495	-27.79
198.715	10.8
198.936	-6.57
199.156	-1.29
199.377	-58.34
199.597	-63.74
199.817	-121.12
200.038	-68.11
200.258	-128.28
200.479	-112.53
200.699	-101.15
200.919	-19.27
201.14	-28.35
201.36	-24.11
201.58	12.79
201.801	16.52
202.021	-20.09
202.241	-14.2
202.461	-15.97
202.682	-98.64
202.902	-101.66
203.122	-39.8
203.342	-34.22
203.563	9.53
203.783	32.09
204.003	2.77
204.223	9.97
204.443	23.67
204.663	-52.12
204.884	-38.49
205.104	-25.05
205.324	-36.26
205.544	-34.16
205.764	24.67
205.984	27.06
206.204	39.6
206.424	32.77
206.644	22.52
206.864	7.44
207.084	-5.71
207.304	-39.48
207.525	-119.84
207.745	-34.8
207.964	23.79
208.184	-14.29
208.404	-17.17
208.624	-10.92
208.844	-46.81
209.064	-249.42
209.284	-273.45
209.504	-172.7
209.724	-61.7
209.944	-26.6
210.164	-8.56
210.384	-5.15
210.604	-12.47
210.823	-52.48
211.043	-46.83
211.263	-30.07
211.483	-14.77
211.703	-36.14
211.922	-11.78
212.142	15.17
212.362	4.87
212.582	-2.74
212.801	-5.01
213.021	-13.22
213.241	-32.25
213.461	-47.01
213.68	-36.17
213.9	-43.71
214.12	-26.46
214.339	-51.45
214.559	-30.18
214.779	-6.86
214.998	9.01
215.218	-34.7
215.438	-15.26
215.657	-28.79
215.877	-60.34
216.096	-23.55
216.316	-3.21
216.535	-21.52
216.755	-11.79
216.974	-65.67
217.194	-132.34
217.413	-99.68
217.633	-84.6
217.852	-157.68
218.072	-64.3
218.291	-4.97
218.511	2.31
218.73	-14.2
218.95	5.12
219.169	8.8
219.389	-20.96
219.608	-7.09
219.827	-7.22
220.047	-13.95
220.266	-14.35
220.485	-8.26
220.705	-8.5
220.924	-10.42
221.143	15.21
221.363	4.37
221.582	8.03
221.801	-9.99
222.021	8.6
222.24	-52.72
222.459	5.77
222.678	-18.98
222.897	-45.49
223.117	-63.29
223.336	-55.46
223.555	-67.05
223.774	2.2
223.993	19.14
224.213	39.31
224.432	13.4
224.651	44.9
224.87	13.9
225.089	27.19
225.308	32.27
225.527	41.8
225.746	33.63
225.965	26.32
226.184	14.51
226.404	14.08
226.623	2.9
226.842	3.92
227.061	33.28
227.28	32.46
227.499	19.8
227.718	36.33
227.936	35.74
228.155	14.13
228.374	23.42
228.593	20.34
228.812	6.8
229.031	6.51
229.25	-8.09
229.469	-25.04
229.688	-1.45
229.907	22.89
230.125	13.64
230.344	2.08
230.563	9.34
230.782	14.51
231.001	-60.06
231.22	-29.59
231.438	-20.87
231.657	-7.49
231.876	-20.53
232.095	17.94
232.313	-2.81
232.532	-3.6
232.751	-47.06
232.969	-50.6
233.188	-109.6
233.407	-24.71
233.625	-11.06
233.844	2.16
234.063	0.99
234.281	11.23
234.5	-3.19
234.719	4.19
234.937	9.71
235.156	6.36
235.374	5.31
235.593	-20.47
235.811	-22.15
236.03	-26.8
236.249	-44.83
236.467	-41.73
236.686	22.06
236.904	12.91
237.123	-9.31
237.341	-3.34
237.559	15.52
237.778	-11.25
237.996	-17.34
238.215	17.41
238.433	20.66
238.652	-2.26
238.87	-9.14
239.088	-11.39
239.307	-18.23
239.525	-19.84
239.743	-23.84
239.962	-17.8
240.18	-17
240.398	-41.73
240.617	-53.35
240.835	-48.1
241.053	-28.84
241.271	-1.16
241.49	10.04
241.708	5.34
241.926	-18.81
242.144	-31.91
242.363	-68.79
242.581	-86.25
242.799	-62.44
243.017	-16.21
243.235	-21.28
243.453	1.36
243.672	11.64
243.89	18.94
244.108	7.84
244.326	30.85
244.544	34.83
244.762	22.77
244.98	34.68
245.198	39.9
245.416	13.53
245.634	-8.1
245.852	-6.92
246.07	-30.04
246.288	-37.6
246.506	-73.77
246.724	-39.16
246.942	-17.23
247.16	-9.9
247.378	-3.3
247.596	26.51
247.814	20.98
248.032	11.23
248.25	18.97
248.468	13.95
248.685	13.41
248.903	20.56
249.121	11.83
249.339	6.79
249.557	2.43
249.775	1.58
249.992	-23.96
250.21	-15.05
250.428	-12.05
250.646	-33.87
250.863	-33.18
251.081	-16.4
251.299	-42.03
251.517	-31.44
251.734	-3.4
251.952	-6.58
252.17	-0.64
252.387	17.69
252.605	8.51
252.823	6
253.04	14.85
253.258	15.93
253.475	-10.64
253.693	10.57
253.911	10.69
254.128	9.41
254.346	0.04
254.563	-0.34
254.781	-24.98
254.998	-32.01
255.216	-46.59
255.433	-39.33
255.651	-1.07
255.868	-7.12
256.086	23.1
256.303	33.4
256.521	32.23
256.738	16.87
256.956	-8.28
257.173	-44.99
257.39	-71.35
257.608	-97.46
257.825	-83.21
258.043	-61.4
258.26	-50.1
258.477	-4.29
258.695	-7.77
258.912	-22.79
259.129	3.97
259.346	-11.48
259.564	-52.93
259.781	-71.78
259.998	-25.15
260.216	-22.92
260.433	15.41
260.65	3.28
260.867	16.18
261.084	-6.98
261.302	-33.1
261.519	-39.67
261.736	-28.91
261.953	-48.03
262.17	-20.54
262.387	-39.72
262.604	-86.34
262.822	-80.42
263.039	-45.87
263.256	-71.41
263.473	-21.76
263.69	8.29
263.907	27.97
264.124	16.02
264.341	7.86
264.558	0.18
264.775	14.77
264.992	7.56
265.209	4.76
265.426	17.69
265.643	32.95
265.86	28.67
266.077	28.14
266.294	42.66
266.51	14.64
266.727	-20.02
266.944	-15.45
267.161	-26.84
267.378	-43.75
267.595	-20.02
267.812	-34.73
268.028	-68.25
268.245	-77.8
268.462	-59.97
268.679	-61.12
268.896	-11.72
269.112	-9.96
269.329	-1.21
269.546	5.29
269.763	3.3
269.979	-7.32
270.196	0.88
270.413	-19.07
270.629	-32.9
270.846	-37.29
271.063	-29.9
271.279	-30.17
271.496	-10.23
271.712	23.11
271.929	20.16
272.146	-14.33
272.362	4.14
272.579	10.77
272.795	6.81
273.012	29.28
273.228	60.04
273.445	33.24
273.661	34.09
273.878	14.42
274.094	7.07
274.311	-41.3
274.527	0.61
274.744	-1.3
274.96	-15.68
275.177	-17.14
275.393	9.07
275.609	-18.79
275.826	-9.03
276.042	-14.02
276.259	-27.04
276.475	-8.76
276.691	7.67
276.908	-0.6
277.124	9.47
277.34	18.09
277.557	2.32
277.773	-10.41
277.989	-19.21
278.205	-22.85
278.422	-12.82
278.638	-14.66
278.854	8.08
279.07	21.29
279.286	26.94
279.503	-4.96
279.719	-13.38
279.935	-56.99
280.151	-69.94
280.367	-55.65
280.583	-74.07
280.799	-55.11
281.016	-70.04
281.232	-38.92
281.448	-41.54
281.664	-10.29
281.88	-30.88
282.096	-1.81
282.312	15.4
282.528	4.48
282.744	7.01
282.96	13.56
283.176	0.7
283.392	-5.17
283.608	-3.17
283.824	4.59
284.04	4.16
284.256	12.86
284.471	5.67
284.687	8.64
284.903	9.32
285.119	26.28
285.335	17.97
285.551	15.88
285.767	13.86
285.982	7.53
286.198	-11.4
286.414	14.79
286.63	16.51
286.846	22.82
287.061	5.02
287.277	24.12
287.493	-2
287.709	11.91
287.924	6.04
288.14	44.57
288.356	41.5
288.571	60.49
288.787	30.1
289.003	22.79
289.218	1.06
289.434	-12.38
289.65	-27.65
289.865	-22.59
290.081	-14.62
290.296	-12.42
290.512	-10.12
290.727	-22.01
290.943	-31.08
291.159	-19.41
291.374	-34
291.59	-60.81
291.805	-33.7
292.021	-3.76
292.236	-8.4
292.451	10.14
292.667	26.52
292.882	35.71
293.098	21.43
293.313	3.99
293.529	-2.06
293.744	-30.74
293.959	-46.04
294.175	-30.55
294.39	1.94
294.605	8.56
294.821	23.52
295.036	34
295.251	32.15
295.467	17.04
295.682	-6.28
295.897	-36.84
296.112	-52.2
296.328	-41.16
296.543	-52.14
296.758	-6.99
296.973	13.91
297.188	36.76
297.404	17.2
297.619	7.29
297.834	-7.01
298.049	-8.74
298.264	-54.34
298.479	-22.09
298.694	-12.57
298.909	-17.43
299.125	-11.95
299.34	-4.03
299.555	-13.81
299.77	-15.45
299.985	-29.04
300.2	-53.56
300.415	-65.7
300.63	-45.55
300.845	-41.63
301.06	-44.35
301.275	-30.69
301.49	1.21
301.704	-5.65
301.919	-25.54
302.134	-22.03
302.349	-23.74
302.564	-92
302.779	-100.06
302.994	-78.92
303.209	-35.41
303.423	-12.72
303.638	34.54
303.853	10.25
304.068	9.85
304.283	-2.78
304.497	-2.89
304.712	-14.39
304.927	-16
305.142	-16.08
305.356	-20.73
305.571	-21.83
305.786	-35.04
306	-34.1
306.215	-39.68
306.43	-35.35
306.644	-19.5
306.859	30.76
307.074	40.32
307.288	30.46
307.503	11.79
307.717	-1.49
307.932	-17.53
308.147	-40.27
308.361	-46.03
308.576	-37.45
308.79	-79.6
309.005	-72.13
309.219	-55
309.434	-50
309.648	-29.95
309.863	-6.11
310.077	2.67
310.292	1.65
310.506	-2.74
310.72	7.95
310.935	0.35
311.149	-7.84
311.364	5.08
311.578	25.06
311.792	15.9
312.007	20.08
312.221	17.26
312.435	13.19
312.649	0.7
312.864	-33.54
313.078	-34.98
313.292	-6
313.507	-46.3
313.721	-58.96
313.935	8.25
314.149	-1.5
314.363	-6.09
314.578	11.63
314.792	16.84
315.006	12.98
315.22	25.94
315.434	18.64
315.648	8.92
315.862	4.37
316.077	-2.08
316.291	-10.79
316.505	6.83
316.719	18.91
316.933	-7.99
317.147	10.11
317.361	-32.18
317.575	-54.32
317.789	-80.14
318.003	-133.31
318.217	-110
318.431	-36.26
318.645	7.4
318.859	17.04
319.073	35.12
319.287	25.04
319.5	16.65
319.714	-16.92
319.928	-35.75
320.142	-57.36
320.356	-36.52
320.57	-35.57
320.784	-38.81
320.997	-29.91
321.211	-26.72
321.425	-41.61
321.639	-64.05
321.853	-37.36
322.066	-20.79
322.28	-10.96
322.494	-10.65
322.707	13.11
322.921	22.03
323.135	7.89
323.349	21.59
323.562	12.55
323.776	-0.62
323.989	-0.3
324.203	-12.45
324.417	-42.79
324.63	-54.91
324.844	-44.2
325.057	-55.65
325.271	-36.43
325.485	0.74
325.698	15.87
325.912	19.83
326.125	-1.09
326.339	6.69
326.552	-21.21
326.766	-20.88
326.979	-21.45
327.193	7.02
327.406	-10.53
327.619	-7.4
327.833	-0.99
328.046	-19.89
328.26	-32.97
328.473	-14.97
328.686	-30.81
328.9	-43.06
329.113	-10.97
329.326	-12.13
329.54	-2.25
329.753	0.77
329.966	21.81
330.179	19.63
330.393	11.54
330.606	7.82
330.819	14.15
331.032	25.33
331.246	21.79
331.459	32.83
331.672	28.7
331.885	26.33
332.098	6.41
332.311	8.4
332.525	-13.02
332.738	-6.04
332.951	5.92
333.164	17.41
333.377	18.13
333.59	25.03
333.803	37.56
334.016	26.27
334.229	27.25
334.442	28.01
334.655	31.25
334.868	30.45
335.081	38.46
335.294	25.82
335.507	24.66
335.72	20.79
335.933	-1.51
336.146	-6.82
336.359	-8.37
336.572	-38
336.785	-62.35
336.997	-53.16
337.21	-33.01
337.423	-27.16
337.636	-11.4
337.849	2.03
338.062	-5.25
338.274	-19.6
338.487	-20.62
338.7	-22.92
338.913	-34.89
339.125	-51.51
339.338	-77.71
339.551	-91.85
339.763	-74.72
339.976	-37.52
340.189	-1.96
340.402	6.49
340.614	16.45
340.827	15.05
341.039	7.19
341.252	3.03
341.465	23.24
341.677	20.56
341.89	-6.89
342.102	-4.49
342.315	-18.67
342.527	-60.39
342.74	-45.3
342.952	-29.53
343.165	-32.76
343.377	-22.93
343.59	-18.97
343.802	-13.84
344.015	-9.77
344.227	-4.19
344.44	-2.96
344.652	10.87
344.864	1.1
345.077	23.56
345.289	17.16
345.502	14.56
345.714	0.69
345.926	9.39
346.139	-6.28
346.351	0.44
346.563	15.85
346.775	19.26
346.988	15.94
347.2	10.62
347.412	-17.52
347.624	-49.28
347.837	-56.31
348.049	-56.06
348.261	-18.22
348.473	-8.35
348.685	10.06
348.897	24.3
349.11	-1.68
349.322	-38.7
349.534	-22.46
349.746	-26.46
349.958	-33.1
350.17	-3.85
350.382	24.61
350.594	21.88
350.806	28.52
351.018	15.94
351.23	-4
351.442	-46.6
351.654	-45.16
351.866	-55.56
352.078	-42.37
352.29	-13.26
352.502	1.54
352.714	0.79
352.926	0.29
353.138	-0.1
353.35	0.02
353.561	1.08
353.773	-9.12
353.985	-0.69
354.197	1.79
354.409	-5.99
354.621	-14.82
354.832	-3.8
355.044	-11.48
355.256	-16.12
355.468	-3.05
355.679	0.91
355.891	11.9
356.103	5.38
356.314	14.1
356.526	14.89
356.738	10.14
356.949	-9.18
357.161	-0.5
357.373	-16.08
357.584	-22.52
357.796	-9.1
358.008	-9.01
358.219	4.35
358.431	9.46
358.642	17.81
358.854	13.13
359.065	0.98
359.277	-22.98
359.488	-26.12
359.7	-43.13
359.911	-45.95
360.123	-27.67
360.334	-28.42
360.546	-37.85
360.757	-45.3
360.969	-34.11
361.18	-28.43
361.391	-20.02
361.603	-12.72
361.814	-15.21
362.025	-19.88
362.237	-27.24
362.448	-23.4
362.659	-8.89
362.871	-1.9
363.082	-5.39
363.293	-6.19
363.504	-14.33
363.716	-35.97
363.927	-34.21
364.138	-39.38
364.349	-37.86
364.56	-22.37
364.772	-21.65
364.983	3.82
365.194	2.12
365.405	7.54
365.616	11.14
365.827	18.33
366.038	-18.92
366.25	-20.31
366.461	-38.56
366.672	-17.05
366.883	-9.11
367.094	-1.79
367.305	0.5
367.516	-2.3
367.727	-28.85
367.938	-33.72
368.149	-26.06
368.36	-13.44
368.571	-9.2
368.781	-21.69
368.992	-31.04
369.203	-47.11
369.414	-80.05
369.625	-80.3
369.836	-57.8
370.047	-77.21
370.258	-58.61
370.468	-43.75
370.679	-45.86
370.89	-40.58
371.101	-24.55
371.312	-27.85
371.522	-14.91
371.733	-8.06
371.944	-5.33
372.155	1.49
372.365	-6.32
372.576	-14.18
372.787	-15.5
372.997	-33.22
373.208	-22.45
373.419	-11.11
373.629	-31.51
373.84	-25.15
374.05	-25.24
374.261	-22.62
374.472	-17.66
374.682	10.24
374.893	1.76
375.103	22.9
375.314	14.21
375.524	16.96
375.735	17.14
375.945	31.25
376.156	15.38
376.366	13.66
376.577	-1.92
376.787	2.46
376.997	-3.25
377.208	4.18
377.418	4.05
377.629	21.54
377.839	8.52
378.049	10.71
378.26	13.57
378.47	16.22
378.68	8.12
378.89	4.05
379.101	-1.44
379.311	-13.18
379.521	-19.76
379.732	-12.91
379.942	-7.15
380.152	-19.92
380.362	1.27
380.572	0.91
380.783	5.27
380.993	15.4
381.203	30.5
381.413	30.32
381.623	42.22
381.833	40.68
382.043	29.15
382.253	17.12
382.463	10.45
382.674	-3.2
382.884	-19.9
383.094	-11.34
383.304	6.01
383.514	4.76
383.724	4.39
383.934	8.13
384.144	-5.07
384.353	-16.46
384.563	-11.33
384.773	-6.75
384.983	-13.27
385.193	6.47
385.403	9.15
385.613	6.46
385.823	4.73
386.033	11.03
386.242	2.97
386.452	-0.77
386.662	-1.52
386.872	4.31
387.082	1.44
387.291	-5.12
387.501	-6.83
387.711	0.16
387.921	-5.06
388.13	-5.27
388.34	7.17
388.55	-0.14
388.759	-4.66
388.969	1.22
389.179	2.14
389.388	-1.56
389.598	5.7
389.807	0.63
390.017	-5.62
390.227	-4.88
390.436	-3.25
390.646	-2.25
390.855	2.72
391.065	3.46
391.274	2.91
391.484	-0.51
391.693	-0.55
391.903	0.01
392.112	4.28
392.322	7.11
392.531	10.41
392.74	10.46
392.95	7.21
393.159	7.01
393.369	5.8
393.578	5.59
393.787	5.31
393.997	7.41
394.206	6.09
394.415	6.7
394.625	4.91
394.834	3.84
395.043	4.37
395.252	5.75
395.462	6.41
395.671	6.82
395.88	8.53
396.089	8.73
396.298	6.97
396.508	6.43
396.717	6.33
396.926	5.8
397.135	5.15
397.344	6.25
397.553	6.39
397.762	7.24
397.971	7.73
398.181	7.75
398.39	7.33
398.599	7.35
398.808	7.06
399.017	7.15
399.226	7.95
399.435	8.55
399.644	8.37
399.853	8.25
400.062	7.85
400.27	7.51
400.479	6.81
400.688	6.74
400.897	6.92
401.106	7.51
401.315	7.88
401.524	8.29
401.733	8.44
401.941	9.08
402.15	8.8
402.359	8.43
402.568	8.82
402.777	9.05
402.985	8.6
403.194	8.79
403.403	8.75
403.612	8.35
403.82	8.1
404.029	8.25
404.238	8.04
404.446	8.3
404.655	8.17
404.864	8.06
405.072	7.75
405.281	7.91
405.489	7.84
405.698	7.98
405.906	8.2
406.115	8.25
406.324	8.1
406.532	8.08
406.741	8.17
406.949	8.23
407.158	8.5
407.366	8.53
407.574	8.7
407.783	8.66
407.991	8.39
408.2	8.27
408.408	8.26
408.617	8.03
408.825	7.87
409.033	7.95
409.242	7.85
409.45	7.96
409.658	7.81
409.867	7.87
410.075	7.8
410.283	7.81
410.491	7.61
410.7	7.6
410.908	7.65
411.116	7.73
411.324	7.61
411.533	7.6
411.741	7.82
411.949	7.59
412.157	7.55
412.365	7.75
412.573	7.7
412.781	7.63
412.99	7.79
413.198	7.8
413.406	7.69
413.614	7.65
413.822	7.49
414.03	7.42
414.238	7.33
414.446	7.25
414.654	7.21
414.862	7.31
415.07	7.45
415.278	7.45
415.486	7.49
415.694	7.5
415.902	7.33
416.109	7.06
416.317	7.04
416.525	6.87
416.733	6.84
416.941	6.93
417.149	7.05
417.357	7.07
417.564	7.16
417.772	7.36
417.98	7.28
418.188	7.13
418.395	7.14
418.603	7.19
418.811	6.97
419.019	6.97
419.226	7.27
419.434	7.3
419.642	7.2
419.849	7.17
420.057	7.09
420.265	7
420.472	7.03
420.68	7.11
420.887	7.08
421.095	7.06
421.302	6.97
421.51	6.79
421.717	6.7
421.925	6.78
422.132	6.8
422.34	6.6
422.547	6.63
422.755	6.54
422.962	6.38
423.17	6.39
423.377	6.63
423.585	6.59
423.792	6.71
423.999	6.83
424.207	6.83
424.414	6.74
424.621	6.72
424.829	6.64
425.036	6.68
425.243	6.87
425.451	6.77
425.658	6.72
425.865	6.79
426.072	6.85
426.28	6.78
426.487	6.78
426.694	6.76
426.901	6.63
427.108	6.46
427.315	6.52
427.523	6.79
427.73	6.74
427.937	6.87
428.144	6.79
428.351	6.61
428.558	6.53
428.765	6.51
428.972	6.32
429.179	6.51
429.386	6.63
429.593	6.39
429.8	6.46
430.007	6.7
430.214	6.66
430.421	6.5
430.628	6.54
430.835	6.5
431.042	6.54
431.249	6.72
431.456	6.81
431.662	6.9
431.869	7
432.076	6.97
432.283	6.8
432.49	6.91
432.697	6.87
432.903	6.69
433.11	6.75
433.317	6.86
433.524	6.82
433.73	6.98
433.937	7.29
434.144	7.21
434.35	7.19
434.557	7.1
434.764	6.96
434.97	6.77
435.177	6.9
435.384	6.91
435.59	7
435.797	7.41
436.003	7.55
436.21	7.52
436.416	7.61
436.623	7.72
436.829	7.52
437.036	7.68
437.242	7.66
437.449	7.47
437.655	7.4
437.862	7.37
438.068	7.18
438.275	7.28
438.481	7.49
438.687	7.53
438.894	7.62
439.1	7.75
439.307	7.85
439.513	7.8
439.719	7.8
439.926	7.8
440.132	7.78
440.338	7.69
440.544	7.79
440.751	7.86
440.957	7.99
441.163	8
441.369	8.13
441.575	8.04
441.782	7.98
441.988	7.82
442.194	7.77
442.4	7.69
442.606	7.89
442.812	8.01
443.018	8.08
443.224	8.09
443.431	8.23
443.637	8.07
443.843	7.99
444.049	8
444.255	7.99
444.461	7.93
444.667	7.95
444.873	8.01
445.079	8.04
445.284	8.17
445.49	8.05
445.696	8.03
445.902	8.04
446.108	7.97
446.314	8.02
446.52	8.1
446.726	8.34
446.931	8.4
447.137	8.48
447.343	8.44
447.549	8.42
447.755	8.28
447.96	8.28
448.166	8.28
448.372	8.2
448.578	8.27
448.783	8.24
448.989	8.29
449.195	8.39
449.4	8.5
449.606	8.49
449.812	8.42
450.017	8.48
450.223	8.5
450.428	8.42
450.634	8.4
450.84	8.5
451.045	8.41
451.251	8.32
451.456	8.53
451.662	8.61
451.867	8.67
452.073	8.67
452.278	8.76
452.483	8.79
452.689	8.7
452.894	8.71
453.1	8.65
453.305	8.66
453.51	8.61
453.716	8.64
453.921	8.64
454.127	8.65
454.332	8.51
454.537	8.46
454.742	8.43
454.948	8.36
455.153	8.44
455.358	8.6
455.563	8.66
455.769	8.77
455.974	8.82
456.179	8.76
456.384	8.72
456.589	8.71
456.795	8.57
457	8.6
457.205	8.68
457.41	8.74
457.615	8.69
457.82	8.83
458.025	8.69
458.23	8.63
458.435	8.56
458.64	8.52
458.845	8.61
459.05	8.69
459.255	8.84
459.46	8.89
459.665	8.97
459.87	8.97
460.075	9.02
460.28	8.95
460.485	8.99
460.69	8.9
460.895	8.75
461.099	8.73
461.304	8.91
461.509	8.9
461.714	8.94
461.919	9.01
462.123	9
462.328	8.94
462.533	8.93
462.738	9.02
462.942	8.96
463.147	9.03
463.352	9.06
463.556	9.09
463.761	9.1
