Data from Ofra_PS_T2_1A_2GT07_Reflection_2.txt Node
Date: Wed Jul 21 18:00:36 EDT 2021
User: Adam
Spectrometer: FLMT01687
Trigger mode: 0
Integration Time (sec): 1.100000E0
Scans to average: 2
Electric dark correction enabled: true
Nonlinearity correction enabled: false
Boxcar width: 2
XAxis mode: Wavelengths
Number of Pixels in Spectrum: 3648
>>>>>Begin Spectral Data<<<<<
179.494	591.6
179.716	662.82
179.937	587
180.158	540.37
180.38	704.06
180.601	307.46
180.823	48.72
181.044	-60.43
181.265	188.6
181.486	145.98
181.708	127.83
181.929	1337.76
182.15	-433.1
182.372	116.05
182.593	83.1
182.814	80.81
183.035	110.87
183.257	61.61
183.478	-1.6
183.699	14.27
183.92	-23.29
184.141	8.73
184.363	-37.27
184.584	14.39
184.805	48.51
185.026	83.78
185.247	61.13
185.468	37.82
185.689	35.02
185.91	27.94
186.132	5.65
186.353	19.6
186.574	77.47
186.795	54.18
187.016	3.09
187.237	4.35
187.458	-35.62
187.679	-61.95
187.9	-25.43
188.121	-23.77
188.342	2.23
188.563	46.44
188.784	75.82
189.005	63.83
189.226	129.63
189.447	97.52
189.667	-9.47
189.888	-183.99
190.109	-917.53
190.33	-432.58
190.551	-933.19
190.772	-199.39
190.993	-165.04
191.214	-149.67
191.434	-142
191.655	-48.04
191.876	-96.18
192.097	-168.62
192.318	-231.45
192.538	-323.31
192.759	-214.04
192.98	-102.86
193.201	-34.45
193.421	-17.19
193.642	8.79
193.863	1.55
194.083	-20.19
194.304	-36.43
194.525	-23.9
194.745	-69.39
194.966	-61.47
195.187	-53.88
195.407	-43.71
195.628	-110.12
195.848	-114.51
196.069	-133.17
196.29	-64.14
196.51	-106.62
196.731	-102.05
196.951	-132.46
197.172	-122.31
197.392	-185.81
197.613	-166.44
197.833	-156.42
198.054	-112.72
198.274	-65
198.495	-77.75
198.715	-39.27
198.936	-58.04
199.156	-49.78
199.377	-139.38
199.597	-119.97
199.817	-116.86
200.038	-58.32
200.258	-113.05
200.479	-56.9
200.699	-59.1
200.919	-9.09
201.14	-18.88
201.36	-8.46
201.58	17.04
201.801	44.64
202.021	-3.7
202.241	-0.9
202.461	3.95
202.682	-46.33
202.902	-110.31
203.122	-1.41
203.342	-7.06
203.563	23.83
203.783	42.64
204.003	25.55
204.223	-9.43
204.443	24.9
204.663	-22.66
204.884	-4.57
205.104	33.13
205.324	51.63
205.544	84.11
205.764	93.08
205.984	72.1
206.204	57.24
206.424	47.55
206.644	-19.13
206.864	-23.9
207.084	-62.09
207.304	-30.3
207.525	-154.22
207.745	-51.5
207.964	-39.49
208.184	-76.87
208.404	-118.04
208.624	-116.26
208.844	-92.93
209.064	-361.87
209.284	-400.65
209.504	-160.69
209.724	-49.57
209.944	-45
210.164	-4.08
210.384	17
210.604	-15.42
210.823	-49
211.043	-59.67
211.263	-52.31
211.483	-66.53
211.703	-98.42
211.922	-72.18
212.142	-1.98
212.362	25.48
212.582	32.56
212.801	29.95
213.021	-6.31
213.241	-46.04
213.461	-78.3
213.68	-107.37
213.9	-66.86
214.12	-37.95
214.339	-97.06
214.559	-78.33
214.779	-26.58
214.998	-30.18
215.218	-79.16
215.438	-38
215.657	-43.39
215.877	-46.83
216.096	-22.81
216.316	-16.97
216.535	-20.98
216.755	-27.41
216.974	-133.02
217.194	-200.08
217.413	-162.56
217.633	-179.31
217.852	-321.02
218.072	-122.89
218.291	-70.62
218.511	-36.57
218.73	-43.24
218.95	-18.21
219.169	-23.38
219.389	-50.85
219.608	-35.8
219.827	-21.84
220.047	-4.7
220.266	-4.95
220.485	-4.64
220.705	-9.74
220.924	-31.65
221.143	0.07
221.363	-22.97
221.582	-10.64
221.801	-1.36
222.021	13.06
222.24	-71.86
222.459	-64.29
222.678	-89.29
222.897	-142.17
223.117	-150
223.336	-94.22
223.555	-41.81
223.774	-1.25
223.993	21.66
224.213	48.58
224.432	13.8
224.651	35.08
224.87	16.32
225.089	31.38
225.308	15.68
225.527	35.6
225.746	31.48
225.965	25.82
226.184	8.71
226.404	28.36
226.623	-2.01
226.842	3.8
227.061	27.06
227.28	11.5
227.499	-10.66
227.718	10.99
227.936	-6.64
228.155	0.7
228.374	10.38
228.593	17.01
228.812	4.25
229.031	7.42
229.25	-53.88
229.469	-74.33
229.688	-85.22
229.907	-31.65
230.125	-11.18
230.344	8.51
230.563	22.2
230.782	38.76
231.001	-17.12
231.22	-23.44
231.438	-19.68
231.657	-7.24
231.876	-21.82
232.095	35.75
232.313	35.28
232.532	37.43
232.751	21.54
232.969	6.41
233.188	-74.37
233.407	-3.66
233.625	1.02
233.844	-3.04
234.063	18.94
234.281	27.91
234.5	12.81
234.719	13.34
234.937	24.8
235.156	21.81
235.374	21.76
235.593	5.43
235.811	-9.77
236.03	-38.25
236.249	-88.97
236.467	-88.93
236.686	-34.73
236.904	-7.5
237.123	-17.11
237.341	-13.26
237.559	-9.02
237.778	-28.37
237.996	-49.54
238.215	-12.89
238.433	12.91
238.652	29.56
238.87	9.46
239.088	4.26
239.307	3.63
239.525	-22.3
239.743	-51.99
239.962	-36.59
240.18	-58.56
240.398	-119.68
240.617	-125.24
240.835	-118.34
241.053	-82.22
241.271	-37.84
241.49	3.59
241.708	1.4
241.926	-34.47
242.144	-54.72
242.363	-96.22
242.581	-124.11
242.799	-83.99
243.017	-30.78
243.235	-45.69
243.453	-11.51
243.672	-17.5
243.89	-10.9
244.108	-22.19
244.326	9.28
244.544	-5.14
244.762	-0.45
244.98	-1.18
245.198	10.28
245.416	-15.18
245.634	-11.78
245.852	-16.44
246.07	-2.83
246.288	-22.5
246.506	-66.79
246.724	-41.92
246.942	-27.26
247.16	-14.47
247.378	-8.34
247.596	23.66
247.814	18.63
248.032	-15.56
248.25	-15.21
248.468	-1.98
248.685	2.19
248.903	24.04
249.121	45.18
249.339	15.52
249.557	8.67
249.775	8.51
249.992	-50.9
250.21	-60.02
250.428	-25.95
250.646	-43.05
250.863	-71.4
251.081	-41.61
251.299	-17.9
251.517	-14.48
251.734	0.11
251.952	21.87
252.17	25.43
252.387	22.54
252.605	4.17
252.823	6.48
253.04	13.7
253.258	16.98
253.475	6.78
253.693	29.47
253.911	23.02
254.128	29.34
254.346	26.4
254.563	5.97
254.781	-25.54
254.998	-45.39
255.216	-60.66
255.433	-42.09
255.651	8.81
255.868	37.43
256.086	71.83
256.303	53.49
256.521	31.56
256.738	-5.14
256.956	-33.51
257.173	-60.29
257.39	-76.24
257.608	-107.46
257.825	-29.91
258.043	3
258.26	19.91
258.477	59.53
258.695	53.74
258.912	-3.8
259.129	0.63
259.346	-47.75
259.564	-88.24
259.781	-92.74
259.998	-25.07
260.216	-6.08
260.433	41.84
260.65	33
260.867	59.6
261.084	24.11
261.302	-0.11
261.519	-27.93
261.736	-40.01
261.953	-68.61
262.17	-37.36
262.387	-48.44
262.604	-100.99
262.822	-95.19
263.039	-82.42
263.256	-127.02
263.473	-101.91
263.69	-40.96
263.907	-1.93
264.124	-2.75
264.341	-1.16
264.558	0.84
264.775	14
264.992	3.56
265.209	16.48
265.426	33.62
265.643	33.64
265.86	28.74
266.077	27.41
266.294	4.19
266.51	-28.28
266.727	-41.22
266.944	-31.57
267.161	-27.19
267.378	-29.31
267.595	-8.92
267.812	-19.7
268.028	-45.82
268.245	-34.27
268.462	-33.39
268.679	-34.32
268.896	25.84
269.112	34.24
269.329	23.58
269.546	30.28
269.763	28.75
269.979	-7.82
270.196	-17.81
270.413	-36.74
270.629	-59.22
270.846	-69
271.063	-64.9
271.279	-65.48
271.496	-67.46
271.712	-26.45
271.929	-11.9
272.146	-32.87
272.362	-9.68
272.579	9.61
272.795	22.7
273.012	29.57
273.228	45.17
273.445	-3.18
273.661	-35.35
273.878	-91.94
274.094	-79.34
274.311	-123.4
274.527	-39.62
274.744	-34.15
274.96	-47.25
275.177	-40.37
275.393	-12.64
275.609	-28.98
275.826	7.7
276.042	15.16
276.259	8.53
276.475	20.7
276.691	31.63
276.908	6.96
277.124	19.57
277.34	14.89
277.557	-1.81
277.773	-11.3
277.989	-11.9
278.205	-11.44
278.422	11.72
278.638	18.4
278.854	19.45
279.07	17.65
279.286	-5.52
279.503	-50.04
279.719	-62.66
279.935	-72.89
280.151	-84.79
280.367	-49.3
280.583	-52.07
280.799	-32.39
281.016	-42.54
281.232	-13.38
281.448	-20.14
281.664	3.7
281.88	-20.09
282.096	-15.25
282.312	-3.5
282.528	9
282.744	2.19
282.96	5.1
283.176	3.77
283.392	-6.7
283.608	-14.32
283.824	-19.03
284.04	-27.27
284.256	-31.82
284.471	-29.78
284.687	-23.94
284.903	6.92
285.119	44.83
285.335	24.71
285.551	16.18
285.767	-2.17
285.982	-30.69
286.198	-76.58
286.414	-7.99
286.63	7.74
286.846	35.65
287.061	21.08
287.277	51.9
287.493	17.83
287.709	34.66
287.924	6.43
288.14	38.24
288.356	23.21
288.571	46.18
288.787	27.07
289.003	28.68
289.218	7.77
289.434	-21.79
289.65	-9.32
289.865	-22.72
290.081	30.34
290.296	38.76
290.512	42.52
290.727	-3.41
290.943	4.75
291.159	-26.75
291.374	-24.9
291.59	-36.56
291.805	-27.46
292.021	-30.38
292.236	-32.92
292.451	-18.44
292.667	-14.81
292.882	-1.51
293.098	7.42
293.313	-12.89
293.529	-44.91
293.744	-50.16
293.959	-63.72
294.175	-55.47
294.39	-15.67
294.605	2.67
294.821	33.44
295.036	44.92
295.251	44.82
295.467	14.58
295.682	-4.55
295.897	-87.59
296.112	-99.96
296.328	-97.47
296.543	-120.45
296.758	-97.15
296.973	-23.75
297.188	19.27
297.404	-5.25
297.619	-0.69
297.834	-21.58
298.049	-52.33
298.264	-88.12
298.479	-25.35
298.694	-22.07
298.909	2.41
299.125	19.4
299.34	28.49
299.555	10.6
299.77	32.42
299.985	-10.08
300.2	-74.46
300.415	-82.9
300.63	-61.76
300.845	-63.23
301.06	-66.09
301.275	-16.8
301.49	4.29
301.704	-1.7
301.919	-25.31
302.134	-30.44
302.349	-49.23
302.564	-125.75
302.779	-160.09
302.994	-121.55
303.209	-68.17
303.423	-29.17
303.638	26.04
303.853	-8
304.068	-15.47
304.283	-14.14
304.497	-6.04
304.712	-19.08
304.927	-3.86
305.142	-8.74
305.356	1.94
305.571	-3.64
305.786	-13.38
306	-16
306.215	2.55
306.43	-12.77
306.644	-4.59
306.859	49.9
307.074	33.98
307.288	-9.15
307.503	-28.98
307.717	-30.47
307.932	-25.64
308.147	-25.15
308.361	8.04
308.576	-3.05
308.79	-48.47
309.005	-54.4
309.219	-27.33
309.434	-37.73
309.648	-25.84
309.863	12.35
310.077	16.82
310.292	-10.37
310.506	-14.6
310.72	-2.13
310.935	2.33
311.149	-6.63
311.364	8.98
311.578	23.9
311.792	13.96
312.007	9.43
312.221	-9.6
312.435	3.39
312.649	-8.5
312.864	36.74
313.078	43.26
313.292	120.03
313.507	103.49
313.721	125.17
313.935	30.15
314.149	21.18
314.363	9.49
314.578	4.16
314.792	7.57
315.006	-4.68
315.22	3.44
315.434	2.06
315.648	6.77
315.862	0.51
316.077	3.38
316.291	-6.64
316.505	7.39
316.719	7.64
316.933	-12.34
317.147	-12.38
317.361	-44.15
317.575	-76.98
317.789	-110.61
318.003	-149.24
318.217	-100.28
318.431	-28.61
318.645	20.46
318.859	14.77
319.073	36.87
319.287	26.41
319.5	-6.7
319.714	-66.07
319.928	-78.53
320.142	-106.34
320.356	-62.06
320.57	-4.03
320.784	23.78
320.997	3.23
321.211	-5.63
321.425	-72.63
321.639	-98.12
321.853	-50.87
322.066	-22.65
322.28	-26.65
322.494	-8.05
322.707	-3.45
322.921	-13.36
323.135	-9.2
323.349	8.97
323.562	-12.14
323.776	-24.89
323.989	-27
324.203	-48.05
324.417	-62.82
324.63	-66.33
324.844	-69.55
325.057	-62.28
325.271	-31.12
325.485	-2.51
325.698	16.07
325.912	34.7
326.125	0.56
326.339	-11.88
326.552	-54.9
326.766	-71.63
326.979	-73.65
327.193	-4.64
327.406	-16.19
327.619	-3.42
327.833	20.98
328.046	-1.16
328.26	-42.92
328.473	-28.64
328.686	-65.03
328.9	-69.95
329.113	-48.13
329.326	-80.84
329.54	-53.7
329.753	-61.24
329.966	-87.77
330.179	-63.51
330.393	-29.16
330.606	-27.26
330.819	3.68
331.032	19.08
331.246	15.8
331.459	42.96
331.672	30.41
331.885	25.42
332.098	13
332.311	-1.24
332.525	-63.78
332.738	-48.05
332.951	-16.24
333.164	4.3
333.377	16.91
333.59	47.02
333.803	38.21
334.016	22.14
334.229	13.24
334.442	23.61
334.655	39.24
334.868	51.27
335.081	29.39
335.294	18.07
335.507	1.07
335.72	-15.84
335.933	-24.5
336.146	-12.65
336.359	-20.51
336.572	-50.75
336.785	-87.61
336.997	-73.27
337.21	-54.3
337.423	-47.85
337.636	-22.42
337.849	-5.43
338.062	-14.25
338.274	-13.41
338.487	-22.62
338.7	-29.7
338.913	-54.07
339.125	-66.75
339.338	-135.93
339.551	-91.19
339.763	-49.8
339.976	-29.34
340.189	-3.89
340.402	28.39
340.614	12.36
340.827	-6.31
341.039	-18
341.252	-23.14
341.465	-14.98
341.677	-24.41
341.89	-51.71
342.102	-20.06
342.315	-36
342.527	-69.28
342.74	-61.37
342.952	-23.88
343.165	-23.92
343.377	5.66
343.59	12.4
343.802	32.87
344.015	38.22
344.227	53.91
344.44	45.47
344.652	29.76
344.864	6.05
345.077	17.94
345.289	6.85
345.502	3.64
345.714	4.9
345.926	10.97
346.139	-5.97
346.351	-2.42
346.563	4.64
346.775	8.27
346.988	-5.6
347.2	-12.09
347.412	-56.47
347.624	-81.34
347.837	-105.37
348.049	-70.48
348.261	-30.25
348.473	-8.29
348.685	-15.52
348.897	-15.28
349.11	-27.67
349.322	-50.15
349.534	-30.64
349.746	-18.5
349.958	-4.78
350.17	-16.11
350.382	7.18
350.594	-4.08
350.806	1.14
351.018	4.36
351.23	-0.71
351.442	-62.06
351.654	-72.24
351.866	-51.43
352.078	-37.29
352.29	-15.23
352.502	10.69
352.714	31.32
352.926	10.41
353.138	0.93
353.35	-5.54
353.561	-12.62
353.773	-41.14
353.985	-16.83
354.197	-23.34
354.409	-19.66
354.621	-28.76
354.832	-17.06
355.044	-38.52
355.256	-36.36
355.468	-21.91
355.679	-26.24
355.891	-12.38
356.103	-18.51
356.314	-10.52
356.526	-24.56
356.738	-10.2
356.949	-28.37
357.161	-12.17
357.373	-15.55
357.584	-16.99
357.796	-4.35
358.008	-13.75
358.219	4.66
358.431	16.25
358.642	13.89
358.854	11.34
359.065	7.04
359.277	-25.99
359.488	-46.68
359.7	-59.68
359.911	-75.28
360.123	-45.05
360.334	-58.45
360.546	-71.2
360.757	-50.88
360.969	-41.5
361.18	-40.69
361.391	-2.02
361.603	5.48
361.814	10.56
362.025	10.38
362.237	10.48
362.448	27.62
362.659	25.52
362.871	17.5
363.082	13.75
363.293	9.54
363.504	-16.17
363.716	-36.9
363.927	-52.42
364.138	-60.74
364.349	-68.88
364.56	-61.7
364.772	-44.53
364.983	-9.56
365.194	-5.12
365.405	-0.95
365.616	23
365.827	28.42
366.038	-4.31
366.25	-11.63
366.461	-39.31
366.672	-27.75
366.883	-9.96
367.094	-5.64
367.305	-19.17
367.516	-7.58
367.727	-41.67
367.938	-60.01
368.149	-64.02
368.36	-31.81
368.571	-21.11
368.781	-25.7
368.992	-35.61
369.203	-42.35
369.414	-65.45
369.625	-67.69
369.836	-56.16
370.047	-65.74
370.258	-58.39
370.468	-64.24
370.679	-70.82
370.89	-63.56
371.101	-43.47
371.312	-36.3
371.522	-21.86
371.733	-19.8
371.944	-8.5
372.155	3.67
372.365	-1.62
372.576	2.83
372.787	4.79
372.997	-25.13
373.208	-34
373.419	-6.69
373.629	-32.21
373.84	-28.78
374.05	-25.18
374.261	-19.69
374.472	-39.1
374.682	3.56
374.893	-2.68
375.103	25.36
375.314	11.39
375.524	7.85
375.735	-2.33
375.945	10.66
376.156	-16.26
376.366	-11.86
376.577	-2.11
376.787	-10.17
376.997	-17.05
377.208	-0.52
377.418	-5.22
377.629	-6.8
377.839	-1.34
378.049	3.03
378.26	14.65
378.47	22.85
378.68	18.8
378.89	12.53
379.101	0.24
379.311	-41.72
379.521	-78.76
379.732	-84.35
379.942	-69.3
380.152	-80.03
380.362	-35.11
380.572	-20.06
380.783	0.27
380.993	6.58
381.203	18.51
381.413	21.22
381.623	30.33
381.833	17.73
382.043	9.45
382.253	2.97
382.463	-1.52
382.674	-18.93
382.884	-36.99
383.094	-42.12
383.304	-29.39
383.514	-17.39
383.724	0.64
383.934	-3.89
384.144	-10.49
384.353	-26.26
384.563	-34.35
384.773	-32.27
384.983	-28.78
385.193	-8.14
385.403	1.42
385.613	1.78
385.823	-11.75
386.033	-9.02
386.242	-20.32
386.452	-25.34
386.662	-34.95
386.872	-22.36
387.082	-24.92
387.291	-28.57
387.501	-29.44
387.711	-21.61
387.921	-27.1
388.13	-24.25
388.34	-10.25
388.55	-10.7
388.759	-12.48
388.969	-2.91
389.179	-7.4
389.388	-12.42
389.598	-7.34
389.807	-9.42
390.017	-15.69
390.227	-11.2
390.436	-8.99
390.646	-6.98
390.855	-4.73
391.065	-6.21
391.274	-5.8
391.484	-8.99
391.693	-7.02
391.903	-3.07
392.112	2.85
392.322	5.37
392.531	8.95
392.74	6.56
392.95	0.47
393.159	-3.06
393.369	-4.73
393.578	-5.84
393.787	-5.58
393.997	-3.06
394.206	-3.94
394.415	-3.32
394.625	-4.05
394.834	-4.73
395.043	-4.43
395.252	-1.24
395.462	-0.34
395.671	0.81
395.88	2.23
396.089	3.32
396.298	1.76
396.508	1.95
396.717	1.12
396.926	0.53
397.135	-0.43
397.344	-0.18
397.553	0.12
397.762	1.5
397.971	1.89
398.181	2.19
398.39	0.99
398.599	0.46
398.808	0.23
399.017	0.9
399.226	2.24
399.435	3.83
399.644	4.3
399.853	3.58
400.062	3.15
400.27	2.22
400.479	1.82
400.688	1
400.897	1.46
401.106	1.26
401.315	1.52
401.524	1.75
401.733	2.53
401.941	2.86
402.15	3.01
402.359	2.71
402.568	2.84
402.777	2.6
402.985	2.42
403.194	2.16
403.403	2.13
403.612	1.45
403.82	1.39
404.029	1.44
404.238	1.59
404.446	2.03
404.655	2.11
404.864	1.96
405.072	1.71
405.281	1.79
405.489	1.33
405.698	1.46
405.906	1.53
406.115	1.59
406.324	1.55
406.532	1.83
406.741	2.09
406.949	2.16
407.158	2.15
407.366	2.17
407.574	2.07
407.783	1.92
407.991	1.75
408.2	1.88
408.408	1.9
408.617	1.84
408.825	1.67
409.033	1.82
409.242	1.86
409.45	1.87
409.658	1.77
409.867	2.08
410.075	2
410.283	1.74
410.491	1.56
410.7	1.64
410.908	1.53
411.116	1.89
411.324	2.01
411.533	2.05
411.741	2.29
411.949	2.14
412.157	1.82
412.365	1.92
412.573	1.99
412.781	1.92
412.99	1.85
413.198	1.96
413.406	1.93
413.614	1.98
413.822	1.76
414.03	1.8
414.238	1.66
414.446	1.64
414.654	1.42
414.862	1.55
415.07	1.62
415.278	1.81
415.486	1.62
415.694	1.84
415.902	1.66
416.109	1.56
416.317	1.37
416.525	1.42
416.733	1.27
416.941	1.45
417.149	1.44
417.357	1.47
417.564	1.65
417.772	1.87
417.98	1.82
418.188	1.85
418.395	2.02
418.603	2.05
418.811	1.73
419.019	1.65
419.226	1.91
419.434	1.9
419.642	1.65
419.849	1.82
420.057	1.83
420.265	1.69
420.472	1.47
420.68	1.63
420.887	1.49
421.095	1.63
421.302	1.52
421.51	1.72
421.717	1.69
421.925	1.84
422.132	1.64
422.34	1.43
422.547	1.42
422.755	1.28
422.962	1.09
423.17	1.04
423.377	1.31
423.585	1.27
423.792	1.2
423.999	1.21
424.207	1.28
424.414	1.39
424.621	1.31
424.829	1.34
425.036	1.45
425.243	1.55
425.451	1.38
425.658	1.29
425.865	1.49
426.072	1.54
426.28	1.72
426.487	1.72
426.694	1.79
426.901	1.64
427.108	1.68
427.315	1.41
427.523	1.61
427.73	1.75
427.937	1.75
428.144	1.42
428.351	1.35
428.558	1.41
428.765	1.2
428.972	1.13
429.179	1.38
429.386	1.7
429.593	1.42
429.8	1.5
430.007	1.59
430.214	1.75
430.421	1.68
430.628	1.63
430.835	1.45
431.042	1.64
431.249	1.62
431.456	1.6
431.662	1.75
431.869	2
432.076	1.94
432.283	1.97
432.49	1.86
432.697	1.81
432.903	1.63
433.11	1.55
433.317	1.56
433.524	1.78
433.73	1.81
433.937	2.08
434.144	2
434.35	1.88
434.557	1.68
434.764	1.68
434.97	1.54
435.177	1.76
435.384	1.74
435.59	1.86
435.797	2.06
436.003	2.09
436.21	2.07
436.416	2.21
436.623	2.13
436.829	2.15
437.036	2.18
437.242	2.18
437.449	2.14
437.655	2.13
437.862	2.12
438.068	2.09
438.275	2.26
438.481	2.41
438.687	2.54
438.894	2.44
439.1	2.55
439.307	2.62
439.513	2.52
439.719	2.47
439.926	2.59
440.132	2.5
440.338	2.29
440.544	2.41
440.751	2.35
440.957	2.33
441.163	2.26
441.369	2.32
441.575	2.04
441.782	2.08
441.988	1.93
442.194	1.96
442.4	1.98
442.606	2.33
442.812	2.39
443.018	2.56
443.224	2.61
443.431	2.7
443.637	2.49
443.843	2.41
444.049	2.42
444.255	2.5
444.461	2.5
444.667	2.42
444.873	2.59
445.079	2.62
445.284	2.63
445.49	2.4
445.696	2.29
445.902	2.18
446.108	2.11
446.314	2.02
446.52	2.17
446.726	2.43
446.931	2.43
447.137	2.43
447.343	2.49
447.549	2.39
447.755	2.29
447.96	2.38
448.166	2.28
448.372	2.19
448.578	2.31
448.783	2.3
448.989	2.33
449.195	2.56
449.4	2.63
449.606	2.55
449.812	2.56
450.017	2.54
450.223	2.4
450.428	2.34
450.634	2.46
450.84	2.59
451.045	2.52
451.251	2.49
451.456	2.73
451.662	2.78
451.867	2.83
452.073	2.85
452.278	3.03
452.483	3.08
452.689	2.96
452.894	2.88
453.1	2.92
453.305	2.82
453.51	2.74
453.716	2.67
453.921	2.79
454.127	2.72
454.332	2.63
454.537	2.56
454.742	2.66
454.948	2.58
455.153	2.69
455.358	2.78
455.563	3.02
455.769	3.07
455.974	3.13
456.179	2.97
456.384	2.99
456.589	2.9
456.795	2.68
457	2.62
457.205	2.9
457.41	2.93
457.615	2.82
457.82	3.02
458.025	2.98
458.23	2.83
458.435	2.94
458.64	2.87
458.845	2.98
459.05	3
459.255	3.02
459.46	2.94
459.665	3.03
459.87	3.07
460.075	3.12
460.28	3.18
460.485	3.26
460.69	3.26
460.895	3.02
461.099	2.97
461.304	3.06
