Data from Ofra_PS_T2_2A_2GT31_Reflection_3.txt Node
Date: Wed Jul 21 17:03:31 EDT 2021
User: Adam
Spectrometer: FLMT01687
Trigger mode: 0
Integration Time (sec): 1.100000E0
Scans to average: 2
Electric dark correction enabled: true
Nonlinearity correction enabled: false
Boxcar width: 2
XAxis mode: Wavelengths
Number of Pixels in Spectrum: 3648
>>>>>Begin Spectral Data<<<<<
179.494	550.6
179.716	600.47
179.937	575.25
180.158	584.31
180.38	975.16
180.601	426.1
180.823	138.94
181.044	-2.73
181.265	-4.23
181.486	-21.65
181.708	14.61
181.929	-385.2
182.15	92.61
182.372	111.4
182.593	0.96
182.814	7.7
183.035	-15.17
183.257	-15.28
183.478	-61.97
183.699	12.93
183.92	37.41
184.141	64.39
184.363	73.59
184.584	100.48
184.805	88.37
185.026	88.28
185.247	74.26
185.468	47.38
185.689	51.42
185.91	43.19
186.132	44.92
186.353	39.46
186.574	82.72
186.795	48.34
187.016	13.95
187.237	-7.03
187.458	-24.46
187.679	-25.24
187.9	11.17
188.121	26.67
188.342	51.05
188.563	77.61
188.784	123.84
189.005	95.63
189.226	100.11
189.447	81.43
189.667	21.72
189.888	-235.1
190.109	-514.61
190.33	-317.58
190.551	-642.7
190.772	-120.64
190.993	-68.79
191.214	-95.69
191.434	-59.03
191.655	-1.5
191.876	-68.78
192.097	-105.99
192.318	-144.52
192.538	-165.47
192.759	-128.13
192.98	-29.26
193.201	-11.08
193.421	-3.58
193.642	9.38
193.863	15.14
194.083	-2.36
194.304	-8.37
194.525	-2.86
194.745	-6.2
194.966	-22.27
195.187	-44.72
195.407	-62.79
195.628	-118.8
195.848	-130.79
196.069	-144.07
196.29	-68
196.51	-64.77
196.731	-63.45
196.951	-66.17
197.172	-64.21
197.392	-85.9
197.613	-76.35
197.833	-66.41
198.054	-75.77
198.274	-27.55
198.495	-52.5
198.715	-23.38
198.936	-41.11
199.156	-22.44
199.377	-101.3
199.597	-92
199.817	-83.92
200.038	-14.57
200.258	-33.41
200.479	34.55
200.699	95.89
200.919	83.09
201.14	16.95
201.36	-4.17
201.58	12.14
201.801	22.82
202.021	-1.34
202.241	16.43
202.461	19.84
202.682	-36.95
202.902	-85.41
203.122	-26.7
203.342	-15.66
203.563	19.66
203.783	58.75
204.003	42.62
204.223	28.44
204.443	62.53
204.663	30.95
204.884	39.9
205.104	111.35
205.324	129.76
205.544	97.54
205.764	109.38
205.984	83.37
206.204	60.65
206.424	38.35
206.644	7.2
206.864	11.33
207.084	-28.97
207.304	-26.59
207.525	-113.52
207.745	-59.71
207.964	-37.11
208.184	-60.52
208.404	-81.44
208.624	-58.22
208.844	-39.24
209.064	-235.08
209.284	-223.9
209.504	-70.97
209.724	9.4
209.944	17.02
210.164	54.21
210.384	62.98
210.604	44.41
210.823	12
211.043	-21.56
211.263	-37.06
211.483	-36.37
211.703	-57.51
211.922	-48.69
212.142	13.01
212.362	32.54
212.582	11.89
212.801	5.51
213.021	7.89
213.241	18.93
213.461	-9.23
213.68	-21.41
213.9	-3.58
214.12	-1.82
214.339	-78.42
214.559	-46.33
214.779	25.11
214.998	18.83
215.218	2.05
215.438	21.8
215.657	8.29
215.877	-22.67
216.096	20.48
216.316	28.08
216.535	21.31
216.755	23.18
216.974	-16.58
217.194	-87.68
217.413	-114.47
217.633	-69.64
217.852	-158.4
218.072	-64.37
218.291	-30.04
218.511	13.66
218.73	-26.79
218.95	-0.97
219.169	-4.8
219.389	-31
219.608	-11.65
219.827	-0.2
220.047	3.91
220.266	10.48
220.485	23.27
220.705	26.26
220.924	15.08
221.143	39.56
221.363	17.69
221.582	29.76
221.801	31.74
222.021	63.28
222.24	13.37
222.459	81.02
222.678	33.2
222.897	-16.18
223.117	-91.52
223.336	-36.59
223.555	-23
223.774	30.61
223.993	61.95
224.213	113.17
224.432	89.76
224.651	96.38
224.87	51.19
225.089	45.37
225.308	19.09
225.527	33.88
225.746	25.46
225.965	29.11
226.184	3.41
226.404	35.03
226.623	11.85
226.842	16.38
227.061	31.45
227.28	41.12
227.499	23.22
227.718	29.5
227.936	13.44
228.155	23.74
228.374	27.08
228.593	39.09
228.812	44.24
229.031	45.11
229.25	-4.54
229.469	-8.93
229.688	-12.05
229.907	14.15
230.125	25.81
230.344	34.02
230.563	41.87
230.782	55.51
231.001	-11
231.22	-7.25
231.438	2.21
231.657	-5.85
231.876	-16.01
232.095	46.8
232.313	41.03
232.532	52.97
232.751	43.05
232.969	15.47
233.188	-38.11
233.407	28.23
233.625	4.74
233.844	-7.42
234.063	16.42
234.281	26.12
234.5	5.63
234.719	25.71
234.937	38.52
235.156	32.14
235.374	33.81
235.593	42.43
235.811	33.26
236.03	16.79
236.249	-14.56
236.467	1.43
236.686	7.89
236.904	24.79
237.123	11.78
237.341	13.61
237.559	-2.42
237.778	-23.46
237.996	-55.4
238.215	-6.89
238.433	3.72
238.652	18.37
238.87	4.28
239.088	22.64
239.307	11.91
239.525	21.01
239.743	6.28
239.962	38.25
240.18	9.23
240.398	5.78
240.617	-18.59
240.835	-0.32
241.053	24
241.271	73.84
241.49	78.73
241.708	90.75
241.926	64.28
242.144	21.68
242.363	-45.05
242.581	-61.82
242.799	-50.34
243.017	-2.82
243.235	-7.91
243.453	6.26
243.672	-11.97
243.89	-1.54
244.108	-22.95
244.326	-0.5
244.544	11.52
244.762	13.45
244.98	35.69
245.198	44.62
245.416	19.77
245.634	3.94
245.852	-4.34
246.07	-9.86
246.288	-3.39
246.506	1.85
246.724	30.58
246.942	41.09
247.16	40.41
247.378	49.35
247.596	49.18
247.814	27.53
248.032	14.98
248.25	22.3
248.468	18.21
248.685	31.32
248.903	51.64
249.121	48.32
249.339	19.75
249.557	9.55
249.775	9.61
249.992	-40.87
250.21	-21.17
250.428	2.03
250.646	-3.51
250.863	-28.58
251.081	4.91
251.299	5.2
251.517	-5.93
251.734	-1.62
251.952	11.72
252.17	6.99
252.387	16.1
252.605	13.4
252.823	20.52
253.04	30.99
253.258	45.21
253.475	31.34
253.693	51.03
253.911	48.5
254.128	47.81
254.346	63.39
254.563	52.31
254.781	29.38
254.998	14.17
255.216	13.08
255.433	5.67
255.651	39.96
255.868	53.9
256.086	84.61
256.303	48.29
256.521	31.09
256.738	4.2
256.956	-16.82
257.173	-51.5
257.39	-31.72
257.608	-49.94
257.825	12.49
258.043	33.82
258.26	37.53
258.477	65.25
258.695	78.79
258.912	27.88
259.129	31.37
259.346	11.1
259.564	-15.89
259.781	-42.43
259.998	27.15
260.216	45.66
260.433	70.89
260.65	51.26
260.867	74.59
261.084	52.46
261.302	34.68
261.519	29.63
261.736	19.81
261.953	-17.67
262.17	-4.35
262.387	-38.46
262.604	-69.85
262.822	-58.9
263.039	-41.55
263.256	-80.61
263.473	-25.47
263.69	-2.7
263.907	19.75
264.124	41.22
264.341	30.61
264.558	21.61
264.775	29.63
264.992	30.08
265.209	17.56
265.426	40.51
265.643	51.13
265.86	61.36
266.077	61.98
266.294	52.89
266.51	24.48
266.727	-7.03
266.944	-15.75
267.161	-22.14
267.378	-9.75
267.595	23.65
267.812	14.94
268.028	10.41
268.245	29.72
268.462	-4.95
268.679	-20.12
268.896	20.55
269.112	17.23
269.329	10.5
269.546	25.85
269.763	12.77
269.979	2.25
270.196	9.19
270.413	-13.41
270.629	-43.09
270.846	-36.93
271.063	-42.46
271.279	-65.38
271.496	-55.19
271.712	-7.98
271.929	23.28
272.146	23.14
272.362	35.43
272.579	54.89
272.795	46.97
273.012	36.16
273.228	51.38
273.445	34.83
273.661	26.16
273.878	-27.95
274.094	-20.64
274.311	-57.5
274.527	7.12
274.744	9.12
274.96	24.45
275.177	30.04
275.393	51.16
275.609	40.23
275.826	44.61
276.042	49.33
276.259	30.2
276.475	39.3
276.691	39.66
276.908	25.78
277.124	30.9
277.34	26.5
277.557	21.14
277.773	11.21
277.989	16.02
278.205	16.77
278.422	27.31
278.638	26.16
278.854	46.93
279.07	39
279.286	22.82
279.503	6.49
279.719	-11.16
279.935	-28.2
280.151	-25.47
280.367	3.12
280.583	-4.07
280.799	9.27
281.016	-16.3
281.232	3.63
281.448	-9.76
281.664	25.26
281.88	-9.52
282.096	24.54
282.312	57.36
282.528	98.58
282.744	103.68
282.96	91.73
283.176	61.66
283.392	40.8
283.608	25.29
283.824	13.69
284.04	22.16
284.256	37.1
284.471	36.32
284.687	36.75
284.903	59.11
285.119	84.19
285.335	63.29
285.551	78.94
285.767	57.14
285.982	44.95
286.198	-17.8
286.414	29.7
286.63	20.96
286.846	44.28
287.061	19.23
287.277	54.18
287.493	30.88
287.709	52.95
287.924	27.05
288.14	59.76
288.356	50.99
288.571	65.67
288.787	40.92
289.003	50.94
289.218	40.54
289.434	10.69
289.65	16.63
289.865	14.05
290.081	14.41
290.296	9
290.512	35.5
290.727	-0.41
290.943	0.16
291.159	-8.13
291.374	-4.07
291.59	-35.57
291.805	-22.83
292.021	-7.11
292.236	6
292.451	2.48
292.667	29.61
292.882	44.44
293.098	36.4
293.313	8.11
293.529	-3.29
293.744	-29.86
293.959	-44.76
294.175	-34.59
294.39	1.52
294.605	21.47
294.821	30.93
295.036	30.61
295.251	27.57
295.467	23.82
295.682	17.99
295.897	-3.39
296.112	0.86
296.328	0.61
296.543	-29.57
296.758	-29.79
296.973	2.92
297.188	17.24
297.404	2.65
297.619	7.44
297.834	-0.74
298.049	-14.22
298.264	-15.04
298.479	19.7
298.694	15.21
298.909	26.82
299.125	31.05
299.34	29.64
299.555	3.84
299.77	22.05
299.985	-19.46
300.2	-52.82
300.415	-52.4
300.63	-23.28
300.845	-28.72
301.06	-15.59
301.275	7.35
301.49	16.3
301.704	-1.64
301.919	-19.92
302.134	-26.31
302.349	-33.19
302.564	-83.3
302.779	-74.85
302.994	-29.66
303.209	-8.53
303.423	12.4
303.638	55.05
303.853	25.82
304.068	21.11
304.283	23.8
304.497	18.48
304.712	9.31
304.927	11.49
305.142	1.5
305.356	5.87
305.571	0.96
305.786	-6.5
306	-35.7
306.215	-29.75
306.43	-50.64
306.644	-38.23
306.859	-15.38
307.074	30.37
307.288	-8.84
307.503	-4.36
307.717	-19.76
307.932	-24.67
308.147	-27.35
308.361	6.85
308.576	-2.82
308.79	-19.2
309.005	-13.22
309.219	4.99
309.434	-1.02
309.648	-5.35
309.863	20.12
310.077	24.47
310.292	5.57
310.506	6.21
310.72	27.57
310.935	0.63
311.149	-5.98
311.364	14.22
311.578	23.71
311.792	14.3
312.007	30.08
312.221	21.02
312.435	25.07
312.649	7.46
312.864	35.52
313.078	50.58
313.292	116.02
313.507	83.66
313.721	120.05
313.935	39.56
314.149	12.44
314.363	3.12
314.578	15.51
314.792	20
315.006	5.17
315.22	26.78
315.434	32.82
315.648	33.38
315.862	25.07
316.077	47.31
316.291	30.62
316.505	25.18
316.719	4.52
316.933	-0.3
317.147	-21.24
317.361	-38.28
317.575	-51.42
317.789	-56.38
318.003	-109.71
318.217	-83.23
318.431	-16.91
318.645	22.48
318.859	23.03
319.073	54.94
319.287	42.51
319.5	29.84
319.714	-8.4
319.928	-30.79
320.142	-73.86
320.356	-20.57
320.57	13.24
320.784	-13.08
320.997	9.85
321.211	27.66
321.425	-32.75
321.639	-62.28
321.853	4.16
322.066	-2.11
322.28	-14.28
322.494	-6.35
322.707	9.35
322.921	3.3
323.135	5.02
323.349	33.72
323.562	22.29
323.776	19.64
323.989	9.73
324.203	-0.02
324.417	-15.65
324.63	-20.07
324.844	-24.03
325.057	-28.7
325.271	11.23
325.485	34.25
325.698	57.94
325.912	69.25
326.125	69.93
326.339	48.42
326.552	19.64
326.766	4.87
326.979	-5.05
327.193	21.73
327.406	12.97
327.619	18.34
327.833	28.59
328.046	8.02
328.26	-23.01
328.473	-13.1
328.686	-37.54
328.9	-33.92
329.113	-8.22
329.326	-16.16
329.54	26.55
329.753	22.38
329.966	4.04
330.179	13.85
330.393	23.2
330.606	10.37
330.819	28.82
331.032	41.41
331.246	45.73
331.459	58.73
331.672	51.94
331.885	40.33
332.098	20.36
332.311	2.65
332.525	-37.58
332.738	-18.96
332.951	9.36
333.164	31.41
333.377	49.22
333.59	60.21
333.803	60.26
334.016	57.69
334.229	66.82
334.442	51.08
334.655	65.2
334.868	51.97
335.081	37.84
335.294	21.05
335.507	9.17
335.72	0.52
335.933	-15.21
336.146	-18.28
336.359	-12.42
336.572	-24.63
336.785	-46.07
336.997	-24.14
337.21	-0.76
337.423	0.51
337.636	5.44
337.849	15.52
338.062	9.99
338.274	13.3
338.487	4.11
338.7	23.54
338.913	12.74
339.125	-8.64
339.338	-51.09
339.551	-47.24
339.763	-32.2
339.976	-7.49
340.189	26.35
340.402	31.88
340.614	32.3
340.827	11.01
341.039	-10
341.252	-17.25
341.465	-6.29
341.677	-8.29
341.89	-23.3
342.102	-3.31
342.315	-25.64
342.527	-36.61
342.74	-17.17
342.952	-16.28
343.165	-15.39
343.377	11.16
343.59	16
343.802	17.55
344.015	28.34
344.227	47.23
344.44	42.08
344.652	32.68
344.864	17.3
345.077	38.24
345.289	33.47
345.502	32.77
345.714	26.92
345.926	32.09
346.139	20.86
346.351	26.14
346.563	20.78
346.775	32.18
346.988	15.07
347.2	9.15
347.412	-32.31
347.624	-40.54
347.837	-66.28
348.049	-30.45
348.261	-13.14
348.473	1.66
348.685	-0.98
348.897	4.35
349.11	-9.95
349.322	-25.85
349.534	-11.73
349.746	6.99
349.958	7.32
350.17	20.54
350.382	21.62
350.594	7.79
350.806	13.35
351.018	20.17
351.23	4.02
351.442	-20.43
351.654	-19.93
351.866	-23.53
352.078	-6.69
352.29	24.91
352.502	32.83
352.714	38.8
352.926	34.29
353.138	22.73
353.35	5.71
353.561	5.41
353.773	-12.33
353.985	-7.21
354.197	-17.43
354.409	-27.44
354.621	-31.01
354.832	-13.69
355.044	-16.53
355.256	-3.05
355.468	16.19
355.679	15.55
355.891	22.72
356.103	13.85
356.314	12.1
356.526	14.67
356.738	11.18
356.949	1.03
357.161	20.42
357.373	18.84
357.584	6.72
357.796	20.3
358.008	18.32
358.219	19.32
358.431	13.2
358.642	10.66
358.854	12.81
359.065	5.21
359.277	-20.47
359.488	-36.05
359.7	-39.16
359.911	-61.64
360.123	-31.6
360.334	-34.35
360.546	-37.9
360.757	-34.62
360.969	-12.77
361.18	-38.69
361.391	-13.51
361.603	-13.49
361.814	-4.42
362.025	-12.54
362.237	-2.4
362.448	-0.7
362.659	17.38
362.871	16.18
363.082	20.94
363.293	25.71
363.504	18.26
363.716	-0.84
363.927	-11.01
364.138	-20.72
364.349	-30.92
364.56	-30.66
364.772	-26.13
364.983	-3.22
365.194	-7.91
365.405	0.78
365.616	19.03
365.827	32.88
366.038	7.5
366.25	11.7
366.461	0.8
366.672	11.08
366.883	27.7
367.094	26.68
367.305	14.75
367.516	10.18
367.727	-13.56
367.938	-30.65
368.149	-28.3
368.36	-12.1
368.571	5.45
368.781	-3.41
368.992	-14.89
369.203	-25.1
369.414	-34.36
369.625	-41.8
369.836	-27.53
370.047	-45.46
370.258	-21.22
370.468	-27.26
370.679	-37.16
370.89	-36.15
371.101	-16.8
371.312	-29.02
371.522	-16.66
371.733	-10.43
371.944	-4.43
372.155	-8.68
372.365	-10.24
372.576	-10.92
372.787	-10
372.997	-20.89
373.208	-13.5
373.419	15.49
373.629	-21.39
373.84	-32.24
374.05	-50.21
374.261	-36.86
374.472	-60.71
374.682	1.47
374.893	7.96
375.103	54.9
375.314	51.98
375.524	49.08
375.735	38.24
375.945	44.53
376.156	10.47
376.366	8.81
376.577	6.84
376.787	12.07
376.997	6.91
377.208	14.55
377.418	4.9
377.629	22.46
377.839	8.38
378.049	17.47
378.26	22.18
378.47	36.27
378.68	25.53
378.89	21.59
379.101	12.14
379.311	-16.12
379.521	-56.06
379.732	-56.19
379.942	-47.99
380.152	-55.51
380.362	-23.46
380.572	-14.9
380.783	-2.52
380.993	18.47
381.203	29.56
381.413	49.32
381.623	51.81
381.833	37.63
382.043	21.4
382.253	7.19
382.463	1.29
382.674	-6.13
382.884	-15.73
383.094	-20.35
383.304	-13.4
383.514	-6.13
383.724	-1.81
383.934	-1.4
384.144	-5.97
384.353	-9.56
384.563	-22.34
384.773	-8.2
384.983	-14.55
385.193	1.87
385.403	7.45
385.613	8.42
385.823	-3.15
386.033	7.89
386.242	-1.63
386.452	-3.84
386.662	-8.66
386.872	1.56
387.082	-5.44
387.291	-2.24
387.501	0.23
387.711	6.57
387.921	2.18
388.13	2.57
388.34	6.29
388.55	2.09
388.759	1.48
388.969	3.44
389.179	-1.04
389.388	0.86
389.598	5.5
389.807	-2.17
390.017	-5.36
390.227	-2.51
390.436	-7.49
390.646	-8.07
390.855	-0.45
391.065	-1.9
391.274	-2.67
391.484	-4.32
391.693	-1.12
391.903	-0.92
392.112	6.3
392.322	10.82
392.531	17.3
392.74	16.72
392.95	11.45
393.159	7.56
393.369	5.14
393.578	2.42
393.787	-0.28
393.997	2.02
394.206	1.17
394.415	2.04
394.625	2.29
394.834	1.9
395.043	2.66
395.252	5.19
395.462	6.18
395.671	6.65
395.88	7.65
396.089	9.05
396.298	6.13
396.508	5.68
396.717	4.99
396.926	4.83
397.135	3.92
397.344	5.17
397.553	5.78
397.762	7.23
397.971	7.15
398.181	7.04
398.39	6.43
398.599	6.18
398.808	5.54
399.017	6.44
399.226	7.02
399.435	8.25
399.644	8.16
399.853	7.29
400.062	7.15
400.27	6.29
400.479	5.63
400.688	4.79
400.897	5.38
401.106	4.94
401.315	5.09
401.524	5.11
401.733	6.14
401.941	6.19
402.15	6.15
402.359	6.18
402.568	6.4
402.777	6.39
402.985	6.29
403.194	6.48
403.403	6.5
403.612	6.15
403.82	5.73
404.029	5.79
404.238	5.66
404.446	5.86
404.655	5.6
404.864	5.71
405.072	5.56
405.281	5.68
405.489	5.41
405.698	5.48
405.906	5.2
406.115	5.13
406.324	5.04
406.532	5.19
406.741	5.44
406.949	5.71
407.158	5.64
407.366	5.69
407.574	5.56
407.783	5.55
407.991	5.21
408.2	5.4
408.408	5.16
408.617	5.06
408.825	4.84
409.033	5.02
409.242	5.1
409.45	5.29
409.658	5.18
409.867	5.34
410.075	5.28
410.283	5.04
410.491	4.96
410.7	4.91
410.908	4.74
411.116	4.83
411.324	4.84
411.533	4.67
411.741	4.96
411.949	4.95
412.157	4.82
412.365	4.83
412.573	4.88
412.781	4.85
412.99	4.88
413.198	4.96
413.406	4.97
413.614	5.05
413.822	4.9
414.03	4.76
414.238	4.51
414.446	4.65
414.654	4.55
414.862	4.58
415.07	4.79
415.278	5.04
415.486	4.71
415.694	4.8
415.902	4.8
416.109	4.52
416.317	4.52
416.525	4.41
416.733	4.42
416.941	4.43
417.149	4.57
417.357	4.55
417.564	4.77
417.772	4.8
417.98	4.74
418.188	4.71
418.395	4.7
418.603	4.84
418.811	4.52
419.019	4.5
419.226	4.58
419.434	4.52
419.642	4.23
419.849	4.44
420.057	4.36
420.265	4.36
420.472	4.1
420.68	4.03
420.887	3.81
421.095	3.89
421.302	3.9
421.51	4.14
421.717	4.38
421.925	4.62
422.132	4.42
422.34	4.18
422.547	4.25
422.755	4.07
422.962	3.91
423.17	4
423.377	4.15
423.585	4.01
423.792	4.13
423.999	4.08
424.207	4
424.414	4.09
424.621	4.07
424.829	3.97
425.036	3.97
425.243	4.21
425.451	4.04
425.658	4.05
425.865	4.15
426.072	4.28
426.28	4.4
426.487	4.32
426.694	4.28
426.901	3.98
427.108	3.99
427.315	3.81
427.523	4.02
427.73	4.09
427.937	4.15
428.144	3.98
428.351	3.96
428.558	4.12
428.765	4
428.972	4.03
429.179	4.21
429.386	4.33
429.593	4.07
429.8	4.02
430.007	4.18
430.214	4.13
430.421	3.96
430.628	3.91
430.835	3.93
431.042	3.99
431.249	4.1
431.456	4.12
431.662	4.31
431.869	4.54
432.076	4.55
432.283	4.68
432.49	4.69
432.697	4.67
432.903	4.39
433.11	4.32
433.317	4.17
433.524	4.43
433.73	4.44
433.937	4.76
434.144	4.79
434.35	4.8
434.557	4.69
434.764	4.64
434.97	4.5
435.177	4.54
435.384	4.48
435.59	4.53
435.797	4.73
436.003	4.77
436.21	4.74
436.416	4.82
436.623	4.7
436.829	4.68
437.036	4.84
437.242	4.82
437.449	4.81
437.655	4.88
437.862	4.95
438.068	4.8
438.275	4.95
438.481	5.15
438.687	5.15
438.894	5.05
439.1	5.05
439.307	5.22
439.513	5.09
439.719	5.05
439.926	5.15
440.132	5.17
440.338	4.98
440.544	5.07
440.751	5.07
440.957	5.01
441.163	4.95
441.369	5.04
441.575	4.91
441.782	4.98
441.988	4.94
442.194	4.92
442.4	4.96
442.606	5.18
442.812	5.24
443.018	5.34
443.224	5.5
443.431	5.52
443.637	5.38
443.843	5.25
444.049	5.2
444.255	5.17
444.461	5.17
444.667	5.19
444.873	5.43
445.079	5.46
445.284	5.51
445.49	5.24
445.696	5.12
445.902	4.98
446.108	4.95
446.314	4.96
446.52	5.1
446.726	5.35
446.931	5.42
447.137	5.39
447.343	5.45
447.549	5.41
447.755	5.34
447.96	5.36
448.166	5.34
448.372	5.23
448.578	5.34
448.783	5.3
448.989	5.34
449.195	5.51
449.4	5.5
449.606	5.51
449.812	5.48
450.017	5.49
450.223	5.43
450.428	5.45
450.634	5.46
450.84	5.6
451.045	5.49
451.251	5.39
451.456	5.64
451.662	5.76
451.867	5.77
452.073	5.8
452.278	5.93
452.483	5.87
452.689	5.72
452.894	5.72
453.1	5.73
453.305	5.67
453.51	5.64
453.716	5.6
453.921	5.59
454.127	5.6
454.332	5.59
454.537	5.49
454.742	5.53
454.948	5.47
455.153	5.53
455.358	5.65
455.563	5.85
455.769	5.92
455.974	5.97
456.179	5.82
456.384	5.8
456.589	5.68
456.795	5.56
457	5.49
457.205	5.73
457.41	5.75
457.615	5.74
457.82	5.83
458.025	5.96
458.23	5.82
458.435	5.78
458.64	5.77
458.845	5.94
459.05	5.88
459.255	5.91
459.46	5.96
459.665	5.92
459.87	5.79
460.075	5.77
460.28	5.77
460.485	5.86
460.69	5.89
460.895	5.79
461.099	5.79
461.304	5.91
461.509	5.92
461.714	5.87
461.919	6.07
462.123	5.98
462.328	6.01
462.533	5.88
462.738	6.03
462.942	5.99
463.147	6.18
463.352	6.1
463.556	6.13
463.761	6.11
463.966	6.14
464.17	6.07
464.375	5.97
464.58	6.02
464.784	6.02
464.989	5.94
465.193	5.93
465.398	5.97
465.602	5.97
