Data from Ofra_2a_PS_2GT10B_Reflection_2.txt Node
Date: Tue Jul 20 09:39:47 EDT 2021
User: Adam
Spectrometer: FLMT01687
Trigger mode: 0
Integration Time (sec): 9.450000E-1
Scans to average: 3
Electric dark correction enabled: true
Nonlinearity correction enabled: false
Boxcar width: 3
XAxis mode: Wavelengths
Number of Pixels in Spectrum: 3648
>>>>>Begin Spectral Data<<<<<
179.494	730.77
179.716	459.07
179.937	533.52
180.158	2148.83
180.38	-1058.43
180.601	-180.02
180.823	-31.58
181.044	15.04
181.265	6.58
181.486	109.75
181.708	1233.7
181.929	140.35
182.15	-57.39
182.372	26.44
182.593	25.09
182.814	151.95
183.035	21.8
183.257	44.47
183.478	27.65
183.699	28.09
183.92	23.87
184.141	19.43
184.363	9.73
184.584	4.53
184.805	2.06
185.026	-12.01
185.247	-24.13
185.468	-14.55
185.689	-2.56
185.91	4.03
186.132	7.18
186.353	-2.76
186.574	-2.59
186.795	-12.44
187.016	-14.26
187.237	-4.94
187.458	-9.99
187.679	-23.87
187.9	-7.5
188.121	-10.28
188.342	33.24
188.563	22.92
188.784	5.54
189.005	4.41
189.226	12.45
189.447	6.79
189.667	15.68
189.888	20.92
190.109	16.32
190.33	-2
190.551	-7.76
190.772	-11.91
190.993	-0.93
191.214	-4.64
191.434	-20.43
191.655	2.15
191.876	15.59
192.097	14.8
192.318	21.32
192.538	19.27
192.759	23.99
192.98	15.17
193.201	26.54
193.421	37.46
193.642	46.82
193.863	47.98
194.083	46.53
194.304	39.7
194.525	57.62
194.745	29.88
194.966	20.58
195.187	23.01
195.407	25.23
195.628	24.16
195.848	16.7
196.069	12.45
196.29	5.18
196.51	-6.47
196.731	2.11
196.951	-0.36
197.172	-0.58
197.392	17.2
197.613	4.96
197.833	22.07
198.054	26.81
198.274	5.19
198.495	5.47
198.715	-7.62
198.936	-35.16
199.156	-7.85
199.377	-21.26
199.597	-35.39
199.817	-15.66
200.038	-6.91
200.258	3.69
200.479	13.2
200.699	-0.19
200.919	1.03
201.14	0.72
201.36	2.64
201.58	-6.24
201.801	-0.62
202.021	5.92
202.241	12.15
202.461	14.14
202.682	19.59
202.902	18.11
203.122	21.18
203.342	25.45
203.563	27.38
203.783	25.18
204.003	21.02
204.223	24.07
204.443	24.17
204.663	21.17
204.884	11.24
205.104	9.05
205.324	19.74
205.544	39.1
205.764	37.88
205.984	40.01
206.204	44.3
206.424	45.69
206.644	30.56
206.864	25.18
207.084	23.13
207.304	21.29
207.525	16.44
207.745	21.85
207.964	20.1
208.184	18.45
208.404	12.66
208.624	-5.68
208.844	-14.5
209.064	-17.9
209.284	-15.13
209.504	-19.01
209.724	-30.58
209.944	-23.01
210.164	-6.82
210.384	1.67
210.604	-2.66
210.823	-11.27
211.043	-23.86
211.263	4.35
211.483	3.91
211.703	8.2
211.922	8.21
212.142	20.21
212.362	30.44
212.582	28.35
212.801	25.42
213.021	24.23
213.241	0.31
213.461	0.19
213.68	-6.66
213.9	-13.54
214.12	-11.15
214.339	-5.65
214.559	-2.49
214.779	22.16
214.998	20.92
215.218	27.65
215.438	31.09
215.657	33.27
215.877	27.73
216.096	30.57
216.316	16.38
216.535	13.93
216.755	-3.34
216.974	-20.03
217.194	-9.59
217.413	-0.4
217.633	-10.43
217.852	-12.11
218.072	-24.92
218.291	9.55
218.511	10.89
218.73	6.74
218.95	-0.61
219.169	1.65
219.389	2.3
219.608	24.07
219.827	8.29
220.047	33.84
220.266	31.68
220.485	25.65
220.705	19.54
220.924	23.52
221.143	6.25
221.363	5.44
221.582	-7.12
221.801	-17.97
222.021	-8.54
222.24	-8.03
222.459	-18.94
222.678	-25.22
222.897	-20.49
223.117	-9.48
223.336	0.18
223.555	-19.94
223.774	-19.27
223.993	-5.84
224.213	10.56
224.432	17.34
224.651	17.77
224.87	10
225.089	36.59
225.308	36.32
225.527	41
225.746	38.33
225.965	33.14
226.184	24.54
226.404	23.59
226.623	14.87
226.842	17.15
227.061	15.77
227.28	28.92
227.499	33.66
227.718	32.77
227.936	30.72
228.155	26.33
228.374	21.67
228.593	23.15
228.812	8.65
229.031	-7.14
229.25	-3.35
229.469	9.35
229.688	8.06
229.907	6.55
230.125	2.21
230.344	10.24
230.563	17.15
230.782	12.89
231.001	4.9
231.22	1.39
231.438	14.67
231.657	14.09
231.876	4.28
232.095	13.12
232.313	12.27
232.532	13.31
232.751	21.55
232.969	22.18
233.188	23.38
233.407	25.83
233.625	20.84
233.844	26.56
234.063	26.72
234.281	17.91
234.5	12.16
234.719	9.13
234.937	11.33
235.156	1.19
235.374	-8.19
235.593	-11.67
235.811	-9.33
236.03	-11.06
236.249	9.46
236.467	10.12
236.686	25.61
236.904	27.98
237.123	40.77
237.341	41.87
237.559	42.88
237.778	48.12
237.996	50.38
238.215	47.69
238.433	46.67
238.652	36.02
238.87	31.35
239.088	23
239.307	17.53
239.525	9.35
239.743	-1.35
239.962	-7.97
240.18	-0.13
240.398	8.61
240.617	18.95
240.835	15.33
241.053	23.67
241.271	30.45
241.49	24.68
241.708	19.54
241.926	10.47
242.144	9.36
242.363	11.13
242.581	11.8
242.799	4.26
243.017	13.34
243.235	4.75
243.453	6.75
243.672	-0.34
243.89	5.09
244.108	13.74
244.326	13.3
244.544	24.43
244.762	30.8
244.98	33.28
245.198	34.3
245.416	41.09
245.634	44.69
245.852	43.75
246.07	22.96
246.288	15.52
246.506	16.21
246.724	33.08
246.942	18.4
247.16	13.92
247.378	7.43
247.596	19.42
247.814	15.49
248.032	9.1
248.25	5
248.468	9.89
248.685	13.63
248.903	14.73
249.121	21.62
249.339	29.94
249.557	24.23
249.775	1
249.992	-5.8
250.21	-9.52
250.428	-10.88
250.646	-6.37
250.863	-6.2
251.081	-10.31
251.299	15.72
251.517	28.32
251.734	24.04
251.952	32.59
252.17	11.75
252.387	11.01
252.605	13.55
252.823	-1.17
253.04	-7.19
253.258	-5.22
253.475	0.5
253.693	13.63
253.911	23.15
254.128	25.52
254.346	18.69
254.563	16.27
254.781	14.47
254.998	14.13
255.216	8.02
255.433	1.37
255.651	5.81
255.868	18.71
256.086	21.76
256.303	20.72
256.521	17
256.738	20.89
256.956	16.24
257.173	7.1
257.39	4.77
257.608	-4.67
257.825	-3
258.043	11.24
258.26	6.44
258.477	7.45
258.695	12.95
258.912	18.53
259.129	30.22
259.346	30.42
259.564	21.47
259.781	28.74
259.998	32.86
260.216	37.77
260.433	29.88
260.65	30.18
260.867	11.77
261.084	10.28
261.302	5.27
261.519	-6.71
261.736	-16.2
261.953	-5.96
262.17	-2.3
262.387	6.9
262.604	0.52
262.822	-7.1
263.039	-4.1
263.256	-3.24
263.473	-20.01
263.69	-24.98
263.907	-26.82
264.124	-24.11
264.341	-22.67
264.558	-11.8
264.775	-14.83
264.992	-13.02
265.209	-4.71
265.426	-1.89
265.643	5.83
265.86	9.9
266.077	12.33
266.294	18.23
266.51	22.49
266.727	7.11
266.944	7.19
267.161	-5.14
267.378	-11.41
267.595	-33.81
267.812	-45.24
268.028	-41.58
268.245	-23.95
268.462	-24.34
268.679	-16.82
268.896	-17.05
269.112	0.76
269.329	8.8
269.546	6.02
269.763	17.35
269.979	22.79
270.196	26.34
270.413	29.54
270.629	22.61
270.846	15.8
271.063	20.46
271.279	11.02
271.496	5.28
271.712	10.39
271.929	16.3
272.146	16.17
272.362	6.02
272.579	2.94
272.795	2.21
273.012	1.6
273.228	-8.62
273.445	-10.5
273.661	-8.47
273.878	10.47
274.094	11.23
274.311	13.85
274.527	15.43
274.744	16.64
274.96	18.27
275.177	25.75
275.393	18.02
275.609	21.82
275.826	16.5
276.042	28.79
276.259	28.07
276.475	25.88
276.691	23.94
276.908	27.26
277.124	18.97
277.34	19.51
277.557	12.04
277.773	10.64
277.989	10.6
278.205	0.05
278.422	-3.53
278.638	4.38
278.854	8.66
279.07	-2.35
279.286	-7.1
279.503	-18.3
279.719	-3.36
279.935	-25.64
280.151	-20.86
280.367	-27.92
280.583	-18.24
280.799	-1.71
281.016	9.74
281.232	4.77
281.448	19.33
281.664	13.33
281.88	15.46
282.096	15.06
282.312	7.62
282.528	-3.99
282.744	-0.46
282.96	8.61
283.176	16.36
283.392	24.68
283.608	28.16
283.824	18.06
284.04	23.6
284.256	21.79
284.471	21.17
284.687	14.69
284.903	8.88
285.119	-4.55
285.335	3.7
285.551	7.63
285.767	-0.69
285.982	2.02
286.198	-2.01
286.414	14.39
286.63	18.09
286.846	19.43
287.061	14.99
287.277	22.15
287.493	24.36
287.709	25.92
287.924	24.58
288.14	38.51
288.356	41.38
288.571	25.86
288.787	18.65
289.003	12.09
289.218	13.82
289.434	12.28
289.65	9.26
289.865	5.09
290.081	17.22
290.296	23.64
290.512	32.03
290.727	37.94
290.943	24.55
291.159	15.25
291.374	15.39
291.59	5.77
291.805	4.27
292.021	-16.49
292.236	-16.63
292.451	-9.88
292.667	0.61
292.882	-3.76
293.098	-0.04
293.313	-6.89
293.529	0.9
293.744	2.26
293.959	6.6
294.175	2.03
294.39	16.11
294.605	16.51
294.821	18.72
295.036	14.66
295.251	21.83
295.467	14.85
295.682	16.4
295.897	7.06
296.112	8.28
296.328	8.17
296.543	3.66
296.758	-12.46
296.973	-6.89
297.188	-9.11
297.404	1.45
297.619	8.4
297.834	18.43
298.049	20.18
298.264	28.44
298.479	12.05
298.694	15.92
298.909	8.91
299.125	7.34
299.34	0.94
299.555	9.05
299.77	5.81
299.985	15.89
300.2	8.01
300.415	12.25
300.63	1.74
300.845	3.39
301.06	-4.54
301.275	5.23
301.49	4.28
301.704	3.07
301.919	-3.6
302.134	-8.18
302.349	-12.8
302.564	-15.12
302.779	-31.45
302.994	-17.19
303.209	-23.09
303.423	-17.98
303.638	-0.7
303.853	0.68
304.068	1.62
304.283	7.25
304.497	-3.69
304.712	8.94
304.927	-1.65
305.142	3.32
305.356	0.25
305.571	9.55
305.786	3.55
306	3.88
306.215	1.18
306.43	9.05
306.644	9.88
306.859	19.56
307.074	8.38
307.288	20.33
307.503	15.87
307.717	12.53
307.932	7.88
308.147	3.46
308.361	-7.27
308.576	0.63
308.79	-6.21
309.005	1.47
309.219	6.63
309.434	10.23
309.648	3.43
309.863	17.24
310.077	16.55
310.292	19.24
310.506	22.59
310.72	19.12
310.935	21.48
311.149	27.93
311.364	21.64
311.578	16.51
311.792	9
312.007	5.72
312.221	13.86
312.435	15.46
312.649	-25.39
312.864	-27.57
313.078	-23.1
313.292	-4.83
313.507	5.06
313.721	-4.59
313.935	13.24
314.149	45.5
314.363	46.67
314.578	72.98
314.792	60.78
315.006	54.4
315.22	55.79
315.434	42.03
315.648	41.61
315.862	43.86
316.077	26.61
316.291	29.6
316.505	29.77
316.719	14.53
316.933	23.8
317.147	11.59
317.361	5.17
317.575	7.43
317.789	14.3
318.003	19.43
318.217	37.45
318.431	34.88
318.645	41.96
318.859	28.22
319.073	22.3
319.287	12.98
319.5	8.55
319.714	6.91
319.928	7.97
320.142	9.29
320.356	30.21
320.57	25.11
320.784	37.97
320.997	38.88
321.211	26.39
321.425	18.24
321.639	13.23
321.853	-0.03
322.066	-0.16
322.28	-4.85
322.494	-6.26
322.707	-6.45
322.921	-1.87
323.135	0.33
323.349	8.14
323.562	13.02
323.776	12.15
323.989	-0.03
324.203	10.21
324.417	5.38
324.63	-4.72
324.844	-17.08
325.057	-10.85
325.271	-19.88
325.485	-0.39
325.698	-5.7
325.912	-0.2
326.125	11.79
326.339	14.46
326.552	12.11
326.766	27.3
326.979	21.35
327.193	18.26
327.406	9.74
327.619	-5.11
327.833	-9.78
328.046	-13.51
328.26	-31.36
328.473	-25.4
328.686	-29.36
328.9	-31.56
329.113	-12.74
329.326	3.6
329.54	8.09
329.753	11.85
329.966	15.24
330.179	25.98
330.393	32.74
330.606	29.16
330.819	26.5
331.032	29.27
331.246	33.31
331.459	31.59
331.672	32.16
331.885	27.78
332.098	32.74
332.311	21.63
332.525	12.82
332.738	3.23
332.951	-2.1
333.164	-11.77
333.377	-26.64
333.59	-20.7
333.803	-5.51
334.016	-17.12
334.229	3.08
334.442	19.76
334.655	24.56
334.868	39.47
335.081	36.8
335.294	34.27
335.507	47.51
335.72	39.56
335.933	33.09
336.146	34.49
336.359	30.17
336.572	19.68
336.785	24.32
336.997	11.16
337.21	13.38
337.423	10.42
337.636	7.17
337.849	6.77
338.062	16.66
338.274	10.79
338.487	14.59
338.7	17.42
338.913	14.69
339.125	9.61
339.338	10.72
339.551	9.72
339.763	7.47
339.976	5.7
340.189	0.92
340.402	-0.26
340.614	7.04
340.827	0.9
341.039	0.83
341.252	-1.34
341.465	-5.34
341.677	-10.06
341.89	-6.14
342.102	-0.24
342.315	7.34
342.527	-0.39
342.74	5.8
342.952	8.65
343.165	19.87
343.377	21.43
343.59	12.74
343.802	12.86
344.015	14.24
344.227	11.48
344.44	9.28
344.652	11.3
344.864	16.42
345.077	19.83
345.289	16.79
345.502	18.82
345.714	16.6
345.926	20.58
346.139	18.31
346.351	3.26
346.563	14.72
346.775	7.31
346.988	12.42
347.2	9.78
347.412	13.91
347.624	13.17
347.837	17.96
348.049	11.4
348.261	14.16
348.473	6.25
348.685	9.29
348.897	4.41
349.11	-2.18
349.322	-7.34
349.534	-9.75
349.746	-4.6
349.958	2.36
350.17	5.85
350.382	5.9
350.594	6.34
350.806	8.9
351.018	14.7
351.23	15.91
351.442	12.19
351.654	16.33
351.866	18.98
352.078	17.01
352.29	24.99
352.502	21.17
352.714	24.91
352.926	28.72
353.138	13.69
353.35	3.79
353.561	6.93
353.773	4.98
353.985	2.22
354.197	-4.23
354.409	-3.14
354.621	7.68
354.832	2.51
355.044	9.82
355.256	5.32
355.468	4.41
355.679	5.26
355.891	11.52
356.103	6.59
356.314	18.57
356.526	13.86
356.738	12.18
356.949	26.46
357.161	28.56
357.373	26.67
357.584	35.73
357.796	32.91
358.008	29.34
358.219	34.33
358.431	26.48
358.642	23.14
358.854	19.78
359.065	13.27
359.277	8.43
359.488	5.61
359.7	4.22
359.911	1.07
360.123	1.49
360.334	0.04
360.546	-10.02
360.757	-2.23
360.969	7.95
361.18	5.83
361.391	2.48
361.603	4.95
361.814	6.7
362.025	10.24
362.237	12.73
362.448	6.46
362.659	-7.23
362.871	2.52
363.082	11.27
363.293	18.35
363.504	22.98
363.716	21.01
363.927	28.9
364.138	38.54
364.349	39.38
364.56	30.71
364.772	23.7
364.983	19.38
365.194	19.78
365.405	11.28
365.616	4.66
365.827	-2.22
366.038	1.09
366.25	7.41
366.461	11.26
366.672	7.32
366.883	14.57
367.094	19.22
367.305	21.18
367.516	21.06
367.727	19.09
367.938	19.32
368.149	21.1
368.36	18.3
368.571	12.33
368.781	6.87
368.992	4.23
369.203	-1.05
369.414	1.46
369.625	0.46
369.836	-3.34
370.047	4.83
370.258	2.83
370.468	1.01
370.679	9.16
370.89	16.14
371.101	14.15
371.312	11.38
371.522	11.39
371.733	10.92
371.944	18.26
372.155	2.56
372.365	-8.25
372.576	-3.62
372.787	-2.35
372.997	-7.02
373.208	0.89
373.419	1.26
373.629	15.01
373.84	10.68
374.05	10.87
374.261	7.53
374.472	8.78
374.682	1.65
374.893	-6.39
375.103	-8.26
375.314	1.16
375.524	0.77
375.735	5.21
375.945	7.33
376.156	13.87
376.366	24.1
376.577	24.56
376.787	22.76
376.997	24.04
377.208	17.01
377.418	12.26
377.629	9.05
377.839	6.08
378.049	9.4
378.26	11.75
378.47	11.97
378.68	14.63
378.89	11.52
379.101	5.26
379.311	-5.81
379.521	-7.91
379.732	-12.46
379.942	-14.1
380.152	-7.45
380.362	1.2
380.572	2.04
380.783	4.43
380.993	3.44
381.203	4.74
381.413	9.61
381.623	10
381.833	7.6
382.043	9.23
382.253	10.03
382.463	10.78
382.674	12.01
382.884	1.32
383.094	0.71
383.304	-2.57
383.514	2.78
383.724	5.93
383.934	5.58
384.144	8.44
384.353	10.12
384.563	4.01
384.773	6.65
384.983	5.13
385.193	6.45
385.403	8.99
385.613	2.33
385.823	4.21
386.033	7.15
386.242	6.38
386.452	5.97
386.662	6.41
386.872	2.68
387.082	1.99
387.291	2.5
387.501	4.69
387.711	3.59
387.921	2.61
388.13	0.77
388.34	-0.86
388.55	0.32
388.759	0.56
388.969	-2.85
389.179	0.9
389.388	2.47
389.598	2.85
389.807	1.96
390.017	2.56
390.227	1.05
390.436	1.39
390.646	0.1
390.855	-2.13
391.065	-4.27
391.274	-3.63
391.484	-2.97
391.693	0.18
391.903	1.25
392.112	-0.9
392.322	2.16
392.531	4.44
392.74	3.46
392.95	3.64
393.159	2.06
393.369	1.58
393.578	2.58
393.787	1.44
393.997	1.88
394.206	3.21
394.415	2.82
394.625	1.98
394.834	1.15
395.043	1.02
395.252	1.02
395.462	0.16
395.671	-0.06
395.88	0.7
396.089	1.09
396.298	1.4
396.508	1.07
396.717	0.6
396.926	0.48
397.135	0.43
397.344	0.04
397.553	0.2
397.762	0.3
397.971	1.01
398.181	0.96
398.39	1.31
398.599	1.77
398.808	1.71
399.017	1.58
399.226	1.89
399.435	1.51
399.644	1.58
399.853	1.44
400.062	1.25
400.27	1.14
400.479	1.25
400.688	1.24
400.897	1.49
401.106	1.65
401.315	1.63
401.524	1.71
401.733	1.54
401.941	1.63
402.15	1.28
402.359	1.12
402.568	1.08
402.777	1.08
402.985	0.96
403.194	1.11
403.403	0.77
403.612	0.89
403.82	0.99
404.029	0.89
404.238	0.88
404.446	0.83
404.655	0.72
404.864	0.84
405.072	0.91
405.281	0.75
405.489	0.87
405.698	0.82
405.906	0.91
406.115	1.06
406.324	1.03
406.532	1.06
406.741	1.12
406.949	1.08
407.158	1.18
407.366	1.2
407.574	1.14
407.783	1.13
407.991	1.04
408.2	1.01
408.408	1.02
408.617	0.92
408.825	0.87
409.033	0.83
409.242	0.81
409.45	0.82
409.658	0.82
409.867	0.75
410.075	0.76
410.283	0.73
410.491	0.78
410.7	0.9
410.908	0.92
411.116	0.86
411.324	0.92
411.533	0.86
411.741	0.88
411.949	0.93
412.157	0.88
412.365	0.83
412.573	0.88
412.781	0.89
412.99	1.02
413.198	1.01
413.406	0.93
413.614	0.88
413.822	0.92
414.03	0.85
414.238	0.85
414.446	0.74
414.654	0.71
414.862	0.67
415.07	0.71
415.278	0.63
415.486	0.78
415.694	0.66
415.902	0.65
416.109	0.68
416.317	0.71
416.525	0.74
416.733	0.84
416.941	0.73
417.149	0.85
417.357	0.95
417.564	0.94
417.772	0.98
417.98	0.95
418.188	0.9
418.395	0.89
418.603	0.82
418.811	0.68
419.019	0.66
419.226	0.66
419.434	0.54
419.642	0.52
419.849	0.6
420.057	0.61
420.265	0.7
420.472	0.63
420.68	0.54
420.887	0.67
421.095	0.69
421.302	0.72
421.51	0.86
421.717	0.88
421.925	0.91
422.132	1
422.34	0.99
422.547	0.97
422.755	0.9
422.962	0.72
423.17	0.66
423.377	0.75
423.585	0.76
423.792	0.65
423.999	0.66
424.207	0.57
424.414	0.71
424.621	0.72
424.829	0.66
425.036	0.57
425.243	0.62
425.451	0.67
425.658	0.72
425.865	0.55
426.072	0.56
426.28	0.56
426.487	0.54
426.694	0.6
426.901	0.48
427.108	0.53
427.315	0.61
427.523	0.69
427.73	0.74
427.937	0.78
428.144	0.73
428.351	0.82
428.558	0.73
428.765	0.66
428.972	0.53
429.179	0.47
429.386	0.52
429.593	0.54
429.8	0.6
430.007	0.76
430.214	0.8
430.421	0.84
430.628	0.71
430.835	0.69
431.042	0.7
431.249	0.65
431.456	0.63
431.662	0.61
431.869	0.69
432.076	0.78
432.283	0.65
432.49	0.63
432.697	0.56
432.903	0.52
433.11	0.58
433.317	0.51
433.524	0.53
433.73	0.61
433.937	0.56
434.144	0.68
434.35	0.69
434.557	0.61
434.764	0.61
434.97	0.64
435.177	0.63
435.384	0.72
435.59	0.68
435.797	0.73
436.003	0.79
436.21	0.75
436.416	0.69
436.623	0.78
436.829	0.71
437.036	0.71
437.242	0.64
437.449	0.68
437.655	0.72
437.862	0.73
438.068	0.75
438.275	0.76
438.481	0.79
438.687	0.86
438.894	0.79
439.1	0.83
439.307	0.82
439.513	0.76
439.719	0.82
439.926	0.8
440.132	0.75
440.338	0.74
440.544	0.69
440.751	0.74
440.957	0.7
441.163	0.66
441.369	0.66
441.575	0.69
441.782	0.7
441.988	0.75
442.194	0.78
442.4	0.84
442.606	0.87
442.812	0.88
443.018	0.9
443.224	0.92
443.431	0.87
443.637	0.79
443.843	0.79
444.049	0.77
444.255	0.7
444.461	0.68
444.667	0.66
444.873	0.66
445.079	0.71
445.284	0.67
445.49	0.6
445.696	0.66
445.902	0.7
446.108	0.72
446.314	0.79
446.52	0.81
446.726	0.87
446.931	0.92
447.137	0.95
447.343	0.91
447.549	0.9
447.755	0.86
447.96	0.83
448.166	0.8
448.372	0.83
448.578	0.82
448.783	0.83
448.989	0.84
449.195	0.87
449.4	0.9
449.606	0.89
449.812	0.89
450.017	0.9
450.223	0.89
450.428	0.92
450.634	0.94
450.84	0.93
451.045	0.95
451.251	0.96
451.456	0.92
451.662	0.96
451.867	0.92
452.073	0.89
452.278	0.86
452.483	0.86
452.689	0.83
452.894	0.83
453.1	0.74
453.305	0.77
453.51	0.76
453.716	0.76
453.921	0.78
454.127	0.76
454.332	0.74
454.537	0.82
454.742	0.76
454.948	0.74
455.153	0.74
455.358	0.79
455.563	0.81
455.769	0.85
455.974	0.78
456.179	0.79
456.384	0.82
456.589	0.87
456.795	0.8
457	0.84
457.205	0.76
457.41	0.81
457.615	0.86
457.82	0.91
458.025	0.87
458.23	0.87
458.435	0.81
458.64	0.9
458.845	0.89
459.05	0.89
459.255	0.85
459.46	0.82
459.665	0.86
459.87	0.87
460.075	0.85
460.28	0.86
460.485	0.88
460.69	0.83
460.895	0.9
461.099	0.89
461.304	0.88
461.509	0.82
461.714	0.83
461.919	0.81
462.123	0.87
462.328	0.82
462.533	0.82
462.738	0.83
462.942	0.92
463.147	0.9
463.352	0.96
463.556	0.92
463.761	0.94
463.966	0.98
464.17	0.96
464.375	0.91
464.58	0.87
464.784	0.83
464.989	0.85
465.193	0.9
465.398	0.89
465.602	0.91
465.807	0.94
466.011	1
466.216	0.99
466.42	1.02
466.625	1.02
466.829	1.02
467.034	1.05
467.238	1.07
467.443	1.07
467.647	1.11
467.851	1.1
468.056	1.08
468.26	1.08
468.464	1.11
468.669	1.09
468.873	1.06
469.077	1.04
469.282	1.06
469.486	1.09
469.69	1.1
469.894	1.11
470.099	1.16
470.303	1.15
470.507	1.11
470.711	1.09
