Data from Ofra_PS_T2_1A_2HS17_Reflection_2.txt Node
Date: Wed Jul 21 18:01:33 EDT 2021
User: Adam
Spectrometer: FLMT01687
Trigger mode: 0
Integration Time (sec): 1.100000E0
Scans to average: 2
Electric dark correction enabled: true
Nonlinearity correction enabled: false
Boxcar width: 2
XAxis mode: Wavelengths
Number of Pixels in Spectrum: 3648
>>>>>Begin Spectral Data<<<<<
179.494	430.2
179.716	520.94
179.937	484.02
180.158	483.19
180.38	699.84
180.601	215.88
180.823	62.34
181.044	-52.25
181.265	73.35
181.486	52.48
181.708	151.21
181.929	1036.22
182.15	-465.85
182.372	117.31
182.593	-3.4
182.814	77.32
183.035	121.96
183.257	70.86
183.478	-32.07
183.699	50.74
183.92	22.1
184.141	18.14
184.363	-2.86
184.584	45.17
184.805	48.9
185.026	64.1
185.247	75.18
185.468	65.05
185.689	89.83
185.91	70.72
186.132	83.2
186.353	64.16
186.574	98.67
186.795	53.47
187.016	25.92
187.237	1.33
187.458	0.31
187.679	2.4
187.9	13.03
188.121	16.89
188.342	43.28
188.563	65.09
188.784	99.67
189.005	101.15
189.226	121.68
189.447	73.68
189.667	-68.81
189.888	-282.64
190.109	-1064.61
190.33	-509.52
190.551	-892.7
190.772	-181.78
190.993	-97.55
191.214	-89.9
191.434	-85.18
191.655	24.2
191.876	28.64
192.097	-76.7
192.318	-120.03
192.538	-114.59
192.759	-148.92
192.98	-72.08
193.201	-18.5
193.421	4.92
193.642	19.25
193.863	32.09
194.083	17.7
194.304	12
194.525	14.59
194.745	10.64
194.966	-15.11
195.187	-22.83
195.407	-41.44
195.628	-95.83
195.848	-108.44
196.069	-117.72
196.29	-79.32
196.51	-89.85
196.731	-70.42
196.951	-79.38
197.172	-75.64
197.392	-126.89
197.613	-123.27
197.833	-151.56
198.054	-112.95
198.274	-55.85
198.495	-53.03
198.715	-17
198.936	-27.92
199.156	-29.43
199.377	-93.02
199.597	-77.8
199.817	-82.59
200.038	-19.46
200.258	-54.93
200.479	-10.15
200.699	25.31
200.919	52.87
201.14	21.39
201.36	4.75
201.58	20.08
201.801	44.52
202.021	19.7
202.241	20.81
202.461	25.4
202.682	-36.3
202.902	-122.97
203.122	-48.4
203.342	-45.47
203.563	-14.53
203.783	25.63
204.003	-5.52
204.223	-24.39
204.443	22.41
204.663	-10.52
204.884	-13.93
205.104	20.79
205.324	30.55
205.544	35.08
205.764	59.41
205.984	74.26
206.204	70.82
206.424	54.7
206.644	39.01
206.864	35.06
207.084	7.01
207.304	11.89
207.525	-29.3
207.745	24.06
207.964	53.68
208.184	2.42
208.404	-35.09
208.624	-46.18
208.844	-58.74
209.064	-297.41
209.284	-272.99
209.504	-109.9
209.724	15.2
209.944	26.82
210.164	44.91
210.384	31.83
210.604	19.14
210.823	-28.29
211.043	-56.06
211.263	-43.38
211.483	-46.05
211.703	-83.98
211.922	-72.11
212.142	-6.81
212.362	-14.25
212.582	1.46
212.801	24.48
213.021	-7.32
213.241	-21.95
213.461	-28.44
213.68	-67.66
213.9	-44.1
214.12	0.45
214.339	-58.51
214.559	-61.07
214.779	-16.51
214.998	-33.26
215.218	-89.78
215.438	-49.73
215.657	-33.62
215.877	-24.67
216.096	1.27
216.316	17.24
216.535	14.24
216.755	0.17
216.974	-57.15
217.194	-121.95
217.413	-130.38
217.633	-124.66
217.852	-185.56
218.072	-83.19
218.291	-15.75
218.511	36.83
218.73	16.09
218.95	4.57
219.169	-1.95
219.389	-37.96
219.608	-30.27
219.827	-16.9
220.047	8.03
220.266	26.57
220.485	19.29
220.705	24.25
220.924	4.02
221.143	23.93
221.363	-1.04
221.582	25.82
221.801	28.78
222.021	48.21
222.24	22.1
222.459	108.3
222.678	38.88
222.897	-1.54
223.117	-41.01
223.336	-20.53
223.555	-15.16
223.774	36.61
223.993	52.75
224.213	95.12
224.432	57.25
224.651	58.84
224.87	15.31
225.089	20.07
225.308	5.56
225.527	31.03
225.746	26.35
225.965	20.95
226.184	6.32
226.404	15.87
226.623	2.44
226.842	3
227.061	35.15
227.28	38.87
227.499	30.13
227.718	35.82
227.936	28.42
228.155	36.19
228.374	23.98
228.593	28.06
228.812	14.99
229.031	3.29
229.25	-43.66
229.469	-44.31
229.688	-42.16
229.907	0.63
230.125	36.61
230.344	55.31
230.563	62.59
230.782	69.23
231.001	10.91
231.22	4.14
231.438	22.41
231.657	20.08
231.876	27.59
232.095	70.77
232.313	58.02
232.532	39.74
232.751	14.49
232.969	-10.5
233.188	-96.29
233.407	-2.18
233.625	10.81
233.844	7.59
234.063	18.05
234.281	30.2
234.5	22.75
234.719	24.35
234.937	43.16
235.156	48.02
235.374	49.46
235.593	45.88
235.811	44.55
236.03	36.56
236.249	10.25
236.467	5.15
236.686	13.75
236.904	23.93
237.123	-2.17
237.341	-2.38
237.559	-1.77
237.778	-11.32
237.996	-30.11
238.215	9.5
238.433	29.2
238.652	32.12
238.87	0.93
239.088	-3.13
239.307	-6.2
239.525	-34.73
239.743	-55.41
239.962	-28.77
240.18	-38.29
240.398	-77.54
240.617	-63.26
240.835	-23.42
241.053	-0.93
241.271	52.39
241.49	61.51
241.708	39.09
241.926	19.93
242.144	-13.64
242.363	-63.46
242.581	-109.52
242.799	-51.47
243.017	-13.29
243.235	-34.79
243.453	-23.26
243.672	-5.32
243.89	-3.09
244.108	-14
244.326	10.29
244.544	12.76
244.762	4.14
244.98	3.8
245.198	15.1
245.416	-4.33
245.634	-10.06
245.852	-6.54
246.07	8.27
246.288	-7.42
246.506	-12.59
246.724	4.06
246.942	-4.54
247.16	2.6
247.378	20.4
247.596	27.88
247.814	33.01
248.032	20.99
248.25	25.86
248.468	10.1
248.685	32.75
248.903	49.01
249.121	53.14
249.339	22.85
249.557	20.68
249.775	5.97
249.992	-59.06
250.21	-53.12
250.428	-31.52
250.646	-69.3
250.863	-88.06
251.081	-48.34
251.299	-58.6
251.517	-50.12
251.734	-9.22
251.952	1.44
252.17	-14.38
252.387	-3.43
252.605	-18.24
252.823	-15.62
253.04	-1.54
253.258	18.18
253.475	12.4
253.693	35.8
253.911	28.92
254.128	30.86
254.346	39.14
254.563	16.66
254.781	-7.97
254.998	-19.15
255.216	-44.87
255.433	-42.51
255.651	22.3
255.868	38.07
256.086	74.19
256.303	84.38
256.521	61.45
256.738	29.27
256.956	10.71
257.173	-27.92
257.39	-49.01
257.608	-78.17
257.825	-30.31
258.043	10.5
258.26	27.6
258.477	70.67
258.695	68.61
258.912	26.92
259.129	26.49
259.346	-2.63
259.564	-39.36
259.781	-42.48
259.998	2.82
260.216	20.6
260.433	60.47
260.65	58.69
260.867	68.07
261.084	40.74
261.302	7.11
261.519	-31.05
261.736	-44.51
261.953	-68.32
262.17	-15.22
262.387	-45.97
262.604	-62.91
262.822	-66.24
263.039	-53.98
263.256	-102.7
263.473	-40.61
263.69	-28.94
263.907	-4.21
264.124	7.42
264.341	-0.93
264.558	-13.13
264.775	8.31
264.992	4.83
265.209	13.65
265.426	27.72
265.643	31.45
265.86	37.52
266.077	46.99
266.294	42.08
266.51	12.45
266.727	1.63
266.944	5.18
267.161	-15.76
267.378	-22.3
267.595	8.17
267.812	-8.48
268.028	-35.82
268.245	2
268.462	-1.28
268.679	-11.6
268.896	39.01
269.112	48.62
269.329	25.94
269.546	29.39
269.763	27.39
269.979	25.2
270.196	8.65
270.413	-1.63
270.629	-42.7
270.846	-38.19
271.063	-53.37
271.279	-64.29
271.496	-56.08
271.712	-16.59
271.929	2.15
272.146	-20.83
272.362	-19.7
272.579	-5.3
272.795	25.47
273.012	4.71
273.228	12.4
273.445	-5.47
273.661	-38.19
273.878	-94.35
274.094	-77.64
274.311	-77.46
274.527	-10.65
274.744	-6.33
274.96	6.71
275.177	14.32
275.393	24.63
275.609	28.65
275.826	52.85
276.042	41.42
276.259	39.39
276.475	41.2
276.691	43.45
276.908	20.13
277.124	23.11
277.34	15.09
277.557	-3.48
277.773	-30.23
277.989	-35.64
278.205	-26.21
278.422	-3.62
278.638	9.42
278.854	34.74
279.07	54.37
279.286	38.47
279.503	1.03
279.719	-13.25
279.935	-41.11
280.151	-85.95
280.367	-44.23
280.583	-62.25
280.799	-56.85
281.016	-84.05
281.232	-18.4
281.448	-21.01
281.664	12.16
281.88	0.18
282.096	25.12
282.312	29.76
282.528	39.38
282.744	46.63
282.96	46.55
283.176	35.82
283.392	29.42
283.608	17.27
283.824	9.38
284.04	12.52
284.256	17.82
284.471	3.28
284.687	5.51
284.903	40.32
285.119	57.03
285.335	26.16
285.551	45.85
285.767	28.42
285.982	1.57
286.198	-15.4
286.414	41.59
286.63	28.26
286.846	66.47
287.061	34.64
287.277	48.64
287.493	14.26
287.709	34.08
287.924	-5.55
288.14	37.46
288.356	28.19
288.571	56.08
288.787	36.2
289.003	35.12
289.218	27.64
289.434	-1.12
289.65	2.67
289.865	5.45
290.081	36.81
290.296	22.28
290.512	39.12
290.727	11.26
290.943	-2.46
291.159	-21.35
291.374	-32.35
291.59	-46.23
291.805	-37.03
292.021	-27.03
292.236	-25.83
292.451	11.16
292.667	18.95
292.882	30.71
293.098	25.11
293.313	23.86
293.529	-15.22
293.744	-30.13
293.959	-33.09
294.175	-18.77
294.39	5.47
294.605	20.74
294.821	39.64
295.036	45.89
295.251	43.83
295.467	4.4
295.682	-2.83
295.897	-50.21
296.112	-55.6
296.328	-50.61
296.543	-43.67
296.758	-39.2
296.973	9.53
297.188	31.97
297.404	6.3
297.619	-1.62
297.834	-26.6
298.049	-49.36
298.264	-59.5
298.479	-3.8
298.694	9.79
298.909	35.79
299.125	27.41
299.34	14.79
299.555	-15.29
299.77	6.53
299.985	-43.74
300.2	-71.64
300.415	-84.03
300.63	-60.77
300.845	-78.61
301.06	-60.98
301.275	-36.87
301.49	-17.87
301.704	-10.91
301.919	-26.47
302.134	-33.93
302.349	-27.72
302.564	-60.63
302.779	-82.61
302.994	-63.13
303.209	-24.11
303.423	-5.61
303.638	41.73
303.853	8.05
304.068	21.63
304.283	22.95
304.497	17
304.712	1.48
304.927	20.64
305.142	14.14
305.356	16.84
305.571	0.61
305.786	-4.36
306	-34.76
306.215	-43.99
306.43	-72.95
306.644	-34.43
306.859	3.3
307.074	27.12
307.288	4.13
307.503	-6.19
307.717	-28.34
307.932	-35.17
308.147	-42.8
308.361	-20.27
308.576	-10.61
308.79	-40.91
309.005	-42.27
309.219	-23.02
309.434	-18.66
309.648	-29.11
309.863	-2.71
310.077	-4.45
310.292	-10.32
310.506	-15.94
310.72	-3.12
310.935	9.76
311.149	11.61
311.364	34.82
311.578	49.33
311.792	42.48
312.007	41.96
312.221	36.54
312.435	33.78
312.649	8.12
312.864	34.18
313.078	32.93
313.292	81.6
313.507	51.1
313.721	82.94
313.935	55.77
314.149	52.86
314.363	25.68
314.578	22.23
314.792	20.39
315.006	1.69
315.22	10.24
315.434	19.72
315.648	34.91
315.862	42.74
316.077	43.83
316.291	25.68
316.505	32.65
316.719	15.85
316.933	-24.19
317.147	-23.19
317.361	-67.4
317.575	-80.13
317.789	-108.01
318.003	-156.78
318.217	-123.73
318.431	-8.38
318.645	19.54
318.859	16.66
319.073	47.52
319.287	33.51
319.5	-7.79
319.714	-58.55
319.928	-82.81
320.142	-120.99
320.356	-51.31
320.57	-5.26
320.784	-1.94
320.997	32.6
321.211	51.34
321.425	-20.63
321.639	-57.33
321.853	-1.1
322.066	9.93
322.28	-3.32
322.494	6.65
322.707	31.07
322.921	16.72
323.135	2.32
323.349	5.88
323.562	-5.54
323.776	-22.76
323.989	-25.14
324.203	-43.44
324.417	-38.82
324.63	-58.55
324.844	-54.89
325.057	-46.53
325.271	-25.65
325.485	-8.92
325.698	23.35
325.912	43.29
326.125	21.47
326.339	24.33
326.552	14.44
326.766	16.76
326.979	18.73
327.193	41.78
327.406	25.92
327.619	25.16
327.833	21.31
328.046	-7.6
328.26	-35.33
328.473	-8.18
328.686	-34.35
328.9	-27.83
329.113	-2.65
329.326	-17.69
329.54	-20.21
329.753	-22.95
329.966	-60.13
330.179	-50.39
330.393	-17.21
330.606	-11.99
330.819	20.72
331.032	35.46
331.246	33.55
331.459	57.56
331.672	54.88
331.885	38.27
332.098	21.1
332.311	9.65
332.525	-46.55
332.738	-37
332.951	-23.38
333.164	-2.33
333.377	22.35
333.59	45.8
333.803	43.48
334.016	42.46
334.229	42.94
334.442	46.19
334.655	51.48
334.868	47.21
335.081	27.92
335.294	16.48
335.507	1.12
335.72	-5.41
335.933	-0.73
336.146	5.47
336.359	11.36
336.572	-20.39
336.785	-55.74
336.997	-49.29
337.21	-3.94
337.423	-1.79
337.636	7.17
337.849	34.2
338.062	26.01
338.274	3.46
338.487	-1.74
338.7	-1.86
338.913	-29.16
339.125	-44.91
339.338	-88.56
339.551	-60.01
339.763	-18.04
339.976	6.99
340.189	26.51
340.402	46.28
340.614	17.93
340.827	11.15
341.039	1.84
341.252	0.14
341.465	11.25
341.677	19.11
341.89	-25.65
342.102	-11.68
342.315	-20.43
342.527	-46.56
342.74	-27.62
342.952	29.69
343.165	34.61
343.377	47.43
343.59	36.38
343.802	48.27
344.015	37.82
344.227	44.67
344.44	36.87
344.652	37.78
344.864	23.56
345.077	27.24
345.289	30.41
345.502	34.76
345.714	30.73
345.926	32.4
346.139	31.87
346.351	25.7
346.563	20.37
346.775	22.54
346.988	9.51
347.2	4.39
347.412	-41.3
347.624	-51.21
347.837	-53.02
348.049	-12.9
348.261	18.81
348.473	38.34
348.685	27.72
348.897	17.59
349.11	-12.04
349.322	-75
349.534	-65.7
349.746	-30.05
349.958	-17.4
350.17	-1.66
350.382	31.98
350.594	27.53
350.806	5.23
351.018	6.11
351.23	-11.55
351.442	-36.98
351.654	-28.05
351.866	19.4
352.078	16.62
352.29	29.49
352.502	24.53
352.714	33.27
352.926	16.44
353.138	10.66
353.35	0.82
353.561	7.37
353.773	-15.54
353.985	-12.31
354.197	-15.28
354.409	-11.79
354.621	-25.12
354.832	-11.37
355.044	-10.47
355.256	-15.21
355.468	0.21
355.679	-2.56
355.891	6.19
356.103	3.27
356.314	25.85
356.526	15.36
356.738	31.56
356.949	17.32
357.161	24.13
357.373	17.2
357.584	9.04
357.796	13.37
358.008	5.02
358.219	9.7
358.431	0.24
358.642	11.46
358.854	7.43
359.065	6.61
359.277	-13.51
359.488	-15.29
359.7	-26.78
359.911	-38.68
360.123	-14.51
360.334	-20.31
360.546	-25.98
360.757	-29.76
360.969	-7.11
361.18	-22.36
361.391	5.16
361.603	-7.41
361.814	1.42
362.025	-9.14
362.237	-1.75
362.448	-2.44
362.659	20.09
362.871	19.32
363.082	19.06
363.293	24.41
363.504	13.01
363.716	-2.52
363.927	-10.69
364.138	-39.45
364.349	-56.51
364.56	-47.21
364.772	-40.47
364.983	-16.54
365.194	-6.45
365.405	6.03
365.616	27.29
365.827	33.27
366.038	-8.18
366.25	-12.73
366.461	-27.42
366.672	-23.78
366.883	-12.62
367.094	12.02
367.305	2.63
367.516	3.68
367.727	-28.91
367.938	-41.77
368.149	-48.66
368.36	-25.32
368.571	-23.16
368.781	-33.25
368.992	-45.71
369.203	-53.26
369.414	-72.77
369.625	-79.48
369.836	-61.03
370.047	-75.98
370.258	-62.49
370.468	-67.78
370.679	-72.71
370.89	-69.52
371.101	-34.84
371.312	-34.56
371.522	-14.51
371.733	-7.98
371.944	18.18
372.155	5.44
372.365	4.24
372.576	2.73
372.787	0.1
372.997	-38.7
373.208	-22.8
373.419	3.21
373.629	-26.72
373.84	-18.16
374.05	-13.27
374.261	-18.46
374.472	-60.56
374.682	-7.29
374.893	-12.94
375.103	23.61
375.314	16.66
375.524	26.19
375.735	23.5
375.945	32.73
376.156	-6.46
376.366	11.2
376.577	18.59
376.787	11.71
376.997	16.58
377.208	30.93
377.418	7.14
377.629	17.47
377.839	10.1
378.049	1.31
378.26	11.64
378.47	23.84
378.68	9.14
378.89	9.38
379.101	9.99
379.311	-19.77
379.521	-44.9
379.732	-49.91
379.942	-51.68
380.152	-72.04
380.362	-27.22
380.572	-19.26
380.783	2.49
380.993	16.13
381.203	31.83
381.413	31.52
381.623	39.6
381.833	35.54
382.043	23.05
382.253	18.02
382.463	14.02
382.674	-2.54
382.884	-28.24
383.094	-18.89
383.304	-13.77
383.514	-8.48
383.724	6.24
383.934	4.24
384.144	-5.29
384.353	-17.5
384.563	-18.3
384.773	-17.69
384.983	-17.17
385.193	-3.37
385.403	3.36
385.613	1.12
385.823	-5.68
386.033	3.17
386.242	-4.53
386.452	-5.21
386.662	-16.31
386.872	-5.96
387.082	-11.81
387.291	-16.29
387.501	-19.67
387.711	-9.38
387.921	-14.54
388.13	-14.67
388.34	-5.73
388.55	-8.95
388.759	-11.03
388.969	-9.22
389.179	-9.91
389.388	-11.5
389.598	-6.04
389.807	-8.25
390.017	-10.5
390.227	-7.02
390.436	-8.24
390.646	-7.72
390.855	-6.32
391.065	-5.83
391.274	-8.52
391.484	-11.32
391.693	-7.87
391.903	-6.37
392.112	-0.3
392.322	2.34
392.531	6.36
392.74	5.67
392.95	1.35
393.159	-1.8
393.369	-2.69
393.578	-2.93
393.787	-4.38
393.997	-1.18
394.206	-3.48
394.415	-2.8
394.625	-3.51
394.834	-5.84
395.043	-4.38
395.252	-1.28
395.462	0.26
395.671	1.93
395.88	3.49
396.089	2.61
396.298	1.7
396.508	0.88
396.717	-0.2
396.926	-0.36
397.135	-0.69
397.344	-0.86
397.553	-0.06
397.762	1.62
397.971	2.2
398.181	2.72
398.39	2.25
398.599	1.71
398.808	1.25
399.017	2.02
399.226	2.62
399.435	3.97
399.644	4.11
399.853	2.93
400.062	2.17
400.27	1.92
400.479	1.4
400.688	0.4
400.897	0.91
401.106	0.8
401.315	0.58
401.524	0.55
401.733	1.35
401.941	1.79
402.15	2.05
402.359	1.83
402.568	2.06
402.777	2.31
402.985	1.71
403.194	1.61
403.403	1.79
403.612	1.32
403.82	1.02
404.029	1.34
404.238	1.17
404.446	1.38
404.655	1.31
404.864	1.32
405.072	1.25
405.281	1.53
405.489	1.18
405.698	1.38
405.906	1.31
406.115	1.27
406.324	1.15
406.532	1.34
406.741	1.49
406.949	1.56
407.158	1.49
407.366	1.52
407.574	1.46
407.783	1.39
407.991	1.2
408.2	1.49
408.408	1.47
408.617	1.41
408.825	1.15
409.033	1.27
409.242	1.09
409.45	1.16
409.658	1.11
409.867	1.31
410.075	1.17
410.283	1.11
410.491	0.98
410.7	0.94
410.908	0.96
411.116	1.27
411.324	1.3
411.533	1.33
411.741	1.56
411.949	1.54
412.157	1.38
412.365	1.4
412.573	1.43
412.781	1.41
412.99	1.35
413.198	1.38
413.406	1.42
413.614	1.38
413.822	1.26
414.03	1.23
414.238	1.09
414.446	1.11
414.654	0.97
414.862	1.04
415.07	1.1
415.278	1.28
415.486	1.07
415.694	1.3
415.902	1.24
416.109	1.09
416.317	1.09
416.525	1.03
416.733	0.93
416.941	1.14
417.149	1.14
417.357	1.11
417.564	1.39
417.772	1.72
417.98	1.54
418.188	1.67
418.395	1.76
418.603	1.85
418.811	1.26
419.019	1.18
419.226	1.34
419.434	1.39
419.642	1.13
419.849	1.47
420.057	1.43
420.265	1.39
420.472	1.1
420.68	1.22
420.887	1.17
421.095	1.33
421.302	1.3
421.51	1.67
421.717	1.67
421.925	1.76
422.132	1.67
422.34	1.38
422.547	1.3
422.755	1.23
422.962	1.09
423.17	0.98
423.377	1.18
423.585	0.97
423.792	0.97
423.999	1.01
424.207	1.06
424.414	1.06
424.621	1.19
424.829	1.05
425.036	1.12
425.243	1.39
425.451	1.34
425.658	1.09
425.865	1.34
426.072	1.29
426.28	1.34
426.487	1.28
426.694	1.41
426.901	1.27
427.108	1.22
427.315	1.05
427.523	1.36
427.73	1.3
427.937	1.31
428.144	1.24
428.351	1.14
428.558	1.14
428.765	1.18
428.972	1.13
429.179	1.26
429.386	1.48
429.593	1.2
429.8	1.15
430.007	1.24
430.214	1.33
430.421	1.15
430.628	1.03
430.835	0.92
431.042	0.99
431.249	0.94
431.456	0.87
431.662	0.96
431.869	1.09
432.076	1.17
432.283	1.25
432.49	1.2
432.697	1.22
432.903	1.05
433.11	0.96
433.317	0.95
433.524	1.25
433.73	1.22
433.937	1.46
434.144	1.35
434.35	1.25
434.557	1.01
434.764	1.12
434.97	1.03
435.177	1.23
435.384	1.15
435.59	1.26
435.797	1.44
436.003	1.55
436.21	1.47
436.416	1.64
436.623	1.65
436.829	1.48
437.036	1.52
437.242	1.53
437.449	1.32
437.655	1.29
437.862	1.38
438.068	1.2
438.275	1.27
438.481	1.56
438.687	1.63
438.894	1.47
439.1	1.55
439.307	1.65
439.513	1.45
439.719	1.38
439.926	1.57
440.132	1.5
440.338	1.34
440.544	1.52
440.751	1.44
440.957	1.39
441.163	1.35
441.369	1.41
441.575	1.15
441.782	1.15
441.988	0.95
442.194	1.02
442.4	1.03
442.606	1.37
442.812	1.47
443.018	1.66
443.224	1.66
443.431	1.74
443.637	1.4
443.843	1.34
444.049	1.36
444.255	1.27
444.461	1.27
444.667	1.31
444.873	1.52
445.079	1.48
445.284	1.64
445.49	1.37
445.696	1.3
445.902	1.07
446.108	0.99
446.314	0.85
446.52	0.92
446.726	1.12
446.931	1.22
447.137	1.3
447.343	1.36
447.549	1.34
447.755	1.25
447.96	1.26
448.166	1.07
448.372	0.98
448.578	1.04
448.783	1.03
448.989	1.11
449.195	1.41
449.4	1.46
449.606	1.44
449.812	1.34
450.017	1.24
450.223	1.06
450.428	1.01
450.634	1.13
450.84	1.34
451.045	1.29
451.251	1.24
451.456	1.52
451.662	1.51
451.867	1.51
452.073	1.54
452.278	1.68
452.483	1.68
452.689	1.62
452.894	1.58
453.1	1.58
453.305	1.5
453.51	1.35
453.716	1.24
453.921	1.22
454.127	1.16
454.332	1.09
454.537	1.03
454.742	1.12
454.948	1.08
455.153	1.15
455.358	1.32
455.563	1.46
455.769	1.58
455.974	1.65
456.179	1.58
456.384	1.46
456.589	1.42
456.795	1.21
457	1.13
457.205	1.37
457.41	1.35
457.615	1.34
457.82	1.41
458.025	1.43
458.23	1.2
458.435	1.25
458.64	1.14
458.845	1.28
459.05	1.29
459.255	1.33
459.46	1.31
459.665	1.37
459.87	1.32
460.075	1.29
460.28	1.38
460.485	1.45
460.69	1.46
460.895	1.32
461.099	1.23
461.304	1.27
461.509	1.3
461.714	1.19
461.919	1.31
462.123	1.32
462.328	1.37
462.533	1.29
462.738	1.49
462.942	1.45
463.147	1.55
463.352	1.5
