Data from Ofra_1a_PS_4HS15_Reflection_1.txt Node
Date: Tue Jul 20 10:57:12 EDT 2021
User: Adam
Spectrometer: FLMT01687
Trigger mode: 0
Integration Time (sec): 1.004000E0
Scans to average: 2
Electric dark correction enabled: true
Nonlinearity correction enabled: false
Boxcar width: 2
XAxis mode: Wavelengths
Number of Pixels in Spectrum: 3648
>>>>>Begin Spectral Data<<<<<
179.494	-370.05
179.716	-494.66
179.937	1038.46
180.158	-1671.97
180.38	276.13
180.601	86.02
180.823	48.16
181.044	-66.62
181.265	-249.88
181.486	263
181.708	60.81
181.929	-27.27
182.15	-211.14
182.372	560.1
182.593	166.3
182.814	-78.95
183.035	24.71
183.257	51.78
183.478	0.97
183.699	-35.21
183.92	-73.87
184.141	-79.04
184.363	-62
184.584	-68.17
184.805	-41.7
185.026	3.38
185.247	-12.9
185.468	-30.2
185.689	-22.54
185.91	-33.76
186.132	-50.34
186.353	-33.42
186.574	-39.88
186.795	-38.87
187.016	-10.91
187.237	-4.73
187.458	-22.89
187.679	1.34
187.9	19.21
188.121	27.29
188.342	56.47
188.563	91.9
188.784	75.25
189.005	47.55
189.226	34.23
189.447	16.77
189.667	-15.35
189.888	-37.09
190.109	-37.07
190.33	-28.88
190.551	-29.89
190.772	5.76
190.993	-0.85
191.214	-1.33
191.434	-33.02
191.655	-18.94
191.876	-29.8
192.097	14.63
192.318	44.36
192.538	24.07
192.759	19.59
192.98	36.81
193.201	25.6
193.421	11.39
193.642	35.2
193.863	32.2
194.083	22.17
194.304	30.06
194.525	8.16
194.745	-8.76
194.966	-6.49
195.187	-5.25
195.407	-17.1
195.628	2.01
195.848	0.45
196.069	-10.69
196.29	-3.63
196.51	-11.34
196.731	-10.96
196.951	9.71
197.172	20.99
197.392	-2.51
197.613	30.17
197.833	23.69
198.054	-9.05
198.274	-17.15
198.495	-13.45
198.715	-45.02
198.936	-23.38
199.156	-9.13
199.377	-9.32
199.597	8.8
199.817	-4.7
200.038	-33.63
200.258	3.99
200.479	22.36
200.699	28.18
200.919	21.22
201.14	6.93
201.36	-12.79
201.58	-54.05
201.801	-92.69
202.021	-83.23
202.241	-59.97
202.461	-53.38
202.682	-27.39
202.902	-0.37
203.122	9.67
203.342	13.54
203.563	12.8
203.783	13.95
204.003	-3.9
204.223	5.15
204.443	22.3
204.663	28.55
204.884	36.29
205.104	38.63
205.324	58.94
205.544	-20.59
205.764	3.27
205.984	-10.99
206.204	-6.71
206.424	-46.98
206.644	-28.01
206.864	-73.48
207.084	-27.04
207.304	-35.05
207.525	-36.03
207.745	-15.86
207.964	-14.23
208.184	-16.2
208.404	-9.9
208.624	23.95
208.844	19.97
209.064	28.95
209.284	17.66
209.504	12.03
209.724	-15.8
209.944	-31.13
210.164	-31.91
210.384	-34.77
210.604	-64.73
210.823	-49.11
211.043	-10.77
211.263	-56.13
211.483	-50.43
211.703	-41.36
211.922	-76.56
212.142	-59.01
212.362	-15.87
212.582	-13.37
212.801	6.34
213.021	11.12
213.241	-24.21
213.461	-27.74
213.68	3.29
213.9	-8.08
214.12	-12.77
214.339	4.51
214.559	0.46
214.779	-38.54
214.998	-30.18
215.218	-12.31
215.438	-7.17
215.657	-13.09
215.877	-6.94
216.096	13.82
216.316	17.7
216.535	7.32
216.755	18.71
216.974	20.4
217.194	-0.18
217.413	-1.68
217.633	-20.38
217.852	-23.04
218.072	-9.93
218.291	-26.88
218.511	-44.18
218.73	-30.5
218.95	-60.2
219.169	-79.31
219.389	-23.43
219.608	-18.26
219.827	-12.5
220.047	3.44
220.266	-27.85
220.485	-63.71
220.705	-49.16
220.924	-49.28
221.143	-17.3
221.363	13.4
221.582	17.86
221.801	23.18
222.021	19.29
222.24	21.83
222.459	37.55
222.678	40.4
222.897	39.22
223.117	53.66
223.336	65.85
223.555	63.9
223.774	65.2
223.993	76.41
224.213	72.5
224.432	20.57
224.651	23.96
224.87	29.93
225.089	10.85
225.308	1.13
225.527	9.09
225.746	-17.58
225.965	-27.14
226.184	-36.44
226.404	-53.72
226.623	-39.04
226.842	-17.5
227.061	-14.39
227.28	7.13
227.499	24.41
227.718	20.36
227.936	10.72
228.155	12.73
228.374	12.52
228.593	10.01
228.812	4.33
229.031	13.45
229.25	-2.88
229.469	-15.39
229.688	-19.29
229.907	1.2
230.125	-14.98
230.344	-4.75
230.563	5.87
230.782	17.56
231.001	2.79
231.22	15.98
231.438	21.06
231.657	15.68
231.876	0.19
232.095	13.86
232.313	0.05
232.532	-4.19
232.751	-11.49
232.969	3.95
233.188	-10.41
233.407	16.62
233.625	22.98
233.844	17.18
234.063	0.88
234.281	-4.24
234.5	-11.34
234.719	-13.6
234.937	-22.3
235.156	-14.04
235.374	-2.53
235.593	-6.12
235.811	-1.36
236.03	12.48
236.249	20.81
236.467	27.34
236.686	27.81
236.904	17.88
237.123	1.96
237.341	-13.39
237.559	-45.39
237.778	-32.74
237.996	-52.68
238.215	-89.56
238.433	-118.23
238.652	-32.8
238.87	-50.2
239.088	-29.65
239.307	0.86
239.525	3.25
239.743	-12.96
239.962	-21.77
240.18	-25.7
240.398	-36.54
240.617	-43.02
240.835	-42.73
241.053	-1.59
241.271	6.63
241.49	17.4
241.708	6.08
241.926	11.05
242.144	11.62
242.363	-3.22
242.581	-39.12
242.799	-9.76
243.017	-20.71
243.235	-17.99
243.453	-32.52
243.672	-14.86
243.89	-11.39
244.108	16.28
244.326	17.71
244.544	35.55
244.762	22.69
244.98	17.63
245.198	7.1
245.416	0.2
245.634	-3.73
245.852	-11.03
246.07	7.12
246.288	-2.1
246.506	-8.29
246.724	-10.88
246.942	8.99
247.16	17.13
247.378	17.33
247.596	35.01
247.814	22.15
248.032	9.2
248.25	2.62
248.468	25.15
248.685	21.77
248.903	26.85
249.121	27.27
249.339	20.2
249.557	22.87
249.775	29.97
249.992	18
250.21	19.28
250.428	24.14
250.646	16.49
250.863	-1.65
251.081	11.83
251.299	10.17
251.517	8.27
251.734	12.78
251.952	18.13
252.17	18.99
252.387	13.37
252.605	17.6
252.823	0.59
253.04	28.51
253.258	20.51
253.475	18.16
253.693	10.89
253.911	8.38
254.128	-2.1
254.346	3.96
254.563	6.71
254.781	-5.68
254.998	-6.6
255.216	-24.67
255.433	-44.31
255.651	-25.75
255.868	-17.91
256.086	-7.87
256.303	-7.27
256.521	-0.97
256.738	-27.4
256.956	-22.47
257.173	-36.16
257.39	-30.26
257.608	-27.46
257.825	-6.98
258.043	2.67
258.26	10.73
258.477	13.13
258.695	19.64
258.912	2.05
259.129	-8.92
259.346	-10.68
259.564	-33.25
259.781	-55.95
259.998	-5.66
260.216	8.02
260.433	3.9
260.65	16.6
260.867	24.13
261.084	6.06
261.302	-2.03
261.519	28.3
261.736	29.41
261.953	26.86
262.17	45.61
262.387	45.99
262.604	29.57
262.822	28.8
263.039	23.83
263.256	14.97
263.473	5.03
263.69	1.24
263.907	-6
264.124	8.36
264.341	14.12
264.558	12.6
264.775	22.62
264.992	30.62
265.209	2.53
265.426	-1.03
265.643	-3.91
265.86	8.18
266.077	-24.99
266.294	6.66
266.51	15.62
266.727	25.53
266.944	28.58
267.161	33.19
267.378	26.34
267.595	4.18
267.812	-6.45
268.028	-31.61
268.245	-27.06
268.462	-17.63
268.679	7.77
268.896	19.27
269.112	8.49
269.329	-14.72
269.546	-1.6
269.763	-22.36
269.979	-20.72
270.196	-2.21
270.413	-5.57
270.629	-23.12
270.846	-19.02
271.063	-24.02
271.279	-31.48
271.496	-21.21
271.712	-1.42
271.929	6.23
272.146	11.38
272.362	25.3
272.579	27.38
272.795	23.64
273.012	41.81
273.228	44.47
273.445	26.24
273.661	21.45
273.878	12.14
274.094	0.46
274.311	-12.74
274.527	-19.88
274.744	-2.71
274.96	6.02
275.177	1.87
275.393	17.85
275.609	26.32
275.826	16.61
276.042	0.18
276.259	3.59
276.475	-1.13
276.691	-9.03
276.908	-10.63
277.124	-1.99
277.34	-16.54
277.557	-52.99
277.773	-63.9
277.989	-50.49
278.205	-44.83
278.422	-24.41
278.638	-1.69
278.854	3.68
279.07	22.9
279.286	21.4
279.503	14.22
279.719	14.3
279.935	8.55
280.151	-9.8
280.367	-0.95
280.583	2.89
280.799	-2.08
281.016	-23.64
281.232	-8.55
281.448	-6.9
281.664	2.36
281.88	9.42
282.096	14.21
282.312	9.71
282.528	10.17
282.744	1.49
282.96	-10.76
283.176	-10.22
283.392	-5.37
283.608	-0.54
283.824	-29.87
284.04	-55.99
284.256	-31.72
284.471	-22.42
284.687	-26.9
284.903	-19.88
285.119	2.06
285.335	13.07
285.551	2.56
285.767	-9.08
285.982	-7.87
286.198	-37.67
286.414	-62.85
286.63	-49.69
286.846	-16.18
287.061	-8
287.277	-0.44
287.493	-8.08
287.709	-24.56
287.924	-25.25
288.14	-12.5
288.356	6.37
288.571	-12.3
288.787	-16.65
289.003	-12.22
289.218	-41.32
289.434	-57.11
289.65	-7.64
289.865	-1.85
290.081	2.91
290.296	25.73
290.512	17.9
290.727	2.56
290.943	19.86
291.159	22.83
291.374	-0.27
291.59	19.55
291.805	9.58
292.021	-3.04
292.236	-13.47
292.451	-2.95
292.667	-13.69
292.882	6.34
293.098	-1.84
293.313	-3.93
293.529	8.19
293.744	-2.16
293.959	-2.68
294.175	-8.59
294.39	-31.41
294.605	-22.03
294.821	-16.95
295.036	-24.54
295.251	-6.11
295.467	9.18
295.682	11.48
295.897	30.56
296.112	30.62
296.328	16.75
296.543	5.45
296.758	-5.85
296.973	-40.98
297.188	-38.17
297.404	-80.82
297.619	-85.75
297.834	-120.02
298.049	-69.26
298.264	-69.23
298.479	-43.97
298.694	-1.46
298.909	8.17
299.125	11.16
299.34	27.84
299.555	32.59
299.77	47.57
299.985	41.45
300.2	36.26
300.415	26.95
300.63	25.23
300.845	6.5
301.06	-3.48
301.275	1.54
301.49	-10.01
301.704	-15.26
301.919	-36.56
302.134	-26.01
302.349	-29.14
302.564	-23.11
302.779	-35.59
302.994	-2.05
303.209	1.59
303.423	-5.22
303.638	-3.77
303.853	7.57
304.068	-21.3
304.283	-16.54
304.497	-9.66
304.712	3.19
304.927	3.37
305.142	17.39
305.356	16.28
305.571	15.67
305.786	2.61
306	3.13
306.215	-15.96
306.43	-24.72
306.644	-27.57
306.859	-28.81
307.074	-9.25
307.288	-0.87
307.503	8.56
307.717	-4.99
307.932	-0.09
308.147	-13.41
308.361	-15.53
308.576	-33.02
308.79	-24.43
309.005	-46.93
309.219	-28.37
309.434	-24.85
309.648	-16.34
309.863	-3.21
310.077	1.87
310.292	4.29
310.506	-9.29
310.72	-21.25
310.935	-10.67
311.149	-3.96
311.364	-18.02
311.578	2.61
311.792	19.16
312.007	16.72
312.221	-11.22
312.435	-2.84
312.649	-7.82
312.864	-18.93
313.078	-14.35
313.292	-5.13
313.507	0.81
313.721	-0.11
313.935	17.48
314.149	4.14
314.363	10.2
314.578	-4.11
314.792	-27.94
315.006	-49.34
315.22	-27.91
315.434	-24.39
315.648	-27.65
315.862	-16.57
316.077	-16.21
316.291	-14.74
316.505	-43.04
316.719	-19.35
316.933	-9.82
317.147	-0.8
317.361	-11.94
317.575	-0.44
317.789	3.37
318.003	-7.92
318.217	5.78
318.431	12.07
318.645	15.03
318.859	6.51
319.073	21.91
319.287	9.91
319.5	6.26
319.714	4.39
319.928	2.35
320.142	-1.42
320.356	-0.69
320.57	-18.78
320.784	-10.46
320.997	-11.76
321.211	-6.76
321.425	-7.77
321.639	16.68
321.853	21.36
322.066	3.89
322.28	-3.28
322.494	11.52
322.707	10.84
322.921	-0.73
323.135	14.05
323.349	3.16
323.562	-5.71
323.776	0.04
323.989	20.17
324.203	10.65
324.417	19.75
324.63	4.62
324.844	-8.27
325.057	-40.85
325.271	-40.22
325.485	-40.64
325.698	-23.97
325.912	-9.8
326.125	-8.46
326.339	10.89
326.552	18.47
326.766	26.94
326.979	34.85
327.193	33.92
327.406	8.93
327.619	-3.42
327.833	-1.28
328.046	-2.29
328.26	-10.37
328.473	12.82
328.686	25.29
328.9	28
329.113	19.64
329.326	24.31
329.54	24.72
329.753	20.03
329.966	14.14
330.179	18.37
330.393	16.84
330.606	2.38
330.819	-8.32
331.032	-21.98
331.246	-11.52
331.459	7.29
331.672	14.18
331.885	13.96
332.098	38.73
332.311	16.15
332.525	13.22
332.738	9.97
332.951	11.63
333.164	10.53
333.377	23.95
333.59	14.96
333.803	19.02
334.016	21.46
334.229	27.61
334.442	14.67
334.655	34.22
334.868	27.4
335.081	18.58
335.294	6.78
335.507	28.22
335.72	8.08
335.933	11.65
336.146	17.15
336.359	30.65
336.572	28.1
336.785	18.61
336.997	18.66
337.21	19.92
337.423	-17.55
337.636	-27.27
337.849	-11.06
338.062	-4.07
338.274	-1.92
338.487	-3.59
338.7	-18.43
338.913	-6.19
339.125	-21.75
339.338	-27.63
339.551	-14.22
339.763	-7.37
339.976	-17.86
340.189	-9.09
340.402	7.57
340.614	2.32
340.827	12.58
341.039	17.58
341.252	16.95
341.465	2.36
341.677	5.98
341.89	-2.91
342.102	7.38
342.315	-1.73
342.527	-6.76
342.74	-22.82
342.952	-10.22
343.165	-19.29
343.377	-3.33
343.59	20.62
343.802	24.39
344.015	28.48
344.227	23.51
344.44	5.04
344.652	-2.96
344.864	-0.1
345.077	-3.16
345.289	0.18
345.502	24.17
345.714	17.03
345.926	27.59
346.139	10.52
346.351	28.86
346.563	22.99
346.775	41.35
346.988	32.57
347.2	21.99
347.412	17.02
347.624	7.18
347.837	2.62
348.049	4.04
348.261	6.69
348.473	-11.06
348.685	-1.93
348.897	-22.23
349.11	-15.09
349.322	-5.56
349.534	13
349.746	-2.44
349.958	-4.24
350.17	-17.01
350.382	-17.18
350.594	-22.2
350.806	9.5
351.018	21.5
351.23	21.57
351.442	19.66
351.654	15.35
351.866	3.34
352.078	12.8
352.29	16.75
352.502	19.32
352.714	12.95
352.926	6.39
353.138	20.7
353.35	2.27
353.561	3.39
353.773	6.73
353.985	15.52
354.197	5.31
354.409	15.62
354.621	-2.28
354.832	-10.43
355.044	-26.43
355.256	-41.23
355.468	-52.2
355.679	-14.19
355.891	0.54
356.103	-11.58
356.314	-15.57
356.526	-17.89
356.738	-20.14
356.949	-27.88
357.161	0.36
357.373	-7.68
357.584	4.89
357.796	6.04
358.008	14.09
358.219	11.02
358.431	15.32
358.642	3.8
358.854	9.36
359.065	-3.49
359.277	-4.87
359.488	-3.37
359.7	1.4
359.911	-11.8
360.123	2.72
360.334	-5.85
360.546	-13.84
360.757	-20.47
360.969	-17.63
361.18	-31.27
361.391	-19.73
361.603	-0.11
361.814	11.03
362.025	18.09
362.237	27.87
362.448	31.74
362.659	18.38
362.871	-0.68
363.082	-5.35
363.293	-22.33
363.504	-36.23
363.716	-28.39
363.927	10.42
364.138	-1.64
364.349	-2.44
364.56	-11
364.772	1.29
364.983	-19.66
365.194	-0.84
365.405	-3.59
365.616	14.38
365.827	-0.87
366.038	16.37
366.25	13.61
366.461	14.64
366.672	5.08
366.883	11.41
367.094	5.38
367.305	0.51
367.516	13.95
367.727	14.64
367.938	17.44
368.149	11.65
368.36	0.53
368.571	-29.58
368.781	-53.05
368.992	-60.97
369.203	-42.66
369.414	-27.54
369.625	-18.85
369.836	15.99
370.047	17.22
370.258	13.77
370.468	5.83
370.679	7.83
370.89	-4.42
371.101	11.5
371.312	3.4
371.522	2.92
371.733	3.1
371.944	-3.87
372.155	0.67
372.365	6.39
372.576	5.4
372.787	11.29
372.997	9.62
373.208	5.48
373.419	2.93
373.629	0.03
373.84	-2.19
374.05	-5.64
374.261	-28.18
374.472	-14.27
374.682	-2.69
374.893	-10.84
375.103	0.49
375.314	13.44
375.524	12.01
375.735	15.18
375.945	18.26
376.156	24.62
376.366	30.97
376.577	14.85
376.787	15.23
376.997	19.51
377.208	7.4
377.418	3.89
377.629	9.51
377.839	4.11
378.049	0.68
378.26	-2.77
378.47	1.39
378.68	-3.64
378.89	-5.39
379.101	-4.6
379.311	5.68
379.521	-6.22
379.732	3.7
379.942	-4.3
380.152	-5.54
380.362	-0.93
380.572	14.61
380.783	18.31
380.993	27.73
381.203	20.2
381.413	16.37
381.623	13.08
381.833	4.54
382.043	0.23
382.253	14.12
382.463	22.72
382.674	15.59
382.884	25.04
383.094	27.8
383.304	29.19
383.514	19.8
383.724	23.05
383.934	15.02
384.144	17.09
384.353	13.51
384.563	14.34
384.773	11.1
384.983	5.49
385.193	-2.45
385.403	-8.46
385.613	-3.32
385.823	-6.18
386.033	-2.33
386.242	-2.91
386.452	-1.79
386.662	-4.04
386.872	-0.88
387.082	-3.23
387.291	1.14
387.501	4.13
387.711	5.46
387.921	8.23
388.13	13.63
388.34	8.25
388.55	5.01
388.759	-0.77
388.969	-3.99
389.179	-0.65
389.388	4.37
389.598	4.35
389.807	0.39
390.017	0.1
390.227	-4.45
390.436	-5.48
390.646	-2.82
390.855	0.33
391.065	3.84
391.274	3.54
391.484	3.67
391.693	2.34
391.903	4.88
392.112	3.97
392.322	5.64
392.531	6.1
392.74	6.51
392.95	4.17
393.159	1.73
393.369	1.15
393.578	1.18
393.787	2.07
393.997	3.44
394.206	5.05
394.415	6.33
394.625	6.41
394.834	4.07
395.043	4.27
395.252	6.14
395.462	5.9
395.671	5.56
395.88	7.64
396.089	7.49
396.298	6.75
396.508	6.66
396.717	7.47
396.926	6.22
397.135	6.04
397.344	5.53
397.553	6
397.762	6.4
397.971	6.96
398.181	7.12
398.39	7.07
398.599	7.05
398.808	6.78
399.017	7.52
399.226	7.97
399.435	8
399.644	8.14
399.853	7.46
400.062	7.33
400.27	6.57
400.479	6.98
400.688	6.7
400.897	7.15
401.106	7.13
401.315	7.38
401.524	7.3
401.733	7.41
401.941	7.67
402.15	7.24
402.359	7.38
402.568	7.58
402.777	7.72
402.985	7.31
403.194	7.47
403.403	7.58
403.612	7.17
403.82	6.78
404.029	7.04
404.238	7.12
404.446	7.26
404.655	7.47
404.864	7.53
405.072	7.35
405.281	7.21
405.489	6.95
405.698	6.97
405.906	7.08
406.115	7.2
406.324	7.48
406.532	7.67
406.741	7.71
406.949	7.61
407.158	7.59
407.366	7.38
407.574	7.31
407.783	7.2
407.991	7.27
408.2	7.44
408.408	7.51
408.617	7.46
408.825	7.29
409.033	7.19
409.242	7.03
409.45	6.86
409.658	6.66
409.867	6.73
410.075	6.76
410.283	6.7
410.491	6.69
410.7	6.72
410.908	6.75
411.116	6.84
411.324	6.8
411.533	6.7
411.741	6.74
411.949	6.7
412.157	6.57
412.365	6.64
412.573	6.79
412.781	6.71
412.99	6.71
413.198	6.78
413.406	6.73
413.614	6.82
413.822	6.98
414.03	6.98
414.238	7.01
414.446	7.05
414.654	6.77
414.862	6.64
415.07	6.5
415.278	6.34
415.486	6.02
415.694	6.1
415.902	6.01
416.109	6.01
416.317	6.09
416.525	6.22
416.733	6.11
416.941	6.1
417.149	6.05
417.357	6.04
417.564	5.99
417.772	6.15
417.98	6.16
418.188	6.17
418.395	5.91
418.603	5.99
418.811	5.9
419.019	5.87
419.226	5.88
419.434	6.04
419.642	5.8
419.849	5.71
420.057	5.81
420.265	5.82
420.472	5.75
420.68	5.89
420.887	5.91
421.095	5.87
421.302	5.9
421.51	5.85
421.717	5.81
421.925	5.9
422.132	5.9
422.34	5.76
422.547	5.66
422.755	5.67
422.962	5.49
423.17	5.19
423.377	5.4
423.585	5.76
423.792	5.8
423.999	6
424.207	6.08
424.414	5.96
424.621	5.7
424.829	5.78
425.036	5.65
425.243	5.78
425.451	5.74
425.658	5.74
425.865	5.64
426.072	5.59
426.28	5.69
426.487	5.73
426.694	5.65
426.901	5.61
427.108	5.69
427.315	5.73
427.523	5.69
427.73	5.83
427.937	5.81
428.144	5.73
428.351	5.61
428.558	5.78
428.765	5.82
428.972	5.93
429.179	5.98
429.386	5.97
429.593	5.81
429.8	5.75
430.007	5.87
430.214	5.87
430.421	6.05
430.628	5.98
430.835	5.99
431.042	5.84
431.249	5.79
431.456	5.65
431.662	5.97
431.869	6.15
432.076	6.3
432.283	6.52
432.49	6.5
432.697	6.47
432.903	6.29
433.11	6.33
433.317	6.21
433.524	6.26
433.73	6.04
433.937	6.21
434.144	5.99
434.35	6.13
434.557	6.16
434.764	6.44
434.97	6.28
435.177	6.62
435.384	6.56
435.59	6.61
435.797	6.54
436.003	6.62
436.21	6.46
436.416	6.45
436.623	6.46
436.829	6.54
437.036	6.54
437.242	6.66
437.449	6.63
437.655	6.67
437.862	6.59
438.068	6.67
438.275	6.75
438.481	6.98
438.687	7
438.894	7.13
439.1	7.15
439.307	7.14
439.513	7.11
439.719	7.16
439.926	7.23
440.132	7.28
440.338	7.12
440.544	7.17
440.751	7.17
440.957	7.11
441.163	6.98
441.369	7.12
441.575	7.02
441.782	7.01
441.988	7.04
442.194	7.1
442.4	7.13
442.606	7.28
442.812	7.3
443.018	7.27
443.224	7.46
443.431	7.43
443.637	7.33
443.843	7.4
444.049	7.53
444.255	7.5
444.461	7.49
444.667	7.48
444.873	7.39
445.079	7.27
445.284	7.23
445.49	7.31
445.696	7.38
445.902	7.4
446.108	7.46
446.314	7.44
446.52	7.55
446.726	7.6
446.931	7.66
447.137	7.7
447.343	7.89
447.549	7.9
447.755	7.84
447.96	7.94
448.166	7.98
448.372	7.88
448.578	7.72
448.783	7.83
448.989	7.81
449.195	7.82
449.4	7.95
449.606	8.04
449.812	7.92
450.017	7.94
450.223	7.98
450.428	7.96
450.634	7.95
450.84	8.01
451.045	8.08
451.251	8.13
451.456	8.02
451.662	8.08
451.867	8.24
452.073	8.18
452.278	8.15
452.483	8.32
452.689	8.35
452.894	8.36
453.1	8.35
453.305	8.38
453.51	8.26
453.716	8.2
453.921	8.16
454.127	8.22
454.332	8.2
454.537	8.25
454.742	8.36
454.948	8.4
455.153	8.4
455.358	8.38
455.563	8.45
455.769	8.51
455.974	8.48
456.179	8.48
456.384	8.54
456.589	8.52
456.795	8.46
457	8.4
457.205	8.37
457.41	8.44
457.615	8.38
457.82	8.48
458.025	8.63
458.23	8.77
458.435	8.83
458.64	9.01
458.845	9.07
459.05	9.1
459.255	9.09
459.46	9.01
459.665	8.98
459.87	8.87
460.075	8.96
460.28	9
460.485	9.16
460.69	9.23
460.895	9.36
461.099	9.24
461.304	9.26
461.509	9.19
461.714	9.23
461.919	9.19
462.123	9.26
462.328	9.18
462.533	9.13
462.738	9.01
462.942	8.95
463.147	8.94
463.352	9.07
463.556	9.22
463.761	9.25
463.966	9.25
464.17	9.41
464.375	9.46
464.58	9.34
464.784	9.34
464.989	9.44
465.193	9.37
465.398	9.35
465.602	9.56
465.807	9.65
466.011	9.61
466.216	9.54
466.42	9.5
466.625	9.47
