Data from Ofra_PS_T2_2A_2GT10_Reflection_3.txt Node
Date: Wed Jul 21 17:01:50 EDT 2021
User: Adam
Spectrometer: FLMT01687
Trigger mode: 0
Integration Time (sec): 1.100000E0
Scans to average: 2
Electric dark correction enabled: true
Nonlinearity correction enabled: false
Boxcar width: 2
XAxis mode: Wavelengths
Number of Pixels in Spectrum: 3648
>>>>>Begin Spectral Data<<<<<
179.494	612.8
179.716	675.06
179.937	627.02
180.158	597.5
180.38	998.75
180.601	385.64
180.823	118.67
181.044	-6.16
181.265	52.21
181.486	-7.51
181.708	76.67
181.929	420.41
182.15	-294.37
182.372	19.59
182.593	-2.79
182.814	58.52
183.035	66.43
183.257	38.9
183.478	-14.47
183.699	-22.66
183.92	-42.96
184.141	-6.86
184.363	-18.6
184.584	2.43
184.805	28.75
185.026	29.43
185.247	18.65
185.468	-4.35
185.689	15.62
185.91	1.32
186.132	13.6
186.353	20.11
186.574	67.2
186.795	55.69
187.016	25.79
187.237	12.43
187.458	0.95
187.679	3.31
187.9	-21
188.121	-13.81
188.342	-18.51
188.563	29.21
188.784	14.01
189.005	39.21
189.226	94.77
189.447	89.78
189.667	-59.22
189.888	-138.42
190.109	-1023.38
190.33	-641.94
190.551	-1087.61
190.772	-203.15
190.993	-184.49
191.214	-92.14
191.434	-52.9
191.655	17.79
191.876	-48.31
192.097	-67.48
192.318	-160.25
192.538	-230.21
192.759	-179.94
192.98	-64.19
193.201	-38.19
193.421	1.74
193.642	9.62
193.863	18.87
194.083	-0.72
194.304	-4.79
194.525	-6.44
194.745	-21.02
194.966	-39.58
195.187	-48.45
195.407	-49.94
195.628	-107.53
195.848	-86.55
196.069	-44.6
196.29	-9.52
196.51	-47.94
196.731	-20.34
196.951	-33.13
197.172	-77.26
197.392	-93.79
197.613	-55.42
197.833	-105.13
198.054	-98.81
198.274	-54.75
198.495	-54.11
198.715	-36.56
198.936	-33.27
199.156	-23.13
199.377	-99.62
199.597	-110.18
199.817	-150.06
200.038	-89.73
200.258	-154.44
200.479	-95.98
200.699	-125.44
200.919	-16.49
201.14	-66.05
201.36	-67.55
201.58	1.46
201.801	25.58
202.021	-6.58
202.241	11.5
202.461	9.32
202.682	-71.6
202.902	-123.54
203.122	-57.01
203.342	-53.71
203.563	-15.34
203.783	4.59
204.003	-14.72
204.223	-41.15
204.443	3.78
204.663	-33.8
204.884	-22.64
205.104	31.11
205.324	58.21
205.544	58.39
205.764	89.28
205.984	93.81
206.204	70.22
206.424	54.3
206.644	25.78
206.864	22.54
207.084	-34.57
207.304	-20.37
207.525	-105.63
207.745	-1.5
207.964	5.32
208.184	-30.77
208.404	-73.74
208.624	-89.88
208.844	-105.74
209.064	-451.84
209.284	-375.91
209.504	-171.48
209.724	-21.02
209.944	-16.24
210.164	26.52
210.384	10.05
210.604	-3.81
210.823	-37.02
211.043	-36.15
211.263	-24.62
211.483	-6.21
211.703	-55.86
211.922	-56.55
212.142	-7.6
212.362	-21.61
212.582	-29.05
212.801	-18.93
213.021	-19.6
213.241	-30.34
213.461	-54.19
213.68	-71.48
213.9	-30.81
214.12	-11.75
214.339	-58.63
214.559	-21.81
214.779	13.86
214.998	6.13
215.218	-43.56
215.438	-13.96
215.657	-32.62
215.877	-46.6
216.096	-25.06
216.316	-2.52
216.535	-2.97
216.755	11.9
216.974	-29.9
217.194	-56.66
217.413	-103.87
217.633	-111.4
217.852	-226.68
218.072	-93.74
218.291	-51.55
218.511	22.24
218.73	-6.09
218.95	-12.04
219.169	-24.84
219.389	-68.41
219.608	-70.42
219.827	-61.93
220.047	-44.5
220.266	-21.7
220.485	-0.13
220.705	7.08
220.924	-7.29
221.143	20.39
221.363	-7.63
221.582	1.08
221.801	6.96
222.021	16.16
222.24	-58.1
222.459	44.06
222.678	1.92
222.897	-62.5
223.117	-102.56
223.336	-36.39
223.555	-39.35
223.774	31.83
223.993	53.77
224.213	98.58
224.432	65.02
224.651	63.57
224.87	16.71
225.089	25.85
225.308	21.26
225.527	42.57
225.746	39.94
225.965	40.35
226.184	31.48
226.404	30.87
226.623	5.99
226.842	0.23
227.061	24.65
227.28	22.41
227.499	15.49
227.718	24.1
227.936	12.48
228.155	6.71
228.374	-6.48
228.593	-2.99
228.812	-13.01
229.031	-3.48
229.25	-54.37
229.469	-38.49
229.688	-39.88
229.907	-10.89
230.125	-10.3
230.344	25.5
230.563	27.6
230.782	38.18
231.001	-38.07
231.22	-9.25
231.438	-7.04
231.657	-4.26
231.876	-25.29
232.095	42.14
232.313	29.19
232.532	4.58
232.751	-15.39
232.969	-3.48
233.188	-119.53
233.407	-33.37
233.625	-0.15
233.844	-11.8
234.063	-22.56
234.281	7.34
234.5	-4.77
234.719	-4.29
234.937	14.23
235.156	24.86
235.374	33.18
235.593	15.86
235.811	-7.15
236.03	-29.01
236.249	-58.02
236.467	-70.99
236.686	-6.84
236.904	15.88
237.123	3.49
237.341	6.93
237.559	24.22
237.778	-1.37
237.996	-30.96
238.215	3.5
238.433	1.19
238.652	-19.15
238.87	-16.91
239.088	6.59
239.307	2.48
239.525	-12.4
239.743	-43.99
239.962	-43.62
240.18	-62.5
240.398	-87.23
240.617	-74.98
240.835	-29.09
241.053	-31.08
241.271	-7.44
241.49	-0.15
241.708	-11.4
241.926	-56.87
242.144	-37.89
242.363	-65.87
242.581	-69.97
242.799	-47.52
243.017	-16.98
243.235	-40.39
243.453	-38.17
243.672	-46.19
243.89	-43.42
244.108	-51.97
244.326	-23.99
244.544	-14.9
244.762	-11.95
244.98	-4.42
245.198	-4.91
245.416	-30.96
245.634	-30.99
245.852	-38.32
246.07	-46.97
246.288	-46.73
246.506	-76.23
246.724	-56.96
246.942	-34.76
247.16	-2.8
247.378	6.97
247.596	43.02
247.814	15.72
248.032	-12.91
248.25	-19.98
248.468	-21.6
248.685	-26.67
248.903	2.99
249.121	7.81
249.339	-16.24
249.557	-26.45
249.775	-14.38
249.992	-61.96
250.21	-68.47
250.428	-53.72
250.646	-80.07
250.863	-104.02
251.081	-63.63
251.299	-48.52
251.517	-21.56
251.734	-5.42
251.952	9.25
252.17	-0.61
252.387	10.65
252.605	-4.61
252.823	4.27
253.04	6.79
253.258	23.41
253.475	4.52
253.693	30.25
253.911	25.3
254.128	20.29
254.346	23.37
254.563	20.26
254.781	4.03
254.998	2.28
255.216	10.04
255.433	-7.75
255.651	31.41
255.868	35.66
256.086	51.73
256.303	44.02
256.521	37.9
256.738	14.37
256.956	-3.9
257.173	-35.81
257.39	-38.96
257.608	-45.17
257.825	8.26
258.043	36.32
258.26	55.98
258.477	70.41
258.695	54.88
258.912	7.92
259.129	4.72
259.346	-41.23
259.564	-70.46
259.781	-85.29
259.998	-30.85
260.216	-3.14
260.433	40.61
260.65	40.24
260.867	43.77
261.084	18.56
261.302	-11.57
261.519	-7.06
261.736	-11.32
261.953	-5.26
262.17	19.13
262.387	10.77
262.604	-37.41
262.822	-54.86
263.039	-42.22
263.256	-76.08
263.473	-43.52
263.69	-17.88
263.907	8.39
264.124	26.18
264.341	26.59
264.558	24.72
264.775	39.36
264.992	23.05
265.209	-1.46
265.426	1.83
265.643	-4.9
265.86	0.06
266.077	8.84
266.294	-6.62
266.51	-12.68
266.727	-26.27
266.944	-39.71
267.161	-30.53
267.378	-11.04
267.595	16.11
267.812	-0.77
268.028	-11.09
268.245	-0.43
268.462	-24.79
268.679	-32
268.896	28.23
269.112	22.93
269.329	14.59
269.546	7.64
269.763	10.03
269.979	-7.29
270.196	1.08
270.413	-27.91
270.629	-27.59
270.846	-43.81
271.063	-52.63
271.279	-75.43
271.496	-46.33
271.712	-8.71
271.929	0.82
272.146	-16.15
272.362	-2.36
272.579	15.06
272.795	6.17
273.012	6.57
273.228	15.25
273.445	14.91
273.661	-3.1
273.878	-30.05
274.094	-31.8
274.311	-47.31
274.527	-4.18
274.744	-0.89
274.96	-3.71
275.177	7.65
275.393	28.86
275.609	15.34
275.826	37.06
276.042	49.4
276.259	25.77
276.475	28.5
276.691	31.92
276.908	4.43
277.124	4.62
277.34	11.93
277.557	0.83
277.773	6.53
277.989	-1.12
278.205	-2.58
278.422	13.04
278.638	7.32
278.854	8.45
279.07	13.13
279.286	13.81
279.503	-13.17
279.719	-14.25
279.935	-24.33
280.151	-9.95
280.367	5.3
280.583	3.65
280.799	-2.17
281.016	-20.71
281.232	-8.65
281.448	-23.11
281.664	-0.46
281.88	-27.19
282.096	-6.28
282.312	-3.99
282.528	37.3
282.744	31.04
282.96	22.54
283.176	10.11
283.392	16.6
283.608	-6.79
283.824	-3
284.04	17.04
284.256	23.29
284.471	1.05
284.687	-1.91
284.903	9.54
285.119	20.49
285.335	6.57
285.551	27.85
285.767	14.51
285.982	-3.58
286.198	-29.14
286.414	5.73
286.63	13.21
286.846	31.85
287.061	9.01
287.277	36.83
287.493	4.81
287.709	0.05
287.924	-14.81
288.14	14.3
288.356	-6.47
288.571	27.31
288.787	15.31
289.003	13.57
289.218	-1.73
289.434	-35.94
289.65	-47.35
289.865	-50.48
290.081	-36.56
290.296	-10.88
290.512	10.22
290.727	-0.52
290.943	-11.87
291.159	-19.38
291.374	-25.08
291.59	-26.51
291.805	-20.64
292.021	-4.05
292.236	-2.01
292.451	3.63
292.667	7.13
292.882	19.81
293.098	8.51
293.313	-15.94
293.529	-29.55
293.744	-47.85
293.959	-63.37
294.175	-52.77
294.39	1.96
294.605	9.77
294.821	25.63
295.036	32.14
295.251	32.03
295.467	2.27
295.682	0.06
295.897	-42.2
296.112	-46.22
296.328	-34.05
296.543	-51.15
296.758	-54.06
296.973	-3.65
297.188	30.94
297.404	6.73
297.619	-3.86
297.834	-9.69
298.049	-43.59
298.264	-78.84
298.479	-26.58
298.694	-18.08
298.909	1.22
299.125	9.4
299.34	11.29
299.555	-12.56
299.77	6.65
299.985	-40.96
300.2	-73.3
300.415	-86.07
300.63	-33.23
300.845	-52.27
301.06	-33.03
301.275	-7.66
301.49	23.77
301.704	-2.38
301.919	-4.58
302.134	-11.06
302.349	-13.6
302.564	-88.41
302.779	-114.67
302.994	-59.56
303.209	-15.76
303.423	15.3
303.638	58.79
303.853	38.24
304.068	4.32
304.283	-9.7
304.497	-9.42
304.712	-14.87
304.927	-12.33
305.142	-6.42
305.356	2.84
305.571	-9.98
305.786	-25.04
306	-41.63
306.215	-39.42
306.43	-51.72
306.644	-36.62
306.859	-18.32
307.074	-0.91
307.288	-14.7
307.503	-31.57
307.717	-44.75
307.932	-46.24
308.147	-46.38
308.361	-38.77
308.576	-43.04
308.79	-73.94
309.005	-61.13
309.219	-42.74
309.434	-53.77
309.648	-45.55
309.863	-18.51
310.077	-11.92
310.292	-19.95
310.506	-7.89
310.72	16.63
310.935	20.29
311.149	18.69
311.364	33.7
311.578	42.93
311.792	20.6
312.007	23.45
312.221	9.97
312.435	17.23
312.649	-2.67
312.864	42.59
313.078	63.55
313.292	127.68
313.507	78
313.721	90.5
313.935	41.51
314.149	18.47
314.363	-0.73
314.578	9.93
314.792	9.36
315.006	-13.34
315.22	7.05
315.434	11.84
315.648	16.93
315.862	34.56
316.077	47.52
316.291	22.12
316.505	33.76
316.719	26.76
316.933	-18.21
317.147	-29.01
317.361	-37.38
317.575	-66.39
317.789	-113.46
318.003	-164.2
318.217	-128.18
318.431	-43.53
318.645	3.17
318.859	24.48
319.073	47
319.287	37.86
319.5	6.99
319.714	-24
319.928	-53.04
320.142	-74.98
320.356	-38.88
320.57	-16.03
320.784	-46.22
320.997	-48.58
321.211	-47.06
321.425	-101.08
321.639	-116.55
321.853	-50.91
322.066	-21.11
322.28	-19.79
322.494	-5.01
322.707	22.86
322.921	10.19
323.135	-0.89
323.349	-4.55
323.562	-7.43
323.776	-38.29
323.989	-30.49
324.203	-41.35
324.417	-25.3
324.63	-42.13
324.844	-34.96
325.057	-28.82
325.271	-7.89
325.485	1.05
325.698	19.82
325.912	40.95
326.125	4.04
326.339	-3.43
326.552	-24.75
326.766	-25.15
326.979	-22.97
327.193	22.86
327.406	10.1
327.619	10.39
327.833	14.28
328.046	-7.21
328.26	-36.28
328.473	-10.16
328.686	-24.73
328.9	-23.21
329.113	-2.54
329.326	-20.53
329.54	1.91
329.753	-5.52
329.966	-23.98
330.179	-26.02
330.393	-20.03
330.606	-13.44
330.819	7.54
331.032	26.2
331.246	35.24
331.459	54.65
331.672	44.02
331.885	33.44
332.098	6.89
332.311	-24.29
332.525	-62.21
332.738	-75.92
332.951	-38.3
333.164	-8.37
333.377	12.44
333.59	31.77
333.803	32.8
334.016	19.14
334.229	19.21
334.442	22.22
334.655	30.86
334.868	40.75
335.081	31.26
335.294	12.59
335.507	-10.1
335.72	-16.95
335.933	-24.19
336.146	-26.19
336.359	-14.34
336.572	-23.32
336.785	-41.17
336.997	-39.09
337.21	-15.35
337.423	-28.53
337.636	-22.45
337.849	-1.28
338.062	-0.5
338.274	-7.13
338.487	0.63
338.7	-9.6
338.913	-51.19
339.125	-81.24
339.338	-120.6
339.551	-133.93
339.763	-86.04
339.976	-47.08
340.189	-0.73
340.402	9.75
340.614	10.25
340.827	-1.55
341.039	-21.98
341.252	-32.35
341.465	-16.41
341.677	-14.78
341.89	-41.89
342.102	-27.56
342.315	-46.32
342.527	-74.27
342.74	-43.84
342.952	-19.01
343.165	-5.86
343.377	18.2
343.59	3.73
343.802	3.89
344.015	14.3
344.227	20.47
344.44	12.46
344.652	27.02
344.864	10.78
345.077	31.38
345.289	35.14
345.502	30.39
345.714	21.89
345.926	31.8
346.139	8.05
346.351	3.78
346.563	18.48
346.775	27.23
346.988	9.73
347.2	1.79
347.412	-40.63
347.624	-57.03
347.837	-99.1
348.049	-56.5
348.261	-18.59
348.473	-4.97
348.685	-9
348.897	1.28
349.11	-35.41
349.322	-57.8
349.534	-40.55
349.746	-26.64
349.958	-17.94
350.17	8.3
350.382	23.43
350.594	16.01
350.806	14.65
351.018	27.94
351.23	13.18
351.442	-23.97
351.654	-29.24
351.866	-29.23
352.078	-35.66
352.29	-8.62
352.502	4.32
352.714	10.55
352.926	0.32
353.138	0.17
353.35	-11.52
353.561	-15.29
353.773	-35.47
353.985	-22.4
354.197	-25
354.409	-26.4
354.621	-31.09
354.832	-5.26
355.044	-6.17
355.256	-21.62
355.468	5.81
355.679	12.18
355.891	10.04
356.103	-4.36
356.314	16.7
356.526	10.03
356.738	17.58
356.949	24.35
357.161	28.32
357.373	11.65
357.584	-6.68
357.796	-7.14
358.008	-13.11
358.219	1.4
358.431	-0.36
358.642	7.57
358.854	-1.08
359.065	-13.4
359.277	-42.22
359.488	-52.74
359.7	-76.7
359.911	-81.53
360.123	-61.57
360.334	-71.06
360.546	-72.86
360.757	-60.31
360.969	-43.49
361.18	-34.77
361.391	-15.17
361.603	-23.65
361.814	-16.83
362.025	-21.4
362.237	-29.09
362.448	-14.48
362.659	0.77
362.871	1.56
363.082	-7.51
363.293	1.46
363.504	-27.79
363.716	-48.49
363.927	-60.79
364.138	-66.59
364.349	-85.47
364.56	-51.24
364.772	-38.72
364.983	-17.9
365.194	-13.16
365.405	6.21
365.616	20.73
365.827	22.89
366.038	-0.26
366.25	-3.2
366.461	-44.86
366.672	-28.63
366.883	-3.99
367.094	4.32
367.305	-7.7
367.516	3.98
367.727	-27.33
367.938	-39.76
368.149	-29.86
368.36	-5.04
368.571	-4.76
368.781	-17.35
368.992	-38
369.203	-60.47
369.414	-101.58
369.625	-99.64
369.836	-78.8
370.047	-90.09
370.258	-62.89
370.468	-42.38
370.679	-51.6
370.89	-45.3
371.101	-17.7
371.312	-26.56
371.522	-20.64
371.733	-18.73
371.944	-10.94
372.155	-3.29
372.365	-4.23
372.576	-6.4
372.787	-9.81
372.997	-29.18
373.208	-29.82
373.419	-16.3
373.629	-41.49
373.84	-36.66
374.05	-35.05
374.261	-27.15
374.472	-22.14
374.682	14.84
374.893	17.74
375.103	43.14
375.314	29.97
375.524	24.65
375.735	15.77
375.945	26.08
376.156	-0.44
376.366	-0.08
376.577	6.2
376.787	5.62
376.997	5.83
377.208	1.77
377.418	-14.81
377.629	-18.88
377.839	-24.77
378.049	-19.6
378.26	-0.06
378.47	12.8
378.68	9.8
378.89	9.34
379.101	-3.95
379.311	-37.14
379.521	-53.42
379.732	-55.97
379.942	-47.37
380.152	-56.5
380.362	-15.68
380.572	-10.19
380.783	-6.63
380.993	1.14
381.203	16.65
381.413	9.81
381.623	2.99
381.833	15.32
382.043	5.26
382.253	-3.09
382.463	-4.4
382.674	-12.12
382.884	-29.79
383.094	-28.21
383.304	-16.72
383.514	-8.43
383.724	2.09
383.934	2.81
384.144	-5.94
384.353	-17.81
384.563	-23.74
384.773	-20.34
384.983	-30.05
385.193	-4.63
385.403	-1.05
385.613	3.97
385.823	-3.98
386.033	1.84
386.242	-8.92
386.452	-11.92
386.662	-20.49
386.872	-6.19
387.082	-8.48
387.291	-15.95
387.501	-13.26
387.711	-2.61
387.921	-9.21
388.13	-8.09
388.34	0.94
388.55	-2.23
388.759	-4.6
388.969	-0.59
389.179	-5.72
389.388	-6.76
389.598	0.26
389.807	-5.72
390.017	-14.15
390.227	-7.85
390.436	-11.43
390.646	-12.2
390.855	-8.19
391.065	-7.16
391.274	-10.88
391.484	-11.77
391.693	-11.54
391.903	-9.67
392.112	-2.94
392.322	0.44
392.531	5.36
392.74	3.59
392.95	-1.15
393.159	-3.26
393.369	-3.35
393.578	-4.75
393.787	-3.84
393.997	-2.5
394.206	-4.29
394.415	-4.24
394.625	-3.48
394.834	-4.35
395.043	-3.1
395.252	-1.02
395.462	-0.26
395.671	0.28
395.88	0.83
396.089	1.2
396.298	0.07
396.508	0.62
396.717	-0.29
396.926	-0.35
397.135	0.18
397.344	0.76
397.553	0.77
397.762	2.15
397.971	2.5
398.181	2.41
398.39	1.79
398.599	1.44
398.808	0.98
399.017	1.4
399.226	2.2
399.435	3.29
399.644	2.9
399.853	2.54
400.062	2.22
400.27	1.25
400.479	0.61
400.688	0.45
400.897	0.48
401.106	0.85
401.315	1.18
401.524	1.33
401.733	1.8
401.941	2.08
402.15	2.1
402.359	1.66
402.568	1.86
402.777	2.05
402.985	2
403.194	1.69
403.403	1.7
403.612	1.34
403.82	0.94
404.029	1.1
404.238	0.98
404.446	1.41
404.655	1.26
404.864	1.58
405.072	1.33
405.281	1.66
405.489	1.44
405.698	1.44
405.906	1.29
406.115	1.28
406.324	1.16
406.532	1.13
406.741	1.53
406.949	1.52
407.158	1.54
407.366	1.66
407.574	1.68
407.783	1.67
407.991	1.56
408.2	1.64
408.408	1.45
408.617	1.41
408.825	1.26
409.033	1.29
409.242	1.45
409.45	1.61
409.658	1.59
409.867	1.71
410.075	1.67
410.283	1.48
410.491	1.3
410.7	1.3
410.908	1.22
411.116	1.49
411.324	1.43
411.533	1.4
411.741	1.48
411.949	1.43
412.157	1.18
412.365	1.19
412.573	1.37
412.781	1.47
412.99	1.38
413.198	1.59
413.406	1.6
413.614	1.39
413.822	1.21
414.03	1.33
414.238	1.09
414.446	1.25
414.654	1.23
414.862	1.42
415.07	1.44
415.278	1.76
415.486	1.52
415.694	1.68
415.902	1.44
416.109	1.31
416.317	1.18
416.525	1.09
416.733	1.06
416.941	1.31
417.149	1.35
417.357	1.32
417.564	1.55
417.772	1.72
417.98	1.62
418.188	1.7
418.395	1.8
418.603	1.89
418.811	1.61
419.019	1.58
419.226	1.67
419.434	1.66
419.642	1.46
419.849	1.55
420.057	1.63
420.265	1.56
420.472	1.26
420.68	1.23
420.887	1.02
421.095	0.97
421.302	0.98
421.51	1.23
421.717	1.39
421.925	1.69
422.132	1.52
422.34	1.25
422.547	1.07
422.755	1.07
422.962	0.99
423.17	1.05
423.377	1.29
423.585	1.44
423.792	1.32
423.999	1.23
424.207	1.21
424.414	1.3
424.621	1.21
424.829	1.2
425.036	1.38
425.243	1.5
425.451	1.28
425.658	1.25
425.865	1.43
426.072	1.36
426.28	1.46
426.487	1.47
426.694	1.54
426.901	1.37
427.108	1.3
427.315	1.23
427.523	1.38
427.73	1.41
427.937	1.46
428.144	1.4
428.351	1.28
428.558	1.34
428.765	1.21
428.972	1.09
429.179	1.14
429.386	1.4
429.593	1.16
429.8	1.07
430.007	1.25
430.214	1.44
430.421	1.18
430.628	1.2
430.835	1.21
431.042	1.16
431.249	1.07
431.456	1.13
431.662	1.27
431.869	1.43
432.076	1.44
432.283	1.44
432.49	1.5
432.697	1.53
432.903	1.3
433.11	1.4
433.317	1.44
433.524	1.57
433.73	1.42
433.937	1.67
434.144	1.46
434.35	1.43
434.557	1.25
434.764	1.26
434.97	1.08
435.177	1.35
435.384	1.3
435.59	1.4
435.797	1.7
436.003	1.84
436.21	1.76
436.416	1.78
436.623	1.8
436.829	1.65
437.036	1.73
437.242	1.7
437.449	1.56
437.655	1.53
437.862	1.47
438.068	1.32
438.275	1.42
438.481	1.74
438.687	1.63
438.894	1.66
439.1	1.76
439.307	1.79
439.513	1.65
439.719	1.63
439.926	1.81
440.132	1.75
440.338	1.56
440.544	1.58
440.751	1.59
440.957	1.52
441.163	1.4
441.369	1.57
441.575	1.49
441.782	1.51
441.988	1.42
442.194	1.49
442.4	1.44
442.606	1.69
442.812	1.88
443.018	1.95
443.224	2.02
443.431	2.08
443.637	1.83
443.843	1.66
444.049	1.66
444.255	1.6
444.461	1.66
444.667	1.7
444.873	1.73
445.079	1.73
445.284	1.81
445.49	1.62
445.696	1.53
445.902	1.53
446.108	1.52
446.314	1.46
446.52	1.5
446.726	1.7
446.931	1.68
447.137	1.68
447.343	1.71
447.549	1.67
447.755	1.59
447.96	1.64
448.166	1.56
448.372	1.55
448.578	1.6
448.783	1.6
448.989	1.65
449.195	1.91
449.4	1.91
449.606	1.87
449.812	1.78
450.017	1.79
450.223	1.65
450.428	1.56
450.634	1.63
450.84	1.83
451.045	1.76
451.251	1.7
451.456	1.97
451.662	2.06
451.867	2.04
452.073	2.03
452.278	2.09
452.483	2.19
452.689	2.1
452.894	2.12
453.1	2.17
453.305	2.15
453.51	1.96
453.716	1.93
453.921	1.9
454.127	1.83
454.332	1.75
454.537	1.73
454.742	1.73
454.948	1.72
455.153	1.88
455.358	1.97
455.563	2.12
455.769	2.3
455.974	2.29
456.179	2.07
456.384	2.07
456.589	1.92
456.795	1.68
457	1.7
457.205	1.95
457.41	1.92
457.615	1.9
457.82	1.98
458.025	1.99
458.23	1.9
458.435	1.91
458.64	1.88
458.845	2.04
459.05	1.92
459.255	1.96
459.46	1.96
459.665	2.02
459.87	2
460.075	2.12
460.28	2.13
460.485	2.2
460.69	2.28
460.895	2.08
461.099	1.96
461.304	2.05
461.509	2.1
461.714	2.05
461.919	2.17
462.123	2.14
462.328	2.13
462.533	2.04
