Data from Ofra_2a_PS_8HS24_Reflection_2.txt Node
Date: Tue Jul 20 09:57:41 EDT 2021
User: Adam
Spectrometer: FLMT01687
Trigger mode: 0
Integration Time (sec): 9.450000E-1
Scans to average: 3
Electric dark correction enabled: true
Nonlinearity correction enabled: false
Boxcar width: 3
XAxis mode: Wavelengths
Number of Pixels in Spectrum: 3648
>>>>>Begin Spectral Data<<<<<
179.494	606.51
179.716	345.77
179.937	496.7
180.158	1681.25
180.38	-679.07
180.601	-136.8
180.823	-37.53
181.044	-52.19
181.265	-66.99
181.486	127.1
181.708	904.35
181.929	-33.02
182.15	104.55
182.372	-38.27
182.593	-45.55
182.814	313.17
183.035	226.03
183.257	138.87
183.478	139.9
183.699	151.85
183.92	108.31
184.141	118.59
184.363	101.94
184.584	86.85
184.805	93.4
185.026	106.81
185.247	49.63
185.468	49.91
185.689	44.21
185.91	43.54
186.132	46.2
186.353	6.15
186.574	9.91
186.795	17.78
187.016	12.95
187.237	11.66
187.458	10.47
187.679	7.34
187.9	35.89
188.121	47.59
188.342	64.78
188.563	84.18
188.784	87.89
189.005	82.9
189.226	75.84
189.447	78.43
189.667	72.55
189.888	65.67
190.109	56.55
190.33	45.14
190.551	41.43
190.772	24.23
190.993	31.7
191.214	34.74
191.434	31.74
191.655	32.88
191.876	33.25
192.097	38.26
192.318	49.59
192.538	50.36
192.759	55.3
192.98	59.97
193.201	67.31
193.421	71.62
193.642	66.9
193.863	70.67
194.083	53.97
194.304	24.08
194.525	28.13
194.745	11.1
194.966	9.22
195.187	15.88
195.407	11.7
195.628	17.62
195.848	38.17
196.069	39.89
196.29	32.22
196.51	30.55
196.731	47.36
196.951	57.31
197.172	57.42
197.392	39.27
197.613	30.3
197.833	46.35
198.054	41.87
198.274	26.49
198.495	37.28
198.715	24.99
198.936	26.69
199.156	31.53
199.377	20.07
199.597	33.18
199.817	27.12
200.038	31.88
200.258	48.88
200.479	50.44
200.699	45.29
200.919	24.82
201.14	22.6
201.36	27.48
201.58	33.93
201.801	21.95
202.021	18.13
202.241	11.92
202.461	29.33
202.682	41.08
202.902	48.45
203.122	42.48
203.342	52.74
203.563	64.81
203.783	71.56
204.003	75.9
204.223	63.34
204.443	58.43
204.663	55.56
204.884	53.3
205.104	47.18
205.324	57.03
205.544	56.58
205.764	57.86
205.984	62.96
206.204	60.79
206.424	59.13
206.644	56.11
206.864	46.95
207.084	51.12
207.304	39.53
207.525	21.65
207.745	42.66
207.964	37.1
208.184	30.91
208.404	26.69
208.624	17.33
208.844	19.57
209.064	37.74
209.284	32.15
209.504	23.51
209.724	14.59
209.944	11.52
210.164	13.7
210.384	37.68
210.604	26.32
210.823	14.48
211.043	15.87
211.263	29.72
211.483	35.27
211.703	36.16
211.922	27.63
212.142	30.14
212.362	33.07
212.582	37.55
212.801	34.95
213.021	26.16
213.241	19.24
213.461	5.77
213.68	8.15
213.9	6.96
214.12	8.77
214.339	9.05
214.559	23.06
214.779	30.47
214.998	35.92
215.218	36.26
215.438	38.29
215.657	30.61
215.877	30
216.096	20.41
216.316	6.13
216.535	14.61
216.755	3.55
216.974	-6.23
217.194	7.78
217.413	21.81
217.633	26.5
217.852	40.96
218.072	19.39
218.291	41.9
218.511	39.2
218.73	26.56
218.95	17.51
219.169	24.89
219.389	26.61
219.608	44.57
219.827	39.55
220.047	55.25
220.266	48.34
220.485	45.17
220.705	30.55
220.924	34.69
221.143	15.75
221.363	1.56
221.582	-4.59
221.801	7.98
222.021	17.03
222.24	15.77
222.459	4.27
222.678	16.39
222.897	12.08
223.117	28.55
223.336	20.94
223.555	6.26
223.774	20.54
223.993	35.47
224.213	26.24
224.432	44.05
224.651	28.28
224.87	43.43
225.089	54.11
225.308	54.64
225.527	47.14
225.746	55.39
225.965	51.37
226.184	43.04
226.404	21.32
226.623	20.08
226.842	10.24
227.061	15.51
227.28	21.15
227.499	19.67
227.718	25.11
227.936	25.03
228.155	18.04
228.374	27.42
228.593	19.81
228.812	22.71
229.031	21.87
229.25	26.96
229.469	38.05
229.688	45.73
229.907	32.14
230.125	43.02
230.344	38.16
230.563	42.24
230.782	32.84
231.001	30.08
231.22	32.74
231.438	39.41
231.657	33.21
231.876	31.69
232.095	31.68
232.313	44.78
232.532	45.78
232.751	41.73
232.969	51.38
233.188	57.3
233.407	54.17
233.625	47.73
233.844	41.52
234.063	38.37
234.281	33.4
234.5	26.84
234.719	18.6
234.937	31.59
235.156	36.18
235.374	39.5
235.593	39.09
235.811	49.58
236.03	51.07
236.249	63.65
236.467	50
236.686	52.79
236.904	46.42
237.123	38.61
237.341	33.34
237.559	30.69
237.778	38.71
237.996	38.99
238.215	33.2
238.433	36.89
238.652	39.89
238.87	43.52
239.088	37.68
239.307	28
239.525	16.63
239.743	9.42
239.962	6.21
240.18	4.31
240.398	3.91
240.617	15.32
240.835	15.48
241.053	26.73
241.271	37.59
241.49	30.94
241.708	31.68
241.926	19.48
242.144	19.03
242.363	13.3
242.581	12.25
242.799	15.31
243.017	22.46
243.235	31.5
243.453	46.42
243.672	50
243.89	47.25
244.108	44.08
244.326	36.61
244.544	37.01
244.762	23.43
244.98	16.35
245.198	5.2
245.416	3.95
245.634	15.58
245.852	26.67
246.07	20.57
246.288	19.31
246.506	19.73
246.724	37.94
246.942	51.76
247.16	40.15
247.378	26.81
247.596	40.03
247.814	28.69
248.032	26.28
248.25	11.56
248.468	14.29
248.685	14.45
248.903	12.59
249.121	10.5
249.339	21.38
249.557	32.09
249.775	19.76
249.992	7.98
250.21	5.68
250.428	0.97
250.646	6.63
250.863	5.55
251.081	0.87
251.299	26.51
251.517	41.85
251.734	48.84
251.952	65.2
252.17	44.81
252.387	45.12
252.605	49.29
252.823	23.74
253.04	17.5
253.258	22.72
253.475	18.88
253.693	30.02
253.911	23.13
254.128	15.61
254.346	24.63
254.563	19.89
254.781	15.75
254.998	12.17
255.216	14.67
255.433	11.39
255.651	14.65
255.868	16.42
256.086	23.02
256.303	20.34
256.521	25.34
256.738	23.43
256.956	25.12
257.173	17.41
257.39	21.56
257.608	24.19
257.825	25.29
258.043	28.41
258.26	30.5
258.477	32.13
258.695	43.04
258.912	54.53
259.129	40.37
259.346	38.49
259.564	34.93
259.781	34.52
259.998	42.25
260.216	42.54
260.433	31.72
260.65	43.29
260.867	36.42
261.084	36.81
261.302	34.66
261.519	26.13
261.736	13.38
261.953	9.85
262.17	16.03
262.387	32.74
262.604	20.3
262.822	21.72
263.039	19.61
263.256	23.08
263.473	23.08
263.69	7.6
263.907	-4.07
264.124	8.97
264.341	-1.5
264.558	6.54
264.775	12.04
264.992	7.98
265.209	24.35
265.426	29.84
265.643	27.16
265.86	37.24
266.077	44.22
266.294	42.27
266.51	42.35
266.727	30.96
266.944	23.84
267.161	21.63
267.378	11.16
267.595	-6.92
267.812	-4.56
268.028	8.47
268.245	15.76
268.462	24.15
268.679	31.3
268.896	25.67
269.112	37.7
269.329	39.6
269.546	41.44
269.763	46.42
269.979	38.59
270.196	35.54
270.413	40.33
270.629	34.63
270.846	39.52
271.063	33.36
271.279	23.32
271.496	24.54
271.712	25.33
271.929	36.69
272.146	44.94
272.362	26.53
272.579	27.18
272.795	37.36
273.012	30.5
273.228	31.83
273.445	22.27
273.661	15.08
273.878	30.06
274.094	30.95
274.311	28.72
274.527	25.01
274.744	23.55
274.96	19.64
275.177	26.49
275.393	26.59
275.609	31.84
275.826	27.58
276.042	45.56
276.259	51.57
276.475	57.64
276.691	60.1
276.908	48.92
277.124	52.18
277.34	55.78
277.557	49.62
277.773	41.22
277.989	31.6
278.205	17.17
278.422	31.3
278.638	32.83
278.854	34.86
279.07	18.35
279.286	19.8
279.503	20.25
279.719	27.41
279.935	18.47
280.151	19.97
280.367	14.49
280.583	26.77
280.799	27.57
281.016	31.6
281.232	22.84
281.448	15.69
281.664	4.46
281.88	11.48
282.096	15.21
282.312	11.63
282.528	14.57
282.744	28.48
282.96	38.99
283.176	42.58
283.392	49.19
283.608	44.24
283.824	42.25
284.04	40.1
284.256	40.04
284.471	35.51
284.687	29.75
284.903	24.17
285.119	16.3
285.335	22.87
285.551	31.05
285.767	30.6
285.982	29.16
286.198	31.41
286.414	46.37
286.63	50.53
286.846	47.93
287.061	38.53
287.277	43.79
287.493	42.48
287.709	36.09
287.924	23.07
288.14	30.77
288.356	35.66
288.571	36.42
288.787	38.39
289.003	46.84
289.218	52.86
289.434	54.37
289.65	52.56
289.865	46.49
290.081	52.11
290.296	50.24
290.512	44.6
290.727	54.95
290.943	55.03
291.159	43.95
291.374	43.17
291.59	28.05
291.805	16.21
292.021	4.81
292.236	0.12
292.451	-0.15
292.667	16.1
292.882	14.77
293.098	16.29
293.313	20.07
293.529	29.06
293.744	25.84
293.959	22.26
294.175	21.69
294.39	32.55
294.605	39.89
294.821	33.28
295.036	33.34
295.251	34.36
295.467	38.18
295.682	31.65
295.897	20.56
296.112	10.11
296.328	13.42
296.543	10.11
296.758	9.55
296.973	8.51
297.188	3.75
297.404	9.19
297.619	16.82
297.834	27.22
298.049	21.89
298.264	23.73
298.479	12.95
298.694	26.23
298.909	27.67
299.125	27.29
299.34	20.11
299.555	29.05
299.77	25.6
299.985	31.18
300.2	26.39
300.415	23.44
300.63	13.61
300.845	15.71
301.06	8.18
301.275	15.92
301.49	23.78
301.704	18.94
301.919	13.11
302.134	18.93
302.349	12.28
302.564	8.78
302.779	4.1
302.994	-0.73
303.209	4.71
303.423	21.65
303.638	28.41
303.853	35.24
304.068	50.05
304.283	46.1
304.497	50.24
304.712	46.09
304.927	39.14
305.142	37.47
305.356	38.75
305.571	37.73
305.786	38.62
306	35.18
306.215	33.34
306.43	38.2
306.644	39.29
306.859	43.67
307.074	36.46
307.288	33.2
307.503	25.95
307.717	23.39
307.932	22.52
308.147	24.23
308.361	19.89
308.576	28.23
308.79	30.63
309.005	29.79
309.219	33.57
309.434	29.41
309.648	21.61
309.863	26.41
310.077	15.1
310.292	9.63
310.506	29.76
310.72	33.65
310.935	36.74
311.149	34.58
311.364	34.49
311.578	35.88
311.792	34.4
312.007	22.51
312.221	16.7
312.435	14.31
312.649	30.43
312.864	15.68
313.078	25.83
313.292	35.26
313.507	35.74
313.721	47.67
313.935	60.12
314.149	40.89
314.363	48.88
314.578	65.08
314.792	63.2
315.006	62.28
315.22	61.65
315.434	51.67
315.648	49.01
315.862	44.63
316.077	27.03
316.291	34.38
316.505	38.35
316.719	23.66
316.933	28.37
317.147	30.48
317.361	35.5
317.575	41.7
317.789	32.45
318.003	32.93
318.217	39.61
318.431	38.42
318.645	39.72
318.859	27.25
319.073	17.38
319.287	19.49
319.5	13.79
319.714	15.22
319.928	18.67
320.142	19.72
320.356	37.13
320.57	40.52
320.784	40.06
320.997	52.66
321.211	56.5
321.425	44.84
321.639	43.85
321.853	33.82
322.066	32.85
322.28	34.42
322.494	31.76
322.707	23.14
322.921	31.32
323.135	25.03
323.349	26.41
323.562	31.97
323.776	33.3
323.989	24.03
324.203	27.08
324.417	19.39
324.63	19.43
324.844	15.91
325.057	19.5
325.271	7.93
325.485	18.95
325.698	19.98
325.912	29.77
326.125	38.29
326.339	43.43
326.552	41.74
326.766	50.47
326.979	46.8
327.193	53.9
327.406	52.34
327.619	39.57
327.833	37.83
328.046	16.95
328.26	9.21
328.473	13.36
328.686	4.24
328.9	-7.7
329.113	-4.42
329.326	1.8
329.54	13
329.753	17.5
329.966	18.91
330.179	25.22
330.393	37.34
330.606	41.45
330.819	47.45
331.032	49.22
331.246	48.78
331.459	48.81
331.672	47.44
331.885	37.78
332.098	39.55
332.311	24.26
332.525	22.22
332.738	24.66
332.951	26.2
333.164	20.35
333.377	19.39
333.59	23.92
333.803	24.04
334.016	23.86
334.229	18.39
334.442	20.85
334.655	34.35
334.868	40.37
335.081	36.78
335.294	54.43
335.507	54.29
335.72	50.87
335.933	56.04
336.146	57.54
336.359	55.61
336.572	55.75
336.785	49.81
336.997	57.79
337.21	62.94
337.423	43.92
337.636	37.42
337.849	42.1
338.062	45.01
338.274	37.44
338.487	23.97
338.7	19.75
338.913	26.86
339.125	18.8
339.338	15.57
339.551	17.31
339.763	16.03
339.976	20.19
340.189	15.62
340.402	16.97
340.614	22.53
340.827	16.97
341.039	15.87
341.252	24.7
341.465	20.63
341.677	15.99
341.89	16.39
342.102	12.39
342.315	22.91
342.527	13.57
342.74	-2.78
342.952	6.55
343.165	24.7
343.377	31.82
343.59	32.25
343.802	30.05
344.015	36.87
344.227	45.59
344.44	51.38
344.652	47.59
344.864	41.39
345.077	37.93
345.289	35.09
345.502	32.9
345.714	19.65
345.926	12
346.139	14.15
346.351	6.62
346.563	12.5
346.775	15.43
346.988	20.24
347.2	30.32
347.412	25.34
347.624	27.4
347.837	30.73
348.049	27.92
348.261	23.52
348.473	16.81
348.685	20.19
348.897	18.46
349.11	14.42
349.322	12.34
349.534	12.04
349.746	24.73
349.958	29.18
350.17	24.82
350.382	27.86
350.594	24.36
350.806	37.55
351.018	48.09
351.23	38.36
351.442	37.85
351.654	44.54
351.866	51.11
352.078	46.14
352.29	44.44
352.502	39.03
352.714	42.83
352.926	44.79
353.138	28.89
353.35	15.66
353.561	17.48
353.773	7.47
353.985	16.83
354.197	8.42
354.409	3.93
354.621	8.61
354.832	10.22
355.044	16.83
355.256	19.88
355.468	5.97
355.679	9.8
355.891	12.88
356.103	10.53
356.314	13.1
356.526	9.37
356.738	10.8
356.949	11.77
357.161	15.6
357.373	15.32
357.584	25.92
357.796	20.61
358.008	21.94
358.219	27.56
358.431	30.03
358.642	26.39
358.854	26.43
359.065	23.74
359.277	25.82
359.488	18.37
359.7	16.95
359.911	19.39
360.123	25.58
360.334	22.02
360.546	14.39
360.757	21.93
360.969	34.46
361.18	35.63
361.391	34.46
361.603	32.75
361.814	39.26
362.025	40.67
362.237	40.94
362.448	37.68
362.659	27.02
362.871	29.62
363.082	33.8
363.293	35.6
363.504	38.15
363.716	29.67
363.927	26.6
364.138	34.17
364.349	31.28
364.56	23.18
364.772	23.05
364.983	16.48
365.194	22.4
365.405	23.54
365.616	16.92
365.827	18.98
366.038	34.71
366.25	32.98
366.461	43.53
366.672	36.95
366.883	38.92
367.094	44.6
367.305	45.11
367.516	36.97
367.727	30.35
367.938	24.14
368.149	31.89
368.36	26.18
368.571	17.42
368.781	13.19
368.992	10.77
369.203	13.8
369.414	15.99
369.625	12.97
369.836	13.16
370.047	17.56
370.258	19.66
370.468	21.86
370.679	16.46
370.89	18.06
371.101	13.66
371.312	16.86
371.522	21.56
371.733	11.52
371.944	9.51
372.155	-1.46
372.365	0.34
372.576	4.28
372.787	3.57
372.997	-4.06
373.208	9.2
373.419	9.94
373.629	30.51
373.84	24.32
374.05	30.48
374.261	28.18
374.472	35.39
374.682	27.31
374.893	26.89
375.103	24.71
375.314	25.29
375.524	17.95
375.735	21.11
375.945	19.64
376.156	20.47
376.366	17.79
376.577	15.13
376.787	21.83
376.997	26.87
377.208	19.84
377.418	15.03
377.629	13.94
377.839	25.57
378.049	26.86
378.26	26.59
378.47	26.7
378.68	33.03
378.89	29.25
379.101	21.61
379.311	11.65
379.521	12.29
379.732	-4.13
379.942	-8.65
380.152	-6.17
380.362	4.35
380.572	15.9
380.783	14.17
380.993	8.69
381.203	21.39
381.413	26.78
381.623	25.01
381.833	21.77
382.043	17.28
382.253	24.01
382.463	29.24
382.674	25.51
382.884	19.42
383.094	19.1
383.304	15.19
383.514	22.25
383.724	18.49
383.934	14.13
384.144	13.39
384.353	16.54
384.563	10.97
384.773	14.31
384.983	12.7
385.193	15.42
385.403	18.06
385.613	17.94
385.823	14.51
386.033	19.27
386.242	20.17
386.452	19.91
386.662	16.86
386.872	14.41
387.082	9.52
387.291	11.97
387.501	11.19
387.711	8.33
387.921	6.67
388.13	5.92
388.34	5.4
388.55	10.01
388.759	7.62
388.969	5.39
389.179	8.07
389.388	7.98
389.598	7.05
389.807	9.1
390.017	7.08
390.227	6.64
390.436	7.52
390.646	7.22
390.855	6.19
391.065	7.01
391.274	4.3
391.484	5.21
391.693	5.22
391.903	4.46
392.112	3.26
392.322	4.53
392.531	5.5
392.74	6.14
392.95	6.93
393.159	7.47
393.369	7.35
393.578	7.87
393.787	7.03
393.997	7.74
394.206	8.12
394.415	7.47
394.625	5.86
394.834	4.71
395.043	4.85
395.252	4.67
395.462	3.61
395.671	3.51
395.88	3.35
396.089	4.01
396.298	4.42
396.508	3.86
396.717	3.49
396.926	3.18
397.135	2.92
397.344	2.78
397.553	3
397.762	3.09
397.971	3.22
398.181	3.02
398.39	2.96
398.599	3.12
398.808	3.24
399.017	3.29
399.226	3.52
399.435	3.64
399.644	3.78
399.853	3.97
400.062	3.61
400.27	3.45
400.479	3.15
400.688	3.13
400.897	3.16
401.106	3.3
401.315	3.09
401.524	3.44
401.733	3.39
401.941	3.55
402.15	3.3
402.359	3.17
402.568	3
402.777	3.01
402.985	2.84
403.194	2.87
403.403	2.7
403.612	2.77
403.82	2.71
404.029	2.81
404.238	2.87
404.446	2.78
404.655	2.71
404.864	2.72
405.072	2.63
405.281	2.54
405.489	2.57
405.698	2.49
405.906	2.42
406.115	2.48
406.324	2.48
406.532	2.57
406.741	2.74
406.949	2.64
407.158	2.77
407.366	2.94
407.574	2.96
407.783	2.98
407.991	2.89
408.2	2.77
408.408	2.78
408.617	2.69
408.825	2.65
409.033	2.62
409.242	2.57
409.45	2.64
409.658	2.7
409.867	2.7
410.075	2.67
410.283	2.58
410.491	2.54
410.7	2.6
410.908	2.56
411.116	2.52
411.324	2.53
411.533	2.45
411.741	2.48
411.949	2.51
412.157	2.45
412.365	2.51
412.573	2.51
412.781	2.51
412.99	2.67
413.198	2.69
413.406	2.65
413.614	2.72
413.822	2.68
414.03	2.55
414.238	2.59
414.446	2.47
414.654	2.46
414.862	2.42
415.07	2.42
415.278	2.3
415.486	2.48
415.694	2.39
415.902	2.33
416.109	2.31
416.317	2.22
416.525	2.25
416.733	2.41
416.941	2.26
417.149	2.39
417.357	2.5
417.564	2.52
417.772	2.65
417.98	2.55
418.188	2.45
418.395	2.58
418.603	2.35
418.811	2.19
419.019	2.18
419.226	2.22
419.434	2.1
419.642	2.06
419.849	1.98
420.057	2.06
420.265	2.07
420.472	2.06
420.68	1.93
420.887	2.02
421.095	2.13
421.302	2.17
421.51	2.23
421.717	2.29
421.925	2.17
422.132	2.25
422.34	2.22
422.547	2.16
422.755	2.09
422.962	1.96
423.17	1.89
423.377	2.01
423.585	2.02
423.792	2.01
423.999	1.95
424.207	1.94
424.414	2.1
424.621	2.12
424.829	2
425.036	1.93
425.243	2.02
425.451	2.09
425.658	2.16
425.865	2.01
426.072	2.16
426.28	2.29
426.487	2.28
426.694	2.25
426.901	2.15
427.108	2.1
427.315	2.1
427.523	2.01
427.73	1.93
427.937	1.92
428.144	1.85
428.351	1.99
428.558	1.99
428.765	2.01
428.972	2.04
429.179	2.01
429.386	2.14
429.593	2.11
429.8	2.07
430.007	2.1
430.214	2.09
430.421	2.09
430.628	2
430.835	1.94
431.042	1.98
431.249	1.98
431.456	1.98
431.662	2.02
431.869	2.13
432.076	2.3
432.283	2.27
432.49	2.27
432.697	2.27
432.903	2.31
433.11	2.42
433.317	2.36
433.524	2.24
433.73	2.3
433.937	2.24
434.144	2.37
434.35	2.31
434.557	2.2
434.764	2.15
434.97	2.25
435.177	2.2
435.384	2.35
435.59	2.29
435.797	2.36
436.003	2.4
436.21	2.44
436.416	2.43
436.623	2.48
436.829	2.44
437.036	2.45
437.242	2.45
437.449	2.47
437.655	2.47
437.862	2.46
438.068	2.51
438.275	2.55
438.481	2.57
438.687	2.62
438.894	2.6
439.1	2.62
439.307	2.64
439.513	2.6
439.719	2.6
439.926	2.54
440.132	2.49
440.338	2.49
440.544	2.49
440.751	2.45
440.957	2.37
441.163	2.43
441.369	2.41
441.575	2.41
441.782	2.4
441.988	2.42
442.194	2.54
442.4	2.64
442.606	2.62
442.812	2.68
443.018	2.71
443.224	2.77
443.431	2.77
443.637	2.67
443.843	2.72
444.049	2.7
444.255	2.63
444.461	2.57
444.667	2.51
444.873	2.48
445.079	2.57
445.284	2.49
445.49	2.43
445.696	2.53
445.902	2.62
446.108	2.68
446.314	2.74
446.52	2.7
446.726	2.74
446.931	2.8
447.137	2.78
447.343	2.72
447.549	2.69
447.755	2.61
447.96	2.61
448.166	2.67
448.372	2.65
448.578	2.66
448.783	2.69
448.989	2.75
449.195	2.79
449.4	2.81
449.606	2.77
449.812	2.87
450.017	2.86
450.223	2.85
450.428	2.81
450.634	2.85
450.84	2.87
451.045	2.83
451.251	2.79
451.456	2.8
451.662	2.81
451.867	2.8
452.073	2.78
452.278	2.8
452.483	2.84
452.689	2.84
452.894	2.82
453.1	2.81
453.305	2.85
453.51	2.87
453.716	2.83
453.921	2.83
454.127	2.8
454.332	2.8
454.537	2.88
454.742	2.87
454.948	2.83
455.153	2.85
455.358	2.87
455.563	2.92
455.769	2.94
455.974	2.89
456.179	2.87
456.384	2.91
456.589	2.92
456.795	2.87
457	2.87
457.205	2.83
457.41	2.82
457.615	2.88
457.82	2.95
458.025	2.96
458.23	2.99
458.435	2.94
458.64	2.99
458.845	3.01
459.05	2.97
459.255	2.89
459.46	2.88
459.665	2.94
459.87	2.96
460.075	2.95
460.28	2.96
460.485	3.02
460.69	2.96
460.895	3.01
461.099	3.01
461.304	3.01
461.509	2.97
461.714	3
461.919	2.96
462.123	3.08
462.328	3.06
462.533	3.06
462.738	3.07
462.942	3.17
463.147	3.12
463.352	3.17
463.556	3.16
463.761	3.17
463.966	3.15
464.17	3.18
464.375	3.1
464.58	3.1
464.784	3.12
464.989	3.14
465.193	3.21
465.398	3.27
465.602	3.26
465.807	3.35
466.011	3.38
466.216	3.37
466.42	3.44
466.625	3.4
466.829	3.41
467.034	3.42
467.238	3.45
467.443	3.48
467.647	3.45
467.851	3.39
468.056	3.38
468.26	3.32
468.464	3.33
468.669	3.36
468.873	3.36
469.077	3.41
