Data from Ofra_2a_PS_OGT35_Reflection_1.txt Node
Date: Tue Jul 20 09:29:23 EDT 2021
User: Adam
Spectrometer: FLMT01687
Trigger mode: 0
Integration Time (sec): 9.450000E-1
Scans to average: 3
Electric dark correction enabled: true
Nonlinearity correction enabled: false
Boxcar width: 3
XAxis mode: Wavelengths
Number of Pixels in Spectrum: 3648
>>>>>Begin Spectral Data<<<<<
179.494	213.02
179.716	137.85
179.937	208.79
180.158	1113.28
180.38	-570.35
180.601	-157.81
180.823	-70.27
181.044	-144.02
181.265	-181.58
181.486	-15.77
181.708	-280.43
181.929	130.47
182.15	842.05
182.372	-76.35
182.593	11.82
182.814	76.35
183.035	158.06
183.257	118.26
183.478	44.19
183.699	56.69
183.92	56.58
184.141	84.35
184.363	77.27
184.584	51.48
184.805	42.82
185.026	50.03
185.247	25.98
185.468	20.1
185.689	7.11
185.91	7.32
186.132	14.66
186.353	0.21
186.574	4.83
186.795	-11.61
187.016	-9.57
187.237	-4.95
187.458	-8.22
187.679	-9.93
187.9	8.45
188.121	17.99
188.342	45
188.563	34.93
188.784	34.95
189.005	44.88
189.226	32.6
189.447	23.36
189.667	17.88
189.888	16.35
190.109	19.83
190.33	1.49
190.551	-5.28
190.772	-5.99
190.993	8.43
191.214	8.52
191.434	5.95
191.655	8.14
191.876	18.01
192.097	14.54
192.318	25.52
192.538	26.06
192.759	28.27
192.98	20.79
193.201	29.08
193.421	24.69
193.642	32.79
193.863	22.04
194.083	26.42
194.304	30.8
194.525	41.52
194.745	28.65
194.966	32.37
195.187	35.06
195.407	31.69
195.628	26.17
195.848	15.55
196.069	23.11
196.29	20.27
196.51	26.01
196.731	36.13
196.951	44.96
197.172	58.46
197.392	55.03
197.613	36.41
197.833	48.8
198.054	44.24
198.274	29
198.495	40.5
198.715	19.42
198.936	27.34
199.156	32.39
199.377	10.85
199.597	4.65
199.817	18.91
200.038	8.88
200.258	11.8
200.479	20.07
200.699	12.01
200.919	12.86
201.14	15.41
201.36	5.76
201.58	12.98
201.801	17.15
202.021	11.15
202.241	20.1
202.461	30
202.682	23.94
202.902	23.3
203.122	23.2
203.342	21.69
203.563	24.03
203.783	22.15
204.003	18.61
204.223	31.86
204.443	28.54
204.663	29.57
204.884	31.61
205.104	31.31
205.324	42.99
205.544	50.14
205.764	44.5
205.984	56.3
206.204	46.58
206.424	53.18
206.644	44.19
206.864	35.83
207.084	46.56
207.304	48.82
207.525	43.17
207.745	58.19
207.964	58.62
208.184	47.66
208.404	42.7
208.624	8.22
208.844	-3.41
209.064	4.82
209.284	-5.26
209.504	-21.75
209.724	-42.83
209.944	-48.99
210.164	-16.65
210.384	-4.17
210.604	-27.04
210.823	-26.69
211.043	-18.1
211.263	8.12
211.483	5.42
211.703	14.3
211.922	13.62
212.142	28.67
212.362	43.88
212.582	47.06
212.801	39.89
213.021	51.98
213.241	38.81
213.461	39.91
213.68	35.76
213.9	31.47
214.12	19.13
214.339	27.51
214.559	42.08
214.779	42.99
214.998	40.61
215.218	42.33
215.438	49.72
215.657	51.57
215.877	47.04
216.096	31.82
216.316	29.32
216.535	22.93
216.755	12.12
216.974	-0.53
217.194	11.02
217.413	31.67
217.633	34.16
217.852	28.28
218.072	25.86
218.291	43.37
218.511	50.79
218.73	44.33
218.95	30.97
219.169	37.21
219.389	39.79
219.608	54.25
219.827	34.49
220.047	30.53
220.266	32.5
220.485	43.27
220.705	35.17
220.924	44.81
221.143	37.39
221.363	46.92
221.582	38.46
221.801	42.73
222.021	32.17
222.24	29.39
222.459	27.21
222.678	12.94
222.897	6.71
223.117	19.97
223.336	20.96
223.555	14.48
223.774	24.15
223.993	20.02
224.213	26.26
224.432	35.31
224.651	19.02
224.87	17.07
225.089	43.36
225.308	39.3
225.527	35.38
225.746	38.69
225.965	26.92
226.184	28.89
226.404	28.47
226.623	19.58
226.842	8.54
227.061	29.14
227.28	33.16
227.499	44.91
227.718	44.1
227.936	36.69
228.155	35.92
228.374	46.41
228.593	43.08
228.812	36.66
229.031	35.54
229.25	42.1
229.469	51.55
229.688	49.97
229.907	39.58
230.125	31.55
230.344	31.6
230.563	34.11
230.782	29.6
231.001	27.03
231.22	27.61
231.438	37.43
231.657	47.82
231.876	50.09
232.095	50.01
232.313	57.73
232.532	57.77
232.751	58.13
232.969	60.66
233.188	57.41
233.407	57.54
233.625	55.21
233.844	45.06
234.063	40.22
234.281	39.28
234.5	30.89
234.719	28.83
234.937	31.01
235.156	21.71
235.374	16.93
235.593	15.96
235.811	5.24
236.03	-1.21
236.249	9.57
236.467	16.6
236.686	38.32
236.904	40.03
237.123	39.21
237.341	28.24
237.559	32.28
237.778	36.43
237.996	30.22
238.215	16.17
238.433	13.44
238.652	17.99
238.87	21.5
239.088	14.66
239.307	5.55
239.525	1.05
239.743	-3.12
239.962	1.54
240.18	2.41
240.398	5.36
240.617	18.71
240.835	26.71
241.053	26.65
241.271	39.56
241.49	26.77
241.708	25.28
241.926	23.46
242.144	19.74
242.363	15.61
242.581	19.66
242.799	6.41
243.017	22.92
243.235	10.85
243.453	9.44
243.672	6.01
243.89	11.07
244.108	19.35
244.326	18.44
244.544	21.94
244.762	29.61
244.98	34.12
245.198	27.02
245.416	26.12
245.634	32.23
245.852	49.28
246.07	47.05
246.288	51.14
246.506	53.17
246.724	75.08
246.942	63.52
247.16	49.47
247.378	28.86
247.596	23.61
247.814	19.65
248.032	15.41
248.25	-3.55
248.468	9.78
248.685	8.21
248.903	7.97
249.121	5.96
249.339	4.61
249.557	2.37
249.775	-3.83
249.992	-11.41
250.21	-21.18
250.428	-9.52
250.646	-2.28
250.863	9.34
251.081	20.69
251.299	45.18
251.517	65.26
251.734	82.74
251.952	80.24
252.17	76.62
252.387	59.41
252.605	60.84
252.823	41.1
253.04	26.57
253.258	31.69
253.475	15.07
253.693	23.25
253.911	25.81
254.128	21.89
254.346	26.18
254.563	23.68
254.781	17.26
254.998	24.88
255.216	21.42
255.433	16.62
255.651	11.66
255.868	9.71
256.086	17.08
256.303	17.93
256.521	12.86
256.738	12.47
256.956	4.97
257.173	6.91
257.39	13.46
257.608	7.14
257.825	12.63
258.043	19.19
258.26	20.41
258.477	29.82
258.695	37.12
258.912	38.02
259.129	36.08
259.346	32.91
259.564	12.43
259.781	18.65
259.998	17.07
260.216	16.23
260.433	15.54
260.65	19.94
260.867	10.31
261.084	30.04
261.302	22.87
261.519	20.6
261.736	16.32
261.953	21.25
262.17	20.66
262.387	18.78
262.604	8.71
262.822	17.9
263.039	24.7
263.256	22.03
263.473	16.32
263.69	25.95
263.907	33.17
264.124	25.33
264.341	16.4
264.558	17.07
264.775	11.58
264.992	9.05
265.209	16.15
265.426	11.52
265.643	11.88
265.86	15.08
266.077	16.65
266.294	19.38
266.51	21.88
266.727	-1.13
266.944	-5.57
267.161	1.57
267.378	4.65
267.595	-12.15
267.812	-11.38
268.028	-5.46
268.245	7.4
268.462	10.79
268.679	2.09
268.896	1.36
269.112	12.49
269.329	17.46
269.546	22.48
269.763	24.26
269.979	22.86
270.196	31.7
270.413	28.54
270.629	24.76
270.846	22.42
271.063	22.17
271.279	21.16
271.496	15.27
271.712	15
271.929	22.92
272.146	24.72
272.362	19.45
272.579	9.9
272.795	12.3
273.012	17.78
273.228	19.05
273.445	17.13
273.661	9.84
273.878	19.42
274.094	20.53
274.311	22.3
274.527	26.86
274.744	24.42
274.96	23.92
275.177	33.61
275.393	31.69
275.609	29.73
275.826	27.18
276.042	27.91
276.259	28.66
276.475	21.12
276.691	28.08
276.908	25.45
277.124	25.5
277.34	25.08
277.557	22.73
277.773	19.8
277.989	25.11
278.205	3.55
278.422	8.82
278.638	18.49
278.854	5.05
279.07	4.75
279.286	2.06
279.503	2.54
279.719	23.19
279.935	20.58
280.151	20.38
280.367	36.71
280.583	36.45
280.799	45.6
281.016	38.58
281.232	29.68
281.448	22.27
281.664	25.22
281.88	24.06
282.096	25.44
282.312	10.76
282.528	2.99
282.744	9.81
282.96	18.52
283.176	19.72
283.392	25.63
283.608	24.44
283.824	25.47
284.04	29.86
284.256	25.82
284.471	26.18
284.687	26.19
284.903	25.28
285.119	17
285.335	15.19
285.551	26.43
285.767	23.11
285.982	33.48
286.198	18.74
286.414	26.07
286.63	33.1
286.846	36.25
287.061	34.61
287.277	46.16
287.493	33.7
287.709	41.44
287.924	33.19
288.14	36.62
288.356	36.65
288.571	21.81
288.787	20.69
289.003	33.19
289.218	30.48
289.434	28.96
289.65	20.51
289.865	20.55
290.081	28.57
290.296	29.53
290.512	27.99
290.727	35.1
290.943	24.47
291.159	11.97
291.374	21.19
291.59	18.32
291.805	2.89
292.021	-12.57
292.236	-15.39
292.451	-4.87
292.667	20.53
292.882	8.49
293.098	10.74
293.313	11.3
293.529	14.43
293.744	10.49
293.959	20.98
294.175	6.97
294.39	22.14
294.605	28.53
294.821	33.39
295.036	37.08
295.251	41.63
295.467	31.76
295.682	33.58
295.897	26.36
296.112	30.61
296.328	29.77
296.543	20.62
296.758	17.26
296.973	16.91
297.188	20.65
297.404	22.04
297.619	5.19
297.834	16.54
298.049	23.3
298.264	30.4
298.479	25.89
298.694	26.7
298.909	27.04
299.125	34.34
299.34	27.14
299.555	36.59
299.77	38.12
299.985	35.22
300.2	31.58
300.415	31.41
300.63	22.64
300.845	26.16
301.06	17.7
301.275	15.37
301.49	22.88
301.704	23.34
301.919	16.91
302.134	17.3
302.349	15.54
302.564	17.21
302.779	17.34
302.994	9.9
303.209	6.74
303.423	19.98
303.638	25.8
303.853	31.01
304.068	26.62
304.283	23.74
304.497	22.06
304.712	28.7
304.927	23.38
305.142	23.75
305.356	20.38
305.571	32.02
305.786	31.11
306	42.49
306.215	40.67
306.43	45.59
306.644	43.38
306.859	49.35
307.074	34.79
307.288	33.78
307.503	30.55
307.717	28.94
307.932	29.68
308.147	34.56
308.361	28.21
308.576	38.42
308.79	34.77
309.005	30.38
309.219	25.43
309.434	15.53
309.648	1.81
309.863	4.75
310.077	-3.49
310.292	-1.25
310.506	10.87
310.72	9.07
310.935	13.84
311.149	24.7
311.364	21.63
311.578	17.27
311.792	20.25
312.007	14.91
312.221	20.19
312.435	22.03
312.649	32.14
312.864	34.77
313.078	45.23
313.292	48.26
313.507	47.52
313.721	47.35
313.935	55.29
314.149	36.96
314.363	36.33
314.578	32.23
314.792	25.34
315.006	30.7
315.22	31.32
315.434	21.89
315.648	21.07
315.862	28.21
316.077	30.61
316.291	35.92
316.505	25.01
316.719	18.27
316.933	20.07
317.147	15.83
317.361	9.93
317.575	9.63
317.789	10.88
318.003	15.95
318.217	21.23
318.431	26.75
318.645	34.09
318.859	22.62
319.073	19.38
319.287	19.15
319.5	16.43
319.714	20.03
319.928	19.69
320.142	15.71
320.356	34.64
320.57	35.78
320.784	40.34
320.997	46.04
321.211	47.94
321.425	37.31
321.639	34.9
321.853	26.5
322.066	21.09
322.28	18.44
322.494	18.45
322.707	10.31
322.921	16.91
323.135	24.19
323.349	27.64
323.562	29.43
323.776	27.38
323.989	27.97
324.203	40.44
324.417	30.14
324.63	20.19
324.844	13.76
325.057	15.67
325.271	12.17
325.485	16.79
325.698	4.84
325.912	25.21
326.125	35.21
326.339	39.18
326.552	38.45
326.766	43.2
326.979	39.07
327.193	40.71
327.406	31.38
327.619	11.44
327.833	10.17
328.046	7.7
328.26	-1.75
328.473	-11.33
328.686	-7.31
328.9	-5.14
329.113	10.97
329.326	17.71
329.54	22.61
329.753	31.91
329.966	37.45
330.179	47.97
330.393	41.46
330.606	44.66
330.819	42.81
331.032	41.72
331.246	40.49
331.459	39.79
331.672	25.87
331.885	29.52
332.098	22.17
332.311	3.94
332.525	6.99
332.738	4.2
332.951	2.93
333.164	1.21
333.377	-16
333.59	-6.57
333.803	13.32
334.016	14.18
334.229	20.02
334.442	30.77
334.655	31.43
334.868	38.25
335.081	41.48
335.294	30.94
335.507	32.65
335.72	18.7
335.933	10.64
336.146	16.29
336.359	22.46
336.572	15.15
336.785	23.86
336.997	20
337.21	32.11
337.423	29.77
337.636	29.86
337.849	23.38
338.062	15.85
338.274	12.81
338.487	14.8
338.7	12.87
338.913	13.84
339.125	11.42
339.338	20.53
339.551	23.95
339.763	20.12
339.976	18.88
340.189	15.13
340.402	15.79
340.614	20.53
340.827	10.59
341.039	15.33
341.252	16.92
341.465	12.44
341.677	8.02
341.89	9.52
342.102	5.27
342.315	11.86
342.527	4.48
342.74	10.26
342.952	17.53
343.165	29.19
343.377	32.49
343.59	37.56
343.802	33.28
344.015	36.75
344.227	22.64
344.44	19.93
344.652	15.84
344.864	11.97
345.077	2.65
345.289	2.37
345.502	-0.63
345.714	4.28
345.926	6.86
346.139	12.64
346.351	-2.33
346.563	11.99
346.775	9.06
346.988	9.74
347.2	12.56
347.412	7.3
347.624	8.68
347.837	21.24
348.049	17.4
348.261	21.53
348.473	22.71
348.685	18.93
348.897	26.69
349.11	27.46
349.322	17.76
349.534	16.57
349.746	14.94
349.958	15.23
350.17	30.11
350.382	19.43
350.594	16.32
350.806	33.25
351.018	32.75
351.23	34.29
351.442	34.74
351.654	38.94
351.866	43.89
352.078	38.54
352.29	32.94
352.502	25.09
352.714	24.21
352.926	22.42
353.138	12.33
353.35	11.28
353.561	11.85
353.773	13.11
353.985	17.49
354.197	10.9
354.409	14.26
354.621	13.19
354.832	9
355.044	17.04
355.256	9.27
355.468	13.13
355.679	24.59
355.891	21.87
356.103	19.69
356.314	32.15
356.526	21.93
356.738	22.68
356.949	23.59
357.161	17.79
357.373	23.71
357.584	29.42
357.796	22.05
358.008	28.46
358.219	38.73
358.431	32.16
358.642	28.51
358.854	21.42
359.065	16.94
359.277	9.18
359.488	9.32
359.7	7.86
359.911	9.2
360.123	18
360.334	17.45
360.546	16.52
360.757	22.42
360.969	26.85
361.18	22.07
361.391	24.79
361.603	24.35
361.814	31.44
362.025	30.12
362.237	27.09
362.448	27.06
362.659	21.91
362.871	26.1
363.082	27.19
363.293	20.17
363.504	26.63
363.716	29.52
363.927	24.37
364.138	31.73
364.349	29.73
364.56	29.22
364.772	27.76
364.983	14.15
365.194	7.14
365.405	7.18
365.616	-11.38
365.827	-13.16
366.038	-9.64
366.25	-2.15
366.461	6.15
366.672	8.79
366.883	7.33
367.094	17.58
367.305	15.27
367.516	11.19
367.727	12.16
367.938	20.39
368.149	17.96
368.36	18.48
368.571	20.28
368.781	21.42
368.992	23.22
369.203	16.37
369.414	4.12
369.625	9.77
369.836	15.14
370.047	11.11
370.258	5.37
370.468	2.44
370.679	4.81
370.89	25.16
371.101	21.88
371.312	18.34
371.522	22.31
371.733	20.89
371.944	25.54
372.155	21.28
372.365	7.87
372.576	9.99
372.787	11.65
372.997	3.44
373.208	8.36
373.419	2.29
373.629	11.89
373.84	10.18
374.05	12.02
374.261	11.37
374.472	18.24
374.682	14.39
374.893	7.1
375.103	5.54
375.314	1.22
375.524	2.07
375.735	-0.14
375.945	-3.21
376.156	5.01
376.366	14.46
376.577	9.44
376.787	17.91
376.997	15.05
377.208	15.65
377.418	22.07
377.629	16.84
377.839	17.12
378.049	28.35
378.26	23.1
378.47	24.75
378.68	23.68
378.89	16.03
379.101	8.21
379.311	3.69
379.521	4.3
379.732	4.4
379.942	10.32
380.152	20.9
380.362	26.72
380.572	34.5
380.783	36.5
380.993	31.71
381.203	32.21
381.413	30.69
381.623	20.74
381.833	17.4
382.043	11
382.253	7.72
382.463	12.17
382.674	11.2
382.884	3.44
383.094	4.59
383.304	6.75
383.514	10.72
383.724	11.75
383.934	9.72
384.144	11.91
384.353	14.28
384.563	12.5
384.773	11.99
384.983	13.95
385.193	15.78
385.403	13.81
385.613	6.87
385.823	7.39
386.033	9.59
386.242	6.1
386.452	3.57
386.662	3.16
386.872	5.74
387.082	10.66
387.291	8.98
387.501	9.2
387.711	9.27
387.921	11.76
388.13	8.21
388.34	2.56
388.55	3.6
388.759	4.42
388.969	2.31
389.179	6.59
389.388	7.35
389.598	6.97
389.807	10.22
390.017	8.55
390.227	8.47
390.436	8.57
390.646	7.57
390.855	4.12
391.065	5.88
391.274	5.48
391.484	5.91
391.693	6.19
391.903	5.28
392.112	4.73
392.322	6.74
392.531	6.42
392.74	5.23
392.95	5.55
393.159	6.25
393.369	7.08
393.578	6.98
393.787	5.91
393.997	6.3
394.206	6.98
394.415	7.15
394.625	5.77
394.834	4.37
395.043	3.87
395.252	4.48
395.462	3.43
395.671	4.27
395.88	4.21
396.089	4.25
396.298	4.99
396.508	5.09
396.717	4.63
396.926	4.98
397.135	4.24
397.344	4.09
397.553	4.28
397.762	4.07
397.971	4.03
398.181	3.85
398.39	3.74
398.599	4.11
398.808	4.11
399.017	4.3
399.226	4.6
399.435	4.54
399.644	4.56
399.853	4.64
400.062	4.3
400.27	3.96
400.479	3.59
400.688	3.29
400.897	3.16
401.106	3.26
401.315	3.18
401.524	3.15
401.733	3.23
401.941	3.39
402.15	3.39
402.359	3.54
402.568	3.47
402.777	3.45
402.985	3.32
403.194	3.3
403.403	3.01
403.612	2.97
403.82	2.92
404.029	2.89
404.238	2.89
404.446	2.94
404.655	2.96
404.864	3.16
405.072	3.16
405.281	3.14
405.489	3.15
405.698	3.09
405.906	3.13
406.115	3.14
406.324	3.06
406.532	3.1
406.741	3.14
406.949	3.02
407.158	3.09
407.366	3.1
407.574	3.11
407.783	3.03
407.991	3
408.2	2.91
408.408	2.98
408.617	2.91
408.825	2.89
409.033	2.85
409.242	2.86
409.45	2.78
409.658	2.83
409.867	2.82
410.075	2.76
410.283	2.65
410.491	2.62
410.7	2.69
410.908	2.74
411.116	2.67
411.324	2.7
411.533	2.75
411.741	2.82
411.949	2.88
412.157	2.9
412.365	2.9
412.573	2.88
412.781	2.86
412.99	2.93
413.198	2.97
413.406	2.92
413.614	2.87
413.822	2.84
414.03	2.78
414.238	2.87
414.446	2.75
414.654	2.72
414.862	2.7
415.07	2.77
415.278	2.75
415.486	2.84
415.694	2.7
415.902	2.66
416.109	2.61
416.317	2.59
416.525	2.57
416.733	2.63
416.941	2.5
417.149	2.62
417.357	2.74
417.564	2.79
417.772	2.77
417.98	2.73
418.188	2.59
418.395	2.67
418.603	2.51
418.811	2.39
419.019	2.36
419.226	2.4
419.434	2.28
419.642	2.31
419.849	2.31
420.057	2.38
420.265	2.37
420.472	2.35
420.68	2.34
420.887	2.39
421.095	2.5
421.302	2.55
421.51	2.59
421.717	2.65
421.925	2.61
422.132	2.53
422.34	2.53
422.547	2.46
422.755	2.34
422.962	2.24
423.17	2.17
423.377	2.3
423.585	2.43
423.792	2.38
423.999	2.31
424.207	2.28
424.414	2.35
424.621	2.4
424.829	2.26
425.036	2.14
425.243	2.23
425.451	2.29
425.658	2.41
425.865	2.3
426.072	2.22
426.28	2.28
426.487	2.3
426.694	2.29
426.901	2.23
427.108	2.18
427.315	2.2
427.523	2.29
427.73	2.35
427.937	2.34
428.144	2.31
428.351	2.39
428.558	2.43
428.765	2.37
428.972	2.38
429.179	2.25
429.386	2.35
429.593	2.31
429.8	2.39
430.007	2.42
430.214	2.55
430.421	2.49
430.628	2.44
430.835	2.42
431.042	2.45
431.249	2.37
431.456	2.39
431.662	2.33
431.869	2.44
432.076	2.54
432.283	2.45
432.49	2.43
432.697	2.41
432.903	2.43
433.11	2.49
433.317	2.48
433.524	2.41
433.73	2.47
433.937	2.53
434.144	2.63
434.35	2.57
434.557	2.56
434.764	2.52
434.97	2.66
435.177	2.65
435.384	2.65
435.59	2.59
435.797	2.66
436.003	2.7
436.21	2.67
436.416	2.59
436.623	2.61
436.829	2.57
437.036	2.58
437.242	2.5
437.449	2.51
437.655	2.53
437.862	2.53
438.068	2.62
438.275	2.67
438.481	2.77
438.687	2.86
438.894	2.81
439.1	2.88
439.307	2.9
439.513	2.78
439.719	2.79
439.926	2.78
440.132	2.74
440.338	2.8
440.544	2.75
440.751	2.75
440.957	2.82
441.163	2.87
441.369	2.82
441.575	2.8
441.782	2.79
441.988	2.8
442.194	2.87
442.4	2.88
442.606	2.87
442.812	2.9
443.018	2.91
443.224	2.91
443.431	2.91
443.637	2.85
443.843	2.91
444.049	2.87
444.255	2.79
444.461	2.86
444.667	2.88
444.873	2.88
445.079	2.93
445.284	2.91
445.49	2.89
445.696	2.96
445.902	2.93
446.108	2.95
446.314	3
446.52	3
446.726	2.97
446.931	3.02
447.137	3.02
447.343	3.03
447.549	2.97
447.755	2.88
447.96	2.85
448.166	2.87
448.372	2.85
448.578	2.86
448.783	2.81
448.989	2.88
449.195	2.92
449.4	2.92
449.606	2.9
449.812	2.9
450.017	2.92
450.223	3.02
450.428	2.98
450.634	2.99
450.84	3
451.045	3
451.251	3.02
451.456	3.01
451.662	2.96
451.867	2.99
452.073	3.03
452.278	3.03
452.483	3.07
452.689	3.07
452.894	3.05
453.1	3.02
453.305	3.03
453.51	3.02
453.716	3.04
453.921	3.04
454.127	3.07
454.332	3.1
454.537	3.16
454.742	3.13
454.948	3.09
455.153	3.05
455.358	3.1
455.563	3.09
455.769	3.07
455.974	2.99
456.179	2.99
456.384	3.02
456.589	3.07
456.795	2.98
457	3
457.205	2.98
457.41	3.06
457.615	3.14
457.82	3.21
458.025	3.25
458.23	3.33
458.435	3.27
458.64	3.36
458.845	3.31
459.05	3.28
459.255	3.23
459.46	3.21
459.665	3.2
459.87	3.24
460.075	3.23
460.28	3.28
460.485	3.25
460.69	3.21
460.895	3.23
461.099	3.23
461.304	3.25
461.509	3.2
461.714	3.22
461.919	3.2
462.123	3.31
462.328	3.28
462.533	3.26
462.738	3.25
462.942	3.29
463.147	3.29
463.352	3.37
463.556	3.35
463.761	3.32
463.966	3.38
464.17	3.41
464.375	3.42
464.58	3.39
464.784	3.37
464.989	3.35
465.193	3.42
465.398	3.42
465.602	3.42
465.807	3.42
466.011	3.45
466.216	3.46
466.42	3.55
466.625	3.56
466.829	3.56
467.034	3.58
467.238	3.6
467.443	3.62
467.647	3.61
467.851	3.54
468.056	3.52
468.26	3.48
468.464	3.46
468.669	3.53
468.873	3.52
469.077	3.51
469.282	3.51
469.486	3.55
469.69	3.56
469.894	3.6
