Data from Ofra_2a_PS_2GT31_Reflection_1.txt Node
Date: Tue Jul 20 09:41:20 EDT 2021
User: Adam
Spectrometer: FLMT01687
Trigger mode: 0
Integration Time (sec): 9.450000E-1
Scans to average: 3
Electric dark correction enabled: true
Nonlinearity correction enabled: false
Boxcar width: 3
XAxis mode: Wavelengths
Number of Pixels in Spectrum: 3648
>>>>>Begin Spectral Data<<<<<
179.494	604.14
179.716	362.24
179.937	390.66
180.158	1823.83
180.38	-1224.71
180.601	-195.26
180.823	-44.45
181.044	-122.01
181.265	-56.1
181.486	65.13
181.708	1316.3
181.929	382.21
182.15	1192.61
182.372	-52.98
182.593	-35.87
182.814	41.17
183.035	-131.51
183.257	-38.13
183.478	-26.76
183.699	-36.19
183.92	-3.04
184.141	3.14
184.363	0.56
184.584	1.9
184.805	5.96
185.026	-24.88
185.247	-2.59
185.468	-11.99
185.689	-14.39
185.91	-23.87
186.132	-11.99
186.353	-28.54
186.574	-10.1
186.795	-29.66
187.016	-17.86
187.237	-10.31
187.458	-15.79
187.679	-33.83
187.9	-17.65
188.121	1.52
188.342	20.94
188.563	25.08
188.784	17.79
189.005	40.2
189.226	31.51
189.447	32.41
189.667	17.07
189.888	23.58
190.109	17.33
190.33	14.76
190.551	-4.86
190.772	4.99
190.993	15.87
191.214	20.79
191.434	12.24
191.655	16.26
191.876	23.72
192.097	28.9
192.318	31.33
192.538	20.55
192.759	18.17
192.98	10.36
193.201	20.59
193.421	18.69
193.642	15.83
193.863	1.66
194.083	-6.56
194.304	-10.5
194.525	18.34
194.745	-15.38
194.966	-13.48
195.187	-0.13
195.407	2.31
195.628	9.85
195.848	9.19
196.069	9.8
196.29	3.13
196.51	-1.72
196.731	-1.1
196.951	3.12
197.172	7.92
197.392	18.21
197.613	8.48
197.833	9.83
198.054	10.05
198.274	-15.35
198.495	-19.93
198.715	-35.23
198.936	-53.66
199.156	-47.72
199.377	-18.34
199.597	-14.55
199.817	-0.16
200.038	0.85
200.258	4.99
200.479	16.37
200.699	23.34
200.919	-7.09
201.14	-6.59
201.36	6.67
201.58	18.81
201.801	18.12
202.021	12.02
202.241	2.37
202.461	20.8
202.682	27.95
202.902	21.97
203.122	16.68
203.342	36.93
203.563	39.83
203.783	48.32
204.003	48.59
204.223	48.68
204.443	45.42
204.663	43.12
204.884	24.28
205.104	11.7
205.324	15.05
205.544	14.68
205.764	-9.89
205.984	-5.67
206.204	-8.33
206.424	14.45
206.644	14.67
206.864	5.32
207.084	19.12
207.304	28.59
207.525	28.4
207.745	41.9
207.964	28.74
208.184	35.34
208.404	42.64
208.624	8.7
208.844	-7.63
209.064	-1.45
209.284	-2.29
209.504	4.26
209.724	-24.2
209.944	-40.48
210.164	-7.03
210.384	0.12
210.604	-23.17
210.823	-35.32
211.043	-69.64
211.263	-34.21
211.483	-21.98
211.703	-23.11
211.922	-17.7
212.142	-5.94
212.362	-3.03
212.582	22.83
212.801	7.09
213.021	3.8
213.241	-1.2
213.461	1.45
213.68	5.44
213.9	0.1
214.12	-14.56
214.339	-15.95
214.559	-4.61
214.779	-9.02
214.998	-4.6
215.218	-3.48
215.438	7.8
215.657	10.47
215.877	13.46
216.096	9.65
216.316	10.6
216.535	1.11
216.755	-20.74
216.974	-26.62
217.194	-28.37
217.413	-8.58
217.633	-16.09
217.852	-16.68
218.072	-21.34
218.291	11.64
218.511	11.11
218.73	9.27
218.95	-3.93
219.169	-2.63
219.389	-1.89
219.608	9.96
219.827	-7.02
220.047	-3.01
220.266	1.29
220.485	1.9
220.705	-5.71
220.924	-2.95
221.143	-8.77
221.363	-7.31
221.582	-17.28
221.801	-15.9
222.021	-8.61
222.24	-3.72
222.459	-9.35
222.678	-15.34
222.897	-14.18
223.117	-6.84
223.336	-2.98
223.555	-4.48
223.774	4.09
223.993	16.76
224.213	14.7
224.432	32.32
224.651	43.42
224.87	31.74
225.089	45.4
225.308	39.45
225.527	32
225.746	32.8
225.965	25.06
226.184	8.95
226.404	4.89
226.623	-0.8
226.842	0.6
227.061	6.74
227.28	15.73
227.499	22.77
227.718	24.92
227.936	28.21
228.155	20.94
228.374	16.09
228.593	7.61
228.812	2.47
229.031	-15.21
229.25	1.33
229.469	3.34
229.688	12.14
229.907	6.67
230.125	16.46
230.344	15.28
230.563	28.49
230.782	14.58
231.001	19.74
231.22	7.05
231.438	19.81
231.657	24.32
231.876	28.07
232.095	28.27
232.313	34.23
232.532	24.44
232.751	39.1
232.969	38.32
233.188	31.57
233.407	31.8
233.625	19.64
233.844	16.87
234.063	10.2
234.281	4.52
234.5	2.13
234.719	-1.05
234.937	-2.55
235.156	0.24
235.374	-9.63
235.593	-4.09
235.811	-5.07
236.03	3.7
236.249	9.13
236.467	15.53
236.686	21.73
236.904	23.02
237.123	29.36
237.341	25.24
237.559	17.16
237.778	23.63
237.996	21.57
238.215	18.29
238.433	27.17
238.652	22.12
238.87	13.95
239.088	9.79
239.307	8.6
239.525	-0.68
239.743	-7.35
239.962	-14.95
240.18	-8.29
240.398	4.14
240.617	22.2
240.835	27.96
241.053	41.07
241.271	41.56
241.49	32.75
241.708	36.14
241.926	17.69
242.144	15.82
242.363	4.18
242.581	7.76
242.799	9.01
243.017	17.76
243.235	-3.2
243.453	7.06
243.672	2.92
243.89	8.83
244.108	11.84
244.326	6.56
244.544	4.3
244.762	16.95
244.98	20.54
245.198	7
245.416	12.94
245.634	10.25
245.852	24.88
246.07	26.1
246.288	26.76
246.506	29.29
246.724	39.01
246.942	27.55
247.16	23.37
247.378	6.01
247.596	1.95
247.814	-5.18
248.032	-12.45
248.25	-16.68
248.468	-9.36
248.685	-6.68
248.903	-11.93
249.121	0.61
249.339	7.27
249.557	20.41
249.775	17.05
249.992	9.41
250.21	4.6
250.428	21.69
250.646	15.7
250.863	17.66
251.081	4.6
251.299	20.8
251.517	26.24
251.734	18.82
251.952	5.37
252.17	-8.45
252.387	-9.56
252.605	-0.23
252.823	-26.95
253.04	-3.07
253.258	13.47
253.475	16.97
253.693	19.33
253.911	22.91
254.128	16.06
254.346	18.85
254.563	-1.4
254.781	-10.33
254.998	-9.38
255.216	-0.01
255.433	-0.01
255.651	-5.27
255.868	-2.53
256.086	0.91
256.303	17.88
256.521	11.85
256.738	3.89
256.956	-2.88
257.173	10.96
257.39	12.74
257.608	14.73
257.825	-5.38
258.043	5.14
258.26	-2.45
258.477	2.97
258.695	-4.93
258.912	1.77
259.129	-0.74
259.346	16.26
259.564	15.31
259.781	27.77
259.998	30.23
260.216	44.04
260.433	35.93
260.65	47.47
260.867	28.6
261.084	35.45
261.302	27.93
261.519	18.42
261.736	-5.95
261.953	-4.36
262.17	-15.25
262.387	1.23
262.604	-22.09
262.822	-13.19
263.039	-2.04
263.256	1.77
263.473	-4.49
263.69	-1.95
263.907	-2.53
264.124	0.4
264.341	-5.77
264.558	-4.74
264.775	6.89
264.992	13.8
265.209	19.85
265.426	16.07
265.643	19.45
265.86	25.21
266.077	26.31
266.294	22.34
266.51	27.42
266.727	22.6
266.944	27.31
267.161	25.6
267.378	11.95
267.595	-0.58
267.812	3.69
268.028	-3.34
268.245	3.9
268.462	0.72
268.679	-4.52
268.896	-3.46
269.112	11.66
269.329	10.48
269.546	3.87
269.763	6.44
269.979	6.35
270.196	9.29
270.413	10.44
270.629	4.58
270.846	7.84
271.063	6.52
271.279	1.18
271.496	-12.3
271.712	-11.1
271.929	-8.09
272.146	-7.57
272.362	-32.85
272.579	-29.48
272.795	-40.47
273.012	-20.75
273.228	-26.34
273.445	-20.21
273.661	-20.08
273.878	-2.5
274.094	3.62
274.311	13
274.527	11.99
274.744	15.81
274.96	9.22
275.177	13.1
275.393	12.09
275.609	14.37
275.826	15.36
276.042	35.59
276.259	34.55
276.475	32.1
276.691	37.18
276.908	34.82
277.124	34.3
277.34	29.46
277.557	21.01
277.773	21.65
277.989	24.58
278.205	4.68
278.422	8.94
278.638	17.56
278.854	28.09
279.07	12.37
279.286	7.73
279.503	0.44
279.719	19.59
279.935	11.35
280.151	13.53
280.367	-2.4
280.583	6.96
280.799	6.09
281.016	17.71
281.232	9.97
281.448	0.58
281.664	-20.66
281.88	-6.72
282.096	-11.5
282.312	-16.91
282.528	-27.16
282.744	-31.29
282.96	-13.57
283.176	-0.09
283.392	1.42
283.608	12.47
283.824	18.09
284.04	24.85
284.256	35.1
284.471	34.3
284.687	27.75
284.903	29.97
285.119	12.86
285.335	14.91
285.551	13.9
285.767	10.74
285.982	5.37
286.198	2.75
286.414	9.02
286.63	22.87
286.846	21.49
287.061	16.75
287.277	21.57
287.493	26.29
287.709	26.11
287.924	23.69
288.14	20.46
288.356	31.52
288.571	26.56
288.787	18.68
289.003	17.5
289.218	18.41
289.434	13.97
289.65	12.78
289.865	13.09
290.081	18.49
290.296	21.12
290.512	29.34
290.727	38.99
290.943	32.27
291.159	30.73
291.374	24.01
291.59	14.26
291.805	9.21
292.021	-4.04
292.236	-6.88
292.451	5.91
292.667	9.23
292.882	6.7
293.098	17.4
293.313	14.58
293.529	24.08
293.744	26.74
293.959	24.58
294.175	30.19
294.39	34.9
294.605	26.13
294.821	30.55
295.036	21.39
295.251	13.43
295.467	7.01
295.682	10.84
295.897	13.23
296.112	20.24
296.328	23.14
296.543	16.45
296.758	13.32
296.973	20.72
297.188	18.96
297.404	21.9
297.619	20.76
297.834	31.63
298.049	39.86
298.264	38.76
298.479	27.54
298.694	35.99
298.909	28.04
299.125	24.81
299.34	7.5
299.555	7.27
299.77	9.14
299.985	9.49
300.2	1.06
300.415	7.3
300.63	4.57
300.845	17.2
301.06	14.02
301.275	12.2
301.49	20
301.704	17.24
301.919	11.93
302.134	11.37
302.349	-0.15
302.564	0.95
302.779	5.61
302.994	4.16
303.209	10.82
303.423	20.22
303.638	26.84
303.853	36.03
304.068	34.75
304.283	31.76
304.497	24.13
304.712	25.42
304.927	16.98
305.142	11.85
305.356	5.1
305.571	16.68
305.786	13.96
306	15.42
306.215	6.98
306.43	19.7
306.644	25.05
306.859	27.27
307.074	9.73
307.288	2.98
307.503	6.86
307.717	3.51
307.932	-1.04
308.147	-0.79
308.361	-9.11
308.576	0.52
308.79	2.89
309.005	3.57
309.219	8.75
309.434	0.2
309.648	-12.38
309.863	0.59
310.077	-11.12
310.292	-3.72
310.506	9.2
310.72	15.21
310.935	22.5
311.149	31.53
311.364	29.09
311.578	31.84
311.792	28.77
312.007	16.38
312.221	12.25
312.435	14.64
312.649	-26.83
312.864	-38.72
313.078	-39.08
313.292	-34.17
313.507	-30.61
313.721	-40.25
313.935	-24.57
314.149	19.35
314.363	23.2
314.578	51.39
314.792	42.5
315.006	44.26
315.22	50.66
315.434	45.47
315.648	37.51
315.862	37.54
316.077	19.29
316.291	17.52
316.505	16.86
316.719	-0.28
316.933	-1.91
317.147	2.56
317.361	4.17
317.575	2.85
317.789	13
318.003	13.59
318.217	18.88
318.431	18.51
318.645	15.85
318.859	6.68
319.073	5.82
319.287	6.94
319.5	3.9
319.714	10.05
319.928	10.97
320.142	7.97
320.356	21.76
320.57	16.64
320.784	18.52
320.997	26.87
321.211	20.1
321.425	14.15
321.639	26.51
321.853	13.62
322.066	13.85
322.28	10.82
322.494	8.31
322.707	5.47
322.921	5.44
323.135	-3.07
323.349	9.31
323.562	12.03
323.776	12.84
323.989	8.27
324.203	10.94
324.417	9.2
324.63	-0.08
324.844	-11.81
325.057	-4.09
325.271	-20.22
325.485	-13.44
325.698	-12.21
325.912	0.97
326.125	12.44
326.339	17.55
326.552	20.35
326.766	32.73
326.979	30.03
327.193	33.34
327.406	28.49
327.619	16.94
327.833	18.6
328.046	8.67
328.26	4.44
328.473	3.16
328.686	-4.8
328.9	-8.44
329.113	0.88
329.326	7.02
329.54	12.53
329.753	18.8
329.966	16.13
330.179	24.89
330.393	28.16
330.606	23.63
330.819	23.64
331.032	20.55
331.246	17.5
331.459	24.68
331.672	16.97
331.885	6.37
332.098	11.1
332.311	-5.84
332.525	1.33
332.738	3.46
332.951	3.3
333.164	3.44
333.377	4.44
333.59	5.7
333.803	15.23
334.016	9.79
334.229	11.18
334.442	9.8
334.655	13.02
334.868	23.91
335.081	34.13
335.294	26.98
335.507	29.64
335.72	16.41
335.933	18.17
336.146	20.97
336.359	17.54
336.572	8.21
336.785	13.26
336.997	2.34
337.21	12.53
337.423	12.23
337.636	15.42
337.849	12.14
338.062	5.83
338.274	6.54
338.487	13.7
338.7	15.72
338.913	6.62
339.125	-2.11
339.338	5.3
339.551	12.21
339.763	10.43
339.976	13.78
340.189	5.4
340.402	5.68
340.614	11.25
340.827	1.04
341.039	3.35
341.252	3.45
341.465	-8.28
341.677	-7.59
341.89	-2.96
342.102	-2.87
342.315	6.59
342.527	-8.46
342.74	-6.37
342.952	4.37
343.165	9.71
343.377	12.02
343.59	12.76
343.802	4.17
344.015	18.42
344.227	8.13
344.44	5.28
344.652	10.31
344.864	7.77
345.077	8.86
345.289	20.4
345.502	13.42
345.714	19.2
345.926	16.85
346.139	10.6
346.351	-7.15
346.563	-5.89
346.775	-12.35
346.988	-11.57
347.2	-6
347.412	0.18
347.624	2.4
347.837	13.62
348.049	12.65
348.261	13.49
348.473	15.18
348.685	19.03
348.897	13.39
349.11	17
349.322	15.96
349.534	13.8
349.746	16.43
349.958	19.66
350.17	10.63
350.382	8.43
350.594	-0.01
350.806	5.95
351.018	9.79
351.23	10.16
351.442	9.22
351.654	16.76
351.866	19.17
352.078	16.3
352.29	20.81
352.502	16.08
352.714	17.73
352.926	18.61
353.138	17.7
353.35	18.88
353.561	18.83
353.773	17.04
353.985	24.56
354.197	16.49
354.409	12.76
354.621	12.78
354.832	4.22
355.044	20.48
355.256	13.53
355.468	6.54
355.679	16.22
355.891	19.45
356.103	17.77
356.314	22.56
356.526	6.2
356.738	-0.14
356.949	-2.1
357.161	-7.33
357.373	-11.84
357.584	-7.06
357.796	-2.48
358.008	1.27
358.219	19.76
358.431	20.82
358.642	26.84
358.854	29.31
359.065	26.59
359.277	21.53
359.488	19.7
359.7	12.61
359.911	17.43
360.123	14.8
360.334	4.76
360.546	-5.1
360.757	6.26
360.969	12.28
361.18	4.52
361.391	-0.69
361.603	-0.93
361.814	9.62
362.025	11.54
362.237	3.94
362.448	5.6
362.659	0.94
362.871	12.08
363.082	10.3
363.293	10.66
363.504	18.08
363.716	17.13
363.927	14.14
364.138	21.1
364.349	16.33
364.56	12.9
364.772	12.41
364.983	6.07
365.194	2.63
365.405	1.03
365.616	-1.57
365.827	-3.41
366.038	18.08
366.25	12.02
366.461	22.79
366.672	26.77
366.883	28.98
367.094	21.73
367.305	24.83
367.516	8.09
367.727	8.9
367.938	3.3
368.149	4.35
368.36	7.58
368.571	8.81
368.781	7
368.992	10.64
369.203	8.36
369.414	8.91
369.625	7.74
369.836	6.26
370.047	7.88
370.258	8.64
370.468	4.02
370.679	7.19
370.89	23.74
371.101	23.67
371.312	18.19
371.522	20.61
371.733	13.51
371.944	20.18
372.155	13.79
372.365	-7.78
372.576	-4.15
372.787	-5.88
372.997	-7.8
373.208	0.12
373.419	-6.9
373.629	10.42
373.84	7.32
374.05	12.43
374.261	15.93
374.472	21.05
374.682	13.06
374.893	9.1
375.103	1.01
375.314	6.6
375.524	-2.39
375.735	-6.77
375.945	-10.83
376.156	0.05
376.366	3.23
376.577	4.48
376.787	-0
376.997	1.56
377.208	4.07
377.418	8.5
377.629	1.21
377.839	8.57
378.049	7.94
378.26	11.56
378.47	17.05
378.68	14.69
378.89	7.74
379.101	3.56
379.311	-5.02
379.521	-1.56
379.732	-12.49
379.942	-17.57
380.152	-10.3
380.362	-1.58
380.572	5.12
380.783	7.1
380.993	0.46
381.203	9.46
381.413	10.39
381.623	10.6
381.833	5.17
382.043	3.34
382.253	7.33
382.463	11.6
382.674	11.7
382.884	7.53
383.094	12.04
383.304	9.82
383.514	16.01
383.724	12.97
383.934	10.33
384.144	12.59
384.353	14.1
384.563	11.06
384.773	16.09
384.983	12
385.193	14.04
385.403	18.58
385.613	15.03
385.823	14.02
386.033	10.19
386.242	9.19
386.452	8.42
386.662	6.8
386.872	1.65
387.082	2.36
387.291	5.59
387.501	7.19
387.711	5.13
387.921	2
388.13	1.61
388.34	1.72
388.55	1.99
388.759	-2.92
388.969	-6.4
389.179	-2.35
389.388	1.58
389.598	0.87
389.807	0.38
390.017	0.73
390.227	3.09
390.436	5.17
390.646	4.47
390.855	3.1
391.065	3.45
391.274	5.21
391.484	6.91
391.693	8.69
391.903	8.77
392.112	7.86
392.322	8.51
392.531	8.81
392.74	7.52
392.95	6.47
393.159	6.6
393.369	6.16
393.578	5.62
393.787	6.08
393.997	6.75
394.206	7.26
394.415	7.05
394.625	5.3
394.834	4.85
395.043	5.28
395.252	5.48
395.462	5.01
395.671	4.92
395.88	4.48
396.089	4.92
396.298	5.74
396.508	5.85
396.717	5.13
396.926	4.77
397.135	4.58
397.344	4.68
397.553	5.15
397.762	5.02
397.971	4.7
398.181	4.69
398.39	5
398.599	5.12
398.808	5.31
399.017	5.17
399.226	5.05
399.435	5.33
399.644	5.4
399.853	5.53
400.062	5.4
400.27	5.32
400.479	5.22
400.688	5.14
400.897	5.2
401.106	5.4
401.315	5.13
401.524	5.23
401.733	5.42
401.941	5.46
402.15	5.41
402.359	5.35
402.568	5.11
402.777	5.11
402.985	5.14
403.194	4.98
403.403	4.72
403.612	4.77
403.82	4.82
404.029	4.77
404.238	4.8
404.446	4.72
404.655	4.69
404.864	4.71
405.072	4.72
405.281	4.58
405.489	4.59
405.698	4.5
405.906	4.42
406.115	4.44
406.324	4.37
406.532	4.35
406.741	4.42
406.949	4.41
407.158	4.47
407.366	4.57
407.574	4.56
407.783	4.61
407.991	4.56
408.2	4.47
408.408	4.46
408.617	4.4
408.825	4.38
409.033	4.28
409.242	4.33
409.45	4.31
409.658	4.28
409.867	4.18
410.075	4.13
410.283	4.02
410.491	4.01
410.7	3.97
410.908	4.08
411.116	4.03
411.324	4.2
411.533	4.15
411.741	4.2
411.949	4.29
412.157	4.38
412.365	4.29
412.573	4.3
412.781	4.26
412.99	4.37
413.198	4.43
413.406	4.37
413.614	4.3
413.822	4.31
414.03	4.24
414.238	4.28
414.446	4.15
414.654	4.02
414.862	3.94
415.07	3.94
415.278	3.83
415.486	3.94
415.694	3.81
415.902	3.89
416.109	3.93
416.317	3.96
416.525	3.96
416.733	4.1
416.941	4.02
417.149	4.11
417.357	4.11
417.564	4.07
417.772	4.07
417.98	4.04
418.188	3.8
418.395	3.81
418.603	3.66
418.811	3.56
419.019	3.65
419.226	3.68
419.434	3.59
419.642	3.76
419.849	3.8
420.057	3.86
420.265	3.87
420.472	3.77
420.68	3.68
420.887	3.78
421.095	3.78
421.302	3.76
421.51	3.76
421.717	3.82
421.925	3.8
422.132	3.77
422.34	3.68
422.547	3.62
422.755	3.58
422.962	3.5
423.17	3.42
423.377	3.53
423.585	3.53
423.792	3.59
423.999	3.53
424.207	3.48
424.414	3.61
424.621	3.64
424.829	3.62
425.036	3.59
425.243	3.69
425.451	3.83
425.658	3.85
425.865	3.72
426.072	3.76
426.28	3.7
426.487	3.71
426.694	3.59
426.901	3.41
427.108	3.43
427.315	3.51
427.523	3.44
427.73	3.49
427.937	3.59
428.144	3.63
428.351	3.72
428.558	3.63
428.765	3.46
428.972	3.48
429.179	3.35
429.386	3.22
429.593	3.15
429.8	3.2
430.007	3.33
430.214	3.41
430.421	3.41
430.628	3.35
430.835	3.41
431.042	3.43
431.249	3.45
431.456	3.45
431.662	3.54
431.869	3.61
432.076	3.73
432.283	3.67
432.49	3.72
432.697	3.68
432.903	3.7
433.11	3.65
433.317	3.67
433.524	3.64
433.73	3.75
433.937	3.71
434.144	3.78
434.35	3.77
434.557	3.74
434.764	3.66
434.97	3.76
435.177	3.74
435.384	3.79
435.59	3.75
435.797	3.81
436.003	3.86
436.21	3.87
436.416	3.86
436.623	3.9
436.829	3.95
437.036	4.02
437.242	3.93
437.449	3.98
437.655	4.05
437.862	4.02
438.068	4.06
438.275	4.03
438.481	4.02
438.687	4.14
438.894	4.12
439.1	4.13
439.307	4.18
439.513	4.15
439.719	4.21
439.926	4.19
440.132	4.14
440.338	4.19
440.544	4.14
440.751	4.14
440.957	4.07
441.163	4.07
441.369	4.09
441.575	4.06
441.782	4.01
441.988	4.07
442.194	4.1
442.4	4.18
442.606	4.23
442.812	4.24
443.018	4.32
443.224	4.38
443.431	4.44
443.637	4.42
443.843	4.47
444.049	4.43
444.255	4.42
444.461	4.45
444.667	4.44
444.873	4.4
445.079	4.43
445.284	4.38
445.49	4.38
445.696	4.41
445.902	4.41
446.108	4.4
446.314	4.43
446.52	4.48
446.726	4.56
446.931	4.57
447.137	4.6
447.343	4.61
447.549	4.62
447.755	4.61
447.96	4.56
448.166	4.56
448.372	4.59
448.578	4.59
448.783	4.6
448.989	4.61
449.195	4.58
449.4	4.62
449.606	4.6
449.812	4.64
450.017	4.65
450.223	4.62
450.428	4.67
450.634	4.74
450.84	4.71
451.045	4.75
451.251	4.73
451.456	4.72
451.662	4.73
451.867	4.7
452.073	4.68
452.278	4.71
452.483	4.65
452.689	4.67
452.894	4.7
453.1	4.68
453.305	4.69
453.51	4.75
453.716	4.72
453.921	4.78
454.127	4.76
454.332	4.73
454.537	4.78
454.742	4.83
454.948	4.78
455.153	4.83
455.358	4.85
455.563	4.86
455.769	4.87
455.974	4.85
456.179	4.79
456.384	4.79
456.589	4.8
456.795	4.74
457	4.73
457.205	4.69
457.41	4.67
457.615	4.76
457.82	4.85
458.025	4.84
458.23	4.87
458.435	4.86
458.64	4.94
458.845	4.91
459.05	4.9
459.255	4.86
459.46	4.87
459.665	4.95
459.87	5
460.075	5.02
460.28	5.14
460.485	5.12
460.69	5.09
460.895	5.11
461.099	5.08
461.304	5.02
461.509	4.98
461.714	4.95
461.919	4.96
462.123	5.03
462.328	5.03
462.533	5.06
462.738	5.13
462.942	5.2
463.147	5.25
463.352	5.33
463.556	5.31
463.761	5.34
463.966	5.36
464.17	5.42
464.375	5.37
464.58	5.35
464.784	5.36
464.989	5.34
465.193	5.39
465.398	5.42
465.602	5.43
465.807	5.46
466.011	5.44
466.216	5.42
466.42	5.48
466.625	5.52
466.829	5.58
467.034	5.59
467.238	5.66
467.443	5.72
467.647	5.75
467.851	5.78
468.056	5.74
468.26	5.64
468.464	5.64
468.669	5.71
468.873	5.7
469.077	5.73
469.282	5.75
469.486	5.78
469.69	5.85
469.894	5.94
470.099	5.94
470.303	5.99
470.507	6.02
470.711	6.01
470.915	6.08
