Data from Ofra_2a_PS_8HS23_Reflection_1.txt Node
Date: Tue Jul 20 09:56:42 EDT 2021
User: Adam
Spectrometer: FLMT01687
Trigger mode: 0
Integration Time (sec): 9.450000E-1
Scans to average: 3
Electric dark correction enabled: true
Nonlinearity correction enabled: false
Boxcar width: 3
XAxis mode: Wavelengths
Number of Pixels in Spectrum: 3648
>>>>>Begin Spectral Data<<<<<
179.494	976.33
179.716	614.26
179.937	564.84
180.158	2060.16
180.38	-727.33
180.601	-121
180.823	-25.07
181.044	18.53
181.265	16.51
181.486	-16.47
181.708	-1271.74
181.929	-136.05
182.15	-842.05
182.372	75.27
182.593	53.94
182.814	277.54
183.035	233.68
183.257	116.38
183.478	75.25
183.699	95.75
183.92	70.42
184.141	72.74
184.363	48.6
184.584	42.83
184.805	44.81
185.026	34.06
185.247	21.02
185.468	32.07
185.689	25.89
185.91	27.22
186.132	43.22
186.353	20.93
186.574	21.4
186.795	13.28
187.016	10.16
187.237	15.64
187.458	12.28
187.679	-7.77
187.9	29.05
188.121	37.04
188.342	42.13
188.563	36.28
188.784	39.55
189.005	41.22
189.226	37.96
189.447	19.57
189.667	16.16
189.888	25.12
190.109	17.28
190.33	2.27
190.551	8.51
190.772	0.06
190.993	12.78
191.214	27.33
191.434	27.75
191.655	36.49
191.876	43.5
192.097	35.9
192.318	41.93
192.538	41.88
192.759	36.59
192.98	27.6
193.201	39.77
193.421	41.25
193.642	47.66
193.863	54.22
194.083	55.56
194.304	46.53
194.525	64.75
194.745	36.07
194.966	32.49
195.187	42.39
195.407	30.53
195.628	27.49
195.848	34.57
196.069	12.69
196.29	25.74
196.51	14.89
196.731	14.71
196.951	16.18
197.172	12.74
197.392	11.8
197.613	9.74
197.833	5.73
198.054	7.22
198.274	-12.79
198.495	-2.25
198.715	-11.11
198.936	-28.99
199.156	-18.8
199.377	-1.26
199.597	-5.83
199.817	-3.31
200.038	-8.14
200.258	-0.81
200.479	22.57
200.699	25.81
200.919	2.38
201.14	12.83
201.36	40.43
201.58	52.38
201.801	46.52
202.021	33.67
202.241	35.7
202.461	51.65
202.682	59.73
202.902	41.63
203.122	30.72
203.342	39.77
203.563	41.04
203.783	46.82
204.003	35.05
204.223	32.02
204.443	32.25
204.663	35.65
204.884	28.83
205.104	31.62
205.324	37.94
205.544	48.14
205.764	41.38
205.984	41.36
206.204	44.17
206.424	41.79
206.644	29.79
206.864	21.27
207.084	36.68
207.304	34.09
207.525	22.67
207.745	27.17
207.964	18.31
208.184	14.79
208.404	12.65
208.624	-25.5
208.844	-27.62
209.064	-5.82
209.284	6.56
209.504	12.27
209.724	6.55
209.944	8.68
210.164	17.93
210.384	33.19
210.604	26.35
210.823	0.35
211.043	-2.55
211.263	16.18
211.483	16.55
211.703	31.5
211.922	27.37
212.142	29.02
212.362	25.31
212.582	19.84
212.801	11.5
213.021	3.76
213.241	-17.83
213.461	-18.34
213.68	-2.49
213.9	5.05
214.12	6.95
214.339	11.68
214.559	21.8
214.779	27.38
214.998	27.66
215.218	18.41
215.438	24.06
215.657	29.11
215.877	26.47
216.096	23.22
216.316	16.28
216.535	21.92
216.755	13.88
216.974	7.75
217.194	3.55
217.413	16.15
217.633	15.68
217.852	20.07
218.072	13.73
218.291	38.83
218.511	24.1
218.73	23.39
218.95	18.09
219.169	13.14
219.389	13.93
219.608	16.59
219.827	-5.13
220.047	9.53
220.266	11.66
220.485	13.96
220.705	12.37
220.924	15.56
221.143	5.67
221.363	10.5
221.582	16.66
221.801	26.74
222.021	25.06
222.24	37.04
222.459	28.29
222.678	36.65
222.897	33.41
223.117	30.81
223.336	27.24
223.555	20.82
223.774	25.81
223.993	42.81
224.213	39.26
224.432	41.5
224.651	31.57
224.87	32.83
225.089	45.36
225.308	39.09
225.527	30.58
225.746	27.3
225.965	16.77
226.184	15.44
226.404	-8.05
226.623	0.72
226.842	0.8
227.061	12.5
227.28	29.54
227.499	40.89
227.718	37.91
227.936	41.17
228.155	33.21
228.374	34.24
228.593	22.09
228.812	15.65
229.031	-0.59
229.25	14
229.469	25.24
229.688	31.62
229.907	28.53
230.125	36.71
230.344	44.1
230.563	60.79
230.782	46.8
231.001	41.93
231.22	33.42
231.438	30.96
231.657	36.49
231.876	33
232.095	17.74
232.313	36.78
232.532	46.03
232.751	50.91
232.969	56.9
233.188	48.02
233.407	49.2
233.625	53.61
233.844	43.6
234.063	31.49
234.281	32.32
234.5	28.07
234.719	30.35
234.937	32.28
235.156	26.95
235.374	25.67
235.593	27.48
235.811	29.71
236.03	29.8
236.249	34.27
236.467	42.42
236.686	54.36
236.904	47.85
237.123	46.09
237.341	45.94
237.559	44.72
237.778	50.77
237.996	37.66
238.215	29.31
238.433	37.48
238.652	28.59
238.87	30
239.088	23.43
239.307	15.91
239.525	9.28
239.743	7.16
239.962	1.96
240.18	26.44
240.398	16.9
240.617	28.05
240.835	26.02
241.053	43.17
241.271	53.08
241.49	49.22
241.708	39.77
241.926	38.58
242.144	44.57
242.363	45.73
242.581	30.93
242.799	19.83
243.017	28.37
243.235	21.18
243.453	33.7
243.672	27.61
243.89	30.83
244.108	46.9
244.326	53.2
244.544	46.3
244.762	54.37
244.98	43.42
245.198	38.41
245.416	37.61
245.634	24.26
245.852	35.54
246.07	33.45
246.288	31.2
246.506	35.88
246.724	58.41
246.942	61.44
247.16	63.93
247.378	44.87
247.596	56.86
247.814	36.29
248.032	35.34
248.25	14.77
248.468	13.83
248.685	8
248.903	-2.9
249.121	-11.87
249.339	-5.09
249.557	9.09
249.775	-2.46
249.992	-5.89
250.21	-5.78
250.428	5
250.646	14.95
250.863	22.5
251.081	7.07
251.299	32.61
251.517	30.8
251.734	27.33
251.952	45.14
252.17	27.7
252.387	15.72
252.605	21.91
252.823	7.42
253.04	18.42
253.258	25.14
253.475	4.44
253.693	22.82
253.911	34.83
254.128	28.16
254.346	28
254.563	20.6
254.781	14.66
254.998	14.75
255.216	7.5
255.433	2.06
255.651	4.3
255.868	15.42
256.086	12.96
256.303	20.45
256.521	15.72
256.738	11.34
256.956	17.05
257.173	20.28
257.39	10.89
257.608	17.99
257.825	13.84
258.043	18.63
258.26	18.28
258.477	20.88
258.695	22.86
258.912	27.29
259.129	19.85
259.346	25.57
259.564	28.86
259.781	31.36
259.998	28.48
260.216	21.03
260.433	21.02
260.65	21.82
260.867	10.73
261.084	24.21
261.302	19.23
261.519	0.61
261.736	-4.32
261.953	-5.41
262.17	3.53
262.387	8.8
262.604	-18.27
262.822	-17.07
263.039	-3.91
263.256	0.49
263.473	-7.26
263.69	-16.35
263.907	-6.21
264.124	5.33
264.341	5.98
264.558	9.59
264.775	14.53
264.992	21.47
265.209	35.15
265.426	32.51
265.643	35.5
265.86	32.98
266.077	25.49
266.294	28.92
266.51	27.46
266.727	14.67
266.944	1.46
267.161	4.29
267.378	-1.15
267.595	2.11
267.812	-10.82
268.028	-6.61
268.245	-4.61
268.462	0.59
268.679	-0.3
268.896	6.29
269.112	24.4
269.329	34.56
269.546	41.05
269.763	56.03
269.979	50.66
270.196	49.19
270.413	51.58
270.629	43.96
270.846	40.07
271.063	36.4
271.279	23.12
271.496	19.16
271.712	14
271.929	14.33
272.146	14.68
272.362	-9.23
272.579	-7.76
272.795	0.64
273.012	4.35
273.228	0.13
273.445	0.86
273.661	-1.39
273.878	17.74
274.094	14.86
274.311	13.48
274.527	21.14
274.744	20.37
274.96	22.37
275.177	36.82
275.393	35.29
275.609	40.87
275.826	38.45
276.042	41.97
276.259	48.87
276.475	41.16
276.691	36.91
276.908	34.72
277.124	28.76
277.34	30.74
277.557	24.03
277.773	21.54
277.989	25.98
278.205	14.93
278.422	20.66
278.638	30.52
278.854	29
279.07	19.68
279.286	16.53
279.503	13.67
279.719	30.3
279.935	13.41
280.151	9.41
280.367	7.39
280.583	15.55
280.799	20.57
281.016	24.32
281.232	11.97
281.448	14.27
281.664	11.85
281.88	18.55
282.096	15.48
282.312	4.86
282.528	-9.41
282.744	-8.24
282.96	8.24
283.176	15.75
283.392	18.66
283.608	28.82
283.824	28.26
284.04	41.49
284.256	40.29
284.471	38.35
284.687	35.59
284.903	25.76
285.119	14.36
285.335	16.3
285.551	14.67
285.767	24.41
285.982	19.05
286.198	2.41
286.414	20.43
286.63	28.57
286.846	29.98
287.061	28.35
287.277	27.26
287.493	31.64
287.709	33.76
287.924	33.52
288.14	39.66
288.356	50.46
288.571	48.76
288.787	54.24
289.003	55.48
289.218	60.09
289.434	50.71
289.65	50.44
289.865	36.64
290.081	33.91
290.296	27.06
290.512	24.74
290.727	31.1
290.943	28.17
291.159	20.7
291.374	31.73
291.59	24.9
291.805	22.21
292.021	21.16
292.236	18.25
292.451	25.74
292.667	24.22
292.882	13.87
293.098	23.81
293.313	16.74
293.529	22.43
293.744	22.37
293.959	24.46
294.175	21.35
294.39	39.02
294.605	37.28
294.821	42.31
295.036	26.94
295.251	25.25
295.467	20.61
295.682	29.57
295.897	21.23
296.112	24.48
296.328	24.74
296.543	31.12
296.758	28.28
296.973	34.56
297.188	26.91
297.404	30.77
297.619	25.76
297.834	29.2
298.049	25.44
298.264	23.51
298.479	15.58
298.694	27.84
298.909	10.75
299.125	11.86
299.34	-3.3
299.555	10.07
299.77	7.39
299.985	8.85
300.2	2.76
300.415	14.1
300.63	6.3
300.845	19.2
301.06	13.81
301.275	20.62
301.49	27.91
301.704	24.02
301.919	17.05
302.134	18.05
302.349	7.12
302.564	-16.17
302.779	-19.24
302.994	-40.4
303.209	-46.35
303.423	-22.37
303.638	-18.57
303.853	-5.44
304.068	25.05
304.283	18.47
304.497	28.64
304.712	35.04
304.927	19.86
305.142	20.67
305.356	30.44
305.571	30.92
305.786	34.83
306	37.12
306.215	35.39
306.43	50.56
306.644	54.75
306.859	38.44
307.074	29.74
307.288	28.3
307.503	25.36
307.717	24.01
307.932	21.36
308.147	18.12
308.361	25.49
308.576	24.19
308.79	27.29
309.005	27.85
309.219	30.66
309.434	30.54
309.648	23.16
309.863	23.96
310.077	20.59
310.292	16.21
310.506	28
310.72	26.81
310.935	25.09
311.149	30.19
311.364	29.89
311.578	32.57
311.792	34.61
312.007	19.15
312.221	14.54
312.435	11
312.649	-26.35
312.864	-28.72
313.078	-11.74
313.292	-5.05
313.507	12.65
313.721	17
313.935	42.32
314.149	52.52
314.363	51.43
314.578	70.8
314.792	59.36
315.006	53.53
315.22	53.17
315.434	35.11
315.648	42.76
315.862	45.22
316.077	31.63
316.291	42.62
316.505	49.47
316.719	34.31
316.933	38.44
317.147	35.95
317.361	39.35
317.575	39.78
317.789	36.3
318.003	34.56
318.217	46.15
318.431	48.88
318.645	52.5
318.859	37.76
319.073	27.56
319.287	25.33
319.5	22.61
319.714	26.1
319.928	26.48
320.142	20.15
320.356	32.64
320.57	26.6
320.784	33.42
320.997	35.98
321.211	30.01
321.425	22.68
321.639	26.78
321.853	19.88
322.066	32.39
322.28	30.64
322.494	32.92
322.707	25.17
322.921	30.38
323.135	31.38
323.349	32.7
323.562	28.55
323.776	23.52
323.989	12.58
324.203	16.71
324.417	7.85
324.63	1.45
324.844	-0.79
325.057	-1.16
325.271	-13.55
325.485	-2.83
325.698	2.57
325.912	17.53
326.125	21.37
326.339	29.69
326.552	35.15
326.766	54.89
326.979	53.77
327.193	52.91
327.406	45.58
327.619	42.17
327.833	23.05
328.046	10.15
328.26	-16.61
328.473	-17.57
328.686	-15.74
328.9	-11.02
329.113	-4.98
329.326	10.38
329.54	16.12
329.753	24.91
329.966	26.89
330.179	31.97
330.393	30.4
330.606	32.43
330.819	33.5
331.032	37.48
331.246	34.14
331.459	40.54
331.672	35.96
331.885	33.1
332.098	35.92
332.311	14.9
332.525	22.09
332.738	22.59
332.951	21.39
333.164	17.5
333.377	8.5
333.59	14.43
333.803	25.33
334.016	15.55
334.229	24.25
334.442	14.3
334.655	24.37
334.868	35.11
335.081	31.56
335.294	33.33
335.507	36.48
335.72	22.41
335.933	31.32
336.146	28.79
336.359	22.39
336.572	13.06
336.785	14.39
336.997	3.72
337.21	15.2
337.423	8.12
337.636	12.4
337.849	15.7
338.062	25.15
338.274	24.93
338.487	30.62
338.7	30.94
338.913	31.45
339.125	28.81
339.338	31.42
339.551	35.45
339.763	35.17
339.976	29.05
340.189	19.22
340.402	21.24
340.614	18.75
340.827	14.89
341.039	6.55
341.252	5.05
341.465	0.24
341.677	1.22
341.89	2.35
342.102	9.25
342.315	21.3
342.527	19.27
342.74	16.77
342.952	17.1
343.165	20.01
343.377	16.86
343.59	15.8
343.802	10.73
344.015	14.91
344.227	14.3
344.44	20.99
344.652	30.98
344.864	31.96
345.077	26.79
345.289	19.36
345.502	22.98
345.714	20.58
345.926	14.02
346.139	4.59
346.351	-16.7
346.563	-1.98
346.775	-7.92
346.988	-17.18
347.2	-10.11
347.412	-2.82
347.624	0.62
347.837	9.17
348.049	6.68
348.261	11.69
348.473	14.19
348.685	23.99
348.897	22.62
349.11	23.7
349.322	31.82
349.534	16.83
349.746	25.09
349.958	31.97
350.17	25.8
350.382	20.01
350.594	15.82
350.806	24.01
351.018	32.96
351.23	26.2
351.442	18.98
351.654	26.29
351.866	33.85
352.078	35.2
352.29	31.33
352.502	32.86
352.714	35.08
352.926	40.23
353.138	31.6
353.35	21.75
353.561	14.67
353.773	8.22
353.985	6.54
354.197	1.14
354.409	6.65
354.621	8.93
354.832	9.9
355.044	20.65
355.256	22.66
355.468	27.06
355.679	35.89
355.891	32.35
356.103	29.61
356.314	34.01
356.526	22.94
356.738	24.58
356.949	21.37
357.161	21.56
357.373	11.01
357.584	23.11
357.796	18.16
358.008	24.1
358.219	27.44
358.431	32.23
358.642	24.9
358.854	26.38
359.065	18.74
359.277	23.97
359.488	18.03
359.7	21.89
359.911	18.23
360.123	21.1
360.334	26.16
360.546	17.71
360.757	15.97
360.969	25.61
361.18	17.87
361.391	20.18
361.603	19.56
361.814	18.11
362.025	22.42
362.237	23.26
362.448	23.03
362.659	19.69
362.871	21.4
363.082	23.76
363.293	26.42
363.504	28.48
363.716	30.49
363.927	28.5
364.138	36.08
364.349	35.41
364.56	32.61
364.772	30.6
364.983	19.74
365.194	17.08
365.405	14.74
365.616	5.51
365.827	1.42
366.038	10.53
366.25	12.94
366.461	26.57
366.672	20.78
366.883	31.57
367.094	29.42
367.305	30.07
367.516	23.44
367.727	18.1
367.938	19.57
368.149	29.01
368.36	21.01
368.571	25.73
368.781	22.81
368.992	23.71
369.203	27.75
369.414	22.68
369.625	18.49
369.836	19.86
370.047	15.49
370.258	14.54
370.468	11.99
370.679	4.93
370.89	21.12
371.101	13.26
371.312	8.04
371.522	7.76
371.733	5.29
371.944	12.12
372.155	6.5
372.365	-9.41
372.576	-3.21
372.787	1.87
372.997	1.52
373.208	6.84
373.419	2.87
373.629	14.04
373.84	8.55
374.05	6.7
374.261	1.35
374.472	4.05
374.682	-2.48
374.893	-10.41
375.103	-9.65
375.314	-2.11
375.524	0.03
375.735	1.73
375.945	-2.63
376.156	4.34
376.366	13.29
376.577	8.57
376.787	10.91
376.997	12.4
377.208	11.21
377.418	19.82
377.629	18.69
377.839	20.87
378.049	29.39
378.26	23.25
378.47	24.89
378.68	25.66
378.89	18.23
379.101	9.49
379.311	-2.86
379.521	-8.58
379.732	-15.93
379.942	-16.89
380.152	-10.55
380.362	-5.94
380.572	0.43
380.783	7.03
380.993	12.41
381.203	22.17
381.413	24.56
381.623	23.51
381.833	24.07
382.043	23.84
382.253	24.53
382.463	23.87
382.674	19.69
382.884	14.39
383.094	12.74
383.304	13.67
383.514	20.03
383.724	18.38
383.934	15.99
384.144	18.97
384.353	22.07
384.563	18.87
384.773	15.75
384.983	10.88
385.193	10.4
385.403	13.85
385.613	9.63
385.823	5.49
386.033	5.7
386.242	7.09
386.452	7.56
386.662	9.04
386.872	6.51
387.082	8.23
387.291	11.91
387.501	12.88
387.711	10.24
387.921	8.23
388.13	7.62
388.34	7.36
388.55	9.25
388.759	8.36
388.969	5.96
389.179	7.64
389.388	8.71
389.598	8.32
389.807	6.67
390.017	4.28
390.227	2
390.436	2.67
390.646	1.76
390.855	2.53
391.065	2.5
391.274	1.47
391.484	2.47
391.693	3.89
391.903	4.34
392.112	4.89
392.322	5.8
392.531	5.18
392.74	4.28
392.95	5.02
393.159	4.36
393.369	4.38
393.578	5.72
393.787	4.38
393.997	5.95
394.206	6.54
394.415	5.97
394.625	5.6
394.834	5.04
395.043	4.59
395.252	4.56
395.462	3.68
395.671	4.18
395.88	4.15
396.089	4.19
396.298	4.28
396.508	3.84
396.717	4.13
396.926	3.72
397.135	3.45
397.344	3.26
397.553	3.7
397.762	3.86
397.971	3.82
398.181	3.39
398.39	3.86
398.599	3.96
398.808	3.97
399.017	4.36
399.226	4.6
399.435	4.5
399.644	4.7
399.853	4.53
400.062	4.42
400.27	4.43
400.479	3.91
400.688	3.79
400.897	4.11
401.106	4.08
401.315	4.06
401.524	4.26
401.733	4.44
401.941	4.4
402.15	4.14
402.359	3.97
402.568	3.94
402.777	3.78
402.985	3.62
403.194	3.6
403.403	3.46
403.612	3.66
403.82	3.67
404.029	3.61
404.238	3.74
404.446	3.69
404.655	3.46
404.864	3.57
405.072	3.47
405.281	3.31
405.489	3.28
405.698	3.15
405.906	3.13
406.115	3.23
406.324	3.22
406.532	3.24
406.741	3.35
406.949	3.38
407.158	3.51
407.366	3.52
407.574	3.58
407.783	3.45
407.991	3.3
408.2	3.22
408.408	3.2
408.617	3.08
408.825	3.1
409.033	2.99
409.242	3.01
409.45	3.08
409.658	3.11
409.867	3.13
410.075	3.15
410.283	3.05
410.491	3.12
410.7	3.22
410.908	3.23
411.116	3.17
411.324	3.19
411.533	3.07
411.741	3.11
411.949	3.05
412.157	3.05
412.365	3.02
412.573	3.09
412.781	3.08
412.99	3.25
413.198	3.3
413.406	3.28
413.614	3.27
413.822	3.26
414.03	3.15
414.238	3.22
414.446	3.09
414.654	3.05
414.862	3.03
415.07	3.03
415.278	2.98
415.486	3.13
415.694	2.99
415.902	3.02
416.109	3.04
416.317	3.03
416.525	3.08
416.733	3.18
416.941	2.98
417.149	3.11
417.357	3.15
417.564	3.09
417.772	3.14
417.98	3.01
418.188	2.82
418.395	2.87
418.603	2.74
418.811	2.72
419.019	2.81
419.226	2.84
419.434	2.81
419.642	2.99
419.849	3.04
420.057	3.03
420.265	2.96
420.472	2.85
420.68	2.75
420.887	2.77
421.095	2.8
421.302	2.86
421.51	2.99
421.717	3.08
421.925	3.02
422.132	3.04
422.34	3.1
422.547	2.99
422.755	2.88
422.962	2.76
423.17	2.76
423.377	2.93
423.585	2.98
423.792	2.87
423.999	2.86
424.207	2.77
424.414	2.82
424.621	2.9
424.829	2.8
425.036	2.72
425.243	2.89
425.451	2.95
425.658	3.1
425.865	2.95
426.072	2.85
426.28	2.86
426.487	2.82
426.694	2.76
426.901	2.68
427.108	2.67
427.315	2.89
427.523	2.91
427.73	2.98
427.937	3.01
428.144	3.01
428.351	3.13
428.558	3.08
428.765	2.94
428.972	2.92
429.179	2.81
429.386	2.86
429.593	2.82
429.8	2.81
430.007	2.86
430.214	2.87
430.421	2.92
430.628	2.82
430.835	2.84
431.042	2.87
431.249	2.85
431.456	2.88
431.662	2.92
431.869	2.95
432.076	3.09
432.283	3.04
432.49	3.01
432.697	3.03
432.903	3.12
433.11	3.17
433.317	3.19
433.524	3.11
433.73	3.2
433.937	3.23
434.144	3.28
434.35	3.2
434.557	3.13
434.764	3.08
434.97	3.15
435.177	3.1
435.384	3.19
435.59	3.2
435.797	3.17
436.003	3.19
436.21	3.15
436.416	3.1
436.623	3.25
436.829	3.25
437.036	3.17
437.242	3.21
437.449	3.28
437.655	3.41
437.862	3.44
438.068	3.44
438.275	3.39
438.481	3.49
438.687	3.53
438.894	3.51
439.1	3.54
439.307	3.55
439.513	3.49
439.719	3.54
439.926	3.59
440.132	3.57
440.338	3.61
440.544	3.58
440.751	3.63
440.957	3.6
441.163	3.58
441.369	3.54
441.575	3.55
441.782	3.51
441.988	3.49
442.194	3.57
442.4	3.67
442.606	3.68
442.812	3.72
443.018	3.74
443.224	3.85
443.431	3.89
443.637	3.79
443.843	3.78
444.049	3.78
444.255	3.71
444.461	3.74
444.667	3.66
444.873	3.62
445.079	3.67
445.284	3.61
445.49	3.59
445.696	3.65
445.902	3.67
446.108	3.7
446.314	3.72
446.52	3.78
446.726	3.86
446.931	3.94
447.137	3.96
447.343	3.95
447.549	3.96
447.755	3.97
447.96	3.89
448.166	3.93
448.372	3.92
448.578	3.95
448.783	3.94
448.989	3.99
449.195	4
449.4	4.03
449.606	3.96
449.812	3.97
450.017	3.93
450.223	3.94
450.428	3.93
450.634	3.95
450.84	3.96
451.045	3.95
451.251	4.01
451.456	4.01
451.662	4.03
451.867	4.02
452.073	4.01
452.278	4.01
452.483	4.05
452.689	3.98
452.894	4
453.1	3.97
453.305	3.98
453.51	4.01
453.716	4.03
453.921	4.03
454.127	4.02
454.332	4.04
454.537	4.12
454.742	4.15
454.948	4.12
455.153	4.17
455.358	4.22
455.563	4.26
455.769	4.25
455.974	4.22
456.179	4.19
456.384	4.21
456.589	4.24
456.795	4.17
457	4.24
457.205	4.25
457.41	4.24
457.615	4.29
457.82	4.38
458.025	4.32
458.23	4.39
458.435	4.3
458.64	4.39
458.845	4.4
459.05	4.4
459.255	4.36
459.46	4.4
459.665	4.43
459.87	4.5
460.075	4.47
460.28	4.53
460.485	4.62
460.69	4.61
460.895	4.65
461.099	4.66
461.304	4.65
461.509	4.63
461.714	4.65
461.919	4.51
462.123	4.61
462.328	4.6
462.533	4.62
462.738	4.65
462.942	4.75
463.147	4.74
463.352	4.85
463.556	4.89
463.761	4.89
463.966	4.95
464.17	4.99
464.375	4.96
464.58	4.97
464.784	4.99
464.989	4.96
465.193	5.01
465.398	4.98
465.602	4.98
465.807	5.03
466.011	5.15
466.216	5.16
466.42	5.21
466.625	5.24
466.829	5.32
467.034	5.39
467.238	5.41
467.443	5.39
467.647	5.4
467.851	5.44
468.056	5.43
468.26	5.38
468.464	5.36
468.669	5.38
468.873	5.39
469.077	5.45
469.282	5.45
469.486	5.55
