Data from Ofra_PS_T2_1A_6GT17_Reflection_1.txt Node
Date: Wed Jul 21 18:13:24 EDT 2021
User: Adam
Spectrometer: FLMT01687
Trigger mode: 0
Integration Time (sec): 1.100000E0
Scans to average: 2
Electric dark correction enabled: true
Nonlinearity correction enabled: false
Boxcar width: 2
XAxis mode: Wavelengths
Number of Pixels in Spectrum: 3648
>>>>>Begin Spectral Data<<<<<
179.494	571.6
179.716	620.24
179.937	607.16
180.158	608.87
180.38	922.19
180.601	422.38
180.823	154.86
181.044	-18.72
181.265	32.72
181.486	77.88
181.708	48.38
181.929	525.51
182.15	-197.89
182.372	92.4
182.593	63.94
182.814	13.51
183.035	86.7
183.257	54.93
183.478	-11.38
183.699	31.75
183.92	-23.44
184.141	-39.52
184.363	-102.36
184.584	-55.56
184.805	-38.45
185.026	26.92
185.247	44.41
185.468	32.48
185.689	34.93
185.91	30.59
186.132	14.38
186.353	-5.24
186.574	43.3
186.795	39.09
187.016	13.71
187.237	-6.4
187.458	-18.25
187.679	-20.18
187.9	-12.42
188.121	-24.14
188.342	-16.96
188.563	37.48
188.784	51.95
189.005	52.92
189.226	112.52
189.447	90.65
189.667	-68.2
189.888	-259.85
190.109	-1055.19
190.33	-624.84
190.551	-979.2
190.772	-199.64
190.993	-201.79
191.214	-155.79
191.434	-94.13
191.655	-17.98
191.876	-60.12
192.097	-109
192.318	-153.59
192.538	-285.78
192.759	-220.47
192.98	-105.18
193.201	-42.77
193.421	-6.13
193.642	9.76
193.863	24.86
194.083	5.1
194.304	1.78
194.525	-2.61
194.745	1.68
194.966	-30.01
195.187	-29.57
195.407	-49.64
195.628	-123.12
195.848	-151.99
196.069	-120.53
196.29	-69.5
196.51	-85.04
196.731	-74.2
196.951	-64.25
197.172	-78.79
197.392	-114.68
197.613	-115.55
197.833	-115.83
198.054	-98.56
198.274	-57.9
198.495	-86.13
198.715	-42.33
198.936	-65.58
199.156	-63.48
199.377	-158.85
199.597	-127.88
199.817	-166.69
200.038	-106.89
200.258	-170
200.479	-102.08
200.699	-140.37
200.919	-28.54
201.14	-12.76
201.36	-21.35
201.58	17.97
201.801	38.56
202.021	1.55
202.241	-6.99
202.461	-9.61
202.682	-112.49
202.902	-158.71
203.122	-94.72
203.342	-91.03
203.563	-27.23
203.783	8.25
204.003	-30.49
204.223	-15.94
204.443	30.39
204.663	-4.18
204.884	-11.6
205.104	11.61
205.324	21.21
205.544	8.92
205.764	39.09
205.984	42.47
206.204	57.53
206.424	41.7
206.644	11.82
206.864	18
207.084	-27.97
207.304	-39.48
207.525	-111.41
207.745	-59.01
207.964	-23.67
208.184	-55.46
208.404	-84.87
208.624	-97.24
208.844	-54.78
209.064	-328.23
209.284	-308.42
209.504	-158.63
209.724	-31.15
209.944	-52.28
210.164	-22.89
210.384	-11.88
210.604	-3.63
210.823	-46.99
211.043	-67.1
211.263	-44.58
211.483	-36.99
211.703	-92.6
211.922	-79.42
212.142	-7.64
212.362	2.76
212.582	-8.07
212.801	0.76
213.021	-11.3
213.241	-3.69
213.461	-44.77
213.68	-63.26
213.9	-36.6
214.12	-6.39
214.339	-72.85
214.559	-41.27
214.779	-1.07
214.998	-11.63
215.218	-42.72
215.438	-19.77
215.657	-23.8
215.877	-9.74
216.096	24.5
216.316	21
216.535	22.07
216.755	15.28
216.974	-64.37
217.194	-149.2
217.413	-142.59
217.633	-152.17
217.852	-227.93
218.072	-97.07
218.291	-51.59
218.511	5.21
218.73	-1.66
218.95	-13.18
219.169	-17.53
219.389	-43.78
219.608	-41.68
219.827	-37.31
220.047	-1.93
220.266	6.25
220.485	14.24
220.705	35.73
220.924	14.74
221.143	28.03
221.363	11.55
221.582	24.19
221.801	24.48
222.021	39.73
222.24	-39.32
222.459	10.41
222.678	-51.33
222.897	-155.14
223.117	-201.79
223.336	-126.66
223.555	-84.63
223.774	-61.94
223.993	-48.81
224.213	6.92
224.432	-19.06
224.651	22.12
224.87	23.08
225.089	32.35
225.308	11.59
225.527	27.97
225.746	8.15
225.965	-2.05
226.184	-29.39
226.404	14.59
226.623	-0.35
226.842	-0.48
227.061	21.79
227.28	30.47
227.499	22.57
227.718	24.67
227.936	18.14
228.155	28.83
228.374	24.29
228.593	9.68
228.812	13.99
229.031	12.78
229.25	-35.43
229.469	-53.1
229.688	-41.73
229.907	-7.04
230.125	5.57
230.344	7.42
230.563	7.01
230.782	16.34
231.001	-51.7
231.22	-59.21
231.438	-40.66
231.657	-23.1
231.876	-40.63
232.095	18.45
232.313	34.27
232.532	25.56
232.751	13.07
232.969	-4.42
233.188	-80.05
233.407	-18.08
233.625	-10.15
233.844	-23.72
234.063	0.99
234.281	8.81
234.5	-10.05
234.719	10.62
234.937	42.37
235.156	28.59
235.374	25.57
235.593	22.8
235.811	-13.46
236.03	-39.59
236.249	-80.68
236.467	-80.9
236.686	-41.68
236.904	-1.94
237.123	-31.09
237.341	-5.69
237.559	4.96
237.778	-3.55
237.996	-25.54
238.215	28.29
238.433	27.96
238.652	32.63
238.87	8.22
239.088	11.63
239.307	-4.44
239.525	-17.53
239.743	-38.6
239.962	-22.97
240.18	-28.94
240.398	-69.58
240.617	-101.33
240.835	-86.62
241.053	-51.14
241.271	-27.39
241.49	6.56
241.708	33.01
241.926	28.18
242.144	10.6
242.363	-44.41
242.581	-64.15
242.799	-31.88
243.017	7.85
243.235	-7.86
243.453	18.1
243.672	2.84
243.89	-2.11
244.108	-22.24
244.326	-7.4
244.544	-8.26
244.762	3.49
244.98	9.23
245.198	15.81
245.416	-6.26
245.634	-17.48
245.852	-33.8
246.07	-56.55
246.288	-82.3
246.506	-101.62
246.724	-66.9
246.942	-52.09
247.16	-10.79
247.378	22.05
247.596	40.69
247.814	24.28
248.032	2.72
248.25	4.32
248.468	5.01
248.685	8.81
248.903	27.89
249.121	36.56
249.339	11.82
249.557	-7.74
249.775	10.86
249.992	-46.22
250.21	-53.04
250.428	-40.98
250.646	-63.46
250.863	-104.06
251.081	-59.35
251.299	-44.9
251.517	-30.88
251.734	-3.17
251.952	6.86
252.17	4.86
252.387	13.59
252.605	-0.94
252.823	-4.49
253.04	11.71
253.258	22.06
253.475	4.93
253.693	14.21
253.911	22.6
254.128	16.95
254.346	-4.11
254.563	-10.07
254.781	-25.4
254.998	-68.47
255.216	-89.56
255.433	-75.14
255.651	-38.82
255.868	1.2
256.086	60.22
256.303	48.35
256.521	44.97
256.738	23.27
256.956	-7.71
257.173	-48.11
257.39	-39.86
257.608	-62.54
257.825	10.96
258.043	32.68
258.26	26.24
258.477	53.07
258.695	51.92
258.912	-36.86
259.129	-20.41
259.346	-52.78
259.564	-86.86
259.781	-115.34
259.998	-33.76
260.216	-19.01
260.433	41.38
260.65	36.77
260.867	50.59
261.084	14.27
261.302	11.46
261.519	4.02
261.736	-10.68
261.953	-38.74
262.17	8.92
262.387	-19.44
262.604	-62.03
262.822	-79.86
263.039	-51.81
263.256	-124.61
263.473	-92.22
263.69	-75.28
263.907	-28.08
264.124	-25.92
264.341	-18.49
264.558	-21.29
264.775	1.17
264.992	-13.19
265.209	-7.58
265.426	11.45
265.643	20.96
265.86	31.28
266.077	22.56
266.294	20.87
266.51	-20.81
266.727	-38.15
266.944	-48.57
267.161	-24.78
267.378	-34.02
267.595	11.66
267.812	-18.08
268.028	-28.27
268.245	-6.42
268.462	-11.47
268.679	-29.9
268.896	26.3
269.112	19.84
269.329	-12.65
269.546	-14.69
269.763	-15.4
269.979	-32.95
270.196	-46.34
270.413	-63
270.629	-73.65
270.846	-71.74
271.063	-72.15
271.279	-75.69
271.496	-54.06
271.712	-18.55
271.929	-8.3
272.146	-17.79
272.362	16.41
272.579	26.5
272.795	35.05
273.012	39.24
273.228	53.47
273.445	26.41
273.661	24.2
273.878	-16.82
274.094	-37.93
274.311	-85.42
274.527	-13.46
274.744	-16.52
274.96	-26.03
275.177	-2.45
275.393	20.86
275.609	7.11
275.826	25.44
276.042	22.82
276.259	23.38
276.475	33.43
276.691	42.41
276.908	26.29
277.124	43.43
277.34	28.99
277.557	13.75
277.773	-7.72
277.989	-10.77
278.205	-18.24
278.422	4.5
278.638	-1.87
278.854	24.36
279.07	29.29
279.286	13.39
279.503	-28.4
279.719	-13.61
279.935	-49.89
280.151	-63.34
280.367	-35.76
280.583	-35.94
280.799	-32.83
281.016	-55.89
281.232	-19.13
281.448	-21.86
281.664	-2.89
281.88	-32.1
282.096	6.17
282.312	11.78
282.528	27.16
282.744	43.9
282.96	59.74
283.176	28.02
283.392	25.71
283.608	17.04
283.824	-1.36
284.04	-3.23
284.256	3.32
284.471	-18.89
284.687	-34.76
284.903	-12.48
285.119	-3.67
285.335	-17.91
285.551	6.47
285.767	12.41
285.982	-5.64
286.198	-40.38
286.414	-9.67
286.63	-9.79
286.846	17.59
287.061	7.22
287.277	34.58
287.493	15.62
287.709	21.18
287.924	-11.83
288.14	20.17
288.356	30.74
288.571	54.69
288.787	33.91
289.003	44.43
289.218	20.15
289.434	-18.59
289.65	-34.53
289.865	-34.41
290.081	-27.9
290.296	-8.12
290.512	-8.29
290.727	-19.08
290.943	-21.05
291.159	-32.17
291.374	-42.9
291.59	-56.6
291.805	-44.79
292.021	-31.38
292.236	-24.56
292.451	2.83
292.667	10.37
292.882	24.4
293.098	14.11
293.313	-7.86
293.529	-40.55
293.744	-43.19
293.959	-46.98
294.175	-30.87
294.39	-2.67
294.605	12.95
294.821	35.85
295.036	40.17
295.251	42.57
295.467	16.3
295.682	-5.54
295.897	-63.61
296.112	-90.56
296.328	-95.04
296.543	-92.65
296.758	-68.4
296.973	-20.29
297.188	20.48
297.404	-4.64
297.619	-14.49
297.834	-25.44
298.049	-44.46
298.264	-58.99
298.479	2.88
298.694	9.85
298.909	25.42
299.125	23.6
299.34	21.57
299.555	-13.11
299.77	-11.19
299.985	-61.5
300.2	-98.45
300.415	-110.43
300.63	-85.66
300.845	-84.12
301.06	-86.99
301.275	-62.49
301.49	-38.48
301.704	-42.95
301.919	-60.38
302.134	-55.38
302.349	-43.61
302.564	-113.05
302.779	-149.94
302.994	-104.78
303.209	-58.31
303.423	-37.92
303.638	32.18
303.853	-4.6
304.068	-6.45
304.283	-5.93
304.497	1.33
304.712	-14.39
304.927	9.49
305.142	4.29
305.356	0.34
305.571	-6.61
305.786	-30.22
306	-50.19
306.215	-58.1
306.43	-59.96
306.644	-79.91
306.859	-21.75
307.074	12.15
307.288	-6.14
307.503	-8.38
307.717	-15.35
307.932	-18.78
308.147	-28.18
308.361	-1.23
308.576	-12.85
308.79	-47.71
309.005	-29.36
309.219	-18.31
309.434	-43.2
309.648	-25.54
309.863	9.15
310.077	6.55
310.292	7.96
310.506	12.64
310.72	9.56
310.935	18.17
311.149	9.93
311.364	27.29
311.578	41.59
311.792	37.58
312.007	17.41
312.221	7.6
312.435	2.52
312.649	-11.94
312.864	11.81
313.078	44.31
313.292	100.14
313.507	77.31
313.721	88.4
313.935	34.57
314.149	19.78
314.363	11.79
314.578	4.89
314.792	10.44
315.006	-13.08
315.22	3.15
315.434	-1.97
315.648	8.66
315.862	2.2
316.077	19.85
316.291	6.57
316.505	9.49
316.719	2.98
316.933	-9.1
317.147	-18.72
317.361	-64.41
317.575	-72.61
317.789	-71.73
318.003	-125.29
318.217	-85.47
318.431	-6.76
318.645	23.88
318.859	5.44
319.073	39.12
319.287	22.68
319.5	-9.98
319.714	-57.56
319.928	-65.16
320.142	-85.57
320.356	-19.17
320.57	30.72
320.784	65.96
320.997	50.79
321.211	17.09
321.425	-52.16
321.639	-86.91
321.853	-37.99
322.066	-14.49
322.28	-4.07
322.494	6
322.707	13.46
322.921	-13.59
323.135	-22.16
323.349	-24.82
323.562	-33.43
323.776	-45.89
323.989	-41.08
324.203	-57.63
324.417	-63.7
324.63	-70.16
324.844	-65.41
325.057	-63.61
325.271	-51.55
325.485	-17.03
325.698	4.1
325.912	19.98
326.125	-5.23
326.339	-1.79
326.552	-19.42
326.766	-21.86
326.979	-6.55
327.193	36.97
327.406	26.86
327.619	8.03
327.833	9.03
328.046	-26.07
328.26	-65.45
328.473	-29.65
328.686	-36.63
328.9	-37.54
329.113	-14.58
329.326	-23.55
329.54	-15.53
329.753	-8.24
329.966	-21.42
330.179	8.2
330.393	27.54
330.606	11.8
330.819	17.61
331.032	29.21
331.246	25.03
331.459	40.29
331.672	36.54
331.885	32.33
332.098	13.86
332.311	2.89
332.525	-53.32
332.738	-51.4
332.951	-30.49
333.164	4.59
333.377	14.48
333.59	29.23
333.803	35.47
334.016	22.54
334.229	10.54
334.442	12.66
334.655	31.47
334.868	30.45
335.081	25.33
335.294	9.84
335.507	1.6
335.72	-9.64
335.933	-27.29
336.146	-36.68
336.359	-26.98
336.572	-53.86
336.785	-78.68
336.997	-60.68
337.21	-16.68
337.423	-5.37
337.636	3.02
337.849	30.93
338.062	40.25
338.274	27.54
338.487	11.48
338.7	15.74
338.913	-26.6
339.125	-63.8
339.338	-96.86
339.551	-92.13
339.763	-61.95
339.976	-40.29
340.189	-3.96
340.402	-8.89
340.614	-17.25
340.827	-20.59
341.039	-34.83
341.252	-38.38
341.465	-29.61
341.677	-24.12
341.89	-63.95
342.102	-26.55
342.315	-40.37
342.527	-59.21
342.74	-47.35
342.952	-6.97
343.165	-21.27
343.377	5.46
343.59	7.96
343.802	24.04
344.015	21.7
344.227	38.67
344.44	20.76
344.652	21.57
344.864	-4.26
345.077	11.9
345.289	15.95
345.502	14.88
345.714	9.71
345.926	23.29
346.139	21.03
346.351	15.11
346.563	30.62
346.775	36.7
346.988	21.89
347.2	3.5
347.412	-26.66
347.624	-49.9
347.837	-78.63
348.049	-45.36
348.261	-9.4
348.473	5.43
348.685	9.87
348.897	21.16
349.11	-4.6
349.322	-18.18
349.534	-8.45
349.746	2.45
349.958	-1.3
350.17	-3.85
350.382	4.36
350.594	-11.76
350.806	-30.39
351.018	-26.48
351.23	-32.85
351.442	-75.75
351.654	-59.96
351.866	-48.48
352.078	-52.14
352.29	-28.4
352.502	-5.08
352.714	5.91
352.926	3.02
353.138	15.43
353.35	-0.47
353.561	-3.81
353.773	-26.48
353.985	-15.57
354.197	-34.28
354.409	-30.2
354.621	-28.38
354.832	-19.2
355.044	-28
355.256	-22.33
355.468	-1.45
355.679	-2
355.891	8.28
356.103	-4.23
356.314	2.75
356.526	4.56
356.738	-4.85
356.949	-26.97
357.161	-4.77
357.373	-5.93
357.584	-28.47
357.796	-7.02
358.008	-9.28
358.219	7.46
358.431	-2.67
358.642	18.09
358.854	2.98
359.065	1.93
359.277	-36.28
359.488	-28.46
359.7	-68.33
359.911	-76.66
360.123	-55.99
360.334	-72.23
360.546	-96.19
360.757	-75.39
360.969	-48.63
361.18	-50.96
361.391	-9.99
361.603	-14.88
361.814	-2.54
362.025	-9.58
362.237	-1.16
362.448	5.84
362.659	29.49
362.871	19.65
363.082	22.4
363.293	15
363.504	1.76
363.716	-31.34
363.927	-38.82
364.138	-68.07
364.349	-82.37
364.56	-71.76
364.772	-62.23
364.983	-32.3
365.194	-20.95
365.405	-3.69
365.616	13.74
365.827	16.95
366.038	-12.66
366.25	-23.56
366.461	-60.82
366.672	-30.71
366.883	-15.25
367.094	-5.16
367.305	-12.2
367.516	11.13
367.727	-28.58
367.938	-38.9
368.149	-39.91
368.36	-17.7
368.571	-24.01
368.781	-35.94
368.992	-41.84
369.203	-56.69
369.414	-75.5
369.625	-83.17
369.836	-59.2
370.047	-81.7
370.258	-59.61
370.468	-59.68
370.679	-73.68
370.89	-68.77
371.101	-45.15
371.312	-51.06
371.522	-43.39
371.733	-17.79
371.944	1.5
372.155	8.83
372.365	1.19
372.576	4.75
372.787	-4.16
372.997	-33.69
373.208	-38.26
373.419	-0.82
373.629	-26.81
373.84	-32.68
374.05	-31.51
374.261	-15.52
374.472	-56.68
374.682	-11.27
374.893	-11.87
375.103	21.76
375.314	12.3
375.524	11.03
375.735	7.32
375.945	18.05
376.156	-12.6
376.366	-9.03
376.577	1.62
376.787	-7.77
376.997	-9.17
377.208	-6.57
377.418	-18.98
377.629	-12.87
377.839	-10.69
378.049	-10.57
378.26	7.51
378.47	18.86
378.68	9.35
378.89	5.68
379.101	-3
379.311	-35.1
379.521	-62.18
379.732	-52.05
379.942	-62.03
380.152	-73.63
380.362	-44.01
380.572	-39.55
380.783	-35.73
380.993	-15.14
381.203	-11.1
381.413	2.9
381.623	10.8
381.833	14.06
382.043	4.82
382.253	7.95
382.463	-2.11
382.674	-17.26
382.884	-38.1
383.094	-34.74
383.304	-26.87
383.514	-20.53
383.724	2.67
383.934	2.97
384.144	-5.34
384.353	-14.64
384.563	-17.9
384.773	-26.33
384.983	-28.63
385.193	-6.77
385.403	1.09
385.613	2.59
385.823	-3.05
386.033	2.04
386.242	-13.16
386.452	-17.76
386.662	-26.54
386.872	-13.23
387.082	-21.15
387.291	-29.12
387.501	-32.04
387.711	-22.87
387.921	-32.06
388.13	-24.27
388.34	-11.14
388.55	-9.13
388.759	-7.42
388.969	-0.9
389.179	-3.7
389.388	-1.21
389.598	5.08
389.807	-4.23
390.017	-8.57
390.227	-6.32
390.436	-10.97
390.646	-14.07
390.855	-9.98
391.065	-10.22
391.274	-8.44
391.484	-8.11
391.693	-5.39
391.903	-5.45
392.112	1.8
392.322	0.95
392.531	2.22
392.74	2.66
392.95	-0.5
393.159	-4.7
393.369	-2.59
393.578	-3.68
393.787	-5.91
393.997	-3.68
394.206	-4.13
394.415	-5.49
394.625	-4.27
394.834	-5.34
395.043	-4.4
395.252	-1.78
395.462	0.64
395.671	1.57
395.88	2.27
396.089	3.31
396.298	1.25
396.508	0.53
396.717	-0.36
396.926	0.56
397.135	0.25
397.344	0.7
397.553	0.89
397.762	2.35
397.971	2.09
398.181	1.84
398.39	1.45
398.599	1.36
398.808	0.92
399.017	1.48
399.226	2.84
399.435	3.24
399.644	3.2
399.853	2.7
400.062	2.23
400.27	1.55
400.479	1.19
400.688	0.41
400.897	0.58
401.106	0.9
401.315	0.75
401.524	1
401.733	1.76
401.941	2.29
402.15	2.12
402.359	2.03
402.568	2.21
402.777	2.28
402.985	1.84
403.194	1.94
403.403	2.12
403.612	1.92
403.82	1.54
404.029	1.63
404.238	1.3
404.446	1.45
404.655	1.23
404.864	1.3
405.072	1.15
405.281	1.32
405.489	1.03
405.698	1.04
405.906	1.15
406.115	1.19
406.324	1.22
406.532	1.39
406.741	1.85
406.949	1.82
407.158	1.82
407.366	1.86
407.574	1.73
407.783	1.57
407.991	1.38
408.2	1.5
408.408	1.46
408.617	1.38
408.825	1.21
409.033	1.38
409.242	1.42
409.45	1.48
409.658	1.52
409.867	1.7
410.075	1.62
410.283	1.59
410.491	1.6
410.7	1.5
410.908	1.51
411.116	1.81
411.324	1.64
411.533	1.59
411.741	1.85
411.949	1.83
412.157	1.56
412.365	1.63
412.573	1.59
412.781	1.49
412.99	1.33
413.198	1.43
413.406	1.42
413.614	1.49
413.822	1.3
414.03	1.37
414.238	1.23
414.446	1.33
414.654	1.11
414.862	1.33
415.07	1.37
415.278	1.62
415.486	1.41
415.694	1.58
415.902	1.4
416.109	1.31
416.317	1.16
416.525	1.02
416.733	0.97
416.941	1.16
417.149	1.09
417.357	1.08
417.564	1.43
417.772	1.65
417.98	1.55
418.188	1.55
418.395	1.67
418.603	1.83
418.811	1.43
419.019	1.48
419.226	1.75
419.434	1.75
419.642	1.45
419.849	1.67
420.057	1.6
420.265	1.62
420.472	1.35
420.68	1.44
420.887	1.46
421.095	1.57
421.302	1.37
421.51	1.58
421.717	1.63
421.925	1.7
422.132	1.53
422.34	1.38
422.547	1.47
422.755	1.22
422.962	1.11
423.17	1.09
423.377	1.24
423.585	1.2
423.792	1.24
423.999	1.29
424.207	1.34
424.414	1.46
424.621	1.35
424.829	1.48
425.036	1.38
425.243	1.48
425.451	1.34
425.658	1.21
425.865	1.19
426.072	1.18
426.28	1.27
426.487	1.26
426.694	1.44
426.901	1.33
427.108	1.4
427.315	1.22
427.523	1.53
427.73	1.53
427.937	1.52
428.144	1.35
428.351	1.31
428.558	1.18
428.765	1.09
428.972	1.02
429.179	1.22
429.386	1.49
429.593	1.31
429.8	1.2
430.007	1.37
430.214	1.42
430.421	1.26
430.628	1.26
430.835	1.3
431.042	1.4
431.249	1.38
431.456	1.35
431.662	1.41
431.869	1.61
432.076	1.64
432.283	1.77
432.49	1.72
432.697	1.65
432.903	1.4
433.11	1.21
433.317	1.23
433.524	1.52
433.73	1.55
433.937	1.86
434.144	1.84
434.35	1.73
434.557	1.45
434.764	1.5
434.97	1.34
435.177	1.61
435.384	1.59
435.59	1.75
435.797	1.94
436.003	2.01
436.21	1.84
436.416	1.9
436.623	1.86
436.829	1.9
437.036	1.98
437.242	2.05
437.449	2.07
437.655	2.06
437.862	2
438.068	1.89
438.275	1.99
438.481	2.07
438.687	2.1
438.894	1.98
439.1	2.01
439.307	2.07
439.513	1.97
439.719	1.95
439.926	2.13
440.132	2.15
440.338	1.92
440.544	2
440.751	1.95
440.957	1.98
441.163	1.87
441.369	2.02
441.575	1.85
441.782	1.96
441.988	1.8
442.194	1.81
442.4	1.8
442.606	2.12
442.812	2.1
443.018	2.18
443.224	2.24
443.431	2.31
443.637	2.02
443.843	1.96
444.049	1.97
444.255	1.89
444.461	1.9
444.667	1.93
444.873	2.03
445.079	2.01
445.284	2.19
445.49	1.91
445.696	1.84
445.902	1.73
446.108	1.64
446.314	1.48
446.52	1.59
446.726	1.84
446.931	1.91
447.137	1.97
447.343	2.1
447.549	2.11
447.755	1.99
447.96	2.07
448.166	1.99
448.372	1.92
448.578	2.01
448.783	2.03
448.989	1.97
449.195	2.09
449.4	2.14
449.606	2.07
449.812	1.96
450.017	2.01
450.223	1.9
450.428	1.79
450.634	1.9
450.84	2.1
451.045	2.1
451.251	2.13
451.456	2.48
451.662	2.57
451.867	2.59
452.073	2.6
452.278	2.69
452.483	2.67
452.689	2.54
452.894	2.56
453.1	2.53
453.305	2.46
453.51	2.33
453.716	2.25
453.921	2.27
454.127	2.17
454.332	2.09
454.537	2.03
454.742	2.1
454.948	1.97
455.153	2.09
455.358	2.25
455.563	2.37
455.769	2.41
455.974	2.45
456.179	2.33
456.384	2.31
456.589	2.23
456.795	2.09
457	2.08
457.205	2.3
457.41	2.26
457.615	2.24
457.82	2.38
458.025	2.41
458.23	2.28
458.435	2.28
458.64	2.22
458.845	2.26
459.05	2.23
459.255	2.23
459.46	2.32
459.665	2.39
459.87	2.42
460.075	2.44
460.28	2.51
460.485	2.48
460.69	2.44
460.895	2.25
461.099	2.22
461.304	2.37
461.509	2.39
461.714	2.39
