Data from Ofra_PS_T2_1A_0GT05_Reflection_1.txt Node
Date: Wed Jul 21 17:46:47 EDT 2021
User: Adam
Spectrometer: FLMT01687
Trigger mode: 0
Integration Time (sec): 1.100000E0
Scans to average: 2
Electric dark correction enabled: true
Nonlinearity correction enabled: false
Boxcar width: 2
XAxis mode: Wavelengths
Number of Pixels in Spectrum: 3648
>>>>>Begin Spectral Data<<<<<
179.494	591
179.716	641.65
179.937	608.62
180.158	606.94
180.38	842.34
180.601	222.51
180.823	88.43
181.044	-117.65
181.265	-54.6
181.486	38.81
181.708	95.09
181.929	362.76
182.15	-271.48
182.372	100.08
182.593	-16.99
182.814	13.81
183.035	30.65
183.257	16.44
183.478	-61.44
183.699	51.25
183.92	25.58
184.141	41.43
184.363	15.89
184.584	45.17
184.805	26.1
185.026	58.62
185.247	58.3
185.468	34.92
185.689	41.7
185.91	38.18
186.132	27.78
186.353	21.9
186.574	70.74
186.795	43.9
187.016	9.02
187.237	9.46
187.458	-7.84
187.679	-2.57
187.9	10.79
188.121	6.05
188.342	25.44
188.563	45.96
188.784	60.93
189.005	86.63
189.226	134.83
189.447	88.54
189.667	-55.7
189.888	-380.17
190.109	-1442.53
190.33	-807.58
190.551	-1620.13
190.772	-345.94
190.993	-264.38
191.214	-241.87
191.434	-152.86
191.655	-11.5
191.876	-55.02
192.097	-96.63
192.318	-156.92
192.538	-242.16
192.759	-198.52
192.98	-77.92
193.201	-27.86
193.421	-10.97
193.642	5.93
193.863	15.66
194.083	-6.29
194.304	-14.04
194.525	-3.92
194.745	-11.46
194.966	-43.06
195.187	-44.22
195.407	-64.3
195.628	-112.67
195.848	-133.84
196.069	-101.1
196.29	-64.44
196.51	-72.16
196.731	-72.22
196.951	-70.98
197.172	-105.72
197.392	-134.56
197.613	-127.05
197.833	-121.12
198.054	-112.05
198.274	-43.64
198.495	-55.72
198.715	-29.37
198.936	-69.55
199.156	-48.38
199.377	-181.76
199.597	-172.14
199.817	-161.31
200.038	-66.8
200.258	-134.4
200.479	-39.11
200.699	-17.62
200.919	30.06
201.14	0.61
201.36	-16.66
201.58	26.86
201.801	42.46
202.021	3.75
202.241	-1.25
202.461	-1.21
202.682	-95.95
202.902	-153.69
203.122	-110.54
203.342	-91.46
203.563	-25.43
203.783	11.87
204.003	-26.99
204.223	-29.18
204.443	15
204.663	-21.6
204.884	-39.72
205.104	22.2
205.324	68.76
205.544	66.76
205.764	72.73
205.984	87.14
206.204	70.82
206.424	48.42
206.644	28.84
206.864	10.5
207.084	-69.1
207.304	-57.22
207.525	-213.98
207.745	-127.91
207.964	-40.14
208.184	-69.93
208.404	-116.22
208.624	-105.22
208.844	-101.14
209.064	-376.21
209.284	-339.83
209.504	-151.55
209.724	-39.73
209.944	-10.62
210.164	28.16
210.384	36.44
210.604	49.77
210.823	20.06
211.043	-15.27
211.263	-11.53
211.483	-22.72
211.703	-99.89
211.922	-83.66
212.142	-17.75
212.362	-41.08
212.582	-40.1
212.801	-8.72
213.021	-18.87
213.241	-30.76
213.461	-54.83
213.68	-82.49
213.9	-76.64
214.12	-67.73
214.339	-141.25
214.559	-125.39
214.779	-38.97
214.998	-49.64
215.218	-70.77
215.438	-28.41
215.657	-28.63
215.877	-35.3
216.096	4.35
216.316	14.21
216.535	0.18
216.755	-8.02
216.974	-117.24
217.194	-190.33
217.413	-172.52
217.633	-165.37
217.852	-255.81
218.072	-97.49
218.291	-42.36
218.511	-15.59
218.73	-19.81
218.95	-3.7
219.169	-8.82
219.389	-56.3
219.608	-37.22
219.827	-28.87
220.047	-16.66
220.266	-15.98
220.485	4.69
220.705	9.14
220.924	-32.37
221.143	-3.52
221.363	-32.61
221.582	-19.27
221.801	-26.17
222.021	4.96
222.24	-54.99
222.459	31.37
222.678	-18.28
222.897	-94.58
223.117	-151.41
223.336	-120.21
223.555	-93.39
223.774	-38.21
223.993	-27.91
224.213	48.01
224.432	17.21
224.651	35.83
224.87	11.9
225.089	38.47
225.308	23.26
225.527	38.61
225.746	38.17
225.965	28.52
226.184	9.51
226.404	19.26
226.623	-0.81
226.842	4.86
227.061	32.17
227.28	31.04
227.499	20.59
227.718	32.72
227.936	18.42
228.155	24.51
228.374	8.47
228.593	14.35
228.812	8.88
229.031	6.01
229.25	-59.24
229.469	-48.63
229.688	-37.05
229.907	14.34
230.125	40.3
230.344	50.8
230.563	71.51
230.782	78.02
231.001	-2.42
231.22	-6.82
231.438	45.09
231.657	22.15
231.876	5.43
232.095	47.96
232.313	49.13
232.532	24.04
232.751	-8.45
232.969	-30.16
233.188	-106.8
233.407	-18.92
233.625	-9.79
233.844	-12.74
234.063	21.62
234.281	41.21
234.5	9.63
234.719	13.38
234.937	14.65
235.156	10.39
235.374	9.12
235.593	-1.08
235.811	0.66
236.03	6.96
236.249	-16.55
236.467	-23.57
236.686	8.87
236.904	9.07
237.123	-4.95
237.341	-6.19
237.559	-0.17
237.778	-19.2
237.996	-47
238.215	-7.11
238.433	6.46
238.652	6.84
238.87	-6.49
239.088	13.37
239.307	19.33
239.525	33.69
239.743	-7.87
239.962	2.78
240.18	-24.66
240.398	-83.63
240.617	-91.9
240.835	-46.77
241.053	-29.81
241.271	10.78
241.49	18
241.708	-21.22
241.926	-55.94
242.144	-29.32
242.363	-81.52
242.581	-106.76
242.799	-47.95
243.017	-22.51
243.235	-42.09
243.453	-33.15
243.672	-19.04
243.89	-20.78
244.108	-24.14
244.326	-8.27
244.544	-3.65
244.762	-9.32
244.98	-10.53
245.198	-15
245.416	-48.86
245.634	-33.2
245.852	-36.54
246.07	-40.59
246.288	-18.14
246.506	-24.48
246.724	-11.24
246.942	27.33
247.16	45.45
247.378	43.53
247.596	85.01
247.814	74.01
248.032	35.32
248.25	16.4
248.468	7.18
248.685	-7.36
248.903	24.24
249.121	17.58
249.339	-4.55
249.557	-1.64
249.775	16.46
249.992	-53.22
250.21	-47.83
250.428	-25.91
250.646	-56.76
250.863	-90.81
251.081	-39.91
251.299	-27.77
251.517	-11.04
251.734	-2.58
251.952	-9.87
252.17	-18.89
252.387	2.79
252.605	-21.38
252.823	-12.85
253.04	12.39
253.258	29.11
253.475	8.62
253.693	41.27
253.911	36.74
254.128	33.25
254.346	39.83
254.563	19.23
254.781	-12.56
254.998	-43.13
255.216	-43.56
255.433	-49.39
255.651	-7.06
255.868	47.54
256.086	74.65
256.303	47.34
256.521	20.88
256.738	-11.83
256.956	-65.37
257.173	-85.42
257.39	-91.07
257.608	-98.6
257.825	-26.67
258.043	11.94
258.26	15.42
258.477	58.82
258.695	46.18
258.912	-18.97
259.129	0.85
259.346	-36.58
259.564	-101.85
259.781	-124.98
259.998	-35.18
260.216	-28.06
260.433	21.72
260.65	33.63
260.867	63.85
261.084	29.9
261.302	20.32
261.519	5.76
261.736	-26.5
261.953	-54.39
262.17	-12.18
262.387	-49.44
262.604	-61.62
262.822	-66.24
263.039	-35.66
263.256	-95.15
263.473	-50.68
263.69	-35.33
263.907	16.33
264.124	36.39
264.341	40.73
264.558	35.6
264.775	48.92
264.992	22.53
265.209	10.44
265.426	37.22
265.643	39.6
265.86	31.57
266.077	42.01
266.294	11.91
266.51	-22.74
266.727	-53.49
266.944	-36.76
267.161	-41.2
267.378	-31.56
267.595	-2.46
267.812	-13.75
268.028	-32.84
268.245	5.88
268.462	-11.76
268.679	-27.42
268.896	37.98
269.112	38.63
269.329	18.83
269.546	26.6
269.763	24.9
269.979	7.11
270.196	13.59
270.413	-11.67
270.629	-32.14
270.846	-47.21
271.063	-43.93
271.279	-67.9
271.496	-50.52
271.712	-14.35
271.929	21.52
272.146	14.57
272.362	28.3
272.579	61.34
272.795	75.4
273.012	60.81
273.228	51.11
273.445	21.13
273.661	-2.69
273.878	-58.41
274.094	-53.03
274.311	-86.79
274.527	-10.07
274.744	-13.74
274.96	-9.2
275.177	2.77
275.393	22.03
275.609	11.88
275.826	39.51
276.042	37.82
276.259	12.12
276.475	24.25
276.691	30.71
276.908	1.06
277.124	8.19
277.34	12.97
277.557	-2.14
277.773	-14.74
277.989	-17.59
278.205	-25.05
278.422	-0.34
278.638	16.4
278.854	29.43
279.07	28.62
279.286	24.53
279.503	-26.97
279.719	-63.74
279.935	-88.59
280.151	-84.24
280.367	-42.76
280.583	-41.52
280.799	-19.17
281.016	-30.48
281.232	-9.06
281.448	-2.62
281.664	31.07
281.88	-6.39
282.096	16.93
282.312	37.44
282.528	24.34
282.744	23.15
282.96	31.78
283.176	15.21
283.392	2.32
283.608	1.13
283.824	-10.41
284.04	1.15
284.256	8.28
284.471	-9.5
284.687	-12.6
284.903	9.43
285.119	45.41
285.335	20.88
285.551	43.78
285.767	9.85
285.982	-1.87
286.198	-46.57
286.414	14.3
286.63	22.1
286.846	57.03
287.061	34.49
287.277	58.4
287.493	31.87
287.709	44.89
287.924	15.66
288.14	47.94
288.356	35.78
288.571	53.03
288.787	34.44
289.003	40.95
289.218	31.34
289.434	-8.73
289.65	-4.39
289.865	-1.07
290.081	35.9
290.296	35.38
290.512	46.63
290.727	-0.44
290.943	-2.81
291.159	-9.75
291.374	-18.77
291.59	-20.57
291.805	7.46
292.021	5.33
292.236	-6.92
292.451	14.59
292.667	15.98
292.882	16.85
293.098	13.85
293.313	-1.92
293.529	-38.78
293.744	-51.98
293.959	-41.58
294.175	-48.87
294.39	-0.54
294.605	14.33
294.821	35.45
295.036	36.9
295.251	51.45
295.467	1.89
295.682	-3.2
295.897	-58.75
296.112	-61.77
296.328	-63.71
296.543	-67.97
296.758	-64.75
296.973	-1.22
297.188	24.73
297.404	5.46
297.619	7.01
297.834	4.29
298.049	-28.67
298.264	-54.21
298.479	5.83
298.694	8.82
298.909	23.55
299.125	38.01
299.34	47.57
299.555	11.87
299.77	36.92
299.985	-18.95
300.2	-74.41
300.415	-96.58
300.63	-61.71
300.845	-79.59
301.06	-65.27
301.275	-28.07
301.49	-2.4
301.704	-18.53
301.919	-28.02
302.134	-35.51
302.349	-35.17
302.564	-98.48
302.779	-82.98
302.994	-21.75
303.209	5.45
303.423	16.83
303.638	52.02
303.853	7.66
304.068	-11.72
304.283	-16.08
304.497	-17.8
304.712	-30.4
304.927	0.55
305.142	-10.63
305.356	-6.54
305.571	-6.03
305.786	-19.49
306	-68.31
306.215	-49.54
306.43	-77.17
306.644	-92.77
306.859	-50.74
307.074	-17.36
307.288	-48.77
307.503	-35.04
307.717	-34.98
307.932	-32.87
308.147	-29.31
308.361	-3.12
308.576	-21.67
308.79	-50.5
309.005	-53.24
309.219	-28.95
309.434	-40.08
309.648	-34.81
309.863	-7.12
310.077	-0.92
310.292	-16.45
310.506	-10.07
310.72	6.42
310.935	12.49
311.149	9.58
311.364	26.44
311.578	41.9
311.792	32.13
312.007	25.91
312.221	11.46
312.435	8.83
312.649	-13.08
312.864	13.46
313.078	34.05
313.292	112.12
313.507	78.14
313.721	121.61
313.935	46.06
314.149	18.35
314.363	-3.65
314.578	11.72
314.792	7.61
315.006	9.75
315.22	30.9
315.434	39.33
315.648	45.48
315.862	46.07
316.077	36.17
316.291	11.79
316.505	6.48
316.719	-1.06
316.933	-33.9
317.147	-22.1
317.361	-51.94
317.575	-73.7
317.789	-123.15
318.003	-163.66
318.217	-144.94
318.431	-31.32
318.645	21.09
318.859	19.6
319.073	49.53
319.287	30.86
319.5	-16.98
319.714	-82.24
319.928	-129.54
320.142	-145.28
320.356	-88.41
320.57	-41.4
320.784	-22.46
320.997	4.34
321.211	-27.16
321.425	-81.22
321.639	-100.94
321.853	-35.99
322.066	-18.06
322.28	-8.9
322.494	15.15
322.707	42.38
322.921	15.15
323.135	13.33
323.349	12.96
323.562	-19.28
323.776	-35.49
323.989	-25.96
324.203	-46.81
324.417	-50.19
324.63	-53.95
324.844	-65.09
325.057	-72.07
325.271	-45.23
325.485	-12.65
325.698	16.56
325.912	31.03
326.125	11.75
326.339	4.65
326.552	-31.62
326.766	-17.05
326.979	-2.76
327.193	43.75
327.406	36.14
327.619	34.48
327.833	36.7
328.046	2.9
328.26	-37.79
328.473	-12.65
328.686	-34.13
328.9	-53.56
329.113	-11.06
329.326	-31.11
329.54	-41.05
329.753	-45.11
329.966	-64.19
330.179	-86.29
330.393	-41.79
330.606	-13.37
330.819	11.79
331.032	29.16
331.246	30.89
331.459	55.84
331.672	37.9
331.885	22.18
332.098	-3.69
332.311	-10.13
332.525	-71.74
332.738	-46.36
332.951	-11.39
333.164	18.91
333.377	25.21
333.59	44.26
333.803	51.41
334.016	36.79
334.229	33.93
334.442	46.97
334.655	66.66
334.868	61.59
335.081	58.73
335.294	37.73
335.507	20.08
335.72	-0.94
335.933	-15.07
336.146	-18.12
336.359	-2.45
336.572	-20.39
336.785	-56.37
336.997	-54.63
337.21	-33.46
337.423	-50.94
337.636	-47.35
337.849	-19.25
338.062	-29.31
338.274	-28.26
338.487	-37.59
338.7	-30.65
338.913	-77.97
339.125	-77.26
339.338	-123.38
339.551	-72.17
339.763	-39.1
339.976	8.05
340.189	18.13
340.402	31.09
340.614	8.6
340.827	-2.28
341.039	-19.08
341.252	-28.9
341.465	-10.08
341.677	6.51
341.89	-29.42
342.102	-9.94
342.315	-23.8
342.527	-74.41
342.74	-76.23
342.952	-44.13
343.165	-46.18
343.377	-16.33
343.59	-8.68
343.802	2.44
344.015	13.77
344.227	34.21
344.44	26.82
344.652	32.66
344.864	18.04
345.077	35.39
345.289	22.09
345.502	24.75
345.714	18.79
345.926	28.43
346.139	7.58
346.351	24.46
346.563	33.71
346.775	39.09
346.988	23.9
347.2	12.76
347.412	-34.4
347.624	-63.69
347.837	-76.24
348.049	-41.9
348.261	-0.26
348.473	3.12
348.685	5.74
348.897	-7.03
349.11	-15.98
349.322	-23.58
349.534	-10.39
349.746	3.01
349.958	7.73
350.17	8.85
350.382	17.96
350.594	16.26
350.806	10.68
351.018	18.77
351.23	0.76
351.442	-55.2
351.654	-58.72
351.866	-45.3
352.078	-25.08
352.29	-9.65
352.502	15.83
352.714	30.97
352.926	17.12
353.138	12.27
353.35	2.4
353.561	-2.02
353.773	-26.27
353.985	-9.24
354.197	-20.32
354.409	-23.68
354.621	-24.11
354.832	-14.08
355.044	-31.22
355.256	-39.64
355.468	-12.8
355.679	-14.45
355.891	-14.23
356.103	-19.89
356.314	1.78
356.526	-3.85
356.738	1.4
356.949	11.25
357.161	38.7
357.373	20.74
357.584	8.1
357.796	-0.03
358.008	-11.72
358.219	7.94
358.431	12.24
358.642	21.04
358.854	21.95
359.065	22.28
359.277	-33.62
359.488	-51.49
359.7	-76.62
359.911	-97.66
360.123	-65.08
360.334	-70.34
360.546	-72.37
360.757	-72.65
360.969	-27.52
361.18	-34.26
361.391	-0.43
361.603	-10.1
361.814	10.05
362.025	-10.51
362.237	-7.2
362.448	0.98
362.659	20.52
362.871	11.63
363.082	8.94
363.293	1.66
363.504	-18.16
363.716	-50.89
363.927	-59.48
364.138	-83.76
364.349	-95.32
364.56	-78.02
364.772	-57.7
364.983	-18.68
365.194	-15.7
365.405	-0.03
365.616	18.65
365.827	26.39
366.038	-5.68
366.25	0.28
366.461	-4.95
366.672	18.91
366.883	29.32
367.094	35.35
367.305	23.68
367.516	22.78
367.727	-19.33
367.938	-38.37
368.149	-43.65
368.36	-14.19
368.571	-6.92
368.781	-21.74
368.992	-36.89
369.203	-62.68
369.414	-96.77
369.625	-101
369.836	-91.17
370.047	-107.22
370.258	-81.71
370.468	-79.69
370.679	-92.98
370.89	-72.87
371.101	-42.07
371.312	-36.69
371.522	-15.91
371.733	-7.57
371.944	8.14
372.155	11.84
372.365	3.85
372.576	-2
372.787	-11.24
372.997	-48.29
373.208	-56.01
373.419	-18.35
373.629	-50.52
373.84	-46.06
374.05	-36.67
374.261	-19.14
374.472	-54.15
374.682	6.02
374.893	17.94
375.103	48.91
375.314	37.77
375.524	41.89
375.735	30.55
375.945	27.66
376.156	-14.56
376.366	-10.91
376.577	-9.85
376.787	-13.39
376.997	-18.03
377.208	-7.88
377.418	-11.11
377.629	5.65
377.839	2.65
378.049	5.83
378.26	22.83
378.47	27.54
378.68	9.31
378.89	6.12
379.101	2.41
379.311	-33.58
379.521	-67.83
379.732	-65.85
379.942	-72.64
380.152	-93.19
380.362	-44.69
380.572	-31.15
380.783	-22.88
380.993	-9.54
381.203	2.61
381.413	13.62
381.623	13.82
381.833	17.03
382.043	10.73
382.253	3.62
382.463	-0.48
382.674	-9.16
382.884	-36.96
383.094	-30.83
383.304	-15.62
383.514	-12.88
383.724	3.24
383.934	15.97
384.144	4.98
384.353	-10.76
384.563	-11.64
384.773	-11.16
384.983	-21.84
385.193	-4.76
385.403	-0.79
385.613	-3.97
385.823	-16.91
386.033	-8.72
386.242	-19.88
386.452	-20.7
386.662	-33.19
386.872	-16.74
387.082	-17.68
387.291	-16.96
387.501	-16.93
387.711	-8.87
387.921	-20.74
388.13	-19.64
388.34	-7.06
388.55	-8.59
388.759	-7.5
388.969	3.53
389.179	1.18
389.388	1.25
389.598	4.44
389.807	-0.45
390.017	-8.27
390.227	-6.43
390.436	-11.81
390.646	-12.42
390.855	-6.32
391.065	-2.41
391.274	-2.32
391.484	-3.33
391.693	1.37
391.903	0.18
392.112	3.03
392.322	5.83
392.531	10.96
392.74	10.22
392.95	6.26
393.159	2.71
393.369	-0.23
393.578	-2.19
393.787	-5.15
393.997	-1.74
394.206	-2.7
394.415	-2.03
394.625	-2.53
394.834	-3
395.043	-3
395.252	-1.55
395.462	0.99
395.671	2.06
395.88	3.48
396.089	4.06
396.298	2.49
396.508	2.21
396.717	1.74
396.926	1.61
397.135	1.02
397.344	1.44
397.553	1.42
397.762	3.05
397.971	3.02
398.181	3.16
398.39	3.18
398.599	2.87
398.808	1.89
399.017	2.96
399.226	3.99
399.435	4.76
399.644	4.84
399.853	4.06
400.062	2.79
400.27	2.48
400.479	2.02
400.688	1.24
400.897	1.87
401.106	2.33
401.315	1.86
401.524	1.86
401.733	2.63
401.941	2.93
402.15	2.84
402.359	2.8
402.568	3.05
402.777	3.02
402.985	2.81
403.194	2.98
403.403	2.96
403.612	2.55
403.82	2.21
404.029	2.27
404.238	2.08
404.446	2.4
404.655	2.42
404.864	2.38
405.072	1.98
405.281	2.1
405.489	1.81
405.698	1.8
405.906	1.82
406.115	1.98
406.324	1.88
406.532	2.23
406.741	2.67
406.949	2.72
407.158	2.73
407.366	2.83
407.574	2.6
407.783	2.39
407.991	2.16
408.2	2.32
408.408	2.2
408.617	2.19
408.825	2.06
409.033	2.28
409.242	2.37
409.45	2.5
409.658	2.41
409.867	2.53
410.075	2.5
410.283	2.28
410.491	2.12
410.7	2.09
410.908	2.17
411.116	2.39
411.324	2.45
411.533	2.47
411.741	2.6
411.949	2.58
412.157	2.27
412.365	2.2
412.573	2.25
412.781	2.27
412.99	2.12
413.198	2.38
413.406	2.39
413.614	2.42
413.822	2.25
414.03	2.25
414.238	2.09
414.446	2.17
414.654	1.87
414.862	2.07
415.07	2.13
415.278	2.25
415.486	2.03
415.694	2.24
415.902	1.96
416.109	1.8
416.317	1.73
416.525	1.63
416.733	1.67
416.941	2.03
417.149	2.02
417.357	1.9
417.564	2.21
417.772	2.52
417.98	2.26
418.188	2.34
418.395	2.46
418.603	2.51
418.811	2.04
419.019	2.01
419.226	2.34
419.434	2.52
419.642	2.23
419.849	2.41
420.057	2.64
420.265	2.46
420.472	2.12
420.68	2.2
420.887	2.07
421.095	1.92
421.302	1.82
421.51	2.09
421.717	2.22
421.925	2.42
422.132	2.36
422.34	2.12
422.547	2.17
422.755	2.06
422.962	1.83
423.17	1.74
423.377	1.98
423.585	1.91
423.792	1.74
423.999	1.91
424.207	1.9
424.414	2.02
424.621	1.99
424.829	2.01
425.036	1.98
425.243	2.19
425.451	1.89
425.658	1.69
425.865	1.97
426.072	1.92
426.28	2.01
426.487	2.13
426.694	2.29
426.901	2.1
427.108	2.07
427.315	1.87
427.523	2.11
427.73	2.08
427.937	1.92
428.144	1.74
428.351	1.77
428.558	1.87
428.765	1.75
428.972	1.84
429.179	2.11
429.386	2.41
429.593	1.97
429.8	1.83
430.007	1.9
430.214	1.92
430.421	1.66
430.628	1.63
430.835	1.63
431.042	1.8
431.249	1.83
431.456	1.94
431.662	2.05
431.869	2.28
432.076	2.27
432.283	2.36
432.49	2.19
432.697	2.3
432.903	2.13
433.11	2.06
433.317	2.03
433.524	2.32
433.73	2.22
433.937	2.46
434.144	2.28
434.35	2.24
434.557	1.98
434.764	2.07
434.97	1.95
435.177	2.22
435.384	2.12
435.59	2.22
435.797	2.32
436.003	2.42
436.21	2.35
436.416	2.53
436.623	2.45
436.829	2.42
437.036	2.48
437.242	2.42
437.449	2.27
437.655	2.36
437.862	2.34
438.068	2.21
438.275	2.35
438.481	2.6
438.687	2.53
438.894	2.58
439.1	2.64
439.307	2.79
439.513	2.62
439.719	2.68
439.926	2.75
440.132	2.7
440.338	2.49
440.544	2.62
440.751	2.51
440.957	2.53
441.163	2.47
441.369	2.57
441.575	2.35
441.782	2.37
441.988	2.22
442.194	2.18
442.4	2.13
442.606	2.48
442.812	2.57
443.018	2.7
443.224	2.79
443.431	2.91
443.637	2.62
443.843	2.52
444.049	2.51
444.255	2.6
444.461	2.58
444.667	2.55
444.873	2.7
445.079	2.68
445.284	2.65
445.49	2.36
445.696	2.26
445.902	2.17
446.108	2.16
446.314	2.08
446.52	2.24
446.726	2.48
446.931	2.55
447.137	2.54
447.343	2.56
447.549	2.56
447.755	2.38
447.96	2.38
448.166	2.33
448.372	2.31
448.578	2.33
448.783	2.5
448.989	2.56
449.195	2.76
449.4	2.8
449.606	2.74
449.812	2.62
450.017	2.65
450.223	2.46
450.428	2.41
450.634	2.6
450.84	2.77
451.045	2.67
451.251	2.64
451.456	2.87
451.662	2.92
451.867	2.82
452.073	2.85
452.278	2.96
452.483	2.96
452.689	2.78
452.894	2.86
453.1	2.8
453.305	2.72
453.51	2.64
453.716	2.62
453.921	2.64
454.127	2.55
454.332	2.52
454.537	2.49
454.742	2.46
454.948	2.47
455.153	2.65
455.358	2.81
455.563	2.95
455.769	3.12
455.974	3.02
456.179	2.86
456.384	2.83
456.589	2.71
456.795	2.47
457	2.39
457.205	2.68
457.41	2.63
457.615	2.6
457.82	2.77
458.025	2.89
458.23	2.65
458.435	2.71
458.64	2.65
458.845	2.83
459.05	2.79
459.255	2.84
459.46	2.8
459.665	2.86
459.87	2.75
460.075	2.7
460.28	2.81
460.485	2.97
460.69	3.01
460.895	2.79
461.099	2.79
461.304	2.9
