Data from Ofra_PS_T2_1A_2HS27_Reflection_3.txt Node
Date: Wed Jul 21 18:03:12 EDT 2021
User: Adam
Spectrometer: FLMT01687
Trigger mode: 0
Integration Time (sec): 1.100000E0
Scans to average: 2
Electric dark correction enabled: true
Nonlinearity correction enabled: false
Boxcar width: 2
XAxis mode: Wavelengths
Number of Pixels in Spectrum: 3648
>>>>>Begin Spectral Data<<<<<
179.494	560.6
179.716	608.71
179.937	596.93
180.158	575.19
180.38	815.47
180.601	384.39
180.823	160.29
181.044	-25.71
181.265	114.52
181.486	104.49
181.708	87.24
181.929	446.43
182.15	-489.79
182.372	90.29
182.593	47.13
182.814	55.81
183.035	116.91
183.257	104.1
183.478	45.37
183.699	107.48
183.92	60.56
184.141	65.62
184.363	22.9
184.584	62.95
184.805	24.97
185.026	48.29
185.247	32.58
185.468	22.14
185.689	16.32
185.91	29.33
186.132	31.18
186.353	26.16
186.574	80.05
186.795	50.71
187.016	2.95
187.237	-5.02
187.458	-45.96
187.679	-71.33
187.9	-39.63
188.121	-18.61
188.342	-21.86
188.563	26.64
188.784	82.98
189.005	77.08
189.226	78.96
189.447	66.17
189.667	-100.36
189.888	-415.15
190.109	-1729.55
190.33	-868.87
190.551	-1324.56
190.772	-230.93
190.993	-173.93
191.214	-98.85
191.434	-42.04
191.655	23.59
191.876	-12.74
192.097	-68.14
192.318	-103.23
192.538	-178.52
192.759	-158.39
192.98	-73.42
193.201	-23.79
193.421	-14.45
193.642	15.55
193.863	5.13
194.083	-12.27
194.304	-22.52
194.525	-14.83
194.745	-55.88
194.966	-68.21
195.187	-63.32
195.407	-96.83
195.628	-198.04
195.848	-188.64
196.069	-158.06
196.29	-103.32
196.51	-104.76
196.731	-41.46
196.951	-46.38
197.172	-84.69
197.392	-152.71
197.613	-150.35
197.833	-189.94
198.054	-150.87
198.274	-91.68
198.495	-91.52
198.715	-58.38
198.936	-88.49
199.156	-72.58
199.377	-167.6
199.597	-139.79
199.817	-115.28
200.038	-52.73
200.258	-107.25
200.479	-14.04
200.699	-14.27
200.919	-15.82
201.14	-32.19
201.36	-61.42
201.58	-9.95
201.801	19.52
202.021	-1.88
202.241	-10.21
202.461	5.41
202.682	-104.35
202.902	-175.9
203.122	-109.18
203.342	-85.35
203.563	-38.4
203.783	5.98
204.003	-29.61
204.223	-38.35
204.443	27.82
204.663	-21.17
204.884	-13.84
205.104	43.16
205.324	82.13
205.544	59.27
205.764	79.01
205.984	88.9
206.204	81.61
206.424	50.95
206.644	36.15
206.864	40.43
207.084	-1.74
207.304	-33.01
207.525	-66.48
207.745	-50.05
207.964	15.98
208.184	-20.87
208.404	-64.76
208.624	-74.2
208.844	-65.97
209.064	-416.76
209.284	-452.27
209.504	-234.1
209.724	-80.9
209.944	-48.94
210.164	16.33
210.384	29.59
210.604	29.35
210.823	-15.14
211.043	-37.48
211.263	-39.62
211.483	-46.88
211.703	-95.44
211.922	-68.45
212.142	-13.48
212.362	-17.16
212.582	-26.33
212.801	-13.45
213.021	-43.39
213.241	-58.7
213.461	-80.15
213.68	-100.64
213.9	-79.28
214.12	-29.05
214.339	-83.29
214.559	-67.91
214.779	-0.65
214.998	-9.18
215.218	-57
215.438	-41.87
215.657	-59.03
215.877	-71.83
216.096	-26.87
216.316	-19.87
216.535	-13.81
216.755	-4.3
216.974	-87.92
217.194	-145.39
217.413	-144.56
217.633	-150.17
217.852	-263.1
218.072	-96.8
218.291	-33.87
218.511	15.56
218.73	-7.42
218.95	-6.67
219.169	-22.65
219.389	-77.43
219.608	-59.63
219.827	-45.66
220.047	-35.82
220.266	-14.17
220.485	-12.81
220.705	-10.49
220.924	-35.6
221.143	8.09
221.363	-24.21
221.582	-7.13
221.801	-14.4
222.021	9.21
222.24	-88.79
222.459	-5.12
222.678	-19.46
222.897	-71.16
223.117	-76.11
223.336	-59.3
223.555	-50.57
223.774	-16.36
223.993	-15.07
224.213	20.97
224.432	25.51
224.651	41.66
224.87	7.06
225.089	28.04
225.308	24.55
225.527	31.08
225.746	18.11
225.965	18.55
226.184	-5.87
226.404	0.52
226.623	-24.47
226.842	-13.85
227.061	13.58
227.28	20.89
227.499	-1.89
227.718	22
227.936	13.82
228.155	9.68
228.374	5.7
228.593	25.75
228.812	20.08
229.031	7.54
229.25	-35.9
229.469	-43.68
229.688	-57.09
229.907	-31.97
230.125	-13.82
230.344	0.63
230.563	7.77
230.782	18.52
231.001	-51.72
231.22	-43.84
231.438	-9.99
231.657	-11.46
231.876	-14.38
232.095	28.24
232.313	32.55
232.532	9.28
232.751	10.87
232.969	-2.36
233.188	-50.04
233.407	5.96
233.625	9.3
233.844	-17.67
234.063	-0.93
234.281	25.59
234.5	2.24
234.719	-10.2
234.937	11.59
235.156	5.83
235.374	-1.92
235.593	-8.19
235.811	0.98
236.03	-11.77
236.249	-54.55
236.467	-62.06
236.686	-34.29
236.904	-20.59
237.123	-47.48
237.341	-34.12
237.559	-21.49
237.778	-27.01
237.996	-69.52
238.215	-4.76
238.433	9.11
238.652	-0.82
238.87	-28.46
239.088	10.35
239.307	-2.03
239.525	-29.33
239.743	-44.05
239.962	-33.6
240.18	-74.01
240.398	-125.89
240.617	-102.39
240.835	-94.82
241.053	-44.02
241.271	4.55
241.49	23.08
241.708	12.77
241.926	-15.76
242.144	-34.35
242.363	-90.32
242.581	-124.94
242.799	-97.9
243.017	-32.27
243.235	-56.04
243.453	-37.08
243.672	-30.58
243.89	-18.59
244.108	-34.89
244.326	-6.44
244.544	-8.46
244.762	-9.81
244.98	-4.69
245.198	-9.53
245.416	-47.66
245.634	-32.09
245.852	-39.58
246.07	-68.79
246.288	-46.51
246.506	-55.66
246.724	-57.04
246.942	-41.39
247.16	2.89
247.378	4.91
247.596	23.99
247.814	17.87
248.032	-13.64
248.25	-5.39
248.468	0.01
248.685	6.49
248.903	24.13
249.121	36.71
249.339	-4.84
249.557	-28.89
249.775	-26.29
249.992	-96.81
250.21	-92.22
250.428	-62.1
250.646	-83.41
250.863	-95.19
251.081	-44.16
251.299	-27.68
251.517	-34.56
251.734	-24.71
251.952	-21.75
252.17	-13.66
252.387	-10.02
252.605	-20.11
252.823	-13.68
253.04	2.41
253.258	6.64
253.475	9.58
253.693	48.43
253.911	54.04
254.128	46
254.346	49.37
254.563	15.99
254.781	-2.28
254.998	-17.84
255.216	-23.3
255.433	-18.24
255.651	24.63
255.868	51.36
256.086	69.89
256.303	73.64
256.521	50.59
256.738	23.76
256.956	-9.05
257.173	-37.43
257.39	-68.13
257.608	-84.55
257.825	-45.02
258.043	-20.62
258.26	-1.22
258.477	46.66
258.695	47.03
258.912	23.08
259.129	20.82
259.346	-21.82
259.564	-61.98
259.781	-84.78
259.998	-12.57
260.216	17.69
260.433	51.55
260.65	51.48
260.867	73.22
261.084	24.03
261.302	-16.55
261.519	-34.66
261.736	-61.76
261.953	-86.13
262.17	-32.91
262.387	-65.1
262.604	-64.89
262.822	-65.3
263.039	-52.6
263.256	-97.25
263.473	-37.44
263.69	-34.03
263.907	23.33
264.124	27.38
264.341	17.28
264.558	5.34
264.775	23.59
264.992	-0.8
265.209	2.89
265.426	26.88
265.643	30.22
265.86	23.08
266.077	2.81
266.294	-32.78
266.51	-82.08
266.727	-78.79
266.944	-74.8
267.161	-52.5
267.378	-19.21
267.595	31.3
267.812	4.86
268.028	-12.15
268.245	2.61
268.462	-26.28
268.679	-71.19
268.896	-16.4
269.112	-1.11
269.329	-7.87
269.546	-2
269.763	-0.61
269.979	-12.23
270.196	-17.71
270.413	-42.14
270.629	-63.32
270.846	-56.58
271.063	-47.76
271.279	-56.78
271.496	-54.08
271.712	-18.36
271.929	2.47
272.146	-11.16
272.362	1.39
272.579	34.46
272.795	40
273.012	29.69
273.228	26.28
273.445	-2.57
273.661	-33.73
273.878	-76.84
274.094	-64.9
274.311	-104.1
274.527	-35.85
274.744	-27.57
274.96	-25.05
275.177	-15.34
275.393	12.58
275.609	7.28
275.826	26.06
276.042	30
276.259	42.79
276.475	53.72
276.691	55.62
276.908	31.59
277.124	33.82
277.34	8.64
277.557	-23.62
277.773	-39.03
277.989	-42
278.205	-38.33
278.422	-20.59
278.638	1.61
278.854	28.28
279.07	18.74
279.286	8.73
279.503	-11.05
279.719	-28.18
279.935	-50.13
280.151	-48.43
280.367	-38.08
280.583	-53.83
280.799	-56.05
281.016	-83.55
281.232	-37.19
281.448	-24.82
281.664	8.09
281.88	-18.24
282.096	7.59
282.312	30.97
282.528	26.64
282.744	24.01
282.96	35.38
283.176	22.14
283.392	4.27
283.608	10.63
283.824	-6.49
284.04	-0.43
284.256	-5.71
284.471	-11.1
284.687	-20.43
284.903	13.66
285.119	39.65
285.335	22.35
285.551	24.12
285.767	-4.73
285.982	-24.29
286.198	-79.36
286.414	-16.56
286.63	-10.14
286.846	16.42
287.061	0.45
287.277	31.04
287.493	2.76
287.709	20.39
287.924	10.87
288.14	41.77
288.356	36.37
288.571	58.88
288.787	43
289.003	45.69
289.218	26.5
289.434	-0.92
289.65	-3.97
289.865	-13.64
290.081	-0.44
290.296	3.02
290.512	2.66
290.727	-30.02
290.943	-32.82
291.159	-47.84
291.374	-41.82
291.59	-47.63
291.805	-31.27
292.021	-21.76
292.236	-25.6
292.451	-12.75
292.667	1.71
292.882	6.23
293.098	4.33
293.313	1.88
293.529	-38.47
293.744	-57.3
293.959	-63.04
294.175	-65.3
294.39	-22.76
294.605	5.11
294.821	21.99
295.036	32.11
295.251	38.3
295.467	6.08
295.682	-20.22
295.897	-66.1
296.112	-83.08
296.328	-56.36
296.543	-84.57
296.758	-78.5
296.973	-38.68
297.188	12.12
297.404	-25.5
297.619	-14.31
297.834	-14.8
298.049	-26.1
298.264	-59.43
298.479	0.01
298.694	10.11
298.909	17.99
299.125	16.1
299.34	15.31
299.555	-19.61
299.77	-36.76
299.985	-70.79
300.2	-116.07
300.415	-114.76
300.63	-86.62
300.845	-75.27
301.06	-66.37
301.275	-28.37
301.49	-15.96
301.704	-21.72
301.919	-41.69
302.134	-48.51
302.349	-55.69
302.564	-118.28
302.779	-114.76
302.994	-100.12
303.209	-76.45
303.423	-70.05
303.638	1.3
303.853	-44.71
304.068	-34.45
304.283	-27.27
304.497	-19.21
304.712	-48.15
304.927	-25.91
305.142	-31.09
305.356	-12.69
305.571	-8.57
305.786	-15.11
306	-20.73
306.215	-7.75
306.43	-40.29
306.644	-35.51
306.859	39.64
307.074	37.83
307.288	3.55
307.503	-23.21
307.717	-29.98
307.932	-52.14
308.147	-51.33
308.361	-24.19
308.576	-27.06
308.79	-61.69
309.005	-40.53
309.219	-42.42
309.434	-48.22
309.648	-23.9
309.863	-2.03
310.077	-7.91
310.292	-1.43
310.506	-2.75
310.72	3.24
310.935	12.38
311.149	11.08
311.364	21.03
311.578	30.32
311.792	24.67
312.007	22.88
312.221	-4.82
312.435	3.89
312.649	-13.72
312.864	11.57
313.078	16.06
313.292	128.99
313.507	90.8
313.721	132.33
313.935	44.82
314.149	36.82
314.363	5.19
314.578	11.77
314.792	15.44
315.006	8.51
315.22	26.05
315.434	24.46
315.648	25.28
315.862	23.36
316.077	21.8
316.291	4.71
316.505	22.07
316.719	20.83
316.933	-14.12
317.147	-14.39
317.361	-61.55
317.575	-92.15
317.789	-123.9
318.003	-166.97
318.217	-141.85
318.431	-71.83
318.645	-25.58
318.859	-8.49
319.073	19.87
319.287	21.49
319.5	-3.54
319.714	-28.96
319.928	-67
320.142	-105.95
320.356	-75.24
320.57	-22.86
320.784	-41.01
320.997	-68.08
321.211	-41.05
321.425	-92.49
321.639	-131.06
321.853	-71.64
322.066	-23.08
322.28	-37.88
322.494	-19.53
322.707	7.26
322.921	1.41
323.135	-9.11
323.349	7.58
323.562	-13.73
323.776	-33.66
323.989	-38.79
324.203	-56.65
324.417	-55.8
324.63	-62.87
324.844	-67.83
325.057	-66.97
325.271	-26.55
325.485	-6.72
325.698	12.54
325.912	38.21
326.125	15.15
326.339	-1.5
326.552	-27.18
326.766	-15.81
326.979	11.44
327.193	42.28
327.406	32.21
327.619	30.01
327.833	26.88
328.046	-8.94
328.26	-41.94
328.473	-14.03
328.686	-44.41
328.9	-26.74
329.113	-15.39
329.326	-31.02
329.54	-19.22
329.753	-31.15
329.966	-76.86
330.179	-60.63
330.393	-27.68
330.606	-30.8
330.819	-1.57
331.032	16.24
331.246	15.06
331.459	39.59
331.672	30.62
331.885	17.46
332.098	0.92
332.311	5.34
332.525	-64.56
332.738	-58.2
332.951	-12.63
333.164	5.63
333.377	8.43
333.59	38.44
333.803	42.49
334.016	29.54
334.229	38.31
334.442	36.54
334.655	50.27
334.868	55.91
335.081	54.99
335.294	27.25
335.507	17.8
335.72	-1.95
335.933	-5.62
336.146	-16.15
336.359	-3.79
336.572	-29.47
336.785	-46.88
336.997	-47.25
337.21	-24.68
337.423	-34.85
337.636	-21.61
337.849	-6.17
338.062	-5.84
338.274	3.52
338.487	-6.56
338.7	-20.12
338.913	-48.79
339.125	-78.27
339.338	-137.5
339.551	-103.18
339.763	-59.6
339.976	-42.23
340.189	-15.16
340.402	-0.17
340.614	-4.82
340.827	-5.9
341.039	-11.1
341.252	-14.04
341.465	-10.65
341.677	-9.47
341.89	-48.02
342.102	-17.88
342.315	-28.97
342.527	-53.09
342.74	-46.14
342.952	2.46
343.165	10.32
343.377	40.03
343.59	42.38
343.802	44.06
344.015	43.51
344.227	38.82
344.44	15.72
344.652	5.89
344.864	-8.87
345.077	7.7
345.289	16.55
345.502	19.62
345.714	6.21
345.926	22.95
346.139	8.68
346.351	2.09
346.563	7.47
346.775	37.46
346.988	23.95
347.2	6.81
347.412	-31.35
347.624	-55.64
347.837	-96.22
348.049	-79.62
348.261	-29.1
348.473	-29.98
348.685	-22.73
348.897	-39.45
349.11	-53.1
349.322	-90.14
349.534	-48.41
349.746	-49.69
349.958	-22
350.17	-15.75
350.382	-1.37
350.594	4.18
350.806	12.5
351.018	10.79
351.23	-2.4
351.442	-32.29
351.654	-54.6
351.866	-56.84
352.078	-37.39
352.29	-9.95
352.502	3.19
352.714	14.61
352.926	12.94
353.138	8.34
353.35	-0.96
353.561	5.17
353.773	-15.63
353.985	-5.42
354.197	-14.14
354.409	-17.62
354.621	-34.15
354.832	-12.68
355.044	-20.87
355.256	-20.14
355.468	-11.41
355.679	-6.82
355.891	-16.06
356.103	-29.14
356.314	-15.88
356.526	-28.26
356.738	-14.61
356.949	-16.31
357.161	-15.45
357.373	-13.2
357.584	-20.03
357.796	-15.05
358.008	-15.8
358.219	-0.66
358.431	0.55
358.642	19.31
358.854	3.68
359.065	-9.33
359.277	-21.12
359.488	-35.52
359.7	-68.54
359.911	-57.65
360.123	-31.26
360.334	-45.27
360.546	-70.88
360.757	-64.87
360.969	-54.92
361.18	-63.72
361.391	-38.35
361.603	-26.21
361.814	-5.13
362.025	-17.15
362.237	-25.04
362.448	-17.6
362.659	-2
362.871	1.11
363.082	6.28
363.293	17.39
363.504	0.01
363.716	-20.79
363.927	-37.6
364.138	-68.81
364.349	-92.14
364.56	-78.6
364.772	-64.46
364.983	-32.66
365.194	-24.78
365.405	-9.08
365.616	16.09
365.827	16.94
366.038	-14.24
366.25	-27.16
366.461	-54.92
366.672	-50.53
366.883	-30.24
367.094	-16.84
367.305	-16.8
367.516	-9.72
367.727	-31.74
367.938	-41.13
368.149	-40.51
368.36	-17.17
368.571	-8.82
368.781	-16.73
368.992	-35.53
369.203	-49.56
369.414	-76.39
369.625	-75.48
369.836	-62.89
370.047	-70.68
370.258	-57.63
370.468	-45.1
370.679	-74.73
370.89	-76.45
371.101	-48.71
371.312	-50.65
371.522	-47.6
371.733	-31.24
371.944	-16.33
372.155	-18.26
372.365	-30.4
372.576	-41.27
372.787	-42.38
372.997	-66.48
373.208	-61.9
373.419	-22.25
373.629	-44.25
373.84	-41.52
374.05	-51.71
374.261	-45.28
374.472	-59.29
374.682	-1.47
374.893	-7.53
375.103	28.87
375.314	23.14
375.524	18.19
375.735	20.27
375.945	19.81
376.156	-8.45
376.366	-4.34
376.577	-6.27
376.787	-21.83
376.997	-6.78
377.208	-6.57
377.418	-10.56
377.629	-2.36
377.839	-7.21
378.049	-8.11
378.26	3.9
378.47	9.25
378.68	0.54
378.89	-4.31
379.101	-4.07
379.311	-25.79
379.521	-62.05
379.732	-55.85
379.942	-50.08
380.152	-71.99
380.362	-35.54
380.572	-27.89
380.783	-7.53
380.993	2.89
381.203	13.07
381.413	19.29
381.623	38.1
381.833	23.82
382.043	16.4
382.253	12.63
382.463	4.63
382.674	-15.26
382.884	-39.4
383.094	-38.9
383.304	-33.84
383.514	-29.94
383.724	-9.42
383.934	-3.27
384.144	-8.15
384.353	-14.65
384.563	-19.44
384.773	-22.75
384.983	-28.37
385.193	-10.13
385.403	-4.91
385.613	-1.06
385.823	-12.88
386.033	-4.34
386.242	-12.67
386.452	-12.79
386.662	-22.98
386.872	-4.84
387.082	-12.29
387.291	-21.4
387.501	-27.38
387.711	-16.15
387.921	-22.2
388.13	-18.24
388.34	-0.86
388.55	0.46
388.759	-0.66
388.969	1.62
389.179	-0.44
389.388	-7.99
389.598	-3.06
389.807	-9.97
390.017	-13.93
390.227	-10.15
390.436	-11.4
390.646	-13.16
390.855	-5.31
391.065	-4.55
391.274	-9
391.484	-8.15
391.693	-5.95
391.903	-7.4
392.112	-0.34
392.322	4.24
392.531	6.64
392.74	6.11
392.95	2.7
393.159	-1.38
393.369	-2.25
393.578	-3.58
393.787	-3.98
393.997	-2.43
394.206	-4.37
394.415	-4.96
394.625	-4.96
394.834	-6.52
395.043	-4.81
395.252	-1.81
395.462	0.41
395.671	1.75
395.88	3.12
396.089	3.35
396.298	1.15
396.508	0.7
396.717	0.03
396.926	0.55
397.135	0.32
397.344	0.58
397.553	1.43
397.762	2.75
397.971	2.08
398.181	1.68
398.39	2.01
398.599	0.94
398.808	0.11
399.017	0.7
399.226	1.98
399.435	2.94
399.644	3.34
399.853	2.72
400.062	2.59
400.27	1.63
400.479	0.9
400.688	0.09
400.897	0.55
401.106	0.57
401.315	1.06
401.524	1.01
401.733	1.81
401.941	2.01
402.15	2.01
402.359	1.55
402.568	1.83
402.777	1.8
402.985	1.56
403.194	1.49
403.403	1.68
403.612	1.31
403.82	0.91
404.029	1.24
404.238	1.12
404.446	1.29
404.655	1.25
404.864	1.48
405.072	1.19
405.281	1.39
405.489	1.13
405.698	1.2
405.906	1.01
406.115	1.31
406.324	1.29
406.532	1.43
406.741	1.69
406.949	1.83
407.158	1.55
407.366	1.6
407.574	1.51
407.783	1.53
407.991	1.4
408.2	1.61
408.408	1.53
408.617	1.45
408.825	1.22
409.033	1.34
409.242	1.38
409.45	1.42
409.658	1.41
409.867	1.62
410.075	1.43
410.283	1.23
410.491	1.1
410.7	1.14
410.908	1.04
411.116	1.39
411.324	1.44
411.533	1.54
411.741	1.69
411.949	1.78
412.157	1.51
412.365	1.59
412.573	1.59
412.781	1.62
412.99	1.44
413.198	1.64
413.406	1.52
413.614	1.55
413.822	1.38
414.03	1.36
414.238	1.19
414.446	1.32
414.654	1.12
414.862	1.21
415.07	1.45
415.278	1.66
415.486	1.36
415.694	1.45
415.902	1.39
416.109	1.1
416.317	0.87
416.525	0.84
416.733	0.81
416.941	0.99
417.149	0.96
417.357	1.11
417.564	1.41
417.772	1.72
417.98	1.5
418.188	1.6
418.395	1.56
418.603	1.75
418.811	1.34
419.019	1.3
419.226	1.48
419.434	1.6
419.642	1.22
419.849	1.41
420.057	1.49
420.265	1.42
420.472	1.12
420.68	1.15
420.887	1.08
421.095	1.2
421.302	1.15
421.51	1.46
421.717	1.67
421.925	1.81
422.132	1.58
422.34	1.43
422.547	1.39
422.755	1.22
422.962	1.06
423.17	1.12
423.377	1.3
423.585	1.24
423.792	1.22
423.999	1.27
424.207	1.19
424.414	1.22
424.621	1.15
424.829	1.15
425.036	1.13
425.243	1.22
425.451	0.98
425.658	0.85
425.865	0.98
426.072	1.05
426.28	1.27
426.487	1.3
426.694	1.48
426.901	1.25
427.108	1.16
427.315	0.97
427.523	1.21
427.73	1.09
427.937	1.19
428.144	1
428.351	0.97
428.558	1.09
428.765	1.18
428.972	1.29
429.179	1.54
429.386	1.87
429.593	1.49
429.8	1.39
430.007	1.33
430.214	1.43
430.421	1.19
430.628	1.11
430.835	1.03
431.042	1.19
431.249	1.21
431.456	1.22
431.662	1.42
431.869	1.54
432.076	1.45
432.283	1.39
432.49	1.44
432.697	1.48
432.903	1.25
433.11	1.27
433.317	1.29
433.524	1.33
433.73	1.2
433.937	1.57
434.144	1.47
434.35	1.54
434.557	1.4
434.764	1.36
434.97	1.21
435.177	1.35
435.384	1.2
435.59	1.37
435.797	1.65
436.003	1.72
436.21	1.66
436.416	1.79
436.623	1.65
436.829	1.66
437.036	1.76
437.242	1.81
437.449	1.71
437.655	1.71
437.862	1.66
438.068	1.58
438.275	1.63
438.481	1.77
438.687	1.83
438.894	1.74
439.1	1.77
439.307	1.87
439.513	1.86
439.719	1.87
439.926	2
440.132	1.97
440.338	1.83
440.544	1.9
440.751	1.85
440.957	1.9
441.163	1.84
441.369	1.86
441.575	1.63
441.782	1.68
441.988	1.53
442.194	1.57
442.4	1.62
442.606	1.93
442.812	2.06
443.018	2.18
443.224	2.23
443.431	2.27
443.637	2.02
443.843	1.83
444.049	1.87
444.255	1.76
444.461	1.77
444.667	1.72
444.873	1.98
445.079	1.96
445.284	2.14
445.49	1.95
445.696	1.89
445.902	1.67
446.108	1.59
446.314	1.49
446.52	1.55
446.726	1.91
446.931	1.98
447.137	2.06
447.343	2.07
447.549	2.04
447.755	1.83
447.96	1.89
448.166	1.82
448.372	1.85
448.578	1.99
448.783	1.96
448.989	1.99
449.195	2.24
449.4	2.19
449.606	2.1
449.812	2.09
450.017	2.11
450.223	1.83
450.428	1.81
450.634	1.94
450.84	2.05
451.045	1.95
451.251	1.94
451.456	2.2
451.662	2.25
451.867	2.29
452.073	2.27
452.278	2.44
452.483	2.41
452.689	2.24
452.894	2.2
453.1	2.25
453.305	2.19
453.51	2.15
453.716	2.22
453.921	2.24
454.127	2.24
454.332	2.22
454.537	2.08
454.742	2.07
454.948	2.05
455.153	2.07
455.358	2.13
455.563	2.34
455.769	2.42
455.974	2.34
456.179	2.28
456.384	2.2
456.589	2.14
456.795	1.94
457	1.92
457.205	2.1
457.41	2.11
457.615	2.08
457.82	2.24
458.025	2.3
458.23	2.17
458.435	2.21
458.64	2.15
458.845	2.24
459.05	2.28
459.255	2.26
459.46	2.27
459.665	2.34
459.87	2.35
460.075	2.29
460.28	2.34
