Data from Ofra_PS_T2_1A_2CX08_Reflection_2.txt Node
Date: Wed Jul 21 17:53:27 EDT 2021
User: Adam
Spectrometer: FLMT01687
Trigger mode: 0
Integration Time (sec): 1.100000E0
Scans to average: 2
Electric dark correction enabled: true
Nonlinearity correction enabled: false
Boxcar width: 2
XAxis mode: Wavelengths
Number of Pixels in Spectrum: 3648
>>>>>Begin Spectral Data<<<<<
179.494	772.4
179.716	837.41
179.937	744.05
180.158	686.37
180.38	1080.31
180.601	351.66
180.823	93.73
181.044	132.46
181.265	602.57
181.486	160.99
181.708	162.24
181.929	1501.02
182.15	-452.82
182.372	220.78
182.593	198.43
182.814	92.34
183.035	164.26
183.257	109.22
183.478	36.28
183.699	22.23
183.92	2.54
184.141	13.13
184.363	-50.38
184.584	-4.28
184.805	-9.91
185.026	29.84
185.247	38.3
185.468	34.52
185.689	25.68
185.91	62.04
186.132	78.26
186.353	68.07
186.574	154.54
186.795	133.15
187.016	77.3
187.237	29.95
187.458	10.52
187.679	-18.88
187.9	-10.29
188.121	-20.62
188.342	-28.85
188.563	28.51
188.784	54.75
189.005	41.63
189.226	139.96
189.447	120.69
189.667	-1.7
189.888	-204.19
190.109	-916.23
190.33	-687.42
190.551	-1065.04
190.772	-154.12
190.993	-129.71
191.214	-91.16
191.434	-60.9
191.655	33.8
191.876	-22.47
192.097	-74.56
192.318	-131.66
192.538	-179.62
192.759	-169.58
192.98	-63.28
193.201	-24.72
193.421	8.02
193.642	33.27
193.863	42.33
194.083	19.47
194.304	28.53
194.525	27.22
194.745	6.12
194.966	-13.28
195.187	1.33
195.407	-29.81
195.628	-83.38
195.848	-102.05
196.069	-103.62
196.29	-59.58
196.51	-61.46
196.731	-69.79
196.951	-66.57
197.172	-74.51
197.392	-125.4
197.613	-144.02
197.833	-142.36
198.054	-128.37
198.274	-77.85
198.495	-86.7
198.715	-46.76
198.936	-85.8
199.156	-75.04
199.377	-168.08
199.597	-143.95
199.817	-142.29
200.038	-48.53
200.258	-98.61
200.479	-18.97
200.699	-18.64
200.919	39.37
201.14	34.93
201.36	28.94
201.58	45.81
201.801	64.19
202.021	33.01
202.241	28.44
202.461	35.06
202.682	-70.36
202.902	-170.01
203.122	-117.1
203.342	-109.47
203.563	-68.1
203.783	-0.65
204.003	-2.17
204.223	6.34
204.443	62.05
204.663	69.73
204.884	53.19
205.104	75.8
205.324	103.53
205.544	70.27
205.764	63.65
205.984	66.05
206.204	58.35
206.424	42.81
206.644	28.06
206.864	21.87
207.084	14.61
207.304	40.98
207.525	23.28
207.745	6.1
207.964	71.14
208.184	-16.58
208.404	-40.9
208.624	-63.31
208.844	-52.98
209.064	-330.53
209.284	-298.58
209.504	-145.31
209.724	-17.28
209.944	-19.24
210.164	29.72
210.384	28.2
210.604	24.77
210.823	-9.97
211.043	-34.25
211.263	-47.91
211.483	-39.75
211.703	-88.84
211.922	-76.21
212.142	19.98
212.362	32.21
212.582	-0.8
212.801	-10.87
213.021	-31.04
213.241	-72.11
213.461	-108.59
213.68	-109.55
213.9	-90.02
214.12	-42.24
214.339	-101.59
214.559	-72.13
214.779	-18.5
214.998	12.53
215.218	-25.3
215.438	6.48
215.657	26.02
215.877	20.36
216.096	26.19
216.316	41.03
216.535	42.15
216.755	24.3
216.974	-54.93
217.194	-151.28
217.413	-148.9
217.633	-152.31
217.852	-278.21
218.072	-94.79
218.291	-29.15
218.511	11.15
218.73	-29.36
218.95	-5.28
219.169	-21.09
219.389	-62.4
219.608	-53.69
219.827	-35.56
220.047	-32.81
220.266	-10.14
220.485	8.45
220.705	20.33
220.924	-5.45
221.143	29.93
221.363	0.97
221.582	12.05
221.801	3.93
222.021	54.07
222.24	12.08
222.459	78.92
222.678	45.13
222.897	-1.98
223.117	-82.37
223.336	-53.24
223.555	-12.62
223.774	34.86
223.993	61.52
224.213	114.78
224.432	93.38
224.651	88.54
224.87	36.02
225.089	43.12
225.308	26.26
225.527	38.03
225.746	24.15
225.965	19.07
226.184	-2
226.404	18.93
226.623	-2.14
226.842	8.42
227.061	37.1
227.28	40.37
227.499	33.96
227.718	46.31
227.936	39.13
228.155	37.62
228.374	14.82
228.593	15.89
228.812	11.3
229.031	6.02
229.25	-29.63
229.469	-13.8
229.688	-14.18
229.907	25.55
230.125	48.39
230.344	51.23
230.563	60.28
230.782	80.6
231.001	5.97
231.22	-0.97
231.438	14.42
231.657	4.29
231.876	-9.18
232.095	38.68
232.313	51.61
232.532	73.97
232.751	51.08
232.969	32.13
233.188	-1.59
233.407	52.97
233.625	18.98
233.844	43.79
234.063	45.23
234.281	55.6
234.5	24.38
234.719	26.07
234.937	36.61
235.156	34.86
235.374	36.96
235.593	42
235.811	34.2
236.03	4.97
236.249	-41.39
236.467	-58.37
236.686	-28.45
236.904	-14.46
237.123	-31.63
237.341	-20.39
237.559	-15.12
237.778	-25.45
237.996	-35.8
238.215	1.5
238.433	16.7
238.652	7.49
238.87	-18.17
239.088	-0.21
239.307	-5.62
239.525	-15.99
239.743	-23.7
239.962	-12.97
240.18	-36.32
240.398	-79.55
240.617	-86.97
240.835	-54.62
241.053	-18.92
241.271	56.03
241.49	76.98
241.708	80.16
241.926	77.34
242.144	50.3
242.363	-34.18
242.581	-57.36
242.799	-26.56
243.017	1.57
243.235	-14.24
243.453	0.54
243.672	-2.14
243.89	8.06
244.108	4.13
244.326	27.25
244.544	32.6
244.762	27.44
244.98	24.98
245.198	7.44
245.416	-33.77
245.634	-42.77
245.852	-52.12
246.07	-51.89
246.288	-8.62
246.506	-24.77
246.724	21.63
246.942	20.8
247.16	35.75
247.378	23.09
247.596	55
247.814	40.96
248.032	21.68
248.25	12.13
248.468	12.18
248.685	22.95
248.903	51.63
249.121	58.16
249.339	31.71
249.557	23.69
249.775	29.71
249.992	-25.54
250.21	-26.66
250.428	-7.69
250.646	-19.76
250.863	-56.1
251.081	-48.94
251.299	-24.35
251.517	-23.38
251.734	-16.76
251.952	-16.68
252.17	-11.87
252.387	-9.77
252.605	-13.02
252.823	0.85
253.04	13.31
253.258	33.43
253.475	27.54
253.693	42.1
253.911	38.71
254.128	46.69
254.346	42.62
254.563	21.27
254.781	-4.2
254.998	-35.28
255.216	-37.51
255.433	-23.99
255.651	47.48
255.868	93.45
256.086	122.64
256.303	95.44
256.521	80.75
256.738	34.33
256.956	-7.02
257.173	-46.62
257.39	-57.84
257.608	-94.7
257.825	-33.47
258.043	9.56
258.26	32.77
258.477	82.35
258.695	82.87
258.912	45.39
259.129	29.38
259.346	-7.78
259.564	-48.62
259.781	-71.59
259.998	-23.9
260.216	19.7
260.433	51.7
260.65	54.69
260.867	82.83
261.084	70.08
261.302	53.92
261.519	48.94
261.736	-2.09
261.953	-34.4
262.17	1.48
262.387	-44.88
262.604	-75.82
262.822	-60.33
263.039	-48.02
263.256	-95.12
263.473	-43.1
263.69	-13.45
263.907	18.35
264.124	37.11
264.341	37.18
264.558	31.5
264.775	30.76
264.992	13.8
265.209	0.31
265.426	18.53
265.643	17.08
265.86	37.17
266.077	42.62
266.294	38.27
266.51	5.69
266.727	-31.47
266.944	-24.11
267.161	-9.13
267.378	4.13
267.595	44.69
267.812	43.15
268.028	14.86
268.245	36.68
268.462	9.42
268.679	-13.29
268.896	38.34
269.112	52.66
269.329	21.16
269.546	37.15
269.763	24.91
269.979	-1.54
270.196	-20.14
270.413	-29.97
270.629	-58.09
270.846	-60.73
271.063	-49.66
271.279	-72.39
271.496	-61.83
271.712	-15.55
271.929	6.58
272.146	-4.57
272.362	25.32
272.579	56.36
272.795	33.17
273.012	42.85
273.228	37.09
273.445	11.97
273.661	-30.6
273.878	-63.09
274.094	-66.6
274.311	-81.97
274.527	-16.23
274.744	-8.4
274.96	-12.57
275.177	1.13
275.393	9.78
275.609	9.47
275.826	38.57
276.042	41.26
276.259	25.47
276.475	37.53
276.691	34.86
276.908	5.45
277.124	31.95
277.34	33.16
277.557	17.69
277.773	3.13
277.989	-3.91
278.205	-21.91
278.422	-11.08
278.638	-0.75
278.854	29.78
279.07	47.76
279.286	38.1
279.503	21.02
279.719	22.48
279.935	-25.33
280.151	-64.89
280.367	-26.2
280.583	-41.74
280.799	-29.36
281.016	-49.32
281.232	-1.13
281.448	-6.84
281.664	25.07
281.88	-15.63
282.096	8.97
282.312	26.84
282.528	29.79
282.744	47.42
282.96	55.93
283.176	37.35
283.392	24.4
283.608	13.94
283.824	1.36
284.04	6.63
284.256	22.17
284.471	13.08
284.687	20.05
284.903	51.33
285.119	83.65
285.335	63.98
285.551	89.02
285.767	64.34
285.982	20.43
286.198	-35.11
286.414	15.94
286.63	17.95
286.846	43.25
287.061	27.01
287.277	52.88
287.493	23.22
287.709	42.74
287.924	22.52
288.14	70.39
288.356	76.56
288.571	86.1
288.787	54.4
289.003	58.47
289.218	28.98
289.434	-17.09
289.65	-25.72
289.865	-26.73
290.081	-5.31
290.296	9.41
290.512	18.23
290.727	-1.98
290.943	-0.55
291.159	-15.68
291.374	-20.63
291.59	-31.73
291.805	-21.21
292.021	-17.23
292.236	-16.19
292.451	-0.03
292.667	4.79
292.882	26.42
293.098	30.76
293.313	10.64
293.529	-14.04
293.744	-17.42
293.959	-39.11
294.175	-41.65
294.39	-0.28
294.605	10.19
294.821	37.9
295.036	37.18
295.251	42.22
295.467	-2.69
295.682	-13.77
295.897	-81.22
296.112	-73.44
296.328	-68.9
296.543	-68.9
296.758	-55.35
296.973	-1.99
297.188	30.17
297.404	2.31
297.619	-5.33
297.834	-20.44
298.049	-29.49
298.264	-66.68
298.479	-1.98
298.694	15.75
298.909	32.41
299.125	31.54
299.34	43.99
299.555	19.07
299.77	30.94
299.985	-4.85
300.2	-46.9
300.415	-74.98
300.63	-40.13
300.845	-61.37
301.06	-50.65
301.275	-17.81
301.49	21.16
301.704	6.14
301.919	-5.69
302.134	-20.68
302.349	-29.48
302.564	-105.8
302.779	-124.02
302.994	-58.86
303.209	-27.03
303.423	15.13
303.638	66.18
303.853	21.37
304.068	12.38
304.283	20.64
304.497	7.55
304.712	-11.56
304.927	7.69
305.142	-0.44
305.356	0.59
305.571	-7.15
305.786	-25.46
306	-46.19
306.215	-34.43
306.43	-49.96
306.644	-22.26
306.859	49.08
307.074	63.47
307.288	29.72
307.503	19.36
307.717	-1.17
307.932	-15.82
308.147	-24.04
308.361	4.85
308.576	8.06
308.79	-22.55
309.005	-16.21
309.219	-1.88
309.434	-17.24
309.648	-31.12
309.863	-5.06
310.077	-11.48
310.292	-4.72
310.506	2.56
310.72	19.19
310.935	42.05
311.149	37.4
311.364	44.94
311.578	49.58
311.792	41.5
312.007	31.41
312.221	16.3
312.435	15.77
312.649	5.01
312.864	56.21
313.078	78.13
313.292	187.76
313.507	184.71
313.721	256.78
313.935	109.74
314.149	76.84
314.363	38.08
314.578	33.38
314.792	18.6
315.006	1.7
315.22	28.53
315.434	39.34
315.648	52.19
315.862	54.93
316.077	51.95
316.291	30.39
316.505	16.2
316.719	-6.55
316.933	-37.75
317.147	-22.89
317.361	-72.62
317.575	-101.36
317.789	-141.64
318.003	-173.95
318.217	-146.91
318.431	-28.28
318.645	22.85
318.859	26.26
319.073	44.77
319.287	36.76
319.5	-4.22
319.714	-43.41
319.928	-84.84
320.142	-115.33
320.356	-69.97
320.57	-9.4
320.784	-6.89
320.997	-11.98
321.211	13.03
321.425	-45.22
321.639	-65.19
321.853	-6.3
322.066	16.76
322.28	9.32
322.494	29.28
322.707	33.74
322.921	17.08
323.135	13.5
323.349	33.87
323.562	3.64
323.776	-17.43
323.989	-29.25
324.203	-33.92
324.417	-65.8
324.63	-67.51
324.844	-61.47
325.057	-58.86
325.271	-50.26
325.485	-13.07
325.698	6.31
325.912	19.64
326.125	3.16
326.339	8.75
326.552	-17.5
326.766	-15.28
326.979	-2.74
327.193	27.5
327.406	10.36
327.619	9.3
327.833	20.74
328.046	3.99
328.26	-33.21
328.473	0.45
328.686	-3.49
328.9	-4.53
329.113	3.37
329.326	13.12
329.54	-4.39
329.753	-26.83
329.966	-40.96
330.179	-28.6
330.393	-1.59
330.606	15.55
330.819	35.15
331.032	45.88
331.246	42.71
331.459	69.85
331.672	53.34
331.885	38.96
332.098	8.03
332.311	14.62
332.525	-64.39
332.738	-35.35
332.951	4.76
333.164	30.34
333.377	29.35
333.59	45.81
333.803	50.07
334.016	46.5
334.229	41.65
334.442	49.32
334.655	72.02
334.868	61.4
335.081	51.9
335.294	45.73
335.507	36.32
335.72	31.12
335.933	9.87
336.146	0.73
336.359	-0.23
336.572	-38.27
336.785	-65.56
336.997	-42.95
337.21	-20.82
337.423	-18.68
337.636	9.47
337.849	26.87
338.062	14.51
338.274	9.26
338.487	-0.22
338.7	-17.75
338.913	-78.62
339.125	-100.54
339.338	-148.02
339.551	-119.93
339.763	-92.31
339.976	-33.32
340.189	7.16
340.402	17.06
340.614	4.64
340.827	15.16
341.039	-6.06
341.252	-12.96
341.465	7.19
341.677	12.22
341.89	-22.9
342.102	7.44
342.315	-12.75
342.527	-43.94
342.74	-54.56
342.952	-10.17
343.165	-9.32
343.377	20.14
343.59	0.12
343.802	27.42
344.015	21.2
344.227	45.87
344.44	34.37
344.652	46.84
344.864	28.63
345.077	38.12
345.289	22.1
345.502	29.5
345.714	32.09
345.926	38.25
346.139	32.8
346.351	34.85
346.563	40.39
346.775	47.43
346.988	22.95
347.2	14.83
347.412	-20.75
347.624	-40.35
347.837	-59.09
348.049	10.9
348.261	48.36
348.473	62.95
348.685	53.95
348.897	32.45
349.11	-2.77
349.322	-20.1
349.534	0.88
349.746	4.12
349.958	16.86
350.17	19.15
350.382	13.65
350.594	8.99
350.806	18.43
351.018	22.21
351.23	23.57
351.442	-5.63
351.654	-19.69
351.866	-22.28
352.078	-7.66
352.29	-0.77
352.502	20.81
352.714	27.9
352.926	19.03
353.138	16.26
353.35	11.05
353.561	9.63
353.773	-7.05
353.985	10.85
354.197	-6.15
354.409	-14.02
354.621	-29.14
354.832	-14.44
355.044	-38.48
355.256	-31.62
355.468	-4.68
355.679	-2.3
355.891	3.16
356.103	6.12
356.314	15.41
356.526	-0.76
356.738	3.58
356.949	-23.06
357.161	-12.83
357.373	-15.33
357.584	-16.78
357.796	-6.52
358.008	-4.54
358.219	29.99
358.431	32.2
358.642	34.19
358.854	32.81
359.065	28.79
359.277	-27.81
359.488	-40.08
359.7	-54.26
359.911	-75.41
360.123	-42.66
360.334	-53.98
360.546	-64.04
360.757	-61.72
360.969	-34.76
361.18	-33.82
361.391	3.82
361.603	-16.38
361.814	-10.5
362.025	-21.65
362.237	-30.03
362.448	-27.05
362.659	10.33
362.871	9.03
363.082	18.08
363.293	15.66
363.504	4.04
363.716	-17.86
363.927	-19.54
364.138	-51.79
364.349	-53.56
364.56	-42.91
364.772	-41.99
364.983	-18.2
365.194	-14.21
365.405	-1.03
365.616	25.05
365.827	35.21
366.038	17.67
366.25	29.75
366.461	-8.82
366.672	-3.96
366.883	8.96
367.094	17.34
367.305	1.07
367.516	22.79
367.727	-12.89
367.938	-34.66
368.149	-34.65
368.36	-12.12
368.571	-10.68
368.781	-15.71
368.992	-21.08
369.203	-35.15
369.414	-58.21
369.625	-71.58
369.836	-66.97
370.047	-91.68
370.258	-78.55
370.468	-72.68
370.679	-82.17
370.89	-70.35
371.101	-30.32
371.312	-40.92
371.522	-23.37
371.733	-11.26
371.944	-5.78
372.155	-6.96
372.365	-5.85
372.576	-11.85
372.787	-10.69
372.997	-27.09
373.208	-28.3
373.419	11.81
373.629	-20.49
373.84	-25.36
374.05	-23.94
374.261	-2.06
374.472	-28.47
374.682	22.43
374.893	24.34
375.103	45.36
375.314	28.36
375.524	14.45
375.735	10.17
375.945	19.19
376.156	-0.85
376.366	-0.13
376.577	12.2
376.787	3.35
376.997	3
377.208	3.91
377.418	-10.09
377.629	-6.05
377.839	-9.8
378.049	-2.69
378.26	8.23
378.47	18.65
378.68	5.44
378.89	0.75
379.101	-2.84
379.311	-29.94
379.521	-63.81
379.732	-44.21
379.942	-36.89
380.152	-65.43
380.362	-29.58
380.572	-11.13
380.783	-2.1
380.993	12.71
381.203	31.95
381.413	39.92
381.623	44.36
381.833	43.03
382.043	22.54
382.253	13.96
382.463	7.28
382.674	-1.93
382.884	-27.91
383.094	-21.25
383.304	-15.61
383.514	-4.16
383.724	4.44
383.934	-0.51
384.144	-9.49
384.353	-17.67
384.563	-25.77
384.773	-18.79
384.983	-16.36
385.193	3.99
385.403	10.13
385.613	9.47
385.823	0.46
386.033	8.32
386.242	-1.28
386.452	-3.71
386.662	-8.16
386.872	1.7
387.082	-6.59
387.291	-16.36
387.501	-18.21
387.711	-9.88
387.921	-17.42
388.13	-11.84
388.34	5.77
388.55	2.54
388.759	-4.67
388.969	3.99
389.179	3.41
389.388	-0.36
389.598	5.68
389.807	3.27
390.017	-6.86
390.227	-7.14
390.436	-9.18
390.646	-10.13
390.855	-4.24
391.065	-2.81
391.274	-4.56
391.484	-6.31
391.693	-5.5
391.903	-2.24
392.112	3.52
392.322	8.47
392.531	10.37
392.74	10.55
392.95	4.43
393.159	1.5
393.369	0.13
393.578	-0.48
393.787	-1.62
393.997	0.61
394.206	-0.51
394.415	-0.33
394.625	-0.99
394.834	-1.1
395.043	-0.2
395.252	2.08
395.462	3.49
395.671	6
395.88	6.35
396.089	6.26
396.298	4.27
396.508	3.76
396.717	1.9
396.926	2.6
397.135	2.41
397.344	3.05
397.553	3.63
397.762	5.24
397.971	4.61
398.181	4.69
398.39	3.66
398.599	3.17
398.808	2.68
399.017	3.8
399.226	4.75
399.435	5.96
399.644	5.71
399.853	5.03
400.062	4.31
400.27	3.57
400.479	3.08
400.688	2.56
400.897	3.06
401.106	3.1
401.315	2.93
401.524	3.08
401.733	3.63
401.941	4.01
402.15	4.06
402.359	3.91
402.568	4.28
402.777	4.44
402.985	3.98
403.194	3.81
403.403	4.1
403.612	3.56
403.82	3.18
404.029	3.35
404.238	3.19
404.446	3.21
404.655	2.93
404.864	2.99
405.072	2.7
405.281	2.83
405.489	2.48
405.698	2.71
405.906	2.68
406.115	2.71
406.324	2.64
406.532	2.94
406.741	3.14
406.949	3.17
407.158	3.07
407.366	3.08
407.574	3.02
407.783	3.04
407.991	2.82
408.2	3.14
408.408	3.11
408.617	2.89
408.825	2.68
409.033	2.83
409.242	2.77
409.45	2.88
409.658	2.91
409.867	3.07
410.075	2.93
410.283	2.8
410.491	2.65
410.7	2.56
410.908	2.57
411.116	2.89
411.324	2.9
411.533	2.9
411.741	3.22
411.949	3.21
412.157	2.91
412.365	2.94
412.573	2.96
412.781	2.85
412.99	2.65
413.198	2.86
413.406	2.8
413.614	2.85
413.822	2.71
414.03	2.63
414.238	2.33
414.446	2.35
414.654	2.07
414.862	2.14
415.07	2.28
415.278	2.59
415.486	2.4
415.694	2.55
415.902	2.49
416.109	2.41
416.317	2.34
416.525	2.33
416.733	2.39
416.941	2.44
417.149	2.43
417.357	2.37
417.564	2.6
417.772	2.76
417.98	2.73
418.188	2.73
418.395	2.77
418.603	2.74
418.811	2.32
419.019	2.32
419.226	2.57
419.434	2.67
419.642	2.47
419.849	2.69
420.057	2.67
420.265	2.54
420.472	2.16
420.68	2.27
420.887	2.19
421.095	2.31
421.302	2.12
421.51	2.39
421.717	2.55
421.925	2.68
422.132	2.52
422.34	2.43
422.547	2.45
422.755	2.2
422.962	2.14
423.17	1.99
423.377	2.15
423.585	2.13
423.792	2.14
423.999	2.19
424.207	2.2
424.414	2.31
424.621	2.26
424.829	2.26
425.036	2.22
425.243	2.33
425.451	2.11
425.658	1.94
425.865	2.01
426.072	2.04
426.28	2.28
426.487	2.33
426.694	2.54
426.901	2.45
427.108	2.35
427.315	2.12
427.523	2.39
427.73	2.31
427.937	2.27
428.144	2.23
428.351	2.16
428.558	2.18
428.765	2.17
428.972	2.17
429.179	2.3
429.386	2.6
429.593	2.4
429.8	2.23
430.007	2.42
430.214	2.47
430.421	2.28
430.628	2.2
430.835	2.23
431.042	2.34
431.249	2.31
431.456	2.22
431.662	2.38
431.869	2.43
432.076	2.33
432.283	2.47
432.49	2.58
432.697	2.52
432.903	2.44
433.11	2.45
433.317	2.43
433.524	2.68
433.73	2.61
433.937	2.82
434.144	2.7
434.35	2.66
434.557	2.45
434.764	2.52
434.97	2.35
435.177	2.58
435.384	2.43
435.59	2.54
435.797	2.79
436.003	2.96
436.21	2.9
436.416	3.07
436.623	2.9
436.829	2.87
437.036	2.93
437.242	2.99
437.449	2.88
437.655	3.02
437.862	2.96
438.068	2.88
438.275	2.88
438.481	3.11
438.687	3.03
438.894	2.91
439.1	2.96
439.307	3.04
439.513	2.95
439.719	2.98
439.926	3.18
440.132	3.14
440.338	2.94
440.544	3.01
440.751	2.92
440.957	2.93
441.163	2.83
441.369	3
441.575	2.77
441.782	2.84
441.988	2.63
442.194	2.69
442.4	2.61
442.606	2.92
442.812	2.97
443.018	3.12
443.224	3.13
443.431	3.36
443.637	3.16
443.843	3.05
444.049	3.07
444.255	3.05
444.461	3.02
444.667	3.01
444.873	3.16
445.079	3.16
445.284	3.25
445.49	2.99
445.696	2.86
445.902	2.81
446.108	2.74
446.314	2.69
446.52	2.92
446.726	3.15
446.931	3.14
447.137	3.19
447.343	3.13
447.549	2.93
447.755	2.81
447.96	2.85
448.166	2.78
448.372	2.73
448.578	2.83
448.783	2.87
448.989	2.93
449.195	3.21
449.4	3.28
449.606	3.19
449.812	3.19
450.017	3.21
450.223	2.98
450.428	2.98
450.634	3.26
450.84	3.35
451.045	3.33
451.251	3.31
451.456	3.59
451.662	3.53
451.867	3.51
452.073	3.52
452.278	3.69
452.483	3.75
452.689	3.68
452.894	3.72
453.1	3.66
453.305	3.55
453.51	3.32
453.716	3.24
453.921	3.24
454.127	3.25
454.332	3.19
454.537	3.18
454.742	3.15
454.948	3.18
455.153	3.18
455.358	3.29
455.563	3.52
455.769	3.76
455.974	3.72
456.179	3.67
456.384	3.65
456.589	3.52
456.795	3.29
457	3.31
457.205	3.62
457.41	3.61
457.615	3.59
457.82	3.67
458.025	3.72
458.23	3.48
458.435	3.57
458.64	3.55
458.845	3.75
459.05	3.7
459.255	3.82
459.46	3.83
459.665	3.88
459.87	3.84
460.075	3.87
460.28	3.84
460.485	3.97
460.69	3.99
460.895	3.83
461.099	3.83
461.304	4
461.509	4.02
461.714	3.99
461.919	4.29
462.123	4.35
462.328	4.41
462.533	4.34
462.738	4.54
