Data from Ofra_PS_T2_2A_4CX12_Reflection_3.txt Node
Date: Wed Jul 21 17:11:59 EDT 2021
User: Adam
Spectrometer: FLMT01687
Trigger mode: 0
Integration Time (sec): 1.100000E0
Scans to average: 2
Electric dark correction enabled: true
Nonlinearity correction enabled: false
Boxcar width: 2
XAxis mode: Wavelengths
Number of Pixels in Spectrum: 3648
>>>>>Begin Spectral Data<<<<<
179.494	496
179.716	598.35
179.937	606.25
180.158	598.75
180.38	1037.5
180.601	462.98
180.823	101.53
181.044	-136.02
181.265	186.03
181.486	87.13
181.708	100.69
181.929	761.22
182.15	-647.89
182.372	110.14
182.593	75.96
182.814	12.22
183.035	31.13
183.257	68.21
183.478	-0.21
183.699	61.59
183.92	30.77
184.141	55.76
184.363	-10.21
184.584	49.74
184.805	35.63
185.026	68.46
185.247	48.15
185.468	35.32
185.689	28.69
185.91	21.77
186.132	15.35
186.353	13.53
186.574	57.09
186.795	49.83
187.016	14.84
187.237	-17.2
187.458	-53.87
187.679	-61.18
187.9	-57.68
188.121	-44.86
188.342	-21.62
188.563	43.72
188.784	92.33
189.005	90.32
189.226	153.47
189.447	118.69
189.667	-7.77
189.888	-327.09
190.109	-1212.99
190.33	-796.13
190.551	-1354.87
190.772	-295.88
190.993	-263.01
191.214	-224.89
191.434	-154.27
191.655	-28.1
191.876	-68.38
192.097	-84.09
192.318	-124.39
192.538	-141.94
192.759	-152.33
192.98	-38.12
193.201	0.47
193.421	21.98
193.642	15.48
193.863	27.15
194.083	6.76
194.304	-7.84
194.525	-26.31
194.745	-39.76
194.966	-60.82
195.187	-80.99
195.407	-100.24
195.628	-131.76
195.848	-115.57
196.069	-100.71
196.29	-18.23
196.51	-60.18
196.731	-65.63
196.951	-112.67
197.172	-131.78
197.392	-207.67
197.613	-218.89
197.833	-205.87
198.054	-125.45
198.274	-63.29
198.495	-77.71
198.715	-25.73
198.936	-45.59
199.156	-49.2
199.377	-153.73
199.597	-125
199.817	-140.62
200.038	-51.71
200.258	-100.66
200.479	-30.7
200.699	-2.83
200.919	55.15
201.14	-0.46
201.36	-14.61
201.58	29.24
201.801	41.49
202.021	0.32
202.241	-9.09
202.461	-18.57
202.682	-158.82
202.902	-207.98
203.122	-114.96
203.342	-59.62
203.563	-2.21
203.783	38.15
204.003	24.4
204.223	15.88
204.443	54.59
204.663	28.59
204.884	49.54
205.104	81.67
205.324	97.16
205.544	49
205.764	56.07
205.984	43.84
206.204	51.64
206.424	33.85
206.644	18.64
206.864	23.42
207.084	-9.5
207.304	15.36
207.525	-71.56
207.745	9.38
207.964	45.49
208.184	1.14
208.404	-59.34
208.624	-57.73
208.844	-78.53
209.064	-387.33
209.284	-417.62
209.504	-241.09
209.724	-57.31
209.944	-31.52
210.164	1.47
210.384	17.03
210.604	33.57
210.823	-26.48
211.043	-50.25
211.263	-26.71
211.483	-41.14
211.703	-102.74
211.922	-41.61
212.142	21.8
212.362	30.65
212.582	47.3
212.801	56.46
213.021	19.39
213.241	14.59
213.461	-34.69
213.68	-81.37
213.9	-52.6
214.12	-17.84
214.339	-79.07
214.559	-59.15
214.779	0.59
214.998	0.82
215.218	-38.12
215.438	-3.6
215.657	19.04
215.877	10.53
216.096	6.54
216.316	6.63
216.535	-1.72
216.755	-25.32
216.974	-110.74
217.194	-149.92
217.413	-129.64
217.633	-143.42
217.852	-207.49
218.072	-102.28
218.291	-45.79
218.511	-2.35
218.73	-29.39
218.95	-18.66
219.169	-15.21
219.389	-60.39
219.608	-60.02
219.827	-51.54
220.047	-35.47
220.266	-33.1
220.485	-29.28
220.705	-23.07
220.924	-32
221.143	-5.2
221.363	-18.43
221.582	-14.01
221.801	-2.58
222.021	15.6
222.24	-47.49
222.459	12.74
222.678	15.81
222.897	-61.39
223.117	-101.36
223.336	-38.13
223.555	-41.75
223.774	20.19
223.993	62.25
224.213	106.87
224.432	61.48
224.651	70.32
224.87	27.03
225.089	38.8
225.308	37.27
225.527	57.04
225.746	51.26
225.965	39.28
226.184	7.77
226.404	14.16
226.623	-23.79
226.842	-17.63
227.061	10.39
227.28	21.09
227.499	-2.49
227.718	17.81
227.936	13.4
228.155	12.21
228.374	-14.06
228.593	12.13
228.812	9.08
229.031	12.88
229.25	-21.08
229.469	-8.72
229.688	-2.81
229.907	9.52
230.125	28.06
230.344	21.67
230.563	32.71
230.782	31.46
231.001	-37.46
231.22	-47.43
231.438	-2.97
231.657	-3.26
231.876	-16.3
232.095	27.49
232.313	26.61
232.532	13.93
232.751	-7.23
232.969	-4.27
233.188	-23.21
233.407	44.88
233.625	19.4
233.844	-4.05
234.063	-0.08
234.281	14.69
234.5	-9.75
234.719	-7.25
234.937	13.25
235.156	23.55
235.374	15.44
235.593	18.59
235.811	24.04
236.03	37.79
236.249	-16.9
236.467	4.26
236.686	7.17
236.904	19.15
237.123	-2.18
237.341	5.22
237.559	1.42
237.778	-8.29
237.996	-32.62
238.215	6.62
238.433	19.6
238.652	16.23
238.87	-9.04
239.088	1.39
239.307	2.17
239.525	-4.47
239.743	-23.3
239.962	-10.17
240.18	-42.21
240.398	-82.21
240.617	-99.91
240.835	-87.06
241.053	-47
241.271	17.39
241.49	22.77
241.708	15.44
241.926	9.5
242.144	0.5
242.363	-77.82
242.581	-96.09
242.799	-23.35
243.017	19.79
243.235	-5.99
243.453	15.16
243.672	11.9
243.89	-5.24
244.108	-24.82
244.326	4.46
244.544	17.25
244.762	22.13
244.98	28.37
245.198	32.94
245.416	7.35
245.634	-8.41
245.852	-23.12
246.07	-29.89
246.288	-35
246.506	-51.72
246.724	-33.9
246.942	-44.79
247.16	-20.4
247.378	-1.41
247.596	15.57
247.814	10.73
248.032	10.45
248.25	22.69
248.468	14.73
248.685	21.03
248.903	49.81
249.121	54.09
249.339	24.39
249.557	23.46
249.775	30.54
249.992	-27.74
250.21	-35.7
250.428	-9.93
250.646	-30.07
250.863	-53.81
251.081	-27.81
251.299	-25.7
251.517	-27.93
251.734	-14.96
251.952	-10.31
252.17	-13.9
252.387	9
252.605	-2.24
252.823	-4.42
253.04	8.79
253.258	30.09
253.475	5.93
253.693	41.66
253.911	44.37
254.128	44.27
254.346	46.73
254.563	40.7
254.781	5.77
254.998	-9.14
255.216	-19.74
255.433	1.11
255.651	66.17
255.868	95.12
256.086	115.91
256.303	94.71
256.521	62.34
256.738	20.33
256.956	-9.69
257.173	-51.34
257.39	-53.77
257.608	-63.19
257.825	18.57
258.043	62.08
258.26	69.26
258.477	102.26
258.695	89.47
258.912	8.92
259.129	5.68
259.346	-28.06
259.564	-63.06
259.781	-79.42
259.998	4.79
260.216	36.19
260.433	78.83
260.65	57.33
260.867	56.29
261.084	3.75
261.302	-33.21
261.519	-73.96
261.736	-81.23
261.953	-63.7
262.17	-18.92
262.387	-45.46
262.604	-65
262.822	-51.96
263.039	-64.83
263.256	-101.78
263.473	-31.69
263.69	-5.43
263.907	19.87
264.124	40.28
264.341	44.09
264.558	23.4
264.775	22.87
264.992	34.31
265.209	20.39
265.426	26.22
265.643	22.64
265.86	39.74
266.077	27.64
266.294	20.27
266.51	-26.41
266.727	-31.75
266.944	-35.58
267.161	-36.25
267.378	-32.97
267.595	29.41
267.812	14.68
268.028	-5.3
268.245	19.31
268.462	-13.22
268.679	-43.48
268.896	6.34
269.112	9.77
269.329	-5.93
269.546	15.13
269.763	17.09
269.979	2.95
270.196	10.85
270.413	-5.98
270.629	-32.16
270.846	-44.98
271.063	-26.32
271.279	-40.65
271.496	-32.36
271.712	-6.81
271.929	9.98
272.146	-19.79
272.362	9.45
272.579	36.86
272.795	42.85
273.012	33.5
273.228	34.11
273.445	-16.33
273.661	-49.27
273.878	-82.49
274.094	-46.48
274.311	-63.11
274.527	8.42
274.744	24.1
274.96	12.86
275.177	8.7
275.393	18.18
275.609	15.22
275.826	19.8
276.042	34.38
276.259	7.59
276.475	19.13
276.691	17.79
276.908	10.89
277.124	21.12
277.34	36.39
277.557	39.01
277.773	22.87
277.989	6.36
278.205	1.26
278.422	14.14
278.638	13.62
278.854	34.89
279.07	59.62
279.286	51.23
279.503	21.2
279.719	19.94
279.935	-20.49
280.151	-46.82
280.367	-28.54
280.583	-44.16
280.799	-38.12
281.016	-50.21
281.232	-10.82
281.448	-2.64
281.664	35.01
281.88	-6.41
282.096	-3.96
282.312	13.48
282.528	29.25
282.744	16.68
282.96	42.79
283.176	36.98
283.392	14.29
283.608	-1.07
283.824	0.51
284.04	-4.78
284.256	1.16
284.471	4.76
284.687	-5.44
284.903	16.23
285.119	53.32
285.335	31.59
285.551	28.62
285.767	22.01
285.982	1.55
286.198	-42.45
286.414	15.9
286.63	30.41
286.846	47.87
287.061	23.9
287.277	55.92
287.493	25.22
287.709	36.85
287.924	30.51
288.14	69.21
288.356	58.18
288.571	73.03
288.787	41.32
289.003	35.39
289.218	18.01
289.434	-18.82
289.65	-8.38
289.865	-11.68
290.081	20.31
290.296	21.4
290.512	46.41
290.727	11.05
290.943	8.93
291.159	-15.27
291.374	-20.97
291.59	-35.43
291.805	-21.73
292.021	-14.26
292.236	-7.62
292.451	14.73
292.667	15.54
292.882	26.23
293.098	33.35
293.313	24.07
293.529	-26.21
293.744	-40.02
293.959	-39.52
294.175	-29.51
294.39	-3.88
294.605	13.96
294.821	32.88
295.036	32.05
295.251	36.19
295.467	33.84
295.682	27.23
295.897	-13.34
296.112	-34.9
296.328	-40.01
296.543	-75.14
296.758	-60.31
296.973	-3.97
297.188	31.54
297.404	9.12
297.619	12.1
297.834	1.75
298.049	-15.32
298.264	-38.15
298.479	0.7
298.694	1.61
298.909	25.88
299.125	22.54
299.34	31.48
299.555	10.81
299.77	27.03
299.985	-31.45
300.2	-84.51
300.415	-105.82
300.63	-69.48
300.845	-73.54
301.06	-70.54
301.275	-26.83
301.49	-8.46
301.704	-9.62
301.919	-25.29
302.134	-29.53
302.349	-35.72
302.564	-75.32
302.779	-95.84
302.994	-44.83
303.209	-14.16
303.423	30.96
303.638	51.79
303.853	19.02
304.068	4.94
304.283	11.19
304.497	2.57
304.712	-7.35
304.927	4.61
305.142	-2.25
305.356	7.38
305.571	14.19
305.786	10.91
306	-7.24
306.215	-1.18
306.43	-23.05
306.644	-25.27
306.859	24.46
307.074	23.89
307.288	0.37
307.503	-8
307.717	-16.96
307.932	-38.91
308.147	-34.75
308.361	-10.17
308.576	-2.7
308.79	-41.77
309.005	-30.38
309.219	-7.1
309.434	-15.48
309.648	-21.95
309.863	2.62
310.077	-9.22
310.292	-13.58
310.506	-6.45
310.72	4.65
310.935	14.4
311.149	21.07
311.364	33.61
311.578	36.86
311.792	31.98
312.007	36.07
312.221	20.33
312.435	20.6
312.649	1.31
312.864	-12.72
313.078	-0.53
313.292	79.65
313.507	65.88
313.721	131.75
313.935	94.59
314.149	84.66
314.363	37.74
314.578	31
314.792	21.35
315.006	1.54
315.22	3.59
315.434	15.44
315.648	21.36
315.862	21.27
316.077	17.98
316.291	-1.5
316.505	6.7
316.719	-5.31
316.933	-25.32
317.147	-2.27
317.361	-44.89
317.575	-67.55
317.789	-74.11
318.003	-116.69
318.217	-98.9
318.431	-8.4
318.645	32.51
318.859	20.67
319.073	66.14
319.287	60.57
319.5	36.9
319.714	-15.19
319.928	-34.27
320.142	-100.65
320.356	-54.54
320.57	-23.22
320.784	-33.68
320.997	-30.08
321.211	-6.8
321.425	-48.51
321.639	-78.63
321.853	-10.31
322.066	5.54
322.28	5.36
322.494	13.51
322.707	41.13
322.921	25.79
323.135	18.51
323.349	24.3
323.562	-1.43
323.776	-28.73
323.989	-37.53
324.203	-54.76
324.417	-62.58
324.63	-69.64
324.844	-55.3
325.057	-45.29
325.271	-22.17
325.485	14.43
325.698	45.07
325.912	51.83
326.125	30.22
326.339	33.85
326.552	13.04
326.766	-10.62
326.979	17.94
327.193	51.5
327.406	37.68
327.619	24.71
327.833	47
328.046	18.48
328.26	-21.12
328.473	-3.72
328.686	-27.25
328.9	-17.22
329.113	7.74
329.326	12.58
329.54	14.81
329.753	8.44
329.966	-40.14
330.179	-39.26
330.393	-16.06
330.606	-10.27
330.819	23.02
331.032	34.84
331.246	34.12
331.459	55.14
331.672	48.56
331.885	28.85
332.098	6.18
332.311	-6.91
332.525	-66.95
332.738	-51.29
332.951	-2.47
333.164	37.86
333.377	54.1
333.59	74.71
333.803	70.09
334.016	51.54
334.229	28.47
334.442	12.56
334.655	19.6
334.868	32.4
335.081	25.81
335.294	18.46
335.507	31.4
335.72	20.53
335.933	6.6
336.146	12.49
336.359	26.55
336.572	-2.1
336.785	-36.71
336.997	-34.67
337.21	-13.24
337.423	-8.6
337.636	-9.55
337.849	18.15
338.062	17.12
338.274	6.43
338.487	-19.21
338.7	-11.74
338.913	-56.49
339.125	-72.75
339.338	-115.28
339.551	-56.93
339.763	-26.1
339.976	11.24
340.189	32.69
340.402	43.23
340.614	25.52
340.827	7.94
341.039	-8.17
341.252	-6.81
341.465	6.53
341.677	3.22
341.89	-19.37
342.102	14.36
342.315	2.56
342.527	-16.84
342.74	-30.09
342.952	9.39
343.165	-1.75
343.377	19.49
343.59	11.01
343.802	43.87
344.015	47.45
344.227	62.37
344.44	46.13
344.652	54.95
344.864	33.35
345.077	39.23
345.289	34.05
345.502	37.6
345.714	32.86
345.926	36.69
346.139	26.08
346.351	26.11
346.563	28.86
346.775	33.3
346.988	24.03
347.2	5.64
347.412	-39.83
347.624	-54.71
347.837	-91.13
348.049	-67.59
348.261	-6.84
348.473	15.03
348.685	5.91
348.897	20.02
349.11	-9.48
349.322	-66.49
349.534	-50.8
349.746	-37.3
349.958	-38.32
350.17	-11.5
350.382	29.02
350.594	24.57
350.806	32.83
351.018	40.99
351.23	27.17
351.442	-20.97
351.654	-36.68
351.866	-45.07
352.078	-36.3
352.29	-9.66
352.502	8.37
352.714	22.5
352.926	17.51
353.138	13.63
353.35	3.12
353.561	-0.44
353.773	-11.84
353.985	4.69
354.197	-0.73
354.409	4.15
354.621	9.03
354.832	15.98
355.044	1.15
355.256	-4.05
355.468	-5.2
355.679	-11.55
355.891	-11.63
356.103	-16.44
356.314	-3.23
356.526	7.55
356.738	20.71
356.949	22.75
357.161	30.51
357.373	19.44
357.584	4.96
357.796	6.59
358.008	-3.63
358.219	13.07
358.431	19.1
358.642	26.37
358.854	35.04
359.065	36.68
359.277	-4.49
359.488	-14.13
359.7	-27.94
359.911	-66.58
360.123	-40.66
360.334	-46.32
360.546	-60.03
360.757	-51.41
360.969	-22.24
361.18	-23.23
361.391	-0.45
361.603	-2.04
361.814	9.67
362.025	0.46
362.237	-5.17
362.448	12.09
362.659	23.96
362.871	23.56
363.082	35.72
363.293	32.31
363.504	16.92
363.716	-8.48
363.927	-23.83
364.138	-51.27
364.349	-52.48
364.56	-36.58
364.772	-31.17
364.983	-9.54
365.194	-5.22
365.405	8.16
365.616	21.6
365.827	35.18
366.038	25.63
366.25	14.75
366.461	-15.38
366.672	4.04
366.883	10.73
367.094	13.05
367.305	5.16
367.516	15.59
367.727	-19.34
367.938	-25.36
368.149	-28.05
368.36	-0.18
368.571	1.52
368.781	-7.89
368.992	-26.77
369.203	-41.26
369.414	-67.87
369.625	-66.05
369.836	-47.55
370.047	-58.79
370.258	-42.13
370.468	-44.27
370.679	-66.35
370.89	-72.19
371.101	-38.81
371.312	-48.58
371.522	-34.91
371.733	-23.48
371.944	-3.53
372.155	-11.52
372.365	-7.94
372.576	-14.9
372.787	-14.9
372.997	-44.12
373.208	-33.4
373.419	-13.15
373.629	-35.67
373.84	-42.7
374.05	-32.96
374.261	-31.83
374.472	-56.07
374.682	-12.15
374.893	-1.93
375.103	26.27
375.314	21.54
375.524	26.42
375.735	22.36
375.945	24.71
376.156	-9.09
376.366	1.8
376.577	7.73
376.787	13.32
376.997	14.43
377.208	23.53
377.418	6.63
377.629	8.83
377.839	-4.93
378.049	-1.06
378.26	12.01
378.47	17.67
378.68	8.07
378.89	7.46
379.101	2.3
379.311	-19.78
379.521	-35.02
379.732	-37.14
379.942	-22
380.152	-37.55
380.362	-13.26
380.572	-9.82
380.783	11.22
380.993	17.34
381.203	31.7
381.413	34.52
381.623	39.97
381.833	30.23
382.043	16.99
382.253	9.04
382.463	2.65
382.674	-10.68
382.884	-25.34
383.094	-19.59
383.304	-6.99
383.514	-4.52
383.724	12.14
383.934	10.63
384.144	-0.47
384.353	-12.23
384.563	-8.49
384.773	-11.41
384.983	-18.35
385.193	0.22
385.403	2.74
385.613	1.95
385.823	-2.7
386.033	11.28
386.242	4.34
386.452	7.87
386.662	2.16
386.872	8.85
387.082	1.33
387.291	-8.65
387.501	-9.77
387.711	3.34
387.921	-1.72
388.13	-2.54
388.34	7.89
388.55	2.84
388.759	-3.61
388.969	4.18
389.179	4.98
389.388	4.59
389.598	11.22
389.807	10.97
390.017	7.7
390.227	10.65
390.436	6.88
390.646	8.17
390.855	10.27
391.065	7.85
391.274	3.81
391.484	4.2
391.693	5.02
391.903	6.89
392.112	12.18
392.322	17.23
392.531	22.06
392.74	23.2
392.95	17.97
393.159	16.64
393.369	14.86
393.578	14.37
393.787	11.28
393.997	15.44
394.206	14.49
394.415	16
394.625	14.24
394.834	13.69
395.043	12.76
395.252	14.38
395.462	15.72
395.671	17.29
395.88	18.46
396.089	19.02
396.298	17.98
396.508	17.16
396.717	15.79
396.926	16.94
397.135	15.98
397.344	15.19
397.553	15.76
397.762	17.85
397.971	16.8
398.181	17.43
398.39	18.01
398.599	17.64
398.808	17.08
399.017	18.16
399.226	19.95
399.435	20.98
399.644	21.11
399.853	20.52
400.062	19.63
400.27	18.38
400.479	17.59
400.688	16.9
400.897	16.93
401.106	17.02
401.315	16.65
401.524	16.56
401.733	16.8
401.941	17.17
402.15	17.53
402.359	17.6
402.568	18.17
402.777	18.18
402.985	17.8
403.194	17.57
403.403	17.75
403.612	17.27
403.82	17.4
404.029	17.71
404.238	17.55
404.446	17.73
404.655	17.47
404.864	17.54
405.072	17.13
405.281	17.41
405.489	17.06
405.698	17.18
405.906	16.85
406.115	16.9
406.324	16.7
406.532	16.76
406.741	16.91
406.949	16.96
407.158	16.89
407.366	16.92
407.574	16.97
407.783	16.81
407.991	16.84
408.2	17.2
408.408	17.13
408.617	17
408.825	16.82
409.033	16.68
409.242	16.47
409.45	16.46
409.658	16.39
409.867	16.44
410.075	16.32
410.283	16.02
410.491	15.8
410.7	15.59
410.908	15.64
411.116	15.87
411.324	16.09
411.533	15.98
411.741	16.22
411.949	16.17
412.157	15.73
412.365	15.47
412.573	15.57
412.781	15.41
412.99	15.25
413.198	15.62
413.406	15.66
413.614	15.61
413.822	15.51
414.03	15.61
414.238	15.24
414.446	15.32
414.654	15.16
414.862	15.23
415.07	15.06
415.278	15.23
415.486	15.03
415.694	15.03
415.902	14.88
416.109	14.83
416.317	14.98
416.525	14.83
416.733	14.99
416.941	15.14
417.149	15.2
417.357	15.07
417.564	15.31
417.772	15.37
417.98	15.14
418.188	15.16
418.395	15.21
418.603	15.14
418.811	14.7
419.019	14.68
419.226	14.77
419.434	14.75
419.642	14.56
419.849	14.82
420.057	14.89
420.265	14.69
420.472	14.37
420.68	14.29
420.887	14.12
421.095	14.14
421.302	14.16
421.51	14.34
421.717	14.36
421.925	14.34
422.132	14.11
422.34	13.88
422.547	13.9
422.755	13.97
422.962	14
423.17	14.03
423.377	14.22
423.585	14.04
423.792	13.91
423.999	13.83
424.207	13.82
424.414	13.9
424.621	13.81
424.829	13.71
425.036	13.91
425.243	13.99
425.451	13.72
425.658	13.6
425.865	13.93
426.072	13.71
426.28	13.94
426.487	14.06
426.694	14.22
426.901	13.94
427.108	14.07
427.315	13.84
427.523	13.89
427.73	13.79
427.937	13.88
428.144	13.53
428.351	13.47
428.558	13.62
428.765	13.73
428.972	13.68
429.179	13.98
429.386	14.34
429.593	14.03
429.8	13.94
430.007	14.16
430.214	14.23
430.421	13.89
430.628	13.85
430.835	13.82
431.042	13.83
431.249	13.88
431.456	13.99
431.662	14.21
431.869	14.37
432.076	14.37
432.283	14.42
432.49	14.42
432.697	14.45
432.903	14.15
433.11	14.08
433.317	14.16
433.524	14.37
433.73	14.18
433.937	14.68
434.144	14.65
434.35	14.68
434.557	14.5
434.764	14.56
434.97	14.43
435.177	14.66
435.384	14.43
435.59	14.42
435.797	14.69
436.003	14.69
436.21	14.7
436.416	14.83
436.623	14.91
436.829	14.98
437.036	15.04
437.242	15.04
437.449	15.07
437.655	15.19
437.862	15.16
438.068	15.18
438.275	15.31
438.481	15.47
438.687	15.45
438.894	15.37
439.1	15.32
439.307	15.4
439.513	15.25
439.719	15.27
439.926	15.31
440.132	15.33
440.338	15.15
440.544	15.37
440.751	15.32
440.957	15.55
441.163	15.61
441.369	15.82
441.575	15.57
441.782	15.52
441.988	15.33
442.194	15.35
442.4	15.18
442.606	15.5
442.812	15.81
443.018	15.93
443.224	15.94
443.431	16.06
443.637	15.84
443.843	15.65
444.049	15.64
444.255	15.68
444.461	15.75
444.667	15.74
444.873	15.82
445.079	15.79
445.284	15.78
445.49	15.6
445.696	15.59
445.902	15.61
446.108	15.63
446.314	15.65
446.52	15.8
446.726	15.95
446.931	16.07
447.137	16.16
447.343	16.27
447.549	16.11
447.755	16.04
447.96	15.94
448.166	15.86
448.372	15.86
448.578	15.96
448.783	16.07
448.989	16.19
449.195	16.41
449.4	16.34
449.606	16.34
449.812	16.27
450.017	16.2
450.223	16.07
450.428	16.14
450.634	16.36
450.84	16.46
451.045	16.41
451.251	16.29
451.456	16.44
451.662	16.25
451.867	16.36
452.073	16.42
452.278	16.6
452.483	16.66
452.689	16.72
452.894	16.6
453.1	16.59
453.305	16.48
453.51	16.42
453.716	16.43
453.921	16.49
454.127	16.47
454.332	16.42
454.537	16.28
454.742	16.19
454.948	16.21
455.153	16.27
455.358	16.44
455.563	16.52
455.769	16.82
455.974	16.72
456.179	16.48
456.384	16.48
456.589	16.49
456.795	16.26
457	16.28
457.205	16.57
457.41	16.47
457.615	16.46
457.82	16.45
458.025	16.45
458.23	16.32
458.435	16.35
458.64	16.13
458.845	16.34
