Data from Ofra_PS_T2_1A_2HS17_Reflection_4.txt Node
Date: Wed Jul 21 18:02:02 EDT 2021
User: Adam
Spectrometer: FLMT01687
Trigger mode: 0
Integration Time (sec): 1.100000E0
Scans to average: 2
Electric dark correction enabled: true
Nonlinearity correction enabled: false
Boxcar width: 2
XAxis mode: Wavelengths
Number of Pixels in Spectrum: 3648
>>>>>Begin Spectral Data<<<<<
179.494	676.8
179.716	755.29
179.937	705.24
180.158	669.75
180.38	1070.62
180.601	353.04
180.823	35.29
181.044	-214.69
181.265	-33.09
181.486	12.06
181.708	65.13
181.929	734.69
182.15	-633.8
182.372	97.3
182.593	-16.72
182.814	8.26
183.035	98.61
183.257	60.09
183.478	-15.96
183.699	78.37
183.92	30.48
184.141	-20.96
184.363	-67.23
184.584	-16.5
184.805	-20.02
185.026	18.65
185.247	37.14
185.468	30.97
185.689	32.34
185.91	40.73
186.132	33.09
186.353	13.62
186.574	63.68
186.795	42.67
187.016	-23.08
187.237	-47.1
187.458	-82.23
187.679	-75.98
187.9	-47.01
188.121	-27.8
188.342	-4.46
188.563	30.5
188.784	29.96
189.005	-14.52
189.226	28.85
189.447	-4.31
189.667	-365.53
189.888	-607.39
190.109	-1827.27
190.33	-960
190.551	-1590.27
190.772	-307.99
190.993	-241.29
191.214	-128.38
191.434	-76.37
191.655	8.47
191.876	-65.01
192.097	-100.17
192.318	-173.98
192.538	-271.85
192.759	-212.36
192.98	-72.35
193.201	-25.8
193.421	4.51
193.642	23.22
193.863	41.27
194.083	10.14
194.304	-1.36
194.525	-5.29
194.745	-37.38
194.966	-72.75
195.187	-69.38
195.407	-108.83
195.628	-195.42
195.848	-198.38
196.069	-176.85
196.29	-143.57
196.51	-110.12
196.731	-81.76
196.951	-98.66
197.172	-115.16
197.392	-120.95
197.613	-157.18
197.833	-202.08
198.054	-175.84
198.274	-122.11
198.495	-122.54
198.715	-63.89
198.936	-65.9
199.156	-49.91
199.377	-134.26
199.597	-156.45
199.817	-182.62
200.038	-102.38
200.258	-154.57
200.479	-58.31
200.699	-21.2
200.919	28.22
201.14	1.39
201.36	5.87
201.58	28.11
201.801	49.95
202.021	14.81
202.241	13.44
202.461	3.86
202.682	-101.89
202.902	-187.9
203.122	-120.5
203.342	-103.11
203.563	-55.26
203.783	-13.77
204.003	-55.34
204.223	-68.76
204.443	-22.24
204.663	-86.74
204.884	-70.15
205.104	-23.12
205.324	15.16
205.544	19.32
205.764	55.92
205.984	51.3
206.204	53.63
206.424	32.08
206.644	7.76
206.864	7.66
207.084	-32.05
207.304	-51.59
207.525	-154.69
207.745	-94.56
207.964	-13.35
208.184	-51.77
208.404	-106.81
208.624	-94.75
208.844	-95.64
209.064	-413.36
209.284	-445.34
209.504	-194.18
209.724	-81.91
209.944	-51.36
210.164	-25.57
210.384	-7.68
210.604	-16.39
210.823	-41.55
211.043	-56.25
211.263	-47.65
211.483	-43.08
211.703	-101.63
211.922	-96.79
212.142	-33.98
212.362	-14.47
212.582	-20.78
212.801	-1.2
213.021	-16.04
213.241	-41.64
213.461	-94.85
213.68	-115.78
213.9	-86.96
214.12	-50.94
214.339	-101.54
214.559	-80.41
214.779	-21.57
214.998	-27.15
215.218	-73.66
215.438	-46.66
215.657	-34.1
215.877	-58.71
216.096	-22.04
216.316	-11.89
216.535	-25.31
216.755	-28.2
216.974	-117.56
217.194	-197.43
217.413	-191.75
217.633	-167.3
217.852	-285.03
218.072	-132.87
218.291	-76.42
218.511	-32.11
218.73	-48.44
218.95	-22.75
219.169	-29.2
219.389	-61.55
219.608	-48.01
219.827	-46.77
220.047	-61.18
220.266	-43.33
220.485	-45.39
220.705	-29.34
220.924	-41.03
221.143	11.15
221.363	-0
221.582	12.59
221.801	22.77
222.021	39.69
222.24	-21.79
222.459	48.02
222.678	31.46
222.897	-56.96
223.117	-95.57
223.336	-57.91
223.555	-43.06
223.774	-0.36
223.993	4.77
224.213	51.69
224.432	23.66
224.651	29.68
224.87	-2.13
225.089	15.47
225.308	11.57
225.527	30.03
225.746	17.17
225.965	17.78
226.184	-7.36
226.404	5.08
226.623	-28.51
226.842	-19.27
227.061	17
227.28	26.35
227.499	-0.17
227.718	25.09
227.936	18.98
228.155	-3.02
228.374	-30.15
228.593	3.05
228.812	-19.62
229.031	-20.06
229.25	-63.93
229.469	-81.74
229.688	-84.17
229.907	-18.28
230.125	-9.92
230.344	4.51
230.563	30.45
230.782	33.72
231.001	-62.2
231.22	-46.89
231.438	5.56
231.657	1.13
231.876	-30.16
232.095	25.52
232.313	12.3
232.532	-45.42
232.751	-76.24
232.969	-67.92
233.188	-163.27
233.407	-55.12
233.625	-36.91
233.844	-53.87
234.063	-37.89
234.281	-16.24
234.5	-26.63
234.719	-16.46
234.937	13.48
235.156	23.95
235.374	18.85
235.593	-0.62
235.811	-10.13
236.03	-21.57
236.249	-63.62
236.467	-53.38
236.686	-18.67
236.904	-6.45
237.123	-30.62
237.341	-24.61
237.559	-8.68
237.778	-27.39
237.996	-53.64
238.215	-17.19
238.433	-5.04
238.652	-28.41
238.87	-38.43
239.088	-23.56
239.307	-17.89
239.525	-21.26
239.743	-36.25
239.962	-30
240.18	-56.01
240.398	-119.83
240.617	-127.43
240.835	-104.18
241.053	-52.05
241.271	9.65
241.49	41.99
241.708	35.13
241.926	23.49
242.144	-22.01
242.363	-69.69
242.581	-104.26
242.799	-58.43
243.017	-18.65
243.235	-30.39
243.453	-25.87
243.672	-21.98
243.89	-20.89
244.108	-44.88
244.326	-16.62
244.544	-14.96
244.762	-6.91
244.98	-20.1
245.198	-0.42
245.416	-42.28
245.634	-31.9
245.852	-56.4
246.07	-67.33
246.288	-66.73
246.506	-74.14
246.724	-60.89
246.942	-45.88
247.16	-6.19
247.378	-15.34
247.596	8.13
247.814	-6.17
248.032	-31.34
248.25	-33.36
248.468	-24.07
248.685	-22.35
248.903	14.01
249.121	9.05
249.339	-23.24
249.557	-36.28
249.775	-32.15
249.992	-108.29
250.21	-84.6
250.428	-52.58
250.646	-56.51
250.863	-68.55
251.081	-33.08
251.299	-20.38
251.517	-23.34
251.734	-38.93
251.952	-48.01
252.17	-38.02
252.387	-19.08
252.605	-27.1
252.823	-21.12
253.04	2.25
253.258	20.87
253.475	11.79
253.693	49.43
253.911	50.12
254.128	49.48
254.346	35.97
254.563	11.2
254.781	-24.81
254.998	-47.47
255.216	-62.88
255.433	-47.91
255.651	-0
255.868	8.03
256.086	48.19
256.303	29.68
256.521	15.1
256.738	-13.64
256.956	-43.23
257.173	-79.57
257.39	-64.05
257.608	-76.29
257.825	-41.85
258.043	13.44
258.26	30.95
258.477	69.4
258.695	50.33
258.912	20.29
259.129	3.59
259.346	-40.7
259.564	-121.07
259.781	-122.31
259.998	-60.75
260.216	-25.48
260.433	14.38
260.65	32.91
260.867	41.25
261.084	-5.31
261.302	-35.15
261.519	-39.72
261.736	-75.68
261.953	-82.66
262.17	-4.77
262.387	-15.48
262.604	-36.98
262.822	-18.22
263.039	0.77
263.256	-62.64
263.473	-59.27
263.69	-42.92
263.907	-1.39
264.124	-3.73
264.341	9.97
264.558	11.57
264.775	15.72
264.992	-3.05
265.209	-6.42
265.426	16.77
265.643	22.06
265.86	32.55
266.077	42.06
266.294	39.51
266.51	-23.2
266.727	-33.12
266.944	-39.08
267.161	-40.94
267.378	-34.05
267.595	4.21
267.812	-20.44
268.028	-32.78
268.245	-23.02
268.462	-47.88
268.679	-60.73
268.896	-6.39
269.112	-7.73
269.329	-15.62
269.546	2.32
269.763	-5.45
269.979	-23.74
270.196	-21.65
270.413	-55.75
270.629	-65.66
270.846	-71.36
271.063	-64.59
271.279	-67.17
271.496	-44.05
271.712	-34.92
271.929	-7.11
272.146	-25.55
272.362	-30.27
272.579	16.22
272.795	15.14
273.012	5.63
273.228	5.43
273.445	-16.48
273.661	-76.82
273.878	-98.16
274.094	-73.83
274.311	-91.76
274.527	-8.29
274.744	-8.56
274.96	-10.74
275.177	-9.25
275.393	2.3
275.609	-25.53
275.826	3.49
276.042	0.51
276.259	-14.13
276.475	-9.27
276.691	-9.08
276.908	-33.77
277.124	-30.46
277.34	-36.44
277.557	-41.74
277.773	-49.47
277.989	-45.73
278.205	-51.18
278.422	-21.2
278.638	-2.47
278.854	32.04
279.07	43.69
279.286	48.39
279.503	13.02
279.719	-12.74
279.935	-72.56
280.151	-87.11
280.367	-53.8
280.583	-69.58
280.799	-47.52
281.016	-48.64
281.232	-22.16
281.448	-23.91
281.664	12.03
281.88	-23.38
282.096	25.17
282.312	65.29
282.528	71.73
282.744	52.88
282.96	48.27
283.176	10.56
283.392	-18.59
283.608	-16.58
283.824	-15.5
284.04	-6.65
284.256	9.54
284.471	4.31
284.687	-8.07
284.903	8.72
285.119	29.07
285.335	-8.97
285.551	5.05
285.767	-4.95
285.982	-30.38
286.198	-64.77
286.414	7.88
286.63	15.98
286.846	35.29
287.061	20.42
287.277	45.02
287.493	13.57
287.709	16.83
287.924	9.35
288.14	47.98
288.356	46.24
288.571	60.75
288.787	38
289.003	28.04
289.218	3.85
289.434	-35.37
289.65	-32.75
289.865	-35.67
290.081	-11.91
290.296	4.72
290.512	22.12
290.727	-18.92
290.943	-17.97
291.159	-20.15
291.374	-22.79
291.59	-53.7
291.805	-36.5
292.021	-28.25
292.236	-35.59
292.451	-18.98
292.667	-3.54
292.882	17.68
293.098	5.07
293.313	-2.55
293.529	-34.53
293.744	-47.22
293.959	-67.78
294.175	-56.19
294.39	-28.91
294.605	-2.49
294.821	21.87
295.036	26.45
295.251	38.14
295.467	7.55
295.682	-13
295.897	-65.67
296.112	-76.49
296.328	-83.43
296.543	-89.83
296.758	-100.55
296.973	-48.47
297.188	-10.3
297.404	-40.69
297.619	-51.41
297.834	-55.45
298.049	-88.16
298.264	-101.34
298.479	-29.79
298.694	-7.2
298.909	9.77
299.125	26.82
299.34	33.4
299.555	2.28
299.77	-9.87
299.985	-40.13
300.2	-98.29
300.415	-112.03
300.63	-76.8
300.845	-67.91
301.06	-58.21
301.275	-23.53
301.49	-1.68
301.704	-12.49
301.919	-23.51
302.134	-40.41
302.349	-46.48
302.564	-109.07
302.779	-116.63
302.994	-105.8
303.209	-32.88
303.423	-2.07
303.638	38.57
303.853	-10.99
304.068	-15.57
304.283	-16.87
304.497	-19.81
304.712	-36.46
304.927	-15.44
305.142	-18.17
305.356	-16.26
305.571	-19.91
305.786	-27.59
306	-45.96
306.215	-35.5
306.43	-71.25
306.644	-79.96
306.859	-45.14
307.074	-21.5
307.288	-57.75
307.503	-64.6
307.717	-57.53
307.932	-54.29
308.147	-57.13
308.361	-25.11
308.576	-19.48
308.79	-44.2
309.005	-41.66
309.219	-24.64
309.434	-45.43
309.648	-33.48
309.863	-1.57
310.077	-4.23
310.292	-13.52
310.506	-13.48
310.72	-3.81
310.935	-22.97
311.149	-21.55
311.364	7.32
311.578	20.73
311.792	-1.56
312.007	4.28
312.221	-8.36
312.435	-14.69
312.649	-20.93
312.864	8.5
313.078	38.4
313.292	103.94
313.507	88.2
313.721	116.01
313.935	49.47
314.149	28.18
314.363	15.37
314.578	9.88
314.792	3.47
315.006	-19.15
315.22	-2.75
315.434	-13.64
315.648	-8.51
315.862	-3.19
316.077	6.46
316.291	-8.99
316.505	9.94
316.719	13.33
316.933	-12.48
317.147	-30.19
317.361	-78.6
317.575	-106.51
317.789	-139.63
318.003	-216.31
318.217	-147.51
318.431	-46.64
318.645	-2.13
318.859	-5.41
319.073	13.39
319.287	1.18
319.5	-22.92
319.714	-60.69
319.928	-80.93
320.142	-98.86
320.356	-56.85
320.57	-36.92
320.784	-58.13
320.997	-55.16
321.211	-40.47
321.425	-84.4
321.639	-107.44
321.853	-45.13
322.066	-21.17
322.28	-29.2
322.494	-22.62
322.707	-10.96
322.921	-18.86
323.135	-30.68
323.349	-11.35
323.562	-28.11
323.776	-42.53
323.989	-38.8
324.203	-75.89
324.417	-111.64
324.63	-108.84
324.844	-99.47
325.057	-111.37
325.271	-57.21
325.485	-8.31
325.698	18.56
325.912	33.49
326.125	15.14
326.339	6.51
326.552	-24.42
326.766	-24.82
326.979	-4.06
327.193	35.12
327.406	29.6
327.619	25.05
327.833	13.07
328.046	-25.78
328.26	-72.67
328.473	-48.67
328.686	-72.03
328.9	-69.64
329.113	-42.83
329.326	-51.16
329.54	-44.43
329.753	-67.21
329.966	-73.11
330.179	-68.27
330.393	-50.91
330.606	-38.08
330.819	-2.74
331.032	14.53
331.246	17.83
331.459	46.58
331.672	42.43
331.885	31.89
332.098	-4.56
332.311	-13.89
332.525	-63.89
332.738	-57.99
332.951	-30.96
333.164	5.44
333.377	14.77
333.59	30.6
333.803	26.47
334.016	15.51
334.229	8.07
334.442	-6.99
334.655	22.24
334.868	23.63
335.081	25.68
335.294	2.54
335.507	8.21
335.72	-28.1
335.933	-28.69
336.146	-51.17
336.359	-28.02
336.572	-54.1
336.785	-77.88
336.997	-78.51
337.21	-30.63
337.423	-43.23
337.636	-46.95
337.849	-26.06
338.062	-41.72
338.274	-46.79
338.487	-35.29
338.7	-23.56
338.913	-59.1
339.125	-77.43
339.338	-130.56
339.551	-119.89
339.763	-73.58
339.976	-38.83
340.189	-14.98
340.402	4.18
340.614	-4.15
340.827	-19.98
341.039	-37.88
341.252	-27.73
341.465	-20.54
341.677	-28.81
341.89	-68.6
342.102	-33.01
342.315	-57.61
342.527	-115.89
342.74	-108.44
342.952	-47.58
343.165	-53.75
343.377	-21.72
343.59	-5.81
343.802	22.1
344.015	11.43
344.227	28.68
344.44	22.62
344.652	29.83
344.864	13.64
345.077	32.03
345.289	25.77
345.502	31.2
345.714	16.79
345.926	17.87
346.139	3.94
346.351	8.3
346.563	6.15
346.775	26.04
346.988	6.5
347.2	-12.96
347.412	-59.93
347.624	-72.44
347.837	-116.98
348.049	-80.59
348.261	-35.48
348.473	-15.84
348.685	-26.8
348.897	-23.22
349.11	-41.98
349.322	-63.41
349.534	-52.1
349.746	-51.02
349.958	-40.47
350.17	-28.56
350.382	-27.35
350.594	-32.95
350.806	-18.64
351.018	-9.75
351.23	-35.31
351.442	-66.8
351.654	-85.29
351.866	-70.51
352.078	-72.92
352.29	-29.35
352.502	-0.97
352.714	22.29
352.926	6.94
353.138	9.69
353.35	-5.84
353.561	-8.46
353.773	-33.39
353.985	-23.62
354.197	-33.48
354.409	-23.51
354.621	-27.25
354.832	-19.22
355.044	-26.04
355.256	-22.08
355.468	-17.8
355.679	-27.95
355.891	-14.33
356.103	-20.64
356.314	-19.37
356.526	-19.58
356.738	-9.93
356.949	-20.94
357.161	5.69
357.373	7.09
357.584	-12.53
357.796	-6.49
358.008	-15.94
358.219	-15.01
358.431	-22.11
358.642	-5.2
358.854	-1.69
359.065	-9.5
359.277	-40.4
359.488	-46.93
359.7	-69.32
359.911	-81.22
360.123	-50.26
360.334	-59.18
360.546	-64.21
360.757	-60.19
360.969	-38.65
361.18	-43.13
361.391	-12.34
361.603	-24.79
361.814	-19.83
362.025	-31.41
362.237	-42.27
362.448	-34.04
362.659	-14.09
362.871	-14.96
363.082	-18.95
363.293	-3.67
363.504	-13.77
363.716	-27.08
363.927	-37.43
364.138	-63.92
364.349	-77.07
364.56	-75.28
364.772	-66.84
364.983	-35.29
365.194	-23.68
365.405	-14.93
365.616	3.19
365.827	11.56
366.038	-15.97
366.25	-17.08
366.461	-51.67
366.672	-37.73
366.883	-30.25
367.094	-19.31
367.305	-29.4
367.516	-18.87
367.727	-55.57
367.938	-66.01
368.149	-60.41
368.36	-36.42
368.571	-29.49
368.781	-32.82
368.992	-39.36
369.203	-53.67
369.414	-87.09
369.625	-100.78
369.836	-79.91
370.047	-120.45
370.258	-101.05
370.468	-85.46
370.679	-92.5
370.89	-87.63
371.101	-53.64
371.312	-55.9
371.522	-44.97
371.733	-35.63
371.944	-23.04
372.155	-10.8
372.365	-15.92
372.576	-22.48
372.787	-17.42
372.997	-47.78
373.208	-50.02
373.419	-21.28
373.629	-58.21
373.84	-62.53
374.05	-60.03
374.261	-61.69
374.472	-87.92
374.682	-21.65
374.893	-15.37
375.103	29.49
375.314	23.49
375.524	22.75
375.735	18.5
375.945	23.8
376.156	-14.17
376.366	-15.47
376.577	-9.71
376.787	-18.82
376.997	-13.97
377.208	-10.28
377.418	-14.09
377.629	-10.41
377.839	-17.93
378.049	-25.29
378.26	-14.7
378.47	-8.37
378.68	-10.83
378.89	-10.66
379.101	-11.18
379.311	-35
379.521	-66.08
379.732	-72.75
379.942	-63.04
380.152	-78.9
380.362	-45.53
380.572	-30.57
380.783	-8.2
380.993	-0.66
381.203	13.18
381.413	13.65
381.623	19.24
381.833	7.9
382.043	-3.76
382.253	-12.83
382.463	-14.32
382.674	-23.3
382.884	-40.6
383.094	-33.28
383.304	-22.47
383.514	-6.9
383.724	1.2
383.934	-5.41
384.144	-14.21
384.353	-29.49
384.563	-34.66
384.773	-26.18
384.983	-22.09
385.193	-0.74
385.403	7.76
385.613	2.5
385.823	-13.99
386.033	-4.2
386.242	-14.79
386.452	-17.13
386.662	-22.62
386.872	-7.72
387.082	-17.37
387.291	-25.12
387.501	-26.09
387.711	-16.09
387.921	-22.77
388.13	-17.8
388.34	-8.49
388.55	-14.65
388.759	-20.1
388.969	-13.16
389.179	-19.35
389.388	-19.68
389.598	-11
389.807	-12.72
390.017	-18.25
390.227	-13.47
390.436	-15.72
390.646	-14.19
390.855	-11.25
391.065	-9.21
391.274	-10.54
391.484	-10.59
391.693	-9.94
391.903	-7.22
392.112	-2.75
392.322	-0.31
392.531	4.04
392.74	4.68
392.95	-0.83
393.159	-2.28
393.369	-2.05
393.578	-3.34
393.787	-4.98
393.997	-3.31
394.206	-5.54
394.415	-5.35
394.625	-6.92
394.834	-8.21
395.043	-5.76
395.252	-2.68
395.462	0.29
395.671	2
395.88	2.66
396.089	2.8
396.298	1.46
396.508	-0.38
396.717	-0.46
396.926	0.33
397.135	-0.36
397.344	-0.81
397.553	-0.43
397.762	0.89
397.971	1.13
398.181	1.37
398.39	1.2
398.599	1.05
398.808	0.45
399.017	0.78
399.226	1.66
399.435	3.23
399.644	3.36
399.853	2.41
400.062	2.17
400.27	1.53
400.479	0.62
400.688	-0.05
400.897	0.35
401.106	-0.06
401.315	-0.05
401.524	-0.33
401.733	0.41
401.941	0.76
402.15	1.31
402.359	1.12
402.568	1.7
402.777	1.51
402.985	1.04
403.194	0.78
403.403	0.98
403.612	0.54
403.82	0.28
404.029	0.64
404.238	0.47
404.446	0.62
404.655	0.6
404.864	0.52
405.072	0.26
405.281	0.64
405.489	0.47
405.698	0.48
405.906	0.69
406.115	0.8
406.324	0.67
406.532	0.85
406.741	1.13
406.949	1.06
407.158	1.03
407.366	0.97
407.574	0.83
407.783	0.7
407.991	0.51
408.2	0.67
408.408	0.54
408.617	0.47
408.825	0.33
409.033	0.53
409.242	0.55
409.45	0.82
409.658	0.7
409.867	0.95
410.075	0.88
410.283	0.68
410.491	0.56
410.7	0.59
410.908	0.51
411.116	0.83
411.324	0.85
411.533	0.69
411.741	1.12
411.949	1.06
412.157	0.75
412.365	0.81
412.573	1.02
412.781	0.88
412.99	0.88
413.198	1.02
413.406	1.04
413.614	1.04
413.822	0.85
414.03	0.75
414.238	0.61
414.446	0.68
414.654	0.38
414.862	0.49
415.07	0.63
415.278	0.83
415.486	0.69
415.694	0.93
415.902	0.79
416.109	0.65
416.317	0.58
416.525	0.41
416.733	0.39
416.941	0.59
417.149	0.67
417.357	0.74
417.564	1.16
417.772	1.38
417.98	1.2
418.188	1.21
418.395	1.15
418.603	1.18
418.811	0.78
419.019	0.87
419.226	1.08
419.434	1.2
419.642	0.86
419.849	1.06
420.057	1.04
420.265	0.91
420.472	0.67
420.68	0.84
420.887	0.67
421.095	0.71
421.302	0.63
421.51	0.9
421.717	0.99
421.925	1.11
422.132	0.95
422.34	0.74
422.547	0.78
422.755	0.46
422.962	0.42
423.17	0.47
423.377	0.68
423.585	0.53
423.792	0.6
423.999	0.7
424.207	0.66
424.414	0.66
424.621	0.62
424.829	0.67
425.036	0.6
425.243	0.76
425.451	0.72
425.658	0.58
425.865	0.74
426.072	0.72
426.28	0.87
426.487	0.77
426.694	0.9
426.901	0.73
427.108	0.71
427.315	0.52
427.523	0.86
427.73	0.85
427.937	0.79
428.144	0.6
428.351	0.66
428.558	0.69
428.765	0.53
428.972	0.55
429.179	0.77
429.386	0.99
429.593	0.66
429.8	0.65
430.007	0.8
430.214	0.81
430.421	0.55
430.628	0.45
430.835	0.48
431.042	0.59
431.249	0.64
431.456	0.57
431.662	0.79
431.869	1.04
432.076	0.96
432.283	1.09
432.49	1.17
432.697	1.09
432.903	0.74
433.11	0.71
433.317	0.65
433.524	0.94
433.73	0.92
433.937	1.29
434.144	1.18
434.35	1.09
434.557	0.72
434.764	0.72
434.97	0.48
435.177	0.63
435.384	0.61
435.59	0.7
435.797	0.87
436.003	1.03
436.21	0.99
436.416	1.05
436.623	1.06
436.829	1.1
437.036	1.14
437.242	1.16
437.449	1.05
437.655	1.04
437.862	1.03
438.068	0.86
438.275	0.87
438.481	1.06
438.687	1.04
438.894	0.89
439.1	0.99
439.307	1.18
439.513	1.12
439.719	1.13
439.926	1.23
440.132	1.08
440.338	0.83
440.544	1
440.751	0.98
440.957	0.98
441.163	1.01
441.369	1.23
441.575	0.86
441.782	0.93
441.988	0.83
442.194	0.87
442.4	0.83
442.606	1.19
442.812	1.24
443.018	1.44
443.224	1.43
443.431	1.44
443.637	1.12
443.843	0.97
444.049	0.85
444.255	0.8
444.461	0.83
444.667	0.91
444.873	1.06
445.079	1.09
445.284	1.24
445.49	0.92
445.696	0.75
445.902	0.63
446.108	0.56
446.314	0.45
446.52	0.66
446.726	0.95
446.931	0.94
447.137	0.95
447.343	0.96
447.549	0.95
447.755	0.82
447.96	0.85
448.166	0.78
448.372	0.7
448.578	0.66
448.783	0.67
448.989	0.74
449.195	1.03
449.4	1.15
449.606	1.14
449.812	1.09
450.017	1.14
450.223	0.91
450.428	0.86
450.634	0.98
450.84	1.16
451.045	1.07
451.251	1.04
451.456	1.25
451.662	1.26
451.867	1.29
452.073	1.3
452.278	1.45
452.483	1.55
452.689	1.44
452.894	1.35
453.1	1.32
453.305	1.23
453.51	1.04
453.716	1.01
453.921	1.02
454.127	0.96
454.332	0.87
454.537	0.77
454.742	0.8
454.948	0.78
455.153	0.88
455.358	1.07
455.563	1.27
455.769	1.36
455.974	1.39
456.179	1.3
456.384	1.26
456.589	1.11
456.795	0.94
457	0.85
457.205	1.04
457.41	0.94
457.615	0.96
