Data from Ofra_1a_PS_2GT3_Reflection_4.txt Node
Date: Tue Jul 20 10:49:20 EDT 2021
User: Adam
Spectrometer: FLMT01687
Trigger mode: 0
Integration Time (sec): 1.004000E0
Scans to average: 2
Electric dark correction enabled: true
Nonlinearity correction enabled: false
Boxcar width: 2
XAxis mode: Wavelengths
Number of Pixels in Spectrum: 3648
>>>>>Begin Spectral Data<<<<<
179.494	-309.64
179.716	-442.75
179.937	1192.64
180.158	-1751.59
180.38	259.07
180.601	199.49
180.823	186.37
181.044	148.73
181.265	175.18
181.486	95.99
181.708	98.74
181.929	-4018.18
182.15	62.34
182.372	-253.2
182.593	-29.53
182.814	66.89
183.035	41.23
183.257	58.81
183.478	30.18
183.699	2.3
183.92	-42.85
184.141	-70.71
184.363	-66.9
184.584	-94.06
184.805	-36.16
185.026	8.7
185.247	15.51
185.468	-18.42
185.689	13.22
185.91	-36.66
186.132	-20.89
186.353	-12.36
186.574	3.11
186.795	-36.22
187.016	-2.45
187.237	-6.54
187.458	-9.57
187.679	-7.65
187.9	22.59
188.121	22.39
188.342	14.76
188.563	36.8
188.784	40.56
189.005	38.79
189.226	43.73
189.447	36.91
189.667	13.65
189.888	8.94
190.109	-17.7
190.33	-7.57
190.551	-18.47
190.772	-3.41
190.993	-12.43
191.214	-2.55
191.434	-83.72
191.655	-77.77
191.876	-55.61
192.097	-26.23
192.318	6.74
192.538	-1.48
192.759	1.36
192.98	17.34
193.201	12.75
193.421	0.51
193.642	25.66
193.863	31.38
194.083	19.19
194.304	18.6
194.525	12.36
194.745	-10.25
194.966	2.33
195.187	-2.34
195.407	-20.12
195.628	1.22
195.848	5.57
196.069	-19.35
196.29	-8.66
196.51	3.84
196.731	-21.82
196.951	-24.83
197.172	-25.16
197.392	-34.31
197.613	-18.9
197.833	-16.35
198.054	-8.43
198.274	-1.13
198.495	12.16
198.715	3.23
198.936	20.82
199.156	4.25
199.377	5.91
199.597	0.76
199.817	21.73
200.038	-14.62
200.258	15.28
200.479	13.68
200.699	13.22
200.919	-6.84
201.14	5.12
201.36	-1.91
201.58	-9.32
201.801	-7.89
202.021	-1.34
202.241	-16.66
202.461	-17.96
202.682	19.64
202.902	18.83
203.122	22.82
203.342	28.65
203.563	13.73
203.783	-19.76
204.003	-14.72
204.223	4.87
204.443	27.47
204.663	42.3
204.884	78
205.104	44.38
205.324	17.29
205.544	-18.07
205.764	20
205.984	-3.64
206.204	8.62
206.424	7.51
206.644	-0.33
206.864	-37.37
207.084	-12.08
207.304	-23.9
207.525	-33.2
207.745	-9.83
207.964	-9.62
208.184	-0.58
208.404	17.23
208.624	34.45
208.844	34.61
209.064	41.94
209.284	24.4
209.504	9.35
209.724	-12.3
209.944	-23.71
210.164	-19.5
210.384	-20.25
210.604	-30.91
210.823	-20.99
211.043	-4.33
211.263	-84.47
211.483	-62.77
211.703	-39.93
211.922	-65.7
212.142	-54.99
212.362	-6.9
212.582	-10.38
212.801	-14.37
213.021	4.81
213.241	-8.4
213.461	3.7
213.68	19.2
213.9	10.29
214.12	-1.5
214.339	-7.2
214.559	-21.27
214.779	-53.5
214.998	-27.29
215.218	-0.46
215.438	21.08
215.657	7.94
215.877	-1.47
216.096	9.55
216.316	4.56
216.535	-3.37
216.755	13.43
216.974	30.91
217.194	15.63
217.413	-0.69
217.633	-10.47
217.852	-11.57
218.072	-2.79
218.291	-14.75
218.511	-6.38
218.73	-20.76
218.95	-62.89
219.169	-79.43
219.389	-51.53
219.608	-41.92
219.827	-1.71
220.047	46.94
220.266	64.3
220.485	56.99
220.705	32.67
220.924	22.01
221.143	-4.6
221.363	2.15
221.582	7.27
221.801	20.09
222.021	16
222.24	9.29
222.459	37.25
222.678	44.82
222.897	34.08
223.117	34.8
223.336	53.5
223.555	46.67
223.774	41.53
223.993	64.04
224.213	66.7
224.432	28.26
224.651	12.33
224.87	10.12
225.089	3.63
225.308	11.88
225.527	7.93
225.746	0.18
225.965	1.19
226.184	-17.96
226.404	-18.23
226.623	1.06
226.842	9.12
227.061	7.36
227.28	27.92
227.499	27.66
227.718	21.69
227.936	11.93
228.155	15.24
228.374	9.14
228.593	8.47
228.812	6.75
229.031	10.57
229.25	-4.56
229.469	9.34
229.688	25.4
229.907	24.75
230.125	29.02
230.344	34.99
230.563	31.86
230.782	24.71
231.001	27.57
231.22	34.03
231.438	47.64
231.657	50.21
231.876	45.22
232.095	33.3
232.313	13.23
232.532	-2.57
232.751	-36.95
232.969	-48.76
233.188	-48.67
233.407	-30.34
233.625	-30.32
233.844	-11.12
234.063	-7.76
234.281	5.02
234.5	2.44
234.719	3.69
234.937	-13.08
235.156	-4.16
235.374	-1.69
235.593	9.32
235.811	18.11
236.03	14.83
236.249	4.27
236.467	11.04
236.686	1.46
236.904	-2.24
237.123	-0.35
237.341	10.64
237.559	-1.67
237.778	14.13
237.996	-8.79
238.215	-46.84
238.433	-104.28
238.652	-55.1
238.87	-56.89
239.088	-39.68
239.307	-23.06
239.525	-3.07
239.743	-8.11
239.962	-28.51
240.18	-11.82
240.398	-2.18
240.617	-14.32
240.835	-2.35
241.053	13.54
241.271	21.16
241.49	26.01
241.708	20.27
241.926	1.27
242.144	12.73
242.363	-2.78
242.581	-52.39
242.799	-44.69
243.017	-3.98
243.235	-14.76
243.453	-39.09
243.672	-3.15
243.89	12
244.108	13.8
244.326	30.38
244.544	43.67
244.762	28.46
244.98	20.64
245.198	26.15
245.416	16.27
245.634	6.73
245.852	2.26
246.07	14.81
246.288	16.42
246.506	6.31
246.724	9.23
246.942	12.53
247.16	16.21
247.378	11.55
247.596	49.09
247.814	40.5
248.032	25.27
248.25	26.29
248.468	22.8
248.685	9.23
248.903	14.53
249.121	15.49
249.339	8.18
249.557	9.64
249.775	30.07
249.992	30.96
250.21	37.98
250.428	46.1
250.646	35.43
250.863	11
251.081	9.88
251.299	11.34
251.517	-9.59
251.734	-7.53
251.952	5.28
252.17	12.78
252.387	6.33
252.605	11.99
252.823	9.33
253.04	25.3
253.258	11.07
253.475	9.82
253.693	12.44
253.911	10.43
254.128	-8.78
254.346	-4.66
254.563	7.61
254.781	-7.79
254.998	-29.26
255.216	-50.55
255.433	-72.35
255.651	-58.93
255.868	-40.5
256.086	1.19
256.303	13.59
256.521	29.88
256.738	26.15
256.956	23.93
257.173	9.8
257.39	24.37
257.608	23.25
257.825	26
258.043	33.08
258.26	41.54
258.477	34.93
258.695	31.08
258.912	21.74
259.129	14.79
259.346	-12.32
259.564	-13.43
259.781	-6.08
259.998	7.21
260.216	14.33
260.433	17.51
260.65	9.82
260.867	3.61
261.084	2.34
261.302	-21.61
261.519	-2.28
261.736	-11.33
261.953	-1.33
262.17	6.48
262.387	23.47
262.604	20.59
262.822	35.97
263.039	34.91
263.256	26.36
263.473	14.37
263.69	4.69
263.907	-7.98
264.124	4.85
264.341	15.67
264.558	31.7
264.775	38.14
264.992	46.36
265.209	17.36
265.426	18.68
265.643	19.81
265.86	6.63
266.077	-5.41
266.294	5.5
266.51	13.37
266.727	0.36
266.944	25.59
267.161	27.83
267.378	21.72
267.595	17.01
267.812	11.2
268.028	-17.53
268.245	-19.8
268.462	4.49
268.679	2.54
268.896	19.54
269.112	24.45
269.329	13.73
269.546	19.34
269.763	20.55
269.979	12.76
270.196	26.78
270.413	33.3
270.629	14
270.846	3.67
271.063	1.27
271.279	-0.96
271.496	-16.39
271.712	-1.5
271.929	9.58
272.146	23.82
272.362	22.14
272.579	24.4
272.795	17.37
273.012	29.19
273.228	9.5
273.445	12.62
273.661	15.36
273.878	15.56
274.094	-4.33
274.311	0.95
274.527	-27.72
274.744	-6.72
274.96	6.45
275.177	15.78
275.393	30.97
275.609	41.15
275.826	33.27
276.042	25.66
276.259	33.83
276.475	20.87
276.691	8.87
276.908	-3.42
277.124	13.65
277.34	-4.24
277.557	-11.41
277.773	-2.74
277.989	19.74
278.205	15.31
278.422	11.62
278.638	13.51
278.854	0.61
279.07	5.16
279.286	4.72
279.503	6.05
279.719	17.98
279.935	18.97
280.151	5.26
280.367	-4.27
280.583	-7
280.799	-19.72
281.016	-32.76
281.232	-22.16
281.448	-10.46
281.664	-0.03
281.88	8.51
282.096	16.99
282.312	12.63
282.528	8.95
282.744	6.74
282.96	-2.16
283.176	-21.38
283.392	-42.37
283.608	-44.45
283.824	-44.49
284.04	-75.61
284.256	-17.2
284.471	7.4
284.687	4.84
284.903	13.25
285.119	39.26
285.335	40.29
285.551	27.23
285.767	33.3
285.982	28.86
286.198	-22.86
286.414	-44.96
286.63	1.1
286.846	-19.37
287.061	-17.91
287.277	-18.63
287.493	-33.12
287.709	-49.53
287.924	-9.16
288.14	11.28
288.356	37.31
288.571	47.56
288.787	37.32
289.003	30.19
289.218	3.62
289.434	-10.88
289.65	-1.95
289.865	5.2
290.081	15.34
290.296	25.68
290.512	25.81
290.727	22.32
290.943	21.47
291.159	14.34
291.374	-1.11
291.59	5.08
291.805	-0.85
292.021	0.14
292.236	-15.4
292.451	-4.85
292.667	-15.52
292.882	-3.18
293.098	-5.88
293.313	0.77
293.529	-0.37
293.744	-9.36
293.959	-19.45
294.175	-22.13
294.39	-24.93
294.605	-6.81
294.821	8.17
295.036	18.69
295.251	32.42
295.467	22.05
295.682	21.08
295.897	18.31
296.112	11.14
296.328	15
296.543	11.94
296.758	10.28
296.973	6.45
297.188	-1.24
297.404	-47.04
297.619	-42.16
297.834	-96.4
298.049	-92.61
298.264	-83.09
298.479	-63.29
298.694	-11.38
298.909	9.91
299.125	7.59
299.34	14.17
299.555	26.48
299.77	34.51
299.985	27.39
300.2	37.86
300.415	39.81
300.63	30.84
300.845	23.58
301.06	12.57
301.275	-0.69
301.49	4.6
301.704	-1.79
301.919	-9.69
302.134	-6.54
302.349	8.27
302.564	-2.6
302.779	-25.08
302.994	-7.92
303.209	4.44
303.423	-12.08
303.638	4.93
303.853	21.91
304.068	12.46
304.283	-0.86
304.497	-20.24
304.712	-22.25
304.927	-8.08
305.142	-4.83
305.356	0.67
305.571	17.33
305.786	15.88
306	20.66
306.215	11.29
306.43	11.99
306.644	-1.69
306.859	-11.02
307.074	-15.25
307.288	2.35
307.503	12.22
307.717	18.72
307.932	20.07
308.147	21.88
308.361	17.23
308.576	-6.95
308.79	-4.24
309.005	-24.13
309.219	-23.89
309.434	-25.69
309.648	-13.4
309.863	-14.78
310.077	-3.5
310.292	11.01
310.506	-5.4
310.72	-0.23
310.935	13.97
311.149	14.21
311.364	0.88
311.578	8.86
311.792	10.63
312.007	-12.12
312.221	-17.73
312.435	-0.61
312.649	8.35
312.864	10.25
313.078	10.91
313.292	24.55
313.507	30.63
313.721	30.98
313.935	29.09
314.149	27.49
314.363	24.78
314.578	9.01
314.792	-12.61
315.006	-15.4
315.22	-2.75
315.434	-0.38
315.648	-9.38
315.862	-8.84
316.077	-14.48
316.291	-22.74
316.505	-58.45
316.719	-44.96
316.933	-27.77
317.147	-20.5
317.361	-10.94
317.575	15.07
317.789	27.43
318.003	21.34
318.217	48.78
318.431	35.27
318.645	19.9
318.859	20.45
319.073	28.83
319.287	13.19
319.5	14.52
319.714	9.28
319.928	5.1
320.142	-3.47
320.356	-4.81
320.57	-9.1
320.784	-9.69
320.997	-34
321.211	-4.04
321.425	-24.42
321.639	1.34
321.853	18.89
322.066	21.09
322.28	4.96
322.494	16.32
322.707	2.75
322.921	-13.28
323.135	-1.66
323.349	7.65
323.562	9.27
323.776	11.94
323.989	20.11
324.203	5.92
324.417	-6.69
324.63	-14.89
324.844	-23.51
325.057	-50.03
325.271	-38.1
325.485	-27.6
325.698	-6.84
325.912	17.63
326.125	19.55
326.339	29.64
326.552	25.08
326.766	13.93
326.979	5.49
327.193	9.44
327.406	-9.48
327.619	3.27
327.833	9.23
328.046	13.06
328.26	11.09
328.473	21.74
328.686	11.56
328.9	7.39
329.113	2.69
329.326	2.86
329.54	5.59
329.753	14.3
329.966	18.19
330.179	10.02
330.393	7.82
330.606	-1.46
330.819	-8.23
331.032	-3.85
331.246	3.57
331.459	13.33
331.672	7.55
331.885	1.86
332.098	5.39
332.311	4.33
332.525	1.3
332.738	8.17
332.951	0.64
333.164	2.23
333.377	4.97
333.59	-1.72
333.803	12.51
334.016	29.63
334.229	8.7
334.442	4.53
334.655	12.32
334.868	2.01
335.081	-6.77
335.294	-11.62
335.507	2.69
335.72	3.77
335.933	14.65
336.146	23.67
336.359	41.17
336.572	39.32
336.785	45.73
336.997	35.07
337.21	13.28
337.423	-28.28
337.636	-32.25
337.849	-33.74
338.062	-18.72
338.274	0.3
338.487	-0.63
338.7	-1.81
338.913	9.02
339.125	4.94
339.338	-10.22
339.551	-3.8
339.763	-15.17
339.976	-8.47
340.189	-17.79
340.402	-9.53
340.614	-1.25
340.827	15.05
341.039	3.04
341.252	13.18
341.465	3.07
341.677	13.34
341.89	8.51
342.102	17.16
342.315	16.05
342.527	27.66
342.74	1.45
342.952	7.14
343.165	-3.31
343.377	5.59
343.59	2.71
343.802	8.19
344.015	11.7
344.227	19.87
344.44	23.34
344.652	25.83
344.864	40.56
345.077	38.23
345.289	38.84
345.502	46.73
345.714	41.17
345.926	42.36
346.139	43.58
346.351	34.99
346.563	26.46
346.775	31.86
346.988	22.46
347.2	23.42
347.412	28.98
347.624	19.07
347.837	15.1
348.049	17.07
348.261	9.22
348.473	-14.12
348.685	-22.48
348.897	-19.77
349.11	-21.04
349.322	-3.71
349.534	0.62
349.746	10.36
349.958	-6.14
350.17	-14.54
350.382	-27.88
350.594	-7.16
350.806	2.83
351.018	13.29
351.23	34.51
351.442	43.69
351.654	38.69
351.866	38.98
352.078	47.66
352.29	32.85
352.502	18.95
352.714	17.99
352.926	15.44
353.138	14
353.35	10.16
353.561	20.26
353.773	18.31
353.985	21.67
354.197	20.11
354.409	19.94
354.621	5.62
354.832	2.71
355.044	-21.27
355.256	-24.98
355.468	-21.64
355.679	3.27
355.891	10.96
356.103	14.2
356.314	0.63
356.526	-17.51
356.738	-33.1
356.949	-30.13
357.161	-4.61
357.373	6.09
357.584	21.62
357.796	33.82
358.008	34.67
358.219	33.31
358.431	42.85
358.642	40.97
358.854	44.13
359.065	28.02
359.277	22.59
359.488	12.48
359.7	8.57
359.911	-2.39
360.123	15.47
360.334	3.36
360.546	2.49
360.757	0.36
360.969	4.32
361.18	-6.09
361.391	4.95
361.603	6.99
361.814	12.77
362.025	17.67
362.237	21.4
362.448	18.69
362.659	19.93
362.871	15.02
363.082	2.44
363.293	3.76
363.504	-12.4
363.716	-16.77
363.927	6.21
364.138	-0.59
364.349	-18.87
364.56	-12.43
364.772	3.18
364.983	-4.59
365.194	6.11
365.405	11.66
365.616	18.48
365.827	-0.63
366.038	-2.98
366.25	3.47
366.461	11.82
366.672	11.76
366.883	10.6
367.094	8.73
367.305	-11.53
367.516	-23.47
367.727	-38.75
367.938	-45
368.149	-45.12
368.36	-46.45
368.571	-43.91
368.781	-39.62
368.992	-24.64
369.203	-22.82
369.414	-13.97
369.625	-9.92
369.836	10.45
370.047	12.93
370.258	16.07
370.468	12.13
370.679	6.52
370.89	-8.46
371.101	1.1
371.312	0.41
371.522	9.69
371.733	-0.44
371.944	-13.05
372.155	-8.09
372.365	-2.72
372.576	-11.82
372.787	-1.73
372.997	6.17
373.208	4.85
373.419	1.13
373.629	-3.87
373.84	-4.93
374.05	-5.29
374.261	-17.12
374.472	-24.68
374.682	-20.17
374.893	-25.42
375.103	-7.61
375.314	1.72
375.524	6.75
375.735	21.1
375.945	24.44
376.156	12.74
376.366	16.66
376.577	22.66
376.787	16.07
376.997	19.47
377.208	21.05
377.418	15.2
377.629	14.26
377.839	12.43
378.049	13.37
378.26	5.36
378.47	0.6
378.68	-8.69
378.89	-2.45
379.101	4.61
379.311	9.26
379.521	7.95
379.732	16.91
379.942	6.58
380.152	-5.59
380.362	0.2
380.572	13.8
380.783	13.7
380.993	19.89
381.203	15.05
381.413	17.52
381.623	16.14
381.833	20.6
382.043	7.15
382.253	14.48
382.463	20.67
382.674	17.81
382.884	18.5
383.094	24.68
383.304	21.05
383.514	16.03
383.724	11.42
383.934	-0.1
384.144	4.39
384.353	8.25
384.563	-0.25
384.773	3.11
384.983	3.69
385.193	1.66
385.403	3.67
385.613	8.43
385.823	12.52
386.033	16.55
386.242	14.2
386.452	9.18
386.662	9.25
386.872	8.13
387.082	3.3
387.291	0.18
387.501	5
387.711	5.14
387.921	0.27
388.13	4.69
388.34	6.38
388.55	0.25
388.759	-6.26
388.969	-4.8
389.179	-5.82
389.388	-1.38
389.598	-1.34
389.807	-1.88
390.017	-0.71
390.227	-3.54
390.436	-5.97
390.646	-6.16
390.855	-3.35
391.065	-5.53
391.274	-3.97
391.484	-4.28
391.693	-3.17
391.903	-2.07
392.112	-1.06
392.322	-0.06
392.531	0.47
392.74	0.95
392.95	1.2
393.159	2.14
393.369	1.61
393.578	1.53
393.787	0.97
393.997	1.37
394.206	0.84
394.415	2.81
394.625	1.82
394.834	1.15
395.043	3.12
395.252	5.22
395.462	5.89
395.671	6.16
395.88	7.68
396.089	5.28
396.298	4.64
396.508	3.77
396.717	4.09
396.926	3.64
397.135	4.06
397.344	3.02
397.553	3.48
397.762	5
397.971	4.91
398.181	5.21
398.39	5.07
398.599	4.85
398.808	4.22
399.017	5.21
399.226	4.79
399.435	4.63
399.644	5.14
399.853	4.99
400.062	4.24
400.27	4.1
400.479	4.3
400.688	3.92
400.897	3.59
401.106	3.75
401.315	3.98
401.524	4.34
401.733	3.98
401.941	4.1
402.15	4.05
402.359	4
402.568	4.16
402.777	4.35
402.985	3.98
403.194	3.98
403.403	4.41
403.612	4.11
403.82	3.86
404.029	4.09
404.238	4.22
404.446	3.99
404.655	4.08
404.864	4.33
405.072	4.52
405.281	4.55
405.489	4.57
405.698	4.53
405.906	4.47
406.115	4.35
406.324	4.13
406.532	4.25
406.741	4.17
406.949	4.25
407.158	4.29
407.366	4.24
407.574	4.12
407.783	4.17
407.991	4.05
408.2	4.12
408.408	4.17
408.617	4.07
408.825	3.94
409.033	3.93
409.242	3.9
409.45	3.84
409.658	3.9
409.867	3.93
410.075	3.98
410.283	3.85
410.491	3.83
410.7	3.69
410.908	3.68
411.116	3.7
411.324	3.64
411.533	3.58
411.741	3.58
411.949	3.58
412.157	3.49
412.365	3.6
412.573	3.72
412.781	3.66
412.99	3.74
413.198	3.8
413.406	3.96
413.614	3.96
413.822	4.15
414.03	4.1
414.238	4.13
414.446	3.93
414.654	3.94
414.862	3.84
415.07	3.7
415.278	3.72
415.486	3.65
415.694	3.57
415.902	3.62
416.109	3.73
416.317	3.62
416.525	3.7
416.733	3.73
416.941	3.72
417.149	3.71
417.357	3.69
417.564	3.75
417.772	3.76
417.98	3.71
418.188	3.59
418.395	3.46
418.603	3.32
418.811	3.16
419.019	3.1
419.226	3.25
419.434	3.42
419.642	3.25
419.849	3.41
420.057	3.31
420.265	3.23
420.472	3.21
420.68	3.47
420.887	3.36
421.095	3.41
421.302	3.45
421.51	3.29
421.717	3.14
421.925	3.19
422.132	3.25
422.34	3.09
422.547	3.1
422.755	3.19
422.962	3.17
423.17	3.13
423.377	3.21
423.585	3.28
423.792	3.16
423.999	3.17
424.207	3.09
424.414	3.07
424.621	2.96
424.829	3.1
425.036	3.02
425.243	2.99
425.451	3.09
425.658	3.14
425.865	3.08
426.072	3.16
426.28	3.38
426.487	3.29
426.694	3.27
426.901	3.33
427.108	3.3
427.315	3.11
427.523	3.01
427.73	3.04
427.937	2.8
428.144	2.71
428.351	2.71
428.558	2.98
428.765	2.97
428.972	3.24
429.179	3.23
429.386	3.35
429.593	3.09
429.8	3.11
430.007	2.96
430.214	3.07
430.421	3.07
430.628	3.27
430.835	3.15
431.042	3.11
431.249	3.09
431.456	3.07
431.662	3.06
431.869	3.33
432.076	3.48
432.283	3.73
432.49	3.72
432.697	3.7
432.903	3.58
433.11	3.59
433.317	3.51
433.524	3.49
433.73	3.41
433.937	3.59
434.144	3.5
434.35	3.36
434.557	3.36
434.764	3.48
434.97	3.25
435.177	3.34
435.384	3.49
435.59	3.64
435.797	3.62
436.003	3.68
436.21	3.7
436.416	3.62
436.623	3.58
436.829	3.65
437.036	3.73
437.242	3.83
437.449	3.79
437.655	3.89
437.862	3.89
438.068	3.91
438.275	3.92
438.481	4.05
438.687	3.92
438.894	3.93
439.1	3.9
439.307	3.95
439.513	3.97
439.719	4.13
439.926	4.17
440.132	4.28
440.338	4.14
440.544	4.12
440.751	4.1
440.957	4.07
441.163	3.94
441.369	3.95
441.575	3.87
441.782	3.89
441.988	3.98
442.194	4.01
442.4	4.06
442.606	4.26
442.812	4.22
443.018	4.17
443.224	4.27
443.431	4.34
443.637	4.18
443.843	4.25
444.049	4.3
444.255	4.28
444.461	4.23
444.667	4.19
444.873	4.14
445.079	4.12
445.284	4.21
445.49	4.14
445.696	4.2
445.902	4.26
446.108	4.26
446.314	4.14
446.52	4.24
446.726	4.29
446.931	4.22
447.137	4.27
447.343	4.41
447.549	4.47
447.755	4.53
447.96	4.55
448.166	4.46
448.372	4.34
448.578	4.23
448.783	4.24
448.989	4.32
449.195	4.34
449.4	4.49
449.606	4.53
449.812	4.44
450.017	4.47
450.223	4.5
450.428	4.43
450.634	4.37
450.84	4.38
451.045	4.31
451.251	4.36
451.456	4.4
451.662	4.55
451.867	4.6
452.073	4.63
452.278	4.6
452.483	4.67
452.689	4.65
452.894	4.64
453.1	4.64
453.305	4.67
453.51	4.67
453.716	4.69
453.921	4.84
454.127	4.86
454.332	4.83
454.537	4.71
454.742	4.64
454.948	4.52
455.153	4.52
455.358	4.5
455.563	4.66
455.769	4.67
455.974	4.66
456.179	4.69
456.384	4.7
456.589	4.68
456.795	4.69
457	4.7
457.205	4.64
457.41	4.74
457.615	4.64
457.82	4.77
458.025	4.73
458.23	4.86
458.435	4.76
458.64	4.8
458.845	4.8
459.05	4.89
459.255	4.87
459.46	4.95
459.665	4.98
459.87	4.84
460.075	4.9
460.28	4.95
460.485	4.98
460.69	4.98
460.895	5.18
461.099	5.05
461.304	4.95
461.509	4.92
461.714	4.93
461.919	4.84
462.123	4.98
462.328	4.92
462.533	4.94
462.738	4.92
462.942	4.93
463.147	4.9
463.352	5.07
463.556	5.1
463.761	5.13
463.966	5.13
464.17	5.24
464.375	5.25
464.58	5.15
464.784	5.16
464.989	5.25
465.193	5.18
465.398	5.14
465.602	5.42
465.807	5.45
466.011	5.37
466.216	5.24
466.42	5.35
466.625	5.28
466.829	5.29
467.034	5.38
467.238	5.51
467.443	5.45
467.647	5.33
467.851	5.36
468.056	5.32
468.26	5.35
