Data from Ofra_1a_PS_2GT41_Reflection_1.txt Node
Date: Tue Jul 20 10:50:47 EDT 2021
User: Adam
Spectrometer: FLMT01687
Trigger mode: 0
Integration Time (sec): 1.004000E0
Scans to average: 2
Electric dark correction enabled: true
Nonlinearity correction enabled: false
Boxcar width: 2
XAxis mode: Wavelengths
Number of Pixels in Spectrum: 3648
>>>>>Begin Spectral Data<<<<<
179.494	-599.49
179.716	-725.19
179.937	1481.27
180.158	-1735.67
180.38	151.57
180.601	74.73
180.823	96.95
181.044	78.84
181.265	97.61
181.486	14.7
181.708	27.17
181.929	-9809.09
182.15	99.72
182.372	-431.03
182.593	63.79
182.814	-254.84
183.035	-77.66
183.257	-20.79
183.478	-49.41
183.699	-48.25
183.92	-38.03
184.141	-48.78
184.363	-43
184.584	-41.81
184.805	6.71
185.026	24.09
185.247	25.9
185.468	15.11
185.689	31.18
185.91	11.66
186.132	31.52
186.353	25.79
186.574	14.5
186.795	25.35
187.016	29.8
187.237	14.94
187.458	3.9
187.679	14.21
187.9	-1.76
188.121	-5.13
188.342	4.25
188.563	12.06
188.784	40.79
189.005	43.36
189.226	38.78
189.447	32.7
189.667	15.57
189.888	-13.69
190.109	-57.41
190.33	-49.89
190.551	-46.09
190.772	-33.43
190.993	-40.57
191.214	-18.89
191.434	-56.65
191.655	-93
191.876	-43.61
192.097	-15.3
192.318	14.02
192.538	-12.59
192.759	-3.97
192.98	22.61
193.201	24.68
193.421	10.79
193.642	33.16
193.863	50.53
194.083	31.7
194.304	35.1
194.525	26.05
194.745	18.77
194.966	17.41
195.187	13.37
195.407	4.17
195.628	19.12
195.848	19.98
196.069	-1.49
196.29	13.03
196.51	11.63
196.731	-7.37
196.951	-25.91
197.172	-19.97
197.392	-38.42
197.613	-10.54
197.833	-8.59
198.054	1.9
198.274	21.76
198.495	8.69
198.715	-17.65
198.936	0.63
199.156	-6.14
199.377	-37.08
199.597	-6.77
199.817	-5.69
200.038	-46.01
200.258	-1.77
200.479	18.11
200.699	-1.08
200.919	-4.81
201.14	10.52
201.36	-6.79
201.58	-25.02
201.801	-11.94
202.021	-16.69
202.241	-7.69
202.461	-5.51
202.682	27.17
202.902	22.62
203.122	35.23
203.342	53.93
203.563	41.88
203.783	37.19
204.003	27.71
204.223	31.94
204.443	8.11
204.663	15.56
204.884	11.26
205.104	13.37
205.324	5.25
205.544	-10.76
205.764	10.14
205.984	-3.62
206.204	2.69
206.424	-14.31
206.644	-3.39
206.864	-52.13
207.084	-41.73
207.304	-35.94
207.525	-7.34
207.745	0.19
207.964	3.04
208.184	31.97
208.404	-1.89
208.624	-5.49
208.844	-18.27
209.064	-20.48
209.284	-33.15
209.504	-28.65
209.724	-17.35
209.944	-19.93
210.164	-0.22
210.384	22.58
210.604	16.37
210.823	-15.14
211.043	23.98
211.263	3.98
211.483	6.78
211.703	-0.28
211.922	-19.36
212.142	-43.15
212.362	-32.12
212.582	-48.59
212.801	-55.53
213.021	-37.48
213.241	-44.4
213.461	-42.07
213.68	-4.78
213.9	-7.46
214.12	-11.74
214.339	0.95
214.559	16.89
214.779	-3.98
214.998	-2.52
215.218	13.2
215.438	18.69
215.657	14.85
215.877	-0.22
216.096	28.05
216.316	23.24
216.535	16.29
216.755	29.96
216.974	25.73
217.194	1.17
217.413	-8.91
217.633	-12.62
217.852	-23.29
218.072	-6.91
218.291	0.88
218.511	18.63
218.73	-2.8
218.95	-35.73
219.169	-42.7
219.389	-37.76
219.608	-39.54
219.827	-0.02
220.047	12.25
220.266	8.49
220.485	-0.03
220.705	-4.83
220.924	-24.52
221.143	2.54
221.363	12.45
221.582	9.34
221.801	16.04
222.021	9.98
222.24	5.09
222.459	17.9
222.678	28.72
222.897	4.86
223.117	20.72
223.336	22.99
223.555	26.97
223.774	24.74
223.993	66.91
224.213	72.97
224.432	62
224.651	37.5
224.87	22.31
225.089	8.77
225.308	2.33
225.527	-3.63
225.746	-6.9
225.965	5.3
226.184	-2.55
226.404	-7.99
226.623	5.26
226.842	3.74
227.061	-1.95
227.28	11.9
227.499	13.62
227.718	10.64
227.936	7.72
228.155	5.27
228.374	-10.91
228.593	-2.63
228.812	3.38
229.031	22
229.25	10.84
229.469	9.17
229.688	-1.93
229.907	-1.47
230.125	-7.02
230.344	6.18
230.563	8.54
230.782	15.3
231.001	8.94
231.22	-0.02
231.438	15.33
231.657	25.61
231.876	25.64
232.095	42.58
232.313	42.52
232.532	19.1
232.751	12.67
232.969	10.7
233.188	-12.61
233.407	-9.73
233.625	15.92
233.844	27.04
234.063	24.86
234.281	29.34
234.5	42.29
234.719	26.65
234.937	14.68
235.156	-0.02
235.374	8.45
235.593	3.17
235.811	28.61
236.03	34.5
236.249	40.33
236.467	29.96
236.686	16.18
236.904	2.2
237.123	-8.67
237.341	-23.14
237.559	-26.82
237.778	5.85
237.996	-16.06
238.215	-56.24
238.433	-78.78
238.652	-33.17
238.87	-43.73
239.088	-19.84
239.307	5.03
239.525	9.28
239.743	5.96
239.962	1.23
240.18	4.14
240.398	15.44
240.617	17.54
240.835	23.82
241.053	14.18
241.271	10.06
241.49	3.28
241.708	6.53
241.926	3.9
242.144	28.41
242.363	40.24
242.581	27.99
242.799	22.7
243.017	21.6
243.235	4.34
243.453	-18.67
243.672	5.99
243.89	14.58
244.108	12.34
244.326	12.56
244.544	31.22
244.762	22.01
244.98	28.12
245.198	37.1
245.416	37.29
245.634	30.64
245.852	39.52
246.07	32.86
246.288	25.15
246.506	21.54
246.724	20.54
246.942	10.66
247.16	17.93
247.378	-5.69
247.596	11.34
247.814	-11.77
248.032	-2.05
248.25	3.81
248.468	36.06
248.685	27.76
248.903	24.65
249.121	23.06
249.339	19.74
249.557	7.32
249.775	18.59
249.992	24.24
250.21	31.37
250.428	44.77
250.646	40.27
250.863	32.45
251.081	30.64
251.299	22.54
251.517	4
251.734	4.17
251.952	-1.1
252.17	-3.17
252.387	-3
252.605	-2.11
252.823	-8.61
253.04	36.59
253.258	27.5
253.475	30.36
253.693	28.81
253.911	23.92
254.128	9.81
254.346	34.5
254.563	45.35
254.781	38.98
254.998	49.17
255.216	24.71
255.433	-21.17
255.651	-32.09
255.868	-32.7
256.086	-34.16
256.303	-18.28
256.521	3.35
256.738	-6.38
256.956	6.11
257.173	16.19
257.39	28.53
257.608	13.42
257.825	18.99
258.043	26.44
258.26	11.92
258.477	10.02
258.695	14.33
258.912	-6.21
259.129	-29.24
259.346	-22.78
259.564	-35.63
259.781	-53.17
259.998	-13.42
260.216	9.38
260.433	4.3
260.65	16.08
260.867	22.86
261.084	22.75
261.302	20.39
261.519	28.68
261.736	24.82
261.953	34.06
262.17	32.54
262.387	22.16
262.604	22.65
262.822	16.34
263.039	19.57
263.256	12.88
263.473	14.74
263.69	10.5
263.907	17.51
264.124	15.71
264.341	20.21
264.558	22.13
264.775	27.4
264.992	19.49
265.209	-10.91
265.426	-33.9
265.643	-50.13
265.86	-84.16
266.077	-83.62
266.294	-37.74
266.51	2.7
266.727	9.32
266.944	20.19
267.161	19.81
267.378	29.38
267.595	17.66
267.812	8.41
268.028	-2.31
268.245	-4.39
268.462	-10.62
268.679	-17.24
268.896	2.63
269.112	-0.53
269.329	-10.54
269.546	5.96
269.763	1.99
269.979	-4.66
270.196	6.89
270.413	8.71
270.629	-8.33
270.846	-6.31
271.063	-3.75
271.279	2.41
271.496	7.14
271.712	15.79
271.929	26.86
272.146	45.7
272.362	32.42
272.579	18.11
272.795	-1.76
273.012	8.11
273.228	3.43
273.445	5.87
273.661	14.18
273.878	15.8
274.094	5.3
274.311	0.57
274.527	-17.22
274.744	-13.15
274.96	-0.18
275.177	-10.66
275.393	3.07
275.609	13.67
275.826	2.9
276.042	-0.45
276.259	-0.3
276.475	-20.91
276.691	-34.08
276.908	-22.04
277.124	-32.73
277.34	-26.9
277.557	-28.47
277.773	-17.66
277.989	-13.64
278.205	-0.21
278.422	-8.83
278.638	-3.83
278.854	-14.57
279.07	-11.75
279.286	-24.06
279.503	-2.62
279.719	2.62
279.935	15.63
280.151	0.58
280.367	10.17
280.583	-0.01
280.799	-4.25
281.016	-39.97
281.232	-11.7
281.448	-12.08
281.664	-5.15
281.88	-0.52
282.096	14.16
282.312	8.3
282.528	2.33
282.744	-3.07
282.96	-20.86
283.176	-57.08
283.392	-91.81
283.608	-62.74
283.824	-96.63
284.04	-129.38
284.256	-48.5
284.471	-31.94
284.687	-19.33
284.903	-8.63
285.119	18.75
285.335	14.88
285.551	26.21
285.767	23.44
285.982	29.81
286.198	-6.22
286.414	-2.32
286.63	-32.32
286.846	-42.05
287.061	-14.14
287.277	-6.05
287.493	4.42
287.709	30.63
287.924	40.02
288.14	42.21
288.356	54.57
288.571	54.79
288.787	36.18
289.003	31.41
289.218	14.38
289.434	5.22
289.65	11.35
289.865	19.43
290.081	23.44
290.296	25.81
290.512	24.54
290.727	11.69
290.943	9.25
291.159	9.31
291.374	-7.13
291.59	-9.47
291.805	-11.69
292.021	-6.53
292.236	-20.57
292.451	-11.66
292.667	-13.39
292.882	7.54
293.098	2.63
293.313	6.34
293.529	15.43
293.744	10.51
293.959	4.34
294.175	7.76
294.39	10.02
294.605	7.7
294.821	16.24
295.036	10.18
295.251	6.4
295.467	-1.9
295.682	0.26
295.897	-16.57
296.112	-27.36
296.328	-10.68
296.543	-24.27
296.758	-31.87
296.973	-23.76
297.188	-11.68
297.404	-28.22
297.619	-31.53
297.834	-34.67
298.049	-6.8
298.264	-12.72
298.479	-14.86
298.694	12.09
298.909	14.9
299.125	5.4
299.34	11.5
299.555	14.25
299.77	35.24
299.985	33.65
300.2	39.99
300.415	35.07
300.63	36.15
300.845	19.23
301.06	13.6
301.275	6.82
301.49	10.99
301.704	0.58
301.919	-1.12
302.134	-7.58
302.349	0.91
302.564	-7.09
302.779	-17.55
302.994	1.11
303.209	18.37
303.423	2.19
303.638	6.47
303.853	7.5
304.068	6.12
304.283	15.54
304.497	42.36
304.712	49.42
304.927	42.76
305.142	46.31
305.356	40.68
305.571	34.27
305.786	16.05
306	28.11
306.215	5.45
306.43	-0.38
306.644	-5.36
306.859	-30.32
307.074	-31.51
307.288	-15.79
307.503	-10.09
307.717	-11.6
307.932	5.56
308.147	-1.22
308.361	-12.07
308.576	-20.97
308.79	-14.76
309.005	-22.9
309.219	-16.77
309.434	16.52
309.648	6.67
309.863	8.79
310.077	15.86
310.292	26.81
310.506	11.11
310.72	15.96
310.935	40.51
311.149	43.34
311.364	41.04
311.578	34.51
311.792	48.14
312.007	10.12
312.221	-18.74
312.435	-7.72
312.649	-0.53
312.864	-9.28
313.078	-2.17
313.292	6.97
313.507	18.94
313.721	12.36
313.935	21.87
314.149	10.75
314.363	36.63
314.578	18.25
314.792	10.71
315.006	-9.71
315.22	18.82
315.434	14.47
315.648	14.19
315.862	20.66
316.077	21.49
316.291	12.13
316.505	-31.96
316.719	-36.72
316.933	-39.49
317.147	-19.13
317.361	-22.55
317.575	-3.35
317.789	-6.36
318.003	2.79
318.217	-12.01
318.431	-8.98
318.645	-14.67
318.859	4.05
319.073	12.2
319.287	8.08
319.5	5.78
319.714	-0.6
319.928	-6.23
320.142	-9.68
320.356	2.16
320.57	1.67
320.784	23.15
320.997	6.94
321.211	19.01
321.425	20.11
321.639	21.59
321.853	22.51
322.066	31.8
322.28	27.22
322.494	31.91
322.707	36.13
322.921	30.65
323.135	39.72
323.349	15.33
323.562	4.85
323.776	-0.49
323.989	5.09
324.203	-6.2
324.417	-6.54
324.63	-13.41
324.844	-15.83
325.057	-25.01
325.271	-14.04
325.485	14.2
325.698	31.84
325.912	30.61
326.125	15.77
326.339	20.82
326.552	17.69
326.766	1.36
326.979	7.9
327.193	17.65
327.406	15.29
327.619	11.85
327.833	27.26
328.046	27.31
328.26	18.97
328.473	18.76
328.686	19.75
328.9	9.31
329.113	-11.32
329.326	6.51
329.54	14.71
329.753	17.15
329.966	16.76
330.179	26.63
330.393	22.11
330.606	6.12
330.819	-8.97
331.032	-12.55
331.246	0.89
331.459	19.29
331.672	17.83
331.885	16.48
332.098	14.56
332.311	1.33
332.525	-8.59
332.738	5.37
332.951	9.59
333.164	21.74
333.377	27.32
333.59	19.52
333.803	18.63
334.016	16.6
334.229	18.21
334.442	13.48
334.655	5.86
334.868	0.4
335.081	-5.59
335.294	-21.48
335.507	-14.27
335.72	-6.99
335.933	-5.01
336.146	-8.57
336.359	8.8
336.572	4.78
336.785	11.38
336.997	-0.72
337.21	23.99
337.423	-13.23
337.636	-11.79
337.849	-16.49
338.062	-5.82
338.274	3.58
338.487	1.95
338.7	-3.58
338.913	1.92
339.125	8.4
339.338	-9.56
339.551	5.07
339.763	9.29
339.976	12.32
340.189	1.34
340.402	21.13
340.614	22.18
340.827	18.12
341.039	16.62
341.252	18.66
341.465	1.07
341.677	5.1
341.89	-1.16
342.102	9.05
342.315	11.4
342.527	21.98
342.74	-2.15
342.952	13.55
343.165	-0.38
343.377	7.69
343.59	6.1
343.802	20.68
344.015	20.01
344.227	25.85
344.44	18.5
344.652	10.99
344.864	12.54
345.077	14.01
345.289	19.21
345.502	25.93
345.714	29.31
345.926	26.81
346.139	-0.59
346.351	-0.77
346.563	-0.76
346.775	2.44
346.988	17.27
347.2	29.06
347.412	28.19
347.624	20.59
347.837	23.15
348.049	18.41
348.261	13.17
348.473	-4.06
348.685	-10.01
348.897	-33.34
349.11	-22.78
349.322	-13.27
349.534	7.12
349.746	13.16
349.958	4.42
350.17	-12.76
350.382	10.8
350.594	4.4
350.806	13.2
351.018	28.25
351.23	30.91
351.442	23.2
351.654	24.91
351.866	20.32
352.078	20.39
352.29	9.93
352.502	8.07
352.714	3.97
352.926	6.5
353.138	20.2
353.35	14.77
353.561	15.49
353.773	8.8
353.985	10.72
354.197	-6.87
354.409	0.32
354.621	-12.17
354.832	-13.97
355.044	-24.52
355.256	-22.76
355.468	-23.88
355.679	-4.36
355.891	0.49
356.103	0.35
356.314	10
356.526	4.07
356.738	-1.83
356.949	3.89
357.161	9.64
357.373	5.17
357.584	12.37
357.796	22.28
358.008	23.12
358.219	23.54
358.431	28.48
358.642	24.31
358.854	19.17
359.065	5.54
359.277	8.34
359.488	4.6
359.7	8.96
359.911	-2.1
360.123	15.48
360.334	14.42
360.546	7.25
360.757	15.18
360.969	24.58
361.18	16.87
361.391	20.48
361.603	37.63
361.814	33.42
362.025	31.74
362.237	32.34
362.448	28.91
362.659	6.41
362.871	-21.07
363.082	-25.86
363.293	-42.97
363.504	-52.38
363.716	-27.63
363.927	14.08
364.138	-0.58
364.349	-1.01
364.56	-11.45
364.772	-1.8
364.983	-15.81
365.194	0.43
365.405	16.1
365.616	21.22
365.827	3.48
366.038	10.72
366.25	10.07
366.461	-1.27
366.672	3.48
366.883	7.19
367.094	0.28
367.305	-14.16
367.516	-10.75
367.727	-26.04
367.938	-9.6
368.149	-12.98
368.36	-9.59
368.571	-33.71
368.781	-16.44
368.992	-32.32
369.203	-25.09
369.414	-13.18
369.625	9.88
369.836	17.23
370.047	18.72
370.258	20.96
370.468	8.69
370.679	7.23
370.89	-11.25
371.101	7.54
371.312	2.48
371.522	8.03
371.733	0.96
371.944	-4.79
372.155	-4.92
372.365	-0.49
372.576	-3.84
372.787	8.53
372.997	29.48
373.208	23.48
373.419	19.23
373.629	8.1
373.84	-2.1
374.05	-14
374.261	-31.94
374.472	-21.17
374.682	-3.95
374.893	-8.06
375.103	-0.47
375.314	9.91
375.524	3.5
375.735	5.95
375.945	7.69
376.156	-1.16
376.366	-2.45
376.577	2.53
376.787	6.09
376.997	11.87
377.208	13.87
377.418	13.81
377.629	13.84
377.839	16.16
378.049	16.01
378.26	7.64
378.47	3.08
378.68	8.33
378.89	1.32
379.101	6.02
379.311	8.31
379.521	1.4
379.732	1.22
379.942	-6.09
380.152	-16.06
380.362	-5.77
380.572	10.33
380.783	17.89
380.993	25.77
381.203	21.84
381.413	28.12
381.623	27.7
381.833	23.77
382.043	18.62
382.253	30.62
382.463	31.19
382.674	25.06
382.884	21.31
383.094	24.36
383.304	20.74
383.514	16.58
383.724	10.16
383.934	-0.83
384.144	-0.08
384.353	-0.92
384.563	-5.33
384.773	6.09
384.983	7.09
385.193	8.84
385.403	5.16
385.613	8.79
385.823	5.3
386.033	12
386.242	1.81
386.452	-0.44
386.662	0.92
386.872	3.65
387.082	0.26
387.291	2.25
387.501	7.16
387.711	4.96
387.921	2.92
388.13	6.42
388.34	7.87
388.55	4.74
388.759	0.26
388.969	1.21
389.179	1.07
389.388	-0.71
389.598	-0.15
389.807	-3.46
390.017	-4.79
390.227	-6.59
390.436	-0.48
390.646	2.06
390.855	5.94
391.065	5.03
391.274	2.98
391.484	-0.58
391.693	-4.15
391.903	-3.68
392.112	-4.19
392.322	-2.03
392.531	-1.6
392.74	0.1
392.95	1.18
393.159	2.81
393.369	3.44
393.578	4.49
393.787	4.3
393.997	5.54
394.206	4.89
394.415	5.52
394.625	4.06
394.834	2.42
395.043	1.62
395.252	3.38
395.462	3.16
395.671	3.95
395.88	6.87
396.089	6.39
396.298	5.82
396.508	6.03
396.717	5.58
396.926	4.06
397.135	4.38
397.344	4.13
397.553	3.4
397.762	4.72
397.971	5.46
398.181	5.58
398.39	5.17
398.599	5.62
398.808	5.04
399.017	5.48
399.226	5.67
399.435	5.85
399.644	6.02
399.853	6.09
400.062	5.41
400.27	4.82
400.479	5.19
400.688	4.95
400.897	4.75
401.106	5.01
401.315	4.9
401.524	4.92
401.733	4.85
401.941	5.3
402.15	5.46
402.359	5.73
402.568	5.63
402.777	5.96
402.985	5.65
403.194	5.24
403.403	5.29
403.612	5.12
403.82	4.65
404.029	4.49
404.238	4.65
404.446	4.66
404.655	4.75
404.864	4.92
405.072	5.06
405.281	5.07
405.489	4.97
405.698	4.86
405.906	4.94
406.115	4.96
406.324	4.86
406.532	4.95
406.741	5.1
406.949	5.08
407.158	5.12
407.366	5.02
407.574	5.06
407.783	5.09
407.991	5.01
408.2	5.08
408.408	5.13
408.617	5.03
408.825	4.83
409.033	4.79
409.242	4.67
409.45	4.69
409.658	4.65
409.867	4.64
410.075	4.66
410.283	4.55
410.491	4.37
410.7	4.23
410.908	4.44
411.116	4.45
411.324	4.46
411.533	4.45
411.741	4.59
411.949	4.43
412.157	4.32
412.365	4.37
412.573	4.43
412.781	4.33
412.99	4.35
413.198	4.51
413.406	4.45
413.614	4.6
413.822	4.71
414.03	4.81
414.238	4.69
414.446	4.79
414.654	4.59
414.862	4.54
415.07	4.3
415.278	4.43
415.486	4.28
415.694	4.41
415.902	4.37
416.109	4.53
416.317	4.46
416.525	4.44
416.733	4.24
416.941	4.29
417.149	4.2
417.357	4.13
417.564	4.13
417.772	4.31
417.98	4.2
418.188	4.05
418.395	3.91
418.603	3.95
418.811	3.88
419.019	3.86
419.226	4.17
419.434	4.23
419.642	4.04
419.849	3.94
420.057	3.98
420.265	3.84
420.472	3.77
420.68	4.09
420.887	4.22
421.095	4.21
421.302	4.18
421.51	4.24
421.717	4.08
421.925	4.04
422.132	4.05
422.34	3.92
422.547	3.83
422.755	3.88
422.962	3.95
423.17	3.81
423.377	3.85
423.585	4.08
423.792	3.96
423.999	3.79
424.207	3.92
424.414	4.12
424.621	4.01
424.829	4.16
425.036	4.26
425.243	4.24
425.451	4.09
425.658	4.06
425.865	4.06
426.072	4.02
426.28	4.06
426.487	4.06
426.694	4.01
426.901	3.88
427.108	3.89
427.315	3.93
427.523	3.77
427.73	3.91
427.937	3.89
428.144	3.92
428.351	3.85
428.558	3.93
428.765	3.89
428.972	3.91
429.179	3.67
429.386	3.67
429.593	3.65
429.8	3.62
430.007	3.72
430.214	3.82
430.421	4
430.628	4.04
430.835	4.09
431.042	4.01
431.249	4.18
431.456	4.1
431.662	4.28
431.869	4.52
432.076	4.51
432.283	4.59
432.49	4.59
432.697	4.49
432.903	4.33
433.11	4.5
433.317	4.37
433.524	4.42
433.73	4.32
433.937	4.4
434.144	4.14
434.35	4.16
434.557	4.05
434.764	4.16
434.97	3.95
435.177	4.16
435.384	4.28
435.59	4.49
435.797	4.6
436.003	4.67
436.21	4.59
436.416	4.6
436.623	4.39
436.829	4.23
437.036	4.31
437.242	4.43
437.449	4.43
437.655	4.57
437.862	4.68
438.068	4.64
438.275	4.62
438.481	4.64
438.687	4.55
438.894	4.65
439.1	4.57
439.307	4.69
439.513	4.66
439.719	4.79
439.926	4.68
440.132	4.83
440.338	4.73
440.544	4.62
440.751	4.49
440.957	4.47
441.163	4.37
441.369	4.38
441.575	4.43
441.782	4.61
441.988	4.76
442.194	4.78
442.4	4.72
442.606	4.9
442.812	4.8
443.018	4.82
443.224	4.9
443.431	4.84
443.637	4.7
443.843	4.76
444.049	4.73
444.255	4.78
444.461	4.86
444.667	4.87
444.873	4.86
445.079	4.9
445.284	4.85
445.49	4.87
445.696	4.88
445.902	4.88
446.108	4.85
446.314	4.86
446.52	4.96
446.726	5.03
446.931	4.88
447.137	4.83
447.343	4.87
447.549	4.83
447.755	4.77
447.96	4.88
448.166	4.92
448.372	4.82
448.578	4.76
448.783	4.85
448.989	4.93
449.195	4.93
449.4	5.03
449.606	5.09
449.812	4.91
450.017	4.85
450.223	4.86
450.428	4.83
450.634	4.8
450.84	4.97
451.045	5.02
451.251	5.08
451.456	5.1
451.662	5.14
451.867	5.12
452.073	5.1
452.278	5
452.483	5.02
452.689	5.18
452.894	5.22
453.1	5.2
453.305	5.26
453.51	5.28
453.716	5.1
453.921	5.14
454.127	5.08
454.332	5.02
454.537	4.9
454.742	4.8
454.948	4.72
455.153	4.81
455.358	4.8
455.563	4.87
455.769	4.94
455.974	4.94
456.179	4.85
456.384	4.85
456.589	4.86
456.795	4.92
457	4.84
457.205	4.85
457.41	4.81
457.615	4.84
457.82	4.83
458.025	4.92
458.23	5.03
458.435	5.14
458.64	5.08
458.845	5.11
459.05	5.13
459.255	5.01
459.46	4.89
459.665	4.91
459.87	4.9
460.075	4.96
460.28	5.06
460.485	5.17
460.69	5.12
460.895	5.17
461.099	5.03
461.304	4.87
461.509	4.86
461.714	5
461.919	4.87
462.123	4.97
462.328	4.99
462.533	4.93
462.738	4.84
462.942	4.92
463.147	4.88
463.352	5.01
463.556	5.12
463.761	5.13
463.966	5.1
464.17	5.2
464.375	5.28
464.58	5.24
464.784	5.21
464.989	5.3
465.193	5.24
465.398	5.19
465.602	5.37
465.807	5.46
466.011	5.44
466.216	5.45
466.42	5.48
466.625	5.47
466.829	5.4
467.034	5.48
467.238	5.56
467.443	5.54
467.647	5.5
467.851	5.65
468.056	5.63
468.26	5.58
