Data from Ofra_PS_T2_2A_2CX12_Reflection_2.txt Node
Date: Wed Jul 21 16:58:10 EDT 2021
User: Adam
Spectrometer: FLMT01687
Trigger mode: 0
Integration Time (sec): 1.100000E0
Scans to average: 2
Electric dark correction enabled: true
Nonlinearity correction enabled: false
Boxcar width: 2
XAxis mode: Wavelengths
Number of Pixels in Spectrum: 3648
>>>>>Begin Spectral Data<<<<<
179.494	584.4
179.716	630.35
179.937	621.47
180.158	577.87
180.38	945.94
180.601	438.4
180.823	136.19
181.044	-76.07
181.265	38.6
181.486	0.4
181.708	-11.43
181.929	-162.24
182.15	73.94
182.372	128.21
182.593	-37.11
182.814	-36.92
183.035	33.13
183.257	-27.21
183.478	-97.34
183.699	-5.97
183.92	-1.96
184.141	-17.66
184.363	-27.67
184.584	1.73
184.805	25.1
185.026	53.06
185.247	25.92
185.468	20.96
185.689	8.53
185.91	-3.1
186.132	-29.09
186.353	-13.76
186.574	14.47
186.795	40.73
187.016	1.79
187.237	-20.89
187.458	-51.49
187.679	-51.66
187.9	-42.06
188.121	-41.57
188.342	-16.82
188.563	25.65
188.784	53.9
189.005	32.94
189.226	101.2
189.447	90.34
189.667	0.73
189.888	-287.44
190.109	-1034.42
190.33	-682.26
190.551	-1206.64
190.772	-244.43
190.993	-155.73
191.214	-147.71
191.434	-93.06
191.655	-21.17
191.876	-63.68
192.097	-136.1
192.318	-154
192.538	-240.62
192.759	-187.56
192.98	-124.79
193.201	-35.87
193.421	-13.87
193.642	9.65
193.863	6.85
194.083	-3.22
194.304	-30.21
194.525	-38.75
194.745	-79.14
194.966	-53.66
195.187	-53.06
195.407	-57.5
195.628	-113.22
195.848	-112.64
196.069	-142.97
196.29	-85.86
196.51	-99.61
196.731	-85.52
196.951	-117.84
197.172	-116.44
197.392	-141.23
197.613	-130.16
197.833	-133.31
198.054	-99.65
198.274	-53.51
198.495	-66.03
198.715	-34.92
198.936	-53.08
199.156	-47.64
199.377	-109.42
199.597	-98.93
199.817	-137.92
200.038	-74.57
200.258	-115.03
200.479	-68.97
200.699	-111.57
200.919	-29.19
201.14	-31.35
201.36	-35.73
201.58	-20.23
201.801	13.08
202.021	-10.54
202.241	-16.95
202.461	-16.68
202.682	-57.69
202.902	-109.91
203.122	-49.42
203.342	-17.89
203.563	-2.73
203.783	23.12
204.003	10.74
204.223	11.99
204.443	28.84
204.663	17.77
204.884	14
205.104	46.66
205.324	47.21
205.544	43.24
205.764	50.04
205.984	46.55
206.204	40.53
206.424	28.36
206.644	0.13
206.864	-8.05
207.084	-66.54
207.304	-64.86
207.525	-168.28
207.745	-105.53
207.964	-8.71
208.184	-41.63
208.404	-73.1
208.624	-82.24
208.844	-84.01
209.064	-354.95
209.284	-390.54
209.504	-229.36
209.724	-71.99
209.944	-43.08
210.164	-27.22
210.384	-8.55
210.604	-13.91
210.823	-56.84
211.043	-68.54
211.263	-46.03
211.483	-49.93
211.703	-98.42
211.922	-73.01
212.142	-16.87
212.362	-32.41
212.582	-40.67
212.801	-16.96
213.021	-40.73
213.241	-76.2
213.461	-85.02
213.68	-72.58
213.9	-62.22
214.12	-33.06
214.339	-64.95
214.559	-43.95
214.779	-17.23
214.998	-12.23
215.218	-56.29
215.438	-31.48
215.657	-37.85
215.877	-22.51
216.096	11.79
216.316	16.53
216.535	1.99
216.755	5.12
216.974	-66.4
217.194	-128.33
217.413	-117.33
217.633	-105.22
217.852	-169
218.072	-65.39
218.291	-30.36
218.511	13.57
218.73	-7.75
218.95	-6.28
219.169	-22.1
219.389	-56.15
219.608	-49.38
219.827	-34.17
220.047	-34.85
220.266	-12.53
220.485	-10.76
220.705	-9.53
220.924	-30.87
221.143	3.69
221.363	-7.27
221.582	-11.49
221.801	-7
222.021	-1.57
222.24	-109.15
222.459	-121.08
222.678	-95.49
222.897	-136.95
223.117	-177.6
223.336	-132.67
223.555	-102.45
223.774	-30.11
223.993	-44.7
224.213	38.11
224.432	33.82
224.651	58.32
224.87	5.87
225.089	24.84
225.308	3.77
225.527	18.66
225.746	14.12
225.965	22.79
226.184	-10.43
226.404	16.85
226.623	-11.58
226.842	-16.65
227.061	2.16
227.28	16.22
227.499	-7.37
227.718	18.52
227.936	19.75
228.155	34.93
228.374	36.82
228.593	47.49
228.812	51.13
229.031	41.26
229.25	-5.08
229.469	-26.03
229.688	-45.54
229.907	-12.68
230.125	-13.03
230.344	13.02
230.563	33.65
230.782	41.14
231.001	-21.56
231.22	-13.41
231.438	1.45
231.657	-13.26
231.876	-26.39
232.095	7.52
232.313	-1.23
232.532	-40.79
232.751	-59.04
232.969	-51.99
233.188	-97.91
233.407	-17.62
233.625	-8.49
233.844	-7.26
234.063	-12.27
234.281	4.2
234.5	-30.97
234.719	-17.69
234.937	-1.12
235.156	10.35
235.374	7.84
235.593	16.51
235.811	1.33
236.03	-12.42
236.249	-41.5
236.467	-36.7
236.686	-3.45
236.904	7.78
237.123	-10.89
237.341	-7.69
237.559	-5.81
237.778	-16.92
237.996	-41.35
238.215	-0.48
238.433	-0.89
238.652	-3.86
238.87	-31.89
239.088	-14.95
239.307	-27.3
239.525	-37.56
239.743	-53.29
239.962	-38.92
240.18	-58.56
240.398	-82.25
240.617	-71.58
240.835	-43.34
241.053	-17.59
241.271	22.16
241.49	33.18
241.708	25.96
241.926	-16.37
242.144	-7.99
242.363	-38.86
242.581	-24.34
242.799	-6.09
243.017	14.54
243.235	-1.09
243.453	1.81
243.672	-21.01
243.89	-25.55
244.108	-35.32
244.326	-10.89
244.544	-16.14
244.762	-17.56
244.98	-2.25
245.198	4.05
245.416	-38.57
245.634	-43.05
245.852	-41.88
246.07	-41.56
246.288	-7.19
246.506	-31.13
246.724	-7.17
246.942	-12.36
247.16	-16.68
247.378	-26.8
247.596	10.32
247.814	11.79
248.032	-0.78
248.25	8.9
248.468	0.95
248.685	5.75
248.903	30.55
249.121	33.54
249.339	10.32
249.557	18.64
249.775	12.81
249.992	-62.14
250.21	-54.34
250.428	-33.44
250.646	-71.2
250.863	-91.08
251.081	-50.03
251.299	-56.32
251.517	-69.03
251.734	-45.92
251.952	-42.78
252.17	-30.77
252.387	-14.91
252.605	-13.07
252.823	-1.38
253.04	10.41
253.258	32.39
253.475	25.46
253.693	48.92
253.911	35.1
254.128	34.49
254.346	16.95
254.563	5.97
254.781	-27
254.998	-41.48
255.216	-45.98
255.433	-28.34
255.651	23.07
255.868	12.76
256.086	50.85
256.303	56.25
256.521	48.85
256.738	13.9
256.956	0.09
257.173	-44.47
257.39	-74.08
257.608	-103.32
257.825	-60.39
258.043	-46.44
258.26	-25.28
258.477	16.46
258.695	6.14
258.912	-44.62
259.129	-8.34
259.346	-35.64
259.564	-67.74
259.781	-99.09
259.998	-30.15
260.216	-21.23
260.433	12.68
260.65	6.03
260.867	15.36
261.084	-26.45
261.302	-56.53
261.519	-64.21
261.736	-78.99
261.953	-88.82
262.17	-33.47
262.387	-43.37
262.604	-89.09
262.822	-110.05
263.039	-85
263.256	-143.39
263.473	-104.43
263.69	-44.88
263.907	1.16
264.124	0.44
264.341	-9.7
264.558	-12.11
264.775	-9.74
264.992	-20.64
265.209	-10.06
265.426	23.68
265.643	28.69
265.86	22.23
266.077	29
266.294	13.77
266.51	-21.5
266.727	-31.06
266.944	-29.19
267.161	-39.8
267.378	-46.45
267.595	-5.72
267.812	-31.07
268.028	-27.69
268.245	1.16
268.462	3.18
268.679	-19.57
268.896	35.86
269.112	35.2
269.329	16.16
269.546	15.1
269.763	13.48
269.979	-9.89
270.196	-24.8
270.413	-37.72
270.629	-66.19
270.846	-80.9
271.063	-70.64
271.279	-83.96
271.496	-60.83
271.712	-15.21
271.929	1.84
272.146	-41.13
272.362	-3.41
272.579	14.6
272.795	20.44
273.012	21.77
273.228	43.58
273.445	13.07
273.661	-29.53
273.878	-82.81
274.094	-66.21
274.311	-79.79
274.527	-44.44
274.744	-40.62
274.96	-26.56
275.177	-19.57
275.393	-7.89
275.609	-4.38
275.826	21.68
276.042	24.07
276.259	14.81
276.475	24.21
276.691	13.94
276.908	-18.53
277.124	-21.4
277.34	-17.16
277.557	-34.59
277.773	-20.15
277.989	-16.96
278.205	-17.69
278.422	-9.93
278.638	-10.83
278.854	-1.11
279.07	-2.63
279.286	31.45
279.503	19.21
279.719	8.76
279.935	-10.76
280.151	-13.83
280.367	-19.36
280.583	-61.83
280.799	-40.56
281.016	-59.04
281.232	-25.25
281.448	-29.34
281.664	11.95
281.88	-13.76
282.096	-2.35
282.312	5.53
282.528	16.39
282.744	-9.67
282.96	-6.35
283.176	-6.62
283.392	-9.85
283.608	-35.12
283.824	-25.67
284.04	-15
284.256	-11.71
284.471	-5.06
284.687	10.13
284.903	14.5
285.119	27.22
285.335	6.77
285.551	-9.76
285.767	-32.5
285.982	-35.75
286.198	-49.55
286.414	-14.45
286.63	13.73
286.846	37.39
287.061	15.94
287.277	33.68
287.493	23.32
287.709	33.12
287.924	18.29
288.14	63.95
288.356	48.44
288.571	49.52
288.787	12.1
289.003	10.74
289.218	-2
289.434	-30.48
289.65	-32.66
289.865	-24.76
290.081	-0.57
290.296	-11.49
290.512	4.77
290.727	-13.95
290.943	-8.21
291.159	-9.93
291.374	-11.47
291.59	-11.27
291.805	9.37
292.021	4.97
292.236	-5.24
292.451	-1.01
292.667	2.34
292.882	7.73
293.098	-6.1
293.313	-29.37
293.529	-57.5
293.744	-76.94
293.959	-89.02
294.175	-59.47
294.39	-19
294.605	3.26
294.821	18.32
295.036	26.92
295.251	29.41
295.467	23.16
295.682	6.59
295.897	-36.99
296.112	-49.93
296.328	-49.62
296.543	-90.67
296.758	-80.98
296.973	-38.6
297.188	-1.46
297.404	-23.93
297.619	-19.13
297.834	-15.62
298.049	-27.89
298.264	-53.63
298.479	-20.69
298.694	-24.84
298.909	-11.14
299.125	-6.17
299.34	3.82
299.555	-13.93
299.77	-9.19
299.985	-37.37
300.2	-65.95
300.415	-86.63
300.63	-54
300.845	-62.9
301.06	-60.84
301.275	-28.11
301.49	-10.68
301.704	-28.14
301.919	-11.76
302.134	-19.5
302.349	-24.22
302.564	-83.4
302.779	-113.14
302.994	-148.82
303.209	-86.27
303.423	-54.72
303.638	4.61
303.853	5.3
304.068	7.32
304.283	-0.08
304.497	-0.95
304.712	-3.48
304.927	-3.28
305.142	-10.25
305.356	-13.71
305.571	-33.76
305.786	-39.81
306	-54.59
306.215	-56.47
306.43	-67.85
306.644	-42.79
306.859	-5.37
307.074	-1.85
307.288	-15.54
307.503	-18.51
307.717	-28.58
307.932	-46.39
308.147	-41.79
308.361	-19.96
308.576	-31.95
308.79	-72.65
309.005	-49.57
309.219	-36.78
309.434	-60.14
309.648	-40.56
309.863	-7
310.077	-21.93
310.292	-32.9
310.506	-24.45
310.72	-2.86
310.935	-4.9
311.149	0.8
311.364	25.88
311.578	36.48
311.792	22.04
312.007	22.4
312.221	12.6
312.435	10.6
312.649	2.79
312.864	23.44
313.078	41
313.292	105.45
313.507	66.15
313.721	49.46
313.935	22.12
314.149	9.11
314.363	-6.98
314.578	4
314.792	9.66
315.006	-0.07
315.22	8.33
315.434	11.44
315.648	7.93
315.862	14.28
316.077	4.13
316.291	-16.64
316.505	-28.23
316.719	-30.39
316.933	-43.95
317.147	-29.24
317.361	-79
317.575	-88.84
317.789	-105.84
318.003	-176.37
318.217	-146.02
318.431	-38.45
318.645	-6.88
318.859	-14.61
319.073	10.39
319.287	12.73
319.5	-16.86
319.714	-42.38
319.928	-58.7
320.142	-81.32
320.356	-31.63
320.57	13.91
320.784	-11.66
320.997	-12.09
321.211	-1.67
321.425	-68.58
321.639	-109.68
321.853	-35.83
322.066	-5.69
322.28	-8.78
322.494	6.79
322.707	27.14
322.921	16.15
323.135	5.74
323.349	19.34
323.562	-1.6
323.776	-16.84
323.989	-34.76
324.203	-54.39
324.417	-73.99
324.63	-82.83
324.844	-75.15
325.057	-37.79
325.271	-16.97
325.485	13.12
325.698	41.42
325.912	50.52
326.125	27.96
326.339	23.84
326.552	-3.28
326.766	-11.63
326.979	0.29
327.193	32.01
327.406	36.27
327.619	23.52
327.833	36.37
328.046	11.35
328.26	-26.59
328.473	-14.92
328.686	-4.85
328.9	-16.44
329.113	1.9
329.326	-10.06
329.54	-6.76
329.753	-37.62
329.966	-68.91
330.179	-70.04
330.393	-27.21
330.606	-22.24
330.819	-2.67
331.032	18.47
331.246	23.91
331.459	31.26
331.672	26.17
331.885	26.51
332.098	7.68
332.311	-13.03
332.525	-50.04
332.738	-52.03
332.951	-42.19
333.164	-8.51
333.377	24.06
333.59	38.91
333.803	47.93
334.016	47.04
334.229	35.39
334.442	27.1
334.655	30.9
334.868	17.57
335.081	9.23
335.294	12.44
335.507	0.1
335.72	-7.61
335.933	-15.28
336.146	-9.04
336.359	-19.11
336.572	-48.51
336.785	-76.31
336.997	-64.96
337.21	-51.14
337.423	-52.91
337.636	-42.47
337.849	-13.78
338.062	-31.81
338.274	-23.57
338.487	-17.55
338.7	-12.18
338.913	-46.23
339.125	-59.42
339.338	-123.45
339.551	-103.91
339.763	-76.06
339.976	-60.28
340.189	-31.46
340.402	-18.51
340.614	-21.86
340.827	-28.53
341.039	-27.04
341.252	-27.26
341.465	-4
341.677	-4.4
341.89	-30.94
342.102	-12.42
342.315	-11.5
342.527	-40.95
342.74	-40.33
342.952	-18.45
343.165	-14.45
343.377	-7.21
343.59	-10.56
343.802	3.23
344.015	-3.19
344.227	-5.65
344.44	-6.36
344.652	-10.47
344.864	-23.37
345.077	9.9
345.289	2.59
345.502	-1
345.714	-4.34
345.926	-8.55
346.139	-30.92
346.351	-12.25
346.563	3.6
346.775	8.4
346.988	4.64
347.2	8.46
347.412	-48.26
347.624	-71.73
347.837	-90.72
348.049	-71.67
348.261	-40.5
348.473	-6.24
348.685	-11.09
348.897	-15.28
349.11	-37.09
349.322	-90.05
349.534	-81.14
349.746	-66.24
349.958	-40.81
350.17	-14.51
350.382	14.45
350.594	-0.95
350.806	0.62
351.018	4.36
351.23	-22.49
351.442	-59.64
351.654	-59.33
351.866	-47.64
352.078	-38.72
352.29	-22.25
352.502	1.86
352.714	12.36
352.926	-8.1
353.138	-20.07
353.35	-17.59
353.561	-13.28
353.773	-26.17
353.985	-14.11
354.197	-8.24
354.409	1.33
354.621	-23.28
354.832	-15.34
355.044	-6.41
355.256	-14.14
355.468	-10.99
355.679	-7.9
355.891	-0.94
356.103	-28.28
356.314	-7.95
356.526	-23.11
356.738	-11.83
356.949	-34.02
357.161	-16.44
357.373	-31.5
357.584	-26.23
357.796	-12.64
358.008	-3.39
358.219	5.21
358.431	6.4
358.642	11.02
358.854	5.85
359.065	-4.67
359.277	-25.65
359.488	-28.58
359.7	-58.53
359.911	-59.45
360.123	-38.51
360.334	-48.15
360.546	-64.52
360.757	-37.71
360.969	-28.74
361.18	-45.79
361.391	-15.13
361.603	-5.12
361.814	-2.85
362.025	-14.5
362.237	-10.48
362.448	-6.41
362.659	3.95
362.871	-8.03
363.082	-7.62
363.293	-15.61
363.504	-24.87
363.716	-52.75
363.927	-57.75
364.138	-74.18
364.349	-66.49
364.56	-51.69
364.772	-46.9
364.983	-9.33
365.194	-6.85
365.405	5.22
365.616	10.11
365.827	14.93
366.038	-21.37
366.25	-20.58
366.461	-56.47
366.672	-37.99
366.883	-13.4
367.094	-4.21
367.305	-7.56
367.516	8.86
367.727	-11.84
367.938	-24.05
368.149	-19.38
368.36	-1.17
368.571	-0.45
368.781	-7
368.992	-25.34
369.203	-42.04
369.414	-67.55
369.625	-80.96
369.836	-65.63
370.047	-68.92
370.258	-57.73
370.468	-52.78
370.679	-67.71
370.89	-75.42
371.101	-52.89
371.312	-53.84
371.522	-46.91
371.733	-25.29
371.944	-2.75
372.155	-0.07
372.365	-4.98
372.576	-7.69
372.787	-10.87
372.997	-52.35
373.208	-49.81
373.419	-29.1
373.629	-52.22
373.84	-47.06
374.05	-27.9
374.261	-30.34
374.472	-38.24
374.682	-0.2
374.893	-0.22
375.103	15.7
375.314	19.14
375.524	17.99
375.735	10.89
375.945	14.67
376.156	3.87
376.366	-3.15
376.577	-1.88
376.787	-4.12
376.997	-11.39
377.208	-4.45
377.418	-13.4
377.629	-3.13
377.839	1.46
378.049	6.32
378.26	9.43
378.47	17.39
378.68	5.59
378.89	-4.18
379.101	-13.17
379.311	-40.88
379.521	-68.3
379.732	-62.89
379.942	-52.7
380.152	-55.73
380.362	-15.9
380.572	0.39
380.783	13.83
380.993	20.53
381.203	28.02
381.413	23.73
381.623	26.49
381.833	13.47
382.043	-1.83
382.253	-10.07
382.463	-6.6
382.674	-21.95
382.884	-31.71
383.094	-21.87
383.304	-13.26
383.514	-8.24
383.724	2.44
383.934	2.83
384.144	-11.71
384.353	-20.16
384.563	-24.62
384.773	-14.44
384.983	-23.12
385.193	-4.13
385.403	0.12
385.613	-2.39
385.823	-23.38
386.033	-10.98
386.242	-13.91
386.452	-11.62
386.662	-13.49
386.872	4.81
387.082	-4.4
387.291	-10.96
387.501	-16.15
387.711	-15.39
387.921	-17.38
388.13	-8.65
388.34	2.17
388.55	-2.94
388.759	-0.44
388.969	1.7
389.179	-6.06
389.388	-12.77
389.598	-3.09
389.807	-11.25
390.017	-17.96
390.227	-13.11
390.436	-8.29
390.646	-6.62
390.855	0.8
391.065	3.11
391.274	3
391.484	0.26
391.693	1.04
391.903	2
392.112	7.18
392.322	7.34
392.531	10.5
392.74	9.78
392.95	4.92
393.159	1.8
393.369	3.03
393.578	1.04
393.787	-1.45
393.997	0.66
394.206	-0.79
394.415	-0.56
394.625	-0.23
394.834	-0.07
395.043	1.18
395.252	3.95
395.462	4.83
395.671	6.3
395.88	7.15
396.089	7.67
396.298	6.26
396.508	4.75
396.717	3.56
396.926	3.57
397.135	2.4
397.344	2.48
397.553	4.3
397.762	5.26
397.971	5.82
398.181	6.41
398.39	5.97
398.599	4.98
398.808	5.57
399.017	5.84
399.226	7.1
399.435	8.05
399.644	8.37
399.853	7.38
400.062	6.63
400.27	5.66
400.479	5.45
400.688	5.05
400.897	5.18
401.106	5.35
401.315	5.19
401.524	5.2
401.733	5.78
401.941	5.9
402.15	6.17
402.359	6.09
402.568	6.56
402.777	6.47
402.985	6.33
403.194	6.06
403.403	6.09
403.612	5.53
403.82	5.44
404.029	5.79
404.238	5.93
404.446	6.08
404.655	6.08
404.864	6.09
405.072	5.81
405.281	5.85
405.489	5.73
405.698	5.66
405.906	5.55
406.115	5.68
406.324	5.54
406.532	5.79
406.741	6
406.949	5.98
407.158	5.76
407.366	5.86
407.574	5.66
407.783	5.54
407.991	5.42
408.2	5.49
408.408	5.41
408.617	5.3
408.825	5.28
409.033	5.4
409.242	5.62
409.45	5.71
409.658	5.72
409.867	5.79
410.075	5.62
410.283	5.43
410.491	5.31
410.7	5.33
410.908	5.23
411.116	5.58
411.324	5.59
411.533	5.45
411.741	5.53
411.949	5.44
412.157	5.06
412.365	5.06
412.573	5.23
412.781	5.27
412.99	5.25
413.198	5.45
413.406	5.4
413.614	5.37
413.822	5.14
414.03	5.12
414.238	5.01
414.446	5.03
414.654	4.8
414.862	4.84
415.07	4.97
415.278	5.14
415.486	5.02
415.694	5.24
415.902	5.25
416.109	4.98
416.317	4.87
416.525	4.71
416.733	4.66
416.941	4.76
417.149	4.95
417.357	5.01
417.564	5.09
417.772	5.19
417.98	5.06
418.188	5
418.395	4.92
418.603	5.19
418.811	4.89
419.019	4.96
419.226	5.16
419.434	5.22
419.642	4.89
419.849	5.02
420.057	5.07
420.265	5.02
420.472	4.74
420.68	4.9
420.887	4.83
421.095	4.7
421.302	4.66
421.51	4.79
421.717	4.88
421.925	4.99
422.132	4.92
422.34	4.68
422.547	4.73
422.755	4.5
422.962	4.36
423.17	4.38
423.377	4.47
423.585	4.49
423.792	4.47
423.999	4.42
424.207	4.19
424.414	4.23
424.621	4.08
424.829	3.99
425.036	4.09
425.243	4.39
425.451	4.27
425.658	4.3
425.865	4.5
426.072	4.45
426.28	4.58
426.487	4.63
426.694	4.67
426.901	4.54
427.108	4.5
427.315	4.35
427.523	4.48
427.73	4.4
427.937	4.5
428.144	4.46
428.351	4.52
428.558	4.52
428.765	4.61
428.972	4.57
429.179	4.76
429.386	4.9
429.593	4.71
429.8	4.61
430.007	4.65
430.214	4.62
430.421	4.42
430.628	4.36
430.835	4.3
431.042	4.48
431.249	4.53
431.456	4.57
431.662	4.78
431.869	5
432.076	4.88
432.283	5.02
432.49	5.02
432.697	5.1
432.903	4.94
433.11	4.9
433.317	4.81
433.524	4.92
433.73	4.74
433.937	4.99
434.144	4.89
434.35	4.8
434.557	4.61
434.764	4.64
434.97	4.42
435.177	4.58
435.384	4.61
435.59	4.8
435.797	5.11
436.003	5.13
436.21	5.12
436.416	5.17
436.623	5.04
436.829	4.93
437.036	5.09
437.242	5.1
437.449	4.99
437.655	5.17
437.862	5.16
438.068	5.09
438.275	5.24
438.481	5.53
438.687	5.39
438.894	5.33
439.1	5.37
439.307	5.46
439.513	5.32
439.719	5.28
439.926	5.47
440.132	5.46
440.338	5.21
440.544	5.32
440.751	5.33
440.957	5.25
441.163	5.16
441.369	5.29
441.575	5.1
441.782	5.13
441.988	5.11
442.194	5.2
442.4	5.21
442.606	5.51
442.812	5.61
443.018	5.64
443.224	5.6
443.431	5.6
443.637	5.34
443.843	5.29
444.049	5.17
444.255	5.11
444.461	5.16
444.667	5.23
444.873	5.31
445.079	5.37
445.284	5.51
445.49	5.31
445.696	5.16
445.902	5.12
446.108	5.07
446.314	5.02
446.52	5.18
446.726	5.44
446.931	5.46
447.137	5.58
447.343	5.68
447.549	5.64
447.755	5.49
447.96	5.51
448.166	5.46
448.372	5.32
448.578	5.39
448.783	5.5
448.989	5.55
449.195	5.64
449.4	5.72
449.606	5.69
449.812	5.54
450.017	5.54
450.223	5.47
450.428	5.43
450.634	5.44
450.84	5.58
451.045	5.46
451.251	5.41
451.456	5.58
451.662	5.66
451.867	5.72
452.073	5.74
452.278	5.9
452.483	5.84
452.689	5.72
452.894	5.69
453.1	5.73
453.305	5.66
453.51	5.58
453.716	5.56
453.921	5.49
454.127	5.47
454.332	5.36
454.537	5.32
454.742	5.37
454.948	5.38
455.153	5.39
455.358	5.49
455.563	5.67
455.769	5.68
455.974	5.66
456.179	5.54
456.384	5.49
456.589	5.32
456.795	5.22
457	5.13
457.205	5.28
457.41	5.4
457.615	5.44
457.82	5.52
458.025	5.56
458.23	5.53
458.435	5.47
458.64	5.37
458.845	5.48
459.05	5.56
459.255	5.51
459.46	5.47
459.665	5.55
459.87	5.5
460.075	5.45
460.28	5.52
460.485	5.64
460.69	5.65
