Data from Ofra_1a_PS_2GT10_Reflection_1.txt Node
Date: Tue Jul 20 10:48:16 EDT 2021
User: Adam
Spectrometer: FLMT01687
Trigger mode: 0
Integration Time (sec): 1.004000E0
Scans to average: 2
Electric dark correction enabled: true
Nonlinearity correction enabled: false
Boxcar width: 2
XAxis mode: Wavelengths
Number of Pixels in Spectrum: 3648
>>>>>Begin Spectral Data<<<<<
179.494	-261.93
179.716	-336.64
179.937	878.93
180.158	-1276.43
180.38	180.87
180.601	113.15
180.823	64.57
181.044	-42.92
181.265	-94.51
181.486	201.03
181.708	163.5
181.929	-7854.55
182.15	165.87
182.372	-5.91
182.593	330.92
182.814	-154.84
183.035	-4.47
183.257	-10.17
183.478	1.5
183.699	-2.65
183.92	-58.54
184.141	-68.88
184.363	-51.93
184.584	-49.61
184.805	-46.89
185.026	12.68
185.247	-7.56
185.468	-47.29
185.689	-37.34
185.91	-43.37
186.132	-39.99
186.353	-14.18
186.574	3.39
186.795	3.77
187.016	27.85
187.237	-1.41
187.458	-5.88
187.679	-22.78
187.9	-2.74
188.121	-30.94
188.342	-11.68
188.563	-14.8
188.784	23.71
189.005	8.24
189.226	9.4
189.447	3.31
189.667	-6.27
189.888	-21.42
190.109	-21.29
190.33	6.82
190.551	-2.99
190.772	-5.7
190.993	4.02
191.214	-17.43
191.434	-58.65
191.655	-13.37
191.876	33.32
192.097	14.18
192.318	26.63
192.538	-1.43
192.759	-17.21
192.98	-16.97
193.201	-10.53
193.421	-12.25
193.642	-1.53
193.863	5.39
194.083	-3.36
194.304	-11.62
194.525	-14.93
194.745	-12.53
194.966	-3.99
195.187	-1.65
195.407	1.67
195.628	1.79
195.848	-6.8
196.069	-21.51
196.29	5.66
196.51	-19.41
196.731	-13.91
196.951	-31.95
197.172	-11.08
197.392	-51.28
197.613	-7.44
197.833	-18.83
198.054	-24.94
198.274	-44
198.495	-25.7
198.715	-30.72
198.936	-6.02
199.156	22.24
199.377	33.86
199.597	38.16
199.817	27.89
200.038	-11.71
200.258	10.94
200.479	32.84
200.699	5.83
200.919	-5.04
201.14	5.38
201.36	-2.34
201.58	-44.06
201.801	-49.2
202.021	-45.82
202.241	-38.33
202.461	-43.05
202.682	-11.14
202.902	-13.21
203.122	5.34
203.342	0
203.563	-10.93
203.783	-24.66
204.003	-17.01
204.223	-14.51
204.443	-23.44
204.663	-18.98
204.884	-6.97
205.104	13.72
205.324	13.96
205.544	11.11
205.764	23.52
205.984	-4.37
206.204	2.17
206.424	-28.84
206.644	-36.51
206.864	-84.83
207.084	-29.03
207.304	-68.08
207.525	-48.28
207.745	-12.45
207.964	4.9
208.184	-2.93
208.404	17.45
208.624	14.05
208.844	5.19
209.064	-2.11
209.284	-5.3
209.504	-26.05
209.724	-16.7
209.944	-38.05
210.164	-20.28
210.384	-22.34
210.604	-49.98
210.823	-58.12
211.043	-28.61
211.263	-163.25
211.483	-92.8
211.703	-31.45
211.922	-25.33
212.142	-7.67
212.362	41.9
212.582	31.52
212.801	7.76
213.021	-14.82
213.241	-26.63
213.461	-42.75
213.68	-15.24
213.9	-25.21
214.12	-22.52
214.339	-21.31
214.559	-7.63
214.779	-35.64
214.998	-5
215.218	-2.77
215.438	2.59
215.657	-6.25
215.877	-11.73
216.096	6.55
216.316	16.81
216.535	18.07
216.755	14.18
216.974	22.29
217.194	-8.07
217.413	-9.11
217.633	-14.78
217.852	-7.45
218.072	-8.89
218.291	-10.59
218.511	-28.26
218.73	-45.93
218.95	-75.98
219.169	-80.58
219.389	-51.49
219.608	-58.89
219.827	-35.98
220.047	-20
220.266	-25.53
220.485	-53.05
220.705	-22.82
220.924	-31.72
221.143	-7.41
221.363	-3.72
221.582	-13.7
221.801	1.28
222.021	12.07
222.24	-3.33
222.459	29.37
222.678	44.51
222.897	24.17
223.117	18.98
223.336	36.34
223.555	-8.21
223.774	-25.38
223.993	-19.65
224.213	4.26
224.432	12.03
224.651	28.04
224.87	28.04
225.089	20.33
225.308	3.79
225.527	-14.46
225.746	-23.01
225.965	-31.69
226.184	-39.87
226.404	-44.78
226.623	-33.45
226.842	-28.63
227.061	-42.78
227.28	-10.64
227.499	6.89
227.718	3.46
227.936	21.66
228.155	34.09
228.374	17.53
228.593	5.23
228.812	8.57
229.031	-1.66
229.25	-15.88
229.469	-12.31
229.688	-0.52
229.907	4.66
230.125	0.17
230.344	13.78
230.563	22.79
230.782	18.26
231.001	21.39
231.22	9.89
231.438	17.57
231.657	20.63
231.876	23.64
232.095	18.05
232.313	5.34
232.532	-10.83
232.751	-21.34
232.969	-24.36
233.188	-29.07
233.407	-3.68
233.625	9.28
233.844	8.23
234.063	6.39
234.281	12.08
234.5	7.85
234.719	-4.65
234.937	-39.33
235.156	-36.22
235.374	-37.17
235.593	-27.44
235.811	-3.02
236.03	24.33
236.249	19.97
236.467	23.95
236.686	16.53
236.904	18.88
237.123	10.42
237.341	2.37
237.559	6.99
237.778	47.36
237.996	15.16
238.215	-27.89
238.433	-61.3
238.652	-19.45
238.87	-51.42
239.088	-36.03
239.307	-0.81
239.525	7.43
239.743	-9.66
239.962	-29.52
240.18	-9.63
240.398	-11.15
240.617	-26.22
240.835	-51.14
241.053	-37.44
241.271	-53.08
241.49	-33.33
241.708	-29.36
241.926	-34.7
242.144	-24.09
242.363	-22.46
242.581	-79.88
242.799	-92.67
243.017	-53.08
243.235	-43.56
243.453	-71.38
243.672	-53.66
243.89	-26.82
244.108	-12.73
244.326	-0.96
244.544	18.9
244.762	11.9
244.98	18.13
245.198	18.83
245.416	3.76
245.634	-1.89
245.852	-4.74
246.07	-0.34
246.288	-2.96
246.506	1.63
246.724	2.22
246.942	4.82
247.16	13.16
247.378	12.63
247.596	46.58
247.814	38.78
248.032	42.89
248.25	23.78
248.468	23.74
248.685	6.17
248.903	12.13
249.121	18.03
249.339	14.88
249.557	9.5
249.775	13.27
249.992	8.53
250.21	1.58
250.428	9.52
250.646	8.08
250.863	4.59
251.081	6.92
251.299	-4.97
251.517	-0.76
251.734	12.21
251.952	14.04
252.17	13.86
252.387	26.24
252.605	4.2
252.823	-14.58
253.04	10.42
253.258	13.38
253.475	1.81
253.693	23.1
253.911	11.17
254.128	-3.39
254.346	-2.31
254.563	10.24
254.781	-14.05
254.998	-13.51
255.216	-56.24
255.433	-91.89
255.651	-101.73
255.868	-96.52
256.086	-92.87
256.303	-52.82
256.521	-36.63
256.738	-24.72
256.956	-7.03
257.173	1.03
257.39	5.1
257.608	5.78
257.825	7.75
258.043	14.54
258.26	21.26
258.477	26.46
258.695	30.11
258.912	18.76
259.129	-2.09
259.346	-34.26
259.564	-62.95
259.781	-85.04
259.998	-51.64
260.216	-17.73
260.433	-13.52
260.65	-13.12
260.867	-6.41
261.084	-13.84
261.302	-32.48
261.519	7.85
261.736	16.22
261.953	8.19
262.17	23.7
262.387	25.55
262.604	20.61
262.822	20.66
263.039	25.36
263.256	21.32
263.473	18.41
263.69	12.44
263.907	9.13
264.124	15.91
264.341	12.13
264.558	7.27
264.775	-1.97
264.992	11.42
265.209	-10.9
265.426	-23.41
265.643	-25.06
265.86	-15.14
266.077	-43.47
266.294	-3.17
266.51	25.54
266.727	37.35
266.944	44.94
267.161	46.5
267.378	36.1
267.595	10.03
267.812	-5.26
268.028	-34.99
268.245	-47.35
268.462	-32.02
268.679	-14.06
268.896	-12.52
269.112	-19.65
269.329	-37.65
269.546	-8.86
269.763	-21.13
269.979	-16.11
270.196	-8.35
270.413	-3.43
270.629	-26.42
270.846	-22.77
271.063	-9.89
271.279	-5.6
271.496	-6.13
271.712	12.31
271.929	21.5
272.146	12.13
272.362	17.25
272.579	4.04
272.795	-3.29
273.012	-9.01
273.228	5.48
273.445	-8.02
273.661	4.2
273.878	-23.51
274.094	-15.33
274.311	-10.23
274.527	-27.92
274.744	-4.38
274.96	-0.83
275.177	-11.31
275.393	1.82
275.609	21.25
275.826	15.06
276.042	11.03
276.259	21.19
276.475	10.03
276.691	7.53
276.908	-11.35
277.124	12.75
277.34	-2.31
277.557	-10.57
277.773	-21.81
277.989	-14.5
278.205	-14.39
278.422	-8.32
278.638	0.69
278.854	-5.38
279.07	9.3
279.286	0.79
279.503	2.89
279.719	-6.51
279.935	-3.63
280.151	-14.68
280.367	-12.16
280.583	-16
280.799	-23.48
281.016	-69.06
281.232	-35.44
281.448	-41.71
281.664	-29.51
281.88	-19.93
282.096	19.2
282.312	8.56
282.528	17.94
282.744	13.69
282.96	-1.54
283.176	-38.3
283.392	-75.75
283.608	-88.8
283.824	-116.8
284.04	-153
284.256	-59.85
284.471	-40.2
284.687	-26.13
284.903	-11.02
285.119	25.47
285.335	18.31
285.551	28.89
285.767	15.27
285.982	24.24
286.198	-28.44
286.414	-39.33
286.63	-75.46
286.846	-46.43
287.061	-55.61
287.277	-56.02
287.493	-55.3
287.709	-38.94
287.924	-19.71
288.14	4.77
288.356	26.26
288.571	20.51
288.787	3.8
289.003	1.38
289.218	-28.6
289.434	-23.64
289.65	6.4
289.865	9.43
290.081	12.89
290.296	19.95
290.512	12.98
290.727	-10.5
290.943	-10.69
291.159	-25.94
291.374	-46.12
291.59	-30.03
291.805	-37.99
292.021	-20.75
292.236	-23.89
292.451	-14.64
292.667	-17.96
292.882	7.72
293.098	-3.21
293.313	11.59
293.529	22.41
293.744	15.96
293.959	7.08
294.175	12.95
294.39	3.86
294.605	6.48
294.821	4.98
295.036	2.09
295.251	-2.94
295.467	-9.02
295.682	-8.69
295.897	-33.92
296.112	-26.05
296.328	-5.34
296.543	-10.33
296.758	-17.49
296.973	-0.83
297.188	-6.64
297.404	-30.48
297.619	-43.08
297.834	-67.64
298.049	-30.64
298.264	-37.29
298.479	-27.97
298.694	12.55
298.909	35.69
299.125	17.86
299.34	24.06
299.555	22.65
299.77	23.55
299.985	10.01
300.2	21.53
300.415	26.06
300.63	23.91
300.845	7.82
301.06	4.83
301.275	3
301.49	-3.83
301.704	-4.26
301.919	-4.75
302.134	-4.58
302.349	-11.21
302.564	-13.82
302.779	-26.2
302.994	-8.21
303.209	-8.93
303.423	-15.11
303.638	-16.41
303.853	-11.18
304.068	-26.59
304.283	-13.69
304.497	-4.24
304.712	13.89
304.927	-1.67
305.142	17.49
305.356	26.25
305.571	23.1
305.786	15
306	29.22
306.215	4.69
306.43	-18.94
306.644	-33.88
306.859	-55.84
307.074	-30.44
307.288	-22.38
307.503	-7.75
307.717	4.88
307.932	16.46
308.147	3.36
308.361	2.94
308.576	-19.42
308.79	-9.4
309.005	-45.37
309.219	-26.95
309.434	-14.83
309.648	0.67
309.863	-2.68
310.077	17.15
310.292	17.15
310.506	15.11
310.72	8.68
310.935	29.81
311.149	41.43
311.364	56.01
311.578	62.56
311.792	65.43
312.007	47.33
312.221	11.79
312.435	7.32
312.649	-5.81
312.864	8.7
313.078	18.27
313.292	20.53
313.507	18.95
313.721	18.48
313.935	23.56
314.149	6.49
314.363	7.14
314.578	1.08
314.792	-34.55
315.006	-51.29
315.22	-13.59
315.434	-6.63
315.648	-22.66
315.862	-3.9
316.077	-10.67
316.291	-33.27
316.505	-63.66
316.719	-40.29
316.933	-36.49
317.147	-31.81
317.361	-21.46
317.575	-10.01
317.789	-12.54
318.003	-19.5
318.217	-4.05
318.431	-9.54
318.645	-11.86
318.859	0.15
319.073	15.97
319.287	5.59
319.5	-0.66
319.714	-2.71
319.928	-10.73
320.142	-16.42
320.356	-2.76
320.57	-15.96
320.784	0.83
320.997	-7.38
321.211	-3.14
321.425	-29.52
321.639	11.49
321.853	8.26
322.066	4.99
322.28	4.15
322.494	7.28
322.707	3.19
322.921	-0.77
323.135	19.38
323.349	-0.71
323.562	4.57
323.776	-14.64
323.989	-0.13
324.203	-18.83
324.417	-7.78
324.63	-17.81
324.844	-15.01
325.057	-34.29
325.271	-26.25
325.485	-24.72
325.698	-9.88
325.912	1.41
326.125	-10.77
326.339	-2.03
326.552	-7.11
326.766	-17.07
326.979	-21.36
327.193	3.64
327.406	-15.5
327.619	-8.57
327.833	-0.99
328.046	4.07
328.26	-5.06
328.473	-0.54
328.686	-0.3
328.9	0.26
329.113	-7.39
329.326	-14.87
329.54	-1.54
329.753	7.04
329.966	0.24
330.179	-8.8
330.393	-3.29
330.606	0.26
330.819	-14.33
331.032	-17.73
331.246	1.03
331.459	11.03
331.672	-1.01
331.885	-1.55
332.098	19.25
332.311	13.42
332.525	6.07
332.738	6.55
332.951	-0.53
333.164	-2.5
333.377	-2.89
333.59	-10.77
333.803	-11.02
334.016	-4.04
334.229	-4.83
334.442	-12.52
334.655	-7.53
334.868	-9.21
335.081	-7
335.294	-16.61
335.507	0.51
335.72	-3.34
335.933	-8.39
336.146	-5.35
336.359	9.21
336.572	5.5
336.785	3.49
336.997	21.39
337.21	17.25
337.423	-18.39
337.636	-31.99
337.849	-34.86
338.062	-20.96
338.274	-9.8
338.487	-14.05
338.7	-20.42
338.913	-4.3
339.125	-12.24
339.338	-33.01
339.551	-21.8
339.763	-16.87
339.976	-23.65
340.189	-37.05
340.402	-15.05
340.614	-12.94
340.827	0.51
341.039	15.91
341.252	19.48
341.465	2.32
341.677	21.45
341.89	15.76
342.102	18.12
342.315	24.76
342.527	32.43
342.74	6.41
342.952	1.55
343.165	-10.03
343.377	-6.1
343.59	-14.31
343.802	-2.59
344.015	12.45
344.227	8.49
344.44	2.28
344.652	4.29
344.864	6.14
345.077	-2.59
345.289	17.05
345.502	25.64
345.714	28.57
345.926	34.88
346.139	34.28
346.351	20.34
346.563	10.26
346.775	7.57
346.988	10.78
347.2	10.32
347.412	6.89
347.624	5.49
347.837	24.52
348.049	19.89
348.261	2.85
348.473	-1.2
348.685	-11.15
348.897	-29.52
349.11	-23.88
349.322	-10.31
349.534	-10.37
349.746	-6.82
349.958	-25.68
350.17	-59.21
350.382	-59.51
350.594	-40.23
350.806	-16.21
351.018	-6.25
351.23	6.5
351.442	21.15
351.654	19.2
351.866	6.35
352.078	23.78
352.29	24.58
352.502	13.53
352.714	8.35
352.926	11.89
353.138	14.48
353.35	1.26
353.561	5.94
353.773	-2.35
353.985	6.67
354.197	3.04
354.409	8.72
354.621	0.87
354.832	3.64
355.044	-16.17
355.256	-36.14
355.468	-41.15
355.679	-9.88
355.891	1.64
356.103	0.12
356.314	4.68
356.526	-3.79
356.738	-26.25
356.949	-20.9
357.161	-1.42
357.373	-3.99
357.584	-1.74
357.796	9.79
358.008	4.42
358.219	-4.95
358.431	-4.14
358.642	13.3
358.854	6.7
359.065	-4.06
359.277	-2.45
359.488	-12.5
359.7	-20.3
359.911	-33.28
360.123	-17.67
360.334	-15.9
360.546	-14.79
360.757	-13.29
360.969	-4.75
361.18	-8.03
361.391	0.29
361.603	8.54
361.814	8.58
362.025	4.73
362.237	12.96
362.448	14.62
362.659	15.94
362.871	6.59
363.082	9.69
363.293	0.72
363.504	-19.38
363.716	-30.12
363.927	-0.15
364.138	-21.01
364.349	-32.23
364.56	-36.23
364.772	-13.37
364.983	-18.73
365.194	-5.11
365.405	3
365.616	10.47
365.827	-11.08
366.038	-1.71
366.25	7.39
366.461	9.32
366.672	10.46
366.883	16.31
367.094	6.68
367.305	1.56
367.516	-1.66
367.727	-20.79
367.938	-14.31
368.149	-21.72
368.36	-33.6
368.571	-42.77
368.781	-31.02
368.992	-34.35
369.203	-37.08
369.414	-36.2
369.625	-29.08
369.836	-1.79
370.047	5.91
370.258	32.2
370.468	34.53
370.679	18.94
370.89	4.96
371.101	13.84
371.312	-4.1
371.522	-0.91
371.733	7.94
371.944	0.72
372.155	-4.75
372.365	7.94
372.576	12.71
372.787	12.68
372.997	6.78
373.208	2.01
373.419	-8.68
373.629	-8.53
373.84	-14.14
374.05	-17.59
374.261	-32.74
374.472	-25.87
374.682	-21.97
374.893	-30.91
375.103	-18.51
375.314	-3.48
375.524	-1.04
375.735	-4.6
375.945	9.97
376.156	10.34
376.366	2.92
376.577	1
376.787	-4.88
376.997	-1.39
377.208	-0.19
377.418	1.23
377.629	-1.88
377.839	2.63
378.049	-3.86
378.26	-22.75
378.47	-21.36
378.68	-8.56
378.89	-6.52
379.101	-0.97
379.311	18.97
379.521	3.93
379.732	5.12
379.942	3.81
380.152	-13.75
380.362	-15.03
380.572	8.12
380.783	8.17
380.993	11.65
381.203	18.94
381.413	20.09
381.623	15.97
381.833	15.64
382.043	7.47
382.253	9.84
382.463	17.44
382.674	14.84
382.884	15.97
383.094	20.47
383.304	22
383.514	16.59
383.724	13.66
383.934	9.97
384.144	12.97
384.353	15.84
384.563	16.04
384.773	18.53
384.983	13.98
385.193	7.09
385.403	0.29
385.613	2.69
385.823	-4.79
386.033	-0.28
386.242	-5.99
386.452	-6.08
386.662	-11.89
386.872	-7.31
387.082	-7.94
387.291	-6.21
387.501	-4
387.711	-1.38
387.921	2.81
388.13	2.32
388.34	6.8
388.55	2.6
388.759	-1.63
388.969	-6.37
389.179	-6.62
389.388	-7.44
389.598	-8.97
389.807	-11.41
390.017	-11.64
390.227	-11.86
390.436	-8.38
390.646	-5.58
390.855	-1.08
391.065	-1.58
391.274	-0.69
391.484	-3.25
391.693	-4.43
391.903	-4.49
392.112	-1.48
392.322	-0.96
392.531	-0.81
392.74	-1.72
392.95	-1.89
393.159	-3.01
393.369	-4.03
393.578	-3.89
393.787	-2.18
393.997	-2.63
394.206	-1.91
394.415	-0.96
394.625	-0.98
394.834	0.14
395.043	1.11
395.252	2.11
395.462	3.13
395.671	2.47
395.88	3.54
396.089	3.55
396.298	3.08
396.508	2.49
396.717	2.56
396.926	1.14
397.135	1.27
397.344	1.01
397.553	0.38
397.762	1.45
397.971	1.11
398.181	1.45
398.39	0.99
398.599	1.36
398.808	1.02
399.017	1.74
399.226	1.12
399.435	1.36
399.644	1.74
399.853	1.71
400.062	1.95
400.27	1.92
400.479	2.06
400.688	2.04
400.897	1.88
401.106	1.79
401.315	1.79
401.524	1.64
401.733	1.47
401.941	1.58
402.15	1.18
402.359	1.29
402.568	1.45
402.777	1.5
402.985	1.44
403.194	1.41
403.403	1.71
403.612	1.52
403.82	1.32
404.029	1.44
404.238	1.74
404.446	1.74
404.655	1.95
404.864	2.05
405.072	2.1
405.281	2.05
405.489	1.65
405.698	1.72
405.906	1.82
406.115	1.64
406.324	1.68
406.532	1.98
406.741	1.75
406.949	1.74
407.158	1.9
407.366	1.83
407.574	1.73
407.783	1.78
407.991	1.71
408.2	1.82
408.408	1.76
408.617	1.8
408.825	1.78
409.033	1.76
409.242	1.72
409.45	1.83
409.658	1.72
409.867	1.78
410.075	1.8
410.283	1.66
410.491	1.51
410.7	1.5
410.908	1.47
411.116	1.6
411.324	1.65
411.533	1.63
411.741	1.63
411.949	1.66
412.157	1.51
412.365	1.47
412.573	1.57
412.781	1.54
412.99	1.53
413.198	1.61
413.406	1.76
413.614	1.8
413.822	1.9
414.03	1.9
414.238	1.84
414.446	1.75
414.654	1.64
414.862	1.53
415.07	1.48
415.278	1.56
415.486	1.42
415.694	1.54
415.902	1.58
416.109	1.52
416.317	1.32
416.525	1.21
416.733	1.02
416.941	1.05
417.149	1.09
417.357	1.14
417.564	1.27
417.772	1.46
417.98	1.43
418.188	1.44
418.395	1.28
418.603	1.24
418.811	1
419.019	1.02
419.226	1.03
419.434	1.24
419.642	1.34
419.849	1.26
420.057	1.16
420.265	1.09
420.472	1.16
420.68	1.1
420.887	1.3
421.095	1.41
421.302	1.44
421.51	1.34
421.717	1.46
421.925	1.46
422.132	1.48
422.34	1.33
422.547	1.33
422.755	1.38
422.962	1.48
423.17	1.16
423.377	1.25
423.585	1.38
423.792	1.23
423.999	1.13
424.207	1.33
424.414	1.48
424.621	1.49
424.829	1.61
425.036	1.66
425.243	1.64
425.451	1.55
425.658	1.52
425.865	1.4
426.072	1.4
426.28	1.4
426.487	1.43
426.694	1.13
426.901	1.18
427.108	1.12
427.315	1.16
427.523	1.13
427.73	1.31
427.937	1.23
428.144	1.21
428.351	1.25
428.558	1.27
428.765	1.25
428.972	1.3
429.179	1.27
429.386	1.16
429.593	1.06
429.8	1.03
430.007	0.96
430.214	1.03
430.421	1.19
430.628	1.12
430.835	1.15
431.042	1.19
431.249	1.17
431.456	1.11
431.662	1.31
431.869	1.49
432.076	1.45
432.283	1.5
432.49	1.51
432.697	1.39
432.903	1.22
433.11	1.34
433.317	1.46
433.524	1.54
433.73	1.61
433.937	1.85
434.144	1.58
434.35	1.4
434.557	1.37
434.764	1.34
434.97	1.21
435.177	1.46
435.384	1.58
435.59	1.52
435.797	1.66
436.003	1.61
436.21	1.54
436.416	1.48
436.623	1.54
436.829	1.41
437.036	1.44
437.242	1.56
437.449	1.58
437.655	1.6
437.862	1.66
438.068	1.58
438.275	1.6
438.481	1.62
438.687	1.54
438.894	1.67
439.1	1.72
439.307	1.77
439.513	1.82
439.719	1.85
439.926	1.71
440.132	1.78
440.338	1.69
440.544	1.66
440.751	1.6
440.957	1.66
441.163	1.48
441.369	1.49
441.575	1.41
441.782	1.52
441.988	1.57
442.194	1.65
442.4	1.68
442.606	1.84
442.812	1.77
443.018	1.7
443.224	1.79
443.431	1.68
443.637	1.57
443.843	1.67
444.049	1.74
444.255	1.76
444.461	1.76
444.667	1.76
444.873	1.7
445.079	1.6
445.284	1.55
445.49	1.55
445.696	1.55
445.902	1.61
446.108	1.72
446.314	1.77
446.52	1.95
446.726	2.03
446.931	1.94
447.137	1.86
447.343	1.86
447.549	1.83
447.755	1.76
447.96	1.79
448.166	1.84
448.372	1.77
448.578	1.7
448.783	1.82
448.989	1.9
449.195	1.96
449.4	2.06
449.606	2.05
449.812	1.98
450.017	1.89
450.223	1.78
450.428	1.79
450.634	1.83
450.84	1.82
451.045	1.91
451.251	2.01
451.456	2.06
451.662	2.12
451.867	2.18
452.073	2.22
452.278	2.16
452.483	2.14
452.689	2.08
452.894	2.05
453.1	2.03
453.305	2.1
453.51	2.07
453.716	2.09
453.921	2.15
454.127	2.07
454.332	2.03
454.537	2.02
454.742	1.96
454.948	1.95
455.153	1.98
455.358	1.94
455.563	1.98
455.769	2.02
455.974	1.94
456.179	1.85
456.384	1.85
456.589	1.69
456.795	1.66
457	1.65
457.205	1.7
457.41	1.68
457.615	1.78
457.82	1.91
458.025	1.92
458.23	1.95
458.435	2.05
458.64	2.07
458.845	1.99
459.05	2.05
459.255	2.03
459.46	2.03
459.665	2
459.87	1.94
460.075	1.99
460.28	2.06
460.485	2.05
460.69	2.05
460.895	2.1
461.099	1.99
461.304	1.94
461.509	1.91
461.714	1.97
461.919	1.93
462.123	1.99
462.328	1.92
462.533	1.83
462.738	1.78
462.942	1.76
463.147	1.74
463.352	1.93
463.556	2.11
463.761	2.13
463.966	2.14
464.17	2.31
464.375	2.23
464.58	2.11
464.784	2.1
464.989	2.12
