Data from Ofra_2a_PS_4CX12_Reflection_3.txt Node
Date: Tue Jul 20 09:49:34 EDT 2021
User: Adam
Spectrometer: FLMT01687
Trigger mode: 0
Integration Time (sec): 9.450000E-1
Scans to average: 3
Electric dark correction enabled: true
Nonlinearity correction enabled: false
Boxcar width: 3
XAxis mode: Wavelengths
Number of Pixels in Spectrum: 3648
>>>>>Begin Spectral Data<<<<<
179.494	980.47
179.716	573.24
179.937	703.3
180.158	2621.88
180.38	-569.77
180.601	-67.29
180.823	89.32
181.044	83.27
181.265	35.41
181.486	118.22
181.708	334.78
181.929	-114.88
182.15	-602.27
182.372	174.73
182.593	158.56
182.814	-56.29
183.035	-102.07
183.257	-21.79
183.478	-16.64
183.699	5.7
183.92	18.55
184.141	20.59
184.363	17.12
184.584	25.92
184.805	38.5
185.026	30.86
185.247	-0.8
185.468	-0.77
185.689	19.76
185.91	5.62
186.132	-0.04
186.353	-23.18
186.574	-8.21
186.795	-11.95
187.016	-12.72
187.237	-27.5
187.458	-33.08
187.679	-33.09
187.9	-4.89
188.121	-2.57
188.342	32.82
188.563	41.86
188.784	38.42
189.005	46.53
189.226	41.81
189.447	35.67
189.667	26.51
189.888	29.02
190.109	17.06
190.33	17.58
190.551	16.24
190.772	16.01
190.993	22.16
191.214	28.71
191.434	19.17
191.655	29.22
191.876	35.51
192.097	26.25
192.318	28.5
192.538	26.16
192.759	30.39
192.98	20.41
193.201	35.67
193.421	30.94
193.642	32.92
193.863	24.35
194.083	18.96
194.304	5.34
194.525	24.55
194.745	-11.1
194.966	3.54
195.187	16.4
195.407	15.88
195.628	18.45
195.848	18.98
196.069	7.19
196.29	12.97
196.51	-2.47
196.731	8.63
196.951	22.91
197.172	11.42
197.392	19.37
197.613	18.47
197.833	16.4
198.054	16.01
198.274	-9.02
198.495	-16.92
198.715	-16.83
198.936	-24.21
199.156	-7.34
199.377	5.33
199.597	10.25
199.817	20.84
200.038	19.92
200.258	19.69
200.479	24.34
200.699	29.94
200.919	5.54
201.14	2.92
201.36	9.9
201.58	4.26
201.801	6.96
202.021	-3.12
202.241	-3.65
202.461	19.28
202.682	20.69
202.902	9.36
203.122	10.48
203.342	29.88
203.563	31.88
203.783	34.87
204.003	33.28
204.223	43.04
204.443	55.07
204.663	57.03
204.884	42.05
205.104	50.77
205.324	51.89
205.544	53.8
205.764	37.64
205.984	24.29
206.204	18.16
206.424	24.19
206.644	17.68
206.864	7.49
207.084	8.59
207.304	5.99
207.525	-3.82
207.745	1.03
207.964	2.17
208.184	0.31
208.404	10.62
208.624	-14.1
208.844	-26.93
209.064	-15.01
209.284	-17.18
209.504	-37.14
209.724	-61.23
209.944	-76.85
210.164	-34.75
210.384	-21.64
210.604	-26.15
210.823	-13.5
211.043	-8.03
211.263	12.05
211.483	17.28
211.703	10.45
211.922	14
212.142	25.72
212.362	17.72
212.582	21.1
212.801	20.13
213.021	26.74
213.241	13.31
213.461	11.41
213.68	8.19
213.9	21.29
214.12	13.44
214.339	20.72
214.559	17.9
214.779	30.5
214.998	31.09
215.218	26.86
215.438	38.22
215.657	35.92
215.877	21.68
216.096	14.93
216.316	15.73
216.535	20.42
216.755	6.87
216.974	-16.71
217.194	-7.78
217.413	16.17
217.633	17.64
217.852	6.5
218.072	-3.89
218.291	24.51
218.511	21.65
218.73	20.81
218.95	1.76
219.169	-3.57
219.389	2.31
219.608	21.19
219.827	-0.28
220.047	6.1
220.266	12.51
220.485	24.18
220.705	28.65
220.924	22.55
221.143	-3.08
221.363	9.2
221.582	14.97
221.801	21.97
222.021	23.79
222.24	12.1
222.459	13.11
222.678	22.51
222.897	10.49
223.117	6.32
223.336	1.56
223.555	-13.84
223.774	8.54
223.993	21.69
224.213	29.38
224.432	45.72
224.651	41.63
224.87	33.76
225.089	45.93
225.308	26.31
225.527	23.74
225.746	17.42
225.965	-4.7
226.184	-8.52
226.404	-12.08
226.623	2.71
226.842	11.88
227.061	12.52
227.28	22.44
227.499	36.81
227.718	37.52
227.936	29.53
228.155	22.75
228.374	26.88
228.593	22.35
228.812	14.93
229.031	5.07
229.25	14.29
229.469	25.91
229.688	31.18
229.907	27.16
230.125	28.41
230.344	35.56
230.563	43.84
230.782	38.57
231.001	41.26
231.22	36.4
231.438	41.12
231.657	48.31
231.876	54.91
232.095	51.01
232.313	52.39
232.532	49.18
232.751	53.76
232.969	53.58
233.188	58.38
233.407	45.67
233.625	43.14
233.844	42.41
234.063	35.92
234.281	27.39
234.5	28.01
234.719	20.08
234.937	22.37
235.156	17.07
235.374	5.27
235.593	10.37
235.811	6.35
236.03	-19.91
236.249	-16.22
236.467	-5.85
236.686	2.57
236.904	-4.16
237.123	6.46
237.341	13.68
237.559	19.94
237.778	27.5
237.996	22.81
238.215	17.68
238.433	27.8
238.652	18.64
238.87	11.1
239.088	2.1
239.307	-4.46
239.525	-13.93
239.743	-20.88
239.962	-31.92
240.18	-25.24
240.398	-23.73
240.617	-2.3
240.835	-1.93
241.053	14.18
241.271	26.53
241.49	23.76
241.708	10.47
241.926	-0.95
242.144	-3.89
242.363	-7.91
242.581	-13.96
242.799	-34.68
243.017	-25.19
243.235	-19.57
243.453	2.2
243.672	-1.95
243.89	8.33
244.108	10.76
244.326	17.95
244.544	33.38
244.762	28.72
244.98	20.26
245.198	14.69
245.416	15.11
245.634	14.71
245.852	21.91
246.07	9.64
246.288	9.71
246.506	18.16
246.724	25.64
246.942	34.22
247.16	28.29
247.378	11.22
247.596	20.31
247.814	10.51
248.032	3.08
248.25	-6.31
248.468	-7.36
248.685	6.64
248.903	7.56
249.121	15.93
249.339	29.37
249.557	30.51
249.775	19.87
249.992	8.01
250.21	-0.9
250.428	2.62
250.646	-1.37
250.863	-2.15
251.081	-11.77
251.299	-1.48
251.517	8.92
251.734	10.97
251.952	14.32
252.17	-4.2
252.387	-10.45
252.605	7.47
252.823	1.83
253.04	-6.41
253.258	-6.97
253.475	-1.13
253.693	16.3
253.911	24.36
254.128	9.21
254.346	11.33
254.563	10.19
254.781	9.75
254.998	11.22
255.216	13.09
255.433	1.61
255.651	0.97
255.868	6.19
256.086	3.08
256.303	13.63
256.521	12.14
256.738	-4.24
256.956	6.42
257.173	15.48
257.39	15.21
257.608	20.62
257.825	10.4
258.043	12.73
258.26	21.61
258.477	23.29
258.695	29.92
258.912	32.63
259.129	26.28
259.346	28
259.564	29.29
259.781	32.74
259.998	30.59
260.216	26.83
260.433	34.05
260.65	37.88
260.867	23.19
261.084	28.29
261.302	26.13
261.519	21.72
261.736	14.77
261.953	9.11
262.17	8.63
262.387	22.41
262.604	7.59
262.822	-3.15
263.039	-1.35
263.256	5.31
263.473	2.17
263.69	11.9
263.907	9.95
264.124	11.68
264.341	7.43
264.558	14.12
264.775	15.55
264.992	19.54
265.209	22.93
265.426	20.9
265.643	23.28
265.86	27.45
266.077	22.37
266.294	19.26
266.51	16.72
266.727	-2.97
266.944	-8.57
267.161	-15.33
267.378	-17.92
267.595	-18.86
267.812	-22.02
268.028	-23.56
268.245	-11.2
268.462	-9.95
268.679	-5.14
268.896	-3.97
269.112	4.39
269.329	15.19
269.546	18.7
269.763	18.22
269.979	20.85
270.196	22.76
270.413	21.02
270.629	13.52
270.846	8.84
271.063	4.24
271.279	3.75
271.496	-3.6
271.712	-5.66
271.929	-0.54
272.146	9.02
272.362	-6.56
272.579	-2.08
272.795	-8.95
273.012	-0.37
273.228	-0.2
273.445	-5.83
273.661	-18.42
273.878	-3.4
274.094	0.73
274.311	8.72
274.527	6.12
274.744	5.51
274.96	5.09
275.177	16.46
275.393	23.73
275.609	21.15
275.826	28.11
276.042	39.17
276.259	36.74
276.475	36.51
276.691	35.85
276.908	22.09
277.124	22.39
277.34	9.67
277.557	0.28
277.773	-5.33
277.989	-3.12
278.205	-19.01
278.422	-3.44
278.638	3.26
278.854	6.24
279.07	5.83
279.286	11.75
279.503	6.03
279.719	29.18
279.935	12.78
280.151	11.11
280.367	14.67
280.583	13.24
280.799	21
281.016	28.43
281.232	22.94
281.448	29.27
281.664	30.39
281.88	35.78
282.096	36.95
282.312	27.58
282.528	20.24
282.744	16.45
282.96	15.62
283.176	14.73
283.392	5.6
283.608	15.02
283.824	13.89
284.04	20.93
284.256	22.51
284.471	23.37
284.687	14.4
284.903	15.91
285.119	1.42
285.335	7.83
285.551	5.5
285.767	-4.48
285.982	-8.99
286.198	1.64
286.414	17.38
286.63	29.04
286.846	20.34
287.061	20.96
287.277	35.43
287.493	39.97
287.709	36.36
287.924	29.14
288.14	21.59
288.356	28.21
288.571	19.99
288.787	21.86
289.003	29.19
289.218	17.97
289.434	9.32
289.65	15.66
289.865	22.53
290.081	25.33
290.296	18.02
290.512	12.3
290.727	26.31
290.943	24.11
291.159	15.34
291.374	14.63
291.59	8.86
291.805	2.03
292.021	-3.54
292.236	-7.35
292.451	0.97
292.667	5.44
292.882	3.2
293.098	4.92
293.313	4.98
293.529	8.65
293.744	7.1
293.959	11.13
294.175	18.66
294.39	15.07
294.605	15.95
294.821	12.41
295.036	14.86
295.251	23.8
295.467	18.51
295.682	15.82
295.897	18.2
296.112	23.61
296.328	27.46
296.543	15.17
296.758	8.25
296.973	12.9
297.188	9.86
297.404	5.56
297.619	-1.58
297.834	11.6
298.049	22.82
298.264	13
298.479	-1.03
298.694	1.34
298.909	-4.26
299.125	10.83
299.34	2.69
299.555	7.64
299.77	15.24
299.985	19.79
300.2	19.11
300.415	25.07
300.63	11.74
300.845	13.58
301.06	12.71
301.275	16.13
301.49	17.68
301.704	14.38
301.919	7.77
302.134	2.65
302.349	-3.27
302.564	-9.22
302.779	-6.82
302.994	-0.51
303.209	-8.74
303.423	0.86
303.638	19.69
303.853	20.06
304.068	18.17
304.283	17.96
304.497	9.15
304.712	21.02
304.927	20.96
305.142	19.41
305.356	28.01
305.571	30.17
305.786	22.03
306	25.69
306.215	21.91
306.43	22.32
306.644	20.52
306.859	15.36
307.074	13
307.288	12.93
307.503	15
307.717	16.19
307.932	20.55
308.147	18.41
308.361	22.2
308.576	22.63
308.79	22.79
309.005	18.96
309.219	24.15
309.434	21.68
309.648	11.81
309.863	7.3
310.077	2.33
310.292	9.22
310.506	25.26
310.72	14.11
310.935	16.81
311.149	25.33
311.364	26.94
311.578	28.7
311.792	28.22
312.007	10.25
312.221	20.68
312.435	18.3
312.649	21.63
312.864	8.98
313.078	9.34
313.292	10.29
313.507	31.61
313.721	32.13
313.935	43.82
314.149	40.56
314.363	47.94
314.578	72.69
314.792	76.19
315.006	60.97
315.22	61.53
315.434	37.87
315.648	36.17
315.862	41.41
316.077	23.56
316.291	18.33
316.505	25.61
316.719	-0.21
316.933	23.2
317.147	23.46
317.361	20.44
317.575	24.68
317.789	23.23
318.003	29.02
318.217	35.77
318.431	30.11
318.645	31.15
318.859	25.7
319.073	19.64
319.287	21.63
319.5	16.26
319.714	20.79
319.928	20.27
320.142	25.32
320.356	35.16
320.57	28.38
320.784	25.7
320.997	37.37
321.211	44.18
321.425	37.52
321.639	34.02
321.853	23.14
322.066	27.09
322.28	29.83
322.494	24.27
322.707	12.75
322.921	22.77
323.135	13.3
323.349	18
323.562	25.94
323.776	21.87
323.989	15.91
324.203	21.38
324.417	5.97
324.63	7.19
324.844	4.71
325.057	0.85
325.271	-3.06
325.485	-0.29
325.698	0.67
325.912	26.45
326.125	32.36
326.339	30.75
326.552	32.47
326.766	42
326.979	41.34
327.193	37.1
327.406	24.96
327.619	-0.51
327.833	-2.23
328.046	-9.37
328.26	-20.85
328.473	-18.77
328.686	-10.35
328.9	-14.61
329.113	10.66
329.326	23.21
329.54	38.96
329.753	38.69
329.966	38.12
330.179	43.32
330.393	45.94
330.606	41.4
330.819	40
331.032	30.32
331.246	32.76
331.459	33.91
331.672	22.88
331.885	25.26
332.098	30.81
332.311	17.84
332.525	21.82
332.738	12.82
332.951	7.55
333.164	8.86
333.377	-10.58
333.59	-8.54
333.803	-5.28
334.016	-18.06
334.229	-12.54
334.442	0.25
334.655	11.81
334.868	25.88
335.081	18.5
335.294	15.98
335.507	22.49
335.72	14.65
335.933	17.12
336.146	11.99
336.359	6.37
336.572	4.3
336.785	7.9
336.997	-0.97
337.21	16.52
337.423	9.54
337.636	7.61
337.849	11.9
338.062	19.7
338.274	23.24
338.487	27.81
338.7	25.57
338.913	23.64
339.125	25.2
339.338	30.87
339.551	29.61
339.763	25.34
339.976	22.98
340.189	14.13
340.402	13.13
340.614	16.17
340.827	10.72
341.039	8.88
341.252	16.43
341.465	12.87
341.677	11.06
341.89	14.31
342.102	12.48
342.315	14.85
342.527	5.88
342.74	0.5
342.952	12.74
343.165	23.57
343.377	24.69
343.59	20.97
343.802	14.4
344.015	23.89
344.227	16.04
344.44	7.45
344.652	4.59
344.864	10.11
345.077	13.9
345.289	13.05
345.502	10.73
345.714	5.38
345.926	4.6
346.139	1.33
346.351	-18.61
346.563	-12.41
346.775	-14.64
346.988	-9.97
347.2	3.65
347.412	3.31
347.624	3.16
347.837	10.02
348.049	5.34
348.261	12.33
348.473	-2.33
348.685	0.84
348.897	-2.02
349.11	12.54
349.322	5.85
349.534	3.21
349.746	6.43
349.958	22.03
350.17	18.08
350.382	15.18
350.594	8.28
350.806	20.73
351.018	22.83
351.23	22.88
351.442	23.97
351.654	21.88
351.866	29.74
352.078	24.01
352.29	24.87
352.502	26.23
352.714	17.09
352.926	9.97
353.138	16.54
353.35	12.21
353.561	6.94
353.773	4.32
353.985	9.45
354.197	10.85
354.409	16.52
354.621	13.08
354.832	7.71
355.044	19.55
355.256	17.19
355.468	4.19
355.679	6.78
355.891	4.94
356.103	11.46
356.314	15.56
356.526	2.25
356.738	-3.75
356.949	2.46
357.161	4.47
357.373	0.05
357.584	0.72
357.796	0.8
358.008	11.17
358.219	25.41
358.431	29.5
358.642	25.46
358.854	30.02
359.065	28.98
359.277	19.65
359.488	10.54
359.7	4.23
359.911	0.94
360.123	2.64
360.334	-3.47
360.546	-20.41
360.757	-8.02
360.969	6.95
361.18	4.31
361.391	4.59
361.603	7.16
361.814	13.12
362.025	24.65
362.237	25.25
362.448	17.96
362.659	7.12
362.871	7.69
363.082	10.53
363.293	11.29
363.504	7.8
363.716	9.63
363.927	11.61
364.138	21.89
364.349	24.81
364.56	21.83
364.772	25.45
364.983	24.85
365.194	27.02
365.405	23.35
365.616	17.81
365.827	15.12
366.038	14.26
366.25	11.35
366.461	23.99
366.672	17.85
366.883	21.54
367.094	24.72
367.305	26.33
367.516	28.22
367.727	22
367.938	13.34
368.149	13.36
368.36	6.89
368.571	6.59
368.781	4.09
368.992	2.66
369.203	3.68
369.414	-3.86
369.625	-1.96
369.836	2.62
370.047	6.32
370.258	2.32
370.468	1.6
370.679	0.72
370.89	11
371.101	6.59
371.312	6.18
371.522	8.26
371.733	4.69
371.944	11.49
372.155	-2.85
372.365	-11.78
372.576	-5.78
372.787	-5.77
372.997	-12.34
373.208	-4.94
373.419	-8.33
373.629	15.91
373.84	19.14
374.05	21.46
374.261	15.98
374.472	18.31
374.682	11.82
374.893	6.54
375.103	3.21
375.314	0.1
375.524	-3.2
375.735	0.55
375.945	-4.01
376.156	3.96
376.366	5.89
376.577	2.39
376.787	6.59
376.997	6.68
377.208	2.94
377.418	4.77
377.629	-0.54
377.839	2.56
378.049	9.4
378.26	8.68
378.47	15.22
378.68	17.16
378.89	13.37
379.101	11.89
379.311	1.99
379.521	2.87
379.732	-3.66
379.942	-12.29
380.152	-0.02
380.362	7.52
380.572	16.47
380.783	18.63
380.993	20.06
381.203	24.51
381.413	32.22
381.623	22.84
381.833	16.66
382.043	10.12
382.253	15.21
382.463	14.87
382.674	16
382.884	8.67
383.094	10.52
383.304	14.42
383.514	17.11
383.724	13.28
383.934	9.84
384.144	7.47
384.353	7.85
384.563	7.59
384.773	8.98
384.983	9.42
385.193	10.68
385.403	11.35
385.613	11.73
385.823	11.58
386.033	9.12
386.242	6.14
386.452	2.15
386.662	4.81
386.872	0.8
387.082	0.09
387.291	0.45
387.501	-1.66
387.711	-0.92
387.921	-1
388.13	-2.27
388.34	0.47
388.55	3.53
388.759	4.8
388.969	4.64
389.179	8.35
389.388	9.24
389.598	6.1
389.807	6.21
390.017	3.61
390.227	1.24
390.436	2.18
390.646	-0.85
390.855	0.08
391.065	0.43
391.274	-1.08
391.484	2.01
391.693	4.34
391.903	4.59
392.112	4.81
392.322	4.76
392.531	6.07
392.74	5.36
392.95	4.08
393.159	3.74
393.369	4.15
393.578	4.49
393.787	4.43
393.997	4.84
394.206	5.54
394.415	5.66
394.625	4.09
394.834	3.38
395.043	3.48
395.252	3.03
395.462	2.91
395.671	2.99
395.88	3.46
396.089	4.51
396.298	4.94
396.508	5.03
396.717	4.7
396.926	4.05
397.135	3.55
397.344	2.68
397.553	2.74
397.762	2.59
397.971	2.32
398.181	2.5
398.39	2.99
398.599	3.54
398.808	3.96
399.017	4.11
399.226	4.5
399.435	4.57
399.644	4.57
399.853	4.41
400.062	4.42
400.27	4.36
400.479	4.25
400.688	4.29
400.897	4.51
401.106	4.65
401.315	4.55
401.524	4.49
401.733	4.7
401.941	4.56
402.15	4.29
402.359	4.14
402.568	4.21
402.777	4.24
402.985	4.21
403.194	3.95
403.403	3.86
403.612	3.84
403.82	3.89
404.029	3.74
404.238	3.9
404.446	3.81
404.655	3.73
404.864	3.83
405.072	3.94
405.281	3.8
405.489	3.86
405.698	3.74
405.906	3.76
406.115	3.94
406.324	3.89
406.532	3.88
406.741	3.92
406.949	3.82
407.158	3.79
407.366	3.85
407.574	3.8
407.783	3.72
407.991	3.63
408.2	3.54
408.408	3.62
408.617	3.67
408.825	3.68
409.033	3.67
409.242	3.69
409.45	3.76
409.658	3.83
409.867	3.77
410.075	3.75
410.283	3.67
410.491	3.59
410.7	3.69
410.908	3.66
411.116	3.58
411.324	3.63
411.533	3.52
411.741	3.52
411.949	3.64
412.157	3.58
412.365	3.56
412.573	3.64
412.781	3.6
412.99	3.76
413.198	3.81
413.406	3.69
413.614	3.66
413.822	3.58
414.03	3.51
414.238	3.59
414.446	3.47
414.654	3.4
414.862	3.39
415.07	3.43
415.278	3.42
415.486	3.51
415.694	3.28
415.902	3.27
416.109	3.28
416.317	3.32
416.525	3.37
416.733	3.39
416.941	3.31
417.149	3.56
417.357	3.62
417.564	3.56
417.772	3.53
417.98	3.47
418.188	3.41
418.395	3.4
418.603	3.24
418.811	3.17
419.019	3.21
419.226	3.3
419.434	3.19
419.642	3.22
419.849	3.26
420.057	3.38
420.265	3.47
420.472	3.45
420.68	3.32
420.887	3.39
421.095	3.44
421.302	3.47
421.51	3.42
421.717	3.47
421.925	3.39
422.132	3.35
422.34	3.33
422.547	3.26
422.755	3.19
422.962	3
423.17	2.83
423.377	2.99
423.585	3.04
423.792	3.05
423.999	3.13
424.207	3.08
424.414	3.19
424.621	3.38
424.829	3.25
425.036	3.17
425.243	3.22
425.451	3.19
425.658	3.29
425.865	3.25
426.072	3.17
426.28	3.24
426.487	3.27
426.694	3.09
426.901	3
427.108	2.98
427.315	3.01
427.523	2.96
427.73	2.98
427.937	3.05
428.144	3.17
428.351	3.3
428.558	3.26
428.765	3.16
428.972	3.14
429.179	3.09
429.386	3.13
429.593	3.13
429.8	3.18
430.007	3.22
430.214	3.32
430.421	3.33
430.628	3.2
430.835	3.12
431.042	3.13
431.249	3.11
431.456	3.17
431.662	3.19
431.869	3.25
432.076	3.39
432.283	3.41
432.49	3.39
432.697	3.36
432.903	3.33
433.11	3.34
433.317	3.35
433.524	3.25
433.73	3.24
433.937	3.24
434.144	3.33
434.35	3.31
434.557	3.29
434.764	3.26
434.97	3.38
435.177	3.42
435.384	3.48
435.59	3.42
435.797	3.45
436.003	3.48
436.21	3.47
436.416	3.41
436.623	3.43
436.829	3.43
437.036	3.44
437.242	3.45
437.449	3.42
437.655	3.42
437.862	3.45
438.068	3.47
438.275	3.41
438.481	3.43
438.687	3.48
438.894	3.47
439.1	3.51
439.307	3.53
439.513	3.51
439.719	3.56
439.926	3.54
440.132	3.49
440.338	3.63
440.544	3.62
440.751	3.63
440.957	3.58
441.163	3.65
441.369	3.65
441.575	3.65
441.782	3.57
441.988	3.6
442.194	3.62
442.4	3.72
442.606	3.69
442.812	3.71
443.018	3.7
443.224	3.73
443.431	3.75
443.637	3.68
443.843	3.63
444.049	3.64
444.255	3.66
444.461	3.66
444.667	3.61
444.873	3.58
445.079	3.64
445.284	3.59
445.49	3.54
445.696	3.55
445.902	3.56
446.108	3.6
446.314	3.64
446.52	3.67
446.726	3.7
446.931	3.79
447.137	3.78
447.343	3.82
447.549	3.82
447.755	3.74
447.96	3.71
448.166	3.77
448.372	3.77
448.578	3.8
448.783	3.79
448.989	3.81
449.195	3.88
449.4	3.9
449.606	3.82
449.812	3.84
450.017	3.83
450.223	3.85
450.428	3.86
450.634	3.88
450.84	3.87
451.045	3.91
451.251	3.92
451.456	3.89
451.662	3.88
451.867	3.86
452.073	3.84
452.278	3.86
452.483	3.87
452.689	3.87
452.894	3.9
453.1	3.87
453.305	3.93
453.51	3.97
453.716	3.99
453.921	4.01
454.127	3.95
454.332	3.95
454.537	4.07
454.742	4.04
454.948	3.99
455.153	3.96
455.358	4.01
455.563	4.07
455.769	4.06
455.974	3.97
456.179	3.92
456.384	3.97
456.589	4.04
456.795	3.96
457	3.98
457.205	3.97
457.41	4
457.615	4.06
457.82	4.07
458.025	4.05
458.23	4.08
458.435	4.02
458.64	4.08
458.845	4.03
459.05	4.03
459.255	4.01
459.46	3.99
459.665	4.08
459.87	4.12
460.075	4.13
460.28	4.15
460.485	4.23
460.69	4.21
460.895	4.23
461.099	4.18
461.304	4.2
461.509	4.14
461.714	4.2
461.919	4.14
462.123	4.17
462.328	4.14
462.533	4.12
462.738	4.12
462.942	4.18
463.147	4.14
463.352	4.14
463.556	4.21
463.761	4.28
463.966	4.32
464.17	4.35
464.375	4.33
464.58	4.39
464.784	4.45
464.989	4.42
465.193	4.44
465.398	4.48
465.602	4.44
465.807	4.45
466.011	4.47
466.216	4.43
466.42	4.44
466.625	4.42
466.829	4.44
467.034	4.48
467.238	4.49
467.443	4.49
467.647	4.55
467.851	4.55
468.056	4.56
468.26	4.49
468.464	4.46
468.669	4.5
468.873	4.47
469.077	4.44
469.282	4.44
469.486	4.5
469.69	4.52
469.894	4.62
470.099	4.65
