Data from Ofra_2a_PS_4HS15_Reflection_3.txt Node
Date: Tue Jul 20 09:51:33 EDT 2021
User: Adam
Spectrometer: FLMT01687
Trigger mode: 0
Integration Time (sec): 9.450000E-1
Scans to average: 3
Electric dark correction enabled: true
Nonlinearity correction enabled: false
Boxcar width: 3
XAxis mode: Wavelengths
Number of Pixels in Spectrum: 3648
>>>>>Begin Spectral Data<<<<<
179.494	908.88
179.716	469.81
179.937	539.01
180.158	1955.86
180.38	-1019.48
180.601	-238.94
180.823	-129.25
181.044	-89.94
181.265	-159.69
181.486	32.07
181.708	-720.65
181.929	73.6
182.15	332.39
182.372	-149.19
182.593	-120.98
182.814	344.46
183.035	165.81
183.257	103.33
183.478	62.33
183.699	79.6
183.92	50.85
184.141	62.46
184.363	53.04
184.584	43.88
184.805	50.81
185.026	79.8
185.247	56.5
185.468	65.17
185.689	46.91
185.91	37.4
186.132	45.12
186.353	38.56
186.574	28.54
186.795	44.15
187.016	45.76
187.237	58.57
187.458	84.56
187.679	103.75
187.9	111.15
188.121	120.61
188.342	98.72
188.563	110.83
188.784	93.84
189.005	100.15
189.226	85.97
189.447	74.56
189.667	66.7
189.888	51.47
190.109	39.74
190.33	37.03
190.551	24.08
190.772	17.54
190.993	28.98
191.214	27.67
191.434	32.96
191.655	45.9
191.876	52.92
192.097	46.09
192.318	54.57
192.538	55.13
192.759	52.41
192.98	42.83
193.201	44.6
193.421	46.34
193.642	49.83
193.863	49.83
194.083	39.7
194.304	51.81
194.525	72.25
194.745	58.35
194.966	56.73
195.187	65.24
195.407	42.71
195.628	39.92
195.848	26.95
196.069	7.82
196.29	0.44
196.51	-12.15
196.731	-6.41
196.951	6.37
197.172	-4.94
197.392	17.98
197.613	17.06
197.833	31.35
198.054	27.26
198.274	7.58
198.495	26.58
198.715	17.04
198.936	23.47
199.156	32.59
199.377	33.59
199.597	32.24
199.817	38.95
200.038	42.7
200.258	49.05
200.479	42.86
200.699	44.28
200.919	30.18
201.14	34.65
201.36	46.72
201.58	36.54
201.801	34.62
202.021	36.27
202.241	38.93
202.461	44.49
202.682	51.63
202.902	43.84
203.122	41.74
203.342	54.51
203.563	55.68
203.783	48.94
204.003	46.62
204.223	47.06
204.443	47.56
204.663	45.83
204.884	43.97
205.104	49.63
205.324	63.93
205.544	64.39
205.764	59.47
205.984	58.03
206.204	61.2
206.424	49.04
206.644	43.74
206.864	32.05
207.084	49
207.304	50.28
207.525	45.53
207.745	47.68
207.964	63.25
208.184	53.11
208.404	51.12
208.624	34.81
208.844	32.47
209.064	31.69
209.284	41.96
209.504	38.49
209.724	33.22
209.944	32.46
210.164	36.85
210.384	39.32
210.604	36.59
210.823	9.35
211.043	21.3
211.263	30.51
211.483	35.61
211.703	35.18
211.922	29.87
212.142	39.17
212.362	35.58
212.582	28.46
212.801	27.61
213.021	21.85
213.241	20.6
213.461	24.1
213.68	28.6
213.9	36.27
214.12	25.63
214.339	19.72
214.559	32.7
214.779	35.06
214.998	38.93
215.218	48.11
215.438	54.92
215.657	64.62
215.877	70.04
216.096	58.39
216.316	50.27
216.535	43.51
216.755	19.39
216.974	17
217.194	12.6
217.413	32.04
217.633	31.68
217.852	28.57
218.072	16.23
218.291	33.7
218.511	30.68
218.73	20.12
218.95	2.1
219.169	0.62
219.389	10.9
219.608	27.18
219.827	15.8
220.047	35.66
220.266	42.35
220.485	45.96
220.705	31.51
220.924	33.45
221.143	30.27
221.363	33.25
221.582	17.81
221.801	20.25
222.021	30.12
222.24	43.25
222.459	33.54
222.678	24.83
222.897	21.53
223.117	28.96
223.336	34.8
223.555	17.49
223.774	21.62
223.993	24.89
224.213	34.19
224.432	46.31
224.651	36.24
224.87	37.43
225.089	48.82
225.308	46.79
225.527	57.59
225.746	56.43
225.965	42.95
226.184	45.75
226.404	29.49
226.623	29.82
226.842	30.45
227.061	37.54
227.28	52.05
227.499	55.67
227.718	46.46
227.936	43.57
228.155	33.52
228.374	36.66
228.593	26.08
228.812	20.48
229.031	6.35
229.25	18.86
229.469	31.68
229.688	35.51
229.907	25.03
230.125	20.85
230.344	18.31
230.563	37.9
230.782	29.46
231.001	26.28
231.22	20.38
231.438	30.9
231.657	45.53
231.876	44.66
232.095	38.57
232.313	45
232.532	43.4
232.751	51.09
232.969	43.98
233.188	37.43
233.407	43
233.625	50.23
233.844	48.79
234.063	56.24
234.281	52.21
234.5	55.75
234.719	47.58
234.937	47.41
235.156	33.59
235.374	30.8
235.593	17.72
235.811	6.36
236.03	3.39
236.249	25.41
236.467	25.12
236.686	17.55
236.904	25.39
237.123	30.32
237.341	37.28
237.559	38.43
237.778	38.66
237.996	40.81
238.215	38.73
238.433	41.51
238.652	39.21
238.87	42.49
239.088	35.37
239.307	28.37
239.525	20.84
239.743	21.65
239.962	17.35
240.18	22.82
240.398	17.28
240.617	29.87
240.835	30.96
241.053	42.51
241.271	46.42
241.49	31.06
241.708	36.38
241.926	31.97
242.144	25.6
242.363	22.32
242.581	17.88
242.799	16.89
243.017	30.77
243.235	12.19
243.453	26.75
243.672	15.42
243.89	20.97
244.108	28.76
244.326	28.67
244.544	42.01
244.762	43.96
244.98	40.48
245.198	44.3
245.416	49.76
245.634	53.48
245.852	56.4
246.07	51
246.288	61.7
246.506	68.99
246.724	85.45
246.942	87.93
247.16	73.27
247.378	58.09
247.596	60.89
247.814	51.66
248.032	37.11
248.25	22.62
248.468	20.41
248.685	21.59
248.903	20.13
249.121	9.93
249.339	21.52
249.557	21.47
249.775	8.25
249.992	10.62
250.21	0.15
250.428	3.82
250.646	9.88
250.863	8.44
251.081	14.32
251.299	41.39
251.517	39.91
251.734	58.31
251.952	58.07
252.17	46.29
252.387	37.22
252.605	40.64
252.823	29.41
253.04	20.87
253.258	7.28
253.475	4.68
253.693	19.74
253.911	21.05
254.128	11.31
254.346	9.23
254.563	7.61
254.781	12.43
254.998	18.38
255.216	14.91
255.433	13.45
255.651	11.93
255.868	25.95
256.086	28.56
256.303	24.96
256.521	17.23
256.738	14.85
256.956	5.4
257.173	23.25
257.39	21.26
257.608	29.01
257.825	31.91
258.043	45.84
258.26	45.14
258.477	49.45
258.695	47.15
258.912	48.03
259.129	42.79
259.346	50.29
259.564	44.21
259.781	51.9
259.998	52.27
260.216	62.2
260.433	59.2
260.65	63.79
260.867	48.28
261.084	50.43
261.302	45.91
261.519	42.83
261.736	32.94
261.953	33.09
262.17	21.71
262.387	34.4
262.604	24.55
262.822	22.08
263.039	31.12
263.256	25.07
263.473	18.28
263.69	26.17
263.907	26.2
264.124	21.94
264.341	30.5
264.558	31.23
264.775	32.83
264.992	39.03
265.209	47.33
265.426	44.28
265.643	44.56
265.86	39.94
266.077	41.72
266.294	44.07
266.51	44.55
266.727	34.36
266.944	32.11
267.161	33.72
267.378	31.63
267.595	13.32
267.812	12.53
268.028	9.45
268.245	10.21
268.462	14.18
268.679	20.09
268.896	12.06
269.112	20.71
269.329	17.32
269.546	15.72
269.763	18.85
269.979	20.56
270.196	22.15
270.413	30.91
270.629	34.3
270.846	35.69
271.063	42.95
271.279	42.51
271.496	34.41
271.712	35.96
271.929	39.53
272.146	41.93
272.362	37.45
272.579	30.1
272.795	27.21
273.012	27.7
273.228	16.72
273.445	11.43
273.661	7.78
273.878	20.84
274.094	24.4
274.311	27.52
274.527	32.74
274.744	38.15
274.96	37.97
275.177	39.04
275.393	38.46
275.609	38.17
275.826	40.47
276.042	40.94
276.259	39.46
276.475	38.28
276.691	41.16
276.908	30.07
277.124	23.7
277.34	20.76
277.557	27.72
277.773	27.16
277.989	21.08
278.205	9.76
278.422	24.26
278.638	33.99
278.854	32.38
279.07	15.17
279.286	14.87
279.503	24.56
279.719	44.47
279.935	33.24
280.151	36.34
280.367	36.41
280.583	42.84
280.799	45.68
281.016	44.2
281.232	33.6
281.448	37.95
281.664	28.46
281.88	34.24
282.096	41.41
282.312	34.86
282.528	32.98
282.744	20.02
282.96	17.54
283.176	24.06
283.392	28.71
283.608	30.08
283.824	18.35
284.04	23.08
284.256	25.99
284.471	35.7
284.687	27.01
284.903	23.72
285.119	3.3
285.335	10.77
285.551	15.76
285.767	24.43
285.982	12.44
286.198	20.63
286.414	27.47
286.63	34.33
286.846	42.45
287.061	41.27
287.277	36.88
287.493	43.14
287.709	36.29
287.924	27.58
288.14	30.14
288.356	41.49
288.571	30.4
288.787	36.82
289.003	42.01
289.218	41.62
289.434	47.15
289.65	50.21
289.865	44.39
290.081	51.38
290.296	52.88
290.512	49.66
290.727	62.54
290.943	55.81
291.159	51.38
291.374	49.78
291.59	50.72
291.805	48.13
292.021	43.25
292.236	32.73
292.451	36.87
292.667	35.97
292.882	28.22
293.098	20.48
293.313	14.92
293.529	5.43
293.744	4.48
293.959	0.87
294.175	13.55
294.39	16.65
294.605	25.36
294.821	18.83
295.036	34.31
295.251	29.2
295.467	28.13
295.682	15.16
295.897	13.8
296.112	13.37
296.328	20.34
296.543	6.36
296.758	11.74
296.973	27.9
297.188	28.03
297.404	29.04
297.619	13.07
297.834	21.69
298.049	34.75
298.264	33.9
298.479	14.45
298.694	20.64
298.909	19.15
299.125	32.68
299.34	27.93
299.555	25.15
299.77	24.73
299.985	23.14
300.2	23.16
300.415	33.52
300.63	27.81
300.845	34.02
301.06	30.26
301.275	38.04
301.49	47.33
301.704	37.32
301.919	25.72
302.134	16.7
302.349	9.58
302.564	21.3
302.779	7.49
302.994	-2.87
303.209	3.48
303.423	12.73
303.638	27.69
303.853	25.14
304.068	16.25
304.283	17
304.497	24.76
304.712	25.21
304.927	20.49
305.142	20.01
305.356	22.35
305.571	29.07
305.786	29.55
306	28.77
306.215	31.51
306.43	45.07
306.644	42.75
306.859	47.27
307.074	37.96
307.288	42.06
307.503	41.74
307.717	37.2
307.932	35.75
308.147	39.99
308.361	38.84
308.576	35.57
308.79	41.49
309.005	42.75
309.219	51.25
309.434	43.12
309.648	40.85
309.863	40.87
310.077	40.14
310.292	30.93
310.506	34.32
310.72	30.26
310.935	28.31
311.149	32.06
311.364	37.47
311.578	38.68
311.792	30.11
312.007	18.31
312.221	24.15
312.435	27.64
312.649	19.33
312.864	8.31
313.078	19.35
313.292	34.45
313.507	52.33
313.721	49.88
313.935	59.32
314.149	58.71
314.363	62.23
314.578	86.35
314.792	82.64
315.006	76.54
315.22	80.19
315.434	66.42
315.648	67.1
315.862	63.76
316.077	45.7
316.291	45.46
316.505	53.5
316.719	33.78
316.933	42.36
317.147	36.29
317.361	37.84
317.575	38.79
317.789	45.66
318.003	41.77
318.217	47.78
318.431	43.44
318.645	45.12
318.859	32.66
319.073	27.21
319.287	27.58
319.5	26.24
319.714	27.56
319.928	36.45
320.142	35.77
320.356	49.67
320.57	45.58
320.784	43.07
320.997	46.38
321.211	49.27
321.425	33.82
321.639	37.9
321.853	26.25
322.066	26.49
322.28	27.07
322.494	24.2
322.707	19.04
322.921	31.08
323.135	20.86
323.349	26.03
323.562	30.86
323.776	27.4
323.989	25.62
324.203	28.94
324.417	18.76
324.63	20.43
324.844	13.28
325.057	17.45
325.271	8.52
325.485	13.15
325.698	12.79
325.912	21.31
326.125	27.19
326.339	31.21
326.552	24.8
326.766	33.99
326.979	32.83
327.193	29.93
327.406	30.98
327.619	17.11
327.833	15.44
328.046	15.22
328.26	13.89
328.473	13.4
328.686	12.45
328.9	-0.02
329.113	9.53
329.326	18.81
329.54	22.37
329.753	28.94
329.966	29
330.179	37.92
330.393	52.34
330.606	52.18
330.819	50.81
331.032	49.57
331.246	49.85
331.459	51.75
331.672	45.79
331.885	30.94
332.098	40.29
332.311	27.84
332.525	24.78
332.738	15.6
332.951	14.79
333.164	6.66
333.377	2.86
333.59	2.46
333.803	10.56
334.016	8.41
334.229	17.72
334.442	18.39
334.655	32.83
334.868	39.1
335.081	36.96
335.294	39.05
335.507	47.19
335.72	32.89
335.933	31.7
336.146	27.42
336.359	28.26
336.572	23.11
336.785	27.94
336.997	20.96
337.21	34.39
337.423	40.54
337.636	46.9
337.849	41.62
338.062	41.87
338.274	41.67
338.487	35.37
338.7	37.09
338.913	29.64
339.125	25.71
339.338	34.27
339.551	38.65
339.763	32.79
339.976	34.31
340.189	30.31
340.402	31.69
340.614	30.13
340.827	17.73
341.039	13.33
341.252	14.17
341.465	11.84
341.677	9.75
341.89	12.56
342.102	11.58
342.315	19.9
342.527	16.15
342.74	10.2
342.952	17.62
343.165	24.43
343.377	18.28
343.59	25.79
343.802	32.27
344.015	34.42
344.227	36.86
344.44	28.97
344.652	31.47
344.864	38.3
345.077	36.78
345.289	24.8
345.502	25.34
345.714	25.34
345.926	26.01
346.139	22.47
346.351	12.97
346.563	23.34
346.775	19.84
346.988	24.48
347.2	30.9
347.412	35.49
347.624	37.9
347.837	32.73
348.049	25.3
348.261	31.27
348.473	19.91
348.685	17.75
348.897	10.2
349.11	3.43
349.322	4.19
349.534	3.05
349.746	2.3
349.958	13.01
350.17	7.1
350.382	10.09
350.594	15.67
350.806	20.11
351.018	24.99
351.23	28.16
351.442	27.28
351.654	31.73
351.866	35.06
352.078	27.61
352.29	30.82
352.502	29.69
352.714	31.78
352.926	31.49
353.138	29.98
353.35	25.02
353.561	24.53
353.773	27.17
353.985	27.98
354.197	21.3
354.409	27.57
354.621	26.37
354.832	20.51
355.044	29.6
355.256	24.76
355.468	22.33
355.679	27.65
355.891	22.64
356.103	25.02
356.314	27.75
356.526	24.49
356.738	23.51
356.949	17.89
357.161	22.63
357.373	28.27
357.584	34.93
357.796	32.47
358.008	33.23
358.219	38.23
358.431	40.54
358.642	30.1
358.854	28.37
359.065	14.48
359.277	18.07
359.488	9.83
359.7	14.35
359.911	22.25
360.123	30.73
360.334	29.69
360.546	29.84
360.757	34.5
360.969	43.35
361.18	35.21
361.391	29.47
361.603	31.3
361.814	27.94
362.025	34.74
362.237	28.33
362.448	27.43
362.659	24.83
362.871	27.29
363.082	17.9
363.293	23.72
363.504	18.36
363.716	24.16
363.927	23.47
364.138	27.04
364.349	32.2
364.56	35.48
364.772	34.5
364.983	32.77
365.194	33.48
365.405	30.02
365.616	25.24
365.827	15.77
366.038	20.75
366.25	20.18
366.461	29.1
366.672	21.24
366.883	28.7
367.094	30.49
367.305	32.37
367.516	32.44
367.727	29.65
367.938	26.52
368.149	33.75
368.36	28.74
368.571	31.43
368.781	27.71
368.992	18.98
369.203	16.95
369.414	15.15
369.625	7.73
369.836	7.66
370.047	-0.67
370.258	-5.87
370.468	1.48
370.679	5.38
370.89	13.55
371.101	14.45
371.312	16.89
371.522	25.94
371.733	30.94
371.944	31.8
372.155	24.44
372.365	19.06
372.576	17.75
372.787	13.2
372.997	10.44
373.208	11.77
373.419	9.52
373.629	19.09
373.84	13.2
374.05	13.51
374.261	9.62
374.472	9.44
374.682	5.33
374.893	2.09
375.103	3.34
375.314	8.73
375.524	11.79
375.735	20.17
375.945	20.53
376.156	25.59
376.366	31.52
376.577	32.07
376.787	32.96
376.997	33.16
377.208	24.13
377.418	24.92
377.629	20.84
377.839	30.19
378.049	28.41
378.26	27.72
378.47	24.46
378.68	27.9
378.89	23.94
379.101	19.02
379.311	0.16
379.521	9.48
379.732	2.11
379.942	4.46
380.152	7.75
380.362	9.92
380.572	14.71
380.783	21.73
380.993	14.85
381.203	16.65
381.413	19.71
381.623	23.96
381.833	26.37
382.043	21.44
382.253	21.01
382.463	23.54
382.674	27.47
382.884	24.7
383.094	20.48
383.304	20.22
383.514	28.7
383.724	21.66
383.934	16.47
384.144	17.5
384.353	20.22
384.563	16.87
384.773	18.19
384.983	15.14
385.193	22.95
385.403	24.8
385.613	21.31
385.823	19.05
386.033	21.28
386.242	21.59
386.452	21.68
386.662	17.29
386.872	11.9
387.082	10.08
387.291	12.26
387.501	13
387.711	10.14
387.921	6.33
388.13	5.8
388.34	10.33
388.55	14.7
388.759	13.75
388.969	11.82
389.179	15.07
389.388	15.24
389.598	14.2
389.807	12.25
390.017	11.54
390.227	9.97
390.436	9.97
390.646	8.45
390.855	10.02
391.065	9.46
391.274	7.57
391.484	7.88
391.693	9.08
391.903	8.69
392.112	7.86
392.322	8.57
392.531	8.91
392.74	8.64
392.95	7.6
393.159	6.74
393.369	7.11
393.578	7.37
393.787	6.19
393.997	7.38
394.206	8.22
394.415	8.53
394.625	7.27
394.834	5.82
395.043	5.74
395.252	5.91
395.462	5.36
395.671	6.24
395.88	5.82
396.089	6.59
396.298	7.26
396.508	6.85
396.717	6.52
396.926	5.9
397.135	5.02
397.344	4.89
397.553	4.94
397.762	4.56
397.971	4.73
398.181	4.28
398.39	4.61
398.599	5.15
398.808	5.36
399.017	5.37
399.226	5.81
399.435	5.58
399.644	5.83
399.853	5.64
400.062	5.38
400.27	5.06
400.479	4.81
400.688	4.89
400.897	5.16
401.106	5.22
401.315	5.18
401.524	5.22
401.733	5.52
401.941	5.54
402.15	5.11
402.359	4.86
402.568	4.78
402.777	4.71
402.985	4.55
403.194	4.27
403.403	4.16
403.612	4.29
403.82	4.37
404.029	4.28
404.238	4.35
404.446	4.34
404.655	4.27
404.864	4.27
405.072	4.27
405.281	4.17
405.489	4.24
405.698	4.1
405.906	4.03
406.115	4.18
406.324	4.12
406.532	4.08
406.741	4.17
406.949	4.06
407.158	4.18
407.366	4.26
407.574	4.18
407.783	4.12
407.991	4.03
408.2	3.93
408.408	3.97
408.617	3.83
408.825	3.75
409.033	3.73
409.242	3.79
409.45	3.78
409.658	3.73
409.867	3.72
410.075	3.75
410.283	3.65
410.491	3.59
410.7	3.6
410.908	3.7
411.116	3.69
411.324	3.7
411.533	3.63
411.741	3.69
411.949	3.75
412.157	3.71
412.365	3.66
412.573	3.68
412.781	3.58
412.99	3.72
413.198	3.73
413.406	3.66
413.614	3.68
413.822	3.62
414.03	3.57
414.238	3.65
414.446	3.51
414.654	3.45
414.862	3.48
415.07	3.49
415.278	3.44
415.486	3.59
415.694	3.56
415.902	3.6
416.109	3.64
416.317	3.56
416.525	3.68
416.733	3.77
416.941	3.64
417.149	3.73
417.357	3.68
417.564	3.67
417.772	3.71
417.98	3.54
418.188	3.48
418.395	3.43
418.603	3.27
418.811	3.21
419.019	3.18
419.226	3.22
419.434	3.2
419.642	3.15
419.849	3.12
420.057	3.18
420.265	3.21
420.472	3.17
420.68	3.14
420.887	3.15
421.095	3.14
421.302	3.28
421.51	3.32
421.717	3.37
421.925	3.38
422.132	3.31
422.34	3.29
422.547	3.3
422.755	3.24
422.962	3.09
423.17	3.06
423.377	3.17
423.585	3.25
423.792	3.27
423.999	3.28
424.207	3.1
424.414	3.23
424.621	3.27
424.829	3.17
425.036	3.1
425.243	3.15
425.451	3.14
425.658	3.32
425.865	3.2
426.072	3.21
426.28	3.22
426.487	3.26
426.694	3.12
426.901	3.07
427.108	3.09
427.315	3.21
427.523	3.21
427.73	3.23
427.937	3.29
428.144	3.33
428.351	3.42
428.558	3.34
428.765	3.3
428.972	3.24
429.179	3.15
429.386	3.23
429.593	3.23
429.8	3.28
430.007	3.41
430.214	3.45
430.421	3.54
430.628	3.47
430.835	3.29
431.042	3.39
431.249	3.3
431.456	3.29
431.662	3.23
431.869	3.23
432.076	3.36
432.283	3.4
432.49	3.36
432.697	3.45
432.903	3.39
433.11	3.43
433.317	3.49
433.524	3.39
433.73	3.45
433.937	3.41
434.144	3.44
434.35	3.43
434.557	3.43
434.764	3.38
434.97	3.49
435.177	3.45
435.384	3.54
435.59	3.5
435.797	3.56
436.003	3.56
436.21	3.54
436.416	3.46
436.623	3.59
436.829	3.52
437.036	3.55
437.242	3.59
437.449	3.63
437.655	3.67
437.862	3.71
438.068	3.66
438.275	3.66
438.481	3.68
438.687	3.65
438.894	3.66
439.1	3.66
439.307	3.64
439.513	3.63
439.719	3.67
439.926	3.71
440.132	3.71
440.338	3.71
440.544	3.69
440.751	3.74
440.957	3.71
441.163	3.74
441.369	3.7
441.575	3.7
441.782	3.7
441.988	3.72
442.194	3.78
442.4	3.86
442.606	3.88
442.812	3.89
443.018	3.94
443.224	3.96
443.431	3.99
443.637	3.89
443.843	3.86
444.049	3.82
444.255	3.83
444.461	3.78
444.667	3.74
444.873	3.71
445.079	3.81
445.284	3.82
445.49	3.82
445.696	3.83
445.902	3.88
446.108	3.94
446.314	3.98
446.52	3.98
446.726	4.01
446.931	4.01
447.137	3.98
447.343	3.98
447.549	3.95
447.755	3.93
447.96	3.89
448.166	3.96
448.372	3.99
448.578	4.03
448.783	4.03
448.989	4.08
449.195	4.07
449.4	4.12
449.606	4.06
449.812	4.15
450.017	4.16
450.223	4.13
450.428	4.15
450.634	4.21
450.84	4.2
451.045	4.18
451.251	4.16
451.456	4.15
451.662	4.16
451.867	4.15
452.073	4.15
452.278	4.12
452.483	4.15
452.689	4.13
452.894	4.18
453.1	4.15
453.305	4.17
453.51	4.16
453.716	4.2
453.921	4.17
454.127	4.15
454.332	4.15
454.537	4.2
454.742	4.19
454.948	4.2
455.153	4.2
455.358	4.26
455.563	4.28
455.769	4.28
455.974	4.28
456.179	4.26
456.384	4.27
456.589	4.31
456.795	4.19
457	4.2
457.205	4.16
457.41	4.2
457.615	4.27
457.82	4.34
458.025	4.3
458.23	4.41
458.435	4.4
458.64	4.48
458.845	4.43
459.05	4.45
459.255	4.39
459.46	4.46
459.665	4.5
459.87	4.49
460.075	4.46
460.28	4.49
460.485	4.5
460.69	4.45
460.895	4.44
461.099	4.44
461.304	4.52
461.509	4.47
461.714	4.46
461.919	4.43
462.123	4.56
462.328	4.53
462.533	4.54
462.738	4.48
462.942	4.58
463.147	4.59
463.352	4.62
463.556	4.54
463.761	4.56
463.966	4.6
464.17	4.68
464.375	4.63
464.58	4.66
464.784	4.67
464.989	4.68
465.193	4.75
465.398	4.74
465.602	4.71
465.807	4.75
466.011	4.79
466.216	4.78
466.42	4.9
466.625	4.87
466.829	4.94
467.034	4.97
467.238	4.98
467.443	4.98
467.647	4.99
467.851	4.95
468.056	4.97
468.26	4.86
468.464	4.84
468.669	4.87
