Data from Ofra_1a_PS_6EV18_Reflection_3.txt Node
Date: Tue Jul 20 10:59:49 EDT 2021
User: Adam
Spectrometer: FLMT01687
Trigger mode: 0
Integration Time (sec): 1.004000E0
Scans to average: 2
Electric dark correction enabled: true
Nonlinearity correction enabled: false
Boxcar width: 2
XAxis mode: Wavelengths
Number of Pixels in Spectrum: 3648
>>>>>Begin Spectral Data<<<<<
179.494	-273.1
179.716	-392.37
179.937	959.87
180.158	-1239.49
180.38	169.09
180.601	105.58
180.823	47.53
181.044	3.87
181.265	-5.25
181.486	161.36
181.708	117.91
181.929	-3472.73
182.15	3.1
182.372	-69.95
182.593	321.45
182.814	-277.42
183.035	-12.38
183.257	23.23
183.478	-22.8
183.699	-32.1
183.92	-56.89
184.141	-39.62
184.363	-23.33
184.584	-22.82
184.805	-0.85
185.026	31.56
185.247	-21.2
185.468	-52.47
185.689	-14.53
185.91	-51.12
186.132	-28.49
186.353	-1.67
186.574	13.76
186.795	15.53
187.016	47.98
187.237	33.56
187.458	30.76
187.679	5.01
187.9	18.86
188.121	-2.44
188.342	28.44
188.563	62.47
188.784	79.65
189.005	62.43
189.226	67.83
189.447	60.81
189.667	40.84
189.888	25.27
190.109	19.43
190.33	4.9
190.551	1.57
190.772	11.35
190.993	7.69
191.214	2.08
191.434	30
191.655	27.27
191.876	34.96
192.097	50.83
192.318	49.34
192.538	13.95
192.759	12.28
192.98	27.64
193.201	26.91
193.421	35.82
193.642	49.82
193.863	72.08
194.083	74.46
194.304	75.61
194.525	47.29
194.745	30.35
194.966	16.66
195.187	13.52
195.407	2.68
195.628	13.03
195.848	17.56
196.069	7.05
196.29	4.15
196.51	-4.89
196.731	-18.94
196.951	-31.72
197.172	-19.99
197.392	-24.52
197.613	7.05
197.833	-0.66
198.054	3.56
198.274	13.47
198.495	4.54
198.715	2.48
198.936	24.26
199.156	18.74
199.377	2.48
199.597	15.67
199.817	17.19
200.038	3.09
200.258	38.91
200.479	39.41
200.699	33.9
200.919	15.07
201.14	12.87
201.36	-3.78
201.58	-14.22
201.801	-8.83
202.021	-16.4
202.241	-0.37
202.461	0.53
202.682	23.79
202.902	33.5
203.122	48.46
203.342	39.36
203.563	20
203.783	12.29
204.003	-4.93
204.223	2.12
204.443	-2.91
204.663	36.54
204.884	48.44
205.104	43.4
205.324	53.88
205.544	46.28
205.764	35.24
205.984	20.78
206.204	17.84
206.424	-6.49
206.644	-9.03
206.864	-48.99
207.084	-24.12
207.304	-24.7
207.525	-9.06
207.745	10.37
207.964	17.31
208.184	27.68
208.404	23.79
208.624	27.34
208.844	25.89
209.064	22.75
209.284	24.78
209.504	30.24
209.724	8.21
209.944	-10.43
210.164	-9.25
210.384	-38.07
210.604	-92.61
210.823	-100.03
211.043	-60.89
211.263	-164.34
211.483	-82.11
211.703	-36.1
211.922	-36.38
212.142	-12.19
212.362	36.23
212.582	33.8
212.801	21.14
213.021	21.24
213.241	-4.22
213.461	-19.43
213.68	-13.55
213.9	-9.33
214.12	-14.5
214.339	-18.63
214.559	-13.43
214.779	-16.87
214.998	-30.54
215.218	-13.25
215.438	-0.4
215.657	4.92
215.877	-7.03
216.096	8.37
216.316	6.59
216.535	1.15
216.755	2.84
216.974	1.48
217.194	-7.4
217.413	9.51
217.633	6.27
217.852	-5.06
218.072	5.96
218.291	7.51
218.511	0.74
218.73	-8.37
218.95	-24.04
219.169	-36.16
219.389	6.96
219.608	15.4
219.827	36.78
220.047	54.87
220.266	73.88
220.485	59.14
220.705	54.59
220.924	39.28
221.143	36.41
221.363	31.91
221.582	11.83
221.801	6.82
222.021	15.63
222.24	4.85
222.459	3.3
222.678	20.57
222.897	9.91
223.117	17.77
223.336	23.83
223.555	42.68
223.774	49.48
223.993	46.95
224.213	36.59
224.432	20
224.651	-0.65
224.87	-5.38
225.089	6.38
225.308	2.32
225.527	10.28
225.746	13.73
225.965	6.71
226.184	-22.82
226.404	-19.66
226.623	-21.12
226.842	-21.46
227.061	-15.87
227.28	15.01
227.499	14.44
227.718	14.77
227.936	11.93
228.155	13.53
228.374	7.08
228.593	13.21
228.812	3.18
229.031	30.93
229.25	11.15
229.469	12.47
229.688	18.44
229.907	31.75
230.125	6.98
230.344	29.51
230.563	33.76
230.782	33.26
231.001	25.74
231.22	50.14
231.438	46.63
231.657	33.08
231.876	27.65
232.095	35.74
232.313	23.54
232.532	15.03
232.751	11.7
232.969	12.44
233.188	-0.03
233.407	11.03
233.625	0.85
233.844	27.87
234.063	31.56
234.281	34.83
234.5	31.82
234.719	44.15
234.937	19.01
235.156	24.69
235.374	29.84
235.593	23.36
235.811	44.11
236.03	35.47
236.249	35.76
236.467	36.39
236.686	39.31
236.904	11.63
237.123	10.71
237.341	-11.3
237.559	-20.31
237.778	-0.03
237.996	-18.41
238.215	-64
238.433	-84.48
238.652	-20.86
238.87	-38.9
239.088	-0.35
239.307	21.17
239.525	28.85
239.743	3.13
239.962	-2.74
240.18	-7
240.398	-5.12
240.617	-15.26
240.835	24.66
241.053	31.85
241.271	21.16
241.49	33.47
241.708	25.14
241.926	9.48
242.144	9.36
242.363	12.01
242.581	-43.52
242.799	-34.39
243.017	-24.76
243.235	-33.85
243.453	-33.62
243.672	-20.3
243.89	-10.68
244.108	10.12
244.326	40.57
244.544	37.91
244.762	29.85
244.98	26.24
245.198	19.37
245.416	1.23
245.634	-5.06
245.852	-19.89
246.07	-4.07
246.288	2.44
246.506	-13.62
246.724	5.15
246.942	30.6
247.16	30.05
247.378	25.21
247.596	52.5
247.814	22.71
248.032	-6.81
248.25	24.76
248.468	25.69
248.685	35.18
248.903	29.08
249.121	28.73
249.339	13.47
249.557	8.8
249.775	-3.26
249.992	16.29
250.21	19.21
250.428	28.99
250.646	33.59
250.863	25.39
251.081	16.48
251.299	19.51
251.517	10.67
251.734	7.82
251.952	13.54
252.17	21.37
252.387	7.72
252.605	5.69
252.823	-1.61
253.04	8.97
253.258	3.24
253.475	11.84
253.693	0.99
253.911	7.95
254.128	3.18
254.346	14.03
254.563	19.48
254.781	24.73
254.998	7.02
255.216	-24.78
255.433	-58.52
255.651	-44.14
255.868	-51.11
256.086	-39.66
256.303	-24.61
256.521	-14.48
256.738	-22.03
256.956	-1.47
257.173	-12.44
257.39	10.66
257.608	7.47
257.825	10.06
258.043	16.73
258.26	27.27
258.477	21
258.695	23.84
258.912	9.85
259.129	-16.32
259.346	-27.4
259.564	-20.56
259.781	-18.43
259.998	1.5
260.216	30.46
260.433	36.08
260.65	35.75
260.867	38.96
261.084	44.41
261.302	22.69
261.519	25.07
261.736	26.24
261.953	17.47
262.17	24.68
262.387	31.98
262.604	23.8
262.822	18.73
263.039	21.23
263.256	13.95
263.473	20.59
263.69	20.03
263.907	28.99
264.124	41.01
264.341	42.52
264.558	31.37
264.775	37.24
264.992	35.47
265.209	25.01
265.426	22.54
265.643	20.05
265.86	22.82
266.077	4.29
266.294	19.74
266.51	34.02
266.727	37.32
266.944	33.65
267.161	29.25
267.378	33.4
267.595	14.3
267.812	6.46
268.028	1.01
268.245	11.68
268.462	-1.41
268.679	23.53
268.896	25.72
269.112	29.11
269.329	20.41
269.546	39.75
269.763	32.93
269.979	22.39
270.196	17.31
270.413	15.39
270.629	-0.03
270.846	-8.73
271.063	1.09
271.279	7.62
271.496	9.17
271.712	14.12
271.929	19.51
272.146	22.83
272.362	18.85
272.579	12.43
272.795	3.84
273.012	-0.7
273.228	2.81
273.445	2.11
273.661	15.76
273.878	-2.23
274.094	-0.85
274.311	4.89
274.527	-8.02
274.744	-5.11
274.96	24.72
275.177	21.93
275.393	21.71
275.609	29.63
275.826	26.94
276.042	17.83
276.259	25.01
276.475	10.51
276.691	8.36
276.908	-1.72
277.124	4.22
277.34	-6.13
277.557	-9.18
277.773	-10.09
277.989	1.94
278.205	-1.93
278.422	-15
278.638	-11.14
278.854	-4.46
279.07	-2.46
279.286	-2.24
279.503	9.53
279.719	20.47
279.935	11.71
280.151	0.42
280.367	7.9
280.583	4.25
280.799	-6.39
281.016	-37.98
281.232	-27.9
281.448	-36.84
281.664	-17.27
281.88	-2.71
282.096	23.69
282.312	32.85
282.528	28.06
282.744	34.11
282.96	22.17
283.176	4.33
283.392	-24.28
283.608	-4.4
283.824	-55.93
284.04	-83.24
284.256	-35.3
284.471	-29.08
284.687	-30.87
284.903	-28.13
285.119	3.02
285.335	4.33
285.551	14.34
285.767	25.85
285.982	57.06
286.198	7.84
286.414	0.93
286.63	17.05
286.846	15.53
287.061	-3.79
287.277	3.47
287.493	17.24
287.709	26.59
287.924	19.67
288.14	41.84
288.356	45.06
288.571	27.37
288.787	5.43
289.003	9.3
289.218	-12.61
289.434	-8.56
289.65	6.53
289.865	9.26
290.081	8.07
290.296	9.28
290.512	3.45
290.727	6.36
290.943	7.94
291.159	4.51
291.374	-9.47
291.59	4.48
291.805	-21.41
292.021	-14.43
292.236	-18.92
292.451	3.8
292.667	-1.97
292.882	27.21
293.098	25.44
293.313	19.97
293.529	15.93
293.744	7.61
293.959	-13.28
294.175	-8.84
294.39	-21.84
294.605	2.13
294.821	2.17
295.036	14.64
295.251	18
295.467	24.07
295.682	21.08
295.897	21.56
296.112	13.4
296.328	6.3
296.543	-4.62
296.758	-4.63
296.973	-11.65
297.188	-11.9
297.404	-19.7
297.619	-21.59
297.834	-75.28
298.049	-51.33
298.264	-57.44
298.479	-33.61
298.694	17.76
298.909	35.36
299.125	40.97
299.34	40.18
299.555	36.54
299.77	32.92
299.985	29.64
300.2	27.04
300.415	27.26
300.63	20.94
300.845	7.19
301.06	-5.59
301.275	0.14
301.49	14.33
301.704	11.3
301.919	3.62
302.134	21.45
302.349	24.4
302.564	24.89
302.779	26.17
302.994	42.16
303.209	38.8
303.423	38.34
303.638	33.93
303.853	37.76
304.068	10.87
304.283	20.92
304.497	-0.04
304.712	7.38
304.927	9.42
305.142	16.53
305.356	10.39
305.571	11.17
305.786	11.49
306	16.48
306.215	15.2
306.43	14.36
306.644	19.12
306.859	14.28
307.074	19.41
307.288	9.51
307.503	18.89
307.717	2.87
307.932	16.32
308.147	0.52
308.361	-0.86
308.576	-29.26
308.79	-4.89
309.005	-39.59
309.219	-9.14
309.434	5.29
309.648	11.51
309.863	-7.69
310.077	-0.58
310.292	10.5
310.506	15.87
310.72	6.67
310.935	34.23
311.149	48.45
311.364	44.31
311.578	45.78
311.792	54.92
312.007	54.54
312.221	26.11
312.435	14.8
312.649	9.37
312.864	7.96
313.078	7.31
313.292	24.14
313.507	25.24
313.721	16.42
313.935	25.57
314.149	22.53
314.363	10.87
314.578	-0.39
314.792	-9.2
315.006	-22.49
315.22	-16.34
315.434	-10.32
315.648	4.29
315.862	10.31
316.077	12.94
316.291	17.57
316.505	5.65
316.719	-1.51
316.933	-16.79
317.147	-7.81
317.361	-11.3
317.575	6.97
317.789	4.73
318.003	1.22
318.217	11.79
318.431	9.51
318.645	4.42
318.859	13.53
319.073	29.91
319.287	17.12
319.5	16.92
319.714	4.81
319.928	-0.02
320.142	0.77
320.356	9.41
320.57	-23.05
320.784	-12.69
320.997	-40.96
321.211	-19.05
321.425	-30.9
321.639	5.12
321.853	11.99
322.066	17.95
322.28	-2.35
322.494	1.77
322.707	0.95
322.921	-0.33
323.135	10.39
323.349	14.32
323.562	10
323.776	6.43
323.989	16.22
324.203	0.61
324.417	3.87
324.63	-11.46
324.844	-14.88
325.057	-47.55
325.271	-27.88
325.485	-41.17
325.698	-8.37
325.912	-1.9
326.125	-0.03
326.339	8.95
326.552	7.38
326.766	-3.82
326.979	25.38
327.193	42.59
327.406	19.81
327.619	20.73
327.833	15.51
328.046	-0.9
328.26	-24.49
328.473	-4.51
328.686	-13.99
328.9	-3.72
329.113	-4.1
329.326	15
329.54	13.72
329.753	36.8
329.966	38.94
330.179	35.04
330.393	29.18
330.606	31.66
330.819	-3.9
331.032	-4.46
331.246	5.24
331.459	15.65
331.672	8.72
331.885	26.94
332.098	22.58
332.311	13.06
332.525	9.21
332.738	15.77
332.951	15.71
333.164	22.1
333.377	21.26
333.59	8.43
333.803	-4.1
334.016	-1.11
334.229	-2.36
334.442	-1.82
334.655	2.38
334.868	1.2
335.081	-6.38
335.294	-11.94
335.507	-3.25
335.72	14.54
335.933	13.52
336.146	22.07
336.359	29.65
336.572	35.23
336.785	39.49
336.997	36.7
337.21	33.36
337.423	6.17
337.636	3.96
337.849	-2.91
338.062	10.03
338.274	35.43
338.487	17.65
338.7	-7.97
338.913	10.06
339.125	-7.11
339.338	-31.58
339.551	-0.68
339.763	11.64
339.976	-8.81
340.189	10.46
340.402	27.74
340.614	15.35
340.827	25.56
341.039	36.67
341.252	21.23
341.465	9.4
341.677	32.15
341.89	13.27
342.102	3.88
342.315	13.8
342.527	13.26
342.74	-13.35
342.952	-18.83
343.165	-13.17
343.377	-1.63
343.59	9.78
343.802	10.63
344.015	36.12
344.227	31.8
344.44	8.62
344.652	-2.45
344.864	3.98
345.077	-6.88
345.289	3.44
345.502	24.86
345.714	39.97
345.926	59.71
346.139	46.44
346.351	37.63
346.563	33.73
346.775	18.37
346.988	3.5
347.2	13.66
347.412	26.89
347.624	15.77
347.837	17.69
348.049	17.2
348.261	-9.8
348.473	-25.51
348.685	-8.22
348.897	-1.3
349.11	-10.38
349.322	13.38
349.534	20.72
349.746	9.59
349.958	-4.76
350.17	2.12
350.382	-12.26
350.594	-5.12
350.806	7.93
351.018	15.74
351.23	22.24
351.442	37.72
351.654	39.51
351.866	20.05
352.078	29.51
352.29	18.76
352.502	5.42
352.714	-12.36
352.926	6
353.138	-0.33
353.35	-3.23
353.561	2.95
353.773	4.56
353.985	6.06
354.197	7.29
354.409	9.25
354.621	1.42
354.832	-4.73
355.044	-15.22
355.256	-18.56
355.468	-21.84
355.679	1.69
355.891	14.25
356.103	11.47
356.314	9.73
356.526	9.16
356.738	-4.27
356.949	-14.22
357.161	8.36
357.373	6.23
357.584	4.26
357.796	3.16
358.008	10.64
358.219	13.51
358.431	10.99
358.642	28.47
358.854	50.43
359.065	39.27
359.277	27.26
359.488	24.01
359.7	13.43
359.911	-19.66
360.123	3.69
360.334	-11.51
360.546	-4.51
360.757	0.86
360.969	1.61
361.18	-11.5
361.391	14.47
361.603	10.64
361.814	21.96
362.025	33.79
362.237	35.6
362.448	27.08
362.659	29.91
362.871	1.55
363.082	-6.79
363.293	-18.8
363.504	-35.08
363.716	-37.48
363.927	-2.84
364.138	-18.04
364.349	-22.17
364.56	-32.59
364.772	-23.73
364.983	-24.78
365.194	-1.92
365.405	3.45
365.616	29.81
365.827	20.61
366.038	37.92
366.25	28.74
366.461	29.45
366.672	28.1
366.883	31.33
367.094	13.03
367.305	18.32
367.516	10.41
367.727	-4.15
367.938	-2.83
368.149	6.16
368.36	9.87
368.571	3.12
368.781	-10.98
368.992	-9.43
369.203	-10.51
369.414	-24.32
369.625	-18.01
369.836	2.15
370.047	0.68
370.258	10.02
370.468	1.22
370.679	-7.82
370.89	-17.22
371.101	-3.38
371.312	-19.06
371.522	1.49
371.733	13.35
371.944	-0.02
372.155	-16.64
372.365	-11.77
372.576	-24.68
372.787	-20.53
372.997	-6.96
373.208	12.3
373.419	13.14
373.629	11.26
373.84	16.64
374.05	10.36
374.261	-4.38
374.472	1.8
374.682	4.52
374.893	-7.6
375.103	4.53
375.314	16.2
375.524	9.87
375.735	22.21
375.945	29.2
376.156	23.43
376.366	25.8
376.577	24.32
376.787	21.62
376.997	19.25
377.208	17.36
377.418	11.42
377.629	16.31
377.839	17.51
378.049	25.15
378.26	23.04
378.47	26.64
378.68	23.78
378.89	10.92
379.101	-0.02
379.311	3.93
379.521	-4.35
379.732	-6.25
379.942	-4.66
380.152	-12.9
380.362	-19.74
380.572	-9
380.783	-5.46
380.993	9.62
381.203	19.37
381.413	22.54
381.623	24.34
381.833	25.75
382.043	13.49
382.253	13.47
382.463	23.3
382.674	18.63
382.884	17.6
383.094	19.08
383.304	19.1
383.514	16.19
383.724	14.92
383.934	2.87
384.144	8.94
384.353	6.96
384.563	1.24
384.773	5.27
384.983	4.2
385.193	-0.33
385.403	1.9
385.613	8.78
385.823	1.98
386.033	11.57
386.242	7.03
386.452	6.72
386.662	0.49
386.872	4.89
387.082	-0.47
387.291	-2.9
387.501	-3.29
387.711	-3.3
387.921	-2.65
388.13	2.48
388.34	5.4
388.55	3.87
388.759	0.62
388.969	2.84
389.179	3.4
389.388	3.99
389.598	2.31
389.807	4.39
390.017	0.21
390.227	-4.9
390.436	-4.95
390.646	-1.8
390.855	0.61
391.065	1.33
391.274	3.92
391.484	3.37
391.693	0.86
391.903	-2.54
392.112	0.78
392.322	-1.65
392.531	-0.4
392.74	0.71
392.95	1.6
393.159	-0.7
393.369	1.45
393.578	1.95
393.787	0.71
393.997	2.14
394.206	0.65
394.415	-0.32
394.625	-0.61
394.834	-0.82
395.043	-1.04
395.252	1.47
395.462	2.07
395.671	2.61
395.88	3.35
396.089	3
396.298	2.35
396.508	2.37
396.717	1.85
396.926	1.64
397.135	2.06
397.344	2.13
397.553	2.13
397.762	2.92
397.971	3.12
398.181	2.82
398.39	2.11
398.599	2.62
398.808	2.46
399.017	3.14
399.226	3.4
399.435	3.46
399.644	2.86
399.853	2.38
400.062	1.69
400.27	1.51
400.479	2.03
400.688	2.1
400.897	1.94
401.106	2.35
401.315	2.19
401.524	1.83
401.733	1.42
401.941	1.81
402.15	1.44
402.359	1.46
402.568	1.89
402.777	2.26
402.985	1.79
403.194	1.67
403.403	1.89
403.612	1.55
403.82	1.17
404.029	1.56
404.238	1.64
404.446	1.75
404.655	1.87
404.864	2.13
405.072	2
405.281	2.04
405.489	1.63
405.698	1.56
405.906	1.65
406.115	1.51
406.324	1.56
406.532	1.85
406.741	1.79
406.949	1.8
407.158	1.94
407.366	1.75
407.574	1.7
407.783	1.83
407.991	1.75
408.2	1.74
408.408	1.97
408.617	1.89
408.825	1.75
409.033	1.71
409.242	1.82
409.45	1.75
409.658	1.75
409.867	1.85
410.075	1.95
410.283	1.87
410.491	1.72
410.7	1.67
410.908	1.73
411.116	1.64
411.324	1.53
411.533	1.59
411.741	1.71
411.949	1.67
412.157	1.62
412.365	1.75
412.573	1.77
412.781	1.52
412.99	1.41
413.198	1.51
413.406	1.45
413.614	1.5
413.822	1.67
414.03	1.73
414.238	1.82
414.446	1.91
414.654	1.75
414.862	1.76
415.07	1.68
415.278	1.72
415.486	1.48
415.694	1.53
415.902	1.42
416.109	1.36
416.317	1.32
416.525	1.42
416.733	1.51
416.941	1.63
417.149	1.71
417.357	1.58
417.564	1.59
417.772	1.65
417.98	1.61
418.188	1.54
418.395	1.47
418.603	1.38
418.811	1.21
419.019	1.19
419.226	1.31
419.434	1.32
419.642	1.33
419.849	1.43
420.057	1.47
420.265	1.5
420.472	1.51
420.68	1.6
420.887	1.51
421.095	1.5
421.302	1.55
421.51	1.59
421.717	1.63
421.925	1.72
422.132	1.69
422.34	1.44
422.547	1.32
422.755	1.37
422.962	1.31
423.17	1.27
423.377	1.25
423.585	1.54
423.792	1.34
423.999	1.41
424.207	1.38
424.414	1.43
424.621	1.27
424.829	1.35
425.036	1.37
425.243	1.51
425.451	1.6
425.658	1.48
425.865	1.52
426.072	1.49
426.28	1.42
426.487	1.42
426.694	1.41
426.901	1.47
427.108	1.4
427.315	1.42
427.523	1.22
427.73	1.32
427.937	1.23
428.144	1.2
428.351	1.13
428.558	1.37
428.765	1.42
428.972	1.39
429.179	1.34
429.386	1.36
429.593	1.26
429.8	1.05
430.007	1.14
430.214	1.19
430.421	1.23
430.628	1.25
430.835	1.32
431.042	1.16
431.249	1.17
431.456	1.19
431.662	1.28
431.869	1.47
432.076	1.5
432.283	1.59
432.49	1.58
432.697	1.38
432.903	1.31
433.11	1.39
433.317	1.44
433.524	1.47
433.73	1.53
433.937	1.51
434.144	1.41
434.35	1.26
434.557	1.26
434.764	1.27
434.97	1.15
435.177	1.33
435.384	1.41
435.59	1.5
435.797	1.66
436.003	1.79
436.21	1.63
436.416	1.58
436.623	1.5
436.829	1.42
437.036	1.38
437.242	1.43
437.449	1.47
437.655	1.5
437.862	1.58
438.068	1.52
438.275	1.65
438.481	1.7
438.687	1.61
438.894	1.57
439.1	1.67
439.307	1.68
439.513	1.68
439.719	1.73
439.926	1.79
440.132	1.88
440.338	1.92
440.544	1.8
440.751	1.76
440.957	1.72
441.163	1.53
441.369	1.4
441.575	1.4
441.782	1.46
441.988	1.47
442.194	1.49
442.4	1.5
442.606	1.66
442.812	1.62
443.018	1.65
443.224	1.82
443.431	1.87
443.637	1.77
443.843	1.82
444.049	1.78
444.255	1.73
444.461	1.72
444.667	1.77
444.873	1.8
445.079	1.78
445.284	1.77
445.49	1.72
445.696	1.69
445.902	1.66
446.108	1.84
446.314	1.86
446.52	1.98
446.726	2.05
446.931	2.04
447.137	1.92
447.343	1.94
447.549	1.93
447.755	1.9
447.96	1.9
448.166	1.95
448.372	1.95
448.578	1.84
448.783	1.87
448.989	1.99
449.195	1.97
449.4	1.97
449.606	2.02
449.812	1.94
450.017	1.91
450.223	1.87
450.428	1.84
450.634	1.86
450.84	1.89
451.045	1.86
451.251	1.89
451.456	1.93
451.662	1.89
451.867	1.98
452.073	1.98
452.278	2.01
452.483	1.95
452.689	1.92
452.894	1.9
453.1	1.86
453.305	1.85
453.51	1.94
453.716	1.99
453.921	2.03
454.127	2.06
454.332	1.97
454.537	1.95
454.742	1.93
454.948	1.82
455.153	1.79
455.358	1.86
455.563	1.93
455.769	1.94
455.974	2.01
456.179	2
456.384	1.95
456.589	1.81
456.795	1.8
457	1.75
457.205	1.76
457.41	1.76
457.615	1.79
457.82	1.9
458.025	1.9
458.23	1.91
458.435	1.96
458.64	2
458.845	1.98
459.05	2.1
459.255	2.07
459.46	2.12
459.665	2.07
459.87	2.03
460.075	2.06
460.28	2.1
460.485	2.12
460.69	2.12
460.895	2.17
461.099	1.98
461.304	1.98
461.509	1.92
461.714	1.96
461.919	1.91
462.123	2.01
462.328	1.96
462.533	1.89
462.738	1.83
462.942	1.76
463.147	1.76
463.352	1.83
463.556	1.92
463.761	2
463.966	2.05
464.17	2.12
464.375	2.15
464.58	2.08
464.784	2.06
464.989	2.08
465.193	2.05
465.398	1.99
465.602	2.11
465.807	2.14
466.011	2.11
466.216	1.97
466.42	2.02
466.625	2.12
466.829	2.13
467.034	2.21
467.238	2.38
467.443	2.44
467.647	2.3
467.851	2.35
468.056	2.33
468.26	2.35
468.464	2.32
468.669	2.41
