Data from Ofra_2a_PS_2H527_Reflection_1.txt Node
Date: Tue Jul 20 09:46:58 EDT 2021
User: Adam
Spectrometer: FLMT01687
Trigger mode: 0
Integration Time (sec): 9.450000E-1
Scans to average: 3
Electric dark correction enabled: true
Nonlinearity correction enabled: false
Boxcar width: 3
XAxis mode: Wavelengths
Number of Pixels in Spectrum: 3648
>>>>>Begin Spectral Data<<<<<
179.494	1148.52
179.716	749.21
179.937	839.01
180.158	3041.02
180.38	-1889.83
180.601	-504.93
180.823	-265.27
181.044	-135.96
181.265	-180.5
181.486	15.6
181.708	-505.43
181.929	160.81
182.15	881.25
182.372	-134.57
182.593	-31.08
182.814	212.43
183.035	25.1
183.257	10.93
183.478	29.1
183.699	32.67
183.92	26.71
184.141	33.72
184.363	38.35
184.584	34.65
184.805	28.85
185.026	-15.31
185.247	-4.36
185.468	3.8
185.689	4.44
185.91	6.89
186.132	12.51
186.353	-5.36
186.574	13.41
186.795	-3.3
187.016	9.66
187.237	12.97
187.458	4.27
187.679	1.62
187.9	14.34
188.121	15.83
188.342	40.37
188.563	31.89
188.784	25.73
189.005	30.09
189.226	26.83
189.447	27.38
189.667	32.23
189.888	33.87
190.109	38.47
190.33	39.95
190.551	41.41
190.772	38.3
190.993	51.13
191.214	42.99
191.434	31.96
191.655	19.09
191.876	14.82
192.097	12.82
192.318	11.32
192.538	2.26
192.759	0.94
192.98	-5.41
193.201	15.72
193.421	16.97
193.642	22.49
193.863	31.15
194.083	24.82
194.304	29.16
194.525	52.71
194.745	22.15
194.966	15.29
195.187	9.13
195.407	10.92
195.628	13.83
195.848	5.92
196.069	-19.22
196.29	-20.54
196.51	-10.51
196.731	0.71
196.951	-16.81
197.172	-17
197.392	8.33
197.613	13.53
197.833	13.34
198.054	6.45
198.274	-15.06
198.495	-18
198.715	-33.97
198.936	-56.48
199.156	-47.83
199.377	-36.95
199.597	-55.06
199.817	-38.95
200.038	-11.6
200.258	-2.97
200.479	4.53
200.699	8.13
200.919	-9.09
201.14	14.86
201.36	22.49
201.58	11.46
201.801	11.16
202.021	7.43
202.241	11.08
202.461	24.47
202.682	22.73
202.902	16.98
203.122	14.11
203.342	31.76
203.563	32.51
203.783	34.37
204.003	32.89
204.223	33.76
204.443	38.92
204.663	43.63
204.884	31.39
205.104	34.21
205.324	35.32
205.544	49.05
205.764	41.09
205.984	39.86
206.204	26.55
206.424	21.26
206.644	16.6
206.864	8.68
207.084	11.25
207.304	22.59
207.525	10.72
207.745	25.6
207.964	24.79
208.184	20.53
208.404	16.47
208.624	-6.01
208.844	-30.86
209.064	-21.16
209.284	-19.07
209.504	-22.02
209.724	-32.64
209.944	-36.44
210.164	-25.49
210.384	-17.99
210.604	-13.09
210.823	-17.76
211.043	-18.13
211.263	-4.37
211.483	2.25
211.703	14.48
211.922	23.77
212.142	26.21
212.362	28.58
212.582	27.6
212.801	24.06
213.021	31.92
213.241	20.3
213.461	13.56
213.68	8.14
213.9	13.98
214.12	20.29
214.339	16.86
214.559	19.33
214.779	22.32
214.998	23.86
215.218	16.3
215.438	27.74
215.657	23.8
215.877	23.52
216.096	23.1
216.316	18.23
216.535	14.91
216.755	5.29
216.974	-4.35
217.194	-8.35
217.413	-5.53
217.633	-11.04
217.852	-15.62
218.072	-23.44
218.291	17.97
218.511	19.34
218.73	21.97
218.95	34.53
219.169	27.63
219.389	33.77
219.608	32.01
219.827	25.4
220.047	18.64
220.266	15.07
220.485	7.46
220.705	5.54
220.924	15.54
221.143	16.12
221.363	13.52
221.582	2.29
221.801	4.71
222.021	4.87
222.24	16.78
222.459	0.14
222.678	-6.04
222.897	-3.98
223.117	6.63
223.336	10.42
223.555	6
223.774	0.42
223.993	14.44
224.213	2.03
224.432	4
224.651	3.8
224.87	-1.57
225.089	8.35
225.308	21.46
225.527	14.78
225.746	21.57
225.965	9.34
226.184	7.05
226.404	16.13
226.623	17.58
226.842	-5.5
227.061	2.12
227.28	13.52
227.499	28.13
227.718	25.91
227.936	8.68
228.155	11.73
228.374	20.28
228.593	14.45
228.812	16.51
229.031	3.57
229.25	10.4
229.469	32.65
229.688	19.54
229.907	8.37
230.125	12.16
230.344	5.45
230.563	14.64
230.782	8.26
231.001	7.51
231.22	9.56
231.438	18.79
231.657	25.23
231.876	25.74
232.095	29.28
232.313	31.76
232.532	30.82
232.751	33.69
232.969	34.84
233.188	29.8
233.407	19.47
233.625	15.42
233.844	14.57
234.063	5.26
234.281	1.19
234.5	9.08
234.719	4.12
234.937	13.6
235.156	10.49
235.374	3.66
235.593	6.04
235.811	0.87
236.03	-19.83
236.249	-1.2
236.467	3.05
236.686	21.77
236.904	23.16
237.123	31.53
237.341	31.6
237.559	38.82
237.778	35.61
237.996	40.86
238.215	24.88
238.433	31.71
238.652	26.17
238.87	32.11
239.088	20.05
239.307	17.3
239.525	7.1
239.743	-5.34
239.962	-8.5
240.18	0.11
240.398	-8.27
240.617	11.16
240.835	17.37
241.053	32.19
241.271	44.41
241.49	26.08
241.708	19.01
241.926	12.84
242.144	14.27
242.363	9.5
242.581	4.76
242.799	-8.89
243.017	23.69
243.235	12.05
243.453	29.68
243.672	18.9
243.89	19.21
244.108	16.69
244.326	17.3
244.544	3.69
244.762	13.99
244.98	12.62
245.198	7.91
245.416	0.48
245.634	11.08
245.852	20.03
246.07	21.56
246.288	16.5
246.506	14.11
246.724	31.71
246.942	40.22
247.16	21.62
247.378	15.55
247.596	13.52
247.814	9.92
248.032	-2.02
248.25	-5.84
248.468	2.43
248.685	8.82
248.903	11.63
249.121	14.44
249.339	20.3
249.557	33.6
249.775	9.93
249.992	-0.39
250.21	-7.46
250.428	-1.94
250.646	-3.01
250.863	-0.71
251.081	-17.05
251.299	10.84
251.517	16.21
251.734	23.27
251.952	29.41
252.17	12.49
252.387	5.5
252.605	10.03
252.823	-8.45
253.04	-8.12
253.258	-12.19
253.475	-11.92
253.693	6.04
253.911	4.72
254.128	12.63
254.346	12.21
254.563	2.33
254.781	7.74
254.998	7.79
255.216	6.18
255.433	11.23
255.651	-3.24
255.868	1.28
256.086	8.63
256.303	7.12
256.521	-12.25
256.738	-13.11
256.956	-14.41
257.173	6.8
257.39	16
257.608	16.1
257.825	19.75
258.043	23.69
258.26	14.07
258.477	17.09
258.695	16.06
258.912	26.8
259.129	33.12
259.346	25.97
259.564	26.1
259.781	38.6
259.998	39.29
260.216	34.39
260.433	22.15
260.65	20.95
260.867	9.46
261.084	12.81
261.302	1.01
261.519	-8.3
261.736	-3
261.953	-3.21
262.17	0.4
262.387	2.78
262.604	0.14
262.822	8.95
263.039	-0.79
263.256	-8.34
263.473	-13
263.69	-20.93
263.907	-10.89
264.124	-13.72
264.341	-13.46
264.558	-1.09
264.775	6.45
264.992	8.95
265.209	22.04
265.426	18.41
265.643	28.65
265.86	30.35
266.077	30.59
266.294	24.61
266.51	22.95
266.727	2.71
266.944	-7.41
267.161	-9.85
267.378	-15.07
267.595	-13.32
267.812	-21.28
268.028	-14.55
268.245	-4.16
268.462	10.85
268.679	2.41
268.896	0.02
269.112	12.95
269.329	25.95
269.546	26.9
269.763	30.69
269.979	23.99
270.196	31.89
270.413	37.48
270.629	27.6
270.846	30.58
271.063	20.92
271.279	16.66
271.496	12.63
271.712	7.08
271.929	7.93
272.146	11.04
272.362	-8.12
272.579	-3.32
272.795	-13.89
273.012	-8.33
273.228	-11.42
273.445	-15.11
273.661	-14.47
273.878	-5.71
274.094	1.23
274.311	13.46
274.527	18.86
274.744	16.69
274.96	20.41
275.177	17.1
275.393	29.3
275.609	32
275.826	37.43
276.042	42.39
276.259	48.59
276.475	46.29
276.691	55.79
276.908	47.27
277.124	42.02
277.34	29.79
277.557	28.52
277.773	24.1
277.989	20.09
278.205	0.36
278.422	4.79
278.638	18.87
278.854	21.93
279.07	11
279.286	13.48
279.503	15.61
279.719	32.7
279.935	6.62
280.151	-2.94
280.367	-7.97
280.583	-3.8
280.799	0.37
281.016	5.42
281.232	-7.18
281.448	1.12
281.664	-0.99
281.88	15.77
282.096	18.12
282.312	8.08
282.528	-3.35
282.744	1.29
282.96	13.68
283.176	21.68
283.392	19.02
283.608	22.98
283.824	25.45
284.04	30.15
284.256	33.23
284.471	22.79
284.687	9.85
284.903	5.15
285.119	-11.14
285.335	3.67
285.551	9.21
285.767	13.73
285.982	15.26
286.198	14.09
286.414	20.41
286.63	28.4
286.846	21.06
287.061	13.15
287.277	7.64
287.493	15.86
287.709	15.63
287.924	25.21
288.14	30.92
288.356	31.91
288.571	32.76
288.787	34.55
289.003	39.32
289.218	44.89
289.434	29.38
289.65	32.26
289.865	37.73
290.081	34.1
290.296	28.9
290.512	24
290.727	28.9
290.943	25.12
291.159	10.1
291.374	11.57
291.59	6.94
291.805	9.83
292.021	-3.26
292.236	-4.26
292.451	6.4
292.667	9.1
292.882	-3.04
293.098	-5.46
293.313	-5.16
293.529	6.41
293.744	7.75
293.959	4.71
294.175	11.62
294.39	15.97
294.605	27.66
294.821	33
295.036	31.66
295.251	26.8
295.467	25.97
295.682	22.13
295.897	21.64
296.112	23.49
296.328	23.94
296.543	22.78
296.758	24.78
296.973	23.83
297.188	23.9
297.404	21.93
297.619	25.64
297.834	25.07
298.049	21.14
298.264	15.39
298.479	16.95
298.694	15.82
298.909	13.2
299.125	9.9
299.34	1.48
299.555	4.46
299.77	6.07
299.985	6.03
300.2	8.25
300.415	16.78
300.63	12.89
300.845	16.34
301.06	18.98
301.275	25.37
301.49	26.26
301.704	20.29
301.919	6.52
302.134	5.16
302.349	0.54
302.564	-8.91
302.779	-17.63
302.994	-20.63
303.209	-13.14
303.423	2.62
303.638	11.31
303.853	19.91
304.068	28.89
304.283	23.98
304.497	19.68
304.712	19.58
304.927	11.93
305.142	17.5
305.356	14.28
305.571	14.01
305.786	19.06
306	21.9
306.215	23.26
306.43	32.3
306.644	24.86
306.859	29.74
307.074	28.85
307.288	28.99
307.503	28.24
307.717	26.9
307.932	27.53
308.147	16.82
308.361	3.6
308.576	3.74
308.79	0.85
309.005	6.71
309.219	13.12
309.434	8.32
309.648	9.55
309.863	24.24
310.077	19.64
310.292	27.51
310.506	30.24
310.72	22.94
310.935	22.19
311.149	22.21
311.364	14.26
311.578	15.8
311.792	5.21
312.007	-3.5
312.221	-1.14
312.435	-3.31
312.649	-3.55
312.864	4.6
313.078	5.4
313.292	15.14
313.507	25.84
313.721	31.63
313.935	46.09
314.149	36.37
314.363	35.12
314.578	54.35
314.792	58.24
315.006	41.39
315.22	46.55
315.434	40.59
315.648	43.31
315.862	42.25
316.077	21.13
316.291	18.99
316.505	26.82
316.719	-3.92
316.933	-3.62
317.147	0.58
317.361	-4.92
317.575	8.69
317.789	11.94
318.003	12.3
318.217	31.11
318.431	35.27
318.645	34.81
318.859	24.44
319.073	17.56
319.287	18.49
319.5	20.73
319.714	18.28
319.928	14.98
320.142	21.05
320.356	34.23
320.57	32.09
320.784	23.56
320.997	21.64
321.211	21.07
321.425	14.84
321.639	13.75
321.853	7.35
322.066	14.14
322.28	18.28
322.494	15.85
322.707	14.48
322.921	28.73
323.135	24.24
323.349	21.48
323.562	20.2
323.776	22.24
323.989	20.29
324.203	22.62
324.417	12.59
324.63	10.06
324.844	11.33
325.057	19.26
325.271	12.79
325.485	14.67
325.698	10.74
325.912	13.99
326.125	21.04
326.339	30.94
326.552	18.76
326.766	28.15
326.979	30.55
327.193	30.35
327.406	23.84
327.619	7.87
327.833	-7.8
328.046	-5.62
328.26	-4.99
328.473	-3.05
328.686	0.68
328.9	-2.7
329.113	0.59
329.326	10.75
329.54	15.5
329.753	12.38
329.966	12.68
330.179	14.91
330.393	18.04
330.606	21.91
330.819	27.2
331.032	20.11
331.246	19.41
331.459	24.33
331.672	21.6
331.885	21.17
332.098	15.94
332.311	1.35
332.525	13.93
332.738	12.16
332.951	8.28
333.164	-0.28
333.377	-13.58
333.59	-7.67
333.803	-2.31
334.016	-24.64
334.229	-30.73
334.442	-21.91
334.655	-16.4
334.868	6.82
335.081	14.32
335.294	17.81
335.507	40.88
335.72	33.36
335.933	27.84
336.146	38.08
336.359	37.03
336.572	29.06
336.785	29.38
336.997	12.93
337.21	25.75
337.423	23.08
337.636	15.59
337.849	15.31
338.062	24.25
338.274	20.87
338.487	21.63
338.7	22.02
338.913	23.61
339.125	22.99
339.338	21.37
339.551	17.63
339.763	15.25
339.976	12.24
340.189	7.75
340.402	7.24
340.614	11.15
340.827	-1.83
341.039	-3.89
341.252	-4.51
341.465	-4.46
341.677	-6.19
341.89	-3.42
342.102	-4.87
342.315	8.68
342.527	3.15
342.74	-1.5
342.952	-2.2
343.165	1.41
343.377	2.97
343.59	7.13
343.802	5.73
344.015	14.09
344.227	16.49
344.44	16.38
344.652	19.02
344.864	21.6
345.077	11.81
345.289	8.52
345.502	5.19
345.714	4.43
345.926	9.02
346.139	1.46
346.351	-13.98
346.563	-0.15
346.775	-4.7
346.988	1.23
347.2	11.66
347.412	8.31
347.624	11.07
347.837	11.01
348.049	12.08
348.261	15.34
348.473	6.36
348.685	1.68
348.897	3.72
349.11	1.17
349.322	3.91
349.534	-9.61
349.746	0.71
349.958	8.27
350.17	4.59
350.382	-2.57
350.594	2.03
350.806	6.68
351.018	12.03
351.23	6.42
351.442	6.68
351.654	12.13
351.866	16.39
352.078	12.55
352.29	18.38
352.502	19.29
352.714	21.28
352.926	20.23
353.138	14.52
353.35	8.58
353.561	7.7
353.773	2.52
353.985	-2.29
354.197	-6.29
354.409	-8.72
354.621	-6.19
354.832	-5.44
355.044	-1.17
355.256	-6.79
355.468	-8.71
355.679	-1.79
355.891	4.09
356.103	9.03
356.314	8.16
356.526	10.37
356.738	10.05
356.949	24.4
357.161	18.3
357.373	19.5
357.584	19.01
357.796	22.55
358.008	24.62
358.219	33.23
358.431	20.3
358.642	21.48
358.854	19.43
359.065	15.79
359.277	16.87
359.488	5.94
359.7	9.53
359.911	11.87
360.123	20.07
360.334	18.44
360.546	15.51
360.757	12.55
360.969	22.29
361.18	17.28
361.391	20.74
361.603	15.49
361.814	16.37
362.025	14.89
362.237	17.95
362.448	15.49
362.659	2.92
362.871	3.54
363.082	4.89
363.293	11.03
363.504	14.85
363.716	14.7
363.927	15.65
364.138	23.32
364.349	18.91
364.56	15.67
364.772	12.14
364.983	3.09
365.194	-0.05
365.405	-2.2
365.616	-15.31
365.827	-17.31
366.038	-7.65
366.25	-4.36
366.461	11.02
366.672	15.17
366.883	18.23
367.094	32.68
367.305	32.78
367.516	26.69
367.727	18.48
367.938	16.69
368.149	14.32
368.36	10.63
368.571	7.15
368.781	7.52
368.992	10.27
369.203	16.86
369.414	9.55
369.625	4.07
369.836	1
370.047	0.37
370.258	-3.43
370.468	-3.23
370.679	-8.17
370.89	2.06
371.101	5.56
371.312	7.74
371.522	8.54
371.733	7.78
371.944	9.21
372.155	-0.91
372.365	-4.1
372.576	-7.01
372.787	-15.77
372.997	-22.95
373.208	-11.65
373.419	-19.11
373.629	-1.48
373.84	-5.62
374.05	1.3
374.261	8.71
374.472	16.79
374.682	11.41
374.893	7.72
375.103	6.41
375.314	12.21
375.524	10.17
375.735	10.76
375.945	6.79
376.156	14.86
376.366	24.64
376.577	26.62
376.787	25.13
376.997	23.78
377.208	24.9
377.418	27.55
377.629	23.36
377.839	22.43
378.049	22.03
378.26	20.32
378.47	21.1
378.68	15.16
378.89	12.94
379.101	2.24
379.311	-3.53
379.521	-2.32
379.732	-11.13
379.942	-9.58
380.152	4.23
380.362	7.2
380.572	8.41
380.783	10.5
380.993	8.48
381.203	13.47
381.413	17.1
381.623	14.16
381.833	8.48
382.043	9.85
382.253	11.96
382.463	10.67
382.674	14.56
382.884	7.5
383.094	8.17
383.304	12.43
383.514	16.61
383.724	15.18
383.934	13.3
384.144	13.85
384.353	17.18
384.563	13.2
384.773	15.27
384.983	11.41
385.193	10.67
385.403	12.71
385.613	8.33
385.823	6.5
386.033	7.28
386.242	4.52
386.452	4.85
386.662	5.61
386.872	2.94
387.082	3.27
387.291	5.51
387.501	6.97
387.711	6.47
387.921	7.1
388.13	6.33
388.34	7.17
388.55	9.06
388.759	6.9
388.969	1.59
389.179	3.79
389.388	3.55
389.598	2.97
389.807	1.91
390.017	1.19
390.227	1.31
390.436	3.19
390.646	1.6
390.855	1.94
391.065	1.95
391.274	0.97
391.484	1.48
391.693	2.08
391.903	3.4
392.112	2.97
392.322	2.99
392.531	2.68
392.74	2.74
392.95	2.9
393.159	3.54
393.369	2.39
393.578	2.43
393.787	2.57
393.997	3.73
394.206	3.38
394.415	2.57
394.625	0.71
394.834	0.11
395.043	0.76
395.252	0.5
395.462	-0.15
395.671	1.08
395.88	1.81
396.089	3.2
396.298	3.82
396.508	3.85
396.717	3.41
396.926	2.94
397.135	2.43
397.344	1.79
397.553	1.42
397.762	1.53
397.971	1.09
398.181	1.11
398.39	1.7
398.599	1.81
398.808	2.45
399.017	2.67
399.226	2.65
399.435	2.67
399.644	2.82
399.853	2.75
400.062	2.83
400.27	2.42
400.479	2.19
400.688	2.14
400.897	2.55
401.106	2.61
401.315	2.41
401.524	2.48
401.733	2.78
401.941	2.7
402.15	2.53
402.359	2.21
402.568	2.25
402.777	2.32
402.985	2.15
403.194	1.93
403.403	1.85
403.612	1.9
403.82	1.91
404.029	1.81
404.238	1.84
404.446	1.81
404.655	1.77
404.864	1.77
405.072	1.87
405.281	1.72
405.489	1.72
405.698	1.62
405.906	1.5
406.115	1.58
406.324	1.52
406.532	1.47
406.741	1.61
406.949	1.53
407.158	1.64
407.366	1.79
407.574	1.84
407.783	1.78
407.991	1.75
408.2	1.66
408.408	1.66
408.617	1.56
408.825	1.5
409.033	1.34
409.242	1.44
409.45	1.4
409.658	1.43
409.867	1.43
410.075	1.44
410.283	1.36
410.491	1.35
410.7	1.38
410.908	1.37
411.116	1.37
411.324	1.44
411.533	1.38
411.741	1.43
411.949	1.57
412.157	1.53
412.365	1.55
412.573	1.58
412.781	1.51
412.99	1.59
413.198	1.54
413.406	1.42
413.614	1.45
413.822	1.45
414.03	1.33
414.238	1.41
414.446	1.24
414.654	1.3
414.862	1.27
415.07	1.32
415.278	1.28
415.486	1.39
415.694	1.32
415.902	1.4
416.109	1.41
416.317	1.4
416.525	1.34
416.733	1.41
416.941	1.31
417.149	1.41
417.357	1.5
417.564	1.47
417.772	1.56
417.98	1.53
418.188	1.4
418.395	1.39
418.603	1.26
418.811	1.05
419.019	1.05
419.226	1.12
419.434	1.03
419.642	1.09
419.849	1.16
420.057	1.18
420.265	1.31
420.472	1.26
420.68	1.08
420.887	1.25
421.095	1.23
421.302	1.31
421.51	1.4
421.717	1.42
421.925	1.4
422.132	1.28
422.34	1.22
422.547	1.16
422.755	1.05
422.962	0.93
423.17	0.85
423.377	0.99
423.585	1.18
423.792	1.14
423.999	1.12
424.207	1.03
424.414	1.12
424.621	1.18
424.829	1.04
425.036	0.95
425.243	0.99
425.451	1.08
425.658	1.27
425.865	1.22
426.072	1.27
426.28	1.31
426.487	1.33
426.694	1.29
426.901	1.21
427.108	1.17
427.315	1.12
427.523	1.06
427.73	1.1
427.937	1.13
428.144	1.14
428.351	1.3
428.558	1.22
428.765	1.26
428.972	1.25
429.179	1.17
429.386	1.21
429.593	1.18
429.8	1.17
430.007	1.21
430.214	1.26
430.421	1.32
430.628	1.25
430.835	1.11
431.042	1.17
431.249	1.1
431.456	1.11
431.662	1.07
431.869	1.12
432.076	1.21
432.283	1.27
432.49	1.24
432.697	1.24
432.903	1.29
433.11	1.32
433.317	1.34
433.524	1.26
433.73	1.36
433.937	1.39
434.144	1.52
434.35	1.46
434.557	1.43
434.764	1.36
434.97	1.5
435.177	1.39
435.384	1.47
435.59	1.36
435.797	1.4
436.003	1.43
436.21	1.42
436.416	1.39
436.623	1.53
436.829	1.45
437.036	1.5
437.242	1.44
437.449	1.46
437.655	1.48
437.862	1.48
438.068	1.47
438.275	1.45
438.481	1.5
438.687	1.55
438.894	1.53
439.1	1.53
439.307	1.51
439.513	1.43
439.719	1.48
439.926	1.45
440.132	1.42
440.338	1.49
440.544	1.44
440.751	1.44
440.957	1.45
441.163	1.5
441.369	1.5
441.575	1.47
441.782	1.43
441.988	1.51
442.194	1.6
442.4	1.62
442.606	1.64
442.812	1.69
443.018	1.75
443.224	1.74
443.431	1.77
443.637	1.7
443.843	1.75
444.049	1.69
444.255	1.66
444.461	1.65
444.667	1.67
444.873	1.61
445.079	1.66
445.284	1.63
445.49	1.63
445.696	1.67
445.902	1.67
446.108	1.69
446.314	1.79
446.52	1.83
446.726	1.86
446.931	1.87
447.137	1.82
447.343	1.84
447.549	1.8
447.755	1.73
447.96	1.7
448.166	1.76
448.372	1.76
448.578	1.82
448.783	1.78
448.989	1.86
449.195	1.89
449.4	1.9
449.606	1.82
449.812	1.85
450.017	1.83
450.223	1.83
450.428	1.77
450.634	1.78
450.84	1.76
451.045	1.75
451.251	1.83
451.456	1.8
451.662	1.81
451.867	1.83
452.073	1.83
452.278	1.79
452.483	1.81
452.689	1.69
452.894	1.73
453.1	1.71
453.305	1.75
453.51	1.75
453.716	1.75
453.921	1.77
454.127	1.82
454.332	1.79
454.537	1.87
454.742	1.83
454.948	1.86
455.153	1.91
455.358	1.94
455.563	1.92
455.769	1.96
455.974	1.88
456.179	1.88
456.384	1.89
456.589	1.88
456.795	1.88
457	1.96
457.205	1.96
457.41	2.02
457.615	2.06
457.82	2.11
458.025	2.07
458.23	2.05
458.435	1.98
458.64	2.03
458.845	2
459.05	2.02
459.255	2.01
459.46	2.02
459.665	2.07
459.87	2.08
460.075	2.06
460.28	2.07
460.485	2.08
460.69	1.98
460.895	2
461.099	2.04
461.304	2.05
461.509	1.99
461.714	2.02
461.919	1.98
462.123	2.08
462.328	2.1
462.533	2.06
462.738	2.08
462.942	2.17
463.147	2.15
463.352	2.2
463.556	2.22
463.761	2.22
463.966	2.22
464.17	2.24
464.375	2.19
464.58	2.2
464.784	2.2
464.989	2.17
465.193	2.2
465.398	2.19
465.602	2.19
465.807	2.21
466.011	2.22
466.216	2.2
466.42	2.26
466.625	2.25
466.829	2.31
467.034	2.37
467.238	2.39
467.443	2.38
467.647	2.36
467.851	2.37
468.056	2.42
468.26	2.38
468.464	2.37
468.669	2.37
468.873	2.39
469.077	2.46
469.282	2.48
469.486	2.48
469.69	2.53
469.894	2.56
470.099	2.61
470.303	2.6
470.507	2.63
