Data from Ofra_PS_T2_1A_8HS24_Reflection_3.txt Node
Date: Wed Jul 21 18:17:08 EDT 2021
User: Adam
Spectrometer: FLMT01687
Trigger mode: 0
Integration Time (sec): 1.100000E0
Scans to average: 2
Electric dark correction enabled: true
Nonlinearity correction enabled: false
Boxcar width: 2
XAxis mode: Wavelengths
Number of Pixels in Spectrum: 3648
>>>>>Begin Spectral Data<<<<<
179.494	655.2
179.716	705.18
179.937	636.9
180.158	626.25
180.38	898.12
180.601	329.83
180.823	116.62
181.044	21.33
181.265	61.76
181.486	57.91
181.708	72.06
181.929	416.33
182.15	-101.41
182.372	137.84
182.593	45.99
182.814	23.24
183.035	102.78
183.257	72.71
183.478	43.4
183.699	123.53
183.92	104.93
184.141	58.6
184.363	9.15
184.584	49.1
184.805	24.33
185.026	60.05
185.247	63.18
185.468	48.88
185.689	43.8
185.91	25.58
186.132	-3.86
186.353	-1.95
186.574	28.6
186.795	21.98
187.016	-5.53
187.237	-5.89
187.458	-40.3
187.679	-27.69
187.9	-28.14
188.121	-31.14
188.342	-25.95
188.563	34.94
188.784	46.41
189.005	62.53
189.226	110.75
189.447	74.76
189.667	-167.48
189.888	-351.72
190.109	-1242.86
190.33	-692.9
190.551	-1083.19
190.772	-210.65
190.993	-173.99
191.214	-183.41
191.434	-111.59
191.655	-53.01
191.876	-80.46
192.097	-116.43
192.318	-132.17
192.538	-205.87
192.759	-119.42
192.98	-29.23
193.201	29.77
193.421	35.34
193.642	47.81
193.863	53.86
194.083	27.7
194.304	-5.44
194.525	4.88
194.745	-33.8
194.966	-49.3
195.187	-49.36
195.407	-56.95
195.628	-101.92
195.848	-73.97
196.069	-65.2
196.29	-9.25
196.51	-15.35
196.731	-39.08
196.951	-47.14
197.172	-71.88
197.392	-132.28
197.613	-133.38
197.833	-152.57
198.054	-98.61
198.274	-35.43
198.495	-32.47
198.715	-5.27
198.936	0.55
199.156	-25.36
199.377	-78.89
199.597	-72.29
199.817	-88.03
200.038	-37.93
200.258	-65.96
200.479	-63.14
200.699	-104.42
200.919	-49.87
201.14	-62.36
201.36	-82.51
201.58	-7.97
201.801	21.41
202.021	-9.3
202.241	-17.45
202.461	-12.92
202.682	-126.75
202.902	-178.32
203.122	-71.55
203.342	-64.93
203.563	-14.7
203.783	25.68
204.003	10.58
204.223	7.04
204.443	61.16
204.663	63.59
204.884	53.23
205.104	90.79
205.324	84.32
205.544	78.88
205.764	69.67
205.984	57.85
206.204	52.23
206.424	39.36
206.644	7.49
206.864	13.47
207.084	12.46
207.304	13.52
207.525	-47.81
207.745	17.45
207.964	22.99
208.184	-34.93
208.404	-60.7
208.624	-48.92
208.844	-45.91
209.064	-275.81
209.284	-273.58
209.504	-109.76
209.724	-15.93
209.944	-17.04
210.164	23.59
210.384	42.64
210.604	37.31
210.823	2.09
211.043	-24.07
211.263	-26.64
211.483	-32.54
211.703	-94.7
211.922	-71.22
212.142	-3.26
212.362	31.66
212.582	19.76
212.801	40.42
213.021	25.23
213.241	4.27
213.461	-44.07
213.68	-57.89
213.9	-31.72
214.12	-31.65
214.339	-78.69
214.559	-57.39
214.779	-10.67
214.998	-30.29
215.218	-45.74
215.438	-10.79
215.657	-30.5
215.877	-19.57
216.096	17.85
216.316	23.34
216.535	4.92
216.755	9.78
216.974	-69.67
217.194	-126.65
217.413	-139.95
217.633	-142.06
217.852	-217.66
218.072	-104.57
218.291	-59.59
218.511	-18.23
218.73	-27.83
218.95	-17.66
219.169	-23.62
219.389	-56.25
219.608	-42.67
219.827	-37.7
220.047	-44.57
220.266	-26.81
220.485	-20.53
220.705	-19.93
220.924	-20.32
221.143	29.96
221.363	14.37
221.582	18.89
221.801	24.86
222.021	51.18
222.24	-51.96
222.459	2.07
222.678	-12.41
222.897	-80.7
223.117	-174.79
223.336	-87.82
223.555	-40.55
223.774	7.13
223.993	41.72
224.213	95.53
224.432	60.06
224.651	38.88
224.87	18.99
225.089	27.68
225.308	16.65
225.527	36.57
225.746	44.31
225.965	36.32
226.184	15.7
226.404	23.19
226.623	-7.46
226.842	2.7
227.061	26.84
227.28	31.81
227.499	21.85
227.718	30.55
227.936	15.35
228.155	8.05
228.374	3.5
228.593	15.41
228.812	28.12
229.031	30.08
229.25	-4.29
229.469	-6.21
229.688	-22.24
229.907	-5.94
230.125	-2.54
230.344	7.79
230.563	16.29
230.782	45.45
231.001	-13.33
231.22	-10.73
231.438	9.79
231.657	-4.33
231.876	-29.25
232.095	15.21
232.313	1.32
232.532	-29.16
232.751	-39.67
232.969	-66.43
233.188	-132.22
233.407	-21.98
233.625	-18.11
233.844	-15.05
234.063	11.2
234.281	17.36
234.5	-4.24
234.719	6.43
234.937	14.69
235.156	10.09
235.374	4.05
235.593	-6.97
235.811	-3.86
236.03	-13.29
236.249	-36.49
236.467	-14.22
236.686	12.28
236.904	10.79
237.123	-4.09
237.341	1.03
237.559	-4.14
237.778	-23.45
237.996	-41.97
238.215	-12.6
238.433	-2.6
238.652	11.7
238.87	4.88
239.088	15.23
239.307	15.84
239.525	16.18
239.743	-33.65
239.962	-35.43
240.18	-65.75
240.398	-87.62
240.617	-86.16
240.835	-62.74
241.053	-22.88
241.271	42.21
241.49	35.03
241.708	16.48
241.926	21.18
242.144	1.51
242.363	-71.41
242.581	-95.63
242.799	-56
243.017	-20.45
243.235	-45.39
243.453	-14.46
243.672	-17.23
243.89	-10.83
244.108	-29.92
244.326	-11.62
244.544	-18.39
244.762	-8.55
244.98	8.77
245.198	22.42
245.416	-0
245.634	-4.17
245.852	-29.04
246.07	-76.56
246.288	-71.33
246.506	-81.33
246.724	-60.57
246.942	-52.73
247.16	-14.36
247.378	-18.46
247.596	-2.71
247.814	0.44
248.032	-13.88
248.25	-10.82
248.468	13.24
248.685	12.53
248.903	20.37
249.121	32.81
249.339	16.65
249.557	-11.16
249.775	10.32
249.992	-40.42
250.21	-33.29
250.428	-20.08
250.646	-39.45
250.863	-68.12
251.081	-39.04
251.299	-48.08
251.517	-52.86
251.734	-35.04
251.952	-26.46
252.17	-14.67
252.387	-7.21
252.605	-15.33
252.823	-1.17
253.04	16.18
253.258	31.47
253.475	38.92
253.693	56.31
253.911	38.57
254.128	38.44
254.346	33.67
254.563	9.55
254.781	-18.76
254.998	-34.5
255.216	-53.71
255.433	-51.7
255.651	-33.27
255.868	19.22
256.086	47.27
256.303	25.08
256.521	20.38
256.738	14.32
256.956	-28.13
257.173	-51.93
257.39	-49.82
257.608	-60.26
257.825	15.47
258.043	40.56
258.26	44.57
258.477	73.54
258.695	66.32
258.912	-1.15
259.129	14.52
259.346	-19.06
259.564	-43.94
259.781	-50.19
259.998	3.09
260.216	22.26
260.433	70.11
260.65	67.16
260.867	66.35
261.084	44.83
261.302	26.42
261.519	-1.32
261.736	-41.72
261.953	-63.62
262.17	-39.64
262.387	-69.66
262.604	-69.31
262.822	-49.63
263.039	-24.76
263.256	-42.81
263.473	-5.03
263.69	-8.25
263.907	28.56
264.124	46.74
264.341	34.9
264.558	18.58
264.775	23.09
264.992	5.69
265.209	-0.34
265.426	16.92
265.643	14.06
265.86	20.27
266.077	11.16
266.294	4.79
266.51	-37.27
266.727	-42.79
266.944	-60.29
267.161	-32.46
267.378	-35.44
267.595	6.62
267.812	-16.85
268.028	-7.2
268.245	-16.55
268.462	-25.27
268.679	-17.96
268.896	35.25
269.112	28.84
269.329	24.43
269.546	28.96
269.763	14.18
269.979	-7.73
270.196	-10.23
270.413	-34.47
270.629	-54.05
270.846	-51.47
271.063	-28.5
271.279	-30.88
271.496	-30.79
271.712	-3.27
271.929	3.19
272.146	-24.76
272.362	-9.55
272.579	40.93
272.795	31.4
273.012	36.82
273.228	48
273.445	26.37
273.661	-17.75
273.878	-32.9
274.094	-35.86
274.311	-78.66
274.527	-27.57
274.744	-25.11
274.96	-21.49
275.177	-12.38
275.393	20.22
275.609	21.24
275.826	45.26
276.042	34.95
276.259	33.75
276.475	34.84
276.691	34.89
276.908	7.5
277.124	27.72
277.34	22.45
277.557	8.2
277.773	-4.74
277.989	-8.94
278.205	-11.52
278.422	1.79
278.638	8.73
278.854	20.22
279.07	33.16
279.286	12.58
279.503	-33.43
279.719	-49.36
279.935	-71.23
280.151	-85.4
280.367	-48.36
280.583	-35.5
280.799	-30.63
281.016	-55.07
281.232	-13.61
281.448	-20.97
281.664	9.11
281.88	-16.31
282.096	9
282.312	20.78
282.528	52.51
282.744	45.92
282.96	27.88
283.176	27.99
283.392	5.67
283.608	-4.51
283.824	-8.72
284.04	13.6
284.256	16.82
284.471	14.6
284.687	10.22
284.903	31.84
285.119	58.66
285.335	43.79
285.551	38.79
285.767	19.6
285.982	5.67
286.198	-37.01
286.414	-1.42
286.63	20.98
286.846	38.19
287.061	12.63
287.277	33.27
287.493	9.67
287.709	17.45
287.924	9.52
288.14	43.07
288.356	34.59
288.571	55.53
288.787	32.71
289.003	33.73
289.218	13.32
289.434	-18.61
289.65	-12.67
289.865	-3.67
290.081	9.85
290.296	17.18
290.512	28.21
290.727	-18.34
290.943	-19.01
291.159	-25.37
291.374	-25.13
291.59	-32.25
291.805	-6.84
292.021	-2.84
292.236	-13.58
292.451	-8.09
292.667	-7.79
292.882	-2.71
293.098	-13.52
293.313	-27.63
293.529	-43.62
293.744	-39.94
293.959	-51.73
294.175	-32.02
294.39	3.84
294.605	24.56
294.821	44.2
295.036	51.7
295.251	51.34
295.467	12.43
295.682	-15.04
295.897	-51.95
296.112	-63.48
296.328	-51.8
296.543	-50.99
296.758	-34.69
296.973	-10.55
297.188	20.73
297.404	-4.34
297.619	3.34
297.834	-1.63
298.049	-24.03
298.264	-48.45
298.479	-5.57
298.694	4.15
298.909	11.46
299.125	16.84
299.34	19.67
299.555	-16.65
299.77	-16.26
299.985	-48.51
300.2	-98.68
300.415	-106.15
300.63	-66.2
300.845	-63.15
301.06	-51.59
301.275	1.8
301.49	13.28
301.704	0.32
301.919	-29.18
302.134	-48.18
302.349	-61.03
302.564	-122.32
302.779	-160.64
302.994	-158.46
303.209	-66.13
303.423	-35.9
303.638	25.29
303.853	9.06
304.068	15.38
304.283	4.63
304.497	0.29
304.712	-17.47
304.927	-11.21
305.142	-12.94
305.356	-9.45
305.571	-25.42
305.786	-30.08
306	-40.92
306.215	-39.72
306.43	-55.31
306.644	-22.21
306.859	26.71
307.074	37.31
307.288	10.14
307.503	-1.02
307.717	-9.49
307.932	-21.82
308.147	-41.18
308.361	-20.59
308.576	-18.66
308.79	-57.12
309.005	-63.42
309.219	-30.39
309.434	-37.02
309.648	-40.83
309.863	-14
310.077	-3.7
310.292	-14.24
310.506	-19.01
310.72	0.44
310.935	5.3
311.149	1.46
311.364	11.31
311.578	20.49
311.792	5.67
312.007	-3.21
312.221	-18.02
312.435	-13.58
312.649	-29.09
312.864	-84.59
313.078	-56.7
313.292	-5.22
313.507	-43.13
313.721	-29.31
313.935	58.99
314.149	41.79
314.363	21.33
314.578	20.39
314.792	28.21
315.006	7.77
315.22	23.79
315.434	32.54
315.648	33.65
315.862	25.08
316.077	31.1
316.291	13.27
316.505	10.42
316.719	5.2
316.933	14.97
317.147	6.8
317.361	-33.8
317.575	-63.51
317.789	-85.23
318.003	-168.92
318.217	-126.96
318.431	-36.81
318.645	9.31
318.859	11.91
319.073	34.02
319.287	12.21
319.5	-17.43
319.714	-51.58
319.928	-84.12
320.142	-102.78
320.356	-42.7
320.57	-19.76
320.784	-46.32
320.997	-63.68
321.211	-66.02
321.425	-102.25
321.639	-127.15
321.853	-54.53
322.066	-13.99
322.28	-1.97
322.494	8.69
322.707	38.19
322.921	24.27
323.135	21.55
323.349	38.67
323.562	13.9
323.776	-5.48
323.989	0.33
324.203	-22.99
324.417	-51.35
324.63	-60.79
324.844	-66.84
325.057	-72.44
325.271	-50.81
325.485	-16.77
325.698	9.05
325.912	24.23
326.125	3.51
326.339	2.42
326.552	-27.99
326.766	-39.28
326.979	-11.81
327.193	30.71
327.406	27.18
327.619	36.12
327.833	60.7
328.046	29.03
328.26	-4.04
328.473	18.83
328.686	4.31
328.9	-7.76
329.113	8.81
329.326	1.99
329.54	-13.51
329.753	-30.68
329.966	-69.05
330.179	-59.84
330.393	-31.01
330.606	-22.33
330.819	-5.77
331.032	15.38
331.246	13.2
331.459	27.53
331.672	20.06
331.885	18.54
332.098	-1.37
332.311	0.38
332.525	-40.08
332.738	-32.74
332.951	-0
333.164	6.5
333.377	10.96
333.59	36.05
333.803	38.73
334.016	23.11
334.229	20.65
334.442	31.67
334.655	25.02
334.868	32.05
335.081	25.49
335.294	25.06
335.507	8.79
335.72	11.63
335.933	-7.85
336.146	1.71
336.359	17.61
336.572	-3.86
336.785	-33.91
336.997	-16.41
337.21	-1.86
337.423	-18.48
337.636	-17.41
337.849	7.52
338.062	2.27
338.274	3.68
338.487	-1.31
338.7	11.88
338.913	-37.39
339.125	-55
339.338	-109.38
339.551	-73.23
339.763	-47.79
339.976	-3.41
340.189	16.38
340.402	37.97
340.614	28.86
340.827	11.99
341.039	-6.78
341.252	-4.5
341.465	-4.08
341.677	-7.59
341.89	-20.98
342.102	9.9
342.315	-6.92
342.527	-35.88
342.74	-38.6
342.952	-12.07
343.165	-23.83
343.377	1.86
343.59	-0.14
343.802	17.7
344.015	20.34
344.227	36.28
344.44	34.87
344.652	46.71
344.864	24.82
345.077	34.52
345.289	32.87
345.502	26.35
345.714	16.11
345.926	26.69
346.139	17.86
346.351	17.02
346.563	32.3
346.775	44.38
346.988	40.13
347.2	20.07
347.412	-15.87
347.624	-48.5
347.837	-76.18
348.049	-56.1
348.261	3.49
348.473	24.04
348.685	31.62
348.897	29.16
349.11	10.62
349.322	-30.9
349.534	-34.43
349.746	-22.77
349.958	-13.57
350.17	-24.45
350.382	13.33
350.594	9.19
350.806	6.86
351.018	8.38
351.23	-2.02
351.442	-50.77
351.654	-47.35
351.866	-32.1
352.078	-23.83
352.29	-0
352.502	19.87
352.714	34.33
352.926	16.74
353.138	11.68
353.35	2.56
353.561	-11.23
353.773	-31.8
353.985	-14.76
354.197	-34.3
354.409	-32.32
354.621	-27.39
354.832	-21.44
355.044	-25.9
355.256	-15.04
355.468	-5.28
355.679	-12.77
355.891	-12.45
356.103	-34.82
356.314	-26.03
356.526	-34.08
356.738	-17.34
356.949	-20.31
357.161	22.39
357.373	18.85
357.584	11.27
357.796	5.94
358.008	5.85
358.219	3.11
358.431	-6.61
358.642	6.71
358.854	10.71
359.065	-0.32
359.277	-36.82
359.488	-23.97
359.7	-48.5
359.911	-45.23
360.123	-32.99
360.334	-21.25
360.546	-37.68
360.757	-36.68
360.969	-29.82
361.18	-17.63
361.391	-18.51
361.603	-23.35
361.814	-11.2
362.025	-24.03
362.237	-20.8
362.448	-13.68
362.659	10.06
362.871	-1.92
363.082	-2.71
363.293	-11.02
363.504	-18.56
363.716	-39.63
363.927	-21.29
364.138	-25.42
364.349	-23.36
364.56	-18.58
364.772	-12.51
364.983	-1.54
365.194	1.11
365.405	15.04
365.616	33.46
365.827	37.43
366.038	19.1
366.25	16.76
366.461	-6.33
366.672	-1.88
366.883	7.04
367.094	12.44
367.305	7.62
367.516	4.75
367.727	-30.93
367.938	-42.18
368.149	-45.83
368.36	-33.53
368.571	-14.16
368.781	-16.87
368.992	-33.44
369.203	-52.61
369.414	-65.01
369.625	-89.12
369.836	-68.17
370.047	-70.14
370.258	-44.56
370.468	-49.43
370.679	-51.65
370.89	-52.33
371.101	-43.4
371.312	-49.25
371.522	-38.74
371.733	-22.75
371.944	-17.01
372.155	-2.8
372.365	-9.45
372.576	-13.54
372.787	-28.22
372.997	-37.27
373.208	-36.68
373.419	-14.23
373.629	-45.02
373.84	-53.87
374.05	-58.85
374.261	-46.99
374.472	-60.69
374.682	-8.74
374.893	7.1
375.103	23.64
375.314	16.81
375.524	11.75
375.735	3.65
375.945	11.55
376.156	-15.6
376.366	-15.93
376.577	-10.05
376.787	-14.99
376.997	-11.83
377.208	13.05
377.418	0.63
377.629	10.76
377.839	8.73
378.049	-3.39
378.26	0.66
378.47	12.68
378.68	1.67
378.89	5.76
379.101	3.99
379.311	-28.95
379.521	-54.18
379.732	-53.81
379.942	-60.93
380.152	-71.85
380.362	-30.19
380.572	-25.79
380.783	-6.89
380.993	2.55
381.203	24.41
381.413	26.92
381.623	32.06
381.833	21.84
382.043	12.84
382.253	-1.25
382.463	-6.19
382.674	-14.36
382.884	-28.97
383.094	-21.13
383.304	-10.49
383.514	-2.42
383.724	9.26
383.934	5
384.144	-4.65
384.353	-20.12
384.563	-21.52
384.773	-21.01
384.983	-26.4
385.193	-10.14
385.403	-0.38
385.613	-1.67
385.823	-7.39
386.033	1.96
386.242	-10.28
386.452	-16.64
386.662	-24.08
386.872	-7.99
387.082	-9.58
387.291	-10.18
387.501	-5.8
387.711	-1.9
387.921	-11.49
388.13	-11.57
388.34	2.02
388.55	-2.91
388.759	-1.33
388.969	2.73
389.179	2.13
389.388	-4.76
389.598	5.17
389.807	-2.41
390.017	-8.08
390.227	-5.4
390.436	-2.7
390.646	-4.07
390.855	1.3
391.065	1.13
391.274	-3.54
391.484	-6.99
391.693	-4.24
391.903	-3.44
392.112	2.14
392.322	5.98
392.531	11.21
392.74	9.43
392.95	4.43
393.159	0.85
393.369	0.34
393.578	-1.31
393.787	-3.18
393.997	0.58
394.206	-0.35
394.415	0.11
394.625	0.85
394.834	-0.48
395.043	-0.49
395.252	2.22
395.462	3.1
395.671	1.86
395.88	3.55
396.089	3.43
396.298	1.67
396.508	1.45
396.717	1.67
396.926	1.9
397.135	2.01
397.344	2.03
397.553	2.35
397.762	3.18
397.971	3.41
398.181	3.44
398.39	2.88
398.599	2.36
398.808	2.34
399.017	3.02
399.226	4.19
399.435	5.16
399.644	5.43
399.853	4.48
400.062	3.8
400.27	3.21
400.479	2.62
400.688	1.79
400.897	2.4
401.106	2.35
401.315	1.98
401.524	2.35
401.733	3.2
401.941	3.72
402.15	3.93
402.359	3.82
402.568	3.87
402.777	3.89
402.985	3.17
403.194	3.18
403.403	3.33
403.612	3.13
403.82	3.08
404.029	3.56
404.238	3.29
404.446	3.58
404.655	3.33
404.864	2.94
405.072	2.56
405.281	2.86
405.489	2.53
405.698	2.72
405.906	2.9
406.115	2.8
406.324	2.66
406.532	2.94
406.741	3.14
406.949	3.17
407.158	3.27
407.366	3.21
407.574	3.03
407.783	3.06
407.991	2.9
408.2	3.09
408.408	3.17
408.617	3.09
408.825	2.85
409.033	2.92
409.242	2.87
409.45	2.88
409.658	2.77
409.867	2.93
410.075	2.84
410.283	2.7
410.491	2.63
410.7	2.75
410.908	2.7
411.116	2.96
411.324	2.96
411.533	2.92
411.741	3.12
411.949	3.21
412.157	2.97
412.365	2.98
412.573	2.99
412.781	2.95
412.99	2.73
413.198	3.01
413.406	3
413.614	2.99
413.822	2.78
414.03	2.77
414.238	2.51
414.446	2.68
414.654	2.53
414.862	2.69
415.07	2.81
415.278	3
415.486	2.73
415.694	2.85
415.902	2.67
416.109	2.57
416.317	2.41
416.525	2.24
416.733	2.11
416.941	2.29
417.149	2.33
417.357	2.3
417.564	2.59
417.772	2.95
417.98	2.79
418.188	2.76
418.395	2.87
418.603	3.07
418.811	2.63
419.019	2.56
419.226	2.76
419.434	2.86
419.642	2.56
419.849	2.83
420.057	3.02
420.265	2.92
420.472	2.66
420.68	2.66
420.887	2.47
421.095	2.44
421.302	2.31
421.51	2.47
421.717	2.67
421.925	2.8
422.132	2.61
422.34	2.47
422.547	2.52
422.755	2.3
422.962	2.2
423.17	2.17
423.377	2.3
423.585	2.26
423.792	2.32
423.999	2.37
424.207	2.33
424.414	2.49
424.621	2.36
424.829	2.33
425.036	2.36
425.243	2.63
425.451	2.48
425.658	2.36
425.865	2.59
426.072	2.59
426.28	2.81
426.487	2.78
426.694	2.82
426.901	2.52
427.108	2.53
427.315	2.08
427.523	2.35
427.73	2.36
427.937	2.44
428.144	2.27
428.351	2.46
428.558	2.36
428.765	2.41
428.972	2.31
429.179	2.44
429.386	2.71
429.593	2.53
429.8	2.46
430.007	2.58
430.214	2.67
430.421	2.31
430.628	2.21
430.835	2.21
431.042	2.34
431.249	2.32
431.456	2.4
431.662	2.61
431.869	2.71
432.076	2.75
432.283	2.86
432.49	2.81
432.697	2.81
432.903	2.55
433.11	2.47
433.317	2.4
433.524	2.6
433.73	2.51
433.937	2.84
434.144	2.75
434.35	2.68
434.557	2.45
434.764	2.51
434.97	2.45
435.177	2.69
435.384	2.63
435.59	2.77
435.797	2.89
436.003	2.99
436.21	2.81
436.416	3.03
436.623	3.1
436.829	3.13
437.036	3.08
437.242	3.1
437.449	2.97
437.655	2.92
437.862	2.92
438.068	2.89
438.275	3.05
438.481	3.16
438.687	3.16
438.894	3.15
439.1	3.17
439.307	3.31
439.513	3.21
439.719	3.14
439.926	3.17
440.132	3.12
440.338	2.86
440.544	3.05
440.751	3.12
440.957	3.17
441.163	3.23
441.369	3.39
441.575	3.13
441.782	3.03
441.988	2.82
442.194	2.8
442.4	2.71
442.606	3.01
442.812	3.1
443.018	3.31
443.224	3.33
443.431	3.42
443.637	3.19
443.843	3.16
444.049	3.05
444.255	2.97
444.461	2.97
444.667	3.02
444.873	3.13
445.079	3.17
445.284	3.32
445.49	3.11
445.696	2.94
445.902	2.85
446.108	2.82
446.314	2.73
446.52	2.83
446.726	3.11
446.931	3.18
447.137	3.24
447.343	3.27
447.549	3.24
447.755	3.14
447.96	3.19
448.166	3.15
448.372	3.14
448.578	3.19
448.783	3.19
448.989	3.19
449.195	3.34
449.4	3.33
449.606	3.31
449.812	3.3
450.017	3.34
450.223	3.18
450.428	3.15
450.634	3.28
450.84	3.38
451.045	3.26
451.251	3.26
451.456	3.46
451.662	3.51
451.867	3.52
452.073	3.58
452.278	3.77
452.483	3.84
452.689	3.76
452.894	3.77
453.1	3.73
453.305	3.66
453.51	3.43
453.716	3.36
453.921	3.4
454.127	3.39
454.332	3.25
454.537	3.31
454.742	3.32
454.948	3.19
455.153	3.24
455.358	3.35
455.563	3.52
455.769	3.65
455.974	3.69
456.179	3.59
456.384	3.6
456.589	3.44
456.795	3.24
457	3.15
457.205	3.36
457.41	3.35
457.615	3.33
457.82	3.5
458.025	3.53
458.23	3.44
458.435	3.46
458.64	3.4
458.845	3.45
459.05	3.5
459.255	3.51
459.46	3.48
459.665	3.5
459.87	3.45
460.075	3.38
460.28	3.38
460.485	3.49
460.69	3.51
460.895	3.4
461.099	3.36
461.304	3.52
461.509	3.42
461.714	3.36
461.919	3.57
