Data from Ofra_1a_PS_1GT42_Reflection_2.txt Node
Date: Tue Jul 20 10:45:21 EDT 2021
User: Adam
Spectrometer: FLMT01687
Trigger mode: 0
Integration Time (sec): 1.004000E0
Scans to average: 2
Electric dark correction enabled: true
Nonlinearity correction enabled: false
Boxcar width: 2
XAxis mode: Wavelengths
Number of Pixels in Spectrum: 3648
>>>>>Begin Spectral Data<<<<<
179.494	-192.39
179.716	-232.06
179.937	449.16
180.158	-121.66
180.38	20.12
180.601	-2.37
180.823	-91.57
181.044	-134.28
181.265	-106.21
181.486	98.77
181.708	70.73
181.929	6427.27
182.15	-81.1
182.372	702.96
182.593	357.38
182.814	-118
183.035	6.19
183.257	57.22
183.478	51.21
183.699	4.44
183.92	-24.96
184.141	-31.06
184.363	-42.95
184.584	-72.71
184.805	-6.98
185.026	6.46
185.247	-14.02
185.468	-48.62
185.689	-38.3
185.91	-68.88
186.132	-46.44
186.353	-26.49
186.574	-22.25
186.795	-12.79
187.016	12.52
187.237	4.54
187.458	-5.3
187.679	-5.98
187.9	7.23
188.121	-0.31
188.342	13.7
188.563	69.8
188.784	59.62
189.005	58.14
189.226	38.3
189.447	42.47
189.667	13.13
189.888	6.95
190.109	-5.43
190.33	20.02
190.551	14.76
190.772	50.79
190.993	60.07
191.214	77.94
191.434	81.13
191.655	91.09
191.876	58.13
192.097	78.19
192.318	45.29
192.538	7.16
192.759	-9.28
192.98	3.45
193.201	-7.24
193.421	7.4
193.642	27.07
193.863	43.32
194.083	27.9
194.304	38.66
194.525	42.54
194.745	34.58
194.966	34.31
195.187	36.21
195.407	26.16
195.628	20.05
195.848	5.62
196.069	-14.65
196.29	-9.83
196.51	0.02
196.731	3.17
196.951	19.58
197.172	26.37
197.392	9.3
197.613	31.95
197.833	21.14
198.054	8.17
198.274	4.37
198.495	18.53
198.715	4.55
198.936	24.1
199.156	43.07
199.377	41.66
199.597	39.77
199.817	39.24
200.038	1.74
200.258	12.93
200.479	26.49
200.699	6.92
200.919	-0.48
201.14	21.73
201.36	10.06
201.58	-24.46
201.801	-13.76
202.021	9.64
202.241	-9.87
202.461	10.43
202.682	42.24
202.902	49.28
203.122	45.95
203.342	38.77
203.563	16.01
203.783	1.59
204.003	-24.92
204.223	-26.45
204.443	-9.31
204.663	-29.45
204.884	-32.19
205.104	-32.64
205.324	-10.53
205.544	-68.53
205.764	-14.41
205.984	0.02
206.204	16.28
206.424	-25.18
206.644	-20.76
206.864	-59.11
207.084	-17.4
207.304	-35.63
207.525	-10.71
207.745	15.73
207.964	28.58
208.184	20.55
208.404	19.34
208.624	18.08
208.844	2.71
209.064	-3.57
209.284	-24.79
209.504	-38.71
209.724	-38.66
209.944	-20.33
210.164	-17.19
210.384	7.73
210.604	-9.73
210.823	-13.53
211.043	-22.33
211.263	-98.91
211.483	-77.01
211.703	-45.75
211.922	-57.96
212.142	-31.91
212.362	12.03
212.582	23.01
212.801	37.63
213.021	12.96
213.241	-11.2
213.461	-13.53
213.68	-11.22
213.9	-15.72
214.12	-1.63
214.339	1.37
214.559	6.41
214.779	-15.82
214.998	-22.47
215.218	-7.02
215.438	4.09
215.657	-9.89
215.877	4.95
216.096	35.81
216.316	34.81
216.535	16.52
216.755	20.84
216.974	19.5
217.194	-7.82
217.413	-7.36
217.633	3.28
217.852	-2.22
218.072	5.07
218.291	3.78
218.511	3.86
218.73	1.51
218.95	22.88
219.169	24.79
219.389	16.77
219.608	-1.03
219.827	7.55
220.047	10.01
220.266	-10.88
220.485	-0.28
220.705	12.63
220.924	4.85
221.143	11.42
221.363	18.18
221.582	18.74
221.801	20.14
222.021	23.03
222.24	21.13
222.459	37.09
222.678	27.92
222.897	25.74
223.117	28.39
223.336	25.6
223.555	17.62
223.774	24.48
223.993	32.49
224.213	26.44
224.432	13.93
224.651	-6.17
224.87	-2.01
225.089	0.38
225.308	0.74
225.527	-5.05
225.746	-12.02
225.965	-8.57
226.184	-41.33
226.404	-40.26
226.623	-12.89
226.842	3.91
227.061	-5.27
227.28	23.41
227.499	24.39
227.718	21.59
227.936	14.92
228.155	15.13
228.374	10.12
228.593	25.5
228.812	22.87
229.031	40.9
229.25	35.67
229.469	21.89
229.688	15.17
229.907	11.38
230.125	-2.16
230.344	8.45
230.563	27.01
230.782	36.68
231.001	49.55
231.22	56.05
231.438	52.53
231.657	42.1
231.876	26.45
232.095	18.71
232.313	19.53
232.532	18.79
232.751	-3.44
232.969	1.97
233.188	-7.54
233.407	-3.5
233.625	-1.56
233.844	15.14
234.063	16.31
234.281	18.36
234.5	1.7
234.719	-4.17
234.937	-14.68
235.156	-35.55
235.374	-13.15
235.593	15.12
235.811	29.04
236.03	26.03
236.249	37.54
236.467	40.76
236.686	30.59
236.904	38.95
237.123	34.94
237.341	24.91
237.559	-10.23
237.778	19.65
237.996	-10.76
238.215	-36
238.433	-50.88
238.652	12.07
238.87	-12.26
239.088	-11.98
239.307	0.82
239.525	-3.53
239.743	-16.5
239.962	-20.77
240.18	-23.9
240.398	-8.4
240.617	4.47
240.835	17.55
241.053	32.11
241.271	55.97
241.49	41.68
241.708	36.75
241.926	28.74
242.144	18.81
242.363	1.94
242.581	-42.93
242.799	-63.46
243.017	-35.08
243.235	-21.14
243.453	-34.3
243.672	-10.22
243.89	6.92
244.108	7.21
244.326	18.96
244.544	35.26
244.762	26.97
244.98	32.01
245.198	32.97
245.416	24.15
245.634	18.88
245.852	6.34
246.07	4.74
246.288	8.24
246.506	7.62
246.724	9.09
246.942	29.79
247.16	36.76
247.378	52.85
247.596	85.51
247.814	80.79
248.032	76.7
248.25	64.2
248.468	47.5
248.685	33.39
248.903	33.43
249.121	26.99
249.339	29.35
249.557	27.84
249.775	32.7
249.992	32.04
250.21	28.72
250.428	33.19
250.646	30.79
250.863	21.3
251.081	28.15
251.299	33.58
251.517	25.25
251.734	21.65
251.952	21.23
252.17	20.54
252.387	21.29
252.605	14.33
252.823	0.8
253.04	-3.64
253.258	-11.09
253.475	-10.04
253.693	-5.3
253.911	1.96
254.128	15.73
254.346	19.58
254.563	16.76
254.781	12.95
254.998	26.63
255.216	-5.71
255.433	-23.99
255.651	-3.99
255.868	4.13
256.086	5.5
256.303	30.57
256.521	40.34
256.738	29.83
256.956	13.35
257.173	5.19
257.39	-11.15
257.608	-13.27
257.825	-4.23
258.043	4.72
258.26	2.21
258.477	4.47
258.695	-0.27
258.912	-19.25
259.129	-33.59
259.346	-54.44
259.564	-48.68
259.781	-27.84
259.998	-1.3
260.216	23.95
260.433	24.82
260.65	20.01
260.867	11.1
261.084	11.49
261.302	-22.25
261.519	-8.95
261.736	-6.76
261.953	2.44
262.17	3.85
262.387	6.18
262.604	14.92
262.822	24.98
263.039	29.37
263.256	34.95
263.473	33.54
263.69	25.37
263.907	34.77
264.124	27.86
264.341	36.74
264.558	40.17
264.775	31.91
264.992	26.9
265.209	23.91
265.426	11.32
265.643	15.9
265.86	15.87
266.077	-17.69
266.294	-3.93
266.51	7.08
266.727	-3.87
266.944	14.94
267.161	19.44
267.378	20.95
267.595	5.59
267.812	4.05
268.028	-12.27
268.245	5.77
268.462	4.14
268.679	20.81
268.896	43.04
269.112	38.63
269.329	4.47
269.546	30.73
269.763	25.69
269.979	4.83
270.196	25.37
270.413	35.52
270.629	6.7
270.846	-0.91
271.063	3.75
271.279	-14.35
271.496	-13.07
271.712	-6.23
271.929	0.34
272.146	-11.31
272.362	-1.63
272.579	-4.19
272.795	-5.4
273.012	3.31
273.228	29.02
273.445	26.57
273.661	28.41
273.878	21.55
274.094	7.79
274.311	-17.3
274.527	-31.39
274.744	-9.2
274.96	5.99
275.177	-1.98
275.393	29.04
275.609	41.78
275.826	33.05
276.042	25.41
276.259	32.44
276.475	6.87
276.691	-11.63
276.908	-18.63
277.124	-14.58
277.34	-15.74
277.557	-34.94
277.773	-28.41
277.989	-4.82
278.205	-7.94
278.422	-16.29
278.638	6.96
278.854	-0.3
279.07	4.13
279.286	3.97
279.503	24.76
279.719	32.83
279.935	28.08
280.151	26.73
280.367	38.34
280.583	33.29
280.799	10.47
281.016	-14.64
281.232	1.04
281.448	-15.11
281.664	-17.4
281.88	14.25
282.096	29.13
282.312	16.76
282.528	23.94
282.744	28.03
282.96	-3.65
283.176	-15.66
283.392	-28.97
283.608	-33.2
283.824	-43.73
284.04	-47.28
284.256	-34.78
284.471	-12.65
284.687	-6.97
284.903	-4.51
285.119	9.77
285.335	21.35
285.551	12.16
285.767	5.79
285.982	16.33
286.198	-12.37
286.414	-38.98
286.63	-39.25
286.846	-55.89
287.061	-38.3
287.277	-37.66
287.493	-11.09
287.709	-18.82
287.924	16.2
288.14	10.26
288.356	29.28
288.571	29.18
288.787	17.86
289.003	16.25
289.218	1.23
289.434	9.7
289.65	18.41
289.865	39.92
290.081	31.83
290.296	37.83
290.512	26.61
290.727	8.65
290.943	0.37
291.159	4.17
291.374	-3.08
291.59	2.11
291.805	6.1
292.021	6.19
292.236	-1.28
292.451	11.16
292.667	8.29
292.882	14.18
293.098	7.75
293.313	7.16
293.529	4.26
293.744	-4.06
293.959	-7.42
294.175	3.64
294.39	-1.53
294.605	-1.22
294.821	8.65
295.036	9.09
295.251	14.83
295.467	7.28
295.682	4.56
295.897	-13.78
296.112	-20.05
296.328	-19.37
296.543	-26.7
296.758	-21.16
296.973	-10.28
297.188	-16.68
297.404	-43.84
297.619	-34.69
297.834	-67.61
298.049	-43.51
298.264	-27.49
298.479	-17.49
298.694	18.1
298.909	26.06
299.125	30.9
299.34	32.3
299.555	36.42
299.77	33.25
299.985	25.04
300.2	18.6
300.415	12.31
300.63	5.55
300.845	-15.17
301.06	1.48
301.275	4.85
301.49	7.03
301.704	18.1
301.919	14.43
302.134	1.07
302.349	-1.68
302.564	7.57
302.779	-6.53
302.994	19.17
303.209	28.88
303.423	30.4
303.638	21
303.853	7.33
304.068	-23.61
304.283	-18.44
304.497	-40.37
304.712	-9.43
304.927	5.84
305.142	19.23
305.356	20.56
305.571	39.03
305.786	40.61
306	55.72
306.215	54.3
306.43	45.91
306.644	11.98
306.859	-25.99
307.074	-16.68
307.288	-21.08
307.503	-9.75
307.717	4.74
307.932	24.46
308.147	25.81
308.361	36.47
308.576	23.67
308.79	19.46
309.005	-3.2
309.219	-2.35
309.434	-1.88
309.648	4.7
309.863	14
310.077	28.84
310.292	32.1
310.506	8.56
310.72	12.64
310.935	15.99
311.149	20.01
311.364	19.17
311.578	34.88
311.792	34.57
312.007	28.76
312.221	20.27
312.435	12.54
312.649	17.45
312.864	16.84
313.078	16.99
313.292	3.92
313.507	6.95
313.721	3.94
313.935	-2.4
314.149	3.6
314.363	25.76
314.578	24.79
314.792	6.04
315.006	1.44
315.22	7.59
315.434	4.03
315.648	-13.11
315.862	-10.32
316.077	-7.87
316.291	-13.72
316.505	-34.55
316.719	0.65
316.933	16.03
317.147	8.47
317.361	3.23
317.575	4.46
317.789	-9.83
318.003	-17.93
318.217	-8.77
318.431	-11.43
318.645	-3.28
318.859	2.27
319.073	17.06
319.287	12.75
319.5	12.36
319.714	9.2
319.928	17.2
320.142	18.95
320.356	38.9
320.57	20.01
320.784	39.34
320.997	28.7
321.211	33.52
321.425	14.33
321.639	42.38
321.853	31.99
322.066	19.41
322.28	-1.48
322.494	12.4
322.707	11.92
322.921	6.64
323.135	13.86
323.349	10.24
323.562	5.91
323.776	0.64
323.989	11.82
324.203	-2.39
324.417	1.4
324.63	-18.12
324.844	-36.88
325.057	-56.79
325.271	-37.45
325.485	-61.68
325.698	-36.27
325.912	-4.99
326.125	-19.26
326.339	1.75
326.552	17.43
326.766	6.74
326.979	2.04
327.193	13.31
327.406	-3.2
327.619	-3.45
327.833	7.12
328.046	8.59
328.26	3.39
328.473	12.25
328.686	12.64
328.9	9.46
329.113	4.39
329.326	17.01
329.54	14.46
329.753	18.87
329.966	23.53
330.179	12.9
330.393	5.45
330.606	1.84
330.819	-8.05
331.032	-3.04
331.246	22.22
331.459	32.66
331.672	19.88
331.885	16.16
332.098	8.8
332.311	-28.34
332.525	-15.16
332.738	1.76
332.951	-13.59
333.164	-7.49
333.377	12.76
333.59	-4.14
333.803	-6.09
334.016	21.75
334.229	24.93
334.442	30.25
334.655	36.15
334.868	19.79
335.081	16.09
335.294	15.37
335.507	15.8
335.72	12.76
335.933	22.27
336.146	12.13
336.359	21.82
336.572	25.11
336.785	27.77
336.997	22.34
337.21	33.64
337.423	12.71
337.636	-12.87
337.849	-16.07
338.062	-1.83
338.274	5.9
338.487	-6.18
338.7	2.61
338.913	14.55
339.125	-6.29
339.338	-22.48
339.551	-8.35
339.763	-29.48
339.976	-40.35
340.189	-30.78
340.402	-14.5
340.614	-9.25
340.827	18.66
341.039	18.46
341.252	15.31
341.465	-2.46
341.677	-0.65
341.89	-10.33
342.102	5.48
342.315	5
342.527	10.93
342.74	-11
342.952	-11.42
343.165	-15.68
343.377	-5.76
343.59	1.14
343.802	8.08
344.015	3.67
344.227	3.46
344.44	0.16
344.652	0.44
344.864	10.42
345.077	22.72
345.289	26.74
345.502	30.63
345.714	28.58
345.926	19.15
346.139	0.21
346.351	-11.85
346.563	-3.53
346.775	-4.48
346.988	16.37
347.2	25.34
347.412	32.86
347.624	17.18
347.837	18.27
348.049	3.75
348.261	-11.54
348.473	-20.67
348.685	-19.82
348.897	-29.69
349.11	-23.71
349.322	-9.12
349.534	-17.65
349.746	-13.16
349.958	-10.84
350.17	-21.94
350.382	-8.4
350.594	1.88
350.806	15.78
351.018	20.12
351.23	32.62
351.442	31.24
351.654	30.85
351.866	24.79
352.078	39.31
352.29	37.58
352.502	31.74
352.714	36.44
352.926	40.24
353.138	33.04
353.35	24.56
353.561	28.69
353.773	20.69
353.985	25.51
354.197	13.96
354.409	13.2
354.621	6.09
354.832	7.6
355.044	-11.1
355.256	-5.67
355.468	-12.74
355.679	10.68
355.891	18.82
356.103	14.46
356.314	12.1
356.526	6.86
356.738	-5.9
356.949	-13.25
357.161	7.29
357.373	6.79
357.584	29.87
357.796	30.67
358.008	29.15
358.219	25.13
358.431	18.14
358.642	4.45
358.854	4.08
359.065	-10.83
359.277	-9.23
359.488	-12.73
359.7	-15.43
359.911	-25.61
360.123	-2.93
360.334	-9.71
360.546	-9.63
360.757	-5.43
360.969	3.14
361.18	-5.07
361.391	2.94
361.603	1.69
361.814	-7.22
362.025	6.19
362.237	11.73
362.448	8.07
362.659	12.28
362.871	7.03
363.082	-9.06
363.293	-13.16
363.504	-9.05
363.716	-9.81
363.927	17.37
364.138	20.84
364.349	4.81
364.56	3.5
364.772	5.54
364.983	4.41
365.194	3.52
365.405	11.23
365.616	23.54
365.827	18.98
366.038	14.32
366.25	18.15
366.461	22.17
366.672	7.22
366.883	3.04
367.094	0.9
367.305	-3.25
367.516	-1.5
367.727	7.16
367.938	15.2
368.149	4.84
368.36	10.24
368.571	-19.8
368.781	-23.34
368.992	-17.59
369.203	-4.55
369.414	-15.5
369.625	10.36
369.836	31.55
370.047	33.67
370.258	38.41
370.468	35.64
370.679	23.96
370.89	3.65
371.101	12.04
371.312	3.96
371.522	10.33
371.733	12.13
371.944	0.01
372.155	-2.36
372.365	-2.21
372.576	-2.28
372.787	11.26
372.997	11.96
373.208	9.61
373.419	9.13
373.629	2.9
373.84	-8.62
374.05	-8.3
374.261	-26.92
374.472	-22.82
374.682	1.98
374.893	0.01
375.103	19.43
375.314	34.59
375.524	34.51
375.735	22.49
375.945	27.64
376.156	18.74
376.366	8.29
376.577	14.83
376.787	13.77
376.997	15.21
377.208	8.36
377.418	11.11
377.629	5.31
377.839	8.64
378.049	6.7
378.26	8.18
378.47	1.74
378.68	4.46
378.89	1.22
379.101	3.78
379.311	5.98
379.521	5.65
379.732	10.14
379.942	9.9
380.152	-5.01
380.362	-0.63
380.572	12.08
380.783	12.17
380.993	6.98
381.203	8.2
381.413	10.97
381.623	4.86
381.833	3.35
382.043	4.31
382.253	7.41
382.463	10.35
382.674	13.49
382.884	22.56
383.094	28.76
383.304	32.92
383.514	30.92
383.724	29.87
383.934	12.95
384.144	9.25
384.353	12.36
384.563	6.66
384.773	11.98
384.983	14.65
385.193	8.93
385.403	5.17
385.613	7.31
385.823	0.37
386.033	0.72
386.242	-0.55
386.452	-5.13
386.662	-1.49
386.872	0.07
387.082	-1.19
387.291	1.64
387.501	2.63
387.711	3.18
387.921	2.71
388.13	8.32
388.34	7.99
388.55	6.74
388.759	-1.47
388.969	-2.42
389.179	-4.73
389.388	-5.26
389.598	-5.52
389.807	-6.07
390.017	-5.97
390.227	-8.5
390.436	-6.87
390.646	-9.05
390.855	-4.17
391.065	-2.71
391.274	-1.5
391.484	-2.04
391.693	1.85
391.903	0.53
392.112	-0.61
392.322	-1.31
392.531	-2.81
392.74	-3.41
392.95	-2.96
393.159	-2.21
393.369	-0.3
393.578	1.71
393.787	2.6
393.997	3.94
394.206	4.5
394.415	3.97
394.625	2.78
394.834	1.69
395.043	1.13
395.252	1.8
395.462	2.06
395.671	2.35
395.88	3.51
396.089	2.85
396.298	2.22
396.508	2.78
396.717	3.15
396.926	2.7
397.135	3.27
397.344	3.03
397.553	2.71
397.762	3.39
397.971	2.97
398.181	2.78
398.39	2.15
398.599	2.23
398.808	2.17
399.017	3.23
399.226	3.1
399.435	3.42
399.644	3.5
399.853	3.06
400.062	2.49
400.27	2.15
400.479	2.18
400.688	1.85
400.897	1.96
401.106	2.24
401.315	2.57
401.524	2.69
401.733	2.9
401.941	3.26
402.15	2.94
402.359	3.11
402.568	3.35
402.777	3.47
402.985	2.85
403.194	2.73
403.403	2.78
403.612	2.4
403.82	1.98
404.029	2.08
404.238	2.27
404.446	2.14
404.655	2.37
404.864	2.65
405.072	2.81
405.281	2.84
405.489	2.95
405.698	2.96
405.906	3.04
406.115	2.84
406.324	2.7
406.532	2.65
406.741	2.62
406.949	2.57
407.158	2.77
407.366	2.67
407.574	2.66
407.783	2.72
407.991	2.58
408.2	2.68
408.408	2.87
408.617	2.82
408.825	2.62
409.033	2.69
409.242	2.64
409.45	2.52
409.658	2.55
409.867	2.69
410.075	2.65
410.283	2.52
410.491	2.48
410.7	2.45
410.908	2.46
411.116	2.43
411.324	2.42
411.533	2.51
411.741	2.51
411.949	2.36
412.157	2.37
412.365	2.41
412.573	2.36
412.781	2.31
412.99	2.42
413.198	2.5
413.406	2.56
413.614	2.68
413.822	2.82
414.03	2.85
414.238	2.84
414.446	2.78
414.654	2.7
414.862	2.61
415.07	2.55
415.278	2.55
415.486	2.4
415.694	2.32
415.902	2.26
416.109	2.22
416.317	2.08
416.525	2.05
416.733	1.98
416.941	2.11
417.149	2.08
417.357	2.17
417.564	2.23
417.772	2.49
417.98	2.38
418.188	2.42
418.395	2.27
418.603	2.17
418.811	1.96
419.019	1.95
419.226	1.95
419.434	2.03
419.642	2.09
419.849	2.15
420.057	2.11
420.265	2.01
420.472	2.04
420.68	2.08
420.887	2.11
421.095	2.16
421.302	2.22
421.51	2.09
421.717	2.22
421.925	2.18
422.132	2.19
422.34	2.02
422.547	2.1
422.755	2.07
422.962	2.17
423.17	1.97
423.377	2.18
423.585	2.34
423.792	2.38
423.999	2.31
424.207	2.33
424.414	2.3
424.621	2.1
424.829	2.06
425.036	2.03
425.243	2.12
425.451	2.13
425.658	2.28
425.865	2.27
426.072	2.28
426.28	2.36
426.487	2.29
426.694	2.14
426.901	2.26
427.108	2.27
427.315	2.22
427.523	2.19
427.73	2.32
427.937	1.99
428.144	2.04
428.351	1.95
428.558	2.21
428.765	2.07
428.972	2.21
429.179	2.04
429.386	2.18
429.593	1.86
429.8	1.92
430.007	1.98
430.214	2.04
430.421	2.04
430.628	2.13
430.835	2.13
431.042	2
431.249	1.95
431.456	1.89
431.662	1.92
431.869	2.18
432.076	2.33
432.283	2.54
432.49	2.59
432.697	2.69
432.903	2.55
433.11	2.58
433.317	2.54
433.524	2.58
433.73	2.49
433.937	2.61
434.144	2.58
434.35	2.59
434.557	2.61
434.764	2.64
434.97	2.51
435.177	2.57
435.384	2.58
435.59	2.58
435.797	2.65
436.003	2.76
436.21	2.74
436.416	2.75
436.623	2.86
436.829	2.71
437.036	2.65
437.242	2.67
437.449	2.64
437.655	2.66
437.862	2.83
438.068	2.81
438.275	2.88
438.481	2.9
438.687	2.74
438.894	2.81
439.1	2.77
439.307	2.81
439.513	2.91
439.719	3.08
439.926	2.93
440.132	3.07
440.338	3
440.544	2.85
440.751	2.75
440.957	2.84
441.163	2.71
441.369	2.76
441.575	2.82
441.782	2.92
441.988	2.94
442.194	3
442.4	2.94
442.606	3.06
442.812	3.02
443.018	3.03
443.224	3.08
443.431	3.07
443.637	2.94
443.843	2.99
444.049	3.06
444.255	3.17
444.461	3.19
444.667	3.26
444.873	3.3
445.079	3.28
445.284	3.21
445.49	3.22
445.696	3.17
445.902	3.02
446.108	3.01
446.314	3
446.52	3.11
446.726	3.17
446.931	3.27
447.137	3.3
447.343	3.4
447.549	3.41
447.755	3.4
447.96	3.52
448.166	3.54
448.372	3.45
448.578	3.41
448.783	3.52
448.989	3.45
449.195	3.38
449.4	3.47
449.606	3.41
449.812	3.34
450.017	3.36
450.223	3.41
450.428	3.41
450.634	3.41
450.84	3.38
451.045	3.48
451.251	3.48
451.456	3.48
451.662	3.53
451.867	3.54
452.073	3.47
452.278	3.44
452.483	3.4
452.689	3.42
452.894	3.6
453.1	3.64
453.305	3.71
453.51	3.78
453.716	3.75
453.921	3.74
454.127	3.69
454.332	3.69
454.537	3.66
454.742	3.72
454.948	3.65
455.153	3.63
455.358	3.62
455.563	3.67
455.769	3.67
455.974	3.65
456.179	3.66
456.384	3.68
456.589	3.68
456.795	3.66
457	3.58
457.205	3.54
457.41	3.52
457.615	3.44
457.82	3.58
458.025	3.69
458.23	3.75
458.435	3.8
458.64	3.87
458.845	3.82
459.05	3.84
459.255	3.84
459.46	3.77
459.665	3.81
459.87	3.75
460.075	3.81
460.28	3.87
460.485	3.95
460.69	3.86
460.895	3.93
461.099	3.79
461.304	3.68
461.509	3.7
461.714	3.86
461.919	3.82
462.123	3.91
462.328	3.92
462.533	3.85
462.738	3.7
462.942	3.67
463.147	3.68
463.352	3.79
463.556	3.88
463.761	3.96
463.966	4
464.17	4.12
464.375	4.14
464.58	4.09
464.784	4.14
464.989	4.1
465.193	4.02
465.398	4.05
465.602	4.15
465.807	4.11
466.011	4.15
466.216	4.12
466.42	4.17
466.625	4.24
466.829	4.27
467.034	4.39
467.238	4.49
467.443	4.42
467.647	4.31
467.851	4.3
468.056	4.34
468.26	4.27
