Data from Ofra_PS_T2_2A_9CX05_Reflection_2.txt Node
Date: Wed Jul 21 17:25:37 EDT 2021
User: Adam
Spectrometer: FLMT01687
Trigger mode: 0
Integration Time (sec): 1.100000E0
Scans to average: 2
Electric dark correction enabled: true
Nonlinearity correction enabled: false
Boxcar width: 2
XAxis mode: Wavelengths
Number of Pixels in Spectrum: 3648
>>>>>Begin Spectral Data<<<<<
179.494	598.6
179.716	661.18
179.937	662.35
180.158	705.81
180.38	1138.28
180.601	530.52
180.823	185.74
181.044	32.82
181.265	24.45
181.486	3.28
181.708	71.42
181.929	557.65
182.15	-59.51
182.372	198.56
182.593	15.59
182.814	56.24
183.035	120.48
183.257	61.79
183.478	-60.69
183.699	-39.49
183.92	-40.97
184.141	-47.77
184.363	-114.82
184.584	-49.52
184.805	-2.18
185.026	12.87
185.247	24.1
185.468	13.04
185.689	27.48
185.91	24.07
186.132	28.1
186.353	31.39
186.574	80.68
186.795	48.86
187.016	24.35
187.237	-7.87
187.458	-42.77
187.679	-20.62
187.9	11.49
188.121	9.43
188.342	46.59
188.563	57.65
188.784	97.53
189.005	67.34
189.226	98.41
189.447	76.64
189.667	-1.58
189.888	-297.17
190.109	-1013.31
190.33	-596.29
190.551	-1125.88
190.772	-281.9
190.993	-208.41
191.214	-191.32
191.434	-106.59
191.655	2.91
191.876	-27.22
192.097	-79.76
192.318	-105.17
192.538	-176.03
192.759	-173.88
192.98	-76.77
193.201	-35.18
193.421	-28.72
193.642	5.45
193.863	18.06
194.083	4.47
194.304	-0.4
194.525	5.47
194.745	-40.33
194.966	-89.3
195.187	-85.58
195.407	-154.56
195.628	-192.8
195.848	-132.29
196.069	-86.54
196.29	-33.81
196.51	-18.05
196.731	-19.26
196.951	-54.84
197.172	-81.45
197.392	-119.88
197.613	-125.47
197.833	-159.93
198.054	-129.83
198.274	-65.38
198.495	-84.72
198.715	-48.57
198.936	-81.36
199.156	-80.36
199.377	-224.94
199.597	-188.72
199.817	-185.76
200.038	-85
200.258	-129.17
200.479	-35.02
200.699	-54.64
200.919	-13.18
201.14	-58.92
201.36	-90.82
201.58	-9.58
201.801	28.05
202.021	-9.32
202.241	1.39
202.461	19.07
202.682	-90.56
202.902	-162.8
203.122	-84.75
203.342	-68.56
203.563	-43.66
203.783	-1.04
204.003	-28.76
204.223	-39.05
204.443	29.63
204.663	7.8
204.884	31.59
205.104	62.01
205.324	69.45
205.544	37.35
205.764	53.24
205.984	41.36
206.204	37.79
206.424	24.63
206.644	-6.45
206.864	33.52
207.084	15.99
207.304	36.52
207.525	34.61
207.745	37.1
207.964	10.35
208.184	-48.05
208.404	-96.04
208.624	-88.31
208.844	-93.12
209.064	-407.2
209.284	-425.97
209.504	-194.79
209.724	-56.91
209.944	-30.98
210.164	19.6
210.384	38.97
210.604	15.73
210.823	-24.32
211.043	-61.34
211.263	-56.77
211.483	-72.49
211.703	-113.71
211.922	-121.56
212.142	-20.5
212.362	-11.18
212.582	-2.3
212.801	4.79
213.021	3.83
213.241	-35.79
213.461	-90.39
213.68	-119.51
213.9	-82.34
214.12	-65.12
214.339	-142.65
214.559	-101.22
214.779	-35.16
214.998	-33.68
215.218	-73.99
215.438	-20.84
215.657	-46.33
215.877	-54.82
216.096	-28.67
216.316	10.57
216.535	-4.24
216.755	15.22
216.974	-40.09
217.194	-77.57
217.413	-133.8
217.633	-144.54
217.852	-309.84
218.072	-153.75
218.291	-106.46
218.511	-54.3
218.73	-76.93
218.95	-44.39
219.169	-33.68
219.389	-68.7
219.608	-57.56
219.827	-42.43
220.047	-18.59
220.266	-22.94
220.485	-13.04
220.705	-26.3
220.924	-35.63
221.143	5.42
221.363	-16.22
221.582	-21.11
221.801	11.26
222.021	34.24
222.24	-55.34
222.459	6.15
222.678	19.46
222.897	-80.26
223.117	-146.21
223.336	-70.77
223.555	-52.78
223.774	5.67
223.993	19.83
224.213	89.61
224.432	40.02
224.651	36.79
224.87	-6.63
225.089	15.29
225.308	4.02
225.527	30.91
225.746	46.69
225.965	40.09
226.184	12.74
226.404	22.84
226.623	-1.16
226.842	-7.45
227.061	27.27
227.28	33.42
227.499	16.11
227.718	23.6
227.936	28.8
228.155	28.17
228.374	19.43
228.593	25.89
228.812	23.09
229.031	-1.27
229.25	-54.91
229.469	-47.77
229.688	-47.52
229.907	-6.42
230.125	11.97
230.344	20.49
230.563	29.27
230.782	39.94
231.001	-29.03
231.22	-26.38
231.438	18.44
231.657	2.43
231.876	-4.82
232.095	34.13
232.313	29.87
232.532	3.9
232.751	-5.29
232.969	-37.56
233.188	-89.19
233.407	-28.98
233.625	-21.98
233.844	-57.06
234.063	-41.72
234.281	-24.28
234.5	-34.52
234.719	-23.09
234.937	13.81
235.156	35.05
235.374	29.93
235.593	25.62
235.811	25.54
236.03	9.26
236.249	-48.47
236.467	-40.93
236.686	-4.89
236.904	4.75
237.123	-26.21
237.341	-22.57
237.559	-16.84
237.778	-42.44
237.996	-90.17
238.215	-29.61
238.433	-18.85
238.652	-21.54
238.87	-24.79
239.088	-10.17
239.307	-11.57
239.525	-4.64
239.743	-33.23
239.962	-41.14
240.18	-47.5
240.398	-86.48
240.617	-92.88
240.835	-78.82
241.053	-64.08
241.271	-4.25
241.49	13.25
241.708	-10.28
241.926	-23.14
242.144	-17.51
242.363	-104.71
242.581	-118.79
242.799	-70.9
243.017	-18.06
243.235	-22.52
243.453	-0.21
243.672	-10.39
243.89	-5.35
244.108	-32.26
244.326	-9.7
244.544	-10.83
244.762	-13.84
244.98	-7.72
245.198	7.04
245.416	-31.5
245.634	-30.04
245.852	-22.34
246.07	-31.9
246.288	-33.09
246.506	-55.08
246.724	-33.5
246.942	-37.56
247.16	-2.89
247.378	1.09
247.596	44.81
247.814	46.71
248.032	22.59
248.25	-6.78
248.468	-0.01
248.685	-10.88
248.903	16.93
249.121	23.91
249.339	2.41
249.557	-6.59
249.775	-16
249.992	-94.9
250.21	-90.68
250.428	-79.48
250.646	-107.69
250.863	-112.57
251.081	-73.37
251.299	-68.49
251.517	-58.22
251.734	-53.38
251.952	-57.2
252.17	-43.2
252.387	-19.8
252.605	-24.37
252.823	-5.69
253.04	14.37
253.258	39.58
253.475	36.9
253.693	61.36
253.911	52.41
254.128	45.05
254.346	30.88
254.563	-7.73
254.781	-35.88
254.998	-82.48
255.216	-82.55
255.433	-62.15
255.651	-10.09
255.868	36.4
256.086	67.08
256.303	49.67
256.521	17.63
256.738	-11.97
256.956	-49.67
257.173	-65.1
257.39	-68.82
257.608	-75.8
257.825	-12.07
258.043	24.94
258.26	17.31
258.477	65.82
258.695	52.84
258.912	5.51
259.129	5.01
259.346	-26.62
259.564	-92.29
259.781	-109.06
259.998	-51.27
260.216	-35.14
260.433	12.37
260.65	18.16
260.867	41.76
261.084	17.62
261.302	-10.54
261.519	-17.23
261.736	-40.6
261.953	-64.11
262.17	-36.62
262.387	-60.08
262.604	-94.16
262.822	-91.43
263.039	-73.8
263.256	-125.31
263.473	-63.77
263.69	-37.78
263.907	-12.21
264.124	-0.01
264.341	21.17
264.558	7.14
264.775	28.32
264.992	33.34
265.209	18.07
265.426	24.63
265.643	24.6
265.86	13.75
266.077	6.16
266.294	-4.33
266.51	-39.12
266.727	-51.27
266.944	-41.24
267.161	-40.13
267.378	-46.12
267.595	-12.45
267.812	-27.41
268.028	-52.42
268.245	-28.21
268.462	-45.22
268.679	-55.61
268.896	-3.64
269.112	4.34
269.329	-1.71
269.546	21.36
269.763	9.96
269.979	-3.97
270.196	-9.56
270.413	-30.94
270.629	-58.71
270.846	-47.18
271.063	-46.16
271.279	-66.51
271.496	-68.01
271.712	-26.97
271.929	-16.46
272.146	-27.17
272.362	-2.2
272.579	38.66
272.795	33.64
273.012	42
273.228	31
273.445	6.1
273.661	-33.49
273.878	-81.87
274.094	-89.55
274.311	-101.87
274.527	-38.96
274.744	-28.36
274.96	-23.69
275.177	-6.95
275.393	16.53
275.609	11.35
275.826	26.83
276.042	23.97
276.259	1.36
276.475	11.49
276.691	13.53
276.908	-19.87
277.124	-3.21
277.34	3.4
277.557	-23.65
277.773	-31.15
277.989	-19.42
278.205	-26.67
278.422	-21.52
278.638	-8.74
278.854	11.46
279.07	7.79
279.286	-6.79
279.503	-30.84
279.719	-49.6
279.935	-69.91
280.151	-79.79
280.367	-37.91
280.583	-61.5
280.799	-44.38
281.016	-77.38
281.232	-39.27
281.448	-39.01
281.664	-10.16
281.88	-34.11
282.096	-3.5
282.312	28.45
282.528	35.72
282.744	45.64
282.96	45.54
283.176	18.09
283.392	3.77
283.608	-4.67
283.824	-8.73
284.04	-9.77
284.256	11.78
284.471	-6.82
284.687	-21.35
284.903	6.24
285.119	30.99
285.335	-1.77
285.551	16.05
285.767	-0.64
285.982	-31.82
286.198	-77.94
286.414	-3.86
286.63	-5.51
286.846	32.8
287.061	16.44
287.277	43.96
287.493	4.46
287.709	27.47
287.924	0.65
288.14	39.94
288.356	29.63
288.571	53.93
288.787	25.07
289.003	28.02
289.218	-0.75
289.434	-36.31
289.65	-29.33
289.865	-53.82
290.081	-27.04
290.296	-8.61
290.512	-8.14
290.727	-46.83
290.943	-33.02
291.159	-47.14
291.374	-48.24
291.59	-52.24
291.805	-33.91
292.021	-25.89
292.236	-26.49
292.451	-17.28
292.667	-2.7
292.882	-3.84
293.098	0.55
293.313	-36.01
293.529	-77.94
293.744	-100.57
293.959	-81.58
294.175	-73.33
294.39	-19.46
294.605	16.6
294.821	48.96
295.036	46.32
295.251	59.11
295.467	35.95
295.682	16.32
295.897	-49.49
296.112	-55.57
296.328	-57.65
296.543	-81.51
296.758	-59.08
296.973	-7.05
297.188	23.92
297.404	-7.35
297.619	-10.02
297.834	-43.9
298.049	-64.15
298.264	-92.89
298.479	-23.78
298.694	-2.78
298.909	18.88
299.125	12.59
299.34	33.55
299.555	-2.47
299.77	-12.4
299.985	-57.45
300.2	-107.4
300.415	-139.32
300.63	-83.62
300.845	-80.06
301.06	-71.27
301.275	-17.44
301.49	9.57
301.704	-19.8
301.919	-40.35
302.134	-31.96
302.349	-42.59
302.564	-111.22
302.779	-123.99
302.994	-103.02
303.209	-91.66
303.423	-39.38
303.638	20.34
303.853	-0.79
304.068	1.84
304.283	5.94
304.497	-15.16
304.712	-32.91
304.927	-15.45
305.142	-29.32
305.356	-17.51
305.571	-12.64
305.786	-13.14
306	-40.74
306.215	-33.3
306.43	-61.19
306.644	-56.59
306.859	-22.44
307.074	1.71
307.288	-27.35
307.503	-36.79
307.717	-41.41
307.932	-49.87
308.147	-54.86
308.361	-18.62
308.576	-36.17
308.79	-90.71
309.005	-97.85
309.219	-79.14
309.434	-102.28
309.648	-71.57
309.863	-24.87
310.077	-17.98
310.292	-31.2
310.506	-22.65
310.72	-8.52
310.935	-21.37
311.149	-27.54
311.364	-0.81
311.578	16.76
311.792	-3.27
312.007	27.54
312.221	24.54
312.435	24.65
312.649	4.61
312.864	47.95
313.078	42.45
313.292	112.99
313.507	68.54
313.721	105.8
313.935	30.41
314.149	1.33
314.363	-6.91
314.578	-0.95
314.792	-4.46
315.006	-20.89
315.22	-0.76
315.434	-5.84
315.648	1.41
315.862	-1.61
316.077	11.25
316.291	-20.44
316.505	-10.92
316.719	-23.75
316.933	-53.54
317.147	-35.92
317.361	-63.17
317.575	-90.22
317.789	-115.26
318.003	-153.66
318.217	-114.72
318.431	-41.62
318.645	-9.52
318.859	-6.04
319.073	20.77
319.287	-12.08
319.5	-43.59
319.714	-79.12
319.928	-97.82
320.142	-112.37
320.356	-42.99
320.57	4.66
320.784	2.15
320.997	-5.48
321.211	-21.02
321.425	-78.2
321.639	-100.37
321.853	-30.1
322.066	-16.98
322.28	-15.6
322.494	6.5
322.707	21.55
322.921	-1.06
323.135	3.29
323.349	19.73
323.562	-7.65
323.776	-17.25
323.989	-20.16
324.203	-47.18
324.417	-70.65
324.63	-83.58
324.844	-89.08
325.057	-87.11
325.271	-48.11
325.485	-7.18
325.698	21.11
325.912	32.77
326.125	6.84
326.339	-1.37
326.552	-35.75
326.766	-27.18
326.979	-11.24
327.193	31.77
327.406	10.03
327.619	1.44
327.833	4.05
328.046	-27.96
328.26	-67.95
328.473	-25.7
328.686	-43.37
328.9	-45.56
329.113	-18.03
329.326	-41.99
329.54	-44.45
329.753	-49.45
329.966	-88.52
330.179	-65.84
330.393	-19.33
330.606	-17.5
330.819	-1.45
331.032	16.7
331.246	4.74
331.459	25.11
331.672	1.28
331.885	-7.64
332.098	-32.55
332.311	-39.77
332.525	-109.03
332.738	-69.7
332.951	-22.69
333.164	15.78
333.377	23.97
333.59	44.56
333.803	45.75
334.016	22.2
334.229	12
334.442	8.53
334.655	29.28
334.868	24.02
335.081	18.82
335.294	-3.1
335.507	-9.59
335.72	-23.64
335.933	-43.9
336.146	-33.88
336.359	-20.63
336.572	-57.78
336.785	-91.71
336.997	-61.32
337.21	-57.75
337.423	-65.73
337.636	-51.71
337.849	-15.88
338.062	-21.54
338.274	-5.27
338.487	-2.46
338.7	16.69
338.913	-34.94
339.125	-76.15
339.338	-132.04
339.551	-114.26
339.763	-82.83
339.976	-35.22
340.189	5.38
340.402	21.63
340.614	19.86
340.827	4.78
341.039	-15.09
341.252	-3.01
341.465	0.46
341.677	-20.72
341.89	-59.6
342.102	-23.64
342.315	-57.43
342.527	-92.78
342.74	-61.28
342.952	-13.48
343.165	-28.58
343.377	-5.6
343.59	-3.27
343.802	10.83
344.015	12.31
344.227	29.51
344.44	26.69
344.652	35.1
344.864	22.36
345.077	34.73
345.289	35.4
345.502	37.31
345.714	27.37
345.926	33.52
346.139	20.21
346.351	19.5
346.563	28.37
346.775	33.34
346.988	11.06
347.2	-1.28
347.412	-50.23
347.624	-86.17
347.837	-106.63
348.049	-55.88
348.261	-22.37
348.473	9.86
348.685	23.12
348.897	17.97
349.11	-11.66
349.322	-4.86
349.534	0.9
349.746	-6.15
349.958	14.88
350.17	1.12
350.382	3.27
350.594	-3.83
350.806	14.93
351.018	2.21
351.23	16.93
351.442	-27.96
351.654	-32.85
351.866	-51.07
352.078	-51.97
352.29	-41.37
352.502	-22.92
352.714	-11.15
352.926	-23.83
353.138	-19.27
353.35	-18.51
353.561	-19.44
353.773	-34.73
353.985	-14.42
354.197	-23.42
354.409	-31.49
354.621	-26.11
354.832	-22.68
355.044	-37.54
355.256	-33.13
355.468	-13.39
355.679	-24.17
355.891	-18.69
356.103	-27.9
356.314	-7.58
356.526	-6
356.738	5.4
356.949	-6.93
357.161	15.45
357.373	6.75
357.584	-7.53
357.796	-1.39
358.008	-4.53
358.219	0.94
358.431	-2.98
358.642	3.41
358.854	-1.42
359.065	-6.66
359.277	-33.42
359.488	-68.23
359.7	-99.32
359.911	-105.17
360.123	-69.41
360.334	-74.89
360.546	-56.33
360.757	-47.98
360.969	-24.74
361.18	-30.4
361.391	-11.2
361.603	-30.91
361.814	-11.58
362.025	-20.09
362.237	-16.72
362.448	-9.59
362.659	24.86
362.871	20.03
363.082	8.4
363.293	3.38
363.504	-8.71
363.716	-41.79
363.927	-54.66
364.138	-51.59
364.349	-50.97
364.56	-52.26
364.772	-36.97
364.983	-19.61
365.194	-27.03
365.405	-10.34
365.616	7.2
365.827	-1.39
366.038	-21.93
366.25	-19.05
366.461	-60.67
366.672	-38.26
366.883	-11.84
367.094	-2.34
367.305	-12.47
367.516	4.04
367.727	-29.85
367.938	-51.52
368.149	-42.01
368.36	-18.84
368.571	-27.43
368.781	-27.34
368.992	-33.05
369.203	-59.62
369.414	-97.27
369.625	-94.16
369.836	-80.45
370.047	-103.82
370.258	-78.37
370.468	-60.76
370.679	-74.16
370.89	-79.97
371.101	-42.87
371.312	-54.21
371.522	-44.98
371.733	-31.26
371.944	-7.24
372.155	-5.75
372.365	-6.35
372.576	-9.48
372.787	-10.41
372.997	-43.93
373.208	-43.22
373.419	-13.68
373.629	-43.82
373.84	-36.89
374.05	-40.55
374.261	-41.08
374.472	-52.04
374.682	7.65
374.893	11.73
375.103	45.24
375.314	31.83
375.524	20.15
375.735	8.42
375.945	-1.78
376.156	-27.76
376.366	-15.94
376.577	-14.63
376.787	-21.5
376.997	-19.39
377.208	-16.53
377.418	-28.32
377.629	-18.69
377.839	-24.12
378.049	-16.36
378.26	1.89
378.47	7.3
378.68	-1.86
378.89	0.66
379.101	-9.83
379.311	-45.91
379.521	-79.85
379.732	-82.55
379.942	-82.61
380.152	-87.46
380.362	-43.17
380.572	-38.13
380.783	-25.05
380.993	-10.08
381.203	3.2
381.413	0.11
381.623	10.76
381.833	8.73
382.043	-9.09
382.253	-24.94
382.463	-19.31
382.674	-28.43
382.884	-46.85
383.094	-43.36
383.304	-29.18
383.514	-21.76
383.724	-8.15
383.934	-7.8
384.144	-13.43
384.353	-21.94
384.563	-29.99
384.773	-28.89
384.983	-35.75
385.193	-14.97
385.403	-15.29
385.613	-10.63
385.823	-16.51
386.033	-5.01
386.242	-15.22
386.452	-16.29
386.662	-29.18
386.872	-14.21
387.082	-21.88
387.291	-29.81
387.501	-23.12
387.711	-10.17
387.921	-23.48
388.13	-19.76
388.34	-5.72
388.55	-11.59
388.759	-14.15
388.969	-5.22
389.179	-7.28
389.388	-9.16
389.598	-1.34
389.807	-9.49
390.017	-16.12
390.227	-13.64
390.436	-14.11
390.646	-13.56
390.855	-7.32
391.065	-4.3
391.274	-4.59
391.484	-7.16
391.693	-7.37
391.903	-7.03
392.112	-2.66
392.322	0.51
392.531	3.93
392.74	3.58
392.95	0.33
393.159	-2.01
393.369	-3.32
393.578	-3.56
393.787	-3.95
393.997	-2.28
394.206	-3.5
394.415	-3.06
394.625	-3.37
394.834	-5.52
395.043	-4.53
395.252	-2.99
395.462	-0.65
395.671	0.67
395.88	2.09
396.089	2.91
396.298	1.62
396.508	0.41
396.717	-0.85
396.926	-0.29
397.135	-1.12
397.344	-1.02
397.553	-0.36
397.762	0.87
397.971	0.82
398.181	1.19
398.39	0.55
398.599	-0.2
398.808	-0.4
399.017	0.44
399.226	1.73
399.435	3.12
399.644	3.39
399.853	2.58
400.062	2.35
400.27	1.48
400.479	0.82
400.688	0.28
400.897	0.69
401.106	0.43
401.315	0.07
401.524	0.44
401.733	1.43
401.941	2.02
402.15	2.12
402.359	2.11
402.568	2.32
402.777	2.19
402.985	1.73
403.194	1.47
403.403	1.58
403.612	1.1
403.82	0.85
404.029	0.99
404.238	0.94
404.446	1.3
404.655	1.15
404.864	1.1
405.072	1.01
405.281	1.39
405.489	1.04
405.698	1.23
405.906	1.3
406.115	1.29
406.324	1.12
406.532	1.39
406.741	1.73
406.949	1.68
407.158	1.66
407.366	1.64
407.574	1.59
407.783	1.39
407.991	1.24
408.2	1.6
408.408	1.57
408.617	1.42
408.825	1.29
409.033	1.5
409.242	1.36
409.45	1.64
409.658	1.55
409.867	1.69
410.075	1.52
410.283	1.37
410.491	1.18
410.7	1.14
410.908	1.17
411.116	1.53
411.324	1.53
411.533	1.47
411.741	1.77
411.949	1.8
412.157	1.37
412.365	1.34
412.573	1.38
412.781	1.36
412.99	1.24
413.198	1.47
413.406	1.5
413.614	1.51
413.822	1.3
414.03	1.25
414.238	1.02
414.446	1.14
414.654	0.9
414.862	1.07
415.07	1.17
415.278	1.38
415.486	1.15
415.694	1.31
415.902	1.17
416.109	1.03
416.317	1.06
416.525	0.94
416.733	0.94
416.941	1.12
417.149	1.05
417.357	1.09
417.564	1.35
417.772	1.62
417.98	1.5
418.188	1.62
418.395	1.45
418.603	1.61
418.811	1.22
419.019	1.14
419.226	1.32
419.434	1.5
419.642	1.14
419.849	1.29
420.057	1.4
420.265	1.24
420.472	1.01
420.68	1.12
420.887	0.97
421.095	1.1
421.302	1.17
421.51	1.46
421.717	1.53
421.925	1.69
422.132	1.47
422.34	1.18
422.547	1.16
422.755	1.09
422.962	1.02
423.17	0.94
423.377	1.1
423.585	0.93
423.792	0.88
423.999	0.88
424.207	0.98
424.414	1.15
424.621	1.26
424.829	1.27
425.036	1.29
425.243	1.32
425.451	1.07
425.658	0.77
425.865	0.95
426.072	1.01
426.28	1.3
426.487	1.36
426.694	1.58
426.901	1.46
427.108	1.33
427.315	1.04
427.523	1.23
427.73	1.23
427.937	1.17
428.144	1.02
428.351	1.03
428.558	1.16
428.765	1.06
428.972	0.93
429.179	1.18
429.386	1.54
429.593	1.2
429.8	1
430.007	1.26
430.214	1.33
430.421	0.99
430.628	0.86
430.835	0.98
431.042	1.02
431.249	1.03
431.456	1.05
431.662	1.26
431.869	1.47
432.076	1.47
432.283	1.51
432.49	1.57
432.697	1.6
432.903	1.36
433.11	1.24
433.317	1.26
433.524	1.43
433.73	1.32
433.937	1.63
434.144	1.56
434.35	1.51
434.557	1.27
434.764	1.33
434.97	1.19
435.177	1.38
435.384	1.32
435.59	1.47
435.797	1.61
436.003	1.65
436.21	1.67
436.416	1.81
436.623	1.72
436.829	1.74
437.036	1.92
437.242	1.86
437.449	1.76
437.655	1.75
437.862	1.82
438.068	1.57
438.275	1.72
438.481	1.85
438.687	1.76
438.894	1.54
439.1	1.63
439.307	1.83
439.513	1.74
439.719	1.9
439.926	2.14
440.132	2.05
440.338	1.75
440.544	1.89
440.751	1.72
440.957	1.74
441.163	1.66
441.369	1.79
441.575	1.54
441.782	1.64
441.988	1.45
442.194	1.51
442.4	1.45
442.606	1.73
442.812	1.73
443.018	1.86
443.224	1.91
443.431	2.07
443.637	1.88
443.843	1.82
444.049	1.78
444.255	1.68
444.461	1.65
444.667	1.63
444.873	1.83
445.079	1.77
445.284	1.94
445.49	1.64
445.696	1.52
445.902	1.41
446.108	1.37
446.314	1.25
446.52	1.41
446.726	1.67
446.931	1.66
447.137	1.71
447.343	1.84
447.549	1.75
447.755	1.53
447.96	1.62
448.166	1.54
448.372	1.42
448.578	1.49
448.783	1.55
448.989	1.59
449.195	1.77
449.4	1.82
449.606	1.76
449.812	1.73
450.017	1.76
450.223	1.62
450.428	1.47
450.634	1.66
450.84	1.84
451.045	1.69
451.251	1.7
451.456	2.06
451.662	2.1
451.867	2.06
452.073	2.04
452.278	2.14
452.483	2.08
452.689	1.93
452.894	1.95
453.1	1.99
453.305	1.9
453.51	1.88
453.716	1.82
453.921	1.79
454.127	1.74
454.332	1.69
454.537	1.59
454.742	1.66
454.948	1.57
455.153	1.69
455.358	1.83
455.563	2.07
455.769	2.19
455.974	2.21
456.179	2.11
456.384	2.01
456.589	1.82
456.795	1.61
457	1.63
457.205	1.86
457.41	1.92
457.615	1.88
457.82	1.9
458.025	1.94
458.23	1.74
458.435	1.76
458.64	1.73
458.845	1.88
459.05	1.74
