Data from Ofra_PS_T2_2A_9GT30_Reflection_2.txt Node
Date: Wed Jul 21 17:23:21 EDT 2021
User: Adam
Spectrometer: FLMT01687
Trigger mode: 0
Integration Time (sec): 1.100000E0
Scans to average: 2
Electric dark correction enabled: true
Nonlinearity correction enabled: false
Boxcar width: 2
XAxis mode: Wavelengths
Number of Pixels in Spectrum: 3648
>>>>>Begin Spectral Data<<<<<
179.494	552.2
179.716	658.12
179.937	637.75
180.158	627.31
180.38	1050.78
180.601	592.4
180.823	210.55
181.044	58.89
181.265	329.6
181.486	102.48
181.708	82.04
181.929	259.69
182.15	23.59
182.372	182.01
182.593	97.82
182.814	42.13
183.035	82.74
183.257	45.54
183.478	-19.41
183.699	60.51
183.92	42.49
184.141	51.46
184.363	8.5
184.584	58.15
184.805	26.36
185.026	48.42
185.247	38
185.468	23.09
185.689	17.98
185.91	21.5
186.132	28.01
186.353	35.19
186.574	72.39
186.795	57.05
187.016	13.84
187.237	2.13
187.458	-45.76
187.679	-66.89
187.9	-55.46
188.121	-29.31
188.342	19.29
188.563	54.23
188.784	130.3
189.005	158.03
189.226	201.8
189.447	114.82
189.667	67.84
189.888	-266.63
190.109	-1139.29
190.33	-620.16
190.551	-1238.27
190.772	-243.64
190.993	-192.18
191.214	-178.44
191.434	-113.61
191.655	8.31
191.876	-58.84
192.097	-80.46
192.318	-120.13
192.538	-270.45
192.759	-227.97
192.98	-64.83
193.201	-18.83
193.421	-6.5
193.642	26.22
193.863	42.47
194.083	7.33
194.304	-6.49
194.525	4.8
194.745	-30.04
194.966	-37.4
195.187	-45.91
195.407	-67.62
195.628	-110.52
195.848	-90.57
196.069	-80.29
196.29	-25.5
196.51	-27.17
196.731	-37.4
196.951	-52.41
197.172	-86.71
197.392	-104.29
197.613	-107.46
197.833	-121.91
198.054	-88.34
198.274	-34.58
198.495	-47.21
198.715	-21.85
198.936	-46.16
199.156	-54.83
199.377	-166.66
199.597	-169.82
199.817	-177.24
200.038	-96.22
200.258	-147.98
200.479	-46.41
200.699	-31.49
200.919	0.61
201.14	-28.55
201.36	-26.73
201.58	11.88
201.801	38.31
202.021	9.6
202.241	17.36
202.461	11.68
202.682	-80.38
202.902	-158.94
203.122	-88
203.342	-80.99
203.563	-29.03
203.783	11.22
204.003	-20.69
204.223	-27.64
204.443	31.18
204.663	-4.05
204.884	-8.43
205.104	45.56
205.324	65.55
205.544	67.03
205.764	70.47
205.984	80.35
206.204	66.75
206.424	64.1
206.644	39.5
206.864	65.38
207.084	54.56
207.304	69.41
207.525	23.05
207.745	-7.55
207.964	0.96
208.184	-40.36
208.404	-73.66
208.624	-63.38
208.844	-68.04
209.064	-350.06
209.284	-348.51
209.504	-182.6
209.724	-72.29
209.944	-20.5
210.164	6.96
210.384	23.74
210.604	38.3
210.823	22.1
211.043	-22.91
211.263	-17.85
211.483	-29.49
211.703	-78.12
211.922	-53.74
212.142	38.77
212.362	88.22
212.582	60.71
212.801	41.28
213.021	21.29
213.241	-14.79
213.461	-55.37
213.68	-54.87
213.9	-11.05
214.12	-9.11
214.339	-59.43
214.559	-46.7
214.779	-12.32
214.998	-7.72
215.218	-44.68
215.438	-20.92
215.657	-14.26
215.877	2.12
216.096	11.37
216.316	30.17
216.535	36.46
216.755	21.51
216.974	-75.07
217.194	-114.33
217.413	-109.57
217.633	-109.67
217.852	-196.59
218.072	-71.92
218.291	-42.85
218.511	-17.9
218.73	-35.15
218.95	-21.54
219.169	-29.91
219.389	-70.6
219.608	-58.58
219.827	-59.71
220.047	-60.4
220.266	-34.67
220.485	-15.67
220.705	-5.35
220.924	-21.95
221.143	23.49
221.363	-4.41
221.582	2.14
221.801	23.73
222.021	49.84
222.24	-6.88
222.459	97.38
222.678	52.1
222.897	-43.87
223.117	-92.72
223.336	-60.48
223.555	-38.19
223.774	35.84
223.993	40.76
224.213	101.61
224.432	68.73
224.651	60.64
224.87	11.43
225.089	35.34
225.308	15.35
225.527	36.81
225.746	28.91
225.965	29.05
226.184	4.31
226.404	30.4
226.623	14.27
226.842	22.41
227.061	33.49
227.28	50.03
227.499	36.52
227.718	41.55
227.936	34.43
228.155	48.04
228.374	23.07
228.593	38.19
228.812	46.57
229.031	48.59
229.25	15.27
229.469	17.42
229.688	4.98
229.907	19.33
230.125	21.58
230.344	18.78
230.563	20.67
230.782	31.44
231.001	-57.6
231.22	-68.92
231.438	-30.11
231.657	10.27
231.876	-2.61
232.095	54.69
232.313	90.34
232.532	94.37
232.751	37.99
232.969	33.24
233.188	3.8
233.407	23.58
233.625	23.68
233.844	-0.9
234.063	18.96
234.281	31.1
234.5	-2.51
234.719	-8.59
234.937	2.17
235.156	-0.58
235.374	5.21
235.593	-8.29
235.811	-3.48
236.03	3.91
236.249	-28.88
236.467	-52.06
236.686	-3.1
236.904	15.21
237.123	-6.13
237.341	-8.56
237.559	3.28
237.778	-16.18
237.996	-55.48
238.215	7.75
238.433	18.94
238.652	16.42
238.87	-13.74
239.088	-1.53
239.307	-19.27
239.525	-11.88
239.743	-21.8
239.962	33.77
240.18	-6.19
240.398	-49.73
240.617	-71.04
240.835	-83
241.053	-55.31
241.271	14.05
241.49	55.17
241.708	34.07
241.926	19.87
242.144	-7.96
242.363	-78.13
242.581	-122.01
242.799	-50.16
243.017	-3.69
243.235	-27.52
243.453	2.58
243.672	-3.41
243.89	-1.13
244.108	-2.06
244.326	18.17
244.544	17.23
244.762	26.12
244.98	18.73
245.198	5.1
245.416	-24.38
245.634	-32.82
245.852	-64.9
246.07	-62.09
246.288	-36.86
246.506	-58
246.724	-26.59
246.942	-9.06
247.16	-0.53
247.378	-13.21
247.596	15.97
247.814	11.81
248.032	-9.5
248.25	-3.93
248.468	10.42
248.685	22.48
248.903	34.8
249.121	41.96
249.339	-1.63
249.557	-16.03
249.775	-15.37
249.992	-76.39
250.21	-63.92
250.428	-29.51
250.646	-53.3
250.863	-66.52
251.081	-36.46
251.299	-19.71
251.517	0.16
251.734	14.1
251.952	10.37
252.17	4.6
252.387	-3.87
252.605	-23.6
252.823	-20.89
253.04	-4.26
253.258	4.73
253.475	-10.77
253.693	28.48
253.911	24.63
254.128	30.27
254.346	34.49
254.563	23.97
254.781	-1.75
254.998	-25.06
255.216	-54.61
255.433	-45.16
255.651	13.86
255.868	45.2
256.086	74.62
256.303	69.61
256.521	61.23
256.738	30.92
256.956	-12.35
257.173	-26.62
257.39	-40.42
257.608	-64.5
257.825	5.14
258.043	56.78
258.26	55.83
258.477	109.95
258.695	106.03
258.912	49.94
259.129	40.63
259.346	5.08
259.564	-51.12
259.781	-53.77
259.998	21.78
260.216	38.47
260.433	76.22
260.65	78.75
260.867	98.93
261.084	48.57
261.302	29.24
261.519	9.42
261.736	-29.27
261.953	-65.11
262.17	-21.53
262.387	-56.69
262.604	-63.73
262.822	-51.71
263.039	-44.48
263.256	-85.13
263.473	-37.3
263.69	-24.43
263.907	20.93
264.124	41.16
264.341	45.86
264.558	37.55
264.775	52.5
264.992	26.56
265.209	22.92
265.426	35.71
265.643	37.97
265.86	36.19
266.077	46.76
266.294	27.19
266.51	-4.02
266.727	-17.75
266.944	-2.72
267.161	-10.42
267.378	17.51
267.595	52.26
267.812	40.78
268.028	18.27
268.245	44.63
268.462	1.97
268.679	-23.61
268.896	16.35
269.112	23.46
269.329	24.21
269.546	27.35
269.763	25.65
269.979	18.2
270.196	16.63
270.413	-24.31
270.629	-42.1
270.846	-35.77
271.063	-38.23
271.279	-68.16
271.496	-44.99
271.712	-9.68
271.929	8.97
272.146	4.41
272.362	29.89
272.579	54.8
272.795	50.06
273.012	56.23
273.228	44.28
273.445	9.32
273.661	-29.8
273.878	-72
274.094	-100.18
274.311	-107
274.527	-18.01
274.744	-19.48
274.96	-1.87
275.177	14.79
275.393	33.34
275.609	26.75
275.826	49.64
276.042	44.3
276.259	37.59
276.475	41.65
276.691	35.46
276.908	6.66
277.124	13.79
277.34	13.76
277.557	-2.56
277.773	-2.28
277.989	-4.79
278.205	-7.31
278.422	-5.44
278.638	-2.39
278.854	9.01
279.07	10.45
279.286	2.44
279.503	-11.6
279.719	-24.43
279.935	-66.44
280.151	-81.34
280.367	-46.35
280.583	-55.62
280.799	-50.39
281.016	-65.23
281.232	-8.61
281.448	-12.58
281.664	19.01
281.88	8.66
282.096	30.2
282.312	32.44
282.528	57.33
282.744	50.71
282.96	63.78
283.176	47.19
283.392	50.04
283.608	19.57
283.824	16.27
284.04	18.71
284.256	37.04
284.471	5.74
284.687	15.71
284.903	38.77
285.119	61.93
285.335	20.33
285.551	49.71
285.767	34.78
285.982	12.68
286.198	-31.03
286.414	41.76
286.63	48.21
286.846	70.51
287.061	55.33
287.277	72.48
287.493	42.82
287.709	43.32
287.924	18.14
288.14	44.31
288.356	50.04
288.571	60.26
288.787	39.99
289.003	37.94
289.218	16.37
289.434	-31.55
289.65	-41.51
289.865	-38.2
290.081	-4.68
290.296	-0.09
290.512	5.8
290.727	-7.69
290.943	-20.81
291.159	-32.54
291.374	-19.89
291.59	-27.02
291.805	-19.3
292.021	-10.64
292.236	-8.5
292.451	-6.29
292.667	5.61
292.882	35.62
293.098	41.79
293.313	25.21
293.529	4.1
293.744	-10.2
293.959	-45.2
294.175	-42.01
294.39	-2.36
294.605	9.44
294.821	31.48
295.036	34.46
295.251	40.72
295.467	25.84
295.682	29.25
295.897	-33.6
296.112	-37.12
296.328	-20.68
296.543	-44.9
296.758	-57.75
296.973	3.83
297.188	35.84
297.404	6.1
297.619	-2.63
297.834	-14.34
298.049	-47.93
298.264	-80.91
298.479	-20.22
298.694	-10.85
298.909	9.59
299.125	24.52
299.34	42.23
299.555	12.37
299.77	29.15
299.985	-5.78
300.2	-60.99
300.415	-95.24
300.63	-54.37
300.845	-63.87
301.06	-72.7
301.275	-24.69
301.49	8.34
301.704	-4.77
301.919	-29.93
302.134	-25.66
302.349	-31.83
302.564	-89.29
302.779	-102.84
302.994	-30.76
303.209	-9.39
303.423	49.22
303.638	70.2
303.853	26.72
304.068	3.07
304.283	10.02
304.497	-6.18
304.712	-9.4
304.927	5.62
305.142	6.82
305.356	18.37
305.571	18.55
305.786	2.26
306	-19.86
306.215	-5.64
306.43	-30.1
306.644	-24.7
306.859	11.85
307.074	29.55
307.288	-13.54
307.503	-13.13
307.717	-16.03
307.932	-9.65
308.147	-16.72
308.361	21.06
308.576	7.53
308.79	-31.78
309.005	-43.41
309.219	-18.79
309.434	-36.51
309.648	-42.75
309.863	-12.97
310.077	-4.65
310.292	-7.29
310.506	1.66
310.72	18.86
310.935	12.46
311.149	15.96
311.364	20.83
311.578	34.22
311.792	21.76
312.007	47.83
312.221	22.67
312.435	27.93
312.649	10.14
312.864	67.93
313.078	78.29
313.292	155.52
313.507	138.6
313.721	190.33
313.935	75.9
314.149	47.08
314.363	24.56
314.578	38.98
314.792	32.18
315.006	18.65
315.22	21.73
315.434	28.79
315.648	28.05
315.862	17.63
316.077	14.96
316.291	-3.35
316.505	-12.7
316.719	-29.71
316.933	-33.39
317.147	-10.99
317.361	-50.15
317.575	-69.79
317.789	-99.09
318.003	-141.94
318.217	-126.44
318.431	-19.52
318.645	32.3
318.859	30.71
319.073	63.81
319.287	39.08
319.5	14.46
319.714	-31.24
319.928	-52.3
320.142	-87.18
320.356	-27.87
320.57	14.97
320.784	18.21
320.997	7.35
321.211	7.18
321.425	-38.8
321.639	-76.82
321.853	-10.95
322.066	7.97
322.28	2.88
322.494	15.67
322.707	34.93
322.921	17.21
323.135	11.89
323.349	26.92
323.562	3.91
323.776	-19.08
323.989	-32.26
324.203	-55.37
324.417	-69.91
324.63	-64.64
324.844	-59.52
325.057	-48.03
325.271	-23.55
325.485	9.69
325.698	21.97
325.912	34.14
326.125	6.31
326.339	8.11
326.552	-23.51
326.766	-26.07
326.979	-11.69
327.193	32.63
327.406	11.01
327.619	9.99
327.833	24.77
328.046	-2.23
328.26	-45.89
328.473	-3.26
328.686	-24.03
328.9	-33.37
329.113	-5.29
329.326	-2.09
329.54	-18.42
329.753	-17.88
329.966	-29.13
330.179	-19.42
330.393	-5.35
330.606	10.83
330.819	21.85
331.032	35.56
331.246	21.49
331.459	44.81
331.672	30.55
331.885	17.25
332.098	-15.42
332.311	-7.88
332.525	-72.92
332.738	-69.78
332.951	-14.04
333.164	31.7
333.377	32.81
333.59	51.08
333.803	56.77
334.016	46.01
334.229	33.9
334.442	39.36
334.655	71.33
334.868	62.17
335.081	37.97
335.294	20.08
335.507	4.02
335.72	-15.29
335.933	-19.71
336.146	-18.15
336.359	2.32
336.572	-26.32
336.785	-46.98
336.997	-26.78
337.21	-7.32
337.423	-20.12
337.636	-0.25
337.849	27.16
338.062	21.26
338.274	24.81
338.487	15.13
338.7	16.02
338.913	-24.05
339.125	-59.4
339.338	-122.27
339.551	-83.25
339.763	-50.97
339.976	-36.58
340.189	-8.87
340.402	19.48
340.614	5.8
340.827	1.85
341.039	-4.04
341.252	13.79
341.465	13.89
341.677	14.59
341.89	-25.68
342.102	2.88
342.315	-30
342.527	-57.69
342.74	-56.04
342.952	-1.65
343.165	-7.17
343.377	11.88
343.59	10.29
343.802	35.62
344.015	31.56
344.227	45.99
344.44	48
344.652	49.66
344.864	28.43
345.077	40.47
345.289	35.57
345.502	36.64
345.714	31.5
345.926	39.88
346.139	28.96
346.351	30.11
346.563	33.16
346.775	39.96
346.988	30.25
347.2	17.64
347.412	-24.53
347.624	-38.76
347.837	-65.01
348.049	-24.58
348.261	2.38
348.473	14.08
348.685	14.96
348.897	13.2
349.11	-22.69
349.322	-37.22
349.534	-10.88
349.746	-16.3
349.958	-0.32
350.17	-3.29
350.382	16.55
350.594	7.04
350.806	13.82
351.018	9.85
351.23	12.42
351.442	-38.72
351.654	-25.67
351.866	-21.34
352.078	-10.35
352.29	7.31
352.502	24.51
352.714	20.19
352.926	5.25
353.138	-3.53
353.35	-11.37
353.561	-7.72
353.773	-30
353.985	-15.76
354.197	-23.88
354.409	-35.6
354.621	-49.94
354.832	-21.12
355.044	-28.34
355.256	-17.72
355.468	-4.35
355.679	-9.92
355.891	-12.95
356.103	-19.92
356.314	-14.44
356.526	-12.76
356.738	3.54
356.949	8.5
357.161	21.96
357.373	27.81
357.584	21.7
357.796	28.96
358.008	16.82
358.219	46.05
358.431	36.08
358.642	47.57
358.854	40.95
359.065	41.41
359.277	-11.49
359.488	-33.59
359.7	-64.24
359.911	-81.49
360.123	-65.42
360.334	-67.1
360.546	-74.43
360.757	-77.38
360.969	-52.86
361.18	-38.97
361.391	-19.75
361.603	-14.81
361.814	4.33
362.025	-2.99
362.237	-5.53
362.448	6.77
362.659	27.54
362.871	18.33
363.082	14.48
363.293	19.02
363.504	7.19
363.716	-15.92
363.927	0.46
364.138	-14.42
364.349	-30.98
364.56	-21.82
364.772	-28.13
364.983	-14.78
365.194	-10.54
365.405	-0.83
365.616	7.64
365.827	20.86
366.038	-3.98
366.25	-9.99
366.461	-23.16
366.672	-6.73
366.883	12.82
367.094	23.53
367.305	19.43
367.516	19.87
367.727	-8.82
367.938	-25.37
368.149	-23.64
368.36	-11.6
368.571	-4.99
368.781	-4.63
368.992	-27.17
369.203	-38.99
369.414	-61.93
369.625	-68.93
369.836	-70.52
370.047	-84.06
370.258	-69.15
370.468	-67.8
370.679	-93.01
370.89	-84.62
371.101	-42.5
371.312	-46.76
371.522	-29.78
371.733	-7.32
371.944	2.35
372.155	-0.32
372.365	-14.03
372.576	-18.46
372.787	-14.64
372.997	-24.81
373.208	-26.59
373.419	11.36
373.629	-18.56
373.84	-23.8
374.05	-42.13
374.261	-29.82
374.472	-57.64
374.682	-2.21
374.893	-3.4
375.103	40.5
375.314	28.69
375.524	27.77
375.735	28.39
375.945	36.48
376.156	6.98
376.366	12.56
376.577	12.74
376.787	-6.44
376.997	-7.73
377.208	-5.82
377.418	-14.9
377.629	3.26
377.839	12.65
378.049	14.25
378.26	24.42
378.47	26.64
378.68	13.61
378.89	17.24
379.101	7.35
379.311	-22.34
379.521	-43.49
379.732	-45.36
379.942	-57.33
380.152	-65.76
380.362	-23.38
380.572	-21.72
380.783	-2.45
380.993	3.27
381.203	11.64
381.413	16.48
381.623	18.8
381.833	13.47
382.043	10.71
382.253	8.41
382.463	1.72
382.674	-4.16
382.884	-26.1
383.094	-25.72
383.304	-22.95
383.514	-17.64
383.724	-4.75
383.934	3.82
384.144	-9.07
384.353	-17.24
384.563	-18.67
384.773	-19.21
384.983	-27.16
385.193	-4.78
385.403	7.5
385.613	8.24
385.823	1.46
386.033	6.93
386.242	-0.24
386.452	-7
386.662	-15.67
386.872	0.11
387.082	-5.96
387.291	-12.66
387.501	-10.74
387.711	-8
387.921	-20.4
388.13	-14.49
388.34	0.38
388.55	-8.75
388.759	-6.53
388.969	2.1
389.179	-0.52
389.388	-3.97
389.598	6.53
389.807	-0.16
390.017	-7.15
390.227	-7.2
390.436	-7.66
390.646	-11.48
390.855	-6.55
391.065	-3.47
391.274	-3.55
391.484	-7.72
391.693	-1.69
391.903	-1.05
392.112	5.22
392.322	6.75
392.531	11.78
392.74	10.29
392.95	5.33
393.159	0.91
393.369	1.59
393.578	0.49
393.787	-0.39
393.997	2.14
394.206	-0.66
394.415	-0.31
394.625	-1.8
394.834	-2.94
395.043	-1.23
395.252	2.26
395.462	3.94
395.671	5.68
395.88	6.98
396.089	7.39
396.298	5.26
396.508	4.24
396.717	3.15
396.926	3.43
397.135	2.67
397.344	3.03
397.553	3.86
397.762	5.89
397.971	5.35
398.181	5.8
398.39	5.66
398.599	5.08
398.808	4.27
399.017	5.37
399.226	6.08
399.435	7.19
399.644	6.77
399.853	5.84
400.062	5.04
400.27	4.15
400.479	3.5
400.688	3.18
400.897	3.95
401.106	4.15
401.315	4.07
401.524	3.98
401.733	4.71
401.941	4.8
402.15	4.87
402.359	5.08
402.568	5.68
402.777	5.71
402.985	5.47
403.194	5.12
403.403	5.08
403.612	4.46
403.82	4.27
404.029	4.4
404.238	4.41
404.446	4.55
404.655	4.33
404.864	4.32
405.072	4.09
405.281	4.23
405.489	4.04
405.698	4.07
405.906	3.91
406.115	3.99
406.324	3.89
406.532	4
406.741	4.53
406.949	4.49
407.158	4.48
407.366	4.54
407.574	4.53
407.783	4.28
407.991	4.18
408.2	4.39
408.408	4.27
408.617	4.1
408.825	3.99
409.033	4.14
409.242	4.02
409.45	4.3
409.658	4.23
409.867	4.3
410.075	4.19
410.283	4.08
410.491	3.78
410.7	3.74
410.908	3.69
411.116	3.94
411.324	3.91
411.533	3.88
411.741	4.14
411.949	4.22
412.157	3.96
412.365	3.96
412.573	4.13
412.781	4.14
412.99	3.98
413.198	4.07
413.406	4.07
413.614	3.92
413.822	3.66
414.03	3.63
414.238	3.46
414.446	3.51
414.654	3.38
414.862	3.57
415.07	3.66
415.278	3.88
415.486	3.65
415.694	3.85
415.902	3.68
416.109	3.63
416.317	3.71
416.525	3.56
416.733	3.42
416.941	3.57
417.149	3.42
417.357	3.23
417.564	3.54
417.772	3.81
417.98	3.7
418.188	3.76
418.395	3.76
418.603	3.89
418.811	3.57
419.019	3.48
419.226	3.67
419.434	3.79
419.642	3.47
419.849	3.62
420.057	3.75
420.265	3.81
420.472	3.52
420.68	3.64
420.887	3.38
421.095	3.25
421.302	2.99
421.51	3.3
421.717	3.32
421.925	3.51
422.132	3.64
422.34	3.53
422.547	3.52
422.755	3.45
422.962	3.37
423.17	3.27
423.377	3.42
423.585	3.2
423.792	3.07
423.999	3.01
424.207	2.96
424.414	2.96
424.621	3.03
424.829	3.1
425.036	3.17
425.243	3.37
425.451	3.29
425.658	3.13
425.865	3.27
426.072	3.27
426.28	3.44
426.487	3.36
426.694	3.52
426.901	3.38
427.108	3.34
427.315	3.07
427.523	3.46
427.73	3.49
427.937	3.42
428.144	3.34
428.351	3.3
428.558	3.3
428.765	3.12
428.972	3.12
429.179	3.36
429.386	3.65
429.593	3.41
429.8	3.33
430.007	3.47
430.214	3.61
430.421	3.28
430.628	3.18
430.835	3.11
431.042	3.28
431.249	3.21
431.456	3.33
431.662	3.43
431.869	3.75
432.076	3.79
432.283	3.79
432.49	3.86
432.697	3.95
432.903	3.7
433.11	3.61
433.317	3.75
433.524	3.91
433.73	3.75
433.937	4.2
434.144	4.07
434.35	3.89
434.557	3.75
434.764	3.91
434.97	3.69
435.177	3.96
435.384	3.92
435.59	4.01
435.797	4.22
436.003	4.36
436.21	4.24
436.416	4.45
436.623	4.43
436.829	4.39
437.036	4.46
437.242	4.51
437.449	4.4
437.655	4.47
437.862	4.48
438.068	4.35
438.275	4.47
438.481	4.72
438.687	4.68
438.894	4.69
439.1	4.8
439.307	4.93
439.513	4.77
439.719	4.83
439.926	4.97
440.132	4.92
440.338	4.71
440.544	4.88
440.751	4.86
440.957	4.81
441.163	4.75
441.369	4.88
441.575	4.71
441.782	4.72
441.988	4.6
442.194	4.67
442.4	4.73
442.606	4.97
442.812	5.12
443.018	5.3
443.224	5.35
443.431	5.46
443.637	5.26
443.843	5.06
444.049	5.16
444.255	5.18
444.461	5.14
444.667	5.09
444.873	5.42
445.079	5.36
445.284	5.44
445.49	5.3
445.696	5.36
445.902	5.13
446.108	5.06
446.314	5.04
446.52	5.12
446.726	5.38
446.931	5.52
447.137	5.62
447.343	5.56
447.549	5.5
447.755	5.23
447.96	5.2
448.166	5.05
448.372	5.03
448.578	5.12
448.783	5.2
448.989	5.24
449.195	5.5
449.4	5.54
449.606	5.46
449.812	5.41
450.017	5.4
450.223	5.22
450.428	5.18
450.634	5.42
450.84	5.62
451.045	5.61
451.251	5.56
451.456	5.75
451.662	5.79
451.867	5.81
452.073	5.81
452.278	5.97
452.483	6.07
452.689	5.93
452.894	5.9
453.1	5.87
453.305	5.84
453.51	5.74
453.716	5.73
453.921	5.71
454.127	5.71
454.332	5.56
454.537	5.5
454.742	5.41
454.948	5.47
455.153	5.53
455.358	5.74
455.563	5.93
455.769	6.18
455.974	6.05
456.179	6
456.384	6
456.589	5.83
456.795	5.54
457	5.61
457.205	5.84
457.41	5.78
457.615	5.7
457.82	5.86
458.025	5.87
458.23	5.64
458.435	5.69
458.64	5.75
458.845	5.89
459.05	5.89
459.255	5.97
459.46	5.98
459.665	5.98
459.87	5.93
460.075	5.89
460.28	5.9
460.485	6.06
460.69	6.14
460.895	6.02
461.099	6.08
461.304	6.13
461.509	6.16
461.714	6.08
461.919	6.24
462.123	6.16
462.328	6.24
462.533	5.99
462.738	6.07
462.942	6.01
