Data from Ofra_1a_PS_8CX24_Reflection_2.txt Node
Date: Tue Jul 20 11:01:17 EDT 2021
User: Adam
Spectrometer: FLMT01687
Trigger mode: 0
Integration Time (sec): 1.004000E0
Scans to average: 2
Electric dark correction enabled: true
Nonlinearity correction enabled: false
Boxcar width: 2
XAxis mode: Wavelengths
Number of Pixels in Spectrum: 3648
>>>>>Begin Spectral Data<<<<<
179.494	-316.24
179.716	-509.92
179.937	1077.93
180.158	-1250.32
180.38	214.46
180.601	116.68
180.823	37.22
181.044	-20.42
181.265	-112.89
181.486	157.14
181.708	120.52
181.929	-7136.36
182.15	0.71
182.372	168.97
182.593	195.82
182.814	-66.38
183.035	-18.75
183.257	12.88
183.478	-5.56
183.699	-23.99
183.92	-93.32
184.141	-74.04
184.363	-56.28
184.584	-65.12
184.805	-2.04
185.026	59.95
185.247	44.36
185.468	27.4
185.689	28.84
185.91	-3.26
186.132	-41.28
186.353	-33.39
186.574	-30.89
186.795	-35.06
187.016	-15.04
187.237	-17.39
187.458	-36.29
187.679	-10.94
187.9	3.83
188.121	0.48
188.342	15.5
188.563	42.41
188.784	38.33
189.005	27.2
189.226	36.82
189.447	29.12
189.667	28.59
189.888	14.57
190.109	5.3
190.33	13.04
190.551	13.23
190.772	25.49
190.993	23.65
191.214	11.18
191.434	-18.66
191.655	31.46
191.876	21.11
192.097	48.86
192.318	69.82
192.538	39.54
192.759	3.12
192.98	12
193.201	8.19
193.421	-6.23
193.642	7.1
193.863	21.08
194.083	17.16
194.304	36.05
194.525	39.84
194.745	38.6
194.966	31.29
195.187	21.06
195.407	-2.42
195.628	7.94
195.848	7.88
196.069	-9.19
196.29	6.75
196.51	3.26
196.731	-20.36
196.951	-21.09
197.172	-13.93
197.392	-35.71
197.613	-5.19
197.833	-13.51
198.054	-26.99
198.274	-26.92
198.495	-3.18
198.715	-15.51
198.936	8.69
199.156	11.72
199.377	17.03
199.597	3.06
199.817	12.56
200.038	-1.02
200.258	26.34
200.479	34.9
200.699	31.4
200.919	2.62
201.14	2.02
201.36	-5.04
201.58	-32.36
201.801	-45.63
202.021	-24.86
202.241	-23.82
202.461	-28.2
202.682	4.77
202.902	24.82
203.122	23.38
203.342	21.5
203.563	20.53
203.783	5.47
204.003	-9.23
204.223	3.61
204.443	23.3
204.663	27.93
204.884	28.04
205.104	20.72
205.324	19.4
205.544	-61.89
205.764	-24.48
205.984	-34.08
206.204	-39.44
206.424	-62.61
206.644	-52.4
206.864	-106.16
207.084	-19.91
207.304	-27.76
207.525	-16.48
207.745	26
207.964	36.2
208.184	17.71
208.404	19.4
208.624	26.9
208.844	27.47
209.064	37
209.284	17.31
209.504	11.83
209.724	2.62
209.944	-32.2
210.164	-44.78
210.384	-44.56
210.604	-79.89
210.823	-81.98
211.043	-47.22
211.263	-111.3
211.483	-60.05
211.703	-31.6
211.922	-36.85
212.142	-23.18
212.362	-9.21
212.582	-15.39
212.801	1.02
213.021	4.42
213.241	-1.98
213.461	20.19
213.68	22.93
213.9	4.47
214.12	-7.25
214.339	-7.67
214.559	-13.73
214.779	-31.82
214.998	-21.14
215.218	-14.41
215.438	-1.22
215.657	-8.74
215.877	-5.26
216.096	24.1
216.316	40.47
216.535	24.83
216.755	28.98
216.974	24.54
217.194	-17
217.413	-35.26
217.633	-42.51
217.852	-36.42
218.072	-14.35
218.291	-10.88
218.511	-1.46
218.73	1.8
218.95	-10.74
219.169	-28.53
219.389	-29.64
219.608	-61.4
219.827	-28.15
220.047	-5.39
220.266	-28.61
220.485	-16.43
220.705	25.34
220.924	12.21
221.143	4.96
221.363	21.09
221.582	29.31
221.801	19.14
222.021	34.79
222.24	47.64
222.459	61.95
222.678	45.91
222.897	46.27
223.117	48.41
223.336	49.11
223.555	40.47
223.774	33.45
223.993	29.74
224.213	26.53
224.432	3.64
224.651	-5.89
224.87	6.72
225.089	17.47
225.308	12.53
225.527	15.08
225.746	19.01
225.965	15.01
226.184	0.09
226.404	-13
226.623	-4.65
226.842	-0.24
227.061	0.78
227.28	10.27
227.499	19.06
227.718	13.47
227.936	19.47
228.155	12.9
228.374	23.6
228.593	16.73
228.812	19.36
229.031	14.8
229.25	7.2
229.469	-19.96
229.688	-4.63
229.907	-11.02
230.125	-15.29
230.344	2.17
230.563	17.56
230.782	15.38
231.001	40.47
231.22	40.36
231.438	33.82
231.657	37.67
231.876	32.72
232.095	35.84
232.313	17.75
232.532	11.07
232.751	-9.15
232.969	-6.94
233.188	-20.46
233.407	0.4
233.625	15.83
233.844	16.87
234.063	8.81
234.281	18.56
234.5	13.29
234.719	-2.11
234.937	-10.06
235.156	-11.62
235.374	-25.07
235.593	-21.18
235.811	1.29
236.03	13.78
236.249	22.71
236.467	14.2
236.686	-7.86
236.904	-11
237.123	-19.48
237.341	-32.52
237.559	-28.8
237.778	20.73
237.996	1.58
238.215	-15.27
238.433	-44.13
238.652	0.11
238.87	-36.44
239.088	-24.19
239.307	-14.86
239.525	-3.31
239.743	-17.85
239.962	-10.72
240.18	3.89
240.398	8.5
240.617	-10.2
240.835	-17.69
241.053	-14.52
241.271	6.05
241.49	18.65
241.708	6.44
241.926	6.98
242.144	28.29
242.363	-17.14
242.581	-63.33
242.799	-8.4
243.017	-17.29
243.235	-17.34
243.453	-26.51
243.672	-6.59
243.89	-8.79
244.108	9.3
244.326	13.76
244.544	22.44
244.762	0.56
244.98	0.99
245.198	5.46
245.416	-2.76
245.634	-1.66
245.852	1.83
246.07	15.41
246.288	13.06
246.506	10.4
246.724	10.45
246.942	23.82
247.16	11.18
247.378	-6.85
247.596	12.33
247.814	1.93
248.032	-22.83
248.25	8.03
248.468	18.02
248.685	8.33
248.903	3.69
249.121	11.91
249.339	7.01
249.557	10.07
249.775	6.38
249.992	13.23
250.21	6.69
250.428	17.02
250.646	5.02
250.863	4.81
251.081	9.18
251.299	39.68
251.517	38.51
251.734	38.64
251.952	34.07
252.17	23.4
252.387	-18.4
252.605	-28.92
252.823	-42.85
253.04	-30.3
253.258	-10.25
253.475	8.73
253.693	1.72
253.911	0.43
254.128	-11.89
254.346	-6.51
254.563	-4
254.781	-9.9
254.998	-5.16
255.216	-17.86
255.433	-34.09
255.651	-20.19
255.868	-16.79
256.086	-12.11
256.303	-8.9
256.521	-5.81
256.738	-16.47
256.956	-12.54
257.173	-30.27
257.39	-12.37
257.608	-9.93
257.825	-10.32
258.043	0.75
258.26	18.16
258.477	17.88
258.695	19.52
258.912	17.82
259.129	16.99
259.346	1.39
259.564	10.09
259.781	7.3
259.998	22.94
260.216	21.52
260.433	20.71
260.65	22.72
260.867	15.15
261.084	-2.29
261.302	-18.69
261.519	-5.51
261.736	-9.77
261.953	3.99
262.17	19.27
262.387	31.48
262.604	26.52
262.822	25.02
263.039	30.3
263.256	24.51
263.473	17.12
263.69	13.33
263.907	23.77
264.124	26.47
264.341	37.76
264.558	30.48
264.775	37.52
264.992	21.51
265.209	-15.6
265.426	-39.82
265.643	-12.8
265.86	-28.72
266.077	-33.3
266.294	14.35
266.51	29.6
266.727	3.58
266.944	22.61
267.161	24.14
267.378	17.24
267.595	-5.67
267.812	1.13
268.028	-36.99
268.245	-36.91
268.462	-21.13
268.679	-2.29
268.896	8.89
269.112	15.41
269.329	-12.67
269.546	-3.83
269.763	-16.5
269.979	-19.2
270.196	-9.56
270.413	4.74
270.629	-20.48
270.846	-20.1
271.063	-13.35
271.279	-6.45
271.496	-13
271.712	-5.07
271.929	10.65
272.146	3.66
272.362	-4.43
272.579	5.89
272.795	14.78
273.012	5.15
273.228	8.2
273.445	0.43
273.661	-9.72
273.878	-15.95
274.094	-10.75
274.311	-7.59
274.527	-17.85
274.744	12.31
274.96	24.48
275.177	26.19
275.393	26.7
275.609	36.66
275.826	31.44
276.042	14.72
276.259	20.97
276.475	15.12
276.691	-0.96
276.908	-0.95
277.124	16.34
277.34	-0.12
277.557	-5.61
277.773	-7.98
277.989	-13.53
278.205	-14.31
278.422	-6.25
278.638	-16.07
278.854	-1.04
279.07	11.65
279.286	-0.73
279.503	-3.99
279.719	14.74
279.935	9.41
280.151	-9.48
280.367	5.15
280.583	0.22
280.799	-16.15
281.016	-48.5
281.232	-32.29
281.448	-42.65
281.664	-21.65
281.88	-2.61
282.096	16.68
282.312	9.98
282.528	7.21
282.744	1.19
282.96	-21.92
283.176	-32.53
283.392	-56.16
283.608	-44.89
283.824	-100.17
284.04	-131.1
284.256	-79.01
284.471	-36.41
284.687	-23.96
284.903	0.48
285.119	27.93
285.335	31.41
285.551	19.91
285.767	-1.78
285.982	9.65
286.198	-19.6
286.414	-14.61
286.63	-18.51
286.846	-1.21
287.061	-16.88
287.277	-3.16
287.493	-29.03
287.709	-24.51
287.924	-4.89
288.14	11.73
288.356	19.53
288.571	29.71
288.787	30.64
289.003	28.74
289.218	22.8
289.434	8.99
289.65	29.82
289.865	16.89
290.081	19.26
290.296	24.65
290.512	22.93
290.727	-3.8
290.943	7.89
291.159	1.19
291.374	-23.93
291.59	-17.95
291.805	-26.57
292.021	-27.2
292.236	-17.7
292.451	-10.74
292.667	-21.23
292.882	9.83
293.098	16.11
293.313	15.78
293.529	25.02
293.744	15.52
293.959	15.5
294.175	20.62
294.39	13.21
294.605	24.44
294.821	24.07
295.036	16.12
295.251	15.81
295.467	2.07
295.682	-4.77
295.897	-5.94
296.112	-16.11
296.328	-17.64
296.543	-18.45
296.758	-18.34
296.973	0.4
297.188	1.09
297.404	-6.72
297.619	-23.65
297.834	-56.61
298.049	-66.94
298.264	-41.42
298.479	-24.22
298.694	9.33
298.909	16.93
299.125	9.28
299.34	7.68
299.555	0.24
299.77	21.3
299.985	12.07
300.2	28.87
300.415	16.13
300.63	23.96
300.845	6.83
301.06	27.73
301.275	14.4
301.49	31.32
301.704	14.18
301.919	8.94
302.134	-8.02
302.349	-1.78
302.564	-3.95
302.779	-16.1
302.994	13.75
303.209	23.09
303.423	26.21
303.638	30.42
303.853	24.67
304.068	-10.13
304.283	-10.49
304.497	-28.82
304.712	-23.07
304.927	-10.77
305.142	-4.08
305.356	-7.3
305.571	-9.12
305.786	-4.94
306	17.68
306.215	13.56
306.43	10.82
306.644	22.17
306.859	19.19
307.074	10.23
307.288	11.27
307.503	24.56
307.717	10.28
307.932	16.63
308.147	8.66
308.361	11
308.576	-11.65
308.79	-12.09
309.005	-29.63
309.219	-19.41
309.434	-15.89
309.648	-7.45
309.863	1.42
310.077	8.1
310.292	9.92
310.506	-11.05
310.72	-16.88
310.935	8.47
311.149	13.82
311.364	25.44
311.578	34.77
311.792	49.89
312.007	43.33
312.221	21.13
312.435	-0.5
312.649	0.07
312.864	-14.2
313.078	-17.35
313.292	-8.6
313.507	-6.87
313.721	-2.56
313.935	11.58
314.149	-5.57
314.363	-1.61
314.578	9.12
314.792	-30.25
315.006	-46.46
315.22	-21.47
315.434	-18.07
315.648	-33.55
315.862	0.07
316.077	-9.62
316.291	-2.04
316.505	-24.19
316.719	-15.52
316.933	-22.08
317.147	-13.46
317.361	-19.06
317.575	-5.97
317.789	-1.52
318.003	-2.43
318.217	14.76
318.431	6.38
318.645	-5.53
318.859	1.87
319.073	6.36
319.287	0.29
319.5	0.37
319.714	3.58
319.928	-2.75
320.142	4.56
320.356	23.57
320.57	18.39
320.784	22.23
320.997	9.16
321.211	10.02
321.425	-23.84
321.639	2.64
321.853	18.53
322.066	20.46
322.28	8.87
322.494	12.31
322.707	8.23
322.921	-9.33
323.135	-5.31
323.349	-0.51
323.562	2.86
323.776	2.9
323.989	17.24
324.203	5.74
324.417	-1.19
324.63	-16.43
324.844	-29.8
325.057	-70.15
325.271	-48.81
325.485	-42.57
325.698	-19.52
325.912	10.69
326.125	6.74
326.339	12.79
326.552	-1.97
326.766	-23.03
326.979	-31.23
327.193	-12.49
327.406	-33.56
327.619	-12.45
327.833	-3.07
328.046	-11.13
328.26	-18.22
328.473	-10.15
328.686	-13.01
328.9	5.16
329.113	6.85
329.326	10.84
329.54	14.08
329.753	21.07
329.966	16.82
330.179	18.14
330.393	24.45
330.606	26.65
330.819	19.02
331.032	13.36
331.246	13.92
331.459	13.12
331.672	10.51
331.885	9.18
332.098	5.68
332.311	1.41
332.525	-2.58
332.738	-2.87
332.951	-6.08
333.164	0.3
333.377	3.34
333.59	2.22
333.803	-2.64
334.016	-0.4
334.229	-4.92
334.442	-12.94
334.655	-14.39
334.868	-14.31
335.081	-9.28
335.294	-8.24
335.507	1.26
335.72	17.36
335.933	37.16
336.146	19.5
336.359	21.87
336.572	20.79
336.785	-9.48
336.997	-36.18
337.21	-23.7
337.423	-40.56
337.636	-28.35
337.849	-22.52
338.062	-18.92
338.274	1.7
338.487	-12.62
338.7	-33.96
338.913	0.95
339.125	5.05
339.338	-6.89
339.551	13.84
339.763	25.3
339.976	15.44
340.189	18.85
340.402	19.07
340.614	7.59
340.827	5.49
341.039	-4.08
341.252	4.41
341.465	-2.25
341.677	13.1
341.89	-5.51
342.102	11.78
342.315	4.89
342.527	9.72
342.74	-6.02
342.952	12.48
343.165	-6.13
343.377	6.49
343.59	7.78
343.802	3.72
344.015	11.89
344.227	20.21
344.44	10.99
344.652	17.2
344.864	28.22
345.077	41.22
345.289	50.34
345.502	59.03
345.714	52.54
345.926	41.57
346.139	23.5
346.351	4.97
346.563	0.64
346.775	4.58
346.988	27.02
347.2	30.65
347.412	34.04
347.624	30.27
347.837	32.34
348.049	24.22
348.261	12.01
348.473	-2.34
348.685	-4.36
348.897	-19.85
349.11	-14.9
349.322	2.27
349.534	15.46
349.746	15.57
349.958	8.93
350.17	-4.23
350.382	-2.52
350.594	-1.29
350.806	12.07
351.018	25.19
351.23	37.95
351.442	40.06
351.654	33.85
351.866	24.96
352.078	15.57
352.29	10.42
352.502	-5.22
352.714	-16.05
352.926	-26.64
353.138	-21.8
353.35	-25.32
353.561	-22.68
353.773	-21.1
353.985	-3.53
354.197	3.53
354.409	2.88
354.621	-2.4
354.832	-7.07
355.044	-31.46
355.256	-32.21
355.468	-24.6
355.679	5.06
355.891	23.16
356.103	28.6
356.314	27.88
356.526	11.58
356.738	-10.71
356.949	-21.46
357.161	-6.58
357.373	-9.12
357.584	9.89
357.796	20.45
358.008	24.65
358.219	20.58
358.431	13.91
358.642	19.95
358.854	25.15
359.065	9
359.277	6.39
359.488	10.24
359.7	0.18
359.911	-19.02
360.123	0.69
360.334	-8.04
360.546	-2.19
360.757	0.69
360.969	5.76
361.18	9.25
361.391	22.02
361.603	28.72
361.814	31.53
362.025	27.93
362.237	25.86
362.448	28.11
362.659	14.73
362.871	-9.25
363.082	-11.01
363.293	-31.15
363.504	-68.56
363.716	-69.15
363.927	-15.22
364.138	-29.75
364.349	-43.4
364.56	-36.35
364.772	-21.13
364.983	-32.18
365.194	-22.71
365.405	-4.67
365.616	11.68
365.827	6.28
366.038	9.24
366.25	18.06
366.461	24.86
366.672	17.12
366.883	25.21
367.094	20.24
367.305	2.86
367.516	4.6
367.727	-4.85
367.938	-11
368.149	-18.64
368.36	-6.59
368.571	-43.62
368.781	-42.98
368.992	-49.49
369.203	-36.25
369.414	-38.8
369.625	-12.98
369.836	2.86
370.047	12.87
370.258	26.79
370.468	16.77
370.679	12.73
370.89	14.12
371.101	19.92
371.312	0.79
371.522	4.46
371.733	-8.44
371.944	-30.91
372.155	-38.38
372.365	-24.53
372.576	-28.57
372.787	-8.2
372.997	0.36
373.208	-10.11
373.419	-12.67
373.629	-15.48
373.84	-18.83
374.05	-28.75
374.261	-28.15
374.472	-23.22
374.682	-4.63
374.893	-9.08
375.103	11.44
375.314	15.07
375.524	9.69
375.735	15.58
375.945	13.86
376.156	2.58
376.366	5.53
376.577	5.47
376.787	2.93
376.997	10.54
377.208	8.68
377.418	4.39
377.629	3.54
377.839	-7.23
378.049	-8.82
378.26	-6.47
378.47	-18.47
378.68	-18.64
378.89	-11.44
379.101	-10.07
379.311	-12.21
379.521	-9.94
379.732	-4.18
379.942	-1.92
380.152	-12.62
380.362	-12.11
380.572	3.33
380.783	6.46
380.993	11.41
381.203	14.57
381.413	19.58
381.623	10.72
381.833	15.23
382.043	5.06
382.253	8.46
382.463	15.37
382.674	21.3
382.884	14.19
383.094	16.44
383.304	19.22
383.514	16.46
383.724	12.74
383.934	9.02
384.144	11.14
384.353	10.49
384.563	15.37
384.773	11.41
384.983	13.79
385.193	12.06
385.403	5.64
385.613	1.87
385.823	5.27
386.033	4.72
386.242	1.77
386.452	-0.91
386.662	-4.6
386.872	0.44
387.082	0.62
387.291	-4.62
387.501	0.56
387.711	1.88
387.921	-2.51
388.13	0.18
388.34	6.41
388.55	2.21
388.759	-1.34
388.969	-0.4
389.179	-1.86
389.388	-4.33
389.598	-2.35
389.807	-2.55
390.017	-3.36
390.227	-5.17
390.436	-4.33
390.646	-3.35
390.855	-0.45
391.065	-0.34
391.274	-0.22
391.484	0.62
391.693	-2.08
391.903	-4.16
392.112	-4.87
392.322	-4.75
392.531	-4.64
392.74	-2.25
392.95	-1.08
393.159	0.89
393.369	2.16
393.578	2.28
393.787	2.42
393.997	3.18
394.206	1.09
394.415	0.4
394.625	0.24
394.834	-1.27
395.043	-1.39
395.252	0.81
395.462	1.88
395.671	1.28
395.88	2.78
396.089	2.71
396.298	1.64
396.508	1.11
396.717	1.84
396.926	1.21
397.135	1.33
397.344	1.61
397.553	1.64
397.762	1.84
397.971	1.2
398.181	1.31
398.39	1.23
398.599	1.2
398.808	0.64
399.017	1.98
399.226	2.12
399.435	1.95
399.644	2.22
399.853	2.48
400.062	1.64
400.27	1.09
400.479	1.2
400.688	1.1
400.897	0.96
401.106	1.24
401.315	1.44
401.524	1.62
401.733	1.27
401.941	1.21
402.15	0.91
402.359	0.85
402.568	0.83
402.777	0.93
402.985	0.88
403.194	0.97
403.403	1.04
403.612	0.92
403.82	0.83
404.029	0.95
404.238	0.96
404.446	1.09
404.655	1.19
404.864	1.31
405.072	1.32
405.281	1.33
405.489	1.17
405.698	1.21
405.906	1.21
406.115	1.23
406.324	1.26
406.532	1.39
406.741	1.38
406.949	1.4
407.158	1.46
407.366	1.36
407.574	1.44
407.783	1.39
407.991	1.38
408.2	1.43
408.408	1.54
408.617	1.4
408.825	1.41
409.033	1.45
409.242	1.44
409.45	1.38
409.658	1.46
409.867	1.54
410.075	1.47
410.283	1.35
410.491	1.3
410.7	1.08
410.908	1.17
411.116	1.31
411.324	1.27
411.533	1.2
411.741	1.35
411.949	1.23
412.157	1.09
412.365	1.15
412.573	1.28
412.781	1.22
412.99	1.08
413.198	1.09
413.406	1.1
413.614	1.14
413.822	1.27
414.03	1.26
414.238	1.3
414.446	1.4
414.654	1.28
414.862	1.11
415.07	1.13
415.278	1.16
415.486	0.87
415.694	1.01
415.902	1.05
416.109	1.02
416.317	1.04
416.525	1.17
416.733	1.18
416.941	1.28
417.149	1.28
417.357	1.32
417.564	1.27
417.772	1.29
417.98	1.33
418.188	1.37
418.395	1.09
418.603	0.98
418.811	0.85
419.019	0.83
419.226	0.81
419.434	0.89
419.642	0.87
419.849	0.87
420.057	0.8
420.265	0.72
420.472	0.78
420.68	1.01
420.887	1.03
421.095	1.07
421.302	1.14
421.51	1.04
421.717	0.95
421.925	1.08
422.132	0.95
422.34	0.78
422.547	0.86
422.755	0.87
422.962	0.67
423.17	0.62
423.377	0.87
423.585	0.88
423.792	0.91
423.999	0.98
424.207	0.93
424.414	0.79
424.621	0.84
424.829	0.83
425.036	0.84
425.243	0.97
425.451	1.02
425.658	1
425.865	1.14
426.072	1.16
426.28	1.26
426.487	1.27
426.694	1.12
426.901	1.01
427.108	0.9
427.315	0.8
427.523	0.78
427.73	0.91
427.937	0.74
428.144	0.78
428.351	0.75
428.558	0.88
428.765	0.89
428.972	1.04
429.179	0.99
429.386	1.16
429.593	1.08
429.8	1.05
430.007	1.11
430.214	1.26
430.421	1.24
430.628	1.21
430.835	1.21
431.042	1.22
431.249	1.2
431.456	1.1
431.662	1.19
431.869	1.27
432.076	1.24
432.283	1.25
432.49	1.24
432.697	1.17
432.903	1.06
433.11	1.09
433.317	1.06
433.524	1.04
433.73	0.99
433.937	1.14
434.144	0.95
434.35	0.8
434.557	0.83
434.764	0.86
434.97	0.65
435.177	0.75
435.384	0.99
435.59	1.16
435.797	1.27
436.003	1.31
436.21	1.28
436.416	1.18
436.623	1.05
436.829	0.93
437.036	0.96
437.242	0.95
437.449	1.01
437.655	1.03
437.862	1.08
438.068	1.16
438.275	1.32
438.481	1.32
438.687	1.24
438.894	1.33
439.1	1.19
439.307	1.25
439.513	1.25
439.719	1.4
439.926	1.34
440.132	1.45
440.338	1.33
440.544	1.26
440.751	1.12
440.957	1.14
441.163	0.99
441.369	0.99
441.575	1.02
441.782	1.02
441.988	1.04
442.194	1.1
442.4	1.1
442.606	1.21
442.812	1.27
443.018	1.26
443.224	1.38
443.431	1.41
443.637	1.24
443.843	1.29
444.049	1.32
444.255	1.33
444.461	1.26
444.667	1.3
444.873	1.27
445.079	1.22
445.284	1.15
445.49	1.13
445.696	1.12
445.902	1.1
446.108	1.09
446.314	1.07
446.52	1.2
446.726	1.24
446.931	1.25
447.137	1.26
447.343	1.34
447.549	1.25
447.755	1.25
447.96	1.27
448.166	1.25
448.372	1.22
448.578	1.24
448.783	1.25
448.989	1.24
449.195	1.24
449.4	1.28
449.606	1.26
449.812	1.28
450.017	1.35
450.223	1.28
450.428	1.2
450.634	1.22
450.84	1.22
451.045	1.23
451.251	1.34
451.456	1.43
451.662	1.48
451.867	1.51
452.073	1.53
452.278	1.49
452.483	1.43
452.689	1.43
452.894	1.48
453.1	1.39
453.305	1.36
453.51	1.52
453.716	1.49
453.921	1.45
454.127	1.43
454.332	1.5
454.537	1.39
454.742	1.4
454.948	1.36
455.153	1.36
455.358	1.37
455.563	1.37
455.769	1.39
455.974	1.41
456.179	1.38
456.384	1.27
456.589	1.19
456.795	1.14
457	1.13
457.205	1.19
457.41	1.29
457.615	1.29
457.82	1.3
458.025	1.28
458.23	1.23
458.435	1.23
458.64	1.28
458.845	1.22
459.05	1.25
459.255	1.24
459.46	1.18
459.665	1.13
459.87	1.18
460.075	1.19
460.28	1.29
460.485	1.41
460.69	1.48
460.895	1.51
461.099	1.42
461.304	1.29
461.509	1.24
461.714	1.24
461.919	1.17
462.123	1.22
462.328	1.18
462.533	1.05
462.738	1.06
462.942	1.05
463.147	1.02
463.352	1.13
463.556	1.23
463.761	1.12
463.966	1.14
464.17	1.18
464.375	1.18
464.58	1.18
464.784	1.27
464.989	1.31
465.193	1.36
465.398	1.34
465.602	1.48
465.807	1.5
466.011	1.47
466.216	1.4
466.42	1.47
