Data from Ofra_PS_T2_2A_6EV18_Reflection_1.txt Node
Date: Wed Jul 21 17:16:36 EDT 2021
User: Adam
Spectrometer: FLMT01687
Trigger mode: 0
Integration Time (sec): 1.100000E0
Scans to average: 2
Electric dark correction enabled: true
Nonlinearity correction enabled: false
Boxcar width: 2
XAxis mode: Wavelengths
Number of Pixels in Spectrum: 3648
>>>>>Begin Spectral Data<<<<<
179.494	536.8
179.716	611.76
179.937	595.97
180.158	588.25
180.38	880
180.601	353.59
180.823	100.77
181.044	-42.18
181.265	22.79
181.486	84.72
181.708	133.95
181.929	1024.49
182.15	-546.48
182.372	31.08
182.593	38.33
182.814	44.75
183.035	81.74
183.257	90.86
183.478	24.68
183.699	59
183.92	45.57
184.141	37.9
184.363	-21.19
184.584	62.4
184.805	61.19
185.026	90.13
185.247	93.25
185.468	53.86
185.689	50.59
185.91	45.36
186.132	28.86
186.353	33.27
186.574	125.54
186.795	95.86
187.016	70.1
187.237	71.12
187.458	69.88
187.679	44.62
187.9	37.63
188.121	31.6
188.342	22.57
188.563	57.86
188.784	70.77
189.005	59.06
189.226	123.76
189.447	112.94
189.667	-31.07
189.888	-188.18
190.109	-928.57
190.33	-741.94
190.551	-1370.8
190.772	-315.5
190.993	-285.92
191.214	-188.21
191.434	-104.42
191.655	16.07
191.876	12.61
192.097	-40.56
192.318	-142.21
192.538	-181.52
192.759	-194.7
192.98	-80.51
193.201	-33.55
193.421	0.63
193.642	14.63
193.863	28.97
194.083	9.88
194.304	-1.23
194.525	-8.61
194.745	-37.49
194.966	-55.41
195.187	-63.16
195.407	-82.47
195.628	-118.91
195.848	-126.4
196.069	-125.85
196.29	-36.33
196.51	-45.83
196.731	-31.66
196.951	-13.64
197.172	-21.03
197.392	-114.86
197.613	-93.45
197.833	-147.92
198.054	-137.33
198.274	-80.77
198.495	-66.97
198.715	-25.5
198.936	-37.59
199.156	-19.84
199.377	-96.08
199.597	-103.28
199.817	-118.87
200.038	-5.8
200.258	-50.2
200.479	14.34
200.699	35.87
200.919	37.76
201.14	-36.14
201.36	-19.79
201.58	33.02
201.801	61.63
202.021	47.78
202.241	53.88
202.461	33.87
202.682	-55.5
202.902	-122.21
203.122	-78.56
203.342	-49.7
203.563	-15.97
203.783	23.97
204.003	-10.99
204.223	-19.94
204.443	28.19
204.663	12.28
204.884	32.9
205.104	75.47
205.324	108.53
205.544	98.1
205.764	110.43
205.984	83.11
206.204	78.55
206.424	62.46
206.644	48.35
206.864	48.24
207.084	28.78
207.304	50.42
207.525	18.44
207.745	-24.39
207.964	-11.25
208.184	-40.33
208.404	-89.69
208.624	-106.65
208.844	-110.73
209.064	-415.67
209.284	-412.95
209.504	-221.95
209.724	-53.09
209.944	-10.16
210.164	39.6
210.384	33.16
210.604	24.51
210.823	4.09
211.043	-16.55
211.263	-23.47
211.483	-8.38
211.703	-61.16
211.922	-41.06
212.142	16.21
212.362	48.44
212.582	31.84
212.801	49.72
213.021	18.1
213.241	-1.16
213.461	-67.05
213.68	-90.78
213.9	-66.82
214.12	-50
214.339	-108.58
214.559	-65.53
214.779	5.93
214.998	3.96
215.218	-24.46
215.438	11.96
215.657	5.45
215.877	-19.66
216.096	9.63
216.316	24.35
216.535	14.22
216.755	15.62
216.974	-51.09
217.194	-141.25
217.413	-147.42
217.633	-178.02
217.852	-267.37
218.072	-115.09
218.291	-34.65
218.511	12.98
218.73	8.43
218.95	4.56
219.169	2.66
219.389	-41.24
219.608	-39.66
219.827	-31.42
220.047	-26.29
220.266	-9.2
220.485	5.07
220.705	25.77
220.924	1.48
221.143	27.4
221.363	2.12
221.582	13.05
221.801	25
222.021	44.22
222.24	6.56
222.459	107.23
222.678	59.68
222.897	-48.1
223.117	-68.14
223.336	-34.81
223.555	-23.8
223.774	28.74
223.993	39.6
224.213	88.22
224.432	66.63
224.651	65.26
224.87	39.62
225.089	51.52
225.308	38.32
225.527	65.66
225.746	59.2
225.965	52.33
226.184	69.34
226.404	70.54
226.623	32.65
226.842	40.68
227.061	62.72
227.28	57.37
227.499	42.43
227.718	54.99
227.936	54.28
228.155	71.21
228.374	33.36
228.593	42.27
228.812	40.26
229.031	18.73
229.25	-47.29
229.469	-36.78
229.688	-16.93
229.907	4.49
230.125	25.52
230.344	40.94
230.563	55.98
230.782	49.79
231.001	-12.37
231.22	-4.28
231.438	14.6
231.657	19.87
231.876	12.72
232.095	57.58
232.313	47.23
232.532	29.63
232.751	-11.57
232.969	-21.85
233.188	-99.33
233.407	-36.74
233.625	-1.66
233.844	-21.48
234.063	-0.32
234.281	24.02
234.5	21.72
234.719	11.1
234.937	41.94
235.156	36.89
235.374	28.3
235.593	20.23
235.811	23.79
236.03	1.67
236.249	-26.59
236.467	-16.05
236.686	9.36
236.904	16.35
237.123	14.68
237.341	13.13
237.559	20.26
237.778	16.23
237.996	-6.04
238.215	11.01
238.433	29.83
238.652	16.85
238.87	-2.41
239.088	33.66
239.307	28.82
239.525	29.04
239.743	-4.41
239.962	12.84
240.18	-24.43
240.398	-61.61
240.617	-79.79
240.835	-52.04
241.053	-27.26
241.271	1.11
241.49	12.33
241.708	0.83
241.926	20.28
242.144	9.55
242.363	-22.18
242.581	-14.27
242.799	4.24
243.017	14.77
243.235	-12.89
243.453	-2.16
243.672	6.62
243.89	7.27
244.108	-5.71
244.326	25.77
244.544	24.1
244.762	12.13
244.98	12.33
245.198	20.69
245.416	-25.49
245.634	-17.58
245.852	-20.96
246.07	-20.06
246.288	-13.88
246.506	-18.87
246.724	1.49
246.942	7.94
247.16	29.09
247.378	34.17
247.596	47.46
247.814	36.3
248.032	12.91
248.25	10.07
248.468	18.85
248.685	21.87
248.903	47.69
249.121	54.9
249.339	24.57
249.557	1.73
249.775	14.73
249.992	-45.03
250.21	-45.89
250.428	-22.18
250.646	-31.92
250.863	-52.96
251.081	-29.45
251.299	-12.37
251.517	5.53
251.734	-3.28
251.952	6.33
252.17	9.45
252.387	13.94
252.605	-2.37
252.823	4.61
253.04	17.77
253.258	32.58
253.475	40.62
253.693	58.68
253.911	67.83
254.128	76.27
254.346	80.63
254.563	31.52
254.781	11.19
254.998	-4.73
255.216	-18.95
255.433	-1.74
255.651	66.45
255.868	67.88
256.086	78.79
256.303	64.8
256.521	44.15
256.738	23.69
256.956	3.15
257.173	-14.12
257.39	-31.34
257.608	-50
257.825	13.57
258.043	63.28
258.26	58.73
258.477	89.28
258.695	84.4
258.912	5.92
259.129	16.8
259.346	-21.91
259.564	-43.78
259.781	-70.77
259.998	15.39
260.216	19.43
260.433	72.04
260.65	61.73
260.867	86.48
261.084	44.12
261.302	15.15
261.519	-10.94
261.736	-28.57
261.953	-37.69
262.17	7.73
262.387	-1.16
262.604	-21.03
262.822	-8.79
263.039	-1.12
263.256	-54.56
263.473	-22.74
263.69	-21.73
263.907	4.43
264.124	15.4
264.341	32.52
264.558	18.98
264.775	36.3
264.992	33.29
265.209	32.73
265.426	52.05
265.643	57.81
265.86	79.73
266.077	74.68
266.294	34.88
266.51	-24.33
266.727	-41.66
266.944	-52.74
267.161	-47.83
267.378	-36.91
267.595	2.14
267.812	-10.6
268.028	-25.91
268.245	4.57
268.462	-9.73
268.679	-22.74
268.896	29.32
269.112	30.56
269.329	10.46
269.546	14.97
269.763	5.09
269.979	-11.93
270.196	-15.57
270.413	-33.95
270.629	-38.28
270.846	-50.92
271.063	-41.9
271.279	-62.28
271.496	-57.59
271.712	-1.5
271.929	22.98
272.146	23.6
272.362	54.45
272.579	90.52
272.795	62.5
273.012	69.89
273.228	49.96
273.445	22.06
273.661	-11.74
273.878	-41.84
274.094	-48.36
274.311	-50.25
274.527	23.65
274.744	27.14
274.96	10.28
275.177	23.89
275.393	34.88
275.609	15.78
275.826	56.48
276.042	61.79
276.259	41.73
276.475	47.1
276.691	55.07
276.908	14.33
277.124	24.16
277.34	37.53
277.557	31.19
277.773	-2.74
277.989	-6.47
278.205	-8.78
278.422	1.29
278.638	3.73
278.854	32.15
279.07	22.76
279.286	16.97
279.503	-19.39
279.719	-37.6
279.935	-68.86
280.151	-68.35
280.367	-45.92
280.583	-43.21
280.799	-43.69
281.016	-55.36
281.232	-11.29
281.448	-9.07
281.664	14.56
281.88	26.22
282.096	48.84
282.312	58.21
282.528	72.39
282.744	62.6
282.96	52.57
283.176	28.77
283.392	17.28
283.608	17.26
283.824	10.75
284.04	16.5
284.256	34.1
284.471	29.48
284.687	17.51
284.903	52.62
285.119	76.39
285.335	50.06
285.551	62.36
285.767	38.51
285.982	8.44
286.198	-30.76
286.414	23.18
286.63	30.74
286.846	50.77
287.061	32.13
287.277	47.69
287.493	16.7
287.709	21.41
287.924	9.63
288.14	44
288.356	62.06
288.571	75.06
288.787	62.15
289.003	49.76
289.218	27.18
289.434	-25.49
289.65	-29.19
289.865	-25.75
290.081	17.1
290.296	24.41
290.512	33.42
290.727	12.61
290.943	-3.17
291.159	-24.7
291.374	-23
291.59	-40.01
291.805	-29.39
292.021	-19.78
292.236	-18.62
292.451	-3.79
292.667	8.74
292.882	21.14
293.098	25.28
293.313	18.03
293.529	-11.51
293.744	-34.85
293.959	-38.2
294.175	-40.39
294.39	8.27
294.605	27.73
294.821	61.5
295.036	58.64
295.251	72.57
295.467	44.06
295.682	46.35
295.897	-11.99
296.112	-17.71
296.328	-26.7
296.543	-66.8
296.758	-68.98
296.973	-3.58
297.188	31.4
297.404	5.45
297.619	7.98
297.834	-9.63
298.049	-47.28
298.264	-72
298.479	-1.71
298.694	4.38
298.909	32.13
299.125	47.23
299.34	53.64
299.555	18.69
299.77	40.97
299.985	-10.94
300.2	-64.73
300.415	-81.88
300.63	-35.25
300.845	-64.68
301.06	-73.26
301.275	-42.28
301.49	-12.84
301.704	-28.92
301.919	-29.23
302.134	-24.94
302.349	-20.82
302.564	-74.61
302.779	-123.72
302.994	-73.98
303.209	-25.25
303.423	7.48
303.638	36.14
303.853	21.92
304.068	1.42
304.283	-9.98
304.497	-17.96
304.712	-26.34
304.927	-10.24
305.142	-14.77
305.356	-6.71
305.571	-7.66
305.786	-22.49
306	-42.92
306.215	-31.58
306.43	-57.27
306.644	-37.71
306.859	11.87
307.074	31.3
307.288	4.56
307.503	21.87
307.717	-5.76
307.932	-11.59
308.147	-30.72
308.361	-7.28
308.576	-21.19
308.79	-52.61
309.005	-42.28
309.219	-15.81
309.434	-21.88
309.648	-21.4
309.863	5.61
310.077	15.44
310.292	11.3
310.506	2.71
310.72	16.38
310.935	27.41
311.149	16.99
311.364	43.33
311.578	62.14
311.792	57.06
312.007	59.88
312.221	50.24
312.435	40
312.649	14.91
312.864	59.01
313.078	65.89
313.292	135.47
313.507	107.73
313.721	176.12
313.935	81.14
314.149	55.34
314.363	21.12
314.578	21.43
314.792	17.32
315.006	-1.63
315.22	8.97
315.434	20.42
315.648	40.18
315.862	36.64
316.077	47.72
316.291	52.21
316.505	49.84
316.719	47.35
316.933	11
317.147	-0.63
317.361	-54.59
317.575	-62.36
317.789	-111.4
318.003	-154.9
318.217	-109.5
318.431	-5.88
318.645	27.08
318.859	27.78
319.073	65.21
319.287	44.38
319.5	10.27
319.714	-35.05
319.928	-48.63
320.142	-81.28
320.356	-1.42
320.57	33.97
320.784	27.88
320.997	42.79
321.211	39.15
321.425	-57.98
321.639	-87.83
321.853	-23.47
322.066	-10.2
322.28	-14.16
322.494	1.57
322.707	27.7
322.921	16.36
323.135	2.15
323.349	16.9
323.562	0.25
323.776	-18.9
323.989	-18.22
324.203	-36.92
324.417	-46.35
324.63	-56.27
324.844	-52.7
325.057	-49.69
325.271	-29.15
325.485	-11.08
325.698	13.38
325.912	29.03
326.125	9.19
326.339	24.17
326.552	6.09
326.766	20.65
326.979	24.71
327.193	53.02
327.406	33.01
327.619	34.03
327.833	33.79
328.046	9.83
328.26	-28.85
328.473	11.28
328.686	-5.46
328.9	-1.7
329.113	16.14
329.326	7.12
329.54	0.61
329.753	-13.47
329.966	-38.1
330.179	-15.87
330.393	12.81
330.606	24.52
330.819	39.6
331.032	49.98
331.246	46.62
331.459	61.68
331.672	43.68
331.885	44.39
332.098	10.75
332.311	1.46
332.525	-46.79
332.738	-19.95
332.951	-11.85
333.164	33.65
333.377	28.06
333.59	52.21
333.803	39.43
334.016	47.07
334.229	39.55
334.442	56.67
334.655	64.93
334.868	83.15
335.081	70.13
335.294	56.05
335.507	50.55
335.72	29.47
335.933	-0.23
336.146	-13.95
336.359	-6.67
336.572	-37.69
336.785	-57.22
336.997	-43.57
337.21	-16.4
337.423	-19.58
337.636	0.64
337.849	7.29
338.062	7.49
338.274	13.96
338.487	10.45
338.7	-2.68
338.913	-37.91
339.125	-70.38
339.338	-142.26
339.551	-113.76
339.763	-62.3
339.976	-6.26
340.189	15.91
340.402	26.52
340.614	12.73
340.827	-0.37
341.039	-21.92
341.252	-16.55
341.465	4.97
341.677	-3.68
341.89	-42.66
342.102	-13.78
342.315	-26.25
342.527	-52.01
342.74	-22.53
342.952	10.79
343.165	7.04
343.377	26.47
343.59	3.21
343.802	4.35
344.015	-0.2
344.227	16.65
344.44	16.44
344.652	32.04
344.864	9.45
345.077	33.35
345.289	30.91
345.502	28.22
345.714	19.79
345.926	36.58
346.139	24.38
346.351	19.74
346.563	22.06
346.775	25.48
346.988	11.99
347.2	-1.79
347.412	-39.83
347.624	-55.73
347.837	-62.28
348.049	-24.56
348.261	22.28
348.473	45.03
348.685	50.45
348.897	44.64
349.11	-0.23
349.322	-26.36
349.534	-29.23
349.746	-25.47
349.958	-11.19
350.17	19.12
350.382	33.01
350.594	21.97
350.806	30.19
351.018	28.16
351.23	9.41
351.442	-35.3
351.654	-33.45
351.866	-26.37
352.078	-4.37
352.29	33.72
352.502	33.21
352.714	40.44
352.926	25.95
353.138	18.85
353.35	-3.81
353.561	-6.52
353.773	-27.47
353.985	-9.25
354.197	-24.95
354.409	-16.98
354.621	-18.21
354.832	-7.56
355.044	-20
355.256	-20.33
355.468	-13.79
355.679	-17.24
355.891	-9.31
356.103	-19.43
356.314	-0.5
356.526	9.55
356.738	12.76
356.949	-4.05
357.161	18.96
357.373	8
357.584	-4.75
357.796	4.79
358.008	7
358.219	16.45
358.431	24.63
358.642	23.36
358.854	17.99
359.065	6.28
359.277	-20.17
359.488	-45.64
359.7	-53.53
359.911	-54.9
360.123	-30.08
360.334	-40.11
360.546	-31.47
360.757	-31.47
360.969	-17.14
361.18	-12.18
361.391	-2.38
361.603	-7.25
361.814	9.49
362.025	5.61
362.237	10.34
362.448	20.81
362.659	32.58
362.871	15.05
363.082	8.79
363.293	11.26
363.504	3.43
363.716	-21.68
363.927	-6.27
364.138	-23.31
364.349	-50.46
364.56	-43.09
364.772	-32.98
364.983	-13.47
365.194	-2.75
365.405	19.05
365.616	35.67
365.827	38.49
366.038	14.82
366.25	8.24
366.461	-22.74
366.672	-13.89
366.883	1.9
367.094	10.84
367.305	5.04
367.516	20.22
367.727	3.51
367.938	-16.77
368.149	-23.62
368.36	4.21
368.571	-0.43
368.781	-14.69
368.992	-22.82
369.203	-30.16
369.414	-73.83
369.625	-81.29
369.836	-73.83
370.047	-76.56
370.258	-68.47
370.468	-56.63
370.679	-73.31
370.89	-65.77
371.101	-43.31
371.312	-44.48
371.522	-30.55
371.733	-16.9
371.944	-3.66
372.155	-1.11
372.365	-10.91
372.576	-14.9
372.787	-13.95
372.997	-26.49
373.208	-26.73
373.419	10.94
373.629	-17.64
373.84	-18.81
374.05	-24.31
374.261	-21.01
374.472	-42.89
374.682	6.95
374.893	12.13
375.103	35.93
375.314	32.87
375.524	40.52
375.735	38.34
375.945	37.55
376.156	12.94
376.366	19.21
376.577	11.72
376.787	4.61
376.997	8.39
377.208	9.66
377.418	-12.75
377.629	2.92
377.839	6.6
378.049	8.91
378.26	26.8
378.47	41.97
378.68	27.88
378.89	22.82
379.101	18.24
379.311	-10.58
379.521	-38.75
379.732	-26.88
379.942	-23.41
380.152	-40.25
380.362	-16.26
380.572	-10.37
380.783	1.6
380.993	7.38
381.203	16.23
381.413	21.62
381.623	26.76
381.833	20.45
382.043	8.42
382.253	2.47
382.463	-0.86
382.674	-15.3
382.884	-35.36
383.094	-33.61
383.304	-24.71
383.514	-17.55
383.724	-2.86
383.934	-5.77
384.144	-8.28
384.353	-13.5
384.563	-15.97
384.773	-9.73
384.983	-8.65
385.193	5.13
385.403	8.5
385.613	8.4
385.823	-1.2
386.033	5.92
386.242	-6.79
386.452	-6.49
386.662	-18.5
386.872	-9.65
387.082	-15.9
387.291	-15.41
387.501	-15.49
387.711	-1.12
387.921	-12.01
388.13	-7.76
388.34	2.58
388.55	-3.39
388.759	-6.22
388.969	4.49
389.179	-1.75
389.388	-4.47
389.598	-1.64
389.807	-7.44
390.017	-13.68
390.227	-10.76
390.436	-13.1
390.646	-10.81
390.855	-6.14
391.065	-6.2
391.274	-6.81
391.484	-6.28
391.693	-4.12
391.903	-0.86
392.112	6.32
392.322	8.04
392.531	11.14
392.74	12.34
392.95	5.78
393.159	1.93
393.369	2.84
393.578	0.08
393.787	-1.28
393.997	0.35
394.206	-1.7
394.415	-2.78
394.625	-2.64
394.834	-4.89
395.043	-3.06
395.252	0.3
395.462	2.84
395.671	5.24
395.88	6.4
396.089	6.49
396.298	4.67
396.508	3.61
396.717	1.51
396.926	2.03
397.135	1.98
397.344	1.85
397.553	2.94
397.762	4.89
397.971	4.34
398.181	3.65
398.39	2.71
398.599	1.58
398.808	0.78
399.017	1.81
399.226	3.89
399.435	5.29
399.644	5.68
399.853	4.84
400.062	4.39
400.27	3.23
400.479	2.89
400.688	2.21
400.897	2.66
401.106	2.52
401.315	2.01
401.524	1.93
401.733	2.6
401.941	3.02
402.15	3.04
402.359	3.14
402.568	3.73
402.777	3.6
402.985	3.21
403.194	3.12
403.403	3.35
403.612	2.57
403.82	2.5
404.029	2.76
404.238	2.7
404.446	2.95
404.655	2.94
404.864	3.02
405.072	2.77
405.281	2.89
405.489	2.59
405.698	2.72
405.906	2.49
406.115	2.45
406.324	2.5
406.532	2.72
406.741	2.81
406.949	2.95
407.158	2.99
407.366	2.73
407.574	2.57
407.783	2.54
407.991	2.28
408.2	2.64
408.408	2.8
408.617	2.76
408.825	2.62
409.033	2.78
409.242	2.62
409.45	2.77
409.658	2.56
409.867	2.72
410.075	2.59
410.283	2.38
410.491	2.15
410.7	2.24
410.908	2.29
411.116	2.51
411.324	2.57
411.533	2.62
411.741	2.86
411.949	2.83
412.157	2.52
412.365	2.54
412.573	2.52
412.781	2.45
412.99	2.26
413.198	2.56
413.406	2.61
413.614	2.54
413.822	2.44
414.03	2.39
414.238	2.16
414.446	2.25
414.654	2.18
414.862	2.27
415.07	2.46
415.278	2.71
415.486	2.36
415.694	2.56
415.902	2.37
416.109	2.27
416.317	2.06
416.525	2.06
416.733	1.93
416.941	2.19
417.149	2.23
417.357	2.32
417.564	2.55
417.772	2.79
417.98	2.72
418.188	2.61
418.395	2.75
418.603	2.87
418.811	2.49
419.019	2.46
419.226	2.7
419.434	2.66
419.642	2.4
419.849	2.63
420.057	2.64
420.265	2.51
420.472	2.34
420.68	2.35
420.887	2.22
421.095	2.28
421.302	2.27
421.51	2.42
421.717	2.55
421.925	2.66
422.132	2.32
422.34	2.09
422.547	2.26
422.755	2.14
422.962	1.95
423.17	2.09
423.377	2.2
423.585	2.1
423.792	1.91
423.999	1.94
424.207	1.95
424.414	2.19
424.621	2.06
424.829	2.16
425.036	2.28
425.243	2.35
425.451	2.12
425.658	1.99
425.865	2.19
426.072	1.99
426.28	2.3
426.487	2.28
426.694	2.41
426.901	2.19
427.108	2.39
427.315	1.99
427.523	2.27
427.73	2.19
427.937	2.2
428.144	2.01
428.351	2.06
428.558	2.19
428.765	2.21
428.972	2.24
429.179	2.38
429.386	2.71
429.593	2.35
429.8	2.17
430.007	2.12
430.214	2.27
430.421	2.03
430.628	1.89
430.835	1.85
431.042	2.12
431.249	2.03
431.456	1.93
431.662	2.18
431.869	2.37
432.076	2.26
432.283	2.32
432.49	2.36
432.697	2.34
432.903	2.2
433.11	2.13
433.317	2.17
433.524	2.24
433.73	2.12
433.937	2.42
434.144	2.32
434.35	2.19
434.557	2.14
434.764	2.19
434.97	2.04
435.177	2.25
435.384	2.2
435.59	2.24
435.797	2.37
436.003	2.41
436.21	2.4
436.416	2.54
436.623	2.47
436.829	2.58
437.036	2.63
437.242	2.55
437.449	2.46
437.655	2.5
437.862	2.35
438.068	2.21
438.275	2.43
438.481	2.66
438.687	2.68
438.894	2.64
439.1	2.69
439.307	2.7
439.513	2.5
439.719	2.45
439.926	2.54
440.132	2.56
440.338	2.37
440.544	2.56
440.751	2.55
440.957	2.58
441.163	2.47
441.369	2.55
441.575	2.25
441.782	2.27
441.988	2.14
442.194	2.23
442.4	2.13
442.606	2.42
442.812	2.5
443.018	2.63
443.224	2.66
443.431	2.89
443.637	2.7
443.843	2.53
444.049	2.51
444.255	2.36
444.461	2.3
444.667	2.21
444.873	2.41
445.079	2.37
445.284	2.56
445.49	2.3
445.696	2.26
445.902	2.18
446.108	2.13
446.314	2.07
446.52	2.18
446.726	2.4
446.931	2.42
447.137	2.45
447.343	2.49
447.549	2.48
447.755	2.37
447.96	2.46
448.166	2.44
448.372	2.36
448.578	2.41
448.783	2.43
448.989	2.46
449.195	2.68
449.4	2.69
449.606	2.67
449.812	2.55
450.017	2.48
450.223	2.29
450.428	2.2
450.634	2.38
450.84	2.53
451.045	2.48
451.251	2.41
451.456	2.74
451.662	2.62
451.867	2.66
452.073	2.65
452.278	2.83
452.483	2.76
452.689	2.71
452.894	2.74
453.1	2.77
453.305	2.67
453.51	2.58
453.716	2.49
453.921	2.47
454.127	2.39
454.332	2.33
454.537	2.18
454.742	2.28
454.948	2.17
455.153	2.24
455.358	2.38
455.563	2.63
455.769	2.76
455.974	2.78
456.179	2.71
456.384	2.66
456.589	2.61
456.795	2.33
457	2.33
457.205	2.58
457.41	2.49
457.615	2.43
457.82	2.64
458.025	2.64
458.23	2.4
458.435	2.52
458.64	2.47
458.845	2.55
459.05	2.58
459.255	2.62
459.46	2.55
459.665	2.54
459.87	2.52
460.075	2.46
460.28	2.48
460.485	2.6
460.69	2.65
460.895	2.46
461.099	2.39
461.304	2.57
461.509	2.59
461.714	2.52
461.919	2.72
462.123	2.7
462.328	2.62
462.533	2.48
462.738	2.6
462.942	2.45
463.147	2.57
463.352	2.56
