Data from Ofra_PS_T2_1A_8HS21_Reflection_2.txt Node
Date: Wed Jul 21 18:14:56 EDT 2021
User: Adam
Spectrometer: FLMT01687
Trigger mode: 0
Integration Time (sec): 1.100000E0
Scans to average: 2
Electric dark correction enabled: true
Nonlinearity correction enabled: false
Boxcar width: 2
XAxis mode: Wavelengths
Number of Pixels in Spectrum: 3648
>>>>>Begin Spectral Data<<<<<
179.494	489.8
179.716	540.94
179.937	516.78
180.158	473.56
180.38	520.16
180.601	90.19
180.823	20.27
181.044	-197.04
181.265	14.15
181.486	104.89
181.708	91.74
181.929	633.16
182.15	-428.52
182.372	58.36
182.593	-40.16
182.814	-43.59
183.035	-13.26
183.257	-1.92
183.478	-46.22
183.699	0.82
183.92	-30.22
184.141	-8.31
184.363	-42.26
184.584	-22.03
184.805	-6.29
185.026	49.52
185.247	34.87
185.468	9.81
185.689	5.5
185.91	13.31
186.132	5.4
186.353	2.66
186.574	50.6
186.795	37.39
187.016	-16.71
187.237	-33.76
187.458	-62.45
187.679	-52.34
187.9	-18.36
188.121	-10.68
188.342	-10.71
188.563	14.58
188.784	-13.67
189.005	-25.09
189.226	2.37
189.447	-20.33
189.667	-264.2
189.888	-407.02
190.109	-1256.17
190.33	-703.39
190.551	-1219.69
190.772	-230.57
190.993	-159.96
191.214	-139.14
191.434	-96.68
191.655	-4.2
191.876	-41.25
192.097	-95.15
192.318	-150.26
192.538	-259.02
192.759	-177.89
192.98	-95.52
193.201	-32.16
193.421	0.38
193.642	22.98
193.863	24.94
194.083	10.65
194.304	9.83
194.525	-9.03
194.745	-29.06
194.966	-53.63
195.187	-37.96
195.407	-80.68
195.628	-130.02
195.848	-148.85
196.069	-123.33
196.29	-115.99
196.51	-110.26
196.731	-88.8
196.951	-89.31
197.172	-106.88
197.392	-107.22
197.613	-104.44
197.833	-141.35
198.054	-106.16
198.274	-74.56
198.495	-107.99
198.715	-75.21
198.936	-83.66
199.156	-69.51
199.377	-160.59
199.597	-130.46
199.817	-160.67
200.038	-86.81
200.258	-161.89
200.479	-84.22
200.699	-69.13
200.919	4.09
201.14	-33.75
201.36	-33.29
201.58	9.49
201.801	25.94
202.021	5.05
202.241	3.93
202.461	3.78
202.682	-87.49
202.902	-127.03
203.122	-64.46
203.342	-44.31
203.563	-10.3
203.783	15.53
204.003	-47.3
204.223	-68.26
204.443	0.14
204.663	-30.46
204.884	-7.6
205.104	44.15
205.324	41.55
205.544	6.2
205.764	21.65
205.984	15.96
206.204	21.38
206.424	22.59
206.644	-17.51
206.864	-1.96
207.084	-55.38
207.304	-59.31
207.525	-205.7
207.745	-70.03
207.964	-30.19
208.184	-68.43
208.404	-99.64
208.624	-92.06
208.844	-80.79
209.064	-352.82
209.284	-361.72
209.504	-161.77
209.724	-50.84
209.944	-55.78
210.164	-18.83
210.384	0.88
210.604	-6.34
210.823	-48.72
211.043	-38.62
211.263	-18.5
211.483	-3.46
211.703	-39.37
211.922	-8.09
212.142	15.5
212.362	4.7
212.582	-32.54
212.801	-39.31
213.021	-57.82
213.241	-59.63
213.461	-86.24
213.68	-94.8
213.9	-59.46
214.12	-51.05
214.339	-127.99
214.559	-99.38
214.779	-55.02
214.998	-58.88
215.218	-99.03
215.438	-57.55
215.657	-63.61
215.877	-40.1
216.096	-30.07
216.316	-15.44
216.535	-17.68
216.755	-14.65
216.974	-111.65
217.194	-135.51
217.413	-126.58
217.633	-109.26
217.852	-208.69
218.072	-80.26
218.291	-35.8
218.511	19.39
218.73	-12.41
218.95	2.8
219.169	-9.64
219.389	-44.31
219.608	-50.34
219.827	-31.98
220.047	-20.85
220.266	-5.13
220.485	-1.46
220.705	9.98
220.924	-14.6
221.143	8.02
221.363	-20.45
221.582	-11.98
221.801	-30.8
222.021	-5.1
222.24	-81.04
222.459	14.24
222.678	10.89
222.897	-27.73
223.117	-84.54
223.336	-41.97
223.555	-58.64
223.774	-25.45
223.993	-6.52
224.213	50.57
224.432	15.95
224.651	52.36
224.87	15.7
225.089	23.83
225.308	5.36
225.527	14.66
225.746	-2.48
225.965	-6.32
226.184	-23.65
226.404	-3.63
226.623	-24.76
226.842	-25.76
227.061	-3.79
227.28	7.78
227.499	-7.53
227.718	13.66
227.936	0.1
228.155	0.12
228.374	-23.91
228.593	-5.15
228.812	-10.56
229.031	-10.11
229.25	-48.44
229.469	-53.53
229.688	-60.55
229.907	-39.85
230.125	-21.54
230.344	-8.08
230.563	-2.41
230.782	-0.44
231.001	-62.57
231.22	-58.88
231.438	-29.89
231.657	-13.62
231.876	-13.8
232.095	32.38
232.313	39.08
232.532	8.29
232.751	-33.6
232.969	-56.13
233.188	-167.49
233.407	-98.87
233.625	-40.17
233.844	-33.12
234.063	5.14
234.281	35.02
234.5	40.06
234.719	44.56
234.937	39.5
235.156	37.56
235.374	20.01
235.593	-19.98
235.811	-40.13
236.03	-34.22
236.249	-93.14
236.467	-77.59
236.686	-17.22
236.904	-2.86
237.123	-24.8
237.341	-3.58
237.559	-3.8
237.778	-17.08
237.996	-39.34
238.215	8.9
238.433	-0.23
238.652	-5.73
238.87	-27.58
239.088	-19.11
239.307	-23.93
239.525	-36.61
239.743	-36.34
239.962	-12.78
240.18	-28.35
240.398	-69.75
240.617	-74.91
240.835	-88.84
241.053	-81.05
241.271	-29.37
241.49	-4.44
241.708	-29.35
241.926	-47.91
242.144	-13.39
242.363	-86.16
242.581	-130.64
242.799	-91.01
243.017	-47.21
243.235	-61.27
243.453	-37.56
243.672	-36.3
243.89	-28.13
244.108	-33.81
244.326	-14.75
244.544	-15.58
244.762	-4.99
244.98	2.9
245.198	14.24
245.416	-21.01
245.634	-11.76
245.852	-24.82
246.07	-36.17
246.288	-48.49
246.506	-51.12
246.724	-39.35
246.942	-3.1
247.16	27.74
247.378	34.15
247.596	43.28
247.814	31.87
248.032	2.15
248.25	5.99
248.468	6.29
248.685	13.7
248.903	34.8
249.121	42.77
249.339	3.74
249.557	-10.85
249.775	-14.68
249.992	-72.93
250.21	-68.62
250.428	-41.93
250.646	-51.46
250.863	-66.1
251.081	-31.32
251.299	-36.17
251.517	-41.17
251.734	-36.28
251.952	-13.96
252.17	-8.24
252.387	3.33
252.605	3.09
252.823	16.83
253.04	16.86
253.258	27.76
253.475	21.26
253.693	55.22
253.911	44
254.128	56.94
254.346	51.1
254.563	21.96
254.781	-28.23
254.998	-50.02
255.216	-58.54
255.433	-41.13
255.651	3.24
255.868	24.55
256.086	35.42
256.303	11.87
256.521	9.38
256.738	-17.08
256.956	-44.45
257.173	-59.38
257.39	-68.24
257.608	-89.85
257.825	16.05
258.043	64.46
258.26	66.76
258.477	99.23
258.695	90.04
258.912	14.66
259.129	14.09
259.346	-12.79
259.564	-54.05
259.781	-72.24
259.998	-11.36
260.216	10.92
260.433	43.86
260.65	47.94
260.867	65.75
261.084	18.61
261.302	1.25
261.519	-8.85
261.736	-31.33
261.953	-57.68
262.17	-8.1
262.387	-34.27
262.604	-82.09
262.822	-82.27
263.039	-49.89
263.256	-93.63
263.473	-71.97
263.69	-30.21
263.907	16.77
264.124	15.92
264.341	22.18
264.558	15.32
264.775	25.64
264.992	-11.27
265.209	-13.93
265.426	-1.84
265.643	-4.7
265.86	-8.26
266.077	9.29
266.294	-0.1
266.51	-13.92
266.727	-6.39
266.944	4.19
267.161	3.84
267.378	7.55
267.595	17.56
267.812	-9.15
268.028	-45.3
268.245	-52.87
268.462	-54.54
268.679	-66.8
268.896	-13.38
269.112	3.32
269.329	-3.47
269.546	-4.25
269.763	-4.43
269.979	-21.37
270.196	-29.9
270.413	-57.21
270.629	-69.76
270.846	-95.85
271.063	-96.26
271.279	-111.66
271.496	-88.83
271.712	-44.61
271.929	-7.46
272.146	-22.74
272.362	-15.39
272.579	27.35
272.795	24.08
273.012	16.37
273.228	26.17
273.445	4.61
273.661	-33.58
273.878	-73.66
274.094	-60.57
274.311	-108
274.527	-28.81
274.744	-38.32
274.96	-35.89
275.177	-22.85
275.393	7.75
275.609	1.04
275.826	32.81
276.042	34.37
276.259	28.56
276.475	46.44
276.691	32.28
276.908	1.19
277.124	5.72
277.34	-1.69
277.557	-24.86
277.773	-17.45
277.989	-10.87
278.205	-13.4
278.422	-9.77
278.638	-4.13
278.854	-1.44
279.07	-2.23
279.286	-1.44
279.503	-14.2
279.719	-18.75
279.935	-28.27
280.151	-49.04
280.367	-40.28
280.583	-49.9
280.799	-49.46
281.016	-84.52
281.232	-37.74
281.448	-27.67
281.664	-10.39
281.88	-38.82
282.096	0.94
282.312	15.72
282.528	31.45
282.744	42.2
282.96	40.48
283.176	22.22
283.392	15.69
283.608	-9.22
283.824	-6.98
284.04	-0.21
284.256	16.75
284.471	10.05
284.687	28.26
284.903	28.54
285.119	41.85
285.335	10.48
285.551	10.92
285.767	-19.89
285.982	-26.62
286.198	-60.49
286.414	-3.72
286.63	-4.23
286.846	26.8
287.061	14.92
287.277	43.09
287.493	15.68
287.709	35.6
287.924	4.11
288.14	39.23
288.356	25.69
288.571	52.28
288.787	32.65
289.003	40.07
289.218	15.48
289.434	-20.7
289.65	-31.92
289.865	-51.24
290.081	-43.61
290.296	-44.54
290.512	-22.82
290.727	-48.26
290.943	-33.6
291.159	-33.7
291.374	-31.59
291.59	-36.18
291.805	-16.69
292.021	-6.06
292.236	-5.23
292.451	15.65
292.667	15.81
292.882	20.17
293.098	-1.02
293.313	-22.39
293.529	-63.78
293.744	-73.39
293.959	-76.35
294.175	-59.3
294.39	-11.57
294.605	10.16
294.821	29.85
295.036	36.6
295.251	31.77
295.467	-1.69
295.682	-15.11
295.897	-75.66
296.112	-74.82
296.328	-48.56
296.543	-65.87
296.758	-69.47
296.973	-12.39
297.188	15.39
297.404	-20.08
297.619	-24.61
297.834	-26.08
298.049	-50.23
298.264	-64.4
298.479	-14.05
298.694	-6.15
298.909	7.89
299.125	10.93
299.34	-2.56
299.555	-26.18
299.77	-10.73
299.985	-49.12
300.2	-88.68
300.415	-92.3
300.63	-58.53
300.845	-62.4
301.06	-58.48
301.275	-26.3
301.49	-14.36
301.704	-14.99
301.919	-35.6
302.134	-54.78
302.349	-61.46
302.564	-135.19
302.779	-159.32
302.994	-140.79
303.209	-50.03
303.423	-10.5
303.638	49.84
303.853	-1.43
304.068	-10.82
304.283	-6.02
304.497	-0.21
304.712	-6.35
304.927	0.96
305.142	-2.4
305.356	-1.3
305.571	-17.55
305.786	-30.65
306	-54.57
306.215	-51.35
306.43	-75.57
306.644	-87.49
306.859	-48.34
307.074	-15.92
307.288	-40.65
307.503	-50.15
307.717	-50.4
307.932	-60.04
308.147	-52.29
308.361	-31.86
308.576	-35.73
308.79	-67.63
309.005	-63.87
309.219	-40.47
309.434	-55.52
309.648	-54.71
309.863	-29.01
310.077	-12.23
310.292	-20.45
310.506	-5.77
310.72	16.81
310.935	26.75
311.149	17.71
311.364	24.42
311.578	28.94
311.792	31.68
312.007	36.19
312.221	23.59
312.435	35
312.649	21.69
312.864	45.26
313.078	48.02
313.292	84.58
313.507	20.47
313.721	38.5
313.935	9.26
314.149	-12.16
314.363	-18.26
314.578	-8.53
314.792	7.45
315.006	-9.85
315.22	8.59
315.434	22.68
315.648	25.21
315.862	6.75
316.077	22.62
316.291	-2.33
316.505	-19.97
316.719	-27.76
316.933	-30.89
317.147	-36.83
317.361	-51.2
317.575	-56.69
317.789	-115.07
318.003	-199.65
318.217	-175.83
318.431	-94.89
318.645	-42.36
318.859	-22.49
319.073	4.71
319.287	-2.42
319.5	-21.21
319.714	-68.97
319.928	-76.01
320.142	-84.98
320.356	-34.81
320.57	5.61
320.784	18.83
320.997	-10.7
321.211	-8.95
321.425	-74.77
321.639	-104.66
321.853	-50.85
322.066	-26.66
322.28	-35.17
322.494	-12.92
322.707	7.17
322.921	-7.23
323.135	-6.36
323.349	16.72
323.562	1.31
323.776	-19.56
323.989	-19.88
324.203	-29.41
324.417	-51.84
324.63	-67.15
324.844	-69.93
325.057	-62.47
325.271	-38.28
325.485	-9.66
325.698	16.08
325.912	30.87
326.125	4.55
326.339	-1.43
326.552	-20.73
326.766	-32.13
326.979	-20.21
327.193	23.35
327.406	12.22
327.619	4.45
327.833	19.25
328.046	-11.64
328.26	-60.46
328.473	-27.99
328.686	-59.18
328.9	-68.91
329.113	-33.31
329.326	-49.52
329.54	-50.71
329.753	-42.23
329.966	-72.65
330.179	-74.09
330.393	-32.27
330.606	-25.69
330.819	-3.81
331.032	15.94
331.246	17.9
331.459	35.17
331.672	28.11
331.885	13.57
332.098	-8.12
332.311	-17.01
332.525	-57.12
332.738	-60.89
332.951	-13.83
333.164	6.25
333.377	3.59
333.59	14.05
333.803	18.63
334.016	2.17
334.229	-0.45
334.442	13.33
334.655	38.61
334.868	42.04
335.081	34.92
335.294	28.62
335.507	13.6
335.72	2.97
335.933	-12.19
336.146	-6.36
336.359	-17.09
336.572	-39.75
336.785	-67.08
336.997	-57.83
337.21	-54.47
337.423	-47.66
337.636	-37.35
337.849	-12.93
338.062	-23.3
338.274	-9.89
338.487	-17.54
338.7	0.72
338.913	-31.66
339.125	-35.46
339.338	-80.2
339.551	-67.13
339.763	-60.43
339.976	-22.49
340.189	-10.67
340.402	0.11
340.614	7.7
340.827	0.41
341.039	-31.74
341.252	-38.3
341.465	-14.02
341.677	-19.91
341.89	-41.21
342.102	-5.8
342.315	-9.43
342.527	-35.5
342.74	-42.97
342.952	-14.42
343.165	-20.01
343.377	-6.11
343.59	-6.15
343.802	17.65
344.015	19.24
344.227	37.39
344.44	34.65
344.652	32.03
344.864	12.19
345.077	19.64
345.289	15.38
345.502	25.89
345.714	22.15
345.926	26.09
346.139	17.01
346.351	24.43
346.563	10.41
346.775	11.49
346.988	-9.33
347.2	-20.3
347.412	-79.04
347.624	-83.58
347.837	-98.37
348.049	-59.77
348.261	-28.59
348.473	-5.11
348.685	-12.61
348.897	-12.47
349.11	-25.77
349.322	-42.76
349.534	-27.64
349.746	-27.03
349.958	-17.66
350.17	-27.51
350.382	-9.59
350.594	-13.08
350.806	-6.05
351.018	-9.99
351.23	-7.95
351.442	-40.91
351.654	-49.62
351.866	-48.13
352.078	-34.17
352.29	-23.89
352.502	-10.27
352.714	6.61
352.926	1.99
353.138	-0.67
353.35	-6.87
353.561	-7.98
353.773	-35.7
353.985	-22.02
354.197	-33.41
354.409	-30.98
354.621	-19.67
354.832	-3.99
355.044	-11.42
355.256	-3.65
355.468	6.58
355.679	-1.95
355.891	5.15
356.103	-4.79
356.314	1.75
356.526	8.44
356.738	4.08
356.949	-13.7
357.161	-8.96
357.373	-2.16
357.584	-18.85
357.796	-1.58
358.008	-5.1
358.219	14.95
358.431	1.29
358.642	14.18
358.854	9.38
359.065	-2.6
359.277	-34.5
359.488	-41.47
359.7	-70.16
359.911	-83.37
360.123	-46.43
360.334	-47.64
360.546	-55.18
360.757	-42.59
360.969	-36.77
361.18	-40.67
361.391	-15.7
361.603	-26.84
361.814	-19.35
362.025	-15.52
362.237	-8.76
362.448	-7.77
362.659	24.52
362.871	19.02
363.082	16.9
363.293	10.4
363.504	2.55
363.716	-34.41
363.927	-55.07
364.138	-78.16
364.349	-74.94
364.56	-57.24
364.772	-44.38
364.983	-13.83
365.194	-1.53
365.405	-1.62
365.616	6.57
365.827	1.46
366.038	-20.89
366.25	-32.93
366.461	-66.25
366.672	-37.81
366.883	-12.34
367.094	-3.42
367.305	-0.66
367.516	6.9
367.727	-20.31
367.938	-40.17
368.149	-33.21
368.36	-22.18
368.571	-13.57
368.781	-20.98
368.992	-21.51
369.203	-39.9
369.414	-56.32
369.625	-69.83
369.836	-71.57
370.047	-96.77
370.258	-85.55
370.468	-80.31
370.679	-83.68
370.89	-67.03
371.101	-22.85
371.312	-11.66
371.522	-9.4
371.733	-4.72
371.944	-3
372.155	-15
372.365	-33.96
372.576	-34.5
372.787	-33.4
372.997	-54.34
373.208	-51.53
373.419	-28.38
373.629	-60.7
373.84	-67.73
374.05	-74.18
374.261	-70.38
374.472	-81.23
374.682	-20.23
374.893	-17.03
375.103	9.23
375.314	3.77
375.524	13.55
375.735	11.27
375.945	22.46
376.156	7.57
376.366	13.82
376.577	10.23
376.787	7.85
376.997	1.71
377.208	4.57
377.418	-9.49
377.629	-4.66
377.839	-6.45
378.049	-4.36
378.26	8.59
378.47	19.6
378.68	11.59
378.89	4.38
379.101	5.21
379.311	-24.39
379.521	-49.8
379.732	-53.56
379.942	-51
380.152	-80.61
380.362	-39.1
380.572	-31.95
380.783	-19.07
380.993	-9.89
381.203	5.8
381.413	11.47
381.623	17.52
381.833	11.81
382.043	3.61
382.253	-0.36
382.463	-11.21
382.674	-17.42
382.884	-30.41
383.094	-23.74
383.304	-19.43
383.514	-16
383.724	-7.84
383.934	-11.27
384.144	-25.57
384.353	-29.44
384.563	-24.98
384.773	-23.43
384.983	-23.92
385.193	-2.73
385.403	-0.57
385.613	-2.31
385.823	-12.6
386.033	-3.65
386.242	-12.43
386.452	-14.18
386.662	-22.8
386.872	-15.46
387.082	-22.41
387.291	-25.59
387.501	-29.11
387.711	-19.41
387.921	-18.14
388.13	-14.18
388.34	-1.35
388.55	-5.38
388.759	-6.58
388.969	-3.87
389.179	-5.86
389.388	-11.71
389.598	2.13
389.807	-6.38
390.017	-9.05
390.227	-4.95
390.436	-6.8
390.646	-11.05
390.855	-3.21
391.065	-3.91
391.274	-8.46
391.484	-10.16
391.693	-8.57
391.903	-8.18
392.112	-0.56
392.322	0.79
392.531	5.79
392.74	6.33
392.95	1.05
393.159	-3.6
393.369	-2.65
393.578	-4.39
393.787	-7.76
393.997	-4.14
394.206	-4.98
394.415	-5.2
394.625	-5.84
394.834	-5.31
395.043	-4.61
395.252	-1.3
395.462	0.55
395.671	2.87
395.88	1.9
396.089	2.41
396.298	0.31
396.508	-0.25
396.717	-1.32
396.926	1
397.135	0.47
397.344	0.83
397.553	1.2
397.762	2.21
397.971	1.63
398.181	1.42
398.39	0.88
398.599	1.02
398.808	0.96
399.017	1.86
399.226	2.91
399.435	3.75
399.644	4.16
399.853	3.09
400.062	2.37
400.27	1.87
400.479	1.71
400.688	0.68
400.897	1.02
401.106	1.21
401.315	1.1
401.524	1.25
401.733	1.8
401.941	2.28
402.15	2.34
402.359	2.29
402.568	2.19
402.777	2.22
402.985	2.01
403.194	1.9
403.403	1.99
403.612	1.8
403.82	1.68
404.029	1.89
404.238	1.74
404.446	2.06
404.655	1.77
404.864	1.71
405.072	1.51
405.281	1.75
405.489	1.27
405.698	1.38
405.906	1.35
406.115	1.3
406.324	1.14
406.532	1.42
406.741	1.74
406.949	1.77
407.158	1.77
407.366	1.85
407.574	1.78
407.783	1.8
407.991	1.75
408.2	1.84
408.408	1.81
408.617	1.59
408.825	1.48
409.033	1.61
409.242	1.71
409.45	1.83
409.658	1.82
409.867	1.9
410.075	1.75
410.283	1.56
410.491	1.46
410.7	1.5
410.908	1.51
411.116	1.76
411.324	1.73
411.533	1.6
411.741	1.88
411.949	1.98
412.157	1.75
412.365	1.84
412.573	1.97
412.781	1.93
412.99	1.63
413.198	1.81
413.406	1.85
413.614	1.89
413.822	1.65
414.03	1.7
414.238	1.4
414.446	1.47
414.654	1.23
414.862	1.43
415.07	1.49
415.278	1.68
415.486	1.49
415.694	1.77
415.902	1.61
416.109	1.47
416.317	1.5
416.525	1.39
416.733	1.22
416.941	1.43
417.149	1.51
417.357	1.51
417.564	1.71
417.772	1.97
417.98	1.83
418.188	1.75
418.395	1.83
418.603	1.82
418.811	1.39
419.019	1.4
419.226	1.54
419.434	1.55
419.642	1.4
419.849	1.62
420.057	1.58
420.265	1.52
420.472	1.33
420.68	1.34
420.887	1.27
421.095	1.31
421.302	1.31
421.51	1.5
421.717	1.66
421.925	1.81
422.132	1.79
422.34	1.64
422.547	1.6
422.755	1.42
422.962	1.29
423.17	1.26
423.377	1.35
423.585	1.25
423.792	1.27
423.999	1.25
424.207	1.23
424.414	1.33
424.621	1.35
424.829	1.32
425.036	1.34
425.243	1.37
425.451	1.23
425.658	0.96
425.865	1.21
426.072	1.22
426.28	1.35
426.487	1.46
426.694	1.79
426.901	1.56
427.108	1.42
427.315	1.17
427.523	1.37
427.73	1.29
427.937	1.31
428.144	1.35
428.351	1.39
428.558	1.34
428.765	1.16
428.972	1.13
429.179	1.34
429.386	1.65
429.593	1.4
429.8	1.49
430.007	1.57
430.214	1.55
430.421	1.36
430.628	1.37
430.835	1.21
431.042	1.35
431.249	1.31
431.456	1.33
431.662	1.44
431.869	1.73
432.076	1.68
432.283	1.74
432.49	1.76
432.697	1.78
432.903	1.51
433.11	1.48
433.317	1.53
433.524	1.57
433.73	1.56
433.937	1.92
434.144	1.87
434.35	1.73
434.557	1.67
434.764	1.65
434.97	1.53
435.177	1.63
435.384	1.66
435.59	1.6
435.797	1.74
436.003	1.72
436.21	1.71
436.416	1.82
436.623	1.87
436.829	1.86
437.036	1.98
437.242	1.91
437.449	1.76
437.655	1.75
437.862	1.64
438.068	1.54
438.275	1.72
438.481	1.86
438.687	1.91
438.894	1.94
439.1	1.95
439.307	1.95
439.513	1.98
439.719	1.92
439.926	2.08
440.132	2.02
440.338	1.88
440.544	1.91
440.751	1.95
440.957	1.94
441.163	1.94
441.369	2.11
441.575	1.84
441.782	1.76
441.988	1.61
442.194	1.61
442.4	1.6
442.606	1.96
442.812	2.12
443.018	2.22
443.224	2.26
443.431	2.3
443.637	2.06
443.843	1.95
444.049	1.99
444.255	1.93
444.461	1.95
444.667	1.94
444.873	1.98
445.079	1.97
445.284	2.04
445.49	1.77
445.696	1.68
445.902	1.64
446.108	1.53
446.314	1.48
446.52	1.59
446.726	1.85
446.931	1.91
447.137	1.98
447.343	2.05
447.549	2.04
447.755	1.88
447.96	1.92
448.166	1.85
448.372	1.79
448.578	1.82
448.783	1.85
448.989	1.86
449.195	2.05
449.4	2.02
449.606	1.95
449.812	1.92
450.017	1.96
450.223	1.83
450.428	1.83
450.634	1.97
450.84	2.04
451.045	1.96
451.251	1.93
451.456	2.17
451.662	2.29
451.867	2.38
452.073	2.37
452.278	2.47
452.483	2.53
452.689	2.34
452.894	2.34
453.1	2.37
453.305	2.26
453.51	2.12
453.716	2.09
453.921	2.07
454.127	1.99
454.332	2
454.537	1.95
454.742	2.02
454.948	1.95
455.153	2.04
455.358	2.12
455.563	2.26
455.769	2.33
455.974	2.25
456.179	2.14
456.384	2.11
456.589	1.99
456.795	1.8
457	1.89
457.205	2.12
457.41	2.14
457.615	2.22
457.82	2.36
458.025	2.36
458.23	2.21
458.435	2.23
458.64	2.08
458.845	2.17
459.05	2.12
459.255	2.13
459.46	2.11
459.665	2.13
459.87	2.04
460.075	2.07
