Data from Ofra_PS_T2_2A_8HS23_Reflection_1.txt Node
Date: Wed Jul 21 17:20:14 EDT 2021
User: Adam
Spectrometer: FLMT01687
Trigger mode: 0
Integration Time (sec): 1.100000E0
Scans to average: 2
Electric dark correction enabled: true
Nonlinearity correction enabled: false
Boxcar width: 2
XAxis mode: Wavelengths
Number of Pixels in Spectrum: 3648
>>>>>Begin Spectral Data<<<<<
179.494	472.6
179.716	580.71
179.937	590.68
180.158	581.69
180.38	1064.22
180.601	577.76
180.823	167.71
181.044	22.16
181.265	268.2
181.486	37.47
181.708	92.55
181.929	664.8
182.15	-420.77
182.372	85.56
182.593	32.84
182.814	54.43
183.035	112.91
183.257	108.6
183.478	81.97
183.699	102.47
183.92	53.3
184.141	33.93
184.363	-10.33
184.584	8.22
184.805	13.68
185.026	66.75
185.247	78.96
185.468	56.13
185.689	83.38
185.91	72.12
186.132	82.56
186.353	57.95
186.574	131.58
186.795	83.13
187.016	19.31
187.237	-22.87
187.458	-36.47
187.679	-54.17
187.9	-36.33
188.121	-8.78
188.342	31.39
188.563	49.19
188.784	83.1
189.005	81.67
189.226	118.99
189.447	83.11
189.667	4.98
189.888	-277.22
190.109	-1042.53
190.33	-622.42
190.551	-1251.99
190.772	-299.7
190.993	-203.76
191.214	-187.72
191.434	-100.42
191.655	-4.26
191.876	-28.02
192.097	-94.19
192.318	-122.08
192.538	-180.87
192.759	-134.63
192.98	-33.47
193.201	14.86
193.421	19.31
193.642	26.2
193.863	30.02
194.083	1.84
194.304	-18.57
194.525	-17.41
194.745	-8.32
194.966	-27.23
195.187	-29.23
195.407	-32.5
195.628	-71.16
195.848	-103.33
196.069	-87.18
196.29	-25.97
196.51	-26.89
196.731	-12.5
196.951	-31.27
197.172	-47.16
197.392	-93.76
197.613	-100.35
197.833	-121.97
198.054	-100.27
198.274	-51.38
198.495	-63.61
198.715	-24.18
198.936	-32.42
199.156	-26.85
199.377	-97.69
199.597	-85.04
199.817	-129.32
200.038	-66.33
200.258	-106.32
200.479	-45.68
200.699	-44.3
200.919	30.7
201.14	4.3
201.36	11.88
201.58	33.77
201.801	57.62
202.021	25.9
202.241	33.17
202.461	15.89
202.682	-52.4
202.902	-125.5
203.122	-72.36
203.342	-67.81
203.563	-11.28
203.783	5.63
204.003	-28.91
204.223	-10.74
204.443	31.37
204.663	4.7
204.884	18.69
205.104	53.41
205.324	56.66
205.544	56.84
205.764	68.21
205.984	60.89
206.204	58.1
206.424	50.01
206.644	19.65
206.864	24.41
207.084	21.55
207.304	48.79
207.525	19.14
207.745	26.13
207.964	22.03
208.184	-42.28
208.404	-90.64
208.624	-95.48
208.844	-76.38
209.064	-328.74
209.284	-296.57
209.504	-103.33
209.724	15.41
209.944	-8.54
210.164	14.86
210.384	6.61
210.604	-8.54
210.823	-66.01
211.043	-69.07
211.263	-54.28
211.483	-37.83
211.703	-69.18
211.922	-55.98
212.142	9.87
212.362	41.13
212.582	22.91
212.801	20.31
213.021	5.22
213.241	11.59
213.461	-30.52
213.68	-25.55
213.9	2.58
214.12	21.72
214.339	-42.7
214.559	-17.91
214.779	15.21
214.998	2.56
215.218	-27.5
215.438	-32.5
215.657	-40.37
215.877	-62.79
216.096	-23.05
216.316	-1.64
216.535	13.93
216.755	22.61
216.974	10.2
217.194	-35.43
217.413	-41.59
217.633	-28.32
217.852	-149.47
218.072	-60.35
218.291	-34.25
218.511	2.57
218.73	-24.98
218.95	-18.23
219.169	-17.81
219.389	-39.45
219.608	-50.36
219.827	-26.21
220.047	-2.53
220.266	-1.08
220.485	6.2
220.705	22.86
220.924	-14.05
221.143	19.84
221.363	-1.6
221.582	-0.27
221.801	4.47
222.021	32.47
222.24	-21.19
222.459	27.58
222.678	28.55
222.897	-34.45
223.117	-66.74
223.336	-58.66
223.555	-45.42
223.774	-20.52
223.993	4.93
224.213	32.85
224.432	4.68
224.651	35.3
224.87	24.41
225.089	42.36
225.308	38.27
225.527	59.23
225.746	52.32
225.965	49.83
226.184	13.35
226.404	23.6
226.623	-8.91
226.842	-10.58
227.061	8.56
227.28	20.68
227.499	5.45
227.718	31.05
227.936	34.92
228.155	36.73
228.374	33.74
228.593	29.36
228.812	24.95
229.031	18.26
229.25	-34.92
229.469	-44.94
229.688	-25.13
229.907	19.97
230.125	30.3
230.344	41.1
230.563	60.39
230.782	71
231.001	-8.78
231.22	8.5
231.438	41.46
231.657	27.35
231.876	11.52
232.095	60.41
232.313	57.96
232.532	48.06
232.751	11.91
232.969	-12.69
233.188	-74.92
233.407	12.35
233.625	-5.34
233.844	-4.38
234.063	10.11
234.281	29.39
234.5	3.51
234.719	19.37
234.937	40.16
235.156	49.33
235.374	45.17
235.593	30.02
235.811	22.77
236.03	-2.15
236.249	-46.69
236.467	-28.02
236.686	6.8
236.904	25.42
237.123	0.89
237.341	1.97
237.559	-3.02
237.778	-28.74
237.996	-62.23
238.215	11.73
238.433	17.77
238.652	19.93
238.87	6.91
239.088	27.45
239.307	14.24
239.525	9.34
239.743	-10.11
239.962	1.92
240.18	-25.22
240.398	-66.61
240.617	-63.87
240.835	-59.12
241.053	-25.91
241.271	29.97
241.49	35.12
241.708	31.22
241.926	47.91
242.144	31.78
242.363	-59.54
242.581	-88.23
242.799	-19.36
243.017	2.09
243.235	-4.26
243.453	17.2
243.672	23.99
243.89	8.91
244.108	-9.07
244.326	8.62
244.544	9.45
244.762	10.81
244.98	15.91
245.198	30.61
245.416	0.32
245.634	19.89
245.852	29.14
246.07	21.87
246.288	17.27
246.506	-13.95
246.724	-9.11
246.942	-10
247.16	39.86
247.378	41.01
247.596	72.85
247.814	63.13
248.032	36.81
248.25	11.81
248.468	12.45
248.685	14.71
248.903	44.23
249.121	60.36
249.339	36.84
249.557	23.21
249.775	27.06
249.992	-47.68
250.21	-53.18
250.428	-36.51
250.646	-54.98
250.863	-74.81
251.081	-21.49
251.299	-6.16
251.517	15.86
251.734	29.41
251.952	29.75
252.17	8.57
252.387	6.14
252.605	-13.36
252.823	-4.31
253.04	5.9
253.258	32.21
253.475	19.22
253.693	55.79
253.911	47.53
254.128	49.74
254.346	28.92
254.563	14.76
254.781	-15.55
254.998	-33.67
255.216	-55.44
255.433	-34.29
255.651	23.04
255.868	37.4
256.086	72.04
256.303	46.11
256.521	32.64
256.738	5.97
256.956	-12.19
257.173	-26.88
257.39	-19.1
257.608	-33.77
257.825	36.03
258.043	74.98
258.26	57.44
258.477	87.35
258.695	76.35
258.912	11.16
259.129	4.74
259.346	-19.57
259.564	-36.27
259.781	-52.67
259.998	18.21
260.216	47.84
260.433	76.38
260.65	65.51
260.867	83.81
261.084	38.76
261.302	3.45
261.519	-11.8
261.736	-52.11
261.953	-60.74
262.17	-24.17
262.387	-38.86
262.604	-68.43
262.822	-51.19
263.039	-45.55
263.256	-93.68
263.473	-46.58
263.69	-26.32
263.907	16.43
264.124	16.42
264.341	41.91
264.558	22.75
264.775	38.88
264.992	26.73
265.209	26.61
265.426	38.36
265.643	47.86
265.86	43.97
266.077	42.14
266.294	37.45
266.51	-10.58
266.727	-38.82
266.944	-25.4
267.161	-28.65
267.378	-23.76
267.595	20.34
267.812	-1.39
268.028	-14.55
268.245	-1.96
268.462	-10.39
268.679	-25.14
268.896	33.08
269.112	35.35
269.329	34.86
269.546	37.08
269.763	29.68
269.979	14.78
270.196	8.42
270.413	-17.65
270.629	-45.72
270.846	-54.25
271.063	-35.39
271.279	-49.27
271.496	-33.7
271.712	8.46
271.929	33.95
272.146	11.82
272.362	20.3
272.579	53.02
272.795	74.19
273.012	61.82
273.228	58.96
273.445	37.07
273.661	-8.9
273.878	-63.48
274.094	-42.32
274.311	-65.44
274.527	-7.05
274.744	2.17
274.96	-3.5
275.177	1.39
275.393	29.33
275.609	36.97
275.826	46.28
276.042	56.95
276.259	32.85
276.475	32.35
276.691	25.08
276.908	10.07
277.124	26.1
277.34	37.16
277.557	40.87
277.773	32.47
277.989	36.85
278.205	7.8
278.422	31.12
278.638	34.09
278.854	47.7
279.07	62.3
279.286	60.27
279.503	24.84
279.719	-0.36
279.935	-15.66
280.151	-36.11
280.367	7.62
280.583	-1.09
280.799	5.83
281.016	-12.12
281.232	17.64
281.448	15.34
281.664	49.07
281.88	32.97
282.096	46.54
282.312	60.64
282.528	82.93
282.744	75.43
282.96	68.53
283.176	46.16
283.392	28.43
283.608	6.31
283.824	-4.51
284.04	9.67
284.256	21.92
284.471	4.55
284.687	0.79
284.903	25.47
285.119	45.87
285.335	16.95
285.551	46.69
285.767	48.57
285.982	10.21
286.198	-29.61
286.414	38.09
286.63	38.03
286.846	49.72
287.061	48.1
287.277	74.93
287.493	44.67
287.709	55.8
287.924	39.66
288.14	68.52
288.356	53.37
288.571	75.75
288.787	51.55
289.003	54
289.218	26.7
289.434	-8.78
289.65	-7.89
289.865	-8.27
290.081	12.46
290.296	33.38
290.512	37.64
290.727	-10.45
290.943	-9.78
291.159	-22.99
291.374	-27.72
291.59	-47.57
291.805	-34.64
292.021	-27.55
292.236	-22.45
292.451	-3.67
292.667	15.36
292.882	46.11
293.098	51.71
293.313	28.19
293.529	2.2
293.744	-16.58
293.959	-38.06
294.175	-29.07
294.39	7.35
294.605	20.82
294.821	42.51
295.036	38.87
295.251	50.23
295.467	37.36
295.682	24.58
295.897	-22.84
296.112	-15.78
296.328	-31.33
296.543	-50.89
296.758	-24.04
296.973	21.38
297.188	43.05
297.404	8.91
297.619	-2.27
297.834	-22.14
298.049	-41.9
298.264	-67.19
298.479	2.77
298.694	11.54
298.909	32.75
299.125	38.72
299.34	48.3
299.555	22.33
299.77	36.47
299.985	-5.81
300.2	-54.7
300.415	-68
300.63	-24.13
300.845	-31.1
301.06	-19.58
301.275	13.73
301.49	29.83
301.704	14.34
301.919	-12.11
302.134	-29.93
302.349	-33.1
302.564	-95.49
302.779	-139.21
302.994	-121.12
303.209	-60.81
303.423	-9.52
303.638	48.73
303.853	22.83
304.068	32.69
304.283	27.85
304.497	8.51
304.712	-8.41
304.927	9.96
305.142	2.67
305.356	17.57
305.571	23.54
305.786	15.69
306	-3.41
306.215	1.2
306.43	-15.61
306.644	-13.2
306.859	58.16
307.074	51.75
307.288	29.85
307.503	21.55
307.717	4.07
307.932	-17.13
308.147	-18.85
308.361	1.34
308.576	-3.4
308.79	-37.44
309.005	-35.82
309.219	-19.56
309.434	-20.33
309.648	-19.79
309.863	6.2
310.077	11.52
310.292	3.14
310.506	6.47
310.72	14.58
310.935	27.69
311.149	27.88
311.364	40.37
311.578	49.89
311.792	52.21
312.007	57.3
312.221	39.11
312.435	38.58
312.649	21.26
312.864	51.98
313.078	35.79
313.292	83.71
313.507	92.19
313.721	119.84
313.935	46.56
314.149	43.79
314.363	38.49
314.578	33.15
314.792	24.93
315.006	18.92
315.22	34.86
315.434	38.15
315.648	52.27
315.862	55.45
316.077	54.74
316.291	46.24
316.505	38.63
316.719	10.86
316.933	-11.81
317.147	9.36
317.361	-36.05
317.575	-37.21
317.789	-50.35
318.003	-70.92
318.217	-46.27
318.431	31.37
318.645	44.88
318.859	32.85
319.073	70.41
319.287	43.32
319.5	7.65
319.714	-30.91
319.928	-44.36
320.142	-93.36
320.356	-27.65
320.57	12.59
320.784	22.51
320.997	22.96
321.211	49.72
321.425	-23.42
321.639	-50.07
321.853	-11.82
322.066	9.34
322.28	-0.26
322.494	32.28
322.707	50.63
322.921	39.71
323.135	34.05
323.349	39.4
323.562	2.81
323.776	-13.63
323.989	1.22
324.203	-4.47
324.417	-11.49
324.63	-0.96
324.844	2.48
325.057	-3.26
325.271	-7.09
325.485	22.28
325.698	50.62
325.912	67.76
326.125	54.08
326.339	53.65
326.552	38.6
326.766	27.83
326.979	32.02
327.193	71.07
327.406	59.1
327.619	47.68
327.833	58.43
328.046	34.8
328.26	-21.52
328.473	6.29
328.686	-10.26
328.9	-23.81
329.113	-5.12
329.326	-1.39
329.54	9.03
329.753	-3.55
329.966	-9.74
330.179	-16.48
330.393	10.81
330.606	6.65
330.819	31.2
331.032	35.54
331.246	35.83
331.459	49.03
331.672	42.87
331.885	32.36
332.098	20.59
332.311	17.2
332.525	-23.49
332.738	3.37
332.951	21.02
333.164	45.19
333.377	47.87
333.59	66.01
333.803	56.44
334.016	54.93
334.229	46.26
334.442	64.39
334.655	86.48
334.868	98.3
335.081	92.53
335.294	72.35
335.507	64.38
335.72	33.37
335.933	15.61
336.146	6.36
336.359	9.29
336.572	-24.32
336.785	-36.76
336.997	-27.01
337.21	-13.66
337.423	-16.14
337.636	-17.51
337.849	-5.28
338.062	-19.75
338.274	-8.69
338.487	-8.56
338.7	1.9
338.913	-36.62
339.125	-46.5
339.338	-95.62
339.551	-80.18
339.763	-47.93
339.976	-5.46
340.189	10.67
340.402	26.28
340.614	23.75
340.827	30.11
341.039	22.69
341.252	18.25
341.465	34.72
341.677	36.82
341.89	-3.69
342.102	18.66
342.315	19.72
342.527	-31.53
342.74	-35.86
342.952	4.27
343.165	-11.08
343.377	11.23
343.59	23.87
343.802	40.13
344.015	45.04
344.227	58.45
344.44	46.09
344.652	44.06
344.864	25.65
345.077	32.3
345.289	31.8
345.502	34.09
345.714	23.7
345.926	36.44
346.139	32.48
346.351	35.07
346.563	33.93
346.775	51.61
346.988	33.82
347.2	28.83
347.412	0.64
347.624	-13.63
347.837	-40.48
348.049	-12.74
348.261	-2.79
348.473	12.38
348.685	11.46
348.897	7.06
349.11	-7.3
349.322	-4.29
349.534	13.18
349.746	19.36
349.958	39.9
350.17	52.19
350.382	43.87
350.594	29.03
350.806	39.11
351.018	32.4
351.23	14.81
351.442	-29.29
351.654	-33.52
351.866	-49.68
352.078	-30.16
352.29	17.98
352.502	40.9
352.714	51.42
352.926	51.92
353.138	33.11
353.35	4.31
353.561	3.49
353.773	-21.01
353.985	-12.23
354.197	-12.33
354.409	-11.84
354.621	-21.28
354.832	1.41
355.044	-7.21
355.256	-6.57
355.468	9.63
355.679	-1.72
355.891	-7.47
356.103	-12.38
356.314	-5.08
356.526	-6.09
356.738	8.74
356.949	4.27
357.161	8.78
357.373	3.93
357.584	-5.57
357.796	10.84
358.008	16.53
358.219	39.67
358.431	47.38
358.642	45.36
358.854	53.18
359.065	32.99
359.277	4.5
359.488	-4.62
359.7	-2.98
359.911	-39.87
360.123	-7.87
360.334	-22.33
360.546	-24.63
360.757	-32.46
360.969	-5.41
361.18	-13.51
361.391	2.59
361.603	-8.91
361.814	-2.68
362.025	-6.11
362.237	-12.54
362.448	21.11
362.659	39.16
362.871	46.85
363.082	41.82
363.293	51.07
363.504	26.74
363.716	-1.42
363.927	-18.2
364.138	-51.32
364.349	-49.59
364.56	-42.18
364.772	-25.93
364.983	0.41
365.194	19.54
365.405	23.4
365.616	41.79
365.827	36.11
366.038	15.41
366.25	5.27
366.461	-11.96
366.672	-3.17
366.883	21.63
367.094	28.3
367.305	22.31
367.516	21.01
367.727	-2.68
367.938	-11.33
368.149	-9.22
368.36	7.2
368.571	12.27
368.781	-1.65
368.992	-19.82
369.203	-40.84
369.414	-60.56
369.625	-60.36
369.836	-39.53
370.047	-52.1
370.258	-41.34
370.468	-35.97
370.679	-47.89
370.89	-42.22
371.101	-24.1
371.312	-19.61
371.522	-23.9
371.733	-11.04
371.944	2.6
372.155	21.27
372.365	8.08
372.576	5.97
372.787	0.33
372.997	-27.15
373.208	-38.94
373.419	7.95
373.629	-7.06
373.84	-7.15
374.05	-10.95
374.261	7.51
374.472	-31.32
374.682	10.95
374.893	19.35
375.103	52.93
375.314	41.9
375.524	38.51
375.735	36.42
375.945	34.34
376.156	10.17
376.366	14.94
376.577	27.23
376.787	15.04
376.997	18.05
377.208	17.84
377.418	5.72
377.629	17.55
377.839	26.83
378.049	17.52
378.26	27.82
378.47	36.67
378.68	19.67
378.89	12.62
379.101	12.29
379.311	-10.61
379.521	-47.38
379.732	-34.5
379.942	-37.93
380.152	-58.44
380.362	-27.02
380.572	-8.4
380.783	-2.14
380.993	13.88
381.203	37.06
381.413	49.89
381.623	44.82
381.833	38.93
382.043	25.52
382.253	18.51
382.463	13.15
382.674	14.6
382.884	-1.14
383.094	1.03
383.304	8.94
383.514	10.39
383.724	23.69
383.934	16.51
384.144	12.5
384.353	-2.6
384.563	-9.15
384.773	-8.48
384.983	-7.68
385.193	6.41
385.403	17.09
385.613	22.8
385.823	11.74
386.033	18.73
386.242	12.14
386.452	10.05
386.662	3.09
386.872	18.19
387.082	13.76
387.291	9.32
387.501	11.79
387.711	16.55
387.921	6.51
388.13	10.03
388.34	18.62
388.55	9.82
388.759	8.74
388.969	17.08
389.179	14.82
389.388	13.63
389.598	22.26
389.807	16.69
390.017	10.6
390.227	12.34
390.436	9.38
390.646	9.58
390.855	15.61
391.065	16.61
391.274	14.66
391.484	14.54
391.693	17.09
391.903	18.39
392.112	20.82
392.322	23.38
392.531	28.39
392.74	28.16
392.95	24.63
393.159	24.19
393.369	25.39
393.578	24.16
393.787	21.32
393.997	22.73
394.206	22.37
394.415	21.55
394.625	21.12
394.834	21.41
395.043	20.6
395.252	21.59
395.462	24.08
395.671	25.28
395.88	26.96
396.089	28.04
396.298	26.2
396.508	24.25
396.717	23.46
396.926	23.06
397.135	23.67
397.344	23.78
397.553	24.53
397.762	25.92
397.971	26.71
398.181	26.68
398.39	26.91
398.599	27.02
398.808	26.44
399.017	26.88
399.226	28.22
399.435	28.92
399.644	29.2
399.853	28.82
400.062	27.93
400.27	26.83
400.479	26.03
400.688	25.35
400.897	25.36
401.106	25.18
401.315	25.02
401.524	25.14
401.733	25.77
401.941	26.62
402.15	27.12
402.359	26.97
402.568	27.36
402.777	27.11
402.985	26.57
403.194	26.1
403.403	26.01
403.612	25.62
403.82	25.46
404.029	25.47
404.238	25.36
404.446	25.57
404.655	25.51
404.864	25.3
405.072	24.9
405.281	24.99
405.489	24.55
405.698	24.63
405.906	24.53
406.115	24.53
406.324	24.31
406.532	24.42
406.741	24.24
406.949	24.39
407.158	24.32
407.366	24.28
407.574	24.17
407.783	24.21
407.991	23.81
408.2	23.87
408.408	24.03
408.617	23.85
408.825	23.66
409.033	23.79
409.242	23.75
409.45	23.86
409.658	23.78
409.867	23.85
410.075	23.73
410.283	23.49
410.491	23.08
410.7	23.05
410.908	22.9
411.116	23.16
411.324	23.05
411.533	23.02
411.741	23.15
411.949	23.33
412.157	22.96
412.365	23.11
412.573	22.98
412.781	22.87
412.99	22.62
413.198	22.87
413.406	22.69
413.614	22.7
413.822	22.68
414.03	22.55
414.238	22.13
414.446	22.34
414.654	22.11
414.862	22.1
415.07	22.03
415.278	22.28
415.486	21.82
415.694	21.91
415.902	21.77
416.109	21.82
416.317	21.68
416.525	21.57
416.733	21.54
416.941	21.5
417.149	21.35
417.357	21.36
417.564	21.69
417.772	22.04
417.98	21.87
418.188	21.95
418.395	21.84
418.603	21.89
418.811	21.31
419.019	21.46
419.226	21.55
419.434	21.56
419.642	21.25
419.849	21.33
420.057	21.15
420.265	20.92
420.472	20.65
420.68	20.54
420.887	20.56
421.095	20.77
421.302	20.81
421.51	21.04
421.717	21.09
421.925	21.09
422.132	20.78
422.34	20.42
422.547	20.38
422.755	20.44
422.962	20.41
423.17	20.53
423.377	20.67
423.585	20.55
423.792	20.53
423.999	20.44
424.207	20.28
424.414	20.4
424.621	20.47
424.829	20.25
425.036	20.34
425.243	20.34
425.451	20.27
425.658	20
425.865	20.3
426.072	20.25
426.28	20.72
426.487	20.74
426.694	21.07
426.901	20.87
427.108	20.83
427.315	20.43
427.523	20.65
427.73	20.41
427.937	20.33
428.144	20.12
428.351	20.06
428.558	20.12
428.765	20.09
428.972	20.15
429.179	20.65
429.386	20.93
429.593	20.69
429.8	20.79
430.007	20.87
430.214	20.61
430.421	20.26
430.628	20.2
430.835	20.04
431.042	20.17
431.249	20.36
431.456	20.64
431.662	20.64
431.869	21.06
432.076	21.06
432.283	21.06
432.49	21.06
432.697	21.25
432.903	20.9
433.11	20.91
433.317	21.03
433.524	21.27
433.73	21.23
433.937	21.66
434.144	21.7
434.35	21.63
434.557	21.38
434.764	21.37
434.97	21.11
435.177	21.29
435.384	21.24
435.59	21.41
435.797	21.66
436.003	21.89
436.21	21.74
436.416	22.03
436.623	22
436.829	22.02
437.036	22
437.242	22.07
437.449	21.83
437.655	21.98
437.862	22.01
438.068	22.13
438.275	22.21
438.481	22.47
438.687	22.39
438.894	22.31
439.1	22.24
439.307	22.49
439.513	22.31
439.719	22.35
439.926	22.48
440.132	22.38
440.338	22.02
440.544	22.31
440.751	22.19
440.957	22.35
441.163	22.37
441.369	22.54
441.575	22.18
441.782	22.3
441.988	22.08
442.194	22.13
442.4	22.17
442.606	22.46
442.812	22.49
443.018	22.58
443.224	22.65
443.431	22.74
443.637	22.52
443.843	22.37
444.049	22.34
444.255	22.23
444.461	22.17
444.667	22.21
444.873	22.5
445.079	22.5
445.284	22.7
445.49	22.5
445.696	22.46
445.902	22.38
446.108	22.39
446.314	22.32
446.52	22.56
446.726	22.75
446.931	22.76
447.137	22.78
447.343	22.77
447.549	22.69
447.755	22.65
447.96	22.62
448.166	22.57
448.372	22.5
448.578	22.61
448.783	22.57
448.989	22.7
449.195	22.98
449.4	23.04
449.606	22.96
449.812	22.87
450.017	22.8
450.223	22.67
450.428	22.63
450.634	22.75
450.84	22.96
451.045	22.88
451.251	22.74
451.456	23
451.662	23
451.867	22.98
452.073	23.04
452.278	23.15
452.483	23.17
452.689	23
452.894	22.92
453.1	22.85
453.305	22.79
453.51	22.64
453.716	22.75
453.921	22.77
454.127	22.83
454.332	22.74
454.537	22.68
454.742	22.66
454.948	22.74
455.153	22.72
455.358	22.92
455.563	23.11
455.769	23.18
455.974	23.05
456.179	22.97
456.384	22.9
456.589	22.85
456.795	22.74
457	22.85
457.205	23.05
457.41	23.09
457.615	23.07
457.82	23.14
458.025	23.07
458.23	22.9
458.435	22.91
458.64	22.8
458.845	22.81
459.05	22.78
459.255	22.84
459.46	22.76
459.665	22.72
