Data from Ofra_2a_PS_9GT47_Reflection_1.txt Node
Date: Tue Jul 20 10:00:51 EDT 2021
User: Adam
Spectrometer: FLMT01687
Trigger mode: 0
Integration Time (sec): 9.450000E-1
Scans to average: 3
Electric dark correction enabled: true
Nonlinearity correction enabled: false
Boxcar width: 3
XAxis mode: Wavelengths
Number of Pixels in Spectrum: 3648
>>>>>Begin Spectral Data<<<<<
179.494	988.17
179.716	537.76
179.937	618.13
180.158	2558.98
180.38	-1178.78
180.601	-208.46
180.823	-61.58
181.044	4.88
181.265	-103.23
181.486	63.84
181.708	-155.43
181.929	47.56
182.15	109.66
182.372	-31.5
182.593	0.94
182.814	341.47
183.035	156.3
183.257	156.62
183.478	100.87
183.699	112.3
183.92	73.25
184.141	83.29
184.363	79.2
184.584	79.05
184.805	69.59
185.026	85.33
185.247	60.6
185.468	59.69
185.689	55.02
185.91	51.68
186.132	47.54
186.353	37.76
186.574	36.96
186.795	23.59
187.016	36.76
187.237	34.99
187.458	14.82
187.679	15.74
187.9	32.5
188.121	34.27
188.342	49.1
188.563	47.18
188.784	37.19
189.005	54.03
189.226	60.75
189.447	49.27
189.667	40.69
189.888	49.91
190.109	44.03
190.33	38.11
190.551	24.49
190.772	2.1
190.993	16.48
191.214	28.75
191.434	28.05
191.655	33.65
191.876	40.49
192.097	34.51
192.318	33.9
192.538	24.77
192.759	21.57
192.98	9.19
193.201	23.35
193.421	24.26
193.642	35.21
193.863	52.02
194.083	54.56
194.304	43.99
194.525	57.34
194.745	33.18
194.966	41.03
195.187	38.68
195.407	36.57
195.628	33.17
195.848	27.39
196.069	16.68
196.29	13.49
196.51	-0.56
196.731	16.82
196.951	7.02
197.172	9.8
197.392	22
197.613	5.78
197.833	11.36
198.054	23.23
198.274	-0.11
198.495	21.53
198.715	12.86
198.936	17.14
199.156	54.18
199.377	56.68
199.597	53.76
199.817	55.33
200.038	39.07
200.258	55.34
200.479	62.91
200.699	47.25
200.919	32
201.14	30.31
201.36	40.23
201.58	31.75
201.801	8.15
202.021	7.21
202.241	14.06
202.461	29.12
202.682	25.78
202.902	21.62
203.122	18.14
203.342	44.45
203.563	41.66
203.783	45.68
204.003	51.44
204.223	57.05
204.443	52.46
204.663	54.66
204.884	42.09
205.104	45.27
205.324	48.23
205.544	40.1
205.764	34.05
205.984	44.82
206.204	55.33
206.424	57.57
206.644	53.81
206.864	38.94
207.084	58.37
207.304	51.55
207.525	47.24
207.745	47.01
207.964	34.99
208.184	24.75
208.404	34.15
208.624	5.91
208.844	-1.46
209.064	3.34
209.284	8.36
209.504	23
209.724	16.13
209.944	29.01
210.164	20.43
210.384	42.81
210.604	28.87
210.823	9.12
211.043	5.79
211.263	17.72
211.483	4.06
211.703	21.58
211.922	15.87
212.142	24.53
212.362	29.39
212.582	23.2
212.801	17.89
213.021	29.18
213.241	14.8
213.461	16.83
213.68	28.64
213.9	28.25
214.12	20.81
214.339	25.17
214.559	28.62
214.779	24.34
214.998	22.68
215.218	21.94
215.438	31.73
215.657	36.53
215.877	34.78
216.096	29.55
216.316	38.76
216.535	33.02
216.755	21.73
216.974	19.52
217.194	21.8
217.413	31.27
217.633	23.51
217.852	3.99
218.072	13.06
218.291	36.41
218.511	26.34
218.73	19.46
218.95	18.27
219.169	21.2
219.389	29.28
219.608	38.67
219.827	16.56
220.047	18.46
220.266	21.32
220.485	30.27
220.705	30.16
220.924	36.23
221.143	15.82
221.363	28.52
221.582	30.21
221.801	38.51
222.021	35.49
222.24	35.3
222.459	37.05
222.678	59.58
222.897	36.24
223.117	22.04
223.336	16.91
223.555	1.5
223.774	28.45
223.993	39.81
224.213	31.82
224.432	61.53
224.651	73.19
224.87	72.41
225.089	79.06
225.308	60.8
225.527	41.05
225.746	50.4
225.965	29.97
226.184	30.65
226.404	18.06
226.623	35.89
226.842	28.03
227.061	53.52
227.28	56.84
227.499	50.89
227.718	41.74
227.936	49.42
228.155	44.53
228.374	53.1
228.593	40.29
228.812	25.76
229.031	25.86
229.25	38.39
229.469	40.73
229.688	40.13
229.907	31.28
230.125	28.53
230.344	41.02
230.563	45.01
230.782	34.17
231.001	34.4
231.22	24.42
231.438	34.76
231.657	42.84
231.876	36.71
232.095	33.88
232.313	49.84
232.532	45.44
232.751	45.19
232.969	44.51
233.188	38.88
233.407	49.35
233.625	39.02
233.844	38.83
234.063	43.77
234.281	46.71
234.5	43.58
234.719	44.71
234.937	46.75
235.156	55.54
235.374	51.64
235.593	41.41
235.811	32.91
236.03	30.17
236.249	42.74
236.467	38.35
236.686	31.02
236.904	24.12
237.123	27.92
237.341	31.59
237.559	32.94
237.778	29.4
237.996	32.51
238.215	28.78
238.433	38.03
238.652	34.57
238.87	36.63
239.088	26.47
239.307	18.23
239.525	10.94
239.743	11.61
239.962	6.44
240.18	28.77
240.398	29.12
240.617	31.23
240.835	37.55
241.053	43.48
241.271	43.85
241.49	30.17
241.708	11.33
241.926	4.34
242.144	13.56
242.363	11.38
242.581	11.19
242.799	13.03
243.017	25.17
243.235	25.18
243.453	34.96
243.672	34.83
243.89	34.02
244.108	40.72
244.326	43.96
244.544	51.97
244.762	50.61
244.98	46
245.198	38.99
245.416	46.06
245.634	48.73
245.852	47.67
246.07	42.72
246.288	49.86
246.506	46.25
246.724	58.14
246.942	49.31
247.16	25.96
247.378	22.23
247.596	23.09
247.814	11.84
248.032	11.48
248.25	7.93
248.468	16.87
248.685	30.95
248.903	18.37
249.121	18.88
249.339	20.38
249.557	26.87
249.775	6.3
249.992	-0.56
250.21	-11.56
250.428	-3.15
250.646	2.33
250.863	3.96
251.081	-6.49
251.299	25.46
251.517	42.69
251.734	61.89
251.952	56.76
252.17	45.17
252.387	38.54
252.605	43.29
252.823	32.57
253.04	14.41
253.258	2.15
253.475	4.83
253.693	21.41
253.911	25.31
254.128	22.34
254.346	15.43
254.563	15.18
254.781	13.61
254.998	18.4
255.216	18.71
255.433	20.32
255.651	17.89
255.868	24.47
256.086	32.53
256.303	42.07
256.521	38.75
256.738	28.84
256.956	30.62
257.173	29.87
257.39	37.1
257.608	30.01
257.825	26.48
258.043	33.61
258.26	32.45
258.477	41.85
258.695	46.16
258.912	46.1
259.129	50.53
259.346	49.23
259.564	40.29
259.781	46.57
259.998	37
260.216	40.16
260.433	38.51
260.65	42.52
260.867	35.67
261.084	45.17
261.302	44.57
261.519	26.43
261.736	22.55
261.953	14.4
262.17	11.77
262.387	16.55
262.604	-3.97
262.822	-5.91
263.039	2.85
263.256	0.01
263.473	0.98
263.69	-2.22
263.907	-2.51
264.124	0.17
264.341	-0.76
264.558	12
264.775	24.1
264.992	29.15
265.209	31.96
265.426	29.89
265.643	38.01
265.86	38.32
266.077	42.14
266.294	33.66
266.51	23.89
266.727	19.34
266.944	17.79
267.161	15.52
267.378	17.17
267.595	-7.52
267.812	-11.65
268.028	5.53
268.245	5.22
268.462	9.38
268.679	4.69
268.896	-0.24
269.112	13.41
269.329	25.94
269.546	22.53
269.763	27.69
269.979	25.72
270.196	32.84
270.413	32.21
270.629	28.02
270.846	24.76
271.063	28.88
271.279	22.67
271.496	20.15
271.712	19.59
271.929	29.78
272.146	29.46
272.362	22.63
272.579	14.6
272.795	14.21
273.012	17.05
273.228	9.35
273.445	1.81
273.661	1.84
273.878	12.27
274.094	13.31
274.311	17.78
274.527	16.52
274.744	16.91
274.96	20.01
275.177	30.53
275.393	31.13
275.609	35.14
275.826	26.31
276.042	38.07
276.259	37.2
276.475	38.39
276.691	35.04
276.908	30.02
277.124	34.53
277.34	37.3
277.557	33.09
277.773	28.86
277.989	37.29
278.205	20.16
278.422	25.14
278.638	26.96
278.854	30.22
279.07	14.45
279.286	22.13
279.503	10.43
279.719	31.33
279.935	17.48
280.151	15.7
280.367	11.43
280.583	23.23
280.799	27.2
281.016	27.16
281.232	21.92
281.448	24
281.664	17.34
281.88	28.85
282.096	26.34
282.312	20.74
282.528	12.51
282.744	8.72
282.96	10.57
283.176	13.64
283.392	15.66
283.608	24.11
283.824	19.49
284.04	29.91
284.256	36.93
284.471	44.05
284.687	42.84
284.903	35.58
285.119	15.94
285.335	10.72
285.551	12.85
285.767	0.93
285.982	-3.22
286.198	-9.14
286.414	15.72
286.63	31.18
286.846	39.53
287.061	44.32
287.277	50.17
287.493	52.59
287.709	48.61
287.924	38.54
288.14	39.38
288.356	39.47
288.571	20.61
288.787	25.9
289.003	30.25
289.218	29.62
289.434	25.6
289.65	26.61
289.865	31.56
290.081	34.99
290.296	29.44
290.512	28.95
290.727	37.32
290.943	31.92
291.159	19.58
291.374	26.05
291.59	20.76
291.805	31.98
292.021	33.64
292.236	36.95
292.451	47.02
292.667	47.81
292.882	36.52
293.098	46.31
293.313	30.16
293.529	28.78
293.744	24.04
293.959	22.57
294.175	24.63
294.39	40.02
294.605	33.38
294.821	38.46
295.036	38.44
295.251	35.41
295.467	31.33
295.682	31.04
295.897	17.51
296.112	26.63
296.328	28.5
296.543	18.23
296.758	12.43
296.973	17.39
297.188	18.34
297.404	24.8
297.619	19.32
297.834	22.58
298.049	38.97
298.264	44.15
298.479	35.17
298.694	40.87
298.909	39.63
299.125	34.19
299.34	33.65
299.555	26.52
299.77	21.39
299.985	18.18
300.2	11.69
300.415	17.43
300.63	10.26
300.845	12.15
301.06	7.17
301.275	13.46
301.49	19.89
301.704	17.62
301.919	7.8
302.134	14.12
302.349	8.13
302.564	10.06
302.779	3.81
302.994	5.12
303.209	5.85
303.423	15.55
303.638	14.58
303.853	11.81
304.068	17.48
304.283	22.12
304.497	18.7
304.712	32.11
304.927	25.32
305.142	29.08
305.356	32.09
305.571	35.99
305.786	34.02
306	35.63
306.215	24.55
306.43	30.97
306.644	24.92
306.859	30.22
307.074	21.01
307.288	23.86
307.503	19.81
307.717	15.81
307.932	16.03
308.147	22.08
308.361	14.7
308.576	18.61
308.79	14.44
309.005	20.35
309.219	27.71
309.434	25.13
309.648	22.44
309.863	30.96
310.077	23.67
310.292	25.77
310.506	28.69
310.72	21.17
310.935	18.9
311.149	15.53
311.364	9.09
311.578	12.47
311.792	6.61
312.007	-2.51
312.221	14.58
312.435	18.47
312.649	1.06
312.864	-3.87
313.078	13.38
313.292	31.51
313.507	43.1
313.721	29.79
313.935	37.43
314.149	49.05
314.363	56.3
314.578	68.74
314.792	63.57
315.006	55.38
315.22	54.37
315.434	52.17
315.648	50.14
315.862	38.56
316.077	26.72
316.291	24.54
316.505	32.74
316.719	19.7
316.933	13.18
317.147	8.42
317.361	11.69
317.575	11.81
317.789	23.51
318.003	24.72
318.217	38.61
318.431	46.53
318.645	49.38
318.859	51.45
319.073	45.95
319.287	41.72
319.5	36.01
319.714	31.75
319.928	33.43
320.142	40.45
320.356	48.15
320.57	41.32
320.784	42.28
320.997	47.98
321.211	45.08
321.425	34.11
321.639	30.22
321.853	23.94
322.066	21.66
322.28	23.86
322.494	19.85
322.707	22.51
322.921	26.13
323.135	40.69
323.349	37.06
323.562	45.48
323.776	42.06
323.989	37.84
324.203	41.19
324.417	36.68
324.63	17.85
324.844	2.17
325.057	6.5
325.271	0.47
325.485	12.04
325.698	12.21
325.912	20.68
326.125	27.76
326.339	44.98
326.552	42.11
326.766	44.37
326.979	41.37
327.193	41.22
327.406	36.19
327.619	22.6
327.833	9.55
328.046	12.3
328.26	15.72
328.473	12.59
328.686	19.75
328.9	17.84
329.113	23.8
329.326	30.88
329.54	30.7
329.753	26.84
329.966	27.73
330.179	28.01
330.393	34.13
330.606	43.66
330.819	45.92
331.032	53.64
331.246	51.27
331.459	60.65
331.672	48.88
331.885	47.78
332.098	45.75
332.311	39.28
332.525	32.46
332.738	28.26
332.951	21.36
333.164	19.75
333.377	10.73
333.59	15.14
333.803	26.04
334.016	9.39
334.229	16.75
334.442	24.9
334.655	36.26
334.868	40.73
335.081	37.99
335.294	25.63
335.507	47.87
335.72	42.65
335.933	49.98
336.146	46.82
336.359	43.89
336.572	36.99
336.785	47.15
336.997	38.2
337.21	42.58
337.423	26.25
337.636	17.03
337.849	12.81
338.062	18.77
338.274	8.65
338.487	5.8
338.7	5.52
338.913	6.13
339.125	7.83
339.338	17.54
339.551	18.66
339.763	21.29
339.976	22.04
340.189	21.14
340.402	19.14
340.614	25.38
340.827	15.05
341.039	13.6
341.252	11.93
341.465	7.59
341.677	-2.24
341.89	7.1
342.102	4.9
342.315	17.59
342.527	15.52
342.74	12.42
342.952	14.42
343.165	30.62
343.377	29.66
343.59	29.02
343.802	26.81
344.015	30.02
344.227	30.2
344.44	34.22
344.652	30.41
344.864	27.28
345.077	19.63
345.289	16.33
345.502	11.6
345.714	12.98
345.926	10.49
346.139	11.89
346.351	-2.1
346.563	13.09
346.775	9.63
346.988	12.46
347.2	13.21
347.412	14.18
347.624	15.81
347.837	24.14
348.049	23.55
348.261	21.56
348.473	18.14
348.685	23.96
348.897	30.81
349.11	31.33
349.322	31.31
349.534	20.88
349.746	29.36
349.958	32.86
350.17	29.89
350.382	16.55
350.594	16.12
350.806	22.1
351.018	35.36
351.23	34.71
351.442	35.59
351.654	42.32
351.866	41.65
352.078	39.55
352.29	42.35
352.502	34.3
352.714	30.62
352.926	26.08
353.138	17.57
353.35	18.11
353.561	12.8
353.773	11.86
353.985	21.9
354.197	27.62
354.409	32.29
354.621	31.47
354.832	30.08
355.044	40.26
355.256	28.46
355.468	16.41
355.679	14.85
355.891	17.01
356.103	20.18
356.314	28.09
356.526	22.97
356.738	26.79
356.949	32.52
357.161	29.91
357.373	21.22
357.584	27.83
357.796	19.7
358.008	20.52
358.219	29.39
358.431	25.83
358.642	27.8
358.854	31.04
359.065	24.19
359.277	29.59
359.488	23.28
359.7	19.36
359.911	15.58
360.123	20.31
360.334	23.82
360.546	15.69
360.757	18.58
360.969	26.65
361.18	21.6
361.391	20.84
361.603	17.44
361.814	17.22
362.025	21.64
362.237	23.49
362.448	27.91
362.659	19.98
362.871	24.44
363.082	30.22
363.293	30.4
363.504	31.7
363.716	29.98
363.927	26.36
364.138	36.61
364.349	34.13
364.56	27.61
364.772	28.84
364.983	26.96
365.194	25.08
365.405	19.98
365.616	14.16
365.827	20.74
366.038	32.98
366.25	32.89
366.461	33.08
366.672	32.44
366.883	39.44
367.094	40.66
367.305	45.54
367.516	38.04
367.727	30.73
367.938	34.36
368.149	35.43
368.36	34.25
368.571	36.55
368.781	26.84
368.992	33.84
369.203	40.65
369.414	38.19
369.625	32.8
369.836	29.42
370.047	25.9
370.258	24.98
370.468	9.04
370.679	0.07
370.89	10.3
371.101	6.74
371.312	5.04
371.522	4.79
371.733	2.64
371.944	4.86
372.155	-1.35
372.365	-9.57
372.576	-13.13
372.787	-11.13
372.997	-8.6
373.208	0.73
373.419	-0.9
373.629	10.13
373.84	6.52
374.05	20.01
374.261	17.39
374.472	16.91
374.682	10.17
374.893	13.88
375.103	18.62
375.314	28.55
375.524	26.44
375.735	25.08
375.945	21.25
376.156	19.39
376.366	24.91
376.577	25.95
376.787	22.22
376.997	25.46
377.208	22.91
377.418	23.64
377.629	29.7
377.839	30.43
378.049	28.6
378.26	30.97
378.47	29.79
378.68	31.08
378.89	27.65
379.101	23.21
379.311	15.95
379.521	15.78
379.732	5.21
379.942	3.73
380.152	8.67
380.362	18.91
380.572	16.34
380.783	17.4
380.993	16.31
381.203	20.65
381.413	19.37
381.623	22.32
381.833	11.31
382.043	12.01
382.253	14.56
382.463	15.54
382.674	10.81
382.884	7.95
383.094	9.37
383.304	14.64
383.514	23.92
383.724	20.32
383.934	17.35
384.144	25.78
384.353	26.39
384.563	21.32
384.773	20.36
384.983	14.37
385.193	16.11
385.403	18.3
385.613	12.34
385.823	12.37
386.033	11.99
386.242	10.29
386.452	11.98
386.662	11.49
386.872	8.72
387.082	6.12
387.291	6.06
387.501	6.85
387.711	5.91
387.921	4.82
388.13	6.17
388.34	7.2
388.55	7.98
388.759	5.89
388.969	2.21
389.179	4.56
389.388	6.2
389.598	2.5
389.807	1.08
390.017	1.94
390.227	2.33
390.436	4.2
390.646	3.47
390.855	1.13
391.065	1.26
391.274	0.55
391.484	1.16
391.693	2.3
391.903	1.91
392.112	2.8
392.322	5.36
392.531	6.56
392.74	6.37
392.95	5.34
393.159	5.11
393.369	5.49
393.578	4.43
393.787	3.61
393.997	3.9
394.206	4.93
394.415	5.23
394.625	4.66
394.834	3.27
395.043	3.73
395.252	4.26
395.462	3.85
395.671	3.58
395.88	3.99
396.089	4.24
396.298	5.1
396.508	4.92
396.717	3.83
396.926	3.47
397.135	3.13
397.344	2.9
397.553	2.95
397.762	2.65
397.971	2.38
398.181	2.26
398.39	2.63
398.599	2.76
398.808	2.74
399.017	3.07
399.226	3.5
399.435	3.52
399.644	3.63
399.853	3.37
400.062	3.29
400.27	3.22
400.479	2.94
400.688	2.55
400.897	2.79
401.106	2.8
401.315	2.75
401.524	2.94
401.733	3.13
401.941	3.04
402.15	3.08
402.359	3.07
402.568	3.13
402.777	3.13
402.985	2.95
403.194	2.77
403.403	2.57
403.612	2.59
403.82	2.43
404.029	2.38
404.238	2.41
404.446	2.44
404.655	2.38
404.864	2.42
405.072	2.36
405.281	2.24
405.489	2.24
405.698	2.1
405.906	2.09
406.115	2.17
406.324	2.19
406.532	2.23
406.741	2.3
406.949	2.18
407.158	2.35
407.366	2.38
407.574	2.32
407.783	2.32
407.991	2.26
408.2	2.25
408.408	2.32
408.617	2.22
408.825	2.18
409.033	2.13
409.242	2.06
409.45	2
409.658	1.96
409.867	1.9
410.075	1.9
410.283	1.81
410.491	1.79
410.7	1.87
410.908	1.98
411.116	1.92
411.324	1.96
411.533	1.94
411.741	1.99
411.949	2.06
412.157	2.08
412.365	2.03
412.573	2.14
412.781	2.15
412.99	2.2
413.198	2.3
413.406	2.33
413.614	2.27
413.822	2.3
414.03	2.17
414.238	2.24
414.446	2.19
414.654	2.14
414.862	2.03
415.07	2.09
415.278	2.04
415.486	2.21
415.694	2.02
415.902	1.94
416.109	1.92
416.317	1.91
416.525	1.89
416.733	2.02
416.941	1.92
417.149	2.14
417.357	2.24
417.564	2.21
417.772	2.2
417.98	2.13
418.188	1.94
418.395	1.98
418.603	1.73
418.811	1.66
419.019	1.68
419.226	1.76
419.434	1.78
419.642	1.85
419.849	1.85
420.057	1.97
420.265	1.93
420.472	1.78
420.68	1.73
420.887	1.76
421.095	1.77
421.302	1.79
421.51	1.76
421.717	1.89
421.925	1.95
422.132	1.88
422.34	1.8
422.547	1.76
422.755	1.74
422.962	1.66
423.17	1.59
423.377	1.72
423.585	1.81
423.792	1.83
423.999	1.81
424.207	1.76
424.414	1.81
424.621	1.83
424.829	1.68
425.036	1.66
425.243	1.71
425.451	1.73
425.658	1.79
425.865	1.78
426.072	1.84
426.28	1.86
426.487	1.76
426.694	1.69
426.901	1.69
427.108	1.68
427.315	1.68
427.523	1.64
427.73	1.65
427.937	1.74
428.144	1.79
428.351	1.86
428.558	1.81
428.765	1.81
428.972	1.85
429.179	1.77
429.386	1.8
429.593	1.79
429.8	1.78
430.007	1.8
430.214	1.84
430.421	1.79
430.628	1.78
430.835	1.7
431.042	1.73
431.249	1.68
431.456	1.76
431.662	1.76
431.869	1.8
432.076	1.85
432.283	1.82
432.49	1.79
432.697	1.78
432.903	1.67
433.11	1.7
433.317	1.64
433.524	1.62
433.73	1.69
433.937	1.64
434.144	1.69
434.35	1.76
434.557	1.73
434.764	1.8
434.97	1.91
435.177	1.86
435.384	1.96
435.59	1.92
435.797	1.93
436.003	1.88
436.21	1.85
436.416	1.75
436.623	1.84
436.829	1.75
437.036	1.77
437.242	1.77
437.449	1.88
437.655	1.88
437.862	1.96
438.068	1.96
438.275	1.97
438.481	2.01
438.687	2.02
438.894	1.96
439.1	1.96
439.307	1.92
439.513	1.91
439.719	1.97
439.926	1.98
440.132	1.92
440.338	1.94
440.544	1.94
440.751	1.93
440.957	1.88
441.163	1.93
441.369	1.91
441.575	1.91
441.782	1.87
441.988	1.87
442.194	1.91
442.4	1.9
442.606	1.94
442.812	1.98
443.018	2.03
443.224	2.07
443.431	2.09
443.637	2.05
443.843	2.12
444.049	2.01
444.255	1.97
444.461	1.93
444.667	1.92
444.873	1.89
445.079	1.95
445.284	1.91
445.49	1.89
445.696	1.92
445.902	1.98
446.108	1.95
446.314	1.99
446.52	1.95
446.726	1.97
446.931	2.04
447.137	2.03
447.343	1.97
447.549	1.94
447.755	1.92
447.96	1.93
448.166	1.95
448.372	1.94
448.578	1.97
448.783	2
448.989	2.06
449.195	2.08
449.4	2.09
449.606	2.07
449.812	2.17
450.017	2.14
450.223	2.18
450.428	2.2
450.634	2.23
450.84	2.22
451.045	2.22
451.251	2.17
451.456	2.15
451.662	2.13
451.867	2.11
452.073	2.08
452.278	2.05
452.483	2.1
452.689	2.08
452.894	2.07
453.1	2.02
453.305	2
453.51	2.01
453.716	2.09
453.921	2.07
454.127	2.03
454.332	2.05
454.537	2.09
454.742	2.08
454.948	2.1
455.153	2.07
455.358	2.1
455.563	2.15
455.769	2.16
455.974	2.09
456.179	2.06
456.384	2.06
456.589	2.11
456.795	2.03
457	2.06
457.205	2.03
457.41	2.16
457.615	2.27
457.82	2.3
458.025	2.27
458.23	2.3
458.435	2.24
458.64	2.33
458.845	2.24
459.05	2.18
459.255	2.17
459.46	2.14
459.665	2.16
459.87	2.15
460.075	2.07
460.28	2.11
460.485	2.15
460.69	2.06
460.895	2.1
461.099	2.12
461.304	2.17
461.509	2.12
461.714	2.13
461.919	2.09
462.123	2.18
462.328	2.16
462.533	2.18
462.738	2.17
462.942	2.27
463.147	2.27
463.352	2.33
463.556	2.29
463.761	2.32
463.966	2.33
464.17	2.36
464.375	2.3
464.58	2.31
464.784	2.29
464.989	2.26
465.193	2.28
465.398	2.28
465.602	2.26
465.807	2.28
466.011	2.31
466.216	2.31
466.42	2.4
466.625	2.42
466.829	2.43
467.034	2.48
467.238	2.5
467.443	2.46
467.647	2.52
467.851	2.5
468.056	2.43
468.26	2.39
468.464	2.36
468.669	2.4
468.873	2.42
469.077	2.38
