Data from Ofra_2a_PS_8HS23_Reflection_2.txt Node
Date: Tue Jul 20 09:56:53 EDT 2021
User: Adam
Spectrometer: FLMT01687
Trigger mode: 0
Integration Time (sec): 9.450000E-1
Scans to average: 3
Electric dark correction enabled: true
Nonlinearity correction enabled: false
Boxcar width: 3
XAxis mode: Wavelengths
Number of Pixels in Spectrum: 3648
>>>>>Begin Spectral Data<<<<<
179.494	1178.11
179.716	712.32
179.937	791.21
180.158	3260.94
180.38	-1376.74
180.601	-183.64
180.823	-10.41
181.044	158.17
181.265	100.96
181.486	148.13
181.708	2534.78
181.929	117.67
182.15	-168.18
182.372	155.6
182.593	165.07
182.814	63.47
183.035	162.81
183.257	42.01
183.478	64.77
183.699	94.6
183.92	100.67
184.141	97.95
184.363	82.64
184.584	58.34
184.805	66.81
185.026	73.45
185.247	40.82
185.468	30.26
185.689	25.72
185.91	25.62
186.132	22.87
186.353	13.67
186.574	14.05
186.795	-11.16
187.016	-13.58
187.237	-3.12
187.458	-11.5
187.679	-22.74
187.9	-11.63
188.121	-10.33
188.342	43.25
188.563	51.88
188.784	48.71
189.005	65.97
189.226	60.27
189.447	49.18
189.667	41.7
189.888	25.9
190.109	18.47
190.33	10.28
190.551	-6.17
190.772	-4.85
190.993	4.18
191.214	10.17
191.434	7.58
191.655	20.7
191.876	32.41
192.097	31.05
192.318	35.07
192.538	35.97
192.759	43.42
192.98	37.85
193.201	33.28
193.421	28.67
193.642	28.17
193.863	36.35
194.083	32.94
194.304	6.31
194.525	34.25
194.745	9.89
194.966	-4.49
195.187	11.39
195.407	1.67
195.628	10.41
195.848	9.65
196.069	1.14
196.29	13.75
196.51	18.43
196.731	20.52
196.951	42.1
197.172	43.25
197.392	48.54
197.613	34.76
197.833	41.26
198.054	36.31
198.274	15.14
198.495	-2.86
198.715	-20.05
198.936	-33.98
199.156	-20.49
199.377	-40.64
199.597	-31.04
199.817	-13.93
200.038	2.24
200.258	16.28
200.479	14.05
200.699	17.16
200.919	6.31
201.14	5.46
201.36	-9.62
201.58	-19.32
201.801	-25.43
202.021	-23.71
202.241	-22.6
202.461	2.55
202.682	2.81
202.902	16.17
203.122	28.39
203.342	31.39
203.563	26.4
203.783	22.32
204.003	17.44
204.223	25.98
204.443	25.39
204.663	16.59
204.884	9.4
205.104	19.48
205.324	35.44
205.544	31.66
205.764	18.23
205.984	19.05
206.204	15.11
206.424	26.78
206.644	25.04
206.864	17.07
207.084	38.01
207.304	35.32
207.525	27.55
207.745	38.87
207.964	44.66
208.184	25.96
208.404	15.8
208.624	-16.25
208.844	-24.57
209.064	-9.83
209.284	-3.76
209.504	-10.04
209.724	-21.11
209.944	-15.4
210.164	-0.98
210.384	17.67
210.604	-17.22
210.823	-35.12
211.043	-30.5
211.263	-18.28
211.483	-10.5
211.703	-5.87
211.922	-5.93
212.142	14.95
212.362	19.62
212.582	11.58
212.801	10.44
213.021	15.38
213.241	-0.32
213.461	-0.32
213.68	1.66
213.9	-3.14
214.12	-4.38
214.339	-2.67
214.559	9.44
214.779	20.39
214.998	19.01
215.218	16.11
215.438	29.8
215.657	30.89
215.877	33.76
216.096	22.24
216.316	16.27
216.535	17.25
216.755	-2.27
216.974	-8.36
217.194	-1.25
217.413	10.23
217.633	-2.36
217.852	-20.86
218.072	-32.17
218.291	11.89
218.511	-1.15
218.73	-8.84
218.95	-25.5
219.169	-25.46
219.389	-9.84
219.608	3.52
219.827	-11.32
220.047	23.75
220.266	22.42
220.485	32.96
220.705	31.01
220.924	32.53
221.143	21.37
221.363	18.4
221.582	-3.46
221.801	11.85
222.021	9.72
222.24	0.15
222.459	6.12
222.678	6.84
222.897	11.83
223.117	30.68
223.336	13.97
223.555	4.64
223.774	26.56
223.993	22.72
224.213	17.54
224.432	25.6
224.651	9.46
224.87	18.54
225.089	30.46
225.308	21.79
225.527	27.82
225.746	30.25
225.965	16.75
226.184	16.27
226.404	13.76
226.623	17.07
226.842	20.32
227.061	18.42
227.28	29.02
227.499	38.17
227.718	38.86
227.936	35.85
228.155	35.1
228.374	33.58
228.593	35.13
228.812	29.94
229.031	22.06
229.25	24.9
229.469	26.71
229.688	24.41
229.907	27.59
230.125	28.55
230.344	35.29
230.563	35.6
230.782	29.51
231.001	36.55
231.22	30.36
231.438	22.24
231.657	18.61
231.876	4.91
232.095	9.1
232.313	19.11
232.532	12.33
232.751	18.85
232.969	26.91
233.188	21.46
233.407	28.3
233.625	18.83
233.844	24.39
234.063	19.61
234.281	18.05
234.5	19.45
234.719	25.68
234.937	30.23
235.156	37
235.374	24.87
235.593	23.79
235.811	21.01
236.03	10.05
236.249	17.33
236.467	19.71
236.686	26.65
236.904	33.49
237.123	39.48
237.341	33.6
237.559	38.74
237.778	31.19
237.996	34.69
238.215	18.07
238.433	19.33
238.652	10.56
238.87	16.74
239.088	1.49
239.307	3.39
239.525	-12.4
239.743	-17.38
239.962	-18.93
240.18	4.04
240.398	6.61
240.617	30.94
240.835	26.01
241.053	41.19
241.271	52.36
241.49	35.55
241.708	10.36
241.926	-3.93
242.144	-20.45
242.363	-22.11
242.581	-25.45
242.799	-39.53
243.017	-21
243.235	-17.16
243.453	-9.64
243.672	-4.1
243.89	3.55
244.108	12.05
244.326	12.16
244.544	24.07
244.762	29.14
244.98	25.23
245.198	15.27
245.416	15.08
245.634	21.45
245.852	27.14
246.07	31.97
246.288	27.48
246.506	39.98
246.724	55.72
246.942	63.18
247.16	50.15
247.378	43.11
247.596	37.68
247.814	28.97
248.032	30.75
248.25	29.26
248.468	31.45
248.685	34.79
248.903	25.68
249.121	22.94
249.339	33.8
249.557	27.79
249.775	4.34
249.992	1.41
250.21	0.03
250.428	4.04
250.646	10.92
250.863	7.48
251.081	10.3
251.299	40.52
251.517	45.21
251.734	34.53
251.952	38.28
252.17	3.55
252.387	18.07
252.605	12.76
252.823	-4.45
253.04	-3.91
253.258	11
253.475	17.57
253.693	36.89
253.911	34.17
254.128	31.36
254.346	27.01
254.563	20.66
254.781	10.21
254.998	9.74
255.216	9.52
255.433	6.49
255.651	-4.23
255.868	4.15
256.086	5.8
256.303	15.31
256.521	7.23
256.738	4.75
256.956	3.92
257.173	16.43
257.39	13.77
257.608	16.11
257.825	15.51
258.043	18.34
258.26	19.13
258.477	17.89
258.695	17.17
258.912	27.65
259.129	20.02
259.346	26.56
259.564	20.83
259.781	20.64
259.998	20.95
260.216	22.46
260.433	14.81
260.65	24.43
260.867	1.28
261.084	10
261.302	-3.21
261.519	-11.18
261.736	-15.44
261.953	-26.73
262.17	-25.75
262.387	-16.04
262.604	-26.48
262.822	-21.55
263.039	-11.43
263.256	-8.78
263.473	-12.46
263.69	-18.98
263.907	-12.47
264.124	-9.73
264.341	-6.67
264.558	-1.38
264.775	4.98
264.992	13.59
265.209	27.51
265.426	23.27
265.643	18.37
265.86	23.53
266.077	24.28
266.294	22.17
266.51	25.67
266.727	11.54
266.944	-5.09
267.161	-7.02
267.378	-19.9
267.595	-33.5
267.812	-36.3
268.028	-23.28
268.245	-13.18
268.462	-1.7
268.679	16.47
268.896	15.48
269.112	28.17
269.329	32.74
269.546	18.6
269.763	18.74
269.979	16.27
270.196	9.11
270.413	12.18
270.629	6.19
270.846	8.21
271.063	13.98
271.279	14.36
271.496	9.7
271.712	16.34
271.929	18.23
272.146	22.4
272.362	10.73
272.579	2.91
272.795	-2.81
273.012	11.05
273.228	6
273.445	-0.22
273.661	-9.53
273.878	3.7
274.094	10.61
274.311	7.83
274.527	-2.59
274.744	0.34
274.96	2.82
275.177	18.88
275.393	8.18
275.609	4.2
275.826	3.7
276.042	22.09
276.259	21.51
276.475	15.72
276.691	14.85
276.908	21.85
277.124	22.15
277.34	25.38
277.557	20.43
277.773	17.82
277.989	29.38
278.205	18.76
278.422	18.94
278.638	29.3
278.854	35.79
279.07	26.44
279.286	19.46
279.503	8.22
279.719	18.18
279.935	3.73
280.151	0.11
280.367	-6.13
280.583	3.25
280.799	14.46
281.016	20.47
281.232	13.31
281.448	17.37
281.664	16.9
281.88	21.03
282.096	27.14
282.312	11.73
282.528	6.57
282.744	9.17
282.96	14.32
283.176	7.02
283.392	9.86
283.608	2.6
283.824	11.54
284.04	22.36
284.256	18.29
284.471	16.83
284.687	25.01
284.903	18.41
285.119	10.34
285.335	11.21
285.551	2.26
285.767	9.94
285.982	17.78
286.198	2
286.414	16.39
286.63	22.45
286.846	19.03
287.061	17.54
287.277	18.93
287.493	10.24
287.709	6.82
287.924	1.44
288.14	9.07
288.356	8.05
288.571	13.8
288.787	11.87
289.003	14.04
289.218	22.59
289.434	27.37
289.65	21.69
289.865	18.25
290.081	13.46
290.296	7.71
290.512	18.3
290.727	22.36
290.943	15.05
291.159	4.73
291.374	11.07
291.59	8.91
291.805	9.35
292.021	-14.71
292.236	-17.73
292.451	-19.47
292.667	-8.09
292.882	-5.85
293.098	-8.1
293.313	-8.41
293.529	5.56
293.744	10.9
293.959	9.81
294.175	7.76
294.39	6.7
294.605	14.98
294.821	14.98
295.036	24.41
295.251	17.59
295.467	13.39
295.682	14.29
295.897	7.4
296.112	10.03
296.328	12.49
296.543	-4.09
296.758	4.66
296.973	9.71
297.188	0.85
297.404	9.28
297.619	-2.68
297.834	-3.39
298.049	4.38
298.264	-7.85
298.479	-20.29
298.694	-5.52
298.909	-9.8
299.125	3.25
299.34	3.78
299.555	7.68
299.77	10.88
299.985	12.32
300.2	7.59
300.415	15.05
300.63	11.19
300.845	18.18
301.06	13.86
301.275	20.99
301.49	32.51
301.704	28.95
301.919	21.04
302.134	11.94
302.349	-6.99
302.564	-7.17
302.779	-15.09
302.994	-21.76
303.209	-26.94
303.423	-7.34
303.638	4.97
303.853	26.54
304.068	23.48
304.283	26
304.497	27.82
304.712	31.05
304.927	16.47
305.142	13.62
305.356	13.79
305.571	15.4
305.786	11.12
306	16.45
306.215	20.1
306.43	41.62
306.644	44.83
306.859	41.85
307.074	32.73
307.288	36.26
307.503	30.53
307.717	24
307.932	16.6
308.147	8.64
308.361	6.69
308.576	13.08
308.79	8.34
309.005	4.51
309.219	4.23
309.434	-4.51
309.648	-10.35
309.863	0.85
310.077	2.3
310.292	7.98
310.506	13.12
310.72	20.69
310.935	28.61
311.149	25.37
311.364	17.01
311.578	10.48
311.792	10.87
312.007	8.36
312.221	13.71
312.435	13.89
312.649	25.91
312.864	19
313.078	30.57
313.292	28.66
313.507	40.22
313.721	27.55
313.935	34.19
314.149	30.86
314.363	40.33
314.578	54.88
314.792	54.24
315.006	51.56
315.22	53.08
315.434	40.15
315.648	39.94
315.862	33.97
316.077	20.99
316.291	21.28
316.505	13.55
316.719	0.12
316.933	11.12
317.147	7.64
317.361	6.51
317.575	-0.25
317.789	7.03
318.003	13.85
318.217	28.8
318.431	21.2
318.645	25.35
318.859	9.71
319.073	4.98
319.287	11.96
319.5	8.89
319.714	3.55
319.928	12.33
320.142	11.46
320.356	32.44
320.57	38.48
320.784	31.51
320.997	35.58
321.211	30.29
321.425	16.54
321.639	22.77
321.853	9.04
322.066	8.16
322.28	8.64
322.494	1.39
322.707	0.5
322.921	10.16
323.135	-0.55
323.349	6.77
323.562	9.17
323.776	3.62
323.989	1.24
324.203	13.44
324.417	5.07
324.63	1.29
324.844	-1.97
325.057	5.32
325.271	7.93
325.485	13.28
325.698	3.69
325.912	11.88
326.125	21.44
326.339	21.54
326.552	21.08
326.766	26.75
326.979	32.66
327.193	32.44
327.406	31.11
327.619	21.67
327.833	20.74
328.046	5.33
328.26	6.18
328.473	-1.83
328.686	-8.23
328.9	-8.23
329.113	-7.34
329.326	-0.51
329.54	4.18
329.753	-6.35
329.966	0.1
330.179	19.59
330.393	20.88
330.606	29.7
330.819	35.72
331.032	38.91
331.246	45.99
331.459	42.62
331.672	34.85
331.885	30.42
332.098	28.45
332.311	10.82
332.525	18.22
332.738	15.78
332.951	18.83
333.164	13.01
333.377	-2.15
333.59	-5.02
333.803	9.55
334.016	-17.15
334.229	-5.82
334.442	-2.56
334.655	10.13
334.868	28.6
335.081	35.32
335.294	30.85
335.507	43.4
335.72	27.19
335.933	33.73
336.146	30.17
336.359	29.47
336.572	22.1
336.785	28.3
336.997	22.72
337.21	31.59
337.423	23.53
337.636	22.36
337.849	20.51
338.062	27.65
338.274	19.1
338.487	19.8
338.7	19.75
338.913	14.04
339.125	5.75
339.338	9.43
339.551	12.24
339.763	12.67
339.976	12.06
340.189	8.76
340.402	10.63
340.614	16.1
340.827	8.19
341.039	9.65
341.252	8.62
341.465	1.06
341.677	-0.24
341.89	-2.51
342.102	1.7
342.315	6.42
342.527	-2.96
342.74	0.4
342.952	7.7
343.165	17.15
343.377	29.97
343.59	28.27
343.802	38.61
344.015	44.71
344.227	32.35
344.44	28.8
344.652	27.23
344.864	19.39
345.077	16.64
345.289	2.03
345.502	-7.98
345.714	-1.22
345.926	1.34
346.139	3.22
346.351	-6.74
346.563	-3.57
346.775	-5.31
346.988	-4.91
347.2	1.72
347.412	3.23
347.624	4.44
347.837	13.34
348.049	12.44
348.261	10.43
348.473	9.82
348.685	10.2
348.897	12.91
349.11	11.59
349.322	5.11
349.534	-0.48
349.746	10.19
349.958	17.22
350.17	18.22
350.382	4.79
350.594	13.54
350.806	20.86
351.018	32.46
351.23	28.13
351.442	24.51
351.654	30.4
351.866	36.35
352.078	22.9
352.29	24.78
352.502	24.21
352.714	28.42
352.926	29.86
353.138	20.64
353.35	21.39
353.561	16.95
353.773	9.43
353.985	6.23
354.197	-0.23
354.409	-2.95
354.621	-1.42
354.832	-7.71
355.044	10.46
355.256	5.85
355.468	3.11
355.679	3.07
355.891	8.99
356.103	6.05
356.314	11.31
356.526	1.89
356.738	4.02
356.949	5.61
357.161	21.15
357.373	25.14
357.584	44.77
357.796	44.65
358.008	42.79
358.219	53.7
358.431	49.35
358.642	30.34
358.854	25.37
359.065	12.92
359.277	8.14
359.488	0.52
359.7	3.53
359.911	9.19
360.123	20.39
360.334	19.14
360.546	14.78
360.757	18.17
360.969	24.83
361.18	21.87
361.391	19.49
361.603	11.81
361.814	13.6
362.025	18.27
362.237	16.23
362.448	12.4
362.659	-2.38
362.871	3.61
363.082	8.64
363.293	12.1
363.504	10.45
363.716	12
363.927	15.43
364.138	26.57
364.349	25.7
364.56	23.98
364.772	24.68
364.983	25.62
365.194	28.58
365.405	27.08
365.616	13.24
365.827	7.64
366.038	14.76
366.25	6.88
366.461	8.29
366.672	-0.93
366.883	2.9
367.094	7.35
367.305	4.78
367.516	-1.88
367.727	-0.77
367.938	1.23
368.149	7.7
368.36	10.08
368.571	13.36
368.781	7.3
368.992	5.91
369.203	10.83
369.414	4.97
369.625	7.52
369.836	2.42
370.047	1.62
370.258	6.66
370.468	3.4
370.679	-2.46
370.89	13.36
371.101	3.27
371.312	0.08
371.522	-2.25
371.733	-1.75
371.944	4.42
372.155	-7.06
372.365	-21.69
372.576	-12.1
372.787	-6.28
372.997	-7.1
373.208	-3.93
373.419	-3.59
373.629	12.66
373.84	9.42
374.05	9.7
374.261	3.04
374.472	9.67
374.682	5.36
374.893	0.53
375.103	2.24
375.314	10.07
375.524	10.17
375.735	21.57
375.945	20.91
376.156	26.91
376.366	31.78
376.577	30.07
376.787	27.81
376.997	24.33
377.208	12.25
377.418	10.65
377.629	9.21
377.839	15.09
378.049	13.88
378.26	17.94
378.47	23.17
378.68	25.8
378.89	20.89
379.101	15.44
379.311	6.28
379.521	12.35
379.732	-0.77
379.942	-1.38
380.152	6.04
380.362	8.37
380.572	15.2
380.783	15.82
380.993	9.15
381.203	18.02
381.413	18.16
381.623	14.65
381.833	14.3
382.043	10.94
382.253	10.27
382.463	16.5
382.674	15.32
382.884	10.41
383.094	11.47
383.304	13.37
383.514	17.19
383.724	16.7
383.934	6.91
384.144	5.43
384.353	8.95
384.563	6.05
384.773	4.13
384.983	0.73
385.193	3.72
385.403	7.4
385.613	6.48
385.823	4.61
386.033	6.8
386.242	5.55
386.452	2.68
386.662	5.55
386.872	5.09
387.082	4.09
387.291	3.96
387.501	2.78
387.711	2.64
387.921	4.48
388.13	0.01
388.34	2.26
388.55	3.21
388.759	2.31
388.969	0.22
389.179	1.99
389.388	2.68
389.598	2.23
389.807	0.33
390.017	2.08
390.227	3.68
390.436	5.26
390.646	6.59
390.855	7.08
391.065	6.57
391.274	5.31
391.484	5.11
391.693	4.25
391.903	3.21
392.112	2.38
392.322	2.97
392.531	3.67
392.74	3.94
392.95	3.38
393.159	4.08
393.369	4.5
393.578	4.9
393.787	4.64
393.997	5.68
394.206	6.29
394.415	6.1
394.625	4.96
394.834	4.22
395.043	4.6
395.252	4.78
395.462	3.59
395.671	4.31
395.88	4.82
396.089	5.57
396.298	5.55
396.508	4.45
396.717	3.81
396.926	3.88
397.135	2.99
397.344	2.62
397.553	2.69
397.762	3.09
397.971	3.39
398.181	3.36
398.39	3.74
398.599	4.01
398.808	4.24
399.017	4.68
399.226	4.86
399.435	4.9
399.644	4.81
399.853	4.8
400.062	4.74
400.27	4.59
400.479	4.39
400.688	4.58
400.897	4.78
401.106	5
401.315	4.9
401.524	5.06
401.733	5.29
401.941	5.05
402.15	4.75
402.359	4.73
402.568	4.74
402.777	4.76
402.985	4.69
403.194	4.52
403.403	4.51
403.612	4.63
403.82	4.61
404.029	4.56
404.238	4.55
404.446	4.4
404.655	4.31
404.864	4.31
405.072	4.27
405.281	4.05
405.489	4.09
405.698	3.95
405.906	3.96
406.115	4.09
406.324	4.04
406.532	4
406.741	4.13
406.949	4.01
407.158	4.11
407.366	4.19
407.574	4.17
407.783	4.13
407.991	4.01
408.2	3.97
408.408	3.99
408.617	3.89
408.825	3.89
409.033	3.82
409.242	3.78
409.45	3.77
409.658	3.8
409.867	3.77
410.075	3.77
410.283	3.6
410.491	3.59
410.7	3.65
410.908	3.74
411.116	3.67
411.324	3.7
411.533	3.66
411.741	3.74
411.949	3.84
412.157	3.92
412.365	3.88
412.573	3.88
412.781	3.84
412.99	4.01
413.198	4.02
413.406	3.88
413.614	3.8
413.822	3.74
414.03	3.67
414.238	3.72
414.446	3.55
414.654	3.57
414.862	3.57
415.07	3.62
415.278	3.55
415.486	3.63
415.694	3.52
415.902	3.56
416.109	3.52
416.317	3.39
416.525	3.37
416.733	3.53
416.941	3.42
417.149	3.53
417.357	3.5
417.564	3.5
417.772	3.62
417.98	3.53
418.188	3.35
418.395	3.41
418.603	3.21
418.811	3.15
419.019	3.16
419.226	3.23
419.434	3.15
419.642	3.2
419.849	3.11
420.057	3.22
420.265	3.23
420.472	3.14
420.68	3.03
420.887	3.14
421.095	3.12
421.302	3.19
421.51	3.26
421.717	3.32
421.925	3.32
422.132	3.27
422.34	3.2
422.547	3.19
422.755	3.15
422.962	2.97
423.17	2.88
423.377	2.97
423.585	3
423.792	2.98
423.999	2.93
424.207	2.88
424.414	3.01
424.621	2.99
424.829	2.85
425.036	2.84
425.243	2.89
425.451	2.94
425.658	3.06
425.865	2.93
426.072	3.01
426.28	3.1
426.487	3.01
426.694	2.94
426.901	2.98
427.108	2.96
427.315	3
427.523	3
427.73	2.98
427.937	3.07
428.144	3.17
428.351	3.28
428.558	3.21
428.765	3.19
428.972	3.23
429.179	3.19
429.386	3.24
429.593	3.23
429.8	3.19
430.007	3.35
430.214	3.49
430.421	3.46
430.628	3.41
430.835	3.36
431.042	3.37
431.249	3.39
431.456	3.36
431.662	3.35
431.869	3.46
432.076	3.6
432.283	3.62
432.49	3.62
432.697	3.55
432.903	3.49
433.11	3.55
433.317	3.53
433.524	3.4
433.73	3.42
433.937	3.38
434.144	3.51
434.35	3.51
434.557	3.39
434.764	3.39
434.97	3.58
435.177	3.57
435.384	3.7
435.59	3.7
435.797	3.74
436.003	3.78
436.21	3.75
436.416	3.63
436.623	3.68
436.829	3.63
437.036	3.6
437.242	3.66
437.449	3.73
437.655	3.75
437.862	3.84
438.068	3.93
438.275	4
438.481	4.07
438.687	4.12
438.894	4.15
439.1	4.14
439.307	4.14
439.513	4.04
439.719	4.02
439.926	4.01
440.132	3.95
440.338	3.95
440.544	3.98
440.751	3.99
440.957	3.97
441.163	3.98
441.369	4.01
441.575	4.03
441.782	4.04
441.988	4.04
442.194	4.11
442.4	4.24
442.606	4.3
442.812	4.33
443.018	4.35
443.224	4.38
443.431	4.42
443.637	4.33
443.843	4.34
444.049	4.24
444.255	4.15
444.461	4.13
444.667	4.13
444.873	4.12
445.079	4.21
445.284	4.17
445.49	4.21
445.696	4.32
445.902	4.42
446.108	4.44
446.314	4.48
446.52	4.51
446.726	4.5
446.931	4.56
447.137	4.51
447.343	4.44
447.549	4.41
447.755	4.37
447.96	4.3
448.166	4.33
448.372	4.29
448.578	4.3
448.783	4.36
448.989	4.41
449.195	4.46
449.4	4.52
449.606	4.49
449.812	4.54
450.017	4.57
450.223	4.57
450.428	4.61
450.634	4.6
450.84	4.62
451.045	4.68
451.251	4.68
451.456	4.71
451.662	4.69
451.867	4.68
452.073	4.67
452.278	4.64
452.483	4.67
452.689	4.66
452.894	4.66
453.1	4.66
453.305	4.65
453.51	4.67
453.716	4.68
453.921	4.64
454.127	4.65
454.332	4.67
454.537	4.75
454.742	4.76
454.948	4.76
455.153	4.78
455.358	4.89
455.563	4.91
455.769	4.86
455.974	4.77
456.179	4.73
456.384	4.79
456.589	4.81
456.795	4.69
457	4.7
457.205	4.73
457.41	4.79
457.615	4.87
457.82	4.89
458.025	4.86
458.23	4.92
458.435	4.89
458.64	4.94
458.845	4.96
459.05	4.94
459.255	4.88
459.46	4.91
459.665	4.93
459.87	5.01
460.075	5.02
460.28	5.01
460.485	5.03
460.69	5.05
460.895	5.09
461.099	5.13
461.304	5.1
461.509	5.02
461.714	5.06
461.919	5.05
462.123	5.13
462.328	5.11
462.533	5.09
462.738	5.13
462.942	5.23
463.147	5.23
463.352	5.33
463.556	5.28
463.761	5.31
463.966	5.34
464.17	5.34
464.375	5.31
464.58	5.3
464.784	5.29
464.989	5.29
465.193	5.31
465.398	5.33
465.602	5.36
465.807	5.41
466.011	5.51
466.216	5.56
466.42	5.59
466.625	5.63
466.829	5.68
467.034	5.71
467.238	5.74
467.443	5.73
467.647	5.74
467.851	5.79
468.056	5.77
468.26	5.72
468.464	5.72
468.669	5.76
468.873	5.72
469.077	5.7
469.282	5.76
469.486	5.82
469.69	5.87
469.894	5.9
470.099	5.89
470.303	5.91
470.507	5.95
