Data from Ofra_2a_PS_9GT30_Reflection_1.txt Node
Date: Tue Jul 20 10:00:06 EDT 2021
User: Adam
Spectrometer: FLMT01687
Trigger mode: 0
Integration Time (sec): 9.450000E-1
Scans to average: 3
Electric dark correction enabled: true
Nonlinearity correction enabled: false
Boxcar width: 3
XAxis mode: Wavelengths
Number of Pixels in Spectrum: 3648
>>>>>Begin Spectral Data<<<<<
179.494	1193.49
179.716	676.76
179.937	645.05
180.158	2795.31
180.38	-1459.3
180.601	-212.27
180.823	-51.23
181.044	116.73
181.265	-57.89
181.486	-79.44
181.708	-1765.22
181.929	-167.91
182.15	-370.45
182.372	40.43
182.593	75.34
182.814	353.29
183.035	398.76
183.257	179.94
183.478	125.47
183.699	95.12
183.92	66.12
184.141	68.04
184.363	44.65
184.584	23.89
184.805	18.7
185.026	-4.72
185.247	-28.52
185.468	-26.5
185.689	-28.8
185.91	-15.2
186.132	-3.28
186.353	-9.84
186.574	8.57
186.795	-1.23
187.016	4.07
187.237	8.4
187.458	-4.12
187.679	-27.79
187.9	-5.07
188.121	-0.06
188.342	22.34
188.563	29.24
188.784	21.2
189.005	34.07
189.226	44.36
189.447	33.77
189.667	14.83
189.888	26.4
190.109	22.15
190.33	12.66
190.551	-2.65
190.772	-6.79
190.993	13.19
191.214	4.25
191.434	-0.98
191.655	4.96
191.876	23.6
192.097	22.77
192.318	22.98
192.538	19.82
192.759	37.7
192.98	27.52
193.201	27.72
193.421	20.42
193.642	36.98
193.863	38.69
194.083	29.4
194.304	17.28
194.525	37.24
194.745	16.67
194.966	20.23
195.187	15.21
195.407	21.29
195.628	14.31
195.848	14.43
196.069	-0.53
196.29	16.23
196.51	15.34
196.731	23.68
196.951	28.43
197.172	24.75
197.392	24.11
197.613	25.65
197.833	15.71
198.054	6.06
198.274	-16.13
198.495	-6.88
198.715	-15.01
198.936	-23.8
199.156	-13.8
199.377	-10.65
199.597	-3.27
199.817	1.86
200.038	-22.33
200.258	-12.41
200.479	2.58
200.699	-0.44
200.919	-14.61
201.14	-14.61
201.36	-8.01
201.58	10.04
201.801	21.19
202.021	5
202.241	14.33
202.461	29.18
202.682	41.31
202.902	31.43
203.122	23.6
203.342	29.11
203.563	30.73
203.783	16.41
204.003	17.56
204.223	22.95
204.443	25.58
204.663	26.86
204.884	13.64
205.104	19.2
205.324	40.88
205.544	47.34
205.764	43.35
205.984	50.21
206.204	53.35
206.424	51.11
206.644	46.95
206.864	29.19
207.084	43.97
207.304	34.59
207.525	11.55
207.745	5.41
207.964	6.77
208.184	11.04
208.404	14.37
208.624	-10.87
208.844	-18.37
209.064	11.94
209.284	21.01
209.504	14.9
209.724	3.26
209.944	-6.11
210.164	-1.83
210.384	11.88
210.604	-16.65
210.823	-17.7
211.043	-17.11
211.263	-7.13
211.483	1.38
211.703	4.04
211.922	11.89
212.142	31.04
212.362	28.07
212.582	19.67
212.801	19.84
213.021	37.84
213.241	20.35
213.461	3.98
213.68	-0.15
213.9	14.82
214.12	21.63
214.339	17.31
214.559	18.68
214.779	28.08
214.998	37.93
215.218	41.35
215.438	50.52
215.657	52.44
215.877	54.68
216.096	47.86
216.316	45.76
216.535	40.67
216.755	13.56
216.974	1.38
217.194	-7.91
217.413	8.07
217.633	-4.83
217.852	-0.94
218.072	-2.35
218.291	27.91
218.511	24.11
218.73	18.92
218.95	12.51
219.169	1.26
219.389	1.84
219.608	11.82
219.827	5.88
220.047	13.15
220.266	20.09
220.485	19.08
220.705	26.72
220.924	31.58
221.143	24.74
221.363	19.85
221.582	16.2
221.801	25.64
222.021	26.36
222.24	27.16
222.459	9.09
222.678	-5.83
222.897	-0.17
223.117	-7.46
223.336	-10.77
223.555	-23.03
223.774	-7.34
223.993	2.44
224.213	23.17
224.432	34.63
224.651	42.26
224.87	54.09
225.089	60.7
225.308	51.69
225.527	51.3
225.746	38.34
225.965	19.78
226.184	17.04
226.404	-8.72
226.623	8.6
226.842	9.67
227.061	20.67
227.28	33.43
227.499	40.03
227.718	35.43
227.936	33.94
228.155	23.55
228.374	24.16
228.593	17.97
228.812	11.43
229.031	4.79
229.25	6.77
229.469	13.54
229.688	21.02
229.907	19.46
230.125	25.91
230.344	29.32
230.563	33.82
230.782	27.95
231.001	23.81
231.22	17.9
231.438	19.79
231.657	15.13
231.876	9.25
232.095	2.64
232.313	14.23
232.532	22.89
232.751	30.88
232.969	38.3
233.188	42.16
233.407	44.91
233.625	44.27
233.844	40.17
234.063	38.77
234.281	33.93
234.5	30.07
234.719	24.9
234.937	39.17
235.156	36.86
235.374	33.84
235.593	27.6
235.811	20.57
236.03	3.81
236.249	14.16
236.467	10.47
236.686	24.67
236.904	22.99
237.123	30.4
237.341	34.24
237.559	31.59
237.778	38.65
237.996	25.76
238.215	25.58
238.433	35.09
238.652	23.87
238.87	19.88
239.088	17.38
239.307	14.91
239.525	8.62
239.743	-3.04
239.962	-12.89
240.18	6.25
240.398	11.23
240.617	23.2
240.835	22.07
241.053	34.71
241.271	46.88
241.49	43.62
241.708	32.87
241.926	16.38
242.144	12.14
242.363	2.66
242.581	6.13
242.799	-7.52
243.017	2.17
243.235	-0.31
243.453	20.05
243.672	20.46
243.89	35.31
244.108	44.37
244.326	40.49
244.544	39.96
244.762	35.34
244.98	26.27
245.198	17.31
245.416	7.08
245.634	-3.52
245.852	6.7
246.07	8.28
246.288	4.11
246.506	8.32
246.724	26.31
246.942	37.08
247.16	28.89
247.378	16.95
247.596	18.74
247.814	1.63
248.032	-0.42
248.25	-4.46
248.468	1.7
248.685	7.28
248.903	10.52
249.121	18.83
249.339	38.87
249.557	46
249.775	23.41
249.992	7.2
250.21	-6.47
250.428	-3.79
250.646	-5.29
250.863	-11.17
251.081	-17.84
251.299	12.74
251.517	37.29
251.734	58.79
251.952	62.21
252.17	45.37
252.387	39.46
252.605	38.46
252.823	25.03
253.04	15.63
253.258	10.29
253.475	5.55
253.693	31.51
253.911	42.12
254.128	34.68
254.346	30.54
254.563	21.8
254.781	15.98
254.998	19.13
255.216	10.56
255.433	3.71
255.651	-1.45
255.868	10.9
256.086	21.5
256.303	27.74
256.521	17.85
256.738	12.79
256.956	8.36
257.173	22.35
257.39	19.76
257.608	22.04
257.825	20.91
258.043	27.73
258.26	30.92
258.477	39.35
258.695	36.28
258.912	48.02
259.129	33.62
259.346	35.85
259.564	32.63
259.781	29.92
259.998	29.45
260.216	34.88
260.433	15.11
260.65	15.73
260.867	-1.8
261.084	8.44
261.302	3.21
261.519	-8.25
261.736	-16.75
261.953	-6.28
262.17	8.63
262.387	9.57
262.604	-3
262.822	5.05
263.039	9.6
263.256	9.67
263.473	3.49
263.69	-0.32
263.907	19.28
264.124	17.38
264.341	13.45
264.558	11.6
264.775	18.41
264.992	26.12
265.209	27.25
265.426	21.5
265.643	25.42
265.86	26.11
266.077	24.77
266.294	25.8
266.51	23.72
266.727	9.97
266.944	-0.64
267.161	-1.56
267.378	-3.66
267.595	0.3
267.812	-11.7
268.028	-2.85
268.245	2.48
268.462	11.44
268.679	15.31
268.896	9.34
269.112	19.05
269.329	22.2
269.546	19.03
269.763	25.22
269.979	22.51
270.196	25.17
270.413	28.63
270.629	19.32
270.846	21.96
271.063	17.3
271.279	12.15
271.496	5.05
271.712	-3.47
271.929	4.31
272.146	13.87
272.362	3.09
272.579	10.2
272.795	13.78
273.012	17.53
273.228	16.97
273.445	5.62
273.661	-2.34
273.878	1.15
274.094	-2.14
274.311	0.99
274.527	5.55
274.744	0.75
274.96	7.26
275.177	16.21
275.393	24.87
275.609	27.28
275.826	25.77
276.042	37.06
276.259	43.53
276.475	35.78
276.691	31.24
276.908	23.03
277.124	20.58
277.34	14.16
277.557	-0.33
277.773	-2.37
277.989	0.93
278.205	-5.72
278.422	5.34
278.638	12.97
278.854	19.78
279.07	12.1
279.286	8.97
279.503	7.1
279.719	16.92
279.935	3.44
280.151	15.03
280.367	10.6
280.583	23.88
280.799	27.17
281.016	33.45
281.232	31.94
281.448	31.55
281.664	17.12
281.88	28.98
282.096	27.42
282.312	22.86
282.528	13.82
282.744	13.93
282.96	23.63
283.176	26.55
283.392	30.51
283.608	31.12
283.824	36.72
284.04	37.83
284.256	38.8
284.471	37.74
284.687	27.95
284.903	20.8
285.119	7.9
285.335	0.93
285.551	3.54
285.767	1.91
285.982	-8.19
286.198	-13.11
286.414	1.42
286.63	13.79
286.846	13.18
287.061	15.3
287.277	15.68
287.493	25.71
287.709	21.24
287.924	26.74
288.14	34.58
288.356	49.76
288.571	39.63
288.787	38.68
289.003	36.36
289.218	37.38
289.434	20.68
289.65	16.09
289.865	22.22
290.081	26.02
290.296	25.63
290.512	27.93
290.727	42.68
290.943	43.29
291.159	30.29
291.374	21.88
291.59	8.68
291.805	5.36
292.021	-15.42
292.236	-18.59
292.451	-25.54
292.667	-11.52
292.882	-14.6
293.098	-14.87
293.313	-13.65
293.529	-3.26
293.744	-0.62
293.959	14.12
294.175	14.17
294.39	20.91
294.605	35.98
294.821	40
295.036	41.94
295.251	51.16
295.467	44.84
295.682	47.27
295.897	38.09
296.112	35.87
296.328	31.17
296.543	26.68
296.758	12.97
296.973	17.44
297.188	4.42
297.404	5.56
297.619	2.68
297.834	7.5
298.049	9.18
298.264	9.06
298.479	0.97
298.694	12.58
298.909	-0.19
299.125	8.25
299.34	1.09
299.555	16.01
299.77	14.96
299.985	12.62
300.2	5.69
300.415	13.4
300.63	7.62
300.845	16.93
301.06	7.02
301.275	15.81
301.49	14.29
301.704	14.88
301.919	8.34
302.134	5.25
302.349	-6.96
302.564	-14.5
302.779	-17.41
302.994	-19.17
303.209	-17.77
303.423	-3.42
303.638	8.07
303.853	20.57
304.068	27.92
304.283	16.91
304.497	23.05
304.712	20.82
304.927	15.34
305.142	4.4
305.356	1.65
305.571	3.98
305.786	16.01
306	21.78
306.215	26.79
306.43	35.13
306.644	40.48
306.859	46.07
307.074	41.61
307.288	31.44
307.503	23.48
307.717	20.24
307.932	17.04
308.147	18.63
308.361	9.58
308.576	10.42
308.79	17.25
309.005	20.84
309.219	19.33
309.434	15.68
309.648	6.89
309.863	19.11
310.077	13.86
310.292	8.53
310.506	15.16
310.72	19.38
310.935	21.82
311.149	29.59
311.364	26.94
311.578	31.89
311.792	31.52
312.007	23.11
312.221	20.54
312.435	23.25
312.649	-8.66
312.864	-25.05
313.078	-18.99
313.292	-29.62
313.507	-16.48
313.721	-18.57
313.935	14.62
314.149	36.04
314.363	43.78
314.578	60.83
314.792	69.91
315.006	65.28
315.22	67.48
315.434	43.15
315.648	46.73
315.862	41.84
316.077	26.47
316.291	27.48
316.505	29.11
316.719	8.58
316.933	15.83
317.147	16.08
317.361	21.29
317.575	18.32
317.789	15.56
318.003	16.81
318.217	31.07
318.431	33.52
318.645	37.66
318.859	20.1
319.073	16.23
319.287	19.51
319.5	16.26
319.714	15.71
319.928	15.52
320.142	16.85
320.356	33.75
320.57	35.52
320.784	28.68
320.997	31.92
321.211	22.91
321.425	11.97
321.639	11.09
321.853	0.11
322.066	1.19
322.28	-0.3
322.494	-1.31
322.707	2.68
322.921	13.59
323.135	11.52
323.349	13.27
323.562	8.72
323.776	15.22
323.989	10.35
324.203	10.15
324.417	-0.61
324.63	-7.83
324.844	-21.98
325.057	-10.77
325.271	-24.46
325.485	-21.48
325.698	-16.93
325.912	-5.18
326.125	6.7
326.339	18.95
326.552	22.71
326.766	41.27
326.979	43.17
327.193	40.42
327.406	39.58
327.619	20.64
327.833	21.16
328.046	11
328.26	-13.47
328.473	-11.87
328.686	-9.44
328.9	-17.59
329.113	-0.92
329.326	7.23
329.54	6.71
329.753	24.84
329.966	23.35
330.179	30.95
330.393	35.02
330.606	34.52
330.819	38.17
331.032	39.91
331.246	31.43
331.459	38.99
331.672	38.46
331.885	37.66
332.098	38.96
332.311	18.72
332.525	26.53
332.738	30.31
332.951	29.32
333.164	17.81
333.377	10.52
333.59	17
333.803	24.74
334.016	6.71
334.229	4.4
334.442	10.8
334.655	21.35
334.868	26.87
335.081	25.04
335.294	22.28
335.507	37.41
335.72	25.98
335.933	24.56
336.146	24.01
336.359	19.93
336.572	18.44
336.785	27.09
336.997	27.05
337.21	38.61
337.423	31.34
337.636	35.04
337.849	38.24
338.062	34.25
338.274	28.25
338.487	20.53
338.7	18.95
338.913	14.63
339.125	6.14
339.338	15.6
339.551	23.9
339.763	22.83
339.976	30.87
340.189	27.09
340.402	32.45
340.614	37.3
340.827	24.72
341.039	19.73
341.252	23.27
341.465	10.11
341.677	4.2
341.89	8.05
342.102	10.31
342.315	21.83
342.527	19.72
342.74	21.4
342.952	26.79
343.165	44.24
343.377	35.16
343.59	36.67
343.802	40.69
344.015	42.85
344.227	38.58
344.44	35.53
344.652	30.38
344.864	41.42
345.077	37.72
345.289	31.04
345.502	27
345.714	20.76
345.926	19.8
346.139	23.42
346.351	3.63
346.563	8.58
346.775	1.98
346.988	3.53
347.2	7.74
347.412	18.34
347.624	17.54
347.837	22.51
348.049	21.17
348.261	18.05
348.473	11.64
348.685	21.61
348.897	18.34
349.11	14.68
349.322	14.12
349.534	13.18
349.746	31.39
349.958	37.53
350.17	34.69
350.382	24.62
350.594	20.62
350.806	22.06
351.018	25.4
351.23	22
351.442	18.24
351.654	14.18
351.866	21.73
352.078	22.49
352.29	22.61
352.502	20.78
352.714	21.38
352.926	27.79
353.138	30.62
353.35	18.44
353.561	15.34
353.773	11.96
353.985	14.01
354.197	6.71
354.409	7.06
354.621	3.05
354.832	5.69
355.044	13.24
355.256	15.73
355.468	14.5
355.679	23.95
355.891	20
356.103	19.76
356.314	20.24
356.526	15.67
356.738	13.74
356.949	14.08
357.161	12.32
357.373	15.78
357.584	32.62
357.796	31.12
358.008	36.18
358.219	40.27
358.431	29.23
358.642	23.55
358.854	20.11
359.065	8.06
359.277	10.85
359.488	0.05
359.7	2.07
359.911	12.39
360.123	16.87
360.334	14.58
360.546	11.5
360.757	13.59
360.969	22.25
361.18	15.27
361.391	14.67
361.603	19.87
361.814	19.85
362.025	25.17
362.237	27.96
362.448	27.36
362.659	24.32
362.871	29.51
363.082	21.77
363.293	25.54
363.504	25.42
363.716	22.32
363.927	18.31
364.138	22.29
364.349	18.88
364.56	16.8
364.772	16.92
364.983	9.68
365.194	8.4
365.405	5.73
365.616	-0.81
365.827	-6.02
366.038	8.46
366.25	5.74
366.461	15.22
366.672	11.3
366.883	18.72
367.094	22.82
367.305	23.79
367.516	12.22
367.727	12.64
367.938	9.46
368.149	9.25
368.36	5.59
368.571	4.74
368.781	2.7
368.992	4.78
369.203	1.35
369.414	-7.32
369.625	-4.86
369.836	-3.58
370.047	2.05
370.258	-1.32
370.468	-5.09
370.679	-2.44
370.89	9.89
371.101	8.95
371.312	8.52
371.522	10.72
371.733	7.5
371.944	16.47
372.155	5.28
372.365	1.07
372.576	-3.14
372.787	-4.49
372.997	-7.63
373.208	2.47
373.419	-5.05
373.629	10.7
373.84	6.99
374.05	12.1
374.261	14.09
374.472	10.08
374.682	2.49
374.893	-1.68
375.103	-4.07
375.314	-4.9
375.524	-3.59
375.735	1.23
375.945	4.21
376.156	17.35
376.366	20.77
376.577	24.45
376.787	37.52
376.997	37.38
377.208	23.5
377.418	20.24
377.629	11.31
377.839	14.49
378.049	14.39
378.26	13.98
378.47	14.68
378.68	21.51
378.89	15.73
379.101	9.67
379.311	4.82
379.521	0.98
379.732	-13.68
379.942	-13.34
380.152	-7.61
380.362	5.49
380.572	13.8
380.783	17.14
380.993	19.96
381.203	23.27
381.413	25.48
381.623	18.9
381.833	11.04
382.043	4.9
382.253	4.9
382.463	8.65
382.674	11.17
382.884	6.54
383.094	5.32
383.304	11.08
383.514	18.58
383.724	13.44
383.934	7.12
384.144	10.87
384.353	10.95
384.563	12.47
384.773	9.2
384.983	8.64
385.193	12.71
385.403	16.95
385.613	11.42
385.823	10.03
386.033	8.74
386.242	9.62
386.452	8.58
386.662	8.64
386.872	5.88
387.082	5.88
387.291	8.86
387.501	10.77
387.711	9.64
387.921	6.2
388.13	6.21
388.34	4.86
388.55	6.48
388.759	5.45
388.969	2.34
389.179	6.23
389.388	9.41
389.598	8.03
389.807	7.47
390.017	7.6
390.227	6.35
390.436	6.81
390.646	5.49
390.855	3.69
391.065	2.74
391.274	2.49
391.484	3.08
391.693	4.71
391.903	3.6
392.112	2.8
392.322	5.09
392.531	6.29
392.74	5.8
392.95	5.46
393.159	5.12
393.369	6.64
393.578	6.85
393.787	5.79
393.997	6.47
394.206	7.72
394.415	7.04
394.625	5.93
394.834	5.15
395.043	5.82
395.252	6.99
395.462	6.63
395.671	7.01
395.88	7.35
396.089	8.1
396.298	8.12
396.508	7.6
396.717	6.27
396.926	6.19
397.135	5.4
397.344	4.71
397.553	4.82
397.762	5.21
397.971	5.09
398.181	4.76
398.39	4.53
398.599	4.76
398.808	5.42
399.017	5.54
399.226	5.56
399.435	5.5
399.644	5.74
399.853	5.7
400.062	5.69
400.27	5.6
400.479	5.36
400.688	5.35
400.897	5.69
401.106	5.87
401.315	5.98
401.524	6.05
401.733	6.12
401.941	6.07
402.15	5.67
402.359	5.51
402.568	5.48
402.777	5.41
402.985	5.27
403.194	5.17
403.403	4.97
403.612	5.28
403.82	5.3
404.029	5.13
404.238	5.22
404.446	5.22
404.655	5.11
404.864	5.14
405.072	5.11
405.281	4.92
405.489	5.07
405.698	4.92
405.906	4.9
406.115	5
406.324	5.09
406.532	5.04
406.741	5.08
406.949	4.94
407.158	5
407.366	5.09
407.574	5.1
407.783	4.98
407.991	4.92
408.2	4.91
408.408	4.97
408.617	4.94
408.825	4.88
409.033	4.75
409.242	4.85
409.45	4.79
409.658	4.83
409.867	4.82
410.075	4.76
410.283	4.68
410.491	4.69
410.7	4.64
410.908	4.7
411.116	4.57
411.324	4.57
411.533	4.52
411.741	4.51
411.949	4.57
412.157	4.59
412.365	4.57
412.573	4.61
412.781	4.62
412.99	4.74
413.198	4.81
413.406	4.78
413.614	4.72
413.822	4.72
414.03	4.61
414.238	4.59
414.446	4.45
414.654	4.42
414.862	4.4
415.07	4.51
415.278	4.42
415.486	4.59
415.694	4.5
415.902	4.47
416.109	4.45
416.317	4.36
416.525	4.33
416.733	4.46
416.941	4.36
417.149	4.49
417.357	4.56
417.564	4.55
417.772	4.61
417.98	4.5
418.188	4.34
418.395	4.39
418.603	4.19
418.811	4.15
419.019	4.17
419.226	4.26
419.434	4.23
419.642	4.29
419.849	4.22
420.057	4.35
420.265	4.33
420.472	4.19
420.68	4.08
420.887	4.11
421.095	4.13
421.302	4.17
421.51	4.23
421.717	4.32
421.925	4.32
422.132	4.23
422.34	4.22
422.547	4.15
422.755	4.09
422.962	3.89
423.17	3.77
423.377	3.89
423.585	3.97
423.792	3.97
423.999	3.93
424.207	3.81
424.414	3.92
424.621	3.85
424.829	3.75
425.036	3.64
425.243	3.68
425.451	3.7
425.658	3.91
425.865	3.81
426.072	4.03
426.28	4.08
426.487	4.07
426.694	4.02
426.901	4.01
427.108	3.95
427.315	3.99
427.523	3.94
427.73	3.92
427.937	4
428.144	4.02
428.351	4.11
428.558	4.08
428.765	4.01
428.972	3.98
429.179	3.94
429.386	3.99
429.593	3.96
429.8	4.05
430.007	4.01
430.214	4.08
430.421	4.04
430.628	3.94
430.835	3.91
431.042	3.95
431.249	3.88
431.456	3.99
431.662	4.02
431.869	4.16
432.076	4.29
432.283	4.27
432.49	4.27
432.697	4.24
432.903	4.2
433.11	4.27
433.317	4.23
433.524	4.12
433.73	4.21
433.937	4.21
434.144	4.24
434.35	4.23
434.557	4.11
434.764	4.08
434.97	4.19
435.177	4.1
435.384	4.17
435.59	4.16
435.797	4.23
436.003	4.29
436.21	4.24
436.416	4.17
436.623	4.25
436.829	4.23
437.036	4.26
437.242	4.29
437.449	4.29
437.655	4.38
437.862	4.45
438.068	4.47
438.275	4.48
438.481	4.53
438.687	4.52
438.894	4.49
439.1	4.49
439.307	4.46
439.513	4.42
439.719	4.49
439.926	4.49
440.132	4.48
440.338	4.56
440.544	4.58
440.751	4.64
440.957	4.63
441.163	4.62
441.369	4.57
441.575	4.56
441.782	4.52
441.988	4.52
442.194	4.56
442.4	4.59
442.606	4.59
442.812	4.58
443.018	4.61
443.224	4.67
443.431	4.7
443.637	4.66
443.843	4.7
444.049	4.68
444.255	4.67
444.461	4.66
444.667	4.62
444.873	4.63
445.079	4.66
445.284	4.6
445.49	4.6
445.696	4.65
445.902	4.69
446.108	4.73
446.314	4.8
446.52	4.81
446.726	4.85
446.931	4.88
447.137	4.91
447.343	4.89
447.549	4.85
447.755	4.76
447.96	4.72
448.166	4.76
448.372	4.73
448.578	4.72
448.783	4.72
448.989	4.79
449.195	4.82
449.4	4.84
449.606	4.83
449.812	4.89
450.017	4.9
450.223	4.88
450.428	4.86
450.634	4.88
450.84	4.87
451.045	4.84
451.251	4.84
451.456	4.8
451.662	4.81
451.867	4.81
452.073	4.78
452.278	4.82
452.483	4.81
452.689	4.82
452.894	4.86
453.1	4.83
453.305	4.82
453.51	4.85
453.716	4.84
453.921	4.83
454.127	4.8
454.332	4.78
454.537	4.86
454.742	4.87
454.948	4.84
455.153	4.84
455.358	4.93
455.563	4.95
455.769	4.94
455.974	4.88
456.179	4.81
456.384	4.86
456.589	4.9
456.795	4.77
457	4.76
457.205	4.71
457.41	4.76
457.615	4.86
457.82	4.89
458.025	4.85
458.23	4.9
458.435	4.89
458.64	5
458.845	4.95
459.05	4.92
459.255	4.81
459.46	4.83
459.665	4.92
459.87	4.93
460.075	4.91
460.28	4.92
460.485	4.95
460.69	4.97
460.895	5.05
461.099	4.97
461.304	5
461.509	4.89
461.714	4.93
461.919	4.89
462.123	4.96
462.328	4.9
462.533	4.96
462.738	4.97
462.942	5.1
463.147	5.09
463.352	5.17
463.556	5.2
463.761	5.22
463.966	5.27
464.17	5.26
464.375	5.24
464.58	5.28
464.784	5.27
464.989	5.21
465.193	5.24
465.398	5.23
465.602	5.25
465.807	5.25
466.011	5.28
466.216	5.24
466.42	5.32
466.625	5.35
466.829	5.37
467.034	5.43
467.238	5.49
467.443	5.55
467.647	5.64
467.851	5.63
468.056	5.62
468.26	5.56
468.464	5.54
468.669	5.56
468.873	5.54
469.077	5.51
469.282	5.52
469.486	5.59
469.69	5.63
469.894	5.72
