Data from Ofra_PS_T2_2A_0GT03_Reflection_3.txt Node
Date: Wed Jul 21 16:51:53 EDT 2021
User: Adam
Spectrometer: FLMT01687
Trigger mode: 0
Integration Time (sec): 1.100000E0
Scans to average: 2
Electric dark correction enabled: true
Nonlinearity correction enabled: false
Boxcar width: 2
XAxis mode: Wavelengths
Number of Pixels in Spectrum: 3648
>>>>>Begin Spectral Data<<<<<
179.494	357.4
179.716	411.29
179.937	369.91
180.158	343.94
180.38	580.47
180.601	302.62
180.823	77.94
181.044	26.42
181.265	228.49
181.486	70.44
181.708	74.54
181.929	664.8
182.15	-234.86
182.372	79.48
182.593	87.2
182.814	47.72
183.035	79
183.257	46.77
183.478	-19.52
183.699	4.37
183.92	-18.98
184.141	-1.78
184.363	-1.18
184.584	47.35
184.805	23.54
185.026	63.19
185.247	47.37
185.468	22.42
185.689	9.27
185.91	16.74
186.132	1.49
186.353	-6
186.574	15.47
186.795	36.06
187.016	18.34
187.237	14.7
187.458	-4.72
187.679	-19.02
187.9	-28.33
188.121	-36.58
188.342	-44.02
188.563	10.37
188.784	7.1
189.005	-25.9
189.226	16.73
189.447	1.64
189.667	-166.87
189.888	-225.49
190.109	-337.34
190.33	-239.19
190.551	-625.44
190.772	-173.31
190.993	-133.59
191.214	-151.69
191.434	-147.07
191.655	-70.52
191.876	-71.18
192.097	-106.25
192.318	-145.44
192.538	-163.27
192.759	-121.63
192.98	-64.16
193.201	-17.18
193.421	-1.32
193.642	16.97
193.863	22.17
194.083	-0.7
194.304	-13.91
194.525	-14.36
194.745	-35.62
194.966	-52.78
195.187	-45.68
195.407	-77.84
195.628	-123.01
195.848	-122.76
196.069	-144.71
196.29	-111.23
196.51	-109.65
196.731	-88.25
196.951	-101.07
197.172	-88.23
197.392	-84.62
197.613	-61.81
197.833	-79.43
198.054	-64.93
198.274	-25.04
198.495	-43.1
198.715	-17.77
198.936	-35.18
199.156	-33.79
199.377	-90.87
199.597	-91.49
199.817	-103.42
200.038	-44.37
200.258	-68.58
200.479	-32.81
200.699	-24.16
200.919	33.8
201.14	28.2
201.36	19.48
201.58	43.94
201.801	61.91
202.021	37.67
202.241	15.32
202.461	11.07
202.682	-61.63
202.902	-113.53
203.122	-73.61
203.342	-23.92
203.563	-11.52
203.783	-4.64
204.003	-41
204.223	-54.88
204.443	-20.75
204.663	-45.84
204.884	-19.29
205.104	-3.55
205.324	0.13
205.544	-1.14
205.764	31.6
205.984	32.39
206.204	36.3
206.424	43.56
206.644	18.58
206.864	23.88
207.084	1.08
207.304	26.75
207.525	-37.11
207.745	42.45
207.964	35.01
208.184	24.45
208.404	-16.22
208.624	-17.88
208.844	-20.27
209.064	-181.51
209.284	-258.48
209.504	-139.92
209.724	-40.82
209.944	-45.26
210.164	-8.06
210.384	4.69
210.604	4.62
210.823	-29.42
211.043	-36.89
211.263	-35.22
211.483	-22.34
211.703	-55.33
211.922	-52.96
212.142	-5.95
212.362	-1.68
212.582	-16.36
212.801	-17.94
213.021	-10.17
213.241	-10.83
213.461	-48.2
213.68	-46.65
213.9	-43.92
214.12	-43.37
214.339	-97.37
214.559	-82.23
214.779	-38.6
214.998	-14.27
215.218	-30.17
215.438	1.61
215.657	-3.21
215.877	-24.49
216.096	-20.19
216.316	-4.02
216.535	-33.65
216.755	-26.29
216.974	-76.45
217.194	-137.52
217.413	-163.76
217.633	-124.8
217.852	-204.75
218.072	-93.42
218.291	-31.07
218.511	0.92
218.73	-28.38
218.95	-15.68
219.169	-18.28
219.389	-56.17
219.608	-40.5
219.827	-32.01
220.047	-41.64
220.266	-43.44
220.485	-33.87
220.705	-33.19
220.924	-37.85
221.143	1.59
221.363	-13.29
221.582	-1.29
221.801	-2.21
222.021	27.66
222.24	-11.56
222.459	57.53
222.678	15.25
222.897	6.84
223.117	-33.52
223.336	-30.18
223.555	-32.15
223.774	16.54
223.993	-20.1
224.213	7.99
224.432	15.9
224.651	36.45
224.87	13.96
225.089	34.28
225.308	31.44
225.527	43.03
225.746	41.06
225.965	38.48
226.184	12.37
226.404	8.2
226.623	-14.46
226.842	-16.15
227.061	-0.53
227.28	16.46
227.499	21.58
227.718	28.69
227.936	24.4
228.155	40.76
228.374	32.87
228.593	33.59
228.812	22.11
229.031	8.86
229.25	-40.12
229.469	-48.72
229.688	-93.96
229.907	-41.26
230.125	-25.5
230.344	-15.09
230.563	-15.63
230.782	11.81
231.001	-58.69
231.22	-47.03
231.438	-22.81
231.657	-5.94
231.876	-25.95
232.095	15.96
232.313	23.16
232.532	18.62
232.751	-7
232.969	-9.41
233.188	-46.87
233.407	3.98
233.625	9.83
233.844	8.56
234.063	12.49
234.281	39.65
234.5	28.53
234.719	19.56
234.937	26.34
235.156	33.42
235.374	13.46
235.593	-10.37
235.811	-32.46
236.03	-36.77
236.249	-68
236.467	-48.91
236.686	-15.06
236.904	0.2
237.123	-14.01
237.341	-26.31
237.559	-15.84
237.778	-31.07
237.996	-52.55
238.215	-7.94
238.433	6.73
238.652	-11.61
238.87	-23.13
239.088	-17.15
239.307	-38.87
239.525	-59.3
239.743	-62.43
239.962	-59.89
240.18	-61.99
240.398	-83.15
240.617	-65.41
240.835	-31.1
241.053	-26.19
241.271	-2.29
241.49	25.54
241.708	5.73
241.926	-41.05
242.144	-22.19
242.363	-52.65
242.581	-83.4
242.799	-22.61
243.017	-10.95
243.235	-22.22
243.453	-9.43
243.672	1.3
243.89	-12.14
244.108	-19.38
244.326	-3.16
244.544	6.39
244.762	-2.29
244.98	8.21
245.198	26.04
245.416	17.63
245.634	-6.17
245.852	-21.26
246.07	-43.97
246.288	-78.85
246.506	-100.6
246.724	-81.16
246.942	-63.93
247.16	-25.98
247.378	5.65
247.596	22.6
247.814	28.53
248.032	20.02
248.25	24.89
248.468	15.54
248.685	25.37
248.903	37.38
249.121	30.29
249.339	11.69
249.557	-2.71
249.775	-5.09
249.992	-53.08
250.21	-33.01
250.428	-19.67
250.646	-24.57
250.863	-42.22
251.081	-8.96
251.299	-7.47
251.517	13.33
251.734	3.07
251.952	12.04
252.17	1.07
252.387	6.14
252.605	-12.94
252.823	-5.47
253.04	8.45
253.258	12.49
253.475	-2.58
253.693	28.65
253.911	27.62
254.128	25.46
254.346	16.93
254.563	21.19
254.781	-7.21
254.998	-4.06
255.216	-11.42
255.433	-0.38
255.651	11.58
255.868	0.12
256.086	0.33
256.303	13.67
256.521	4.99
256.738	-9.53
256.956	-25.41
257.173	-52.95
257.39	-81.65
257.608	-104.37
257.825	-57.45
258.043	0.58
258.26	29.8
258.477	46.54
258.695	42.99
258.912	17.16
259.129	5.1
259.346	-12.62
259.564	-42.62
259.781	-58.15
259.998	-13.83
260.216	-1.05
260.433	13.67
260.65	17.68
260.867	48.35
261.084	20.49
261.302	-5.95
261.519	-20.54
261.736	-22.7
261.953	-47.97
262.17	-18.97
262.387	-28.45
262.604	-46.19
262.822	-43.34
263.039	-38.59
263.256	-74.16
263.473	-26.16
263.69	-0.74
263.907	17.51
264.124	21.76
264.341	10.22
264.558	-17.91
264.775	-21.71
264.992	-29.2
265.209	-15.82
265.426	1.4
265.643	14.45
265.86	20.54
266.077	20.22
266.294	0.82
266.51	-13.44
266.727	-11.5
266.944	-20.87
267.161	-34.86
267.378	-53.19
267.595	-29.4
267.812	-61.22
268.028	-86.57
268.245	-64.81
268.462	-39.37
268.679	-39.9
268.896	6.64
269.112	14.08
269.329	-1.95
269.546	-1.02
269.763	-10.38
269.979	-26.68
270.196	-25.16
270.413	-46.01
270.629	-62.83
270.846	-57.33
271.063	-57.95
271.279	-58.96
271.496	-57
271.712	-21.77
271.929	-18.79
272.146	-21.72
272.362	-21.43
272.579	3.6
272.795	11.16
273.012	24.78
273.228	25.68
273.445	3.39
273.661	0.41
273.878	-28.92
274.094	-36.46
274.311	-53.09
274.527	-5.7
274.744	1.03
274.96	4.26
275.177	9.15
275.393	19.37
275.609	26.91
275.826	35.16
276.042	24.4
276.259	29.32
276.475	47.38
276.691	19.03
276.908	-1.34
277.124	9.81
277.34	-5.3
277.557	-36.71
277.773	-17.16
277.989	-15.62
278.205	-20.83
278.422	-7.55
278.638	-11.28
278.854	-4.38
279.07	-19.81
279.286	-20.24
279.503	-39.63
279.719	-33.57
279.935	-50.72
280.151	-40.27
280.367	-25.24
280.583	-47.08
280.799	-38.91
281.016	-60.98
281.232	-31.12
281.448	-31.38
281.664	3.85
281.88	-18.89
282.096	4.59
282.312	16.36
282.528	25.49
282.744	19.2
282.96	25.05
283.176	24.54
283.392	11.88
283.608	3.11
283.824	7.11
284.04	9.67
284.256	11
284.471	2.72
284.687	2.23
284.903	1.22
285.119	18.92
285.335	6.93
285.551	9.05
285.767	8.75
285.982	-0.93
286.198	-39.1
286.414	-6.99
286.63	-4.43
286.846	12.11
287.061	-6.99
287.277	22.97
287.493	-2.83
287.709	13.03
287.924	0.24
288.14	38.22
288.356	37.66
288.571	46.31
288.787	32.63
289.003	22.55
289.218	-0.97
289.434	-29.56
289.65	-27.61
289.865	-24.98
290.081	-6.55
290.296	-4.85
290.512	-4.99
290.727	-19.81
290.943	-23.78
291.159	-15.74
291.374	-16.17
291.59	-16.42
291.805	-8.89
292.021	0.07
292.236	-16.6
292.451	-8.34
292.667	0.34
292.882	6.6
293.098	-2.36
293.313	-18.94
293.529	-36.53
293.744	-36.79
293.959	-46.37
294.175	-41.72
294.39	-5.19
294.605	7.88
294.821	9.12
295.036	8.65
295.251	0.65
295.467	-11.93
295.682	-13.85
295.897	-12.05
296.112	-17.54
296.328	-3.66
296.543	-34.69
296.758	-50.06
296.973	-29.04
297.188	4.09
297.404	-15.61
297.619	-7.77
297.834	-17.44
298.049	-18.72
298.264	-27.42
298.479	6.98
298.694	11.68
298.909	30.28
299.125	16.02
299.34	21.92
299.555	-15.52
299.77	-20.63
299.985	-47.73
300.2	-83.57
300.415	-103.71
300.63	-69.91
300.845	-62.1
301.06	-68.64
301.275	-33.34
301.49	-16.41
301.704	-25.72
301.919	-36.83
302.134	-31.34
302.349	-38.42
302.564	-95.49
302.779	-113.54
302.994	-106.07
303.209	-80.76
303.423	-59.23
303.638	11.66
303.853	6.25
304.068	2.67
304.283	7.84
304.497	13.6
304.712	2.44
304.927	3.56
305.142	-5.72
305.356	2.23
305.571	-2.85
305.786	-12.89
306	-20.86
306.215	1.2
306.43	-16.78
306.644	-15.57
306.859	17.32
307.074	38.16
307.288	-18.64
307.503	-42.28
307.717	-32.77
307.932	-45.52
308.147	-56.35
308.361	-14.74
308.576	-2.08
308.79	-39.52
309.005	-31.73
309.219	-19.75
309.434	-37.14
309.648	-35.06
309.863	-3.55
310.077	12.05
310.292	19.91
310.506	13.21
310.72	14.44
310.935	12.75
311.149	7.63
311.364	3.65
311.578	13.83
311.792	8.56
312.007	6.74
312.221	-3.86
312.435	-4.79
312.649	-12.45
312.864	-12.55
313.078	-1.04
313.292	36.41
313.507	26.53
313.721	35.58
313.935	23.6
314.149	14.65
314.363	8.53
314.578	12.3
314.792	5.62
315.006	1.36
315.22	10.69
315.434	6.03
315.648	9.46
315.862	25
316.077	26.05
316.291	9.48
316.505	0.1
316.719	-18.39
316.933	-27.33
317.147	-46.4
317.361	-71.16
317.575	-81.45
317.789	-103.06
318.003	-167.23
318.217	-128.48
318.431	-43.26
318.645	-4.19
318.859	9.34
319.073	22.08
319.287	22.13
319.5	0.07
319.714	-29.27
319.928	-55.3
320.142	-70.05
320.356	-51.67
320.57	-14.19
320.784	-8.26
320.997	-7.01
321.211	-11.44
321.425	-26.4
321.639	-56.9
321.853	-21.85
322.066	-13.4
322.28	-12.89
322.494	-16.75
322.707	-9.12
322.921	-18.79
323.135	-22.27
323.349	-18.36
323.562	-15.82
323.776	-19.43
323.989	-19.74
324.203	-31.62
324.417	-35.64
324.63	-65.72
324.844	-63.16
325.057	-58.74
325.271	-33.66
325.485	3.64
325.698	34.62
325.912	39.82
326.125	26.35
326.339	23.37
326.552	-13.62
326.766	-33.73
326.979	-27.4
327.193	2.19
327.406	-9.45
327.619	-0.38
327.833	15.89
328.046	1.61
328.26	-25.56
328.473	-3.92
328.686	-6.38
328.9	-24.01
329.113	-11.32
329.326	-38.89
329.54	-27.84
329.753	-51.77
329.966	-58.2
330.179	-49.12
330.393	-11.23
330.606	-11.18
330.819	9
331.032	23.43
331.246	24.59
331.459	40.89
331.672	29.63
331.885	18.73
332.098	2.5
332.311	-9.62
332.525	-50.06
332.738	-30.53
332.951	-7.98
333.164	15.52
333.377	25.48
333.59	38.9
333.803	29.97
334.016	32.42
334.229	13.6
334.442	-1.08
334.655	14.63
334.868	14.26
335.081	13.97
335.294	4.8
335.507	1.06
335.72	-5.47
335.933	-6.93
336.146	-17.04
336.359	-10.12
336.572	-26.56
336.785	-56.86
336.997	-42.44
337.21	-27.77
337.423	-24.51
337.636	-17.86
337.849	-0.43
338.062	-18.61
338.274	-29.19
338.487	-29.58
338.7	-37.16
338.913	-60.35
339.125	-66.34
339.338	-107.52
339.551	-107.61
339.763	-63.54
339.976	-41.31
340.189	-30.28
340.402	-15.11
340.614	-13.23
340.827	-7.45
341.039	-18.01
341.252	1.95
341.465	8.53
341.677	5.94
341.89	-30.33
342.102	-4.97
342.315	-27.04
342.527	-49.7
342.74	-44.84
342.952	-18.99
343.165	-38.3
343.377	-25.37
343.59	-28.42
343.802	-22.18
344.015	-35.86
344.227	-33.84
344.44	-29.62
344.652	-16.66
344.864	-11.12
345.077	23.47
345.289	28.55
345.502	31.14
345.714	28.44
345.926	27.07
346.139	15.42
346.351	11.4
346.563	8.55
346.775	4.29
346.988	-10.6
347.2	-40.4
347.412	-63.58
347.624	-91.59
347.837	-90.51
348.049	-62.66
348.261	-23.7
348.473	-17.62
348.685	10.11
348.897	8.11
349.11	-15.52
349.322	-42.56
349.534	-43.97
349.746	-47.65
349.958	-47.5
350.17	-37.38
350.382	4.05
350.594	-1.66
350.806	1.13
351.018	1.78
351.23	-15.65
351.442	-55.77
351.654	-39.44
351.866	-45.64
352.078	-36.6
352.29	-11.18
352.502	0.89
352.714	4.28
352.926	-4.03
353.138	-7.78
353.35	-13.58
353.561	-8.14
353.773	-24.86
353.985	-10.46
354.197	-16.28
354.409	-16.03
354.621	-27.47
354.832	-13.5
355.044	-12.5
355.256	-14.85
355.468	-1.42
355.679	2.2
355.891	15.99
356.103	-6.24
356.314	15.35
356.526	14.03
356.738	12.72
356.949	-18.75
357.161	16.25
357.373	-4.61
357.584	-20.76
357.796	-18.87
358.008	-15.22
358.219	-18.6
358.431	-16.8
358.642	-5.83
358.854	-0.22
359.065	-14.34
359.277	-38.79
359.488	-28.76
359.7	-39.64
359.911	-50.61
360.123	-19.54
360.334	-31.98
360.546	-52.99
360.757	-52.21
360.969	-42.3
361.18	-50.69
361.391	-24.21
361.603	-28.49
361.814	-29.67
362.025	-25.16
362.237	-31.12
362.448	-15.66
362.659	1.5
362.871	0.47
363.082	-7.35
363.293	-13.22
363.504	-30.1
363.716	-47.81
363.927	-44.1
364.138	-54.4
364.349	-44.25
364.56	-29.95
364.772	-25.51
364.983	-7.32
365.194	-4.51
365.405	-0.18
365.616	2.41
365.827	12.58
366.038	-12.77
366.25	-17.67
366.461	-37.7
366.672	-14.44
366.883	-6.53
367.094	1.09
367.305	4.53
367.516	9.77
367.727	-5.14
367.938	-17.4
368.149	-16.59
368.36	-12.04
368.571	-7.87
368.781	-23.22
368.992	-31.93
369.203	-49.2
369.414	-66.52
369.625	-83.67
369.836	-74.58
370.047	-99.42
370.258	-82.76
370.468	-73.19
370.679	-74.24
370.89	-66.78
371.101	-40.07
371.312	-35.46
371.522	-30.59
371.733	-5.84
371.944	2.47
372.155	9.13
372.365	9.89
372.576	12.28
372.787	6.13
372.997	-4.27
373.208	-14.29
373.419	-0.36
373.629	-33.44
373.84	-49.16
374.05	-55.89
374.261	-48.61
374.472	-63.4
374.682	-16.35
374.893	-8.49
375.103	15.31
375.314	7.68
375.524	-1.56
375.735	-1.46
375.945	7.47
376.156	-7.81
376.366	-0.98
376.577	5.87
376.787	2.95
376.997	0.93
377.208	-5.38
377.418	-16.43
377.629	-6.81
377.839	-5.08
378.049	-7.57
378.26	6.2
378.47	17.47
378.68	8.4
378.89	1.86
379.101	-3.95
379.311	-25.38
379.521	-51.97
379.732	-49.17
379.942	-48.35
380.152	-51.24
380.362	-22.9
380.572	-16.96
380.783	-12.09
380.993	0.38
381.203	11.05
381.413	12.2
381.623	14.93
381.833	22.09
382.043	11.32
382.253	4.74
382.463	8.44
382.674	1.35
382.884	-21.81
383.094	-9.83
383.304	-2.17
383.514	-3.42
383.724	2.86
383.934	3.4
384.144	-10.32
384.353	-20.62
384.563	-22.83
384.773	-17.87
384.983	-17.56
385.193	-2.99
385.403	-0.2
385.613	2.99
385.823	-1.15
386.033	4.38
386.242	-1.31
386.452	-0.4
386.662	-5.43
386.872	8.97
387.082	6.54
387.291	0.7
387.501	-10.6
387.711	-6.77
387.921	-16.32
388.13	-12.62
388.34	-5.58
388.55	-3.14
388.759	-4.39
388.969	-3.22
389.179	-3.99
389.388	-1.55
389.598	5.23
389.807	0.55
390.017	-2.34
390.227	-1.81
390.436	-3.9
390.646	-3.34
390.855	2.09
391.065	1.8
391.274	2.71
391.484	0.22
391.693	0.7
391.903	-1
392.112	3.91
392.322	2.53
392.531	5.98
392.74	4.13
392.95	2.23
393.159	0.16
393.369	0.12
393.578	0.64
393.787	0.51
393.997	1.63
394.206	0.47
394.415	1.76
394.625	1.77
394.834	1.62
395.043	2.53
395.252	4.06
395.462	5.09
395.671	4.79
395.88	5.57
396.089	5.99
396.298	4.69
396.508	2.96
396.717	2.84
396.926	2.95
397.135	2.1
397.344	2.41
397.553	3.6
397.762	4.11
397.971	3.91
398.181	4.15
398.39	3.94
398.599	3.29
398.808	3.5
399.017	4.32
399.226	5.22
399.435	6.37
399.644	6.78
399.853	5.98
400.062	5.46
400.27	4.96
400.479	4.35
400.688	3.98
400.897	4.13
401.106	4.31
401.315	4.42
401.524	4.75
401.733	5.01
401.941	5.29
402.15	5.18
402.359	5.06
402.568	5.11
402.777	5.28
402.985	5.33
403.194	5.34
403.403	5.44
403.612	5.01
403.82	4.73
404.029	4.7
404.238	4.74
404.446	4.92
404.655	4.79
404.864	4.79
405.072	4.71
405.281	4.6
405.489	4.35
405.698	4.44
405.906	4.5
406.115	4.33
406.324	4.39
406.532	4.37
406.741	4.64
406.949	4.68
407.158	4.83
407.366	4.84
407.574	4.83
407.783	4.77
407.991	4.6
408.2	4.56
408.408	4.51
408.617	4.52
408.825	4.37
409.033	4.5
409.242	4.61
409.45	4.74
409.658	4.67
409.867	4.67
410.075	4.52
410.283	4.34
410.491	4.22
410.7	4.18
410.908	4.17
411.116	4.47
411.324	4.51
411.533	4.34
411.741	4.4
411.949	4.4
412.157	4.11
412.365	4.17
412.573	4.29
412.781	4.36
412.99	4.31
413.198	4.47
413.406	4.42
413.614	4.4
413.822	4.36
414.03	4.4
414.238	4.17
414.446	4.16
414.654	4.11
414.862	4.05
415.07	4
415.278	4.26
415.486	4.16
415.694	4.26
415.902	4.15
416.109	4.13
416.317	3.86
416.525	3.77
416.733	3.72
416.941	3.81
417.149	3.85
417.357	4.03
417.564	4.13
417.772	4.18
417.98	4.04
418.188	4
418.395	3.92
418.603	3.99
418.811	3.69
419.019	3.87
419.226	3.92
419.434	4.08
419.642	3.91
419.849	4.19
420.057	4.01
420.265	4.11
420.472	3.8
420.68	3.87
420.887	3.85
421.095	4.03
421.302	4
421.51	4.17
421.717	4.35
421.925	4.27
422.132	4.12
422.34	3.76
422.547	3.78
422.755	3.51
422.962	3.43
423.17	3.41
423.377	3.51
423.585	3.63
423.792	3.56
423.999	3.6
424.207	3.57
424.414	3.76
424.621	3.53
424.829	3.59
425.036	3.57
425.243	3.74
425.451	3.54
425.658	3.55
425.865	3.61
426.072	3.62
426.28	3.71
426.487	3.98
426.694	3.86
426.901	3.76
427.108	3.79
427.315	3.7
427.523	3.73
427.73	3.85
427.937	4.09
428.144	3.99
428.351	3.86
428.558	3.74
428.765	3.64
428.972	3.47
429.179	3.49
429.386	3.75
429.593	3.66
429.8	3.69
430.007	3.87
430.214	3.96
430.421	3.85
430.628	3.79
430.835	3.68
431.042	3.69
431.249	3.78
431.456	3.76
431.662	3.94
431.869	4.17
432.076	4.09
432.283	4.17
432.49	4.14
432.697	4.2
432.903	4.06
433.11	4.16
433.317	4.19
433.524	4.37
433.73	4.21
433.937	4.34
434.144	4.26
434.35	4.17
434.557	3.98
434.764	4.22
434.97	4.24
435.177	4.47
435.384	4.46
435.59	4.52
435.797	4.6
436.003	4.55
436.21	4.44
436.416	4.42
436.623	4.48
436.829	4.47
437.036	4.58
437.242	4.57
437.449	4.69
437.655	4.82
437.862	4.77
438.068	4.72
438.275	4.8
438.481	4.93
438.687	4.79
438.894	4.76
439.1	4.83
439.307	4.95
439.513	4.78
439.719	4.8
439.926	4.97
440.132	4.89
440.338	4.8
440.544	4.91
440.751	5
440.957	5.05
441.163	5.11
441.369	5.16
441.575	5.13
441.782	5.14
441.988	5.03
442.194	5.07
442.4	5
442.606	5.2
442.812	5.25
443.018	5.16
443.224	5.17
443.431	5.24
443.637	5.09
443.843	5.07
444.049	5.24
444.255	5.24
444.461	5.33
444.667	5.36
444.873	5.36
445.079	5.25
445.284	5.34
445.49	5.18
445.696	5.1
445.902	5.06
446.108	5.2
446.314	5.17
446.52	5.21
446.726	5.4
446.931	5.47
447.137	5.42
447.343	5.38
447.549	5.36
447.755	5.18
447.96	5.21
448.166	5.21
448.372	5.15
448.578	5.18
448.783	5.2
448.989	5.19
449.195	5.29
449.4	5.37
449.606	5.41
449.812	5.44
450.017	5.47
450.223	5.45
450.428	5.42
450.634	5.47
450.84	5.58
451.045	5.58
451.251	5.51
451.456	5.73
451.662	5.76
451.867	5.82
452.073	5.8
452.278	5.93
452.483	5.97
452.689	5.92
452.894	5.85
453.1	5.83
453.305	5.81
453.51	5.66
453.716	5.64
453.921	5.71
454.127	5.73
454.332	5.62
454.537	5.67
454.742	5.65
454.948	5.57
455.153	5.6
455.358	5.68
455.563	5.73
455.769	5.85
455.974	5.86
456.179	5.83
456.384	5.77
456.589	5.73
456.795	5.62
457	5.68
457.205	5.79
457.41	5.89
457.615	5.86
457.82	5.99
458.025	5.95
458.23	5.92
458.435	5.87
458.64	5.87
458.845	5.99
459.05	6.04
459.255	6.09
459.46	6.1
459.665	6.11
459.87	5.97
460.075	5.94
460.28	5.97
460.485	6.05
460.69	6.09
460.895	6.1
461.099	6.13
461.304	6.1
461.509	6.04
461.714	5.97
461.919	6.09
462.123	6.03
462.328	6.05
