Data from Ofra_PS_T2_1A_2GT38_Reflection_3.txt Node
Date: Wed Jul 21 17:56:28 EDT 2021
User: Adam
Spectrometer: FLMT01687
Trigger mode: 0
Integration Time (sec): 1.100000E0
Scans to average: 2
Electric dark correction enabled: true
Nonlinearity correction enabled: false
Boxcar width: 2
XAxis mode: Wavelengths
Number of Pixels in Spectrum: 3648
>>>>>Begin Spectral Data<<<<<
179.494	730.2
179.716	780
179.937	731.4
180.158	744.94
180.38	1151.72
180.601	426.38
180.823	127.56
181.044	-38.03
181.265	-56.8
181.486	59.72
181.708	110.33
181.929	962.76
182.15	-216.55
182.372	106.17
182.593	91.72
182.814	97.98
183.035	137.09
183.257	80.01
183.478	40.69
183.699	99.52
183.92	14.7
184.141	7.66
184.363	-39.9
184.584	-0.48
184.805	14.4
185.026	51.76
185.247	68.43
185.468	49.67
185.689	60.55
185.91	55.57
186.132	66.66
186.353	66.38
186.574	120.12
186.795	72.87
187.016	19.42
187.237	-19.42
187.458	-79.07
187.679	-86.01
187.9	-45.18
188.121	-33.71
188.342	10.03
188.563	45.4
188.784	68.97
189.005	81.42
189.226	144.17
189.447	124.48
189.667	113.23
189.888	-81.65
190.109	-819.16
190.33	-592.74
190.551	-1174.12
190.772	-220.28
190.993	-146.96
191.214	-115.45
191.434	-79.69
191.655	-7.82
191.876	-72.6
192.097	-169.54
192.318	-230.69
192.538	-335.41
192.759	-218.26
192.98	-117.75
193.201	-37.5
193.421	-15.24
193.642	13.45
193.863	24.24
194.083	0.93
194.304	-10.54
194.525	-19.98
194.745	-56.64
194.966	-86.95
195.187	-68.9
195.407	-111.82
195.628	-142.8
195.848	-156.26
196.069	-136.04
196.29	-83.75
196.51	-83.84
196.731	-74.32
196.951	-98.75
197.172	-136.89
197.392	-174.03
197.613	-182.59
197.833	-223.07
198.054	-168.19
198.274	-113.07
198.495	-125.04
198.715	-74.26
198.936	-81.69
199.156	-45.97
199.377	-122.98
199.597	-128.37
199.817	-154.75
200.038	-56.54
200.258	-137.98
200.479	-49.16
200.699	-22.39
200.919	50.93
201.14	-14.98
201.36	-35.99
201.58	10.91
201.801	48.96
202.021	6.98
202.241	5.56
202.461	11.91
202.682	-81.75
202.902	-171.24
203.122	-89.83
203.342	-64.7
203.563	4.92
203.783	23.99
204.003	0.83
204.223	-13.83
204.443	37.7
204.663	-16.71
204.884	12.41
205.104	36.58
205.324	71.61
205.544	48.39
205.764	60.74
205.984	36.68
206.204	42.34
206.424	24.77
206.644	-24.42
206.864	-14.85
207.084	-34.83
207.304	-17.15
207.525	-114.61
207.745	-18.15
207.964	-1.21
208.184	-50.6
208.404	-117.1
208.624	-117.03
208.844	-133.66
209.064	-452.94
209.284	-450.19
209.504	-226.97
209.724	-70.61
209.944	-53.34
210.164	-20.55
210.384	-8.69
210.604	0.59
210.823	-34.56
211.043	-25.65
211.263	-21.93
211.483	-18.01
211.703	-82.7
211.922	-66.89
212.142	-8.9
212.362	-6.41
212.582	-22.61
212.801	-7.76
213.021	-23.79
213.241	-42.77
213.461	-70.77
213.68	-75.93
213.9	-39.18
214.12	-21.68
214.339	-81.94
214.559	-71.88
214.779	-14.73
214.998	-29.45
215.218	-65.72
215.438	-49.23
215.657	-58.29
215.877	-68.57
216.096	-28.05
216.316	-39.61
216.535	-29.59
216.755	-17.57
216.974	-103.3
217.194	-120.51
217.413	-91.72
217.633	-104.72
217.852	-188.44
218.072	-81.7
218.291	-52.6
218.511	-8.34
218.73	-40
218.95	-28.83
219.169	-43.44
219.389	-94
219.608	-83.28
219.827	-69.83
220.047	-61.02
220.266	-22.39
220.485	-9.52
220.705	-0.27
220.924	-10.89
221.143	21.7
221.363	-2.38
221.582	5.91
221.801	17.71
222.021	37.34
222.24	-40.75
222.459	-9.94
222.678	-4.54
222.897	-85.56
223.117	-177.47
223.336	-110.25
223.555	-95.19
223.774	-65.29
223.993	-49.77
224.213	44.41
224.432	39.05
224.651	77.7
224.87	36.86
225.089	53.08
225.308	35.35
225.527	35.2
225.746	16.94
225.965	18.68
226.184	-6.93
226.404	8.42
226.623	-18.8
226.842	-4.44
227.061	15.92
227.28	19.98
227.499	2.73
227.718	30.95
227.936	10.14
228.155	21.09
228.374	6.94
228.593	14.01
228.812	-3.11
229.031	-1.31
229.25	-62.18
229.469	-52.41
229.688	-45.77
229.907	-4.86
230.125	14.47
230.344	35.83
230.563	28.65
230.782	36.24
231.001	-50.24
231.22	-51.61
231.438	-40.09
231.657	-20.17
231.876	-40.73
232.095	26.66
232.313	29.65
232.532	40.3
232.751	-0.39
232.969	-11.99
233.188	-103.8
233.407	-19.27
233.625	-16.36
233.844	-26.74
234.063	-14.59
234.281	0.51
234.5	-22.85
234.719	-25.96
234.937	10.33
235.156	3.38
235.374	-1.1
235.593	-6.2
235.811	-20.8
236.03	-38.19
236.249	-64.99
236.467	-51.72
236.686	-22.91
236.904	-0.74
237.123	-38.2
237.341	-23.91
237.559	-19
237.778	-40.14
237.996	-83.01
238.215	-27.74
238.433	-9.95
238.652	-8.62
238.87	-19.75
239.088	2.49
239.307	9.83
239.525	-6.3
239.743	-26.1
239.962	-12.48
240.18	-47.79
240.398	-112.94
240.617	-134.97
240.835	-125.27
241.053	-77.29
241.271	-35.95
241.49	14.09
241.708	53.08
241.926	27.63
242.144	-25.4
242.363	-50.55
242.581	-80.87
242.799	-39.56
243.017	3.96
243.235	-4
243.453	4.52
243.672	13.14
243.89	4.23
244.108	-9.85
244.326	18.84
244.544	28.26
244.762	10.51
244.98	2.51
245.198	2.85
245.416	-33.34
245.634	-25.49
245.852	-44.22
246.07	-54
246.288	-13.85
246.506	-26.36
246.724	-14.74
246.942	11.25
247.16	34.41
247.378	29.52
247.596	52.69
247.814	31.02
248.032	14.05
248.25	22.26
248.468	16.46
248.685	31.49
248.903	40.37
249.121	49.26
249.339	12.1
249.557	3.14
249.775	-7.26
249.992	-54.09
250.21	-57.82
250.428	-46.5
250.646	-80.8
250.863	-102.45
251.081	-81.83
251.299	-88.65
251.517	-87.79
251.734	-57.31
251.952	-51.9
252.17	-32.73
252.387	-9.08
252.605	-16.73
252.823	-3.68
253.04	15.09
253.258	34.75
253.475	12.18
253.693	50.19
253.911	35.5
254.128	30.86
254.346	20.47
254.563	10.6
254.781	-23.19
254.998	-32.36
255.216	-27.84
255.433	-17.61
255.651	17.82
255.868	45.24
256.086	54.59
256.303	22.72
256.521	5.59
256.738	-11.33
256.956	-48.19
257.173	-98.35
257.39	-106.6
257.608	-131.44
257.825	-64.65
258.043	-20.46
258.26	10.88
258.477	66.54
258.695	77
258.912	27.15
259.129	26.49
259.346	-7
259.564	-60.11
259.781	-92.38
259.998	-28.11
260.216	-3.27
260.433	27.71
260.65	33.43
260.867	48.41
261.084	16.94
261.302	-4.53
261.519	4.44
261.736	-35.85
261.953	-56.95
262.17	-17.82
262.387	-58.25
262.604	-94.2
262.822	-75.21
263.039	-64.04
263.256	-112.46
263.473	-56.27
263.69	-35.13
263.907	5.67
264.124	34.61
264.341	31.82
264.558	14.73
264.775	36.8
264.992	17.64
265.209	14.15
265.426	46.72
265.643	52.54
265.86	50.91
266.077	55.76
266.294	33.94
266.51	-25.09
266.727	-62.43
266.944	-63.44
267.161	-54.22
267.378	-39.44
267.595	-7.47
267.812	-7.85
268.028	-22.41
268.245	8.21
268.462	-30.26
268.679	-33.2
268.896	13.61
269.112	13.17
269.329	-10.09
269.546	-3.91
269.763	-15.16
269.979	-33.97
270.196	-44.19
270.413	-65.25
270.629	-84.71
270.846	-93.56
271.063	-77.15
271.279	-71.96
271.496	-60.14
271.712	-14.55
271.929	14.41
272.146	-22.16
272.362	5.93
272.579	22.9
272.795	32.25
273.012	22.91
273.228	30.51
273.445	-8.07
273.661	-39.06
273.878	-89.1
274.094	-72.95
274.311	-68.89
274.527	-1.59
274.744	-6.52
274.96	4.13
275.177	3.1
275.393	5.78
275.609	-2.28
275.826	30.45
276.042	21.37
276.259	34.88
276.475	40.88
276.691	35.49
276.908	12
277.124	24.02
277.34	17.53
277.557	-10.53
277.773	-21.06
277.989	-32.44
278.205	-41.84
278.422	-31.84
278.638	-14.58
278.854	11.95
279.07	28.82
279.286	14.47
279.503	-19.16
279.719	-12.11
279.935	-64.85
280.151	-77.63
280.367	-23.5
280.583	-41.52
280.799	-44.97
281.016	-40.98
281.232	-7.48
281.448	-20.46
281.664	21.96
281.88	-17.84
282.096	-1.69
282.312	8.3
282.528	33.96
282.744	19.28
282.96	36.56
283.176	12.86
283.392	2.95
283.608	-20.25
283.824	-16.09
284.04	-5.65
284.256	11.92
284.471	-4.36
284.687	1.39
284.903	15.11
285.119	36.24
285.335	8.22
285.551	20.14
285.767	-4.59
285.982	-25.17
286.198	-77.98
286.414	-12.99
286.63	-6.2
286.846	32.78
287.061	23.18
287.277	57.57
287.493	25.37
287.709	51.53
287.924	24.01
288.14	54.49
288.356	49.01
288.571	75.65
288.787	39.87
289.003	44.51
289.218	15.5
289.434	-34.01
289.65	-49.62
289.865	-41.42
290.081	-23.42
290.296	-5.85
290.512	18.83
290.727	-4.73
290.943	-19.92
291.159	-39.04
291.374	-44.37
291.59	-64.74
291.805	-46.81
292.021	-35.7
292.236	-33.91
292.451	-11.4
292.667	2.37
292.882	16.53
293.098	13.28
293.313	-3.54
293.529	-40.18
293.744	-60.2
293.959	-76.7
294.175	-59.27
294.39	-15.38
294.605	8.63
294.821	33.24
295.036	43.21
295.251	44.71
295.467	10.18
295.682	-11.37
295.897	-69.55
296.112	-96.38
296.328	-85.56
296.543	-96.56
296.758	-94.98
296.973	-31.91
297.188	14.02
297.404	-19.05
297.619	-20.45
297.834	-15.04
298.049	-31.6
298.264	-49.35
298.479	8.09
298.694	21.28
298.909	33.18
299.125	31.03
299.34	42.1
299.555	9.94
299.77	17.95
299.985	-29.83
300.2	-85.88
300.415	-102.47
300.63	-67.58
300.845	-83.2
301.06	-79.28
301.275	-28.97
301.49	-10.97
301.704	-25.82
301.919	-45.18
302.134	-58.99
302.349	-69.23
302.564	-164.49
302.779	-201.07
302.994	-176.92
303.209	-109.45
303.423	-69.13
303.638	19.87
303.853	-13.93
304.068	-30.99
304.283	-25.34
304.497	-33.97
304.712	-43.46
304.927	-22.75
305.142	-8.29
305.356	1.05
305.571	0.61
305.786	-14.67
306	-36.7
306.215	-49.98
306.43	-78.57
306.644	-60.78
306.859	-7.45
307.074	0.93
307.288	-28.93
307.503	-40.15
307.717	-54.92
307.932	-73.85
308.147	-69.61
308.361	-34.36
308.576	-18.37
308.79	-56.76
309.005	-53.05
309.219	-32.29
309.434	-48.88
309.648	-62.58
309.863	-18.92
310.077	-24.35
310.292	-34.84
310.506	-27.52
310.72	-9.87
310.935	-7.75
311.149	11.61
311.364	33.89
311.578	45.74
311.792	47.86
312.007	54.14
312.221	29.48
312.435	17.15
312.649	-3.57
312.864	13.68
313.078	10.79
313.292	81.87
313.507	80.39
313.721	120.39
313.935	52.22
314.149	41.17
314.363	21.6
314.578	22.7
314.792	20.95
315.006	9.75
315.22	19.25
315.434	17.59
315.648	20.6
315.862	22
316.077	23.25
316.291	-10.87
316.505	-6.6
316.719	-43.31
316.933	-66.34
317.147	-64.53
317.361	-75
317.575	-94.46
317.789	-121.47
318.003	-175.51
318.217	-123.4
318.431	-42.16
318.645	10.62
318.859	10.79
319.073	36.13
319.287	10.85
319.5	-9.88
319.714	-47.62
319.928	-66.62
320.142	-81.99
320.356	-14.75
320.57	3.31
320.784	-29.3
320.997	-14.39
321.211	-12.85
321.425	-84.2
321.639	-95.95
321.853	-40.37
322.066	-28.73
322.28	-39.08
322.494	-20.13
322.707	-0.04
322.921	-11.74
323.135	-14.98
323.349	20.53
323.562	-4.16
323.776	-27.91
323.989	-15.89
324.203	-30.56
324.417	-71.3
324.63	-73.38
324.844	-88.51
325.057	-90.7
325.271	-50.47
325.485	-3.91
325.698	13.54
325.912	40.72
326.125	14.62
326.339	9.65
326.552	-30.63
326.766	-28.97
326.979	-12.05
327.193	30.83
327.406	13.98
327.619	6.37
327.833	20.15
328.046	-11.16
328.26	-55.34
328.473	-34.67
328.686	-60.87
328.9	-70.71
329.113	-53.09
329.326	-71.59
329.54	-58.91
329.753	-51.44
329.966	-90.59
330.179	-95.26
330.393	-45.69
330.606	-47.3
330.819	-23.97
331.032	0.33
331.246	15.6
331.459	37.94
331.672	31.47
331.885	15.23
332.098	-14.03
332.311	-38.67
332.525	-103.8
332.738	-79.56
332.951	-42.79
333.164	3.99
333.377	14.09
333.59	27.07
333.803	21.95
334.016	11.15
334.229	-6.05
334.442	7.92
334.655	24.96
334.868	29.54
335.081	21.64
335.294	13.03
335.507	-5.33
335.72	-12.57
335.933	-24.8
336.146	-22.5
336.359	-11.06
336.572	-29.34
336.785	-61.18
336.997	-52.85
337.21	-36.06
337.423	-51.47
337.636	-46.47
337.849	-26.6
338.062	-37.81
338.274	-25.8
338.487	-28.39
338.7	-31.66
338.913	-64.31
339.125	-79.64
339.338	-147.17
339.551	-122.5
339.763	-78.61
339.976	-50.41
340.189	-22.82
340.402	-2.52
340.614	-15.94
340.827	-31.05
341.039	-38.49
341.252	-27.4
341.465	-15.25
341.677	-8.15
341.89	-40.12
342.102	-19.85
342.315	-58.03
342.527	-105.8
342.74	-100.53
342.952	-60.57
343.165	-62.75
343.377	-20.82
343.59	-16.33
343.802	11.63
344.015	19.71
344.227	26.79
344.44	17.24
344.652	15.63
344.864	2.72
345.077	20.34
345.289	24.43
345.502	34.86
345.714	37.6
345.926	46.19
346.139	36.99
346.351	40.92
346.563	31.88
346.775	41.01
346.988	18.78
347.2	13.87
347.412	-41.3
347.624	-59.6
347.837	-82.55
348.049	-63.05
348.261	-39.01
348.473	-16.26
348.685	-22.03
348.897	-39.33
349.11	-57.95
349.322	-77.54
349.534	-37.7
349.746	-22.17
349.958	-9.84
350.17	-0.06
350.382	10.86
350.594	-18.95
350.806	-25.72
351.018	-2.95
351.23	-17.4
351.442	-74.15
351.654	-50.92
351.866	-39.24
352.078	-33.42
352.29	-0.05
352.502	15.83
352.714	28.02
352.926	16.57
353.138	6.43
353.35	-7.33
353.561	-7.96
353.773	-31.84
353.985	-14.32
354.197	-29.44
354.409	-36.7
354.621	-40.26
354.832	-34.65
355.044	-50.12
355.256	-35.64
355.468	-16.36
355.679	-27.98
355.891	-8.43
356.103	-8.86
356.314	-11.09
356.526	-3.31
356.738	12.24
356.949	-26.43
357.161	-8.4
357.373	-13.57
357.584	-26.19
357.796	-11.92
358.008	-13.05
358.219	-6.39
358.431	-4.21
358.642	-4.69
358.854	-16.24
359.065	-26.16
359.277	-58.85
359.488	-68.09
359.7	-95.15
359.911	-86.35
360.123	-47.81
360.334	-52.52
360.546	-70.75
360.757	-53.46
360.969	-52.83
361.18	-56.78
361.391	-33.4
361.603	-28.07
361.814	-15.47
362.025	-17.38
362.237	-20.84
362.448	-16.12
362.659	1.26
362.871	-8.95
363.082	-17.14
363.293	-9.22
363.504	-27.73
363.716	-40.16
363.927	-38.01
364.138	-53.44
364.349	-79.51
364.56	-60.71
364.772	-58.67
364.983	-36.15
365.194	-29.14
365.405	-4.74
365.616	19.25
365.827	21.02
366.038	-4.42
366.25	3.86
366.461	-27.42
366.672	-22.41
366.883	4.91
367.094	9.17
367.305	-10.55
367.516	-1.19
367.727	-28.64
367.938	-51.99
368.149	-41.74
368.36	-3.33
368.571	-1.07
368.781	-12.59
368.992	-17.94
369.203	-40.03
369.414	-78.37
369.625	-99.93
369.836	-76.97
370.047	-100.86
370.258	-80.55
370.468	-77.16
370.679	-83.66
370.89	-75.1
371.101	-48.08
371.312	-48.43
371.522	-31.78
371.733	-13.74
371.944	-11.69
372.155	1.3
372.365	-2.23
372.576	-9.1
372.787	-15.7
372.997	-44.88
373.208	-55.43
373.419	-28.5
373.629	-71.13
373.84	-70.27
374.05	-60.75
374.261	-47.03
374.472	-64.03
374.682	5.48
374.893	6.63
375.103	29.46
375.314	24.65
375.524	24.08
375.735	17.46
375.945	22.36
376.156	-2.05
376.366	0.09
376.577	-9.39
376.787	-16.41
376.997	-12.11
377.208	-9.62
377.418	-26.84
377.629	-3.58
377.839	-7.25
378.049	-7.12
378.26	11.92
378.47	20.49
378.68	8.7
378.89	1.51
379.101	-8.38
379.311	-49.44
379.521	-77.29
379.732	-85.89
379.942	-73.35
380.152	-93.04
380.362	-44.69
380.572	-42.04
380.783	-21.78
380.993	-13.86
381.203	3.29
381.413	10.36
381.623	18.44
381.833	14.12
382.043	-0.76
382.253	-10.14
382.463	-17.94
382.674	-30.46
382.884	-52.68
383.094	-41.5
383.304	-34.83
383.514	-28.24
383.724	-16.31
383.934	-14.45
384.144	-22.31
384.353	-26.51
384.563	-31.9
384.773	-25.96
384.983	-28.85
385.193	-9.84
385.403	-2.32
385.613	-3.97
385.823	-15.26
386.033	-7.05
386.242	-16.36
386.452	-17.79
386.662	-23.95
386.872	-10.8
387.082	-18.39
387.291	-25.51
387.501	-25.39
387.711	-13.54
387.921	-16.16
388.13	-14.3
388.34	-1.11
388.55	-8.49
388.759	-12.42
388.969	-6.59
389.179	-7.19
389.388	-14.03
389.598	-7.71
389.807	-9.89
390.017	-13.68
390.227	-10.12
390.436	-7.34
390.646	-6.1
390.855	-3.46
391.065	-2.52
391.274	-5.93
391.484	-7.51
391.693	-3.89
391.903	-4.33
392.112	0.11
392.322	5
392.531	7.83
392.74	6.1
392.95	5.36
393.159	2.17
393.369	1.48
393.578	1.22
393.787	-1.02
393.997	-0
394.206	-1.38
394.415	-2.53
394.625	-3.04
394.834	-3.33
395.043	-2.86
395.252	0.14
395.462	2.02
395.671	3.3
395.88	4.61
396.089	5.73
396.298	4.12
396.508	2.53
396.717	1.87
396.926	1.3
397.135	0.5
397.344	0.09
397.553	1.98
397.762	3.43
397.971	3.87
398.181	3.62
398.39	3.17
398.599	2.65
398.808	2.18
399.017	3.17
399.226	4.61
399.435	6
399.644	5.99
399.853	4.93
400.062	4.22
400.27	3.56
400.479	2.93
400.688	2.29
400.897	2.66
401.106	3.15
401.315	2.8
401.524	3.25
401.733	4.06
401.941	4.73
402.15	4.55
402.359	4.41
402.568	4.6
402.777	4.59
402.985	4.12
403.194	3.9
403.403	4.31
403.612	3.78
403.82	3.5
404.029	3.72
404.238	3.52
404.446	3.66
404.655	3.59
404.864	3.43
405.072	3.2
405.281	3.42
405.489	2.98
405.698	2.88
405.906	2.99
406.115	3.07
406.324	2.98
406.532	3.2
406.741	3.71
406.949	3.69
407.158	3.55
407.366	3.76
407.574	3.69
407.783	3.47
407.991	3.34
408.2	3.71
408.408	3.62
408.617	3.59
408.825	3.4
409.033	3.62
409.242	3.48
409.45	3.44
409.658	3.37
409.867	3.45
410.075	3.17
410.283	3.03
410.491	2.97
410.7	2.95
410.908	2.97
411.116	3.34
411.324	3.28
411.533	3.24
411.741	3.41
411.949	3.43
412.157	3.21
412.365	3.37
412.573	3.49
412.781	3.51
412.99	3.43
413.198	3.41
413.406	3.31
413.614	3.12
413.822	2.91
414.03	2.82
414.238	2.71
414.446	2.74
414.654	2.65
414.862	2.81
415.07	2.9
415.278	3.19
415.486	3.01
415.694	3.17
415.902	3
416.109	2.96
416.317	2.82
416.525	2.68
416.733	2.67
416.941	2.95
417.149	2.94
417.357	2.93
417.564	3.19
417.772	3.34
417.98	3.14
418.188	3.13
418.395	3.11
418.603	3.19
418.811	2.85
419.019	2.65
419.226	2.96
419.434	3.11
419.642	2.9
419.849	3.13
420.057	3.32
420.265	3.06
420.472	2.84
420.68	2.81
420.887	2.64
421.095	2.68
421.302	2.62
421.51	2.77
421.717	2.96
421.925	3.09
422.132	2.99
422.34	2.81
422.547	2.77
422.755	2.53
422.962	2.37
423.17	2.32
423.377	2.4
423.585	2.47
423.792	2.55
423.999	2.58
424.207	2.51
424.414	2.92
424.621	2.74
424.829	2.74
425.036	2.83
425.243	3.04
425.451	2.57
425.658	2.4
425.865	2.54
426.072	2.51
426.28	2.68
426.487	2.8
426.694	2.93
426.901	2.69
427.108	2.7
427.315	2.42
427.523	2.67
427.73	2.87
427.937	2.96
428.144	2.73
428.351	2.83
428.558	2.82
428.765	2.64
428.972	2.54
429.179	2.81
429.386	3.01
429.593	2.78
429.8	2.73
430.007	2.82
430.214	2.9
430.421	2.67
430.628	2.63
430.835	2.53
431.042	2.77
431.249	2.7
431.456	2.67
431.662	2.85
431.869	2.99
432.076	2.97
432.283	3.06
432.49	3.07
432.697	3
432.903	2.83
433.11	2.68
433.317	2.78
433.524	2.94
433.73	2.86
433.937	3.26
434.144	3.16
434.35	3.01
434.557	2.91
434.764	2.91
434.97	2.76
435.177	3.01
435.384	2.96
435.59	3
435.797	3.19
436.003	3.25
436.21	3.15
436.416	3.21
436.623	3.19
436.829	3.29
437.036	3.35
437.242	3.42
437.449	3.25
437.655	3.28
437.862	3.15
438.068	3.01
438.275	3.05
438.481	3.39
438.687	3.36
438.894	3.33
439.1	3.38
439.307	3.48
439.513	3.38
439.719	3.38
439.926	3.48
440.132	3.46
440.338	3.34
440.544	3.44
440.751	3.41
440.957	3.44
441.163	3.37
441.369	3.4
441.575	3.11
441.782	3.14
441.988	3.04
442.194	3.12
442.4	3.12
442.606	3.46
442.812	3.58
443.018	3.68
443.224	3.73
443.431	3.8
443.637	3.5
443.843	3.33
444.049	3.33
444.255	3.23
444.461	3.3
444.667	3.29
444.873	3.51
445.079	3.58
445.284	3.68
445.49	3.42
445.696	3.4
445.902	3.31
446.108	3.14
446.314	3.1
446.52	3.22
446.726	3.48
446.931	3.44
447.137	3.59
447.343	3.61
447.549	3.56
447.755	3.42
447.96	3.55
448.166	3.43
448.372	3.39
448.578	3.46
448.783	3.49
448.989	3.52
449.195	3.71
449.4	3.77
449.606	3.68
449.812	3.59
450.017	3.57
450.223	3.45
450.428	3.4
450.634	3.61
450.84	3.87
451.045	3.77
451.251	3.67
451.456	3.96
451.662	3.93
451.867	3.85
452.073	3.87
452.278	4.07
452.483	4.03
452.689	3.96
452.894	4.02
453.1	4.08
453.305	3.9
453.51	3.79
453.716	3.73
453.921	3.74
454.127	3.65
454.332	3.64
454.537	3.61
454.742	3.7
454.948	3.55
455.153	3.63
455.358	3.77
455.563	4.02
455.769	4.14
455.974	4.23
456.179	4.11
456.384	4.08
456.589	3.9
456.795	3.66
457	3.59
457.205	3.85
457.41	3.8
457.615	3.77
457.82	3.92
458.025	4.02
458.23	3.86
458.435	3.88
458.64	3.83
458.845	3.9
459.05	3.84
459.255	3.8
459.46	3.85
459.665	3.86
459.87	3.83
