Data from Ofra_PS_T2_1A_6EV18_Reflection_2.txt Node
Date: Wed Jul 21 18:09:51 EDT 2021
User: Adam
Spectrometer: FLMT01687
Trigger mode: 0
Integration Time (sec): 1.100000E0
Scans to average: 2
Electric dark correction enabled: true
Nonlinearity correction enabled: false
Boxcar width: 2
XAxis mode: Wavelengths
Number of Pixels in Spectrum: 3648
>>>>>Begin Spectral Data<<<<<
179.494	498.8
179.716	556.47
179.937	530.54
180.158	561.12
180.38	949.06
180.601	235.64
180.823	73.79
181.044	-77.96
181.265	-134.19
181.486	29.89
181.708	164.32
181.929	1060.2
182.15	-545.77
182.372	60.64
182.593	85.54
182.814	51.03
183.035	83.39
183.257	27.36
183.478	-100.32
183.699	-56.14
183.92	-53.63
184.141	-44.31
184.363	-83.77
184.584	-20.78
184.805	-1.59
185.026	14.21
185.247	9.12
185.468	-5.3
185.689	-15.83
185.91	-22.39
186.132	-13.83
186.353	-8.94
186.574	26.16
186.795	21.94
187.016	-21.83
187.237	-41.54
187.458	-97.76
187.679	-63.61
187.9	-33.64
188.121	-16.17
188.342	-11.01
188.563	21.86
188.784	46.35
189.005	52.05
189.226	116.2
189.447	130.27
189.667	162.86
189.888	-153.94
190.109	-892.86
190.33	-668.06
190.551	-1314.6
190.772	-300.12
190.993	-246.42
191.214	-180.24
191.434	-105.26
191.655	-7.42
191.876	-25.67
192.097	-50.44
192.318	-142.73
192.538	-268.48
192.759	-211.96
192.98	-78.62
193.201	-42.86
193.421	-5.97
193.642	19.44
193.863	22.61
194.083	-5.49
194.304	-17.13
194.525	-22.61
194.745	-67.98
194.966	-60.17
195.187	-55.44
195.407	-58.1
195.628	-121.94
195.848	-106.16
196.069	-107.03
196.29	-66.82
196.51	-83.82
196.731	-42.13
196.951	-50.85
197.172	-81.11
197.392	-121.38
197.613	-127.39
197.833	-167.3
198.054	-128.66
198.274	-65.64
198.495	-100.12
198.715	-55.92
198.936	-99.86
199.156	-93.73
199.377	-210.94
199.597	-159.56
199.817	-162.66
200.038	-67.35
200.258	-117.68
200.479	-22.59
200.699	-17.58
200.919	-6.25
201.14	-2.83
201.36	-6.96
201.58	-4.42
201.801	11.07
202.021	-17.31
202.241	-27.11
202.461	-22.59
202.682	-88.11
202.902	-122.14
203.122	-74.11
203.342	-64.68
203.563	-33.72
203.783	-16.68
204.003	-67.79
204.223	-57.3
204.443	3.44
204.663	-32.34
204.884	2.45
205.104	40.27
205.324	62.47
205.544	56.34
205.764	60.1
205.984	40.29
206.204	41.47
206.424	18
206.644	-24.93
206.864	-14.83
207.084	-93.55
207.304	-94.24
207.525	-174.53
207.745	-107.04
207.964	-28.99
208.184	-13.77
208.404	-59.29
208.624	-81.58
208.844	-75.29
209.064	-389.98
209.284	-414.38
209.504	-227.49
209.724	-58.88
209.944	-43
210.164	-3.12
210.384	-1.57
210.604	-4.13
210.823	-50.74
211.043	-54.52
211.263	-49.64
211.483	-54.11
211.703	-96.79
211.922	-73.19
212.142	-18.66
212.362	5.68
212.582	3.76
212.801	5.97
213.021	-15.22
213.241	-37.41
213.461	-78.46
213.68	-102.99
213.9	-74.43
214.12	-44.3
214.339	-101.59
214.559	-89.88
214.779	-27.84
214.998	-40.65
215.218	-113.51
215.438	-72.53
215.657	-77.96
215.877	-98.46
216.096	-40.82
216.316	-14.3
216.535	-26.52
216.755	-22.33
216.974	-121.99
217.194	-198.96
217.413	-194.14
217.633	-197.9
217.852	-301.25
218.072	-119.22
218.291	-68.5
218.511	-22.2
218.73	-13
218.95	-22.3
219.169	-30.19
219.389	-70.35
219.608	-52.72
219.827	-69.82
220.047	-57.94
220.266	-33.26
220.485	-16.81
220.705	-5.07
220.924	-18.42
221.143	21.44
221.363	-0.03
221.582	1.33
221.801	-15.7
222.021	-0.24
222.24	-71.72
222.459	-18.16
222.678	-27.1
222.897	-67.01
223.117	-111.5
223.336	-104.98
223.555	-89.77
223.774	-50.65
223.993	-43.38
224.213	22.52
224.432	-9.45
224.651	21.82
224.87	-6.65
225.089	19.91
225.308	-0.2
225.527	31.64
225.746	21.57
225.965	8.67
226.184	-31.44
226.404	10.81
226.623	-27.97
226.842	-18.28
227.061	8.33
227.28	19.49
227.499	-9.91
227.718	14.58
227.936	2.04
228.155	13.05
228.374	-5.28
228.593	8.27
228.812	16.75
229.031	10.83
229.25	-50.64
229.469	-51.57
229.688	-55.66
229.907	-41.17
230.125	-35.78
230.344	3.04
230.563	25.95
230.782	34.42
231.001	-39.24
231.22	-34.1
231.438	-12.71
231.657	-16.39
231.876	-30.43
232.095	15.86
232.313	13.59
232.532	-14.63
232.751	-53.98
232.969	-59.93
233.188	-117.28
233.407	-38.43
233.625	-36.04
233.844	-71.61
234.063	-69.14
234.281	-46.14
234.5	-60.15
234.719	-44.48
234.937	-13.68
235.156	-11.15
235.374	-10.07
235.593	-25.87
235.811	-21.26
236.03	-17.85
236.249	-53.01
236.467	-63.3
236.686	-16.51
236.904	-14.6
237.123	-46.21
237.341	-34.3
237.559	-20.99
237.778	-46.57
237.996	-76.78
238.215	-13.59
238.433	6.96
238.652	2.89
238.87	-14.27
239.088	3.78
239.307	-8.23
239.525	-24.08
239.743	-48.44
239.962	-48.66
240.18	-52.88
240.398	-84.77
240.617	-88.26
240.835	-68.04
241.053	-31.79
241.271	-13.62
241.49	14.32
241.708	-9.07
241.926	-24.33
242.144	-24.47
242.363	-78.06
242.581	-110.18
242.799	-46.03
243.017	-21.09
243.235	-36.74
243.453	-16.01
243.672	-24.47
243.89	-36.17
244.108	-42.74
244.326	-11.65
244.544	-3.09
244.762	-7.49
244.98	-5.6
245.198	-12.49
245.416	-52.44
245.634	-59.45
245.852	-76.36
246.07	-71.55
246.288	-57.6
246.506	-83.58
246.724	-73.7
246.942	-39.97
247.16	-19.92
247.378	-16.72
247.596	2.05
247.814	11.87
248.032	-8.99
248.25	-7.02
248.468	9.77
248.685	30.47
248.903	44.3
249.121	46.52
249.339	25.46
249.557	8.94
249.775	14.93
249.992	-59.69
250.21	-61.33
250.428	-44.61
250.646	-75.86
250.863	-104.13
251.081	-62.09
251.299	-49.7
251.517	-39.97
251.734	-24.54
251.952	-35.46
252.17	-26.21
252.387	-19.67
252.605	-34.65
252.823	-27.99
253.04	1.47
253.258	11.9
253.475	8.64
253.693	23.46
253.911	29.83
254.128	21.31
254.346	0.88
254.563	-26.1
254.781	-40.9
254.998	-84.46
255.216	-113.23
255.433	-78.3
255.651	-8.43
255.868	36.38
256.086	79.75
256.303	80.25
256.521	53.46
256.738	20.35
256.956	-12.49
257.173	-44.39
257.39	-44.03
257.608	-53.84
257.825	16.34
258.043	42.68
258.26	64.75
258.477	81.79
258.695	80.53
258.912	10.11
259.129	11.27
259.346	-36.37
259.564	-75.47
259.781	-99.28
259.998	-21.91
260.216	-3.02
260.433	41.11
260.65	44.74
260.867	53.86
261.084	15.69
261.302	1.31
261.519	-28.64
261.736	-56.57
261.953	-72.95
262.17	-37.29
262.387	-78.25
262.604	-95.22
262.822	-77.71
263.039	-72.01
263.256	-110.86
263.473	-64.35
263.69	-32.02
263.907	5.69
264.124	39.6
264.341	53.74
264.558	33.48
264.775	40.75
264.992	5.05
265.209	3.52
265.426	8.58
265.643	21.23
265.86	21.73
266.077	43.22
266.294	3.79
266.51	-35.75
266.727	-59.27
266.944	-56.51
267.161	-55.03
267.378	-39.19
267.595	-6.05
267.812	-23
268.028	-46.98
268.245	-25.39
268.462	-57.36
268.679	-61.19
268.896	4.12
269.112	13.18
269.329	7.71
269.546	29.25
269.763	22.73
269.979	4.87
270.196	-2.41
270.413	-36.87
270.629	-60.2
270.846	-82.06
271.063	-91.49
271.279	-116.57
271.496	-105.45
271.712	-67.43
271.929	-40.27
272.146	-56.21
272.362	-13.68
272.579	30.41
272.795	50.34
273.012	28.77
273.228	45.92
273.445	25.86
273.661	2.57
273.878	-54.79
274.094	-19.96
274.311	-56.51
274.527	0.93
274.744	-11.26
274.96	-8.79
275.177	-12.91
275.393	13.15
275.609	3.88
275.826	36.5
276.042	22.07
276.259	15.27
276.475	7.81
276.691	-10.22
276.908	-40.52
277.124	-19.97
277.34	-29.15
277.557	-35.29
277.773	-26.9
277.989	-19.94
278.205	-30.97
278.422	-10.33
278.638	6.96
278.854	23.27
279.07	19.47
279.286	30.94
279.503	0.62
279.719	-33.47
279.935	-65.72
280.151	-77.85
280.367	-50.7
280.583	-55.08
280.799	-27.51
281.016	-53.61
281.232	-19.66
281.448	-28.72
281.664	7.19
281.88	-17.33
282.096	2.01
282.312	20.97
282.528	47.78
282.744	32.46
282.96	17.44
283.176	13.38
283.392	4.86
283.608	-19.37
283.824	-24.38
284.04	-11.4
284.256	8.29
284.471	-7
284.687	-2.72
284.903	22.33
285.119	43.66
285.335	8.41
285.551	38.75
285.767	33.18
285.982	10.09
286.198	-33.4
286.414	22.81
286.63	19.62
286.846	33.23
287.061	8.5
287.277	28.9
287.493	0.99
287.709	14.49
287.924	-6.21
288.14	34.36
288.356	40.21
288.571	55.8
288.787	30.93
289.003	37.26
289.218	17.59
289.434	-6.7
289.65	-13.96
289.865	-31.22
290.081	-16.98
290.296	-5.62
290.512	-14.65
290.727	-41.19
290.943	-28.54
291.159	-37.29
291.374	-47.01
291.59	-63.99
291.805	-34.57
292.021	-35.85
292.236	-33.21
292.451	-14.19
292.667	-0.31
292.882	5.07
293.098	6.91
293.313	-10.95
293.529	-20.57
293.744	-45.38
293.959	-43.64
294.175	-40.21
294.39	-7.95
294.605	2.47
294.821	22.55
295.036	18.78
295.251	23.15
295.467	-7.13
295.682	-29.36
295.897	-69.75
296.112	-86.22
296.328	-71.81
296.543	-71.53
296.758	-59.8
296.973	-1.01
297.188	36.15
297.404	5.98
297.619	-0.03
297.834	-14.66
298.049	-22.18
298.264	-55.68
298.479	-1.98
298.694	0.67
298.909	19.52
299.125	10.96
299.34	22.92
299.555	-4.23
299.77	9.45
299.985	-22.15
300.2	-67.86
300.415	-91.66
300.63	-46.75
300.845	-53.83
301.06	-40.91
301.275	-4.52
301.49	7.54
301.704	-5.05
301.919	-15.3
302.134	-36.03
302.349	-51.48
302.564	-105.09
302.779	-169.13
302.994	-164.66
303.209	-118.66
303.423	-64.96
303.638	9.39
303.853	-22.01
304.068	-28.75
304.283	-18.05
304.497	-20.41
304.712	-36.66
304.927	-4.68
305.142	-12.27
305.356	-8.39
305.571	-18.81
305.786	-26.95
306	-65.38
306.215	-52.85
306.43	-74.57
306.644	-65.5
306.859	-41.2
307.074	-6.96
307.288	-41.48
307.503	-59.28
307.717	-59.08
307.932	-66.03
308.147	-83.44
308.361	-49.7
308.576	-50.22
308.79	-90.1
309.005	-74.05
309.219	-43.21
309.434	-64.48
309.648	-57.05
309.863	-27.4
310.077	-24.16
310.292	-29.42
310.506	-15.93
310.72	-6.48
310.935	-1.15
311.149	-1.63
311.364	22.2
311.578	21.9
311.792	14.57
312.007	20.31
312.221	1.68
312.435	-16.1
312.649	-28.43
312.864	-12.46
313.078	-12.46
313.292	45.33
313.507	27.95
313.721	50.41
313.935	14.9
314.149	1.69
314.363	-15.87
314.578	-23.55
314.792	-29.2
315.006	-35.44
315.22	-12.17
315.434	-9.69
315.648	1.4
315.862	2.3
316.077	5.68
316.291	-17.39
316.505	-25
316.719	-11.76
316.933	-12.52
317.147	-28.88
317.361	-85.98
317.575	-102.1
317.789	-144.72
318.003	-228.98
318.217	-183.37
318.431	-68.61
318.645	-17.1
318.859	-19.05
319.073	4.9
319.287	-1.35
319.5	-35.85
319.714	-81.32
319.928	-104.9
320.142	-134.22
320.356	-82.25
320.57	-27.6
320.784	-19.02
320.997	-18.79
321.211	12.12
321.425	-44.68
321.639	-95.4
321.853	-47.25
322.066	-22.24
322.28	-40.54
322.494	-30.97
322.707	-12.05
322.921	-22.56
323.135	-28.19
323.349	-3.32
323.562	-25.53
323.776	-26.93
323.989	-19.51
324.203	-20.24
324.417	-33.93
324.63	-41.4
324.844	-46.46
325.057	-60.12
325.271	-28.15
325.485	8.43
325.698	28.35
325.912	40.31
326.125	28.81
326.339	12.54
326.552	-28.82
326.766	-15.86
326.979	-6.42
327.193	30.99
327.406	12.44
327.619	11.77
327.833	11.74
328.046	-20.56
328.26	-62
328.473	-32.1
328.686	-59.35
328.9	-64.16
329.113	-37.46
329.326	-63.37
329.54	-55.69
329.753	-62.62
329.966	-86.51
330.179	-78.38
330.393	-39.43
330.606	-30.32
330.819	-4.2
331.032	23.23
331.246	20.71
331.459	45.98
331.672	35.6
331.885	20.7
332.098	-15.53
332.311	-28.38
332.525	-103.09
332.738	-87.96
332.951	-60.86
333.164	-16
333.377	-0.19
333.59	27.92
333.803	26.15
334.016	25.77
334.229	22.12
334.442	39.41
334.655	44.44
334.868	45.17
335.081	31.93
335.294	1.06
335.507	-18.4
335.72	-9.52
335.933	-16.59
336.146	-28.38
336.359	-11.64
336.572	-36.24
336.785	-80.84
336.997	-71.42
337.21	-32.15
337.423	-38.9
337.636	-33.26
337.849	-16.73
338.062	-29.86
338.274	-30.17
338.487	-35.51
338.7	-42.92
338.913	-71.46
339.125	-90.4
339.338	-149.76
339.551	-129.26
339.763	-84.27
339.976	-42.92
340.189	-9.82
340.402	12.12
340.614	5.5
340.827	5.09
341.039	-11.71
341.252	-18.02
341.465	-5.67
341.677	-14.17
341.89	-47.87
342.102	-21.57
342.315	-34.26
342.527	-92.09
342.74	-74.37
342.952	-26.97
343.165	-35.86
343.377	-12.13
343.59	-3.71
343.802	24.82
344.015	7.4
344.227	18.36
344.44	6.88
344.652	21.37
344.864	-8.15
345.077	13.45
345.289	14.39
345.502	10.52
345.714	-5.76
345.926	6.93
346.139	-8.29
346.351	-6.53
346.563	11.62
346.775	19.35
346.988	0.53
347.2	-10.93
347.412	-43.9
347.624	-54.47
347.837	-87.72
348.049	-71.59
348.261	-39.2
348.473	-31.71
348.685	-51.51
348.897	-30.76
349.11	-43.2
349.322	-64.83
349.534	-60.41
349.746	-32.88
349.958	-12.71
350.17	9.56
350.382	17.46
350.594	21.47
350.806	31.27
351.018	8.69
351.23	-23.23
351.442	-77.53
351.654	-105.52
351.866	-117.06
352.078	-76.05
352.29	-37.88
352.502	-1.54
352.714	17.02
352.926	14.41
353.138	2.71
353.35	-6.71
353.561	-12.97
353.773	-29.84
353.985	-25.65
354.197	-37.05
354.409	-28.99
354.621	-24.39
354.832	-14.8
355.044	-17.47
355.256	-6.92
355.468	5.01
355.679	-7.74
355.891	-1.76
356.103	-21.45
356.314	-14.25
356.526	-27.4
356.738	4.49
356.949	4.99
357.161	17.92
357.373	13.02
357.584	-1.59
357.796	-12.18
358.008	-28.32
358.219	-11.24
358.431	-24.83
358.642	-9.74
358.854	-10.87
359.065	-16.97
359.277	-42.47
359.488	-44.78
359.7	-66.87
359.911	-78.8
360.123	-41.1
360.334	-40.57
360.546	-39.53
360.757	-38.03
360.969	-27.11
361.18	-13.21
361.391	-1.96
361.603	-16.02
361.814	4.19
362.025	7.01
362.237	-6.68
362.448	-1.74
362.659	6.44
362.871	-6.06
363.082	-17.27
363.293	-18.82
363.504	-27.14
363.716	-43.29
363.927	-48.11
364.138	-64.13
364.349	-73.61
364.56	-70.22
364.772	-49.49
364.983	-26.99
365.194	-21.98
365.405	-14.73
365.616	1.28
365.827	-7.18
366.038	-35.88
366.25	-34.19
366.461	-60.48
366.672	-42.71
366.883	-17.85
367.094	-4.17
367.305	-10.06
367.516	3.69
367.727	-21.65
367.938	-40.13
368.149	-42.17
368.36	-22.84
368.571	-20.68
368.781	-37.03
368.992	-46.49
369.203	-66.32
369.414	-103.77
369.625	-114.79
369.836	-92.03
370.047	-110.01
370.258	-80.37
370.468	-64.49
370.679	-79.5
370.89	-79
371.101	-49.29
371.312	-50.4
371.522	-41.42
371.733	-18.25
371.944	4
372.155	1.31
372.365	-18.53
372.576	-26.45
372.787	-36.61
372.997	-74.72
373.208	-58.46
373.419	-23.7
373.629	-45.2
373.84	-51.34
374.05	-55.31
374.261	-72.03
374.472	-81.53
374.682	-25.17
374.893	-19.45
375.103	20.95
375.314	19.53
375.524	16.3
375.735	12.19
375.945	16.95
376.156	-14.19
376.366	-5.63
376.577	-1.5
376.787	-12.68
376.997	-16
377.208	-11.57
377.418	-19.9
377.629	-14.33
377.839	-20.63
378.049	-18.52
378.26	0.93
378.47	8.61
378.68	-1.34
378.89	-2.22
379.101	-2.25
379.311	-36.6
379.521	-71.26
379.732	-71.36
379.942	-77.98
380.152	-98.28
380.362	-58.27
380.572	-39.48
380.783	-31.51
380.993	-10.97
381.203	6.86
381.413	20.14
381.623	22.94
381.833	23.28
382.043	12.72
382.253	4.26
382.463	-5.93
382.674	-23.02
382.884	-41.15
383.094	-37.74
383.304	-33.5
383.514	-30.57
383.724	-12.01
383.934	-11.49
384.144	-22.21
384.353	-22.77
384.563	-19.19
384.773	-19.83
384.983	-27.67
385.193	-8.36
385.403	-4.78
385.613	-5.1
385.823	-18.56
386.033	-7.41
386.242	-12.34
386.452	-19.85
386.662	-34.93
386.872	-20.43
387.082	-25.82
387.291	-33.45
387.501	-34.64
387.711	-16.46
387.921	-22.99
388.13	-19.2
388.34	-3.19
388.55	-6.9
388.759	-12
388.969	-3.5
389.179	-9.51
389.388	-16.25
389.598	-8
389.807	-14.08
390.017	-17.44
390.227	-11.65
390.436	-13.92
390.646	-14.67
390.855	-7.39
391.065	-7.5
391.274	-9.43
391.484	-14.02
391.693	-10.04
391.903	-8.93
392.112	-4.74
392.322	-2.5
392.531	4.57
392.74	2.55
392.95	-2.7
393.159	-6.64
393.369	-6.55
393.578	-6.61
393.787	-7.53
393.997	-5.31
394.206	-5.68
394.415	-5.75
394.625	-6.34
394.834	-5.36
395.043	-4.41
395.252	-1.38
395.462	0.85
395.671	1.87
395.88	2.22
396.089	2.83
396.298	1.88
396.508	0.81
396.717	0.7
396.926	0.46
397.135	0.06
397.344	-1.27
397.553	0.32
397.762	1.55
397.971	1.66
398.181	2.46
398.39	2.85
398.599	1.96
398.808	1.34
399.017	2.05
399.226	2.92
399.435	4.09
399.644	4.25
399.853	3.15
400.062	2.32
400.27	1.75
400.479	1.26
400.688	0.53
400.897	1.2
401.106	1.5
401.315	1.11
401.524	1.28
401.733	1.79
401.941	2.52
402.15	2.62
402.359	2.67
402.568	2.74
402.777	2.82
402.985	2.15
403.194	2.06
403.403	2.2
403.612	1.8
403.82	1.65
404.029	2
404.238	1.87
404.446	2.04
404.655	1.85
404.864	1.8
405.072	1.5
405.281	1.93
405.489	1.67
405.698	1.89
405.906	1.98
406.115	1.93
406.324	1.61
406.532	1.74
406.741	2.11
406.949	2.15
407.158	2.21
407.366	2.43
407.574	2.32
407.783	2.18
407.991	1.96
408.2	2.16
408.408	1.99
408.617	1.97
408.825	1.81
409.033	2.03
409.242	2.01
409.45	2.11
409.658	1.98
409.867	2.16
410.075	1.96
410.283	1.85
410.491	1.77
410.7	1.8
410.908	1.74
411.116	2.09
411.324	2.06
411.533	2.03
411.741	2.28
411.949	2.27
412.157	1.96
412.365	1.99
412.573	2.1
412.781	2.1
412.99	1.91
413.198	2.12
413.406	2.13
413.614	2.11
413.822	1.96
414.03	2.01
414.238	1.62
414.446	1.78
414.654	1.51
414.862	1.64
415.07	1.77
415.278	2.16
415.486	1.76
415.694	1.9
415.902	1.67
416.109	1.55
416.317	1.5
416.525	1.47
416.733	1.59
416.941	1.75
417.149	1.72
417.357	1.71
417.564	1.91
417.772	2
417.98	2.05
418.188	2.05
418.395	2.04
418.603	2.17
418.811	1.79
419.019	1.52
419.226	1.76
419.434	1.9
419.642	1.64
419.849	1.87
420.057	2
420.265	1.87
420.472	1.49
420.68	1.58
420.887	1.53
421.095	1.56
421.302	1.52
421.51	1.84
421.717	2.03
421.925	2.16
422.132	2.01
422.34	1.82
422.547	1.89
422.755	1.65
422.962	1.5
423.17	1.51
423.377	1.68
423.585	1.5
423.792	1.55
423.999	1.51
424.207	1.45
424.414	1.56
424.621	1.61
424.829	1.65
425.036	1.76
425.243	1.92
425.451	1.78
425.658	1.58
425.865	1.7
426.072	1.69
426.28	1.92
426.487	1.81
426.694	1.88
426.901	1.59
427.108	1.59
427.315	1.37
427.523	1.72
427.73	1.72
427.937	1.8
428.144	1.66
428.351	1.59
428.558	1.67
428.765	1.53
428.972	1.53
429.179	1.62
429.386	1.87
429.593	1.51
429.8	1.53
430.007	1.58
430.214	1.68
430.421	1.48
430.628	1.38
430.835	1.3
431.042	1.41
431.249	1.37
431.456	1.33
431.662	1.51
431.869	1.79
432.076	1.83
432.283	1.89
432.49	1.82
432.697	1.84
432.903	1.49
433.11	1.36
433.317	1.36
433.524	1.61
433.73	1.5
433.937	1.79
434.144	1.7
434.35	1.73
434.557	1.56
434.764	1.62
434.97	1.51
435.177	1.74
435.384	1.68
435.59	1.8
435.797	2.02
436.003	2.12
436.21	2.02
436.416	2.02
436.623	1.95
436.829	1.96
437.036	2.01
437.242	2.01
437.449	1.93
437.655	1.97
437.862	1.92
438.068	1.75
438.275	1.9
438.481	2.17
438.687	2.08
438.894	2.03
439.1	2.17
439.307	2.27
439.513	2.05
439.719	2.07
439.926	2.24
440.132	2.13
440.338	1.93
440.544	2.13
440.751	2.09
440.957	2.05
441.163	2.02
441.369	2.11
441.575	1.87
441.782	1.86
441.988	1.64
442.194	1.76
442.4	1.68
442.606	2.04
442.812	2.12
443.018	2.27
443.224	2.28
443.431	2.32
443.637	2.02
443.843	2.02
444.049	1.96
444.255	1.86
444.461	1.93
444.667	1.89
444.873	1.96
445.079	2.02
445.284	2.12
445.49	1.92
445.696	1.84
445.902	1.68
446.108	1.63
446.314	1.64
446.52	1.72
446.726	2.03
446.931	2.2
447.137	2.21
447.343	2.17
447.549	2.13
447.755	1.96
447.96	1.94
448.166	1.94
448.372	1.92
448.578	1.98
448.783	1.96
448.989	2.02
449.195	2.12
449.4	2.18
449.606	2.22
449.812	2.16
450.017	2.1
450.223	2.01
450.428	1.82
450.634	1.87
450.84	2.04
451.045	2.02
451.251	1.93
451.456	2.3
451.662	2.38
451.867	2.33
452.073	2.3
452.278	2.45
452.483	2.48
452.689	2.33
452.894	2.39
453.1	2.4
453.305	2.33
453.51	2.08
453.716	2.07
453.921	2.04
454.127	1.98
454.332	1.95
454.537	1.94
454.742	1.94
454.948	1.87
455.153	2.04
455.358	2.09
455.563	2.23
455.769	2.38
455.974	2.43
456.179	2.27
456.384	2.26
456.589	2.18
456.795	2
457	1.97
457.205	2.23
457.41	2.22
457.615	2.14
457.82	2.24
458.025	2.3
458.23	2.1
458.435	2.09
458.64	2.11
458.845	2.16
459.05	2.07
