Data from Ofra_1a_PS_1GT37_Reflection_1.txt Node
Date: Tue Jul 20 10:44:33 EDT 2021
User: Adam
Spectrometer: FLMT01687
Trigger mode: 0
Integration Time (sec): 1.004000E0
Scans to average: 2
Electric dark correction enabled: true
Nonlinearity correction enabled: false
Boxcar width: 2
XAxis mode: Wavelengths
Number of Pixels in Spectrum: 3648
>>>>>Begin Spectral Data<<<<<
179.494	498.98
179.716	583.21
179.937	-1061.87
180.158	1701.27
180.38	-50.11
180.601	-1.99
180.823	-64.13
181.044	-102.98
181.265	-199.28
181.486	194.35
181.708	114.63
181.929	-2354.55
182.15	7.76
182.372	534.48
182.593	372.42
182.814	-137.35
183.035	-9.17
183.257	42.18
183.478	46.57
183.699	12.82
183.92	-15.21
184.141	-2.97
184.363	-3.41
184.584	-11.35
184.805	28.18
185.026	37.95
185.247	16.54
185.468	-24.16
185.689	-18.03
185.91	-29.97
186.132	4.11
186.353	14.78
186.574	28.46
186.795	32.55
187.016	30.39
187.237	8.92
187.458	19.77
187.679	9.99
187.9	14.32
188.121	-0.48
188.342	13.27
188.563	8.33
188.784	38.79
189.005	37.65
189.226	42.14
189.447	27.13
189.667	19.12
189.888	4.81
190.109	17.29
190.33	35.66
190.551	47.82
190.772	63.09
190.993	45.06
191.214	18
191.434	-7.86
191.655	11.83
191.876	-7.44
192.097	15.12
192.318	19.02
192.538	-5.55
192.759	-12.19
192.98	4.76
193.201	18.06
193.421	8.93
193.642	27
193.863	50.29
194.083	58.78
194.304	56.63
194.525	58.36
194.745	23.8
194.966	4.1
195.187	0.1
195.407	-25.61
195.628	-20.29
195.848	-14.88
196.069	-39.95
196.29	-51.08
196.51	-36.74
196.731	-25.83
196.951	-35.09
197.172	-27.19
197.392	-7.32
197.613	9.36
197.833	-2.81
198.054	0.86
198.274	22.56
198.495	18.86
198.715	0.9
198.936	16.9
199.156	13.59
199.377	-12.91
199.597	-4.46
199.817	-3.95
200.038	-28.68
200.258	13.25
200.479	45.48
200.699	53.19
200.919	68.65
201.14	67.86
201.36	59.94
201.58	36.23
201.801	14.29
202.021	5.31
202.241	-1.41
202.461	-20.06
202.682	0.67
202.902	27.16
203.122	34.95
203.342	39.3
203.563	29.06
203.783	1.48
204.003	-24.33
204.223	-16.94
204.443	0.62
204.663	31.04
204.884	87.54
205.104	101.47
205.324	141.31
205.544	86.79
205.764	77.41
205.984	57.46
206.204	72.5
206.424	25.65
206.644	16.73
206.864	-36.05
207.084	-8.05
207.304	-29.86
207.525	-15.71
207.745	13.38
207.964	42.15
208.184	40.15
208.404	33.69
208.624	46.45
208.844	25.64
209.064	10.88
209.284	2.95
209.504	22.43
209.724	8.79
209.944	20.7
210.164	18.97
210.384	48.55
210.604	30.69
210.823	25.02
211.043	40.97
211.263	25.91
211.483	20.63
211.703	-2.66
211.922	4.19
212.142	26.38
212.362	41.56
212.582	18.75
212.801	13.01
213.021	3.39
213.241	-17.34
213.461	-18.79
213.68	5.44
213.9	2.97
214.12	10
214.339	6.51
214.559	-0.5
214.779	-16.93
214.998	-6.85
215.218	-16.93
215.438	-3.97
215.657	-6.12
215.877	-13.25
216.096	6.82
216.316	22.51
216.535	17.4
216.755	22
216.974	33.45
217.194	16.05
217.413	-9.63
217.633	-29.43
217.852	-10.32
218.072	-14.94
218.291	-14.08
218.511	-1.62
218.73	17.86
218.95	-2.12
219.169	23.45
219.389	35.39
219.608	33.65
219.827	23.97
220.047	36.33
220.266	11.32
220.485	-13.31
220.705	-19.04
220.924	-45.13
221.143	-15.21
221.363	15
221.582	36.43
221.801	53.86
222.021	53.31
222.24	37.01
222.459	39.49
222.678	20.36
222.897	-1.06
223.117	-4.19
223.336	9.16
223.555	13.28
223.774	53.99
223.993	66.82
224.213	85.09
224.432	71.59
224.651	36.61
224.87	19.29
225.089	10.54
225.308	7.14
225.527	-10.56
225.746	3.57
225.965	2.37
226.184	-4.73
226.404	-11.94
226.623	18.29
226.842	8.93
227.061	11.02
227.28	33.13
227.499	35.48
227.718	26.77
227.936	34.4
228.155	24.19
228.374	11.62
228.593	19.86
228.812	9.57
229.031	15.33
229.25	11.11
229.469	22.53
229.688	14.73
229.907	17.43
230.125	21.63
230.344	36.65
230.563	31.83
230.782	35.87
231.001	56.95
231.22	45.15
231.438	49
231.657	48.18
231.876	56.69
232.095	52.77
232.313	40.43
232.532	30.89
232.751	17.8
232.969	4.99
233.188	-2.79
233.407	12.83
233.625	16.04
233.844	21.61
234.063	14.21
234.281	12.93
234.5	12.24
234.719	-0.22
234.937	-12.3
235.156	-6.16
235.374	-3.63
235.593	3.74
235.811	27.53
236.03	27.09
236.249	27.69
236.467	23.19
236.686	12.49
236.904	11.15
237.123	14.67
237.341	17.31
237.559	18.08
237.778	28.25
237.996	3.67
238.215	-44.8
238.433	-84.13
238.652	-14.63
238.87	-24.11
239.088	-9.43
239.307	7.39
239.525	7.7
239.743	-17.65
239.962	-35.84
240.18	-13.02
240.398	-13.58
240.617	-6.42
240.835	4.19
241.053	24.4
241.271	12.88
241.49	23.88
241.708	8.49
241.926	8.88
242.144	8.57
242.363	-3.95
242.581	-45.97
242.799	-58.96
243.017	-19.78
243.235	-17.51
243.453	-16.02
243.672	-2.76
243.89	17.07
244.108	13.94
244.326	19.99
244.544	37.07
244.762	35.26
244.98	33.01
245.198	35.26
245.416	42.72
245.634	22.1
245.852	3.09
246.07	23.54
246.288	20.82
246.506	22.38
246.724	21.22
246.942	33.66
247.16	16.17
247.378	5.05
247.596	9.82
247.814	-10.11
248.032	-15
248.25	29.3
248.468	34.94
248.685	32.9
248.903	27.7
249.121	30.71
249.339	25.81
249.557	28.09
249.775	41.67
249.992	56.82
250.21	61.12
250.428	56.92
250.646	50.57
250.863	30.1
251.081	36.72
251.299	31.18
251.517	35.67
251.734	28.37
251.952	29.73
252.17	26.41
252.387	25.16
252.605	25.68
252.823	4.58
253.04	30.86
253.258	26.66
253.475	34.32
253.693	19.34
253.911	37.15
254.128	14.74
254.346	20.74
254.563	21.72
254.781	25.43
254.998	17.05
255.216	4.32
255.433	-21.78
255.651	-16.39
255.868	-13.29
256.086	1.34
256.303	28.83
256.521	51.52
256.738	36.46
256.956	33.79
257.173	30.61
257.39	14.92
257.608	3.53
257.825	10.9
258.043	15.87
258.26	5.29
258.477	2.59
258.695	6.19
258.912	-0.07
259.129	-11.78
259.346	0.92
259.564	19.53
259.781	7.35
259.998	31.33
260.216	38.4
260.433	23.41
260.65	26.18
260.867	33.89
261.084	19.78
261.302	5.47
261.519	24.57
261.736	20.44
261.953	14.26
262.17	24.13
262.387	35.03
262.604	35.46
262.822	27.19
263.039	20.86
263.256	14.65
263.473	6.41
263.69	4.42
263.907	6.27
264.124	18.73
264.341	24.36
264.558	20.75
264.775	28.42
264.992	34.72
265.209	24.77
265.426	31.56
265.643	48.27
265.86	43.85
266.077	33.96
266.294	30.49
266.51	38.51
266.727	17.62
266.944	28.49
267.161	32.2
267.378	43.97
267.595	28.27
267.812	40.1
268.028	42.2
268.245	31.16
268.462	22.9
268.679	32.59
268.896	41.01
269.112	33.72
269.329	25.22
269.546	29.39
269.763	36.89
269.979	28.83
270.196	30.11
270.413	37.78
270.629	32.39
270.846	28.99
271.063	23.61
271.279	30.89
271.496	23.43
271.712	17.02
271.929	20.78
272.146	33.11
272.362	32.15
272.579	33.26
272.795	37.24
273.012	45.17
273.228	31.96
273.445	27.73
273.661	27.31
273.878	14.63
274.094	3.6
274.311	1.1
274.527	-13.82
274.744	0.13
274.96	18.37
275.177	19.56
275.393	35.98
275.609	50.01
275.826	41.72
276.042	31.72
276.259	31.23
276.475	18.66
276.691	-8.97
276.908	3.32
277.124	28.75
277.34	31
277.557	22.68
277.773	31.02
277.989	17.05
278.205	-7.09
278.422	-21.86
278.638	-13.09
278.854	-1.96
279.07	10.15
279.286	21.45
279.503	38.86
279.719	36.92
279.935	33.88
280.151	21.08
280.367	15.5
280.583	1.2
280.799	-6.43
281.016	-37.63
281.232	-21.39
281.448	-15.42
281.664	-3.72
281.88	11.99
282.096	26.75
282.312	18.06
282.528	9.7
282.744	-0.07
282.96	-27.68
283.176	-41.74
283.392	-55.76
283.608	-24.04
283.824	-23.03
284.04	-21.14
284.256	-19.35
284.471	13.78
284.687	19.25
284.903	23.53
285.119	47.22
285.335	58.57
285.551	44.67
285.767	46.28
285.982	62.83
286.198	26.07
286.414	13.96
286.63	8.4
286.846	-8.61
287.061	2.76
287.277	-7.39
287.493	-7.02
287.709	22.75
287.924	24.18
288.14	28.72
288.356	32.84
288.571	36.79
288.787	10.18
289.003	23.41
289.218	3.57
289.434	6.51
289.65	11.45
289.865	22.43
290.081	17.77
290.296	23.32
290.512	18.45
290.727	5.93
290.943	4.82
291.159	-3.83
291.374	-24.83
291.59	-15.38
291.805	-16.35
292.021	-0.59
292.236	-8.78
292.451	6.09
292.667	8.73
292.882	30.95
293.098	17.47
293.313	34.37
293.529	28.62
293.744	25.05
293.959	1.74
294.175	13.4
294.39	-8.57
294.605	24.78
294.821	28.93
295.036	40.58
295.251	43.06
295.467	48.53
295.682	33.59
295.897	25.58
296.112	10.45
296.328	17.78
296.543	8.62
296.758	14.1
296.973	15.04
297.188	16.41
297.404	-18.06
297.619	-19.42
297.834	-50.29
298.049	-30.13
298.264	-23.39
298.479	-40.73
298.694	-4.99
298.909	-4.43
299.125	-5.04
299.34	-5.59
299.555	8.32
299.77	26.67
299.985	32.99
300.2	34.65
300.415	31.74
300.63	28.1
300.845	8.96
301.06	5.06
301.275	-0.57
301.49	14.6
301.704	29.35
301.919	17.21
302.134	22.81
302.349	19.75
302.564	18.58
302.779	-11.25
302.994	14.42
303.209	10.41
303.423	12.15
303.638	18.81
303.853	6.62
304.068	-22.82
304.283	-7.35
304.497	-17.81
304.712	-17.3
304.927	17.86
305.142	37.86
305.356	22.58
305.571	24.18
305.786	14.78
306	-2.62
306.215	-12.97
306.43	-7.91
306.644	-13.7
306.859	-5.83
307.074	14.5
307.288	7.08
307.503	12.96
307.717	5.88
307.932	14.84
308.147	6.13
308.361	14.11
308.576	8.76
308.79	32.67
309.005	22.4
309.219	26.51
309.434	30.9
309.648	30.03
309.863	19.65
310.077	19.99
310.292	16.9
310.506	-0.08
310.72	2.09
310.935	21.51
311.149	11.93
311.364	9.05
311.578	30.35
311.792	33.01
312.007	4.49
312.221	-9.34
312.435	-5.09
312.649	-11.69
312.864	-18.6
313.078	-25.38
313.292	-16.4
313.507	-11.77
313.721	-13.31
313.935	1.78
314.149	13.77
314.363	28.49
314.578	35.54
314.792	42.55
315.006	18.81
315.22	31.56
315.434	24.18
315.648	3.34
315.862	1.45
316.077	-7.13
316.291	-11.52
316.505	-36.63
316.719	-17.6
316.933	-11.62
317.147	-0.07
317.361	-0.61
317.575	5.34
317.789	14.54
318.003	13.82
318.217	28.64
318.431	23.77
318.645	21.84
318.859	16.05
319.073	20.75
319.287	13.64
319.5	17
319.714	15.73
319.928	7.02
320.142	-2.17
320.356	-2.82
320.57	-30.65
320.784	-23.07
320.997	-28.77
321.211	-5.66
321.425	-15.75
321.639	16.22
321.853	28.31
322.066	25.04
322.28	13.22
322.494	13.48
322.707	12.13
322.921	-2.53
323.135	5.31
323.349	8.75
323.562	17.78
323.776	16.63
323.989	25.98
324.203	10.19
324.417	8.97
324.63	8.26
324.844	-4.54
325.057	-12.27
325.271	10.74
325.485	3.41
325.698	6.23
325.912	15.87
326.125	17.23
326.339	19.47
326.552	29.4
326.766	13.03
326.979	24.78
327.193	16.86
327.406	7.1
327.619	7.84
327.833	9.68
328.046	15.05
328.26	12.18
328.473	18.85
328.686	11.82
328.9	18.85
329.113	7.03
329.326	7.67
329.54	0.64
329.753	12.45
329.966	20.09
330.179	23.24
330.393	23.46
330.606	15.59
330.819	14.26
331.032	0.85
331.246	3.16
331.459	13.87
331.672	27.54
331.885	22.61
332.098	43.65
332.311	24.26
332.525	21.58
332.738	26.38
332.951	21.14
333.164	11.95
333.377	17.81
333.59	13.63
333.803	16.54
334.016	19.03
334.229	18.47
334.442	24.81
334.655	14.69
334.868	-9.13
335.081	-16.91
335.294	-20.6
335.507	-29.61
335.72	-18.88
335.933	-3.45
336.146	9.19
336.359	10.78
336.572	19.26
336.785	19.77
336.997	19.2
337.21	30.47
337.423	22.69
337.636	27.9
337.849	22.52
338.062	19.49
338.274	22.8
338.487	11.72
338.7	3.01
338.913	2.31
339.125	-4.48
339.338	-25.79
339.551	-25.64
339.763	-27.66
339.976	-30.3
340.189	-26.97
340.402	-7.24
340.614	11.46
340.827	17.89
341.039	33.19
341.252	28.91
341.465	10.14
341.677	18.58
341.89	14.54
342.102	12.43
342.315	12.95
342.527	33.16
342.74	19.99
342.952	18.52
343.165	12.33
343.377	27.38
343.59	34.01
343.802	35.4
344.015	41.95
344.227	41.32
344.44	25.43
344.652	25.65
344.864	28.65
345.077	35.15
345.289	33.32
345.502	44.73
345.714	33.62
345.926	26.04
346.139	9.82
346.351	22.33
346.563	20.25
346.775	31.81
346.988	53.82
347.2	50.38
347.412	51.53
347.624	45.68
347.837	43.54
348.049	20.9
348.261	16.25
348.473	-1.71
348.685	-18.26
348.897	-48.98
349.11	-33.02
349.322	-17.44
349.534	-5.42
349.746	4.74
349.958	10.79
350.17	5.41
350.382	-0.28
350.594	-3.3
350.806	11.2
351.018	17.47
351.23	35.21
351.442	39.21
351.654	42.55
351.866	29.93
352.078	39.74
352.29	22.18
352.502	7.87
352.714	-12.03
352.926	1.4
353.138	-3.83
353.35	-8.43
353.561	-7.03
353.773	-4.98
353.985	8.89
354.197	8.61
354.409	10.2
354.621	15.42
354.832	16.78
355.044	-11.83
355.256	-18.42
355.468	-28.27
355.679	-4.27
355.891	7.02
356.103	6.23
356.314	6.45
356.526	5.92
356.738	-16.75
356.949	-24.4
357.161	8
357.373	7.52
357.584	21.25
357.796	26.84
358.008	31.36
358.219	16.74
358.431	14.84
358.642	13.79
358.854	22.41
359.065	10.24
359.277	13.76
359.488	13.54
359.7	7.92
359.911	-5.21
360.123	2.25
360.334	-7.72
360.546	-6.13
360.757	-2.33
360.969	7.55
361.18	11.57
361.391	24.68
361.603	24.32
361.814	33.37
362.025	26.49
362.237	13.03
362.448	12.75
362.659	4.08
362.871	-7.37
363.082	-11.29
363.293	-2.6
363.504	-32.25
363.716	-0.3
363.927	5.72
364.138	-16.77
364.349	-23.87
364.56	-22.36
364.772	-14.69
364.983	-3
365.194	23.73
365.405	42.58
365.616	52.44
365.827	31.65
366.038	17.2
366.25	14.19
366.461	10.4
366.672	9.08
366.883	15.12
367.094	11.66
367.305	6.31
367.516	15.82
367.727	6.28
367.938	2.59
368.149	4.01
368.36	3.18
368.571	-25.07
368.781	-13.03
368.992	-7.42
369.203	1.46
369.414	-3.98
369.625	3.24
369.836	16.04
370.047	18.53
370.258	20.91
370.468	18.17
370.679	18.74
370.89	6.87
371.101	8.61
371.312	1.26
371.522	5.7
371.733	1.61
371.944	-5.7
372.155	-1.17
372.365	6.44
372.576	6.83
372.787	20.74
372.997	19.7
373.208	10.4
373.419	-2.66
373.629	-4.6
373.84	-7.95
374.05	-5.87
374.261	-10.87
374.472	-1.59
374.682	-5.37
374.893	-20.57
375.103	-6.13
375.314	-5.55
375.524	-4.74
375.735	15.6
375.945	16.49
376.156	3.63
376.366	7.74
376.577	10.57
376.787	7.39
376.997	13.55
377.208	21.71
377.418	17.15
377.629	18.68
377.839	16.85
378.049	19.56
378.26	11.23
378.47	21.43
378.68	16.19
378.89	16.53
379.101	18.15
379.311	22.24
379.521	17.19
379.732	22.22
379.942	21.4
380.152	12.4
380.362	12.75
380.572	22.08
380.783	18.64
380.993	8.4
381.203	5.6
381.413	9.18
381.623	4.46
381.833	3.58
382.043	6.51
382.253	10.3
382.463	14.86
382.674	17.43
382.884	20.05
383.094	20.76
383.304	21.03
383.514	17.96
383.724	10.85
383.934	7.96
384.144	14.36
384.353	12.93
384.563	11.78
384.773	12.1
384.983	8.1
385.193	-2.5
385.403	-4.01
385.613	-2.3
385.823	-3.5
386.033	0.18
386.242	1.99
386.452	7.64
386.662	1.75
386.872	9.15
387.082	4.6
387.291	3.8
387.501	6.66
387.711	10.15
387.921	3.75
388.13	10.62
388.34	10.84
388.55	6.96
388.759	3.86
388.969	4.61
389.179	3.04
389.388	3.42
389.598	3.48
389.807	0.64
390.017	-2
390.227	-5.29
390.436	-0.65
390.646	-2.27
390.855	3.48
391.065	5.93
391.274	5.03
391.484	1.58
391.693	1.34
391.903	-1.06
392.112	-0.99
392.322	1.08
392.531	1.99
392.74	2.42
392.95	2.37
393.159	1.92
393.369	0.62
393.578	-0.94
393.787	0.23
393.997	1.36
394.206	0.19
394.415	1.25
394.625	0.83
394.834	-0.78
395.043	-1.32
395.252	1.55
395.462	1.58
395.671	2.91
395.88	4.07
396.089	3.9
396.298	3.31
396.508	3.97
396.717	3.53
396.926	2.96
397.135	3.08
397.344	2.04
397.553	1.14
397.762	2.12
397.971	1.61
398.181	1.72
398.39	2.2
398.599	2.5
398.808	2.24
399.017	3.12
399.226	3.42
399.435	3.37
399.644	3.62
399.853	3.3
400.062	3.01
400.27	2.53
400.479	2.71
400.688	2.76
400.897	2.81
401.106	3.02
401.315	2.97
401.524	3.14
401.733	2.85
401.941	2.65
402.15	2.43
402.359	2.5
402.568	2.22
402.777	2.31
402.985	2.18
403.194	2.28
403.403	2.32
403.612	2.28
403.82	1.99
404.029	2.21
404.238	2.29
404.446	2.32
404.655	2.38
404.864	2.57
405.072	2.8
405.281	2.51
405.489	2.51
405.698	2.45
405.906	2.56
406.115	2.23
406.324	2.52
406.532	2.64
406.741	2.76
406.949	2.79
407.158	2.9
407.366	2.69
407.574	2.71
407.783	2.53
407.991	2.44
408.2	2.45
408.408	2.59
408.617	2.32
408.825	2.25
409.033	2.23
409.242	2.23
409.45	2.19
409.658	2.28
409.867	2.34
410.075	2.41
410.283	2.38
410.491	2.23
410.7	2.1
410.908	2.23
411.116	2.15
411.324	2.12
411.533	2.19
411.741	2.31
411.949	2.22
412.157	2.19
412.365	2.18
412.573	2.23
412.781	2.14
412.99	2.14
413.198	2.26
413.406	2.25
413.614	2.25
413.822	2.28
414.03	2.28
414.238	2.23
414.446	2.32
414.654	2.19
414.862	2.23
415.07	2.24
415.278	2.28
415.486	2.24
415.694	2.42
415.902	2.47
416.109	2.39
416.317	2.25
416.525	2.18
416.733	2.07
416.941	2.02
417.149	1.96
417.357	1.96
417.564	2.04
417.772	2.14
417.98	2.12
418.188	2.23
418.395	2.1
418.603	1.95
418.811	1.74
419.019	1.74
419.226	1.79
419.434	1.97
419.642	2.01
419.849	2.07
420.057	2.05
420.265	1.87
420.472	1.79
420.68	1.8
420.887	1.75
421.095	1.92
421.302	2.05
421.51	2.03
421.717	2.04
421.925	2.15
422.132	2.06
422.34	1.82
422.547	1.7
422.755	1.91
422.962	1.94
423.17	1.67
423.377	1.87
423.585	1.98
423.792	1.75
423.999	1.68
424.207	1.71
424.414	1.74
424.621	1.79
424.829	1.93
425.036	2.02
425.243	2.12
425.451	2.12
425.658	2.14
425.865	2.16
426.072	2.11
426.28	2.2
426.487	2.1
426.694	1.99
426.901	1.83
427.108	1.9
427.315	1.76
427.523	1.75
427.73	1.8
427.937	1.66
428.144	1.57
428.351	1.68
428.558	1.9
428.765	1.93
428.972	2.11
429.179	2.03
429.386	2.04
429.593	1.78
429.8	1.78
430.007	1.8
430.214	1.93
430.421	1.95
430.628	2.02
430.835	2.11
431.042	1.91
431.249	1.81
431.456	1.82
431.662	1.94
431.869	1.93
432.076	2.11
432.283	2.21
432.49	2.23
432.697	2.13
432.903	2.05
433.11	2.14
433.317	2.07
433.524	1.97
433.73	1.99
433.937	2.17
434.144	2
434.35	2.01
434.557	2.08
434.764	2.15
434.97	1.9
435.177	2.03
435.384	2.07
435.59	2.08
435.797	2.02
436.003	2.18
436.21	2.04
436.416	2.13
436.623	2.12
436.829	2.19
437.036	2.04
437.242	2.14
437.449	2.11
437.655	2.22
437.862	2.18
438.068	2.27
438.275	2.22
438.481	2.21
438.687	2.02
438.894	2.13
439.1	2.11
439.307	2.25
439.513	2.19
439.719	2.29
439.926	2.24
440.132	2.29
440.338	2.24
440.544	2.27
440.751	2.23
440.957	2.28
441.163	2.22
441.369	2.2
441.575	2.17
441.782	2.28
441.988	2.27
442.194	2.31
442.4	2.35
442.606	2.5
442.812	2.46
443.018	2.41
443.224	2.55
443.431	2.53
443.637	2.36
443.843	2.42
444.049	2.49
444.255	2.35
444.461	2.29
444.667	2.46
444.873	2.37
445.079	2.38
445.284	2.45
445.49	2.52
445.696	2.43
445.902	2.45
446.108	2.39
446.314	2.38
446.52	2.51
446.726	2.55
446.931	2.55
447.137	2.52
447.343	2.61
447.549	2.44
447.755	2.44
447.96	2.44
448.166	2.54
448.372	2.46
448.578	2.47
448.783	2.45
448.989	2.55
449.195	2.52
449.4	2.51
449.606	2.46
449.812	2.45
450.017	2.37
450.223	2.37
450.428	2.35
450.634	2.37
450.84	2.44
451.045	2.46
451.251	2.51
451.456	2.55
451.662	2.59
451.867	2.63
452.073	2.61
452.278	2.53
452.483	2.49
452.689	2.51
452.894	2.57
453.1	2.59
453.305	2.62
453.51	2.68
453.716	2.63
453.921	2.61
454.127	2.57
454.332	2.58
454.537	2.5
454.742	2.51
454.948	2.4
455.153	2.46
455.358	2.4
455.563	2.58
455.769	2.62
455.974	2.65
456.179	2.63
456.384	2.58
456.589	2.4
456.795	2.4
457	2.35
457.205	2.25
457.41	2.31
457.615	2.3
457.82	2.39
458.025	2.41
458.23	2.43
458.435	2.44
458.64	2.54
458.845	2.5
459.05	2.54
459.255	2.63
459.46	2.63
459.665	2.58
459.87	2.5
460.075	2.55
460.28	2.53
460.485	2.66
460.69	2.74
460.895	2.9
461.099	2.75
461.304	2.7
461.509	2.58
461.714	2.58
461.919	2.46
462.123	2.59
462.328	2.57
462.533	2.58
462.738	2.45
462.942	2.43
463.147	2.37
463.352	2.41
463.556	2.47
463.761	2.5
463.966	2.51
464.17	2.58
464.375	2.68
464.58	2.61
464.784	2.72
464.989	2.71
465.193	2.68
465.398	2.62
465.602	2.78
465.807	2.73
466.011	2.77
466.216	2.73
466.42	2.79
466.625	2.79
466.829	2.78
467.034	2.86
467.238	2.98
467.443	2.95
467.647	2.83
467.851	2.89
468.056	2.84
468.26	2.82
