Data from Ofra_2a_PS_9CX5_Reflection_3.txt Node
Date: Tue Jul 20 09:58:41 EDT 2021
User: Adam
Spectrometer: FLMT01687
Trigger mode: 0
Integration Time (sec): 9.450000E-1
Scans to average: 3
Electric dark correction enabled: true
Nonlinearity correction enabled: false
Boxcar width: 3
XAxis mode: Wavelengths
Number of Pixels in Spectrum: 3648
>>>>>Begin Spectral Data<<<<<
179.494	1526.04
179.716	930.72
179.937	977.47
180.158	4358.98
180.38	-2274.13
180.601	-485.04
180.823	-225.14
181.044	-240.14
181.265	-258.25
181.486	-30.08
181.708	-351.09
181.929	47.56
182.15	436.93
182.372	-133.3
182.593	-143.92
182.814	445.66
183.035	133.99
183.257	58.82
183.478	45.35
183.699	17.77
183.92	19.19
184.141	23.09
184.363	25.56
184.584	28.65
184.805	42.18
185.026	45.91
185.247	46.28
185.468	32
185.689	25.39
185.91	15.3
186.132	21.09
186.353	-1.27
186.574	-5.3
186.795	-26.19
187.016	-17.72
187.237	-28.23
187.458	-52.7
187.679	-63.68
187.9	-51.41
188.121	-49.82
188.342	10.35
188.563	7.52
188.784	16.38
189.005	29.39
189.226	22.47
189.447	17.23
189.667	31.1
189.888	36.13
190.109	36.02
190.33	34.35
190.551	29.09
190.772	24.21
190.993	34.93
191.214	34.71
191.434	20.75
191.655	35.45
191.876	36.3
192.097	29.68
192.318	22.77
192.538	14.94
192.759	6.13
192.98	-5.03
193.201	-7.25
193.421	-0.67
193.642	1.4
193.863	3.22
194.083	-2.17
194.304	3.8
194.525	23.8
194.745	6.89
194.966	-0.11
195.187	3.08
195.407	5.31
195.628	12.76
195.848	6.52
196.069	4.91
196.29	-4.41
196.51	-2.41
196.731	-3.24
196.951	-10.72
197.172	-27.49
197.392	0.55
197.613	-8.81
197.833	-3.81
198.054	-6.95
198.274	-32.42
198.495	-29.07
198.715	-25.53
198.936	-61.67
199.156	-36.93
199.377	-31.77
199.597	-45.45
199.817	-20.14
200.038	-26.19
200.258	-25.72
200.479	-8.49
200.699	-18.7
200.919	-44.5
201.14	-23.32
201.36	-10.22
201.58	10.23
201.801	9.88
202.021	5.35
202.241	4.45
202.461	30.52
202.682	34.71
202.902	31.38
203.122	18.24
203.342	27.81
203.563	22.17
203.783	25.68
204.003	21.24
204.223	19.77
204.443	16.36
204.663	20.97
204.884	5.46
205.104	7.01
205.324	22.38
205.544	25.28
205.764	18.59
205.984	18.68
206.204	20.14
206.424	28.65
206.644	23.78
206.864	7.24
207.084	18.95
207.304	12.92
207.525	10.26
207.745	18.12
207.964	18.1
208.184	21.1
208.404	23.6
208.624	-4.48
208.844	-9.08
209.064	-10.64
209.284	-10.95
209.504	-18.6
209.724	-53.68
209.944	-54
210.164	-27.93
210.384	-16.95
210.604	-17.96
210.823	-44.83
211.043	-31.92
211.263	-10.74
211.483	-10.12
211.703	-5.18
211.922	-4.03
212.142	-5.75
212.362	4.77
212.582	-3.57
212.801	-5.01
213.021	-2.49
213.241	-18.71
213.461	-23.14
213.68	-7.99
213.9	-0.67
214.12	8.09
214.339	5.92
214.559	6.96
214.779	16.1
214.998	25.37
215.218	26.51
215.438	36.02
215.657	25.58
215.877	29.04
216.096	26.46
216.316	19.34
216.535	4.36
216.755	-26.76
216.974	-35.7
217.194	-41.63
217.413	-14.58
217.633	-21.55
217.852	-26.54
218.072	-33.9
218.291	12.49
218.511	7.11
218.73	7.69
218.95	-6.6
219.169	-12.02
219.389	-15.15
219.608	1.1
219.827	-17.75
220.047	-11.09
220.266	-1.53
220.485	-6.04
220.705	-8.36
220.924	-7.35
221.143	-18.57
221.363	-16.93
221.582	-26.98
221.801	-21.59
222.021	-15.41
222.24	-17.08
222.459	-14.87
222.678	-22.83
222.897	-27.44
223.117	-23.56
223.336	-32.08
223.555	-37.52
223.774	-20.23
223.993	13
224.213	19.81
224.432	41.1
224.651	48.59
224.87	50.6
225.089	49.97
225.308	47.79
225.527	29.39
225.746	25.52
225.965	4.79
226.184	-2.41
226.404	-25.31
226.623	-12.95
226.842	-2.82
227.061	-2.32
227.28	6.88
227.499	19.73
227.718	20.83
227.936	29.79
228.155	24.83
228.374	12.1
228.593	11.68
228.812	6.5
229.031	-2.18
229.25	10.03
229.469	16.46
229.688	24.93
229.907	29.7
230.125	33.02
230.344	36.5
230.563	47.19
230.782	35.04
231.001	29.89
231.22	18.03
231.438	20.38
231.657	14.76
231.876	23.53
232.095	20.64
232.313	27.38
232.532	33.38
232.751	37.49
232.969	42.51
233.188	41.92
233.407	24.63
233.625	16.44
233.844	22.47
234.063	14.17
234.281	12.75
234.5	15.32
234.719	6.44
234.937	18.67
235.156	14.32
235.374	4.52
235.593	13.77
235.811	5.67
236.03	-21.28
236.249	-2.58
236.467	-9.6
236.686	6.19
236.904	9.02
237.123	6.79
237.341	16.32
237.559	25.23
237.778	34.53
237.996	35.02
238.215	23.7
238.433	30.09
238.652	25.24
238.87	20.19
239.088	12.29
239.307	8.21
239.525	2.3
239.743	-5.13
239.962	-16.02
240.18	-5.82
240.398	-1.88
240.617	9.26
240.835	2.68
241.053	8.05
241.271	20.83
241.49	14.84
241.708	5
241.926	-13.27
242.144	-17.01
242.363	-17.84
242.581	-14.58
242.799	-21.41
243.017	-13.98
243.235	-18.5
243.453	-6.5
243.672	0.01
243.89	3.71
244.108	13.61
244.326	5.77
244.544	14.45
244.762	23.77
244.98	28.92
245.198	20.24
245.416	23.17
245.634	26.41
245.852	33.47
246.07	34.78
246.288	30.7
246.506	45.79
246.724	50.36
246.942	52.83
247.16	35.37
247.378	30.86
247.596	26.9
247.814	7.96
248.032	-6.31
248.25	-11.42
248.468	-10.88
248.685	-8.04
248.903	-12.97
249.121	-11.71
249.339	14.66
249.557	13.53
249.775	-4.04
249.992	-9.01
250.21	-8
250.428	-8.62
250.646	-9.81
250.863	-20.15
251.081	-16.44
251.299	2.79
251.517	13.2
251.734	10.65
251.952	20.53
252.17	6.11
252.387	10.53
252.605	4.47
252.823	-13.34
253.04	-13.75
253.258	-10.7
253.475	-8.21
253.693	15.99
253.911	16.94
254.128	13.42
254.346	17.67
254.563	11.34
254.781	8.07
254.998	18.4
255.216	6.53
255.433	10.36
255.651	9.28
255.868	13.29
256.086	9.08
256.303	20.05
256.521	-5.07
256.738	-0.4
256.956	-15.66
257.173	-2.22
257.39	-0.32
257.608	9.28
257.825	-5.77
258.043	8.32
258.26	3.32
258.477	9.88
258.695	3.66
258.912	9.9
259.129	-1.64
259.346	13.19
259.564	1.33
259.781	14.98
259.998	15.79
260.216	23.43
260.433	16.12
260.65	19.15
260.867	-6.83
261.084	3.18
261.302	-5.3
261.519	-25.64
261.736	-34.53
261.953	-32.22
262.17	-20.51
262.387	-4.27
262.604	-16.04
262.822	-9.95
263.039	-0.6
263.256	-3.2
263.473	-1.84
263.69	-0.19
263.907	5.79
264.124	4.8
264.341	6.2
264.558	10.15
264.775	15.35
264.992	8.29
265.209	13.89
265.426	9.84
265.643	14.13
265.86	5.97
266.077	6.39
266.294	6.07
266.51	7.63
266.727	-11.34
266.944	-22.59
267.161	-29.18
267.378	-26.33
267.595	-37.86
267.812	-33.3
268.028	-25.29
268.245	-6.97
268.462	0.92
268.679	-1.36
268.896	-7.88
269.112	3.4
269.329	1.98
269.546	0.73
269.763	-2.75
269.979	1.59
270.196	8.54
270.413	12.45
270.629	14.12
270.846	12.04
271.063	14.3
271.279	8.12
271.496	-7.21
271.712	-3.86
271.929	-2.46
272.146	2.39
272.362	-8.41
272.579	-15.8
272.795	-9.3
273.012	1.3
273.228	-6.3
273.445	-1.06
273.661	-11.06
273.878	0.08
274.094	8.55
274.311	13.81
274.527	10.17
274.744	3.51
274.96	-0.07
275.177	8.12
275.393	12.19
275.609	15.32
275.826	8.94
276.042	17.15
276.259	20.47
276.475	18.19
276.691	18.52
276.908	10.92
277.124	2.69
277.34	-1
277.557	1.38
277.773	0.76
277.989	2.15
278.205	-1.33
278.422	10.74
278.638	22.15
278.854	22.23
279.07	6.28
279.286	10.69
279.503	11.41
279.719	17.11
279.935	-1.28
280.151	-2.24
280.367	-2.47
280.583	10.87
280.799	13.18
281.016	8.93
281.232	-0.97
281.448	2.36
281.664	-4.33
281.88	7.84
282.096	7.9
282.312	-4.51
282.528	-1.46
282.744	-4.61
282.96	0.74
283.176	5.01
283.392	2.39
283.608	-0.94
283.824	1.31
284.04	7.12
284.256	9.81
284.471	13.82
284.687	8.53
284.903	5.37
285.119	-14.05
285.335	-8.01
285.551	-8.55
285.767	-1.66
285.982	-0.17
286.198	1.19
286.414	18.22
286.63	26.88
286.846	24.3
287.061	36.32
287.277	28.06
287.493	28.99
287.709	27.99
287.924	22.3
288.14	23.6
288.356	31.72
288.571	7.33
288.787	19.94
289.003	14.87
289.218	15.6
289.434	9.27
289.65	25.76
289.865	26.28
290.081	27.44
290.296	17.43
290.512	23.52
290.727	23.21
290.943	11.41
291.159	-1
291.374	3.71
291.59	4.62
291.805	14.23
292.021	4.46
292.236	1.79
292.451	13.22
292.667	12.46
292.882	-3.06
293.098	-3.35
293.313	-15.73
293.529	-10.97
293.744	-5.94
293.959	-4.52
294.175	-10.6
294.39	-9.16
294.605	-6.67
294.821	-0.18
295.036	-3.34
295.251	-2.93
295.467	-12.58
295.682	-0.99
295.897	-1.8
296.112	-2.33
296.328	-2.16
296.543	-16.87
296.758	-17.38
296.973	-10.61
297.188	-22.14
297.404	-19.11
297.619	-19.69
297.834	-8.8
298.049	2.14
298.264	6.37
298.479	-3.53
298.694	12.23
298.909	13.67
299.125	16.16
299.34	9.53
299.555	18.93
299.77	7.71
299.985	4.58
300.2	-3.65
300.415	3
300.63	-6.98
300.845	0.13
301.06	-8.03
301.275	2.38
301.49	13.77
301.704	11.26
301.919	4.94
302.134	0.21
302.349	-6.56
302.564	-5.11
302.779	-8.59
302.994	-18.27
303.209	-22.19
303.423	-14.64
303.638	9.76
303.853	16.58
304.068	18.4
304.283	11.85
304.497	15.93
304.712	20.37
304.927	16.59
305.142	15.68
305.356	12.03
305.571	11.52
305.786	12.75
306	12.67
306.215	17.64
306.43	19.1
306.644	13.19
306.859	13.72
307.074	10.62
307.288	7.98
307.503	12.13
307.717	1.36
307.932	0.28
308.147	0.58
308.361	1.87
308.576	2.94
308.79	6.26
309.005	7.02
309.219	16.57
309.434	12.57
309.648	-3.83
309.863	-9.56
310.077	-17
310.292	-14.52
310.506	-5.65
310.72	-9.78
310.935	-5.91
311.149	4.26
311.364	15.97
311.578	17.8
311.792	15.31
312.007	-0.35
312.221	3.68
312.435	5.03
312.649	18.52
312.864	14.86
313.078	24.23
313.292	21.61
313.507	40.71
313.721	33.66
313.935	42.49
314.149	31.2
314.363	30.35
314.578	39.78
314.792	39.29
315.006	36.61
315.22	43.12
315.434	33.82
315.648	30.85
315.862	21.48
316.077	7.5
316.291	10.14
316.505	9.11
316.719	-11.81
316.933	-6.15
317.147	-11.05
317.361	-1.61
317.575	11.26
317.789	9.09
318.003	16.61
318.217	27.03
318.431	30.75
318.645	40.18
318.859	23.48
319.073	8.19
319.287	12.77
319.5	5.2
319.714	6.02
319.928	7.24
320.142	-1.05
320.356	18.75
320.57	21.21
320.784	19.28
320.997	20.84
321.211	19.68
321.425	11.06
321.639	22.46
321.853	19.01
322.066	18.17
322.28	18
322.494	16.7
322.707	9.06
322.921	11.1
323.135	1.22
323.349	-1.41
323.562	1.42
323.776	0.01
323.989	-0.47
324.203	10.67
324.417	6
324.63	-5.72
324.844	-12.63
325.057	-3.04
325.271	-8.99
325.485	-5.31
325.698	-16.29
325.912	-7.27
326.125	16.39
326.339	23.69
326.552	16.91
326.766	29.54
326.979	25.82
327.193	31.96
327.406	33.1
327.619	4.79
327.833	-6.29
328.046	-5.47
328.26	-15.51
328.473	-9.97
328.686	-7.26
328.9	-14.57
329.113	-6.63
329.326	2.48
329.54	2.86
329.753	-0.31
329.966	-1.51
330.179	3.34
330.393	5.33
330.606	6.33
330.819	9.5
331.032	8.36
331.246	4.96
331.459	4.33
331.672	0.59
331.885	0.43
332.098	7.15
332.311	-4.33
332.525	10.68
332.738	18.96
332.951	21.77
333.164	12.7
333.377	5.5
333.59	14.89
333.803	23.04
334.016	8.44
334.229	5.55
334.442	15.74
334.655	31.3
334.868	47.23
335.081	40.22
335.294	33.04
335.507	35
335.72	28.55
335.933	26.5
336.146	17.3
336.359	10.74
336.572	10.38
336.785	14.69
336.997	14.8
337.21	17.36
337.423	6.9
337.636	7.79
337.849	2.71
338.062	0.01
338.274	-2.42
338.487	-3.81
338.7	-1.3
338.913	-1.9
339.125	1.67
339.338	10.68
339.551	10.08
339.763	7.86
339.976	13.43
340.189	10.7
340.402	9.96
340.614	10.8
340.827	-3.62
341.039	-0.67
341.252	2.96
341.465	-7.92
341.677	-13.92
341.89	-12.57
342.102	-12.92
342.315	5.82
342.527	0.95
342.74	4.32
342.952	15.14
343.165	34.48
343.377	39.77
343.59	41.09
343.802	26.44
344.015	33.64
344.227	23.17
344.44	12.42
344.652	10.59
344.864	13.4
345.077	11.8
345.289	15.42
345.502	9.1
345.714	8.07
345.926	16.87
346.139	0.64
346.351	-21.96
346.563	-22.48
346.775	-24.67
346.988	-17.06
347.2	-2.31
347.412	1.22
347.624	12.69
347.837	16.97
348.049	21.43
348.261	25.4
348.473	19.36
348.685	24.43
348.897	21.4
349.11	17.24
349.322	18.12
349.534	-2.63
349.746	-0.77
349.958	10.88
350.17	1.77
350.382	-7.35
350.594	-6.37
350.806	1.02
351.018	19.11
351.23	23.16
351.442	14.59
351.654	14.27
351.866	25.58
352.078	19.72
352.29	19.66
352.502	11.84
352.714	6.66
352.926	5
353.138	3.84
353.35	-3.32
353.561	-9.38
353.773	-6.78
353.985	-0.41
354.197	-11.24
354.409	-11.64
354.621	-6.83
354.832	-13.18
355.044	4.8
355.256	-4.64
355.468	-7.44
355.679	11.67
355.891	13.12
356.103	8.63
356.314	17.83
356.526	6.22
356.738	8.96
356.949	6.8
357.161	-3.96
357.373	-4.47
357.584	6.02
357.796	-5.68
358.008	-0.6
358.219	3.7
358.431	6.1
358.642	3
358.854	5.09
359.065	1.01
359.277	5.51
359.488	4.36
359.7	6.95
359.911	6.07
360.123	15.19
360.334	11.16
360.546	-5.42
360.757	2.51
360.969	10.82
361.18	3.32
361.391	4.84
361.603	5.35
361.814	7.35
362.025	13.89
362.237	11.1
362.448	8.76
362.659	0.19
362.871	-1.11
363.082	5.31
363.293	7.96
363.504	12.81
363.716	10.63
363.927	9.4
364.138	20.61
364.349	20.21
364.56	9.31
364.772	3.2
364.983	-5.09
365.194	-3.28
365.405	-5.96
365.616	-14.93
365.827	-18.14
366.038	-9.15
366.25	-1.74
366.461	8.99
366.672	5.52
366.883	10.65
367.094	8.06
367.305	8.45
367.516	0.35
367.727	-1.38
367.938	-7.88
368.149	-6.63
368.36	-9.07
368.571	-8.99
368.781	-7.16
368.992	1.31
369.203	-5.8
369.414	-3.89
369.625	-2.48
369.836	-2.57
370.047	5.16
370.258	6.64
370.468	3.12
370.679	9.99
370.89	13.9
371.101	8.21
371.312	4.8
371.522	5.34
371.733	-5.01
371.944	-2.08
372.155	-13.91
372.365	-17.08
372.576	-12.78
372.787	-5.07
372.997	-10.39
373.208	-1.88
373.419	-3.92
373.629	5.93
373.84	2.07
374.05	3.98
374.261	-5.22
374.472	-4.79
374.682	-5.4
374.893	-8.46
375.103	-1.13
375.314	4.41
375.524	1.76
375.735	5.75
375.945	6.89
376.156	10.43
376.366	13.32
376.577	13.8
376.787	17.72
376.997	21.36
377.208	16.24
377.418	14.95
377.629	11.45
377.839	17.04
378.049	19.72
378.26	15.75
378.47	20.15
378.68	21.33
378.89	14.67
379.101	5.74
379.311	-6.37
379.521	-6.77
379.732	-18.03
379.942	-22.21
380.152	-18.9
380.362	-4.63
380.572	5.18
380.783	7.69
380.993	-0.41
381.203	9.68
381.413	11.71
381.623	11.82
381.833	4.34
382.043	0.1
382.253	1.64
382.463	4.63
382.674	3.46
382.884	-1.89
383.094	-3.01
383.304	2.21
383.514	5.73
383.724	0.52
383.934	0.44
384.144	1.8
384.353	7.04
384.563	6.19
384.773	6.09
384.983	5.9
385.193	14.5
385.403	16.51
385.613	11.85
385.823	8.32
386.033	8.48
386.242	7.42
386.452	6.5
386.662	1.4
386.872	-2.52
387.082	-1.74
387.291	-3.03
387.501	-5.22
387.711	-5.4
387.921	-6.79
388.13	-5.31
388.34	-3.42
388.55	0.19
388.759	2.47
388.969	1.85
389.179	4.67
389.388	7.01
389.598	3.89
389.807	1.89
390.017	0.5
390.227	0.26
390.436	2.38
390.646	0.12
390.855	-0.46
391.065	1.76
391.274	1.68
391.484	2.84
391.693	1.64
391.903	1.66
392.112	1.65
392.322	2.7
392.531	2.93
392.74	1.99
392.95	1.6
393.159	2.49
393.369	2.1
393.578	1.96
393.787	1.31
393.997	2.21
394.206	3.5
394.415	3.59
394.625	1.65
394.834	1.12
395.043	1.61
395.252	2.42
395.462	1.61
395.671	2.16
395.88	1.78
396.089	3.29
396.298	3.54
396.508	3.34
396.717	2.54
396.926	2.39
397.135	1.94
397.344	1.82
397.553	1.82
397.762	1.95
397.971	1.5
398.181	1.32
398.39	1.63
398.599	1.91
398.808	2.06
399.017	2.06
399.226	2.28
399.435	2.42
399.644	2.73
399.853	2.46
400.062	2.27
400.27	2.24
400.479	2.06
400.688	2.22
400.897	2.45
401.106	2.41
401.315	2.46
401.524	2.62
401.733	2.82
401.941	2.89
402.15	2.6
402.359	2.59
402.568	2.63
402.777	2.5
402.985	2.33
403.194	2.18
403.403	1.97
403.612	2.02
403.82	1.93
404.029	1.79
404.238	1.92
404.446	1.96
404.655	1.92
404.864	1.94
405.072	1.93
405.281	1.86
405.489	1.96
405.698	1.89
405.906	1.8
406.115	1.76
406.324	1.76
406.532	1.84
406.741	1.96
406.949	1.9
407.158	1.97
407.366	2.13
407.574	2.21
407.783	2.13
407.991	1.99
408.2	1.89
408.408	1.93
408.617	1.89
408.825	1.87
409.033	1.81
409.242	1.89
409.45	1.93
409.658	1.97
409.867	1.92
410.075	1.85
410.283	1.72
410.491	1.7
410.7	1.71
410.908	1.71
411.116	1.63
411.324	1.65
411.533	1.64
411.741	1.62
411.949	1.67
412.157	1.82
412.365	1.82
412.573	1.85
412.781	1.88
412.99	1.99
413.198	2.07
413.406	1.98
413.614	1.89
413.822	1.85
414.03	1.77
414.238	1.74
414.446	1.63
414.654	1.59
414.862	1.54
415.07	1.54
415.278	1.48
415.486	1.62
415.694	1.54
415.902	1.47
416.109	1.53
416.317	1.55
416.525	1.56
416.733	1.66
416.941	1.63
417.149	1.77
417.357	1.79
417.564	1.7
417.772	1.79
417.98	1.67
418.188	1.59
418.395	1.58
418.603	1.42
418.811	1.37
419.019	1.42
419.226	1.46
419.434	1.44
419.642	1.4
419.849	1.43
420.057	1.45
420.265	1.51
420.472	1.49
420.68	1.42
420.887	1.5
421.095	1.67
421.302	1.67
421.51	1.78
421.717	1.88
421.925	1.81
422.132	1.76
422.34	1.69
422.547	1.58
422.755	1.52
422.962	1.38
423.17	1.33
423.377	1.46
423.585	1.47
423.792	1.58
423.999	1.61
424.207	1.47
424.414	1.59
424.621	1.59
424.829	1.44
425.036	1.39
425.243	1.36
425.451	1.38
425.658	1.53
425.865	1.39
426.072	1.45
426.28	1.47
426.487	1.49
426.694	1.46
426.901	1.36
427.108	1.31
427.315	1.43
427.523	1.39
427.73	1.46
427.937	1.47
428.144	1.48
428.351	1.57
428.558	1.46
428.765	1.28
428.972	1.3
429.179	1.22
429.386	1.26
429.593	1.26
429.8	1.25
430.007	1.38
430.214	1.45
430.421	1.41
430.628	1.27
430.835	1.18
431.042	1.22
431.249	1.22
431.456	1.24
431.662	1.32
431.869	1.34
432.076	1.54
432.283	1.49
432.49	1.44
432.697	1.44
432.903	1.42
433.11	1.4
433.317	1.42
433.524	1.31
433.73	1.39
433.937	1.35
434.144	1.49
434.35	1.5
434.557	1.48
434.764	1.47
434.97	1.57
435.177	1.59
435.384	1.68
435.59	1.55
435.797	1.59
436.003	1.6
436.21	1.55
436.416	1.52
436.623	1.57
436.829	1.53
437.036	1.56
437.242	1.55
437.449	1.6
437.655	1.62
437.862	1.61
438.068	1.64
438.275	1.68
438.481	1.73
438.687	1.79
438.894	1.7
439.1	1.71
439.307	1.77
439.513	1.7
439.719	1.72
439.926	1.72
440.132	1.68
440.338	1.76
440.544	1.75
440.751	1.76
440.957	1.72
441.163	1.74
441.369	1.68
441.575	1.67
441.782	1.59
441.988	1.62
442.194	1.63
442.4	1.72
442.606	1.68
442.812	1.73
443.018	1.71
443.224	1.8
443.431	1.85
443.637	1.79
443.843	1.84
444.049	1.81
444.255	1.72
444.461	1.74
444.667	1.72
444.873	1.72
445.079	1.78
445.284	1.72
445.49	1.68
445.696	1.75
445.902	1.74
446.108	1.76
446.314	1.78
446.52	1.75
446.726	1.75
446.931	1.81
447.137	1.84
447.343	1.86
447.549	1.86
447.755	1.84
447.96	1.86
448.166	1.92
448.372	1.94
448.578	1.94
448.783	1.89
448.989	1.92
449.195	1.9
449.4	1.9
449.606	1.83
449.812	1.83
450.017	1.8
450.223	1.8
450.428	1.78
450.634	1.82
450.84	1.83
451.045	1.85
451.251	1.88
451.456	1.9
451.662	1.92
451.867	1.94
452.073	1.87
452.278	1.86
452.483	1.86
452.689	1.83
452.894	1.83
453.1	1.8
453.305	1.81
453.51	1.82
453.716	1.83
453.921	1.79
454.127	1.78
454.332	1.76
454.537	1.83
454.742	1.79
454.948	1.77
455.153	1.78
455.358	1.87
455.563	1.86
455.769	1.88
455.974	1.82
456.179	1.81
456.384	1.9
456.589	1.9
456.795	1.82
457	1.88
457.205	1.88
457.41	1.96
457.615	1.99
457.82	2.01
458.025	1.98
458.23	2.02
458.435	1.96
458.64	2
458.845	1.95
459.05	1.95
459.255	1.89
459.46	1.91
459.665	1.95
459.87	1.95
460.075	1.93
460.28	1.95
460.485	2
460.69	1.98
460.895	2
461.099	1.93
461.304	1.93
461.509	1.83
461.714	1.84
461.919	1.8
462.123	1.86
462.328	1.87
462.533	1.9
462.738	1.89
462.942	2.01
463.147	2.01
463.352	2.01
463.556	2.01
463.761	1.98
463.966	2.01
464.17	2.03
464.375	1.98
464.58	1.95
464.784	1.94
464.989	1.91
465.193	1.92
465.398	1.95
465.602	1.94
465.807	1.99
466.011	2.07
466.216	2.13
466.42	2.16
466.625	2.18
466.829	2.2
467.034	2.26
467.238	2.27
467.443	2.24
467.647	2.25
467.851	2.24
468.056	2.26
468.26	2.21
468.464	2.2
468.669	2.23
468.873	2.23
469.077	2.25
469.282	2.32
469.486	2.32
469.69	2.31
469.894	2.34
470.099	2.35
