Data from Ofra_2a_PS_2GT41_Reflection_3.txt Node
Date: Tue Jul 20 09:43:59 EDT 2021
User: Adam
Spectrometer: FLMT01687
Trigger mode: 0
Integration Time (sec): 9.450000E-1
Scans to average: 3
Electric dark correction enabled: true
Nonlinearity correction enabled: false
Boxcar width: 3
XAxis mode: Wavelengths
Number of Pixels in Spectrum: 3648
>>>>>Begin Spectral Data<<<<<
179.494	839.64
179.716	488.29
179.937	584.07
180.158	1920.7
180.38	-888.66
180.601	-110.13
180.823	-33.49
181.044	60.06
181.265	-55.62
181.486	78.68
181.708	355.43
181.929	54.77
182.15	-530.11
182.372	85.29
182.593	127.14
182.814	171.11
183.035	80.89
183.257	19.87
183.478	20.18
183.699	32.23
183.92	25.55
184.141	27.27
184.363	17.21
184.584	16.83
184.805	21.82
185.026	4.7
185.247	2.43
185.468	9.34
185.689	19.99
185.91	17.3
186.132	12.88
186.353	6.85
186.574	10.01
186.795	-2.23
187.016	-1.26
187.237	-5.11
187.458	-16.88
187.679	-18.04
187.9	-20.19
188.121	-5.92
188.342	29.75
188.563	44.65
188.784	37.36
189.005	33.07
189.226	25.17
189.447	17.25
189.667	24.24
189.888	21.33
190.109	18.46
190.33	16.49
190.551	15.69
190.772	10.15
190.993	19.76
191.214	11.63
191.434	4.98
191.655	6.71
191.876	21.98
192.097	19.52
192.318	29.38
192.538	30.77
192.759	38.48
192.98	31.82
193.201	40.23
193.421	40.64
193.642	44.11
193.863	45.79
194.083	39.47
194.304	19.99
194.525	38.55
194.745	7.45
194.966	11.36
195.187	25.69
195.407	25.3
195.628	28.17
195.848	34.75
196.069	31.17
196.29	39.07
196.51	21.7
196.731	34.74
196.951	30.6
197.172	16.92
197.392	26.01
197.613	19.4
197.833	19.37
198.054	23.89
198.274	-2.59
198.495	3.38
198.715	1.7
198.936	-21.61
199.156	-5.92
199.377	8.62
199.597	1.23
199.817	21.67
200.038	15.46
200.258	23.26
200.479	33.3
200.699	33.47
200.919	8.06
201.14	19.76
201.36	18.08
201.58	20.07
201.801	20.45
202.021	6.09
202.241	7.26
202.461	20.18
202.682	25.6
202.902	26.56
203.122	19.7
203.342	31.28
203.563	34.13
203.783	30.08
204.003	31.47
204.223	27.9
204.443	19.6
204.663	26.11
204.884	19.53
205.104	25.74
205.324	34.87
205.544	38.94
205.764	31.73
205.984	26.06
206.204	36.67
206.424	38.97
206.644	39.81
206.864	32.1
207.084	44.56
207.304	41.05
207.525	45.03
207.745	48.33
207.964	41.98
208.184	31.37
208.404	23.73
208.624	-6.43
208.844	3.24
209.064	9.9
209.284	-7.03
209.504	-0.33
209.724	-21.85
209.944	-16.21
210.164	-8.77
210.384	-19.05
210.604	-37.46
210.823	-32.61
211.043	-30.79
211.263	-13.65
211.483	-5.34
211.703	2.47
211.922	13.04
212.142	22.02
212.362	39.01
212.582	29.31
212.801	35.32
213.021	37.15
213.241	26.74
213.461	21.72
213.68	16.84
213.9	9.44
214.12	6.93
214.339	1.83
214.559	1
214.779	17.86
214.998	27.46
215.218	31.68
215.438	34.77
215.657	32.77
215.877	31.25
216.096	31.89
216.316	28.83
216.535	17.95
216.755	5.4
216.974	-2.57
217.194	-12.47
217.413	0.72
217.633	-4.08
217.852	-14.59
218.072	-20.83
218.291	14.05
218.511	8.5
218.73	10.2
218.95	7.98
219.169	15.2
219.389	8.73
219.608	12.08
219.827	-6.98
220.047	-0.86
220.266	11.51
220.485	11.18
220.705	1.03
220.924	10.92
221.143	16.7
221.363	7.03
221.582	13.8
221.801	13.88
222.021	15.54
222.24	17.34
222.459	-2.04
222.678	-20.49
222.897	-6.86
223.117	-12.11
223.336	-12.99
223.555	-27.19
223.774	-6.12
223.993	15.38
224.213	19.33
224.432	23.96
224.651	26.27
224.87	37.37
225.089	48.77
225.308	41.41
225.527	37.99
225.746	39.28
225.965	35.01
226.184	40.12
226.404	22.42
226.623	23.6
226.842	20.56
227.061	29.23
227.28	39
227.499	43.84
227.718	35.08
227.936	35.48
228.155	35.68
228.374	34.22
228.593	27.09
228.812	20.81
229.031	1.93
229.25	6.29
229.469	11.55
229.688	12.17
229.907	4.38
230.125	12.99
230.344	11.69
230.563	28.29
230.782	24.11
231.001	22.16
231.22	17
231.438	27.82
231.657	28.02
231.876	25.58
232.095	26.61
232.313	35.33
232.532	33.79
232.751	40.58
232.969	36.59
233.188	28.66
233.407	31.64
233.625	35.26
233.844	31.61
234.063	35.6
234.281	30.21
234.5	32.7
234.719	32.5
234.937	36.42
235.156	29.3
235.374	18.97
235.593	20.32
235.811	7.62
236.03	-9.68
236.249	-4.04
236.467	1.37
236.686	0.86
236.904	-1.93
237.123	2.16
237.341	14.86
237.559	22.27
237.778	29.32
237.996	27.87
238.215	15.9
238.433	24.06
238.652	19.39
238.87	21.13
239.088	11.13
239.307	10.31
239.525	3.53
239.743	6.04
239.962	7.03
240.18	18.23
240.398	15.97
240.617	31.09
240.835	31.61
241.053	37.07
241.271	37.74
241.49	28.84
241.708	15.85
241.926	4.91
242.144	-7.79
242.363	-15.63
242.581	-14.94
242.799	-23.45
243.017	-8.42
243.235	-16.7
243.453	-9.65
243.672	-2.4
243.89	4.87
244.108	10.02
244.326	14.07
244.544	14.58
244.762	26.5
244.98	27.16
245.198	14.56
245.416	15.43
245.634	26.43
245.852	25.01
246.07	23.11
246.288	11.79
246.506	12.16
246.724	34.71
246.942	30.77
247.16	15.48
247.378	13.61
247.596	21.24
247.814	19.62
248.032	17.23
248.25	0.03
248.468	8.22
248.685	13.59
248.903	10.68
249.121	4.79
249.339	10.79
249.557	13.37
249.775	8.03
249.992	3.59
250.21	-8.5
250.428	-10.66
250.646	-6.4
250.863	-9.27
251.081	-13.7
251.299	6.83
251.517	8.99
251.734	26.45
251.952	51.5
252.17	40.13
252.387	39.1
252.605	34.93
252.823	22.48
253.04	24.76
253.258	22.96
253.475	11.42
253.693	25.11
253.911	36.1
254.128	37.3
254.346	39.06
254.563	31.49
254.781	26.82
254.998	16.82
255.216	8.79
255.433	1.5
255.651	-2.99
255.868	0.11
256.086	1.95
256.303	-0.7
256.521	-4.42
256.738	1.67
256.956	-4.07
257.173	3.32
257.39	-4.7
257.608	-4.77
257.825	-10.97
258.043	5.93
258.26	0.26
258.477	10.99
258.695	10.29
258.912	21.02
259.129	18.36
259.346	28.64
259.564	19.81
259.781	29.8
259.998	28.36
260.216	26.97
260.433	16.22
260.65	26.77
260.867	15.06
261.084	24.63
261.302	13.6
261.519	11.13
261.736	-0.53
261.953	9.4
262.17	-3.18
262.387	-3.49
262.604	-22.39
262.822	-15.12
263.039	-14.18
263.256	-4.87
263.473	-12.65
263.69	-16.37
263.907	3.2
264.124	4.17
264.341	1.63
264.558	3.35
264.775	3.58
264.992	7.65
265.209	22.61
265.426	18.88
265.643	21.49
265.86	18.59
266.077	22.48
266.294	25.91
266.51	29.75
266.727	19.44
266.944	12.58
267.161	8.16
267.378	9.94
267.595	-7.61
267.812	-12.31
268.028	-10.07
268.245	-5.84
268.462	-4.71
268.679	-1.34
268.896	-3.43
269.112	8.45
269.329	15.63
269.546	6.64
269.763	12.76
269.979	12.58
270.196	22.8
270.413	28.52
270.629	22.09
270.846	16.59
271.063	26.07
271.279	22.05
271.496	10.81
271.712	-3.17
271.929	5.04
272.146	11.04
272.362	0.12
272.579	-15.41
272.795	-16.24
273.012	3.9
273.228	4.31
273.445	-1.78
273.661	0.18
273.878	14.56
274.094	22.32
274.311	27.26
274.527	25.57
274.744	28.92
274.96	26.07
275.177	31.14
275.393	25.18
275.609	36.17
275.826	33.5
276.042	37.82
276.259	45.2
276.475	33.82
276.691	28.37
276.908	29.24
277.124	14.82
277.34	7.62
277.557	11.71
277.773	-1.27
277.989	6.37
278.205	3.78
278.422	6.16
278.638	16.38
278.854	21.15
279.07	8.93
279.286	10.71
279.503	15.43
279.719	21.51
279.935	14.28
280.151	15.8
280.367	16.48
280.583	19.65
280.799	24.41
281.016	22.68
281.232	19.68
281.448	21.41
281.664	19.2
281.88	33.34
282.096	34.34
282.312	35.89
282.528	32.02
282.744	24.27
282.96	23.78
283.176	18.84
283.392	10.24
283.608	12.98
283.824	2.71
284.04	8.89
284.256	12.04
284.471	4.81
284.687	3.88
284.903	5.46
285.119	-7.56
285.335	-0.93
285.551	1.63
285.767	-6.55
285.982	-6.34
286.198	-7.35
286.414	-8.6
286.63	1.38
286.846	5.37
287.061	9.23
287.277	16.94
287.493	23.15
287.709	28.4
287.924	24.47
288.14	30.84
288.356	38.86
288.571	25.25
288.787	20.49
289.003	21.46
289.218	14.37
289.434	14.87
289.65	10.94
289.865	10.2
290.081	17.61
290.296	17.72
290.512	20.22
290.727	30.13
290.943	29.63
291.159	20.6
291.374	18.9
291.59	13.77
291.805	18.46
292.021	7.35
292.236	4.66
292.451	6.58
292.667	6.77
292.882	1.68
293.098	1.08
293.313	-6.31
293.529	-3.38
293.744	-17.98
293.959	-16.31
294.175	-10.31
294.39	-3.73
294.605	13.47
294.821	22.59
295.036	33.62
295.251	38.76
295.467	40.09
295.682	37.98
295.897	24.97
296.112	23.98
296.328	15.97
296.543	16.82
296.758	18.4
296.973	21.43
297.188	13
297.404	12.24
297.619	7.3
297.834	15.15
298.049	4.54
298.264	8.58
298.479	-6.83
298.694	4.35
298.909	9.61
299.125	13.78
299.34	10.03
299.555	10.51
299.77	8.54
299.985	15.94
300.2	8.98
300.415	14.93
300.63	5.05
300.845	13.11
301.06	18.18
301.275	21.42
301.49	26.69
301.704	26.91
301.919	13.6
302.134	10.09
302.349	-3.52
302.564	-0.93
302.779	6.72
302.994	2.96
303.209	10.75
303.423	25.43
303.638	40.13
303.853	42.38
304.068	28.34
304.283	23.19
304.497	17.9
304.712	22.27
304.927	20.39
305.142	24.27
305.356	25.67
305.571	33.59
305.786	31.38
306	40.09
306.215	30.41
306.43	39.13
306.644	31.85
306.859	33.59
307.074	26.36
307.288	20.38
307.503	14.97
307.717	16.77
307.932	9.72
308.147	10.13
308.361	4.89
308.576	8.18
308.79	18.58
309.005	20.88
309.219	22.02
309.434	16.7
309.648	8.62
309.863	14.75
310.077	11.64
310.292	1.84
310.506	11.25
310.72	11.9
310.935	22.85
311.149	23.03
311.364	24.92
311.578	19.61
311.792	18.69
312.007	7.35
312.221	5.4
312.435	-4.3
312.649	-1.87
312.864	-13.1
313.078	4.98
313.292	5.24
313.507	12
313.721	5.26
313.935	27.64
314.149	27.41
314.363	30.81
314.578	38.89
314.792	44.49
315.006	40.69
315.22	46.4
315.434	25.81
315.648	16.02
315.862	21.28
316.077	10.72
316.291	10.38
316.505	12.46
316.719	-1.17
316.933	15.88
317.147	16.77
317.361	12.22
317.575	4.17
317.789	3.11
318.003	6.2
318.217	13.99
318.431	14.36
318.645	15.87
318.859	6.29
319.073	11.86
319.287	13.25
319.5	7.54
319.714	5.97
319.928	9.78
320.142	13.43
320.356	28.46
320.57	18.3
320.784	18
320.997	25.32
321.211	33.77
321.425	22.19
321.639	24.74
321.853	15.52
322.066	26.86
322.28	23.25
322.494	22.87
322.707	18.13
322.921	15.19
323.135	8
323.349	15.61
323.562	19.52
323.776	25.44
323.989	28.36
324.203	29.97
324.417	25.96
324.63	21.88
324.844	11.83
325.057	6.19
325.271	0.39
325.485	-6.95
325.698	-11.92
325.912	3.86
326.125	12.62
326.339	21.83
326.552	23.45
326.766	28.28
326.979	35.47
327.193	39.61
327.406	36.46
327.619	22.71
327.833	14.34
328.046	11.47
328.26	9.3
328.473	5.9
328.686	7.29
328.9	-8.32
329.113	0.51
329.326	15.38
329.54	15.84
329.753	12.53
329.966	9.5
330.179	12.24
330.393	33.57
330.606	38.8
330.819	33.29
331.032	37.86
331.246	35.1
331.459	41.27
331.672	40.04
331.885	25.16
332.098	25.34
332.311	7.1
332.525	13.93
332.738	13.83
332.951	7.18
333.164	-5.56
333.377	-10.88
333.59	-9.07
333.803	8.72
334.016	-14.1
334.229	-6.73
334.442	5.02
334.655	17.55
334.868	39.52
335.081	38.69
335.294	29.99
335.507	34.74
335.72	29.8
335.933	28.43
336.146	24.88
336.359	12.4
336.572	8.03
336.785	20.5
336.997	25.69
337.21	27.14
337.423	22.56
337.636	30.06
337.849	23.07
338.062	28.9
338.274	24.82
338.487	17.61
338.7	18.37
338.913	20.87
339.125	16.91
339.338	28.86
339.551	32.97
339.763	22.92
339.976	26.87
340.189	21.53
340.402	20.52
340.614	22.35
340.827	8.3
341.039	4.95
341.252	9.06
341.465	2.02
341.677	2.99
341.89	5.07
342.102	9.03
342.315	22
342.527	9.49
342.74	9.56
342.952	14
343.165	21.54
343.377	19.79
343.59	13.83
343.802	13.56
344.015	22.06
344.227	15.73
344.44	12.01
344.652	19.09
344.864	21.12
345.077	21.15
345.289	22.67
345.502	20.04
345.714	22.97
345.926	22.56
346.139	9.51
346.351	-5.01
346.563	-3.75
346.775	-20.37
346.988	-13.4
347.2	-1.96
347.412	3.77
347.624	11.72
347.837	18.42
348.049	19.62
348.261	25.41
348.473	14.69
348.685	13.86
348.897	8.68
349.11	5.99
349.322	-1.17
349.534	-4.84
349.746	-0.67
349.958	10.97
350.17	9.08
350.382	4.03
350.594	0.44
350.806	5.35
351.018	10.44
351.23	9.3
351.442	8.3
351.654	11.11
351.866	21.23
352.078	18.75
352.29	25.17
352.502	27.8
352.714	35.48
352.926	36.16
353.138	25.18
353.35	16.99
353.561	12.49
353.773	7.71
353.985	10.55
354.197	5.88
354.409	7.23
354.621	15.31
354.832	8.13
355.044	20.44
355.256	16.12
355.468	9.35
355.679	12.11
355.891	7.67
356.103	9.88
356.314	14.96
356.526	1.22
356.738	2.05
356.949	-0.87
357.161	-8.96
357.373	-6.84
357.584	-2.73
357.796	-2.75
358.008	3.57
358.219	14.04
358.431	18.17
358.642	24.89
358.854	21.14
359.065	10.31
359.277	9.03
359.488	6.94
359.7	-4.77
359.911	-13.42
360.123	-9.73
360.334	-8.07
360.546	-11.96
360.757	-7.81
360.969	5.27
361.18	6.07
361.391	11.11
361.603	6.28
361.814	10.07
362.025	12.61
362.237	9.26
362.448	6.2
362.659	-0.17
362.871	3.81
363.082	10.32
363.293	18.1
363.504	22.21
363.716	28.09
363.927	25.28
364.138	29.62
364.349	31.07
364.56	27.89
364.772	24.38
364.983	17.15
365.194	15.35
365.405	13.47
365.616	6.35
365.827	-1.36
366.038	9.02
366.25	8.04
366.461	19.65
366.672	18.7
366.883	23.65
367.094	27.12
367.305	20.59
367.516	15.05
367.727	13.2
367.938	8.61
368.149	7.87
368.36	3.59
368.571	9.7
368.781	14.24
368.992	7.38
369.203	6.56
369.414	7.75
369.625	4.61
369.836	5.73
370.047	9.91
370.258	12.83
370.468	8.66
370.679	3.24
370.89	8.87
371.101	9.64
371.312	9.37
371.522	5.66
371.733	-3.41
371.944	4.47
372.155	-1.65
372.365	-10.2
372.576	-4.54
372.787	1.61
372.997	-4.01
373.208	10.41
373.419	10.77
373.629	21.1
373.84	20.12
374.05	16.43
374.261	5.56
374.472	10.45
374.682	1.24
374.893	-3.68
375.103	-1.82
375.314	1.56
375.524	5.12
375.735	12.47
375.945	9.1
376.156	15.31
376.366	17.29
376.577	14.9
376.787	18.81
376.997	18.23
377.208	7.42
377.418	10.89
377.629	2.85
377.839	13.13
378.049	17.65
378.26	12.32
378.47	15.4
378.68	18.42
378.89	13.4
379.101	9.42
379.311	-1.76
379.521	-1.49
379.732	-9
379.942	-11.73
380.152	-5.22
380.362	2
380.572	11.07
380.783	9.68
380.993	8.99
381.203	15.54
381.413	18.36
381.623	17.95
381.833	13.9
382.043	8.23
382.253	18.26
382.463	16.99
382.674	19.29
382.884	16.64
383.094	17.3
383.304	13.81
383.514	19.8
383.724	14.34
383.934	14.4
384.144	15.49
384.353	13.8
384.563	13.01
384.773	14.59
384.983	10.12
385.193	13.46
385.403	13.52
385.613	10.71
385.823	9.37
386.033	6.45
386.242	5.41
386.452	3.46
386.662	3.49
386.872	0.34
387.082	-1.51
387.291	1.14
387.501	1.69
387.711	4.78
387.921	5.01
388.13	1.33
388.34	1.9
388.55	4.02
388.759	2.49
388.969	2.59
389.179	2.94
389.388	3.79
389.598	2.31
389.807	2.7
390.017	1.94
390.227	2.43
390.436	2.78
390.646	1.55
390.855	2.64
391.065	4.36
391.274	3.27
391.484	3.84
391.693	4.12
391.903	3.11
392.112	3.05
392.322	3.96
392.531	4.29
392.74	3.49
392.95	3.72
393.159	2.79
393.369	2.23
393.578	2.06
393.787	0.94
393.997	1.69
394.206	2.3
394.415	2.7
394.625	2.6
394.834	3.21
395.043	4
395.252	4.19
395.462	3.48
395.671	4.32
395.88	4.33
396.089	4.59
396.298	4.32
396.508	3.46
396.717	3.32
396.926	2.63
397.135	2.29
397.344	1.81
397.553	2.27
397.762	2.35
397.971	2.81
398.181	2.49
398.39	2.91
398.599	3.06
398.808	3.33
399.017	3.2
399.226	3.82
399.435	3.75
399.644	3.89
399.853	3.88
400.062	3.81
400.27	3.64
400.479	3.62
400.688	3.24
400.897	3.59
401.106	3.87
401.315	3.81
401.524	3.88
401.733	4.05
401.941	3.86
402.15	3.71
402.359	3.42
402.568	3.25
402.777	3.26
402.985	3.02
403.194	2.96
403.403	2.9
403.612	2.98
403.82	2.94
404.029	2.96
404.238	3.04
404.446	3.03
404.655	2.92
404.864	2.91
405.072	2.95
405.281	2.87
405.489	2.92
405.698	2.81
405.906	2.88
406.115	3
406.324	2.96
406.532	2.96
406.741	3.06
406.949	2.97
407.158	3.03
407.366	3.07
407.574	3.06
407.783	3.06
407.991	2.97
408.2	2.88
408.408	2.91
408.617	2.88
408.825	2.83
409.033	2.78
409.242	2.81
409.45	2.79
409.658	2.85
409.867	2.77
410.075	2.72
410.283	2.65
410.491	2.57
410.7	2.58
410.908	2.61
411.116	2.43
411.324	2.49
411.533	2.41
411.741	2.45
411.949	2.52
412.157	2.55
412.365	2.54
412.573	2.67
412.781	2.69
412.99	2.82
413.198	2.83
413.406	2.82
413.614	2.86
413.822	2.85
414.03	2.8
414.238	2.81
414.446	2.73
414.654	2.68
414.862	2.59
415.07	2.54
415.278	2.53
415.486	2.59
415.694	2.49
415.902	2.48
416.109	2.53
416.317	2.52
416.525	2.52
416.733	2.6
416.941	2.54
417.149	2.69
417.357	2.67
417.564	2.61
417.772	2.67
417.98	2.53
418.188	2.35
418.395	2.32
418.603	2.2
418.811	2.15
419.019	2.18
419.226	2.29
419.434	2.32
419.642	2.43
419.849	2.47
420.057	2.47
420.265	2.55
420.472	2.48
420.68	2.34
420.887	2.41
421.095	2.43
421.302	2.49
421.51	2.56
421.717	2.64
421.925	2.62
422.132	2.61
422.34	2.59
422.547	2.51
422.755	2.4
422.962	2.28
423.17	2.14
423.377	2.33
423.585	2.43
423.792	2.42
423.999	2.4
424.207	2.33
424.414	2.44
424.621	2.44
424.829	2.23
425.036	2.12
425.243	2.17
425.451	2.2
425.658	2.33
425.865	2.32
426.072	2.36
426.28	2.43
426.487	2.38
426.694	2.33
426.901	2.27
427.108	2.17
427.315	2.09
427.523	2.13
427.73	2.17
427.937	2.29
428.144	2.3
428.351	2.43
428.558	2.44
428.765	2.45
428.972	2.39
429.179	2.28
429.386	2.27
429.593	2.21
429.8	2.26
430.007	2.44
430.214	2.47
430.421	2.49
430.628	2.39
430.835	2.38
431.042	2.46
431.249	2.37
431.456	2.3
431.662	2.28
431.869	2.33
432.076	2.52
432.283	2.49
432.49	2.43
432.697	2.42
432.903	2.42
433.11	2.43
433.317	2.38
433.524	2.3
433.73	2.28
433.937	2.29
434.144	2.32
434.35	2.3
434.557	2.23
434.764	2.27
434.97	2.28
435.177	2.25
435.384	2.39
435.59	2.39
435.797	2.43
436.003	2.5
436.21	2.43
436.416	2.44
436.623	2.56
436.829	2.46
437.036	2.46
437.242	2.43
437.449	2.41
437.655	2.41
437.862	2.39
438.068	2.39
438.275	2.38
438.481	2.42
438.687	2.47
438.894	2.44
439.1	2.49
439.307	2.54
439.513	2.49
439.719	2.53
439.926	2.49
440.132	2.47
440.338	2.53
440.544	2.52
440.751	2.51
440.957	2.53
441.163	2.56
441.369	2.62
441.575	2.61
441.782	2.58
441.988	2.62
442.194	2.68
442.4	2.72
442.606	2.67
442.812	2.66
443.018	2.67
443.224	2.72
443.431	2.76
443.637	2.68
443.843	2.68
444.049	2.66
444.255	2.61
444.461	2.58
444.667	2.53
444.873	2.52
445.079	2.61
445.284	2.56
445.49	2.6
445.696	2.64
445.902	2.71
446.108	2.77
446.314	2.79
446.52	2.71
446.726	2.74
446.931	2.77
447.137	2.79
447.343	2.74
447.549	2.69
447.755	2.63
447.96	2.66
448.166	2.67
448.372	2.69
448.578	2.68
448.783	2.73
448.989	2.78
449.195	2.79
449.4	2.82
449.606	2.78
449.812	2.78
450.017	2.82
450.223	2.8
450.428	2.84
450.634	2.87
450.84	2.85
451.045	2.91
451.251	2.89
451.456	2.84
451.662	2.81
451.867	2.76
452.073	2.7
452.278	2.71
452.483	2.71
452.689	2.71
452.894	2.73
453.1	2.7
453.305	2.72
453.51	2.74
453.716	2.72
453.921	2.74
454.127	2.71
454.332	2.7
454.537	2.8
454.742	2.77
454.948	2.76
455.153	2.76
455.358	2.73
455.563	2.72
455.769	2.73
455.974	2.66
456.179	2.64
456.384	2.66
456.589	2.67
456.795	2.64
457	2.73
457.205	2.72
457.41	2.76
457.615	2.79
457.82	2.84
458.025	2.81
458.23	2.83
458.435	2.74
458.64	2.78
458.845	2.71
459.05	2.73
459.255	2.72
459.46	2.72
459.665	2.8
459.87	2.83
460.075	2.82
460.28	2.88
460.485	2.87
460.69	2.81
460.895	2.92
461.099	2.84
461.304	2.81
461.509	2.74
461.714	2.73
461.919	2.69
462.123	2.74
462.328	2.67
462.533	2.71
462.738	2.73
462.942	2.81
463.147	2.8
463.352	2.87
463.556	2.88
463.761	2.88
463.966	2.94
464.17	2.94
464.375	2.94
464.58	2.94
464.784	2.91
464.989	2.88
465.193	2.93
465.398	2.93
465.602	2.94
465.807	2.92
466.011	2.98
466.216	3
466.42	3.06
466.625	3.02
466.829	3
467.034	3.04
467.238	3.05
467.443	3.04
467.647	3.05
467.851	3.08
468.056	3.08
468.26	3.08
468.464	3.08
468.669	3.14
468.873	3.14
469.077	3.13
469.282	3.08
469.486	3.12
469.69	3.13
469.894	3.17
470.099	3.15
470.303	3.13
470.507	3.12
470.711	3.13
