Data from Ofra_PS_T2_1A_0CX05_Reflection_1.txt Node
Date: Wed Jul 21 17:43:38 EDT 2021
User: Adam
Spectrometer: FLMT01687
Trigger mode: 0
Integration Time (sec): 1.100000E0
Scans to average: 2
Electric dark correction enabled: true
Nonlinearity correction enabled: false
Boxcar width: 2
XAxis mode: Wavelengths
Number of Pixels in Spectrum: 3648
>>>>>Begin Spectral Data<<<<<
179.494	733.8
179.716	824.47
179.937	781.91
180.158	765.56
180.38	1377.66
180.601	700.69
180.823	240.73
181.044	170.26
181.265	339.15
181.486	79.42
181.708	90.59
181.929	249.49
182.15	182.75
182.372	242.48
182.593	159.15
182.814	71.9
183.035	53.35
183.257	9.69
183.478	-116.65
183.699	-26.86
183.92	-29.5
184.141	7.08
184.363	-52.48
184.584	-24.07
184.805	-25.18
185.026	18.44
185.247	31.17
185.468	23.23
185.689	43.1
185.91	40.79
186.132	21.02
186.353	0.07
186.574	61.38
186.795	36.79
187.016	-37.95
187.237	-42.83
187.458	-68.28
187.679	-74.11
187.9	-32.54
188.121	16.47
188.342	41.86
188.563	58.02
188.784	78.65
189.005	70.81
189.226	90.06
189.447	84.46
189.667	-88.47
189.888	-335.1
190.109	-1405.52
190.33	-806.61
190.551	-1361.28
190.772	-251.15
190.993	-243.97
191.214	-179.31
191.434	-126.56
191.655	-48.13
191.876	-122.42
192.097	-141.48
192.318	-179.97
192.538	-255.79
192.759	-191.53
192.98	-75.91
193.201	-42.75
193.421	-34.57
193.642	6.02
193.863	22.69
194.083	-0.73
194.304	8.6
194.525	12.25
194.745	12.43
194.966	-28.78
195.187	-47.37
195.407	-82.26
195.628	-164.73
195.848	-208.75
196.069	-200.18
196.29	-115.72
196.51	-120.38
196.731	-85.6
196.951	-81.03
197.172	-110.3
197.392	-155.57
197.613	-127.24
197.833	-186.95
198.054	-162.4
198.274	-94.99
198.495	-114.67
198.715	-104.37
198.936	-115.46
199.156	-97.09
199.377	-222.53
199.597	-183.51
199.817	-155.61
200.038	-63.81
200.258	-135
200.479	-40.52
200.699	-47.04
200.919	10.92
201.14	-39.75
201.36	-48.59
201.58	2.84
201.801	40.79
202.021	-6.6
202.241	2.46
202.461	14.7
202.682	-64.53
202.902	-168.25
203.122	-100.03
203.342	-102.43
203.563	-54.01
203.783	-17.41
204.003	-37.12
204.223	-19.11
204.443	43.38
204.663	15.73
204.884	26.13
205.104	56.46
205.324	64.18
205.544	37.46
205.764	57.53
205.984	64.02
206.204	56.84
206.424	46.18
206.644	23.35
206.864	24.1
207.084	-79.56
207.304	-79.01
207.525	-237.89
207.745	-115.24
207.964	-38.47
208.184	-43.58
208.404	-104.11
208.624	-91.87
208.844	-97.79
209.064	-420.79
209.284	-423.38
209.504	-170.97
209.724	-47.05
209.944	-13.38
210.164	24.3
210.384	24.82
210.604	16.01
210.823	-42.53
211.043	-77.98
211.263	-72.08
211.483	-69.28
211.703	-112.08
211.922	-100.85
212.142	-20.89
212.362	-10.18
212.582	-24.01
212.801	-25.2
213.021	-26.67
213.241	-67.99
213.461	-97.53
213.68	-131.68
213.9	-104.12
214.12	-86.64
214.339	-140.53
214.559	-93.37
214.779	-25.3
214.998	-17.67
215.218	-50.72
215.438	-17.24
215.657	-22.67
215.877	-46.34
216.096	-27.28
216.316	-9.67
216.535	-24.32
216.755	-52.03
216.974	-149.67
217.194	-183.83
217.413	-184.31
217.633	-173.3
217.852	-290.07
218.072	-134.88
218.291	-78.18
218.511	-30.61
218.73	-60.5
218.95	-41
219.169	-36.5
219.389	-95.13
219.608	-72.05
219.827	-63.04
220.047	-49.54
220.266	-45.81
220.485	-41.4
220.705	-41.11
220.924	-56.08
221.143	-5.26
221.363	-18.5
221.582	2.08
221.801	2.98
222.021	41.21
222.24	-22.94
222.459	2.71
222.678	-36.67
222.897	-111.43
223.117	-190.5
223.336	-154.15
223.555	-104.34
223.774	-35.18
223.993	-38.05
224.213	46.21
224.432	12.51
224.651	23.52
224.87	-25.34
225.089	6.4
225.308	-0.48
225.527	27.99
225.746	27.18
225.965	25.58
226.184	2.02
226.404	-2.84
226.623	-40.7
226.842	-31.56
227.061	4.51
227.28	18.18
227.499	-0.13
227.718	31.47
227.936	23.33
228.155	37.7
228.374	8.58
228.593	31.7
228.812	20.11
229.031	-0.57
229.25	-75.62
229.469	-64.41
229.688	-97.62
229.907	-57.75
230.125	-34.99
230.344	-20.86
230.563	-6.74
230.782	17.46
231.001	-49.32
231.22	-25.84
231.438	26.96
231.657	23.75
231.876	11.48
232.095	41.96
232.313	45.26
232.532	25.86
232.751	-29.67
232.969	-49.08
233.188	-115.57
233.407	-26.08
233.625	-4.92
233.844	-13.4
234.063	15.07
234.281	29.54
234.5	-0.15
234.719	-5.44
234.937	21.13
235.156	8.59
235.374	4.45
235.593	0.05
235.811	-32.25
236.03	-42.33
236.249	-80.97
236.467	-73.62
236.686	-27.54
236.904	-8.09
237.123	-28.45
237.341	-10.66
237.559	-4.91
237.778	-32.71
237.996	-61.53
238.215	-14.08
238.433	-13.93
238.652	-22.72
238.87	-51.25
239.088	-23.34
239.307	-21.75
239.525	-40.85
239.743	-70.5
239.962	-34.59
240.18	-67.88
240.398	-142.96
240.617	-121.95
240.835	-104.69
241.053	-90.87
241.271	-44.25
241.49	-6.47
241.708	-42.82
241.926	-37.26
242.144	-25.25
242.363	-80.23
242.581	-95.2
242.799	-22.11
243.017	-5.16
243.235	-27.19
243.453	-5.66
243.672	-1.36
243.89	-27.41
244.108	-48.99
244.326	-25.94
244.544	-24.29
244.762	-27.24
244.98	-13.85
245.198	-2.23
245.416	-31.88
245.634	-32.26
245.852	-38.34
246.07	-47.89
246.288	-34.82
246.506	-62.17
246.724	-49.34
246.942	-31.8
247.16	17.51
247.378	26.3
247.596	62.8
247.814	66.84
248.032	38.79
248.25	7.04
248.468	-10.44
248.685	-15.62
248.903	3.63
249.121	9.42
249.339	-27.7
249.557	-25.86
249.775	-25.23
249.992	-97.42
250.21	-91.79
250.428	-52.2
250.646	-84.2
250.863	-99.38
251.081	-55.84
251.299	-64.74
251.517	-62.07
251.734	-34.75
251.952	-44.97
252.17	-37.31
252.387	-25.54
252.605	-35.96
252.823	-37.83
253.04	-12.09
253.258	5.84
253.475	5.62
253.693	34.08
253.911	35.94
254.128	34.99
254.346	36.72
254.563	15.84
254.781	-7.45
254.998	-39.58
255.216	-47.36
255.433	-47.37
255.651	-9.44
255.868	13.84
256.086	52.86
256.303	38.71
256.521	19.15
256.738	-0.29
256.956	-34.31
257.173	-55.22
257.39	-73.06
257.608	-90.71
257.825	-37.93
258.043	-1.62
258.26	8.3
258.477	61.36
258.695	58.57
258.912	-5.48
259.129	-1.75
259.346	-37.87
259.564	-99.78
259.781	-125.12
259.998	-30.43
260.216	-10.73
260.433	13.03
260.65	29.13
260.867	52.71
261.084	20.66
261.302	1.85
261.519	-5.23
261.736	-45.31
261.953	-61.24
262.17	-38.07
262.387	-67.73
262.604	-87.87
262.822	-83.76
263.039	-72.68
263.256	-86.8
263.473	-46.34
263.69	-30.69
263.907	-0.42
264.124	-4.93
264.341	-1.02
264.558	-1.33
264.775	21.98
264.992	16.12
265.209	22.35
265.426	29.58
265.643	24.65
265.86	20.32
266.077	26.56
266.294	6.05
266.51	-30.43
266.727	-52.4
266.944	-57.37
267.161	-71.49
267.378	-75.23
267.595	-52.09
267.812	-63.36
268.028	-84.62
268.245	-47.52
268.462	-52.55
268.679	-44.85
268.896	13
269.112	17.12
269.329	12.26
269.546	31.17
269.763	8.77
269.979	-24.45
270.196	-28.25
270.413	-57.07
270.629	-97.48
270.846	-98.17
271.063	-81.15
271.279	-85.82
271.496	-85.69
271.712	-33.24
271.929	5.46
272.146	-24.69
272.362	-25.02
272.579	9.55
272.795	17
273.012	8.07
273.228	22.7
273.445	10.42
273.661	-14.48
273.878	-81.5
274.094	-74
274.311	-112.63
274.527	-42.18
274.744	-46.37
274.96	-33.37
275.177	-22.25
275.393	19.19
275.609	14.58
275.826	39.58
276.042	25.74
276.259	13.59
276.475	17.62
276.691	20.11
276.908	-6.37
277.124	19.84
277.34	25.58
277.557	7.86
277.773	-9.76
277.989	-4.18
278.205	-11.48
278.422	3.92
278.638	14.87
278.854	36.54
279.07	39.06
279.286	21.15
279.503	-21.44
279.719	-48.16
279.935	-62.3
280.151	-66.5
280.367	-30.3
280.583	-37.35
280.799	-30.4
281.016	-56.95
281.232	-16.42
281.448	-20
281.664	4.34
281.88	-7
282.096	7.01
282.312	15.19
282.528	34.33
282.744	34.89
282.96	25.43
283.176	19.65
283.392	12.33
283.608	4.11
283.824	-2.59
284.04	12.16
284.256	13.4
284.471	-7.76
284.687	-29.9
284.903	-3.36
285.119	5.68
285.335	-27.56
285.551	-12.57
285.767	-11.5
285.982	-25.07
286.198	-67.15
286.414	8.14
286.63	9.03
286.846	25.88
287.061	0.48
287.277	30.71
287.493	-0.54
287.709	7.45
287.924	-11.82
288.14	27.22
288.356	22.1
288.571	41.07
288.787	17.2
289.003	25.65
289.218	6.11
289.434	-33.16
289.65	-24.56
289.865	-13.81
290.081	-1.55
290.296	1.77
290.512	14.87
290.727	-22.19
290.943	-36.25
291.159	-33.17
291.374	-33.52
291.59	-45.22
291.805	-37.11
292.021	-23.95
292.236	-25.57
292.451	-4.63
292.667	5
292.882	19.95
293.098	13.19
293.313	-17.82
293.529	-53.6
293.744	-69.95
293.959	-66.22
294.175	-55.03
294.39	-21.08
294.605	1.22
294.821	19.34
295.036	18.97
295.251	27.62
295.467	3.29
295.682	-13.88
295.897	-50.99
296.112	-76.21
296.328	-69.85
296.543	-61.42
296.758	-66.5
296.973	-24.38
297.188	32.73
297.404	4.38
297.619	-11.13
297.834	-21.45
298.049	-26.06
298.264	-79.92
298.479	-9.14
298.694	4.05
298.909	19.7
299.125	18.24
299.34	29.38
299.555	-15.55
299.77	-3.24
299.985	-49.72
300.2	-104.17
300.415	-124.15
300.63	-97.94
300.845	-105.43
301.06	-91.84
301.275	-35.88
301.49	-19.63
301.704	-20.39
301.919	-43.89
302.134	-57.31
302.349	-76.06
302.564	-146.39
302.779	-184.02
302.994	-131.54
303.209	-71.95
303.423	-9.23
303.638	53.2
303.853	8.53
304.068	-5.88
304.283	-3.43
304.497	-26.76
304.712	-40.66
304.927	-12.34
305.142	-21.85
305.356	-16.07
305.571	-11.45
305.786	-32.2
306	-51.73
306.215	-20.58
306.43	-38.14
306.644	-17.99
306.859	51.36
307.074	42.07
307.288	-15.82
307.503	-37.21
307.717	-52.36
307.932	-69.32
308.147	-67.6
308.361	-28.67
308.576	-31
308.79	-73.75
309.005	-68.03
309.219	-52.39
309.434	-58.59
309.648	-50.9
309.863	-16.64
310.077	-9.64
310.292	-18.52
310.506	-29.33
310.72	-6.42
310.935	9.19
311.149	-1.13
311.364	14.8
311.578	21.72
311.792	9.67
312.007	0.84
312.221	-16.42
312.435	-15.07
312.649	-29.6
312.864	-60.77
313.078	-68.62
313.292	-12.03
313.507	-57.54
313.721	-57.7
313.935	0.42
314.149	6.57
314.363	4.74
314.578	1.61
314.792	2.67
315.006	-5.58
315.22	7.17
315.434	4.01
315.648	19.5
315.862	10.33
316.077	13.26
316.291	-9.55
316.505	-6.97
316.719	-35.67
316.933	-34.87
317.147	-39.1
317.361	-90.33
317.575	-114.11
317.789	-146.85
318.003	-215.06
318.217	-159.36
318.431	-39.01
318.645	9.16
318.859	4.37
319.073	35.6
319.287	20.19
319.5	-19.65
319.714	-65.57
319.928	-77.91
320.142	-90.21
320.356	-47.71
320.57	-11.63
320.784	-31.32
320.997	-34.99
321.211	-37.96
321.425	-93.8
321.639	-127.08
321.853	-58.44
322.066	-39.84
322.28	-42.77
322.494	-39.22
322.707	-12.15
322.921	-31.04
323.135	-27.96
323.349	-12.96
323.562	-20.12
323.776	-32.67
323.989	-33.15
324.203	-63.16
324.417	-70.59
324.63	-79.75
324.844	-87.41
325.057	-71.13
325.271	-36.41
325.485	-14.3
325.698	5.02
325.912	30.68
326.125	9.44
326.339	14.27
326.552	-13.85
326.766	-13.24
326.979	-11.95
327.193	21.33
327.406	5.93
327.619	10.52
327.833	18.33
328.046	-10.62
328.26	-46.47
328.473	-31.88
328.686	-72.63
328.9	-66.93
329.113	-33.57
329.326	-55.57
329.54	-36.35
329.753	-42.07
329.966	-97.12
330.179	-92.95
330.393	-48.72
330.606	-46.7
330.819	-7.17
331.032	19.65
331.246	17.17
331.459	50.97
331.672	41.82
331.885	14.89
332.098	-2.24
332.311	-6.61
332.525	-78.95
332.738	-57.46
332.951	8.34
333.164	31.82
333.377	28.79
333.59	39.72
333.803	34.58
334.016	13.16
334.229	-3.71
334.442	7.82
334.655	41.11
334.868	48.54
335.081	43.42
335.294	32.37
335.507	6.11
335.72	-24.12
335.933	-34.96
336.146	-50.36
336.359	-53.99
336.572	-65.44
336.785	-94.16
336.997	-86.77
337.21	-62.52
337.423	-61.66
337.636	-50.95
337.849	-19.17
338.062	-28.27
338.274	-19.06
338.487	-30.18
338.7	-28.94
338.913	-82.11
339.125	-112.53
339.338	-167.34
339.551	-109.92
339.763	-78.25
339.976	-25.34
340.189	18.03
340.402	27.77
340.614	7.3
340.827	-1.08
341.039	-18.42
341.252	-20.94
341.465	-12.82
341.677	-19.28
341.89	-51.98
342.102	-33.83
342.315	-58.68
342.527	-101.67
342.74	-80.62
342.952	-36.69
343.165	-40.01
343.377	8.26
343.59	12.93
343.802	22.54
344.015	35.66
344.227	60.28
344.44	20.77
344.652	14.35
344.864	-10.38
345.077	1.61
345.289	-2.82
345.502	11.62
345.714	7.13
345.926	24.84
346.139	11.85
346.351	27.57
346.563	24.75
346.775	33.89
346.988	18.99
347.2	2.57
347.412	-58.76
347.624	-85.69
347.837	-102.95
348.049	-85.76
348.261	-39.32
348.473	-20.08
348.685	-21.93
348.897	-19.69
349.11	-25.83
349.322	-57.59
349.534	-17.85
349.746	-12.86
349.958	-22.18
350.17	-41.76
350.382	-23.85
350.594	-38.8
350.806	-44.09
351.018	-30.92
351.23	-39.69
351.442	-71.6
351.654	-82.53
351.866	-56.04
352.078	-44.74
352.29	-8.26
352.502	12.18
352.714	25.52
352.926	10.11
353.138	5.5
353.35	0.52
353.561	-1.02
353.773	-32.56
353.985	-9.3
354.197	-17.66
354.409	-36.49
354.621	-46.53
354.832	-29.29
355.044	-43.58
355.256	-49.51
355.468	-28.82
355.679	-21.72
355.891	-12.99
356.103	-37.62
356.314	-7.08
356.526	-3.22
356.738	-5.01
356.949	-15.23
357.161	5.55
357.373	-19.62
357.584	-31.9
357.796	-19.17
358.008	-25.21
358.219	0.71
358.431	11.76
358.642	20.29
358.854	12.01
359.065	3.21
359.277	-35.58
359.488	-51.41
359.7	-79.01
359.911	-95.49
360.123	-60.33
360.334	-70.75
360.546	-93.94
360.757	-79.89
360.969	-54.1
361.18	-43.5
361.391	-18.46
361.603	-14.51
361.814	-0.32
362.025	-15.23
362.237	-26.55
362.448	-9.71
362.659	5.93
362.871	-4.91
363.082	-4.95
363.293	-8.3
363.504	-30.27
363.716	-55.76
363.927	-68.44
364.138	-101.1
364.349	-111.6
364.56	-91.91
364.772	-68.33
364.983	-34.19
365.194	-21.43
365.405	0.48
365.616	35.03
365.827	30.58
366.038	2.23
366.25	2.64
366.461	-39.16
366.672	-46.74
366.883	-26.02
367.094	-11.63
367.305	-21.38
367.516	-16.76
367.727	-56.22
367.938	-80.92
368.149	-79.53
368.36	-56.86
368.571	-43.36
368.781	-54.5
368.992	-57.1
369.203	-73.56
369.414	-90.03
369.625	-95.71
369.836	-67.6
370.047	-84.3
370.258	-80.3
370.468	-78.42
370.679	-95.42
370.89	-95.27
371.101	-65.34
371.312	-66.9
371.522	-65.47
371.733	-43.96
371.944	-32.65
372.155	-29.85
372.365	-28.44
372.576	-33.23
372.787	-39.66
372.997	-61.51
373.208	-64.05
373.419	-26.17
373.629	-46.8
373.84	-42.13
374.05	-45.75
374.261	-33.25
374.472	-67.41
374.682	-8.03
374.893	2.36
375.103	29.01
375.314	18.27
375.524	18.21
375.735	9.72
375.945	10.75
376.156	-20.1
376.366	-4.67
376.577	4.6
376.787	-5.55
376.997	-1.73
377.208	5.57
377.418	-25.01
377.629	-24.21
377.839	-27.69
378.049	-26.81
378.26	-3.96
378.47	9.18
378.68	2.4
378.89	2.23
379.101	-12.71
379.311	-50.96
379.521	-70.2
379.732	-74.45
379.942	-71.17
380.152	-88.46
380.362	-50.36
380.572	-48.55
380.783	-36.82
380.993	-20
381.203	-2.72
381.413	11.05
381.623	14.91
381.833	14.48
382.043	-5.4
382.253	-6.44
382.463	-13.37
382.674	-21.97
382.884	-40.68
383.094	-35.43
383.304	-24.21
383.514	-17.58
383.724	-0.66
383.934	1.09
384.144	-7.17
384.353	-24.73
384.563	-31.67
384.773	-29.34
384.983	-35.81
385.193	-16.83
385.403	-6.74
385.613	-6.66
385.823	-21.98
386.033	-9.11
386.242	-16.04
386.452	-17.04
386.662	-24.35
386.872	-5.38
387.082	-11.92
387.291	-18.86
387.501	-26.8
387.711	-16.87
387.921	-28.39
388.13	-29.24
388.34	-12.11
388.55	-11.47
388.759	-15.32
388.969	-9.96
389.179	-9.29
389.388	-14.05
389.598	-9.94
389.807	-14.59
390.017	-18.69
390.227	-15.54
390.436	-17.9
390.646	-15.53
390.855	-9.46
391.065	-8.54
391.274	-13.02
391.484	-13.9
391.693	-12.89
391.903	-12.85
392.112	-6.09
392.322	-0.42
392.531	3.54
392.74	4.43
392.95	-0.25
393.159	-2.59
393.369	-2.36
393.578	-4.75
393.787	-6.35
393.997	-3.51
394.206	-4.61
394.415	-4.76
394.625	-3.43
394.834	-4.82
395.043	-4.75
395.252	-1.88
395.462	0.43
395.671	2.68
395.88	3.71
396.089	5.19
396.298	2.4
396.508	1.16
396.717	-0.33
396.926	-0.57
397.135	-0.57
397.344	-0.91
397.553	-0.27
397.762	1.41
397.971	2.04
398.181	1.72
398.39	1.84
398.599	1.05
398.808	0.1
399.017	1.06
399.226	2.61
399.435	4.03
399.644	4.07
399.853	3.49
400.062	2.77
400.27	2.11
400.479	1.35
400.688	0.78
400.897	0.92
401.106	0.96
401.315	0.43
401.524	0.38
401.733	1.38
401.941	1.76
402.15	1.83
402.359	1.81
402.568	2.31
402.777	1.97
402.985	1.79
403.194	1.56
403.403	1.59
403.612	1.17
403.82	1.02
404.029	1.18
404.238	1.1
404.446	1.41
404.655	1.39
404.864	1.39
405.072	1.1
405.281	1.54
405.489	1.17
405.698	1.16
405.906	1.09
406.115	1.14
406.324	0.91
406.532	1.08
406.741	1.41
406.949	1.56
407.158	1.64
407.366	1.67
407.574	1.67
407.783	1.52
407.991	1.34
408.2	1.63
408.408	1.69
408.617	1.65
408.825	1.5
409.033	1.68
409.242	1.59
409.45	1.67
409.658	1.57
409.867	1.79
410.075	1.65
410.283	1.4
410.491	1.32
410.7	1.23
410.908	1.29
411.116	1.59
411.324	1.64
411.533	1.53
411.741	1.79
411.949	1.7
412.157	1.36
412.365	1.41
412.573	1.54
412.781	1.55
412.99	1.46
413.198	1.69
413.406	1.68
413.614	1.68
413.822	1.53
414.03	1.5
414.238	1.34
414.446	1.33
414.654	1.03
414.862	1.16
415.07	1.26
415.278	1.43
415.486	1.29
415.694	1.56
415.902	1.47
416.109	1.24
416.317	1.26
416.525	1.19
416.733	1.12
416.941	1.23
417.149	1.28
417.357	1.2
417.564	1.53
417.772	1.85
417.98	1.68
418.188	1.78
418.395	1.77
418.603	1.77
418.811	1.23
419.019	1.23
419.226	1.37
419.434	1.44
419.642	1.17
419.849	1.4
420.057	1.43
420.265	1.37
420.472	1.13
420.68	1.33
420.887	1.35
421.095	1.38
421.302	1.31
421.51	1.6
421.717	1.63
421.925	1.55
422.132	1.43
422.34	1.18
422.547	1.03
422.755	0.91
422.962	0.86
423.17	0.84
423.377	1.06
423.585	1.07
423.792	0.99
423.999	1.01
424.207	1
424.414	1.2
424.621	1.21
424.829	1.21
425.036	1.28
425.243	1.41
425.451	1.14
425.658	0.96
425.865	1.19
426.072	1.16
426.28	1.39
426.487	1.4
426.694	1.53
426.901	1.24
427.108	1.26
427.315	0.99
427.523	1.33
427.73	1.38
427.937	1.37
428.144	1.21
428.351	1.25
428.558	1.22
428.765	1.08
428.972	1.07
429.179	1.22
429.386	1.47
429.593	1.1
429.8	1.04
430.007	1.15
430.214	1.26
430.421	0.96
430.628	0.88
430.835	0.75
431.042	0.95
431.249	0.96
431.456	1.01
431.662	1.19
431.869	1.46
432.076	1.33
432.283	1.42
432.49	1.42
432.697	1.45
432.903	1.16
433.11	1.14
433.317	1.22
433.524	1.47
433.73	1.38
433.937	1.74
434.144	1.59
434.35	1.43
434.557	1.16
434.764	1.12
434.97	0.97
435.177	1.22
435.384	1.19
435.59	1.33
435.797	1.56
436.003	1.66
436.21	1.62
436.416	1.69
436.623	1.55
436.829	1.61
437.036	1.65
437.242	1.64
437.449	1.61
437.655	1.65
437.862	1.55
438.068	1.45
438.275	1.48
438.481	1.7
438.687	1.67
438.894	1.61
439.1	1.62
439.307	1.79
439.513	1.62
439.719	1.68
439.926	1.87
440.132	1.81
440.338	1.66
440.544	1.72
440.751	1.66
440.957	1.69
441.163	1.61
441.369	1.66
441.575	1.41
441.782	1.37
441.988	1.18
442.194	1.28
442.4	1.18
442.606	1.58
442.812	1.74
443.018	1.91
443.224	1.95
443.431	2.14
443.637	1.85
443.843	1.71
444.049	1.62
444.255	1.59
444.461	1.57
444.667	1.54
444.873	1.76
445.079	1.71
445.284	1.8
445.49	1.58
445.696	1.51
445.902	1.4
446.108	1.31
446.314	1.14
446.52	1.2
446.726	1.4
446.931	1.32
447.137	1.43
447.343	1.51
447.549	1.44
447.755	1.31
447.96	1.35
448.166	1.3
448.372	1.29
448.578	1.34
448.783	1.36
448.989	1.49
449.195	1.75
449.4	1.76
449.606	1.76
449.812	1.71
450.017	1.67
450.223	1.48
450.428	1.42
450.634	1.58
450.84	1.79
451.045	1.69
451.251	1.63
451.456	1.91
451.662	1.94
451.867	1.95
452.073	1.86
452.278	1.95
452.483	1.86
452.689	1.72
452.894	1.7
453.1	1.82
453.305	1.74
453.51	1.71
453.716	1.61
453.921	1.61
454.127	1.52
454.332	1.52
454.537	1.46
454.742	1.55
454.948	1.52
455.153	1.59
455.358	1.7
455.563	1.91
455.769	2.05
455.974	1.97
456.179	1.9
456.384	1.87
456.589	1.75
456.795	1.49
457	1.5
457.205	1.74
457.41	1.64
457.615	1.59
457.82	1.72
458.025	1.79
458.23	1.62
458.435	1.72
458.64	1.56
