Data from Ofra_PS_T2_2A_2CX08_Reflection_1.txt Node
Date: Wed Jul 21 16:59:18 EDT 2021
User: Adam
Spectrometer: FLMT01687
Trigger mode: 0
Integration Time (sec): 1.100000E0
Scans to average: 2
Electric dark correction enabled: true
Nonlinearity correction enabled: false
Boxcar width: 2
XAxis mode: Wavelengths
Number of Pixels in Spectrum: 3648
>>>>>Begin Spectral Data<<<<<
179.494	405.6
179.716	484.24
179.937	442.14
180.158	402
180.38	581.25
180.601	301.66
180.823	78.26
181.044	65.4
181.265	319.85
181.486	87.67
181.708	55.43
181.929	318.37
182.15	135.21
182.372	199.66
182.593	27.18
182.814	40.79
183.035	62.09
183.257	55.73
183.478	-11.49
183.699	54.5
183.92	63.13
184.141	74.13
184.363	60.82
184.584	102.05
184.805	96.41
185.026	69.38
185.247	67.04
185.468	33.29
185.689	34.63
185.91	18.87
186.132	40.53
186.353	40.32
186.574	85.13
186.795	56.64
187.016	34.13
187.237	16.54
187.458	13.84
187.679	37.99
187.9	31.98
188.121	32.25
188.342	71.76
188.563	77.63
188.784	80.76
189.005	66.63
189.226	109.48
189.447	66.61
189.667	-142.72
189.888	-283.74
190.109	-794.81
190.33	-555.48
190.551	-900
190.772	-178.69
190.993	-162.53
191.214	-123.8
191.434	-68.6
191.655	-23.56
191.876	-54.35
192.097	-73.95
192.318	-118.65
192.538	-193.55
192.759	-101.61
192.98	-36.54
193.201	6.24
193.421	15.18
193.642	33.98
193.863	25.2
194.083	18.34
194.304	3.11
194.525	11.59
194.745	-18.2
194.966	-22.55
195.187	-41.96
195.407	-56.23
195.628	-129.39
195.848	-97.88
196.069	-80.97
196.29	-14.48
196.51	-31.03
196.731	-11.72
196.951	-25.94
197.172	-34.11
197.392	-69.43
197.613	-68.01
197.833	-87.65
198.054	-78.42
198.274	-41.42
198.495	-52.48
198.715	-9.62
198.936	-13.24
199.156	9.88
199.377	-48.17
199.597	-51.58
199.817	-91.48
200.038	-25.67
200.258	-87.81
200.479	-34.18
200.699	0.53
200.919	39.82
201.14	-1.39
201.36	8.63
201.58	21.73
201.801	36.63
202.021	-2.66
202.241	-0.2
202.461	18.32
202.682	-48.99
202.902	-111.7
203.122	-26.67
203.342	-24.65
203.563	-0.47
203.783	29.79
204.003	19.96
204.223	22.07
204.443	51.89
204.663	23.48
204.884	8.6
205.104	21.15
205.324	28.42
205.544	54.17
205.764	55.47
205.984	58.9
206.204	65.06
206.424	47.3
206.644	0.8
206.864	9.77
207.084	-0
207.304	19.03
207.525	-54.38
207.745	7.32
207.964	23.73
208.184	-34.93
208.404	-73.54
208.624	-57.36
208.844	-65.04
209.064	-307.6
209.284	-238.6
209.504	-100.19
209.724	-7.15
209.944	4.08
210.164	32.62
210.384	36.49
210.604	53.7
210.823	7.06
211.043	-17.99
211.263	-0
211.483	2.69
211.703	-38.75
211.922	1.65
212.142	52.83
212.362	67.24
212.582	27.11
212.801	23.1
213.021	8.13
213.241	-6.67
213.461	-43.82
213.68	-41.06
213.9	-28.71
214.12	-17.24
214.339	-54.97
214.559	-49.08
214.779	-4.45
214.998	-4.04
215.218	-33.27
215.438	-19.06
215.657	-13.59
215.877	-32.71
216.096	-24.91
216.316	-19.24
216.535	-35.16
216.755	-31.39
216.974	-96.23
217.194	-118.46
217.413	-114.82
217.633	-68.79
217.852	-127.26
218.072	-61.37
218.291	-15.01
218.511	15.33
218.73	-14.45
218.95	-18.61
219.169	-18.19
219.389	-50.95
219.608	-35.08
219.827	-20.66
220.047	12.02
220.266	26.42
220.485	29.8
220.705	36.57
220.924	12.58
221.143	33.72
221.363	13.2
221.582	22.97
221.801	24.23
222.021	30.92
222.24	-44.83
222.459	-0
222.678	11.96
222.897	-17.56
223.117	-33.22
223.336	15.66
223.555	7.89
223.774	9.62
223.993	21.46
224.213	59.54
224.432	34.58
224.651	47.85
224.87	36.49
225.089	42.81
225.308	21.9
225.527	41.63
225.746	41.54
225.965	24.4
226.184	7.85
226.404	26.75
226.623	-3.83
226.842	-6.93
227.061	8.35
227.28	0.75
227.499	-11.27
227.718	-5.31
227.936	-13.63
228.155	-9.66
228.374	10.27
228.593	16.59
228.812	23.33
229.031	16.71
229.25	-20.11
229.469	-19.42
229.688	-6.31
229.907	11.65
230.125	21.45
230.344	34.65
230.563	31.8
230.782	34.45
231.001	-19.86
231.22	-10.5
231.438	13.12
231.657	11.1
231.876	4.11
232.095	38.2
232.313	33.29
232.532	-5.05
232.751	-19.52
232.969	-36.05
233.188	-107.68
233.407	-35.23
233.625	-7.47
233.844	-6.07
234.063	-6.43
234.281	22.22
234.5	-1.82
234.719	4.16
234.937	11.58
235.156	25.31
235.374	18.14
235.593	24.4
235.811	25.32
236.03	14.8
236.249	-31.32
236.467	-34.53
236.686	3.53
236.904	7.15
237.123	-4.09
237.341	4.69
237.559	13.76
237.778	-2.33
237.996	-9.69
238.215	21.39
238.433	16.57
238.652	10.03
238.87	-0.39
239.088	-5.08
239.307	-25.34
239.525	-26.12
239.743	-38.64
239.962	-57.16
240.18	-37.26
240.398	-49.9
240.617	-54.94
240.835	-33.85
241.053	35.46
241.271	60.3
241.49	54.39
241.708	52.85
241.926	40.82
242.144	0.9
242.363	-38.43
242.581	-55.24
242.799	-13.8
243.017	0.2
243.235	-12.04
243.453	3.99
243.672	0.35
243.89	-7.93
244.108	-10.97
244.326	-0.16
244.544	-5.41
244.762	-3.82
244.98	2.99
245.198	1.66
245.416	-13.94
245.634	-24.39
245.852	-37.92
246.07	-33.66
246.288	-33.06
246.506	-40.67
246.724	-18.49
246.942	-8.04
247.16	9.72
247.378	17.35
247.596	36.69
247.814	32.4
248.032	25.3
248.25	30.2
248.468	31.46
248.685	54.11
248.903	73.17
249.121	84.21
249.339	53.06
249.557	42.46
249.775	30.77
249.992	-24.21
250.21	-26.83
250.428	-11.4
250.646	-37.4
250.863	-40.41
251.081	-13.77
251.299	-26.66
251.517	-28.96
251.734	-3.89
251.952	-20.06
252.17	-5.67
252.387	9.47
252.605	9.72
252.823	21.99
253.04	35.05
253.258	42.41
253.475	45.37
253.693	60.57
253.911	67.89
254.128	71.55
254.346	75.63
254.563	49.94
254.781	30.02
254.998	1.96
255.216	-7.86
255.433	-15.65
255.651	11.18
255.868	47.61
256.086	61.8
256.303	65.8
256.521	61.13
256.738	52.22
256.956	25.49
257.173	24.07
257.39	-3.67
257.608	-25.6
257.825	2.5
258.043	33.84
258.26	33.22
258.477	41.19
258.695	39.01
258.912	-19.6
259.129	-23.13
259.346	-57.97
259.564	-72.99
259.781	-80.77
259.998	-20.77
260.216	6.89
260.433	39.95
260.65	21.81
260.867	40.37
261.084	23.8
261.302	11.64
261.519	-14.83
261.736	-20.74
261.953	-26.01
262.17	-11.91
262.387	-25.62
262.604	-49.4
262.822	-13.46
263.039	-10.32
263.256	-35.89
263.473	-11.46
263.69	5.36
263.907	22.23
264.124	33.41
264.341	56.62
264.558	40.96
264.775	56.99
264.992	54.71
265.209	29.07
265.426	33.25
265.643	41.24
265.86	39.43
266.077	40.66
266.294	29.69
266.51	10.17
266.727	-11.12
266.944	2.62
267.161	-13.03
267.378	-6.25
267.595	21.46
267.812	2.95
268.028	-17.63
268.245	12.16
268.462	4.52
268.679	-17.11
268.896	17.45
269.112	19.01
269.329	12.53
269.546	19.2
269.763	11.06
269.979	-3.58
270.196	0.34
270.413	-27.77
270.629	-49.4
270.846	-45.93
271.063	-37.73
271.279	-58.38
271.496	-40.63
271.712	-11.64
271.929	-9.81
272.146	-10.38
272.362	-2.18
272.579	11.23
272.795	38.86
273.012	59.78
273.228	52.98
273.445	46.39
273.661	38.99
273.878	-12.17
274.094	-29.77
274.311	-38.07
274.527	9.45
274.744	5.71
274.96	-15.92
275.177	-10.9
275.393	4.14
275.609	-1.12
275.826	14.13
276.042	31.35
276.259	41.6
276.475	44.27
276.691	38.71
276.908	26.42
277.124	34.57
277.34	30.1
277.557	12.77
277.773	0.32
277.989	-4.56
278.205	-6.42
278.422	-2.99
278.638	1.45
278.854	22.96
279.07	32.18
279.286	50.9
279.503	28.87
279.719	21.61
279.935	-10.87
280.151	-19.82
280.367	-29.31
280.583	-37.89
280.799	-24.5
281.016	-40.29
281.232	-17.41
281.448	-18.76
281.664	14.27
281.88	-13.15
282.096	-3.27
282.312	35.24
282.528	48.56
282.744	29.92
282.96	29.54
283.176	29.16
283.392	7.09
283.608	-6.83
283.824	1.25
284.04	15.52
284.256	22.37
284.471	26.22
284.687	29.41
284.903	40.56
285.119	56.9
285.335	35.52
285.551	20.89
285.767	3.71
285.982	-9.93
286.198	-50.65
286.414	-24.06
286.63	-4.33
286.846	24.98
287.061	7.2
287.277	38.68
287.493	33.21
287.709	32.42
287.924	9.19
288.14	35.86
288.356	15.71
288.571	29.43
288.787	10.86
289.003	14.23
289.218	1.92
289.434	-23.11
289.65	-17.19
289.865	-10.8
290.081	34.81
290.296	35
290.512	52.57
290.727	21.26
290.943	12.27
291.159	-11.16
291.374	-9.83
291.59	-32.62
291.805	-24.77
292.021	-1.74
292.236	-8.94
292.451	-1.09
292.667	8.5
292.882	33.3
293.098	32.1
293.313	32.97
293.529	28.23
293.744	21.38
293.959	-0.76
294.175	-9.45
294.39	8.32
294.605	17.8
294.821	36.64
295.036	44.32
295.251	51.64
295.467	39.52
295.682	28.22
295.897	16.19
296.112	-12.34
296.328	-5.62
296.543	-35.98
296.758	-23.44
296.973	-8.21
297.188	26.02
297.404	0.83
297.619	3.73
297.834	-10.48
298.049	-33.84
298.264	-56.28
298.479	-7.22
298.694	2.77
298.909	13.03
299.125	14.72
299.34	14.67
299.555	-9.81
299.77	-2.9
299.985	-30.68
300.2	-64.47
300.415	-78.88
300.63	-53.34
300.845	-63.48
301.06	-61.71
301.275	-24.61
301.49	-2.69
301.704	-10.22
301.919	-10.3
302.134	-7.94
302.349	-18.63
302.564	-83.99
302.779	-108.92
302.994	-113.32
303.209	-102.71
303.423	-44.19
303.638	25.29
303.853	-10.03
304.068	11.86
304.283	40.68
304.497	14.13
304.712	-0.34
304.927	13.98
305.142	1.51
305.356	-3.72
305.571	-1.78
305.786	-0.17
306	-2.91
306.215	-7.32
306.43	-41.72
306.644	-23.99
306.859	-10.75
307.074	-0.49
307.288	-33.28
307.503	-40.85
307.717	-36.46
307.932	-29.63
308.147	-33.47
308.361	-5.24
308.576	0.33
308.79	-26.69
309.005	-34.22
309.219	-14.64
309.434	-16.81
309.648	-22.44
309.863	-4.72
310.077	8.46
310.292	5.59
310.506	9.68
310.72	32.42
310.935	47.22
311.149	35.39
311.364	39.38
311.578	48.16
311.792	34.01
312.007	31.56
312.221	18.15
312.435	14.13
312.649	-7.07
312.864	-43.82
313.078	-32.76
313.292	23.37
313.507	-8.05
313.721	19.13
313.935	53.2
314.149	36.04
314.363	12.23
314.578	24.93
314.792	23.9
315.006	7.63
315.22	15.53
315.434	17.48
315.648	18.44
315.862	14.06
316.077	23.89
316.291	9.39
316.505	35.14
316.719	61.76
316.933	12.48
317.147	-0.54
317.361	-25.68
317.575	-66.72
317.789	-105.14
318.003	-123.44
318.217	-86.19
318.431	-19.16
318.645	30.25
318.859	21.8
319.073	39.56
319.287	34.43
319.5	1.29
319.714	-40.28
319.928	-59.04
320.142	-88.55
320.356	-59.25
320.57	-0.78
320.784	-6.84
320.997	-29.63
321.211	-27.99
321.425	-52.21
321.639	-102.19
321.853	-53.27
322.066	-15.04
322.28	-13.29
322.494	-16.47
322.707	5.83
322.921	3.49
323.135	-1.73
323.349	14.98
323.562	-0.46
323.776	-17.88
323.989	-27.74
324.203	-45.77
324.417	-60.49
324.63	-64.55
324.844	-44.23
325.057	-20.73
325.271	-14.74
325.485	8.17
325.698	35.46
325.912	34.35
326.125	-0.16
326.339	13.62
326.552	-15.29
326.766	-21.69
326.979	1.55
327.193	46.83
327.406	29.6
327.619	18.79
327.833	13.65
328.046	-9.57
328.26	-40.2
328.473	-23.3
328.686	-28.68
328.9	-25.32
329.113	-6.2
329.326	-32.53
329.54	-24.73
329.753	-34.33
329.966	-26.98
330.179	-27.74
330.393	-2.73
330.606	15.06
330.819	23.35
331.032	35.97
331.246	37.51
331.459	54.84
331.672	49.64
331.885	53.57
332.098	23.42
332.311	20.36
332.525	-34.81
332.738	-26.89
332.951	2.18
333.164	43.53
333.377	46.53
333.59	61.9
333.803	57.88
334.016	45.92
334.229	31.91
334.442	33.42
334.655	59.02
334.868	53.42
335.081	47.75
335.294	34.87
335.507	29.32
335.72	2.33
335.933	-8.37
336.146	-10.27
336.359	-10.21
336.572	-50.24
336.785	-63.64
336.997	-39.35
337.21	-31.37
337.423	-23.18
337.636	-1.93
337.849	17.71
338.062	20.01
338.274	24.01
338.487	9.57
338.7	5.84
338.913	-28.88
339.125	-62.76
339.338	-121.86
339.551	-88.22
339.763	-39.51
339.976	5.12
340.189	19.57
340.402	38.73
340.614	25.4
340.827	9.59
341.039	-6.78
341.252	-2.25
341.465	8.15
341.677	5.52
341.89	-20.98
342.102	-17.54
342.315	-29.93
342.527	-52.64
342.74	-35.74
342.952	-8.05
343.165	4.23
343.377	22.18
343.59	22.39
343.802	36.51
344.015	41.71
344.227	46.74
344.44	44.61
344.652	32.85
344.864	1.53
345.077	21.61
345.289	23.84
345.502	20.87
345.714	13.97
345.926	22.17
346.139	13.13
346.351	20.2
346.563	17.79
346.775	24.75
346.988	20.48
347.2	6.16
347.412	-36.96
347.624	-43.79
347.837	-30.65
348.049	-10.94
348.261	6.56
348.473	18.45
348.685	24.29
348.897	15.54
349.11	-0
349.322	-18.22
349.534	-18.59
349.746	0.66
349.958	-8.23
350.17	-8.68
350.382	21.98
350.594	19.08
350.806	6.33
351.018	7.87
351.23	-1.82
351.442	-60
351.654	-44.66
351.866	-44.73
352.078	-12.63
352.29	22.89
352.502	34.64
352.714	35.61
352.926	22.32
353.138	3.11
353.35	-14.12
353.561	-13.88
353.773	-44.39
353.985	-20.2
354.197	-24.5
354.409	-27.29
354.621	-27.39
354.832	2.83
355.044	-4.76
355.256	10.63
355.468	25.04
355.679	18.59
355.891	27.08
356.103	24.11
356.314	13.32
356.526	3.63
356.738	-1.81
356.949	-12.56
357.161	-3.2
357.373	-4.03
357.584	-11.27
357.796	6.08
358.008	3.19
358.219	10.14
358.431	0.54
358.642	12.18
358.854	12.54
359.065	-2.22
359.277	-24.03
359.488	-26.65
359.7	-52.51
359.911	-67.27
360.123	-33.45
360.334	-40.05
360.546	-34.84
360.757	-25.39
360.969	-21.78
361.18	-31.66
361.391	-15.23
361.603	-19.4
361.814	-12.85
362.025	2.57
362.237	0.34
362.448	16.08
362.659	23.43
362.871	18.25
363.082	9.69
363.293	10.88
363.504	-0.29
363.716	-7.59
363.927	-11.71
364.138	-25.42
364.349	-36.6
364.56	-34.62
364.772	-33.63
364.983	2.38
365.194	13.45
365.405	25.37
365.616	40.2
365.827	50.5
366.038	14.09
366.25	4.39
366.461	-15.32
366.672	4.78
366.883	18.57
367.094	36.29
367.305	25.4
367.516	24.43
367.727	-13.96
367.938	-30.49
368.149	-44.35
368.36	-15.39
368.571	-6.37
368.781	-15.95
368.992	-26.2
369.203	-32.84
369.414	-52.57
369.625	-65.09
369.836	-39.43
370.047	-60.6
370.258	-44.73
370.468	-54.79
370.679	-62.46
370.89	-50.65
371.101	-36.85
371.312	-39.91
371.522	-27.23
371.733	-18.23
371.944	-6.7
372.155	14.54
372.365	6.99
372.576	5.78
372.787	16.74
372.997	-6.49
373.208	-12.9
373.419	12.26
373.629	-11.67
373.84	-13.95
374.05	-17.64
374.261	-20.28
374.472	-44.22
374.682	-9.14
374.893	-18.12
375.103	13.6
375.314	10.97
375.524	17.19
375.735	20.39
375.945	27.81
376.156	0.71
376.366	9.74
376.577	2.51
376.787	-6.51
376.997	-4.15
377.208	-1.39
377.418	-9.19
377.629	2.84
377.839	3.61
378.049	4.83
378.26	16.21
378.47	20.6
378.68	10.3
378.89	14.11
379.101	3.69
379.311	-16.47
379.521	-35.98
379.732	-30.62
379.942	-36.02
380.152	-40.2
380.362	-12.6
380.572	-18.9
380.783	-6.67
380.993	-3.43
381.203	2.29
381.413	11.77
381.623	28.73
381.833	26.2
382.043	20.57
382.253	10.95
382.463	2.86
382.674	-6.63
382.884	-20.14
383.094	-13.53
383.304	-2.47
383.514	5.35
383.724	13.89
383.934	11.4
384.144	4.56
384.353	-11.29
384.563	-23.77
384.773	-23.32
384.983	-32.24
385.193	-19.47
385.403	-5.3
385.613	-0.46
385.823	-7.7
386.033	2.1
386.242	-5.85
386.452	-12.51
386.662	-18.55
386.872	-4.57
387.082	-9.65
387.291	-7.8
387.501	-1.93
387.711	-3.51
387.921	-10.15
388.13	-5.47
388.34	4.33
388.55	1.17
388.759	2.97
388.969	6.38
389.179	0.15
389.388	-4.6
389.598	0.14
389.807	-4.34
390.017	-4.54
390.227	-1.49
390.436	-2.59
390.646	-4.74
390.855	-0.63
391.065	-4.22
391.274	-6.45
391.484	-9.87
391.693	-4.9
391.903	-4.1
392.112	3.21
392.322	7.3
392.531	11.15
392.74	9.79
392.95	7.02
393.159	3.9
393.369	2.32
393.578	1.64
393.787	-0.85
393.997	0.36
394.206	-1.32
394.415	-1.16
394.625	-1.22
394.834	-1.48
395.043	-0.28
395.252	2.22
395.462	3.53
395.671	4.08
395.88	5.01
396.089	5.66
396.298	3.83
396.508	3.52
396.717	3.13
396.926	2.99
397.135	2.23
397.344	2.28
397.553	2.66
397.762	4.1
397.971	4.16
398.181	4.42
398.39	4.01
398.599	3.41
398.808	3.02
399.017	3.96
399.226	4.89
399.435	6.01
399.644	6.53
399.853	5.44
400.062	4.4
400.27	3.64
400.479	3.33
400.688	2.64
400.897	3.19
401.106	3.49
401.315	3.52
401.524	3.38
401.733	3.8
401.941	3.98
402.15	4.06
402.359	3.91
402.568	4.14
402.777	4.21
402.985	3.85
403.194	3.8
403.403	3.66
403.612	3.43
403.82	3.23
404.029	3.64
404.238	3.47
404.446	3.95
404.655	3.6
404.864	3.62
405.072	3.34
405.281	3.45
405.489	3.11
405.698	3.29
405.906	3.32
406.115	3.29
406.324	3.2
406.532	3.45
406.741	3.73
406.949	3.7
407.158	3.76
407.366	3.74
407.574	3.67
407.783	3.61
407.991	3.4
408.2	3.51
408.408	3.55
408.617	3.32
408.825	3.11
409.033	3.1
409.242	3.03
409.45	3.2
409.658	3.28
409.867	3.4
410.075	3.47
410.283	3.35
410.491	3.13
410.7	3.03
410.908	2.97
411.116	3.22
411.324	3.22
411.533	3.18
411.741	3.33
411.949	3.38
412.157	3.15
412.365	3.21
412.573	3.23
412.781	3.23
412.99	3.18
413.198	3.3
413.406	3.27
413.614	3.29
413.822	3.21
414.03	3.04
414.238	2.85
414.446	2.98
414.654	2.83
414.862	2.84
415.07	3.02
415.278	3.19
415.486	2.92
415.694	3.12
415.902	3
416.109	2.98
416.317	2.89
416.525	2.83
416.733	2.72
416.941	2.91
417.149	2.87
417.357	2.95
417.564	3.13
417.772	3.34
417.98	3.14
418.188	3.12
418.395	3.08
418.603	3.23
418.811	2.9
419.019	2.94
419.226	3
419.434	3.23
419.642	3.03
419.849	3.12
420.057	3.14
420.265	3.23
420.472	2.86
420.68	2.95
420.887	2.88
421.095	2.86
421.302	2.73
421.51	2.97
421.717	2.96
421.925	3.07
422.132	3.02
422.34	2.83
422.547	2.7
422.755	2.67
422.962	2.65
423.17	2.67
423.377	2.77
423.585	2.73
423.792	2.6
423.999	2.67
424.207	2.71
424.414	2.8
424.621	2.64
424.829	2.6
425.036	2.52
425.243	2.56
425.451	2.37
425.658	2.3
425.865	2.46
426.072	2.58
426.28	2.59
426.487	2.72
426.694	2.83
426.901	2.78
427.108	2.67
427.315	2.69
427.523	2.94
427.73	3.02
427.937	2.94
428.144	2.84
428.351	2.77
428.558	2.69
428.765	2.52
428.972	2.44
429.179	2.63
429.386	2.91
429.593	2.72
429.8	2.75
430.007	2.86
430.214	2.84
430.421	2.55
430.628	2.51
430.835	2.39
431.042	2.57
431.249	2.57
431.456	2.49
431.662	2.63
431.869	2.9
432.076	2.79
432.283	2.84
432.49	2.91
432.697	2.84
432.903	2.55
433.11	2.58
433.317	2.59
433.524	2.67
433.73	2.7
433.937	3.04
434.144	2.91
434.35	2.85
434.557	2.69
434.764	2.73
434.97	2.59
435.177	2.75
435.384	2.67
435.59	2.85
435.797	2.98
436.003	3.04
436.21	3.01
436.416	3.13
436.623	3.08
436.829	3.02
437.036	3.16
437.242	3.15
437.449	3.04
437.655	3.08
437.862	3.09
438.068	2.9
438.275	2.98
438.481	3.22
438.687	3.12
438.894	3.09
439.1	3.13
439.307	3.16
439.513	3
439.719	3.03
439.926	3.03
440.132	3.04
440.338	2.93
440.544	3.05
440.751	3
440.957	3.08
441.163	3
441.369	3.03
441.575	2.84
441.782	2.88
441.988	2.71
442.194	2.64
442.4	2.7
442.606	2.98
442.812	3.07
443.018	3.18
443.224	3.3
443.431	3.26
443.637	3.01
443.843	2.85
444.049	2.89
444.255	2.81
444.461	2.87
444.667	2.83
444.873	3
445.079	2.97
445.284	3.08
445.49	2.85
445.696	2.74
445.902	2.62
446.108	2.54
446.314	2.49
446.52	2.53
446.726	2.85
446.931	2.93
447.137	2.94
447.343	2.99
447.549	3.01
447.755	2.82
447.96	2.76
448.166	2.75
448.372	2.73
448.578	2.85
448.783	2.94
448.989	3.08
449.195	3.28
449.4	3.29
449.606	3.26
449.812	3.15
450.017	3.1
450.223	2.97
450.428	2.9
450.634	2.92
450.84	3.06
451.045	2.99
451.251	2.92
451.456	3.16
451.662	3.22
451.867	3.28
452.073	3.35
452.278	3.46
452.483	3.51
452.689	3.4
452.894	3.37
453.1	3.34
453.305	3.27
453.51	3.19
453.716	3.21
453.921	3.22
454.127	3.24
454.332	3.22
454.537	3.13
454.742	3.24
454.948	3.21
455.153	3.27
455.358	3.33
455.563	3.41
455.769	3.52
455.974	3.5
456.179	3.37
456.384	3.46
456.589	3.41
456.795	3.15
457	3.17
457.205	3.33
457.41	3.21
457.615	3.27
457.82	3.41
458.025	3.41
458.23	3.29
458.435	3.35
458.64	3.23
458.845	3.34
459.05	3.38
459.255	3.5
459.46	3.55
459.665	3.59
459.87	3.55
460.075	3.55
460.28	3.53
460.485	3.6
460.69	3.75
460.895	3.66
461.099	3.61
461.304	3.72
461.509	3.73
461.714	3.62
461.919	3.72
462.123	3.73
462.328	3.76
462.533	3.7
462.738	3.83
462.942	3.81
463.147	3.9
463.352	3.84
463.556	3.88
463.761	3.81
463.966	3.83
464.17	3.92
