Data from Ofra_2a_PS_8HS21_Reflection_3.txt Node
Date: Tue Jul 20 09:56:11 EDT 2021
User: Adam
Spectrometer: FLMT01687
Trigger mode: 0
Integration Time (sec): 9.450000E-1
Scans to average: 3
Electric dark correction enabled: true
Nonlinearity correction enabled: false
Boxcar width: 3
XAxis mode: Wavelengths
Number of Pixels in Spectrum: 3648
>>>>>Begin Spectral Data<<<<<
179.494	739.64
179.716	494.72
179.937	525.27
180.158	2182.81
180.38	-1317.44
180.601	-267.29
180.823	-155.07
181.044	-65.34
181.265	-5.26
181.486	38.08
181.708	395.65
181.929	163.72
182.15	350
182.372	-24.19
182.593	-65.07
182.814	451.5
183.035	383.47
183.257	181.66
183.478	96.1
183.699	91.05
183.92	76.6
184.141	74.58
184.363	66.89
184.584	42.04
184.805	42.91
185.026	61.52
185.247	54.96
185.468	56.88
185.689	52.71
185.91	44.46
186.132	58.42
186.353	54.12
186.574	44.74
186.795	29.69
187.016	23.87
187.237	16.15
187.458	1.36
187.679	-9.37
187.9	-4.95
188.121	7.57
188.342	29.9
188.563	44.67
188.784	45.55
189.005	57.85
189.226	54.53
189.447	54.37
189.667	42.07
189.888	48.46
190.109	45.76
190.33	39.44
190.551	29.25
190.772	20.05
190.993	25.29
191.214	28.26
191.434	27.38
191.655	23.49
191.876	33.72
192.097	34.87
192.318	42.66
192.538	31.94
192.759	41.78
192.98	33.9
193.201	43.97
193.421	39.38
193.642	35.34
193.863	37.11
194.083	46.81
194.304	16.94
194.525	33.46
194.745	11.37
194.966	12.92
195.187	30.78
195.407	26.08
195.628	30.38
195.848	33.93
196.069	27.87
196.29	25.6
196.51	14.73
196.731	0.59
196.951	-5.77
197.172	-12.09
197.392	1.87
197.613	0.47
197.833	2.35
198.054	18.97
198.274	7.4
198.495	22.01
198.715	3.53
198.936	18.23
199.156	21.59
199.377	7.12
199.597	3.1
199.817	14.76
200.038	12.16
200.258	19.78
200.479	22.68
200.699	25.52
200.919	32.3
201.14	25.7
201.36	37.71
201.58	38.64
201.801	41.22
202.021	27.69
202.241	29.49
202.461	38.76
202.682	45.24
202.902	37.6
203.122	29.45
203.342	39.95
203.563	53.54
203.783	50
204.003	42.4
204.223	38.35
204.443	34.88
204.663	35.24
204.884	32.45
205.104	20.52
205.324	31.62
205.544	44.36
205.764	53.96
205.984	59.11
206.204	58.26
206.424	41.78
206.644	45.12
206.864	23.26
207.084	29.48
207.304	19.16
207.525	9.06
207.745	21.94
207.964	25.54
208.184	23.02
208.404	32.02
208.624	15.5
208.844	0.04
209.064	8.13
209.284	16.2
209.504	11.77
209.724	-7.73
209.944	10.57
210.164	24.16
210.384	50.13
210.604	48.62
210.823	18.68
211.043	12.16
211.263	23.13
211.483	12.99
211.703	15.2
211.922	22.59
212.142	31.45
212.362	36
212.582	36.12
212.801	31.07
213.021	35.3
213.241	28.3
213.461	16.37
213.68	16.85
213.9	21.25
214.12	27.74
214.339	43.64
214.559	49.51
214.779	55.19
214.998	48.79
215.218	53.62
215.438	63.37
215.657	63.07
215.877	59.97
216.096	51.01
216.316	47.61
216.535	54
216.755	38.32
216.974	30.31
217.194	22.22
217.413	32.34
217.633	33.8
217.852	34.29
218.072	28.59
218.291	58.4
218.511	48.22
218.73	54.29
218.95	56.39
219.169	59.68
219.389	56.23
219.608	61.61
219.827	38.82
220.047	56.6
220.266	54.74
220.485	56.96
220.705	43.06
220.924	47.25
221.143	29.85
221.363	27.53
221.582	21.26
221.801	23.57
222.021	19.9
222.24	28.14
222.459	15.46
222.678	19.28
222.897	20.48
223.117	24.31
223.336	19.22
223.555	-5.18
223.774	10.42
223.993	28.03
224.213	27.44
224.432	47.08
224.651	43.85
224.87	37.61
225.089	47.34
225.308	42.16
225.527	37.65
225.746	28.39
225.965	17.11
226.184	30.44
226.404	29.71
226.623	50.33
226.842	45.27
227.061	51.11
227.28	76.85
227.499	64.62
227.718	40.31
227.936	43.02
228.155	33.49
228.374	27.82
228.593	25.4
228.812	18.19
229.031	8.59
229.25	24.9
229.469	27.55
229.688	36.82
229.907	43.18
230.125	40.27
230.344	57.4
230.563	71.71
230.782	63.28
231.001	65.41
231.22	60.2
231.438	62.42
231.657	57.06
231.876	50.73
232.095	38
232.313	51.03
232.532	53.1
232.751	53
232.969	53.05
233.188	60.52
233.407	51.29
233.625	40.08
233.844	29.21
234.063	24.03
234.281	22.08
234.5	16.71
234.719	4.29
234.937	10.04
235.156	15.49
235.374	26.54
235.593	19.2
235.811	16.43
236.03	0.05
236.249	24.13
236.467	20.72
236.686	33.54
236.904	26.76
237.123	38.13
237.341	33.43
237.559	48.55
237.778	52.17
237.996	56.09
238.215	47.09
238.433	45.26
238.652	36
238.87	39.55
239.088	22.91
239.307	19.93
239.525	6.64
239.743	8.47
239.962	2.53
240.18	20.51
240.398	26.34
240.617	40.59
240.835	35.24
241.053	47.69
241.271	47.25
241.49	51.8
241.708	40.59
241.926	25.85
242.144	26.85
242.363	28.36
242.581	23.9
242.799	14.08
243.017	13.23
243.235	8.11
243.453	25.41
243.672	12.55
243.89	22.83
244.108	29.07
244.326	33.98
244.544	31.08
244.762	36.31
244.98	27
245.198	24.12
245.416	23.28
245.634	25.64
245.852	35.16
246.07	37.82
246.288	35.66
246.506	41.01
246.724	58.84
246.942	58.78
247.16	52.43
247.378	36.32
247.596	39.15
247.814	27.95
248.032	31.72
248.25	28.85
248.468	20.46
248.685	15.29
248.903	16.29
249.121	11.64
249.339	19.24
249.557	26.09
249.775	7.52
249.992	5.63
250.21	-3.71
250.428	-3.22
250.646	2.89
250.863	5.09
251.081	-8.03
251.299	15.18
251.517	16.34
251.734	29.03
251.952	27.29
252.17	0.69
252.387	4.87
252.605	3.41
252.823	-12.93
253.04	-24.43
253.258	-19.36
253.475	-7.85
253.693	22.03
253.911	20.64
254.128	15.45
254.346	14.95
254.563	21.64
254.781	18.82
254.998	20.01
255.216	14.3
255.433	15.67
255.651	22.26
255.868	26
256.086	31.08
256.303	34
256.521	26.29
256.738	16.24
256.956	6.59
257.173	10.91
257.39	11.45
257.608	16.41
257.825	17.27
258.043	23.76
258.26	27.66
258.477	32.28
258.695	35.49
258.912	40.72
259.129	28.55
259.346	26.81
259.564	29.96
259.781	34.61
259.998	36.55
260.216	32.77
260.433	29.77
260.65	42.07
260.867	21.39
261.084	29.31
261.302	26.1
261.519	16.36
261.736	13.72
261.953	27.25
262.17	16.41
262.387	40.25
262.604	21.78
262.822	36.87
263.039	43.35
263.256	36.07
263.473	20.53
263.69	22.15
263.907	23.08
264.124	20.28
264.341	6.73
264.558	9.65
264.775	14.36
264.992	21.87
265.209	30.18
265.426	19.02
265.643	27.61
265.86	29.99
266.077	36.24
266.294	36.88
266.51	33.77
266.727	13.73
266.944	22.63
267.161	17.5
267.378	1.85
267.595	-19.01
267.812	-36.07
268.028	-34.52
268.245	-9.83
268.462	-9.34
268.679	-3.72
268.896	-2.27
269.112	11.14
269.329	25.64
269.546	29.9
269.763	29.28
269.979	29.71
270.196	31.21
270.413	40.05
270.629	33.2
270.846	35.8
271.063	34.74
271.279	26.18
271.496	12.4
271.712	10.45
271.929	9.13
272.146	17.3
272.362	-5.84
272.579	-6.76
272.795	-2.02
273.012	15.44
273.228	9.7
273.445	21.29
273.661	10.7
273.878	30.72
274.094	37.9
274.311	35.15
274.527	32.71
274.744	39.29
274.96	29.41
275.177	46.45
275.393	44.04
275.609	36.26
275.826	37.93
276.042	44.59
276.259	41.04
276.475	39.7
276.691	33.14
276.908	30.76
277.124	35.57
277.34	27.78
277.557	23.18
277.773	22.82
277.989	18.27
278.205	10.82
278.422	19.2
278.638	18.07
278.854	31.88
279.07	23.63
279.286	23.16
279.503	31.65
279.719	41.26
279.935	26.44
280.151	29.18
280.367	20.08
280.583	26.62
280.799	31.36
281.016	25.22
281.232	19.91
281.448	16.03
281.664	16.9
281.88	20.6
282.096	20.19
282.312	10.15
282.528	13.44
282.744	13.26
282.96	23.51
283.176	24.19
283.392	33.73
283.608	40.04
283.824	39.28
284.04	44.38
284.256	48.26
284.471	49.57
284.687	37.25
284.903	37.5
285.119	26.1
285.335	34.53
285.551	31.68
285.767	25.96
285.982	23.16
286.198	38.1
286.414	42.42
286.63	58.76
286.846	52.6
287.061	50.15
287.277	58.88
287.493	62.99
287.709	54.93
287.924	44.7
288.14	36.93
288.356	42.79
288.571	37.48
288.787	39.1
289.003	36.93
289.218	38.68
289.434	43.45
289.65	46.5
289.865	51.22
290.081	51.14
290.296	49.01
290.512	45.73
290.727	51.89
290.943	52.59
291.159	50.59
291.374	38.12
291.59	40.52
291.805	40.24
292.021	44.59
292.236	40.01
292.451	36.74
292.667	29.19
292.882	29.84
293.098	25.74
293.313	23.23
293.529	21.14
293.744	18.2
293.959	20.81
294.175	21.24
294.39	34.32
294.605	42.62
294.821	34.86
295.036	40.32
295.251	40.73
295.467	36.84
295.682	38.24
295.897	25.48
296.112	29.15
296.328	31.46
296.543	32.45
296.758	33.31
296.973	41.14
297.188	39.7
297.404	46.9
297.619	41.95
297.834	51.33
298.049	42.52
298.264	37.73
298.479	23.03
298.694	29.72
298.909	23.99
299.125	24.9
299.34	17.96
299.555	25.45
299.77	28.62
299.985	33.91
300.2	23.67
300.415	29.07
300.63	24.13
300.845	30.89
301.06	24.98
301.275	31.57
301.49	37.79
301.704	39.46
301.919	29.69
302.134	27.77
302.349	15.53
302.564	16.93
302.779	5.82
302.994	-6.41
303.209	-10.9
303.423	6.41
303.638	12.53
303.853	17.02
304.068	18.69
304.283	19.95
304.497	16.52
304.712	24.44
304.927	15.25
305.142	15.9
305.356	14.63
305.571	20.84
305.786	16.85
306	27.58
306.215	31.96
306.43	43.79
306.644	45.26
306.859	46.89
307.074	43.05
307.288	51.57
307.503	40.64
307.717	37.57
307.932	36.76
308.147	28.22
308.361	27.84
308.576	22.15
308.79	16.84
309.005	25.95
309.219	27.39
309.434	23.83
309.648	23.84
309.863	24.69
310.077	31.1
310.292	35.73
310.506	41.07
310.72	45.69
310.935	53.16
311.149	46.81
311.364	50.79
311.578	48.68
311.792	43.43
312.007	36.02
312.221	38.08
312.435	36.95
312.649	17.92
312.864	2.66
313.078	8.04
313.292	15.04
313.507	9.09
313.721	-11.67
313.935	-7.13
314.149	26.41
314.363	35.94
314.578	57.43
314.792	50.79
315.006	52.35
315.22	57.8
315.434	46.32
315.648	43.4
315.862	32.96
316.077	14.44
316.291	23.64
316.505	23.49
316.719	3.05
316.933	10.43
317.147	15.74
317.361	25.7
317.575	21.6
317.789	18.87
318.003	26.83
318.217	39.05
318.431	45.32
318.645	53.69
318.859	46.76
319.073	43.68
319.287	39.5
319.5	34.45
319.714	36.1
319.928	33.7
320.142	28.19
320.356	36.68
320.57	33.66
320.784	31.44
320.997	31.43
321.211	34.72
321.425	24.22
321.639	22.83
321.853	14.23
322.066	15.63
322.28	20.29
322.494	21.23
322.707	13.13
322.921	25.74
323.135	24.17
323.349	26.75
323.562	30.09
323.776	26.97
323.989	22.13
324.203	28.35
324.417	18.14
324.63	21.29
324.844	10.59
325.057	14.37
325.271	3.15
325.485	10.15
325.698	5.52
325.912	14.17
326.125	22.6
326.339	36.33
326.552	34.67
326.766	44.86
326.979	46.45
327.193	47.49
327.406	50
327.619	30.09
327.833	23.23
328.046	15.52
328.26	3.53
328.473	0.22
328.686	3.99
328.9	-2.25
329.113	6.58
329.326	14.84
329.54	22.16
329.753	36.46
329.966	38.82
330.179	42.92
330.393	46.56
330.606	52.92
330.819	52.95
331.032	47.85
331.246	43.13
331.459	33.22
331.672	32.51
331.885	23.42
332.098	17.81
332.311	-0.15
332.525	9.44
332.738	14.46
332.951	24.48
333.164	7.44
333.377	3.87
333.59	4.57
333.803	14.96
334.016	10.58
334.229	12.13
334.442	22.98
334.655	49.95
334.868	59.4
335.081	61.61
335.294	63.96
335.507	64.13
335.72	52.11
335.933	56.33
336.146	41.49
336.359	32.29
336.572	25.52
336.785	26.56
336.997	15.37
337.21	26.27
337.423	14.04
337.636	22.07
337.849	22.2
338.062	27.51
338.274	28.79
338.487	26.58
338.7	25.27
338.913	26.44
339.125	25.9
339.338	34.38
339.551	36.74
339.763	30.66
339.976	32
340.189	27.57
340.402	23.48
340.614	23.79
340.827	12.18
341.039	10.99
341.252	13.65
341.465	11.95
341.677	2.86
341.89	13.23
342.102	9.17
342.315	17.41
342.527	10
342.74	8.58
342.952	13.29
343.165	34.96
343.377	23.78
343.59	27.57
343.802	37.59
344.015	42.23
344.227	42.9
344.44	38.96
344.652	40.81
344.864	44.38
345.077	45.69
345.289	34.93
345.502	39.74
345.714	32.95
345.926	35.76
346.139	26.59
346.351	18.24
346.563	27.17
346.775	21.91
346.988	19.92
347.2	19.43
347.412	21.1
347.624	26.95
347.837	30.37
348.049	22.45
348.261	25.18
348.473	20.78
348.685	28.9
348.897	26.75
349.11	24.76
349.322	23.31
349.534	29.42
349.746	35.75
349.958	39.67
350.17	45.82
350.382	31.87
350.594	27.55
350.806	33.47
351.018	35.93
351.23	32.78
351.442	21.52
351.654	14.16
351.866	25.71
352.078	20.95
352.29	20.71
352.502	17.9
352.714	19.76
352.926	24.51
353.138	26.04
353.35	25.14
353.561	23.98
353.773	17.68
353.985	21.5
354.197	15.47
354.409	20.26
354.621	20.26
354.832	11.97
355.044	20.25
355.256	21.82
355.468	16.73
355.679	23.93
355.891	19.85
356.103	21.56
356.314	29.13
356.526	27.13
356.738	29.66
356.949	26.38
357.161	21.61
357.373	24.49
357.584	28.67
357.796	25.26
358.008	18.53
358.219	27.62
358.431	30.24
358.642	36.27
358.854	37.85
359.065	32.56
359.277	29.47
359.488	30.01
359.7	22.55
359.911	17.19
360.123	17.1
360.334	14.43
360.546	7.57
360.757	13.99
360.969	25.31
361.18	22.7
361.391	25.01
361.603	23.54
361.814	26.12
362.025	33.96
362.237	30.53
362.448	25.94
362.659	20.32
362.871	24.65
363.082	28.24
363.293	25
363.504	23.66
363.716	26.91
363.927	22.82
364.138	25.27
364.349	26.91
364.56	17.1
364.772	20.67
364.983	18.44
365.194	20.49
365.405	19.03
365.616	10.19
365.827	1
366.038	18.11
366.25	19.34
366.461	31.02
366.672	25.69
366.883	37.65
367.094	38.58
367.305	34.89
367.516	30.64
367.727	24.81
367.938	13.96
368.149	18.62
368.36	10.02
368.571	13.83
368.781	18.74
368.992	12.84
369.203	13.4
369.414	7.88
369.625	2.86
369.836	5.55
370.047	5
370.258	4.18
370.468	10.75
370.679	12.37
370.89	29.41
371.101	24.52
371.312	19.09
371.522	26.47
371.733	18.37
371.944	20.38
372.155	9.01
372.365	-10.06
372.576	1.58
372.787	0.45
372.997	-1.46
373.208	9.93
373.419	6.33
373.629	22.12
373.84	31.4
374.05	27.59
374.261	27.99
374.472	33.77
374.682	31.11
374.893	28.48
375.103	30.34
375.314	30.53
375.524	29.8
375.735	30.04
375.945	19.99
376.156	20.86
376.366	20.25
376.577	12.06
376.787	8.96
376.997	9.97
377.208	8.29
377.418	14.61
377.629	14.75
377.839	22.04
378.049	26.04
378.26	24.68
378.47	29.01
378.68	33.67
378.89	29.51
379.101	21.39
379.311	8.82
379.521	7.52
379.732	1.14
379.942	-1.61
380.152	2.27
380.362	9.75
380.572	15.7
380.783	19
380.993	17.62
381.203	28.11
381.413	31.09
381.623	27.54
381.833	20.33
382.043	17.63
382.253	23.7
382.463	26.95
382.674	19.54
382.884	10.46
383.094	9.97
383.304	9.49
383.514	14.04
383.724	9.91
383.934	8.49
384.144	12.41
384.353	14.87
384.563	11.68
384.773	16.24
384.983	15.48
385.193	15.67
385.403	17.92
385.613	15.67
385.823	16
386.033	17.03
386.242	14.94
386.452	14.05
386.662	16.59
386.872	11.32
387.082	6.71
387.291	6.31
387.501	8
387.711	6.11
387.921	6.62
388.13	5.53
388.34	6.18
388.55	11.74
388.759	11.88
388.969	6.98
389.179	9.98
389.388	8.05
389.598	5.44
389.807	4.73
390.017	2.14
390.227	0.55
390.436	3.64
390.646	2.43
390.855	2.44
391.065	3.48
391.274	2.68
391.484	4.19
391.693	5
391.903	4.04
392.112	3.13
392.322	4.08
392.531	3.54
392.74	3.62
392.95	3.36
393.159	3.99
393.369	4.76
393.578	5.49
393.787	4.96
393.997	6.79
394.206	7.56
394.415	7.37
394.625	6.17
394.834	4.94
395.043	4.93
395.252	4.53
395.462	3.5
395.671	3.64
395.88	2.98
396.089	3.54
396.298	4.13
396.508	3.96
396.717	3.76
396.926	3.21
397.135	2.48
397.344	2.61
397.553	2.94
397.762	2.92
397.971	2.88
398.181	2.85
398.39	3.21
398.599	3.65
398.808	3.83
399.017	3.69
399.226	3.96
399.435	4.18
399.644	4.22
399.853	4.31
400.062	4.09
400.27	4.03
400.479	3.87
400.688	3.66
400.897	3.68
401.106	3.87
401.315	3.63
401.524	3.74
401.733	3.92
401.941	3.79
402.15	3.65
402.359	3.58
402.568	3.48
402.777	3.46
402.985	3.44
403.194	3.3
403.403	3.08
403.612	3.09
403.82	2.99
404.029	2.96
404.238	3.02
404.446	2.87
404.655	2.74
404.864	2.92
405.072	2.89
405.281	2.79
405.489	2.92
405.698	2.83
405.906	2.88
406.115	3
406.324	2.97
406.532	3.04
406.741	3.11
406.949	2.92
407.158	2.98
407.366	3.08
407.574	2.98
407.783	2.9
407.991	2.77
408.2	2.7
408.408	2.78
408.617	2.73
408.825	2.66
409.033	2.67
409.242	2.66
409.45	2.71
409.658	2.72
409.867	2.66
410.075	2.64
410.283	2.52
410.491	2.47
410.7	2.54
410.908	2.56
411.116	2.53
411.324	2.58
411.533	2.41
411.741	2.48
411.949	2.5
412.157	2.48
412.365	2.39
412.573	2.43
412.781	2.43
412.99	2.67
413.198	2.68
413.406	2.65
413.614	2.69
413.822	2.68
414.03	2.55
414.238	2.58
414.446	2.48
414.654	2.47
414.862	2.48
415.07	2.45
415.278	2.44
415.486	2.55
415.694	2.44
415.902	2.42
416.109	2.42
416.317	2.36
416.525	2.4
416.733	2.49
416.941	2.43
417.149	2.51
417.357	2.54
417.564	2.51
417.772	2.55
417.98	2.51
418.188	2.37
418.395	2.38
418.603	2.23
418.811	2.16
419.019	2.16
419.226	2.22
419.434	2.16
419.642	2.21
419.849	2.2
420.057	2.34
420.265	2.32
420.472	2.31
420.68	2.24
420.887	2.3
421.095	2.34
421.302	2.44
421.51	2.48
421.717	2.56
421.925	2.53
422.132	2.5
422.34	2.5
422.547	2.46
422.755	2.34
422.962	2.14
423.17	2.07
423.377	2.21
423.585	2.22
423.792	2.16
423.999	2.12
424.207	2.06
424.414	2.23
424.621	2.22
424.829	2.04
425.036	2.05
425.243	2.05
425.451	2.06
425.658	2.16
425.865	2.02
426.072	2.14
426.28	2.2
426.487	2.18
426.694	2.15
426.901	2.11
427.108	2.12
427.315	2.1
427.523	2.12
427.73	2.11
427.937	2.11
428.144	2.22
428.351	2.37
428.558	2.33
428.765	2.27
428.972	2.28
429.179	2.25
429.386	2.27
429.593	2.19
429.8	2.13
430.007	2.12
430.214	2.28
430.421	2.16
430.628	2.07
430.835	2.05
431.042	2.1
431.249	2.08
431.456	2.12
431.662	2.1
431.869	2.22
432.076	2.27
432.283	2.25
432.49	2.24
432.697	2.29
432.903	2.31
433.11	2.35
433.317	2.28
433.524	2.25
433.73	2.35
433.937	2.35
434.144	2.4
434.35	2.38
434.557	2.32
434.764	2.27
434.97	2.39
435.177	2.29
435.384	2.31
435.59	2.2
435.797	2.21
436.003	2.24
436.21	2.3
436.416	2.25
436.623	2.32
436.829	2.29
437.036	2.34
437.242	2.37
437.449	2.39
437.655	2.38
437.862	2.41
438.068	2.46
438.275	2.43
438.481	2.47
438.687	2.54
438.894	2.54
439.1	2.61
439.307	2.6
439.513	2.51
439.719	2.58
439.926	2.61
440.132	2.55
440.338	2.59
440.544	2.54
440.751	2.52
440.957	2.54
441.163	2.57
441.369	2.49
441.575	2.45
441.782	2.38
441.988	2.39
442.194	2.52
442.4	2.6
442.606	2.62
442.812	2.69
443.018	2.71
443.224	2.8
443.431	2.82
443.637	2.73
443.843	2.66
444.049	2.58
444.255	2.51
444.461	2.53
444.667	2.52
444.873	2.52
445.079	2.56
445.284	2.57
445.49	2.57
445.696	2.66
445.902	2.73
446.108	2.76
446.314	2.82
446.52	2.85
446.726	2.92
446.931	2.94
447.137	2.92
447.343	2.85
447.549	2.78
447.755	2.7
447.96	2.63
448.166	2.64
448.372	2.64
448.578	2.62
448.783	2.61
448.989	2.66
449.195	2.66
449.4	2.7
449.606	2.65
449.812	2.7
450.017	2.72
450.223	2.76
450.428	2.76
450.634	2.8
450.84	2.76
451.045	2.81
451.251	2.83
451.456	2.8
451.662	2.77
451.867	2.74
452.073	2.7
452.278	2.74
452.483	2.75
452.689	2.73
452.894	2.76
453.1	2.76
453.305	2.8
453.51	2.82
453.716	2.86
453.921	2.84
454.127	2.82
454.332	2.82
454.537	2.88
454.742	2.85
454.948	2.87
455.153	2.86
455.358	2.91
455.563	2.91
455.769	2.89
455.974	2.79
456.179	2.76
456.384	2.8
456.589	2.8
456.795	2.7
457	2.71
457.205	2.69
457.41	2.72
457.615	2.77
457.82	2.77
458.025	2.8
458.23	2.86
458.435	2.81
458.64	2.9
458.845	2.92
459.05	2.92
459.255	2.92
459.46	2.88
459.665	2.91
459.87	2.93
460.075	2.87
460.28	2.89
460.485	2.91
460.69	2.86
460.895	2.88
461.099	2.88
461.304	2.88
461.509	2.81
461.714	2.83
461.919	2.78
462.123	2.84
462.328	2.8
462.533	2.82
462.738	2.84
462.942	2.97
463.147	2.96
463.352	3.05
463.556	3.04
463.761	3.08
463.966	3.07
464.17	3.09
464.375	3.02
464.58	3.03
464.784	3.02
464.989	3
465.193	3.04
465.398	3.08
465.602	3.09
465.807	3.12
466.011	3.15
466.216	3.16
466.42	3.22
466.625	3.2
466.829	3.19
467.034	3.23
467.238	3.27
467.443	3.28
467.647	3.29
467.851	3.28
468.056	3.27
468.26	3.22
468.464	3.18
468.669	3.23
468.873	3.24
469.077	3.23
469.282	3.27
469.486	3.3
