Data from Ofra_PS_T2_2A_2HS17_Reflection_1.txt Node
Date: Wed Jul 21 17:07:02 EDT 2021
User: Adam
Spectrometer: FLMT01687
Trigger mode: 0
Integration Time (sec): 1.100000E0
Scans to average: 2
Electric dark correction enabled: true
Nonlinearity correction enabled: false
Boxcar width: 2
XAxis mode: Wavelengths
Number of Pixels in Spectrum: 3648
>>>>>Begin Spectral Data<<<<<
179.494	491.4
179.716	571.76
179.937	552.67
180.158	558.56
180.38	998.91
180.601	336.05
180.823	129.48
181.044	-4.62
181.265	72.24
181.486	22.32
181.708	116.22
181.929	298.47
182.15	-256.69
182.372	121.88
182.593	58.8
182.814	33.69
183.035	82.57
183.257	78.48
183.478	3.35
183.699	17.26
183.92	8.82
184.141	-25.91
184.363	-81.29
184.584	-25.61
184.805	-15.02
185.026	16.8
185.247	34.55
185.468	18.38
185.689	34.7
185.91	51.47
186.132	41.15
186.353	35.1
186.574	104.28
186.795	60.32
187.016	9.18
187.237	6.52
187.458	-30.02
187.679	-37.19
187.9	-16.23
188.121	7.58
188.342	17.53
188.563	58.29
188.784	47.96
189.005	6.42
189.226	59.51
189.447	26
189.667	-225.36
189.888	-277.46
190.109	-766.56
190.33	-616.94
190.551	-1029.42
190.772	-202.48
190.993	-172.37
191.214	-122.33
191.434	-78.54
191.655	1.2
191.876	-1.47
192.097	-44.97
192.318	-136.32
192.538	-225
192.759	-180.46
192.98	-105.15
193.201	-46.72
193.421	-20.34
193.642	6.02
193.863	13.37
194.083	-7.56
194.304	-32.59
194.525	-10.73
194.745	-11.94
194.966	-31.79
195.187	-33.66
195.407	-22.76
195.628	-99.59
195.848	-111.61
196.069	-108.98
196.29	-64.24
196.51	-85.68
196.731	-55.54
196.951	-80.66
197.172	-107.73
197.392	-120.49
197.613	-123.08
197.833	-174.11
198.054	-127.65
198.274	-64.11
198.495	-75.12
198.715	-31.32
198.936	-37.98
199.156	-29.29
199.377	-101.93
199.597	-96.63
199.817	-110.04
200.038	-42.99
200.258	-86.92
200.479	-40.11
200.699	-37.5
200.919	5.51
201.14	-17.23
201.36	-29.95
201.58	13.6
201.801	23.82
202.021	-13.62
202.241	-7.57
202.461	6.99
202.682	-50.33
202.902	-100.83
203.122	-40.4
203.342	-2.33
203.563	-0.42
203.783	25.33
204.003	27.6
204.223	29.82
204.443	24.15
204.663	-9.7
204.884	-14.63
205.104	-0.21
205.324	10.18
205.544	27.01
205.764	47.54
205.984	47.13
206.204	57.55
206.424	43.54
206.644	-3.95
206.864	10.1
207.084	-23.48
207.304	-25.42
207.525	-152.58
207.745	-79.78
207.964	-27.35
208.184	-50.13
208.404	-94.48
208.624	-78.94
208.844	-66.87
209.064	-360.66
209.284	-402.4
209.504	-211.49
209.724	-43.15
209.944	-19.14
210.164	33.34
210.384	44.03
210.604	44.48
210.823	-14.05
211.043	-29.08
211.263	-33.3
211.483	-42.35
211.703	-102.07
211.922	-82.15
212.142	-25.31
212.362	-24.65
212.582	-16.15
212.801	21.71
213.021	-4.86
213.241	-25.82
213.461	-41.27
213.68	-57.53
213.9	-72.95
214.12	-37.5
214.339	-95.11
214.559	-79.78
214.779	-16.18
214.998	-6.68
215.218	-50.72
215.438	-2.19
215.657	-2.15
215.877	-18.1
216.096	16.15
216.316	29.88
216.535	19.28
216.755	0.51
216.974	-59.54
217.194	-140.01
217.413	-142.94
217.633	-139.93
217.852	-230.18
218.072	-132.2
218.291	-72.95
218.511	-26.88
218.73	-54.13
218.95	-44.34
219.169	-33.47
219.389	-71.28
219.608	-46.83
219.827	-18.81
220.047	24.96
220.266	14.62
220.485	35.77
220.705	35.31
220.924	-0.15
221.143	23.03
221.363	6.39
221.582	8.55
221.801	25.12
222.021	44.34
222.24	-14.56
222.459	87.91
222.678	48.86
222.897	-65.86
223.117	-131.73
223.336	-111.43
223.555	-101.11
223.774	-45.16
223.993	-10.63
224.213	59.62
224.432	41.33
224.651	64.7
224.87	23.74
225.089	44.05
225.308	15.11
225.527	28.88
225.746	22.38
225.965	27.85
226.184	-14.66
226.404	22.05
226.623	-2.63
226.842	-8.58
227.061	15.84
227.28	31.72
227.499	24.84
227.718	37.37
227.936	28.51
228.155	32.67
228.374	20.16
228.593	14.6
228.812	22.07
229.031	25.75
229.25	-33.38
229.469	-30.96
229.688	-27.58
229.907	5.77
230.125	25.88
230.344	42.7
230.563	46.59
230.782	69.69
231.001	-6.47
231.22	-14.87
231.438	4.06
231.657	3.81
231.876	-25.3
232.095	33.17
232.313	42.99
232.532	39.88
232.751	27.66
232.969	22.72
233.188	-30.93
233.407	9.16
233.625	-4.02
233.844	-6.8
234.063	-10.66
234.281	12.18
234.5	-10.04
234.719	-0.71
234.937	-0.65
235.156	10.13
235.374	12.73
235.593	7.64
235.811	7.78
236.03	13.86
236.249	-32.53
236.467	-44.03
236.686	-14.08
236.904	-11.31
237.123	-31.07
237.341	-10.51
237.559	-2.91
237.778	-25.37
237.996	-37.44
238.215	6.92
238.433	4.43
238.652	6.11
238.87	1.22
239.088	19.26
239.307	4.33
239.525	10.69
239.743	-26.43
239.962	-9.76
240.18	-46.45
240.398	-92.77
240.617	-95.38
240.835	-73.47
241.053	-33.96
241.271	26.91
241.49	54.01
241.708	48.26
241.926	51.32
242.144	31.73
242.363	-35.49
242.581	-84.49
242.799	-59.45
243.017	-21.01
243.235	-58.77
243.453	-33.24
243.672	-9.98
243.89	0.34
244.108	-13.42
244.326	17.31
244.544	17.53
244.762	-3.96
244.98	2.19
245.198	-2.23
245.416	-29.4
245.634	-25.8
245.852	-22.98
246.07	-47.59
246.288	-21.66
246.506	-45.91
246.724	-23.19
246.942	-11.84
247.16	32.31
247.378	44.76
247.596	70.52
247.814	61.33
248.032	31.4
248.25	17.19
248.468	2.62
248.685	-2.66
248.903	29.54
249.121	43.2
249.339	21.55
249.557	1.64
249.775	8.3
249.992	-57.22
250.21	-59.48
250.428	-45.05
250.646	-53.78
250.863	-76.53
251.081	-52.14
251.299	-49.59
251.517	-43.79
251.734	-34.75
251.952	-29.82
252.17	-18.47
252.387	-7.74
252.605	-16.53
252.823	-1.13
253.04	22.65
253.258	42.12
253.475	43.2
253.693	67.3
253.911	49.27
254.128	39.41
254.346	33.26
254.563	18.77
254.781	-3.28
254.998	-20.25
255.216	-30.33
255.433	-25.08
255.651	5.94
255.868	31.05
256.086	47.79
256.303	29.28
256.521	26.06
256.738	7.96
256.956	-35.45
257.173	-47.2
257.39	-56.02
257.608	-88.9
257.825	-19.73
258.043	24.06
258.26	16.76
258.477	51.21
258.695	51.15
258.912	1.67
259.129	5.96
259.346	-19.41
259.564	-56.81
259.781	-88.2
259.998	-43.02
260.216	-27.72
260.433	17.43
260.65	27.79
260.867	45.33
261.084	14.29
261.302	5.43
261.519	-6.55
261.736	-43.71
261.953	-61.24
262.17	-13.38
262.387	-40.77
262.604	-49.59
262.822	-22.64
263.039	-3.03
263.256	-46.51
263.473	-26.49
263.69	-18.72
263.907	17.64
264.124	30.79
264.341	30.13
264.558	27.14
264.775	36.07
264.992	10.02
265.209	-5.03
265.426	23.34
265.643	20.18
265.86	28.87
266.077	43.9
266.294	55.13
266.51	30.3
266.727	19.64
266.944	21.98
267.161	2.12
267.378	9.09
267.595	8.47
267.812	-20.59
268.028	-25.52
268.245	-4.33
268.462	-15.57
268.679	-9.57
268.896	24.76
269.112	12.12
269.329	10.4
269.546	10.26
269.763	-8.22
269.979	-14.84
270.196	-18.03
270.413	-67.32
270.629	-93.26
270.846	-74.59
271.063	-58.8
271.279	-67.56
271.496	-35.01
271.712	17.41
271.929	23.36
272.146	5.12
272.362	16.7
272.579	34.75
272.795	27.39
273.012	30.81
273.228	30.62
273.445	9.24
273.661	-16.51
273.878	-71.27
274.094	-47.99
274.311	-60.95
274.527	-1.69
274.744	1.38
274.96	4.23
275.177	4.33
275.393	34.97
275.609	25.95
275.826	38.47
276.042	43.05
276.259	20.26
276.475	12.03
276.691	9.92
276.908	-2.15
277.124	13.29
277.34	21.68
277.557	-1.29
277.773	-8.5
277.989	-12.95
278.205	-24.81
278.422	-7.13
278.638	0.62
278.854	11.52
279.07	12.14
279.286	10.11
279.503	-19.27
279.719	-23.6
279.935	-40.77
280.151	-50.84
280.367	-24.02
280.583	-38.78
280.799	-34.11
281.016	-49.88
281.232	-15.79
281.448	-23.13
281.664	-4.08
281.88	-25.51
282.096	4.55
282.312	28.52
282.528	44.43
282.744	56.04
282.96	59.76
283.176	42.44
283.392	30.92
283.608	15.6
283.824	5.98
284.04	1.96
284.256	8.89
284.471	-10.74
284.687	-20.94
284.903	-1.47
285.119	25.06
285.335	-8.4
285.551	-6.6
285.767	-14.19
285.982	-21.42
286.198	-58.14
286.414	14.61
286.63	20.02
286.846	56.23
287.061	28.69
287.277	50.81
287.493	16.78
287.709	27.21
287.924	-0.29
288.14	33.77
288.356	27.4
288.571	45.71
288.787	31.72
289.003	26.36
289.218	10.55
289.434	-27.11
289.65	-28.54
289.865	-35
290.081	1.43
290.296	18.52
290.512	34.96
290.727	-0.54
290.943	-15.34
291.159	-32.15
291.374	-39.45
291.59	-60.98
291.805	-37.11
292.021	-11.17
292.236	-8.21
292.451	14.04
292.667	30.5
292.882	44.17
293.098	35.34
293.313	29.32
293.529	10.56
293.744	-27.9
293.959	-28.46
294.175	-12.77
294.39	9.24
294.605	9.52
294.821	46.79
295.036	43.41
295.251	33.92
295.467	31.12
295.682	15.64
295.897	-56.84
296.112	-64.09
296.328	-45.93
296.543	-95.97
296.758	-62.52
296.973	-11.29
297.188	18.82
297.404	-20.8
297.619	-28.99
297.834	-51.79
298.049	-65.55
298.264	-89.44
298.479	-30.05
298.694	-8.54
298.909	17.75
299.125	21.74
299.34	24.39
299.555	6.18
299.77	7.02
299.985	-33.13
300.2	-80.04
300.415	-89.42
300.63	-51.59
300.845	-51.46
301.06	-59.91
301.275	-41.45
301.49	-33.76
301.704	-46.34
301.919	-69.12
302.134	-66.84
302.349	-57.61
302.564	-98.6
302.779	-126.07
302.994	-71.36
303.209	-34.64
303.423	-5.78
303.638	35.2
303.853	6.8
304.068	-11.26
304.283	-5.25
304.497	-12.63
304.712	-19.46
304.927	-9.43
305.142	-10.84
305.356	-5.54
305.571	-0.93
305.786	-12.76
306	-22.64
306.215	7.16
306.43	-24.08
306.644	-2.59
306.859	35.39
307.074	43.06
307.288	-10.3
307.503	-9.13
307.717	-28.05
307.932	-34.02
308.147	-33.25
308.361	-16.39
308.576	-18.12
308.79	-43.1
309.005	-42.17
309.219	-37.94
309.434	-60.19
309.648	-48.15
309.863	-32.84
310.077	-26.73
310.292	-29.52
310.506	-14.3
310.72	6.2
310.935	26.54
311.149	16.2
311.364	43
311.578	56.1
311.792	48.5
312.007	45.11
312.221	44.44
312.435	39.8
312.649	23.69
312.864	33.85
313.078	28.97
313.292	75.69
313.507	36.13
313.721	41.21
313.935	34.02
314.149	33.21
314.363	6.94
314.578	2.39
314.792	10.32
315.006	-2.7
315.22	16.43
315.434	23.2
315.648	41.54
315.862	35.85
316.077	32.79
316.291	-1.17
316.505	-0.42
316.719	-42.5
316.933	-35.7
317.147	-26.59
317.361	-52.34
317.575	-62.21
317.789	-87.41
318.003	-155.83
318.217	-121.91
318.431	-31.2
318.645	7.81
318.859	6.53
319.073	26.51
319.287	12.98
319.5	-23.2
319.714	-75.05
319.928	-82.24
320.142	-97.57
320.356	-65.06
320.57	-8.51
320.784	-22.93
320.997	-30.22
321.211	-18.79
321.425	-61.07
321.639	-96.08
321.853	-31.49
322.066	-19.9
322.28	-15.71
322.494	13.25
322.707	32.04
322.921	26.06
323.135	18.45
323.349	19.3
323.562	-12.33
323.776	-41.04
323.989	-55.6
324.203	-76.63
324.417	-96.36
324.63	-103.15
324.844	-104.22
325.057	-96.88
325.271	-62.59
325.485	-20.75
325.698	2.15
325.912	25.97
326.125	12.63
326.339	15.48
326.552	-7.89
326.766	-3.66
326.979	0.63
327.193	29.38
327.406	9.39
327.619	13.14
327.833	17.9
328.046	-3.51
328.26	-30.32
328.473	-13.52
328.686	-54.08
328.9	-58.15
329.113	-44.98
329.326	-86.86
329.54	-58.34
329.753	-48.88
329.966	-66.66
330.179	-37.74
330.393	-9.31
330.606	-2.73
330.819	17.48
331.032	39.39
331.246	38.82
331.459	68.52
331.672	52.24
331.885	37.93
332.098	-1.48
332.311	-17.07
332.525	-100.02
332.738	-76.17
332.951	-31.34
333.164	15.67
333.377	20.53
333.59	51.6
333.803	48.64
334.016	34.33
334.229	25.39
334.442	21.62
334.655	37.05
334.868	27.79
335.081	28.58
335.294	14.03
335.507	20.57
335.72	5.06
335.933	-9.52
336.146	-16.88
336.359	-16.36
336.572	-42.66
336.785	-63.59
336.997	-40.1
337.21	-11.83
337.423	-8.5
337.636	3.39
337.849	15.24
338.062	3.45
338.274	-2.06
338.487	-15.16
338.7	-26.53
338.913	-61.06
339.125	-67.88
339.338	-122.94
339.551	-98.61
339.763	-54.83
339.976	-21.92
340.189	-9.74
340.402	14.29
340.614	5.23
340.827	-0.76
341.039	-14.46
341.252	-8.39
341.465	2.55
341.677	-0.65
341.89	-37.5
342.102	-14.55
342.315	-25.2
342.527	-67.45
342.74	-54.27
342.952	-10.1
343.165	-8.92
343.377	16.64
343.59	16.47
343.802	37.23
344.015	38.19
344.227	41.04
344.44	20.46
344.652	34.09
344.864	22.87
345.077	26.96
345.289	29.85
345.502	35.34
345.714	20.64
345.926	15.25
346.139	3.71
346.351	4.74
346.563	11.41
346.775	15.81
346.988	14.15
347.2	10.47
347.412	-17.31
347.624	-42.92
347.837	-54.04
348.049	-51.29
348.261	-21.48
348.473	-21.38
348.685	-4
348.897	-3.1
349.11	-1.67
349.322	-11.93
349.534	6.71
349.746	-8.49
349.958	1.61
350.17	-12.51
350.382	-9.65
350.594	-16.78
350.806	7.08
351.018	3.81
351.23	-12.05
351.442	-34.43
351.654	-37.33
351.866	-40.88
352.078	-40.69
352.29	-10.11
352.502	-2.31
352.714	16.68
352.926	-5.68
353.138	-5.19
353.35	-14.57
353.561	-19.79
353.773	-50.06
353.985	-27.37
354.197	-30.73
354.409	-26.55
354.621	-23.61
354.832	-6.99
355.044	-24.02
355.256	-29.91
355.468	-13.23
355.679	-9.96
355.891	-10.97
356.103	-14.61
356.314	1.85
356.526	-5.21
356.738	-9.35
356.949	-11.88
357.161	11.42
357.373	1.33
357.584	-5.28
357.796	9.43
358.008	3.09
358.219	18.29
358.431	16.89
358.642	22.89
358.854	16.8
359.065	7.8
359.277	-26.04
359.488	-37.84
359.7	-60.11
359.911	-94.93
360.123	-62.51
360.334	-56.2
360.546	-69.23
360.757	-61.65
360.969	-34.88
361.18	-36.49
361.391	-44.68
361.603	-41.27
361.814	-42.18
362.025	-31.02
362.237	-31.32
362.448	-11.07
362.659	2.62
362.871	9.92
363.082	11.15
363.293	14.59
363.504	-3.88
363.716	-16.63
363.927	-31.36
364.138	-50.08
364.349	-64.15
364.56	-55.86
364.772	-40.68
364.983	-13.99
365.194	-13.66
365.405	5.53
365.616	19.3
365.827	15.86
366.038	-4.81
366.25	-16.72
366.461	-59.79
366.672	-40.59
366.883	-27.37
367.094	-17.33
367.305	-11.58
367.516	4.08
367.727	-25.15
367.938	-34
368.149	-32.38
368.36	-28.55
368.571	-24.26
368.781	-22.46
368.992	-30.64
369.203	-49.84
369.414	-60.59
369.625	-73.48
369.836	-66.9
370.047	-89.17
370.258	-70.53
370.468	-64.13
370.679	-74.41
370.89	-60.38
371.101	-38.59
371.312	-46.38
371.522	-45.55
371.733	-34.5
371.944	-30.9
372.155	-15.84
372.365	-18.73
372.576	-15.61
372.787	-14.28
372.997	-31.35
373.208	-42.59
373.419	-2.92
373.629	-30.89
373.84	-27.54
374.05	-36.76
374.261	-22.61
374.472	-55.27
374.682	-6.42
374.893	-14.61
375.103	11.73
375.314	15.41
375.524	17.84
375.735	23.31
375.945	42.68
376.156	21.82
376.366	12.4
376.577	12.36
376.787	-2.64
376.997	-10.79
377.208	-1.47
377.418	-0.47
377.629	15.05
377.839	10.98
378.049	5.37
378.26	16.71
378.47	21.24
378.68	12.09
378.89	9.14
379.101	5.66
379.311	-26.86
379.521	-67.33
379.732	-74.45
379.942	-60.75
380.152	-80.96
380.362	-40.88
380.572	-27.09
380.783	-13.97
380.993	-5.73
381.203	13.67
381.413	20.69
381.623	25.56
381.833	19.16
382.043	5.04
382.253	-6.65
382.463	-13.46
382.674	-21.17
382.884	-44.12
383.094	-38.09
383.304	-28.89
383.514	-22.07
383.724	-15.75
383.934	-9.82
384.144	-19.98
384.353	-28.65
384.563	-26.54
384.773	-20.43
384.983	-24.67
385.193	-3.5
385.403	7.93
385.613	1.76
385.823	-10.2
386.033	0.74
386.242	-11.53
386.452	-20.74
386.662	-26.02
386.872	-9.95
387.082	-20.79
387.291	-24.36
387.501	-22.29
387.711	-8.83
387.921	-14.93
388.13	-11.37
388.34	2.5
388.55	-4.22
388.759	-6.19
388.969	-3.83
389.179	-5.13
389.388	-10.41
389.598	-3
389.807	-11.31
390.017	-14.93
390.227	-13.63
390.436	-12.37
390.646	-10.9
390.855	-6.3
391.065	-4.18
391.274	-7.73
391.484	-8.8
391.693	-6.7
391.903	-4
392.112	-0.05
392.322	4.39
392.531	6.4
392.74	5.96
392.95	0.28
393.159	-1.45
393.369	-0.65
393.578	-1.22
393.787	-2.46
393.997	-0.48
394.206	-1.56
394.415	-1.71
394.625	-2.31
394.834	-3.46
395.043	-1.46
395.252	0.65
395.462	2.34
395.671	4.27
395.88	4.74
396.089	4.88
396.298	2.31
396.508	1.96
396.717	1.02
396.926	1.85
397.135	2.07
397.344	2.81
397.553	2.83
397.762	3.99
397.971	4.47
398.181	3.69
398.39	3.88
398.599	3.65
398.808	3.2
399.017	3.38
399.226	4.3
399.435	5.5
399.644	5.29
399.853	4.29
400.062	3.82
400.27	3.04
400.479	2.12
400.688	1.63
400.897	1.97
401.106	2.05
401.315	2.21
401.524	2.34
401.733	3.06
401.941	3.72
402.15	3.82
402.359	3.8
402.568	4.19
402.777	4.14
402.985	3.91
403.194	3.77
403.403	3.79
403.612	3.33
403.82	3.33
404.029	3.35
404.238	3.18
404.446	3.27
404.655	3.11
404.864	2.88
405.072	2.55
405.281	2.8
405.489	2.51
405.698	2.54
405.906	2.56
406.115	2.61
406.324	2.45
406.532	2.75
406.741	3
406.949	3.17
407.158	3.18
407.366	3.19
407.574	3.13
407.783	2.97
407.991	2.76
408.2	2.92
408.408	3.07
408.617	2.97
408.825	2.77
409.033	2.86
409.242	2.96
409.45	3.01
409.658	2.98
409.867	3.3
410.075	3.13
410.283	2.84
410.491	2.71
410.7	2.66
410.908	2.53
411.116	2.9
411.324	3.03
411.533	2.85
411.741	3.04
411.949	3.06
412.157	2.69
412.365	2.68
412.573	2.88
412.781	2.91
412.99	2.86
413.198	3.06
413.406	2.99
413.614	2.89
413.822	2.71
414.03	2.64
414.238	2.43
414.446	2.65
414.654	2.47
414.862	2.5
415.07	2.57
415.278	2.75
415.486	2.4
415.694	2.63
415.902	2.58
416.109	2.43
416.317	2.37
416.525	2.24
416.733	2.2
416.941	2.38
417.149	2.47
417.357	2.45
417.564	2.75
417.772	2.88
417.98	2.62
418.188	2.52
418.395	2.58
418.603	2.71
418.811	2.28
419.019	2.38
419.226	2.59
419.434	2.72
419.642	2.47
419.849	2.67
420.057	2.56
420.265	2.37
420.472	2.08
420.68	2.06
420.887	2.02
421.095	2.12
421.302	2.16
421.51	2.46
421.717	2.6
421.925	2.62
422.132	2.46
422.34	2.35
422.547	2.17
422.755	1.98
422.962	2.02
423.17	2.1
423.377	2.16
423.585	2.16
423.792	2.14
423.999	2.1
424.207	2.03
424.414	2.17
424.621	2.06
424.829	2.12
425.036	2.18
425.243	2.38
425.451	2.19
425.658	2.14
425.865	2.35
426.072	2.37
426.28	2.48
426.487	2.58
426.694	2.7
426.901	2.5
427.108	2.39
427.315	2.21
427.523	2.47
427.73	2.47
427.937	2.55
428.144	2.46
428.351	2.43
428.558	2.46
428.765	2.36
428.972	2.28
429.179	2.44
429.386	2.74
429.593	2.41
429.8	2.38
430.007	2.46
430.214	2.58
430.421	2.22
430.628	2.09
430.835	2.12
431.042	2.32
431.249	2.22
431.456	2.31
431.662	2.41
431.869	2.47
432.076	2.34
432.283	2.37
432.49	2.36
432.697	2.34
432.903	2.17
433.11	2.09
433.317	2.07
433.524	2.38
433.73	2.49
433.937	2.74
434.144	2.75
434.35	2.8
434.557	2.47
434.764	2.46
434.97	2.33
435.177	2.46
435.384	2.43
435.59	2.58
435.797	2.77
436.003	2.85
436.21	2.8
436.416	2.85
436.623	2.86
436.829	2.86
437.036	2.96
437.242	2.88
437.449	2.78
437.655	2.79
437.862	2.74
438.068	2.62
438.275	2.77
438.481	3.07
438.687	3.04
438.894	2.95
439.1	3.03
439.307	3.18
439.513	3.04
439.719	3.02
439.926	3.09
440.132	3.11
440.338	2.92
440.544	3.04
440.751	3.02
440.957	3.12
441.163	3.02
441.369	3.08
441.575	2.84
441.782	2.83
441.988	2.68
442.194	2.65
442.4	2.64
442.606	2.92
442.812	3.03
443.018	3.15
443.224	3.28
443.431	3.4
443.637	3.17
443.843	3.04
444.049	3.02
444.255	2.95
444.461	2.95
444.667	2.93
444.873	3.1
445.079	3.1
445.284	3.18
445.49	2.91
445.696	2.86
445.902	2.63
446.108	2.54
446.314	2.48
446.52	2.61
446.726	2.82
446.931	2.94
447.137	3.03
447.343	3.07
447.549	3
447.755	2.96
447.96	2.99
448.166	2.98
448.372	2.92
448.578	3
448.783	2.94
448.989	3.03
449.195	3.13
449.4	3.19
449.606	3.1
449.812	3.09
450.017	3.05
450.223	2.94
450.428	2.83
450.634	3.01
450.84	3.15
451.045	3.08
451.251	3.06
451.456	3.3
451.662	3.33
451.867	3.39
452.073	3.4
452.278	3.52
452.483	3.57
452.689	3.46
452.894	3.48
453.1	3.49
453.305	3.45
453.51	3.42
453.716	3.33
453.921	3.28
454.127	3.26
454.332	3.19
454.537	3.02
454.742	3.13
454.948	3.04
455.153	3.04
455.358	3.15
455.563	3.39
455.769	3.47
455.974	3.54
456.179	3.48
456.384	3.35
456.589	3.3
456.795	3.14
457	3.09
457.205	3.28
457.41	3.33
457.615	3.22
457.82	3.26
458.025	3.28
458.23	3.12
458.435	3.13
458.64	3.06
458.845	3.22
459.05	3.22
459.255	3.26
459.46	3.27
459.665	3.34
459.87	3.29
460.075	3.26
460.28	3.26
460.485	3.39
460.69	3.42
460.895	3.33
461.099	3.32
461.304	3.42
