Data from Ofra_PS_T2_1A_9GT30_Reflection_3.txt Node
Date: Wed Jul 21 18:19:47 EDT 2021
User: Adam
Spectrometer: FLMT01687
Trigger mode: 0
Integration Time (sec): 1.100000E0
Scans to average: 2
Electric dark correction enabled: true
Nonlinearity correction enabled: false
Boxcar width: 2
XAxis mode: Wavelengths
Number of Pixels in Spectrum: 3648
>>>>>Begin Spectral Data<<<<<
179.494	494
179.716	617.18
179.937	567.44
180.158	545.37
180.38	836.56
180.601	447.79
180.823	115.98
181.044	-8.29
181.265	88.6
181.486	114.34
181.708	31.99
181.929	135.71
182.15	-482.39
182.372	54.56
182.593	64.63
182.814	26.76
183.035	40.61
183.257	38.24
183.478	-85
183.699	-54.07
183.92	-94.56
184.141	-71.47
184.363	-93.37
184.584	-25.38
184.805	4.26
185.026	36.15
185.247	45.06
185.468	26.51
185.689	14.98
185.91	20.07
186.132	-1.42
186.353	-8.94
186.574	19.35
186.795	14.18
187.016	-66.03
187.237	-42.94
187.458	-98.98
187.679	-117.57
187.9	-57.94
188.121	-12.56
188.342	-18.72
188.563	39.05
188.784	86.18
189.005	50.56
189.226	50.42
189.447	43.05
189.667	-109.47
189.888	-320.94
190.109	-1418.83
190.33	-791.94
190.551	-1503.1
190.772	-426.51
190.993	-325.18
191.214	-228.06
191.434	-140.47
191.655	-20.31
191.876	-3.29
192.097	-60.4
192.318	-97.85
192.538	-159.38
192.759	-136.36
192.98	-58.89
193.201	-9.12
193.421	6.36
193.642	26.61
193.863	26.81
194.083	0.16
194.304	-14.99
194.525	-22.41
194.745	-63.43
194.966	-86.32
195.187	-73.81
195.407	-117.59
195.628	-161.37
195.848	-132.32
196.069	-118.96
196.29	-64.81
196.51	-53.45
196.731	-49.65
196.951	-73.51
197.172	-96.52
197.392	-115.53
197.613	-130.42
197.833	-167.67
198.054	-144.41
198.274	-86.47
198.495	-117.7
198.715	-68.74
198.936	-91.87
199.156	-71.04
199.377	-164.66
199.597	-134.79
199.817	-191.66
200.038	-98.72
200.258	-174.9
200.479	-94.17
200.699	-91.25
200.919	-0.84
201.14	-13.22
201.36	-14.9
201.58	7.34
201.801	26.77
202.021	-12.56
202.241	-26.1
202.461	-27.22
202.682	-148.11
202.902	-215.89
203.122	-125.26
203.342	-103.46
203.563	-57.19
203.783	11.68
204.003	0.86
204.223	-6.77
204.443	37.72
204.663	22.12
204.884	-14.19
205.104	12.92
205.324	30.26
205.544	13.57
205.764	48.56
205.984	35.64
206.204	37.6
206.424	35.36
206.644	8.52
206.864	2.07
207.084	-25
207.304	-48.66
207.525	-174.53
207.745	-75.52
207.964	-26.39
208.184	-51.2
208.404	-71.55
208.624	-78.49
208.844	-93.15
209.064	-400.35
209.284	-419.04
209.504	-283.77
209.724	-126.49
209.944	-85.48
210.164	-45.66
210.384	-25.19
210.604	-24.62
210.823	-47.08
211.043	-59.84
211.263	-39.89
211.483	-35.04
211.703	-66
211.922	-79.51
212.142	-21.92
212.362	-28.69
212.582	-43.37
212.801	-54.17
213.021	-50.29
213.241	-76.38
213.461	-108.84
213.68	-116.68
213.9	-68.14
214.12	-31.17
214.339	-72.08
214.559	-43.02
214.779	-6.71
214.998	-4.97
215.218	-57.97
215.438	-21.86
215.657	-26.11
215.877	-57.64
216.096	-33.32
216.316	-25.76
216.535	-53.48
216.755	-55.08
216.974	-132
217.194	-191.25
217.413	-183.7
217.633	-189.76
217.852	-318.52
218.072	-140.07
218.291	-81.69
218.511	-17.23
218.73	-30.21
218.95	-24.05
219.169	-28.27
219.389	-54.45
219.608	-47.87
219.827	-31.93
220.047	2.37
220.266	9.68
220.485	8.06
220.705	12.66
220.924	-18.42
221.143	0.26
221.363	-24.58
221.582	-19.09
221.801	-24.06
222.021	-4.21
222.24	-81.35
222.459	-62.05
222.678	-81.17
222.897	-125.4
223.117	-192.25
223.336	-181.88
223.555	-113.82
223.774	-68.11
223.993	-83.91
224.213	18.27
224.432	18.15
224.651	40.45
224.87	7.43
225.089	27.65
225.308	7.68
225.527	21.68
225.746	9.94
225.965	18.51
226.184	-18.68
226.404	5.39
226.623	-21.46
226.842	-23.01
227.061	-3.75
227.28	10.67
227.499	-3.84
227.718	10.45
227.936	7.73
228.155	6.61
228.374	-3.97
228.593	3.02
228.812	-3.31
229.031	-8.81
229.25	-60.13
229.469	-64.79
229.688	-75.8
229.907	-38.88
230.125	-12.26
230.344	14.32
230.563	28.28
230.782	45.97
231.001	-15.46
231.22	-29.67
231.438	-0.26
231.657	-4.73
231.876	-14.2
232.095	38.68
232.313	51.61
232.532	18.74
232.751	-17.41
232.969	-39.97
233.188	-115.28
233.407	-62.85
233.625	-19.74
233.844	-8.76
234.063	12.59
234.281	20.88
234.5	5.01
234.719	3.18
234.937	16.56
235.156	14.17
235.374	18.82
235.593	9.6
235.811	-2.93
236.03	-16.1
236.249	-57.21
236.467	-74.61
236.686	-27.61
236.904	-15.86
237.123	-37.2
237.341	-30.49
237.559	-16.32
237.778	-35.11
237.996	-57.16
238.215	-26.58
238.433	-16.92
238.652	-33.88
238.87	-43.73
239.088	-32.3
239.307	-31.15
239.525	-43.26
239.743	-57.13
239.962	-47.89
240.18	-44.6
240.398	-65.62
240.617	-66.6
240.835	-46.16
241.053	-26.07
241.271	-10.9
241.49	9.32
241.708	5.23
241.926	-12.77
242.144	-14.22
242.363	-56.26
242.581	-92.58
242.799	-58.75
243.017	-27.71
243.235	-58.65
243.453	-46.64
243.672	-49.62
243.89	-44.41
244.108	-52.22
244.326	-25.52
244.544	-27.79
244.762	-13.67
244.98	-33.61
245.198	-38.24
245.416	-57.16
245.634	-45.9
245.852	-70.6
246.07	-52.78
246.288	-50.26
246.506	-66.68
246.724	-72.1
246.942	-57.55
247.16	-23.45
247.378	-20.94
247.596	-10.25
247.814	13.41
248.032	1.75
248.25	-11.53
248.468	11.15
248.685	36.11
248.903	38.1
249.121	38.93
249.339	16.27
249.557	-0.83
249.775	-4.84
249.992	-68.55
250.21	-64.26
250.428	-40.19
250.646	-83.66
250.863	-104.97
251.081	-68.46
251.299	-63.81
251.517	-63.03
251.734	-36.68
251.952	-40.15
252.17	-35.55
252.387	-25.32
252.605	-34.79
252.823	-17.35
253.04	4.02
253.258	21.34
253.475	2.19
253.693	21.44
253.911	8.32
254.128	1.81
254.346	-30.71
254.563	-14.72
254.781	-32.56
254.998	-43.35
255.216	-38.03
255.433	-15.45
255.651	16.45
255.868	29.21
256.086	48.39
256.303	33.32
256.521	27.26
256.738	-4.24
256.956	-26.46
257.173	-67.35
257.39	-88.25
257.608	-119.27
257.825	-39.39
258.043	-18.28
258.26	14
258.477	45.11
258.695	41.91
258.912	-15.49
259.129	-0.03
259.346	-31.4
259.564	-61.31
259.781	-87.45
259.998	-30.96
260.216	-31.25
260.433	1.76
260.65	4.56
260.867	24.2
261.084	-10.87
261.302	-22.2
261.519	-22.29
261.736	-27.39
261.953	-46.71
262.17	-11.08
262.387	-27.27
262.604	-78.66
262.822	-90.89
263.039	-51.63
263.256	-108.34
263.473	-78.33
263.69	-29.75
263.907	6.61
264.124	12.41
264.341	14.75
264.558	8.81
264.775	13.24
264.992	6.47
265.209	-18.45
265.426	6.95
265.643	15.16
265.86	12.43
266.077	-2.43
266.294	5.95
266.51	-28.71
266.727	-59.27
266.944	-55.32
267.161	-39.94
267.378	-38.96
267.595	-10.86
267.812	-17.94
268.028	-37.54
268.245	-18.92
268.462	-34.35
268.679	-50.07
268.896	2.56
269.112	4.16
269.329	-2.5
269.546	-3.12
269.763	-6.88
269.979	-32.07
270.196	-19.97
270.413	-60.31
270.629	-72.87
270.846	-61.55
271.063	-47.4
271.279	-67.21
271.496	-46.22
271.712	-11.47
271.929	-1.02
272.146	-30.39
272.362	-1.95
272.579	17.68
272.795	22.1
273.012	12.09
273.228	32.79
273.445	-14.64
273.661	-60.28
273.878	-89.08
274.094	-56.52
274.311	-90.29
274.527	-6.01
274.744	10.05
274.96	11.9
275.177	11.7
275.393	35.52
275.609	21.58
275.826	39.04
276.042	46.92
276.259	17.82
276.475	16.28
276.691	10.01
276.908	-11.44
277.124	-13.73
277.34	-6.21
277.557	-20.81
277.773	-22.79
277.989	-27.19
278.205	-29.16
278.422	-7.49
278.638	0.85
278.854	17.1
279.07	9.72
279.286	-1.19
279.503	-34.99
279.719	-52.12
279.935	-70.38
280.151	-65.13
280.367	-17.41
280.583	-25.77
280.799	-21.01
281.016	-38.61
281.232	-16.33
281.448	-27.25
281.664	-5.01
281.88	-41.68
282.096	-16.41
282.312	2
282.528	0.21
282.744	2.54
282.96	28.88
283.176	13.88
283.392	4.07
283.608	0.27
283.824	-18.7
284.04	-17.02
284.256	3.79
284.471	-0.69
284.687	6.43
284.903	39.77
285.119	51.59
285.335	10.87
285.551	17.41
285.767	-11.59
285.982	-50.27
286.198	-97.44
286.414	-25.91
286.63	-32.49
286.846	-3.94
287.061	-2.23
287.277	24.08
287.493	-13.45
287.709	15.88
287.924	-3.2
288.14	25.03
288.356	13.03
288.571	43.91
288.787	11.71
289.003	10.37
289.218	-11.57
289.434	-38.5
289.65	-54.49
289.865	-50.17
290.081	-21.34
290.296	-0.25
290.512	2.4
290.727	-18.17
290.943	-31.31
291.159	-37
291.374	-38.74
291.59	-55.38
291.805	-30.01
292.021	-11.55
292.236	-9.14
292.451	-5.78
292.667	11.17
292.882	8.42
293.098	5.6
293.313	-26.74
293.529	-42.5
293.744	-45.61
293.959	-49.87
294.175	-49.81
294.39	-3.22
294.605	11.25
294.821	27.67
295.036	33.68
295.251	32.69
295.467	-8.16
295.682	-21.38
295.897	-81
296.112	-96.14
296.328	-77.84
296.543	-86.3
296.758	-81.6
296.973	-25.44
297.188	13.89
297.404	-13.54
297.619	-28.48
297.834	-38.68
298.049	-68.35
298.264	-102.01
298.479	-39.59
298.694	-22.44
298.909	-1.06
299.125	17.19
299.34	31.19
299.555	15.74
299.77	35
299.985	-14.12
300.2	-79.53
300.415	-99.51
300.63	-76.45
300.845	-79.09
301.06	-74.4
301.275	-27.51
301.49	-1.21
301.704	-12.84
301.919	-24.57
302.134	-17.32
302.349	-18.13
302.564	-84.5
302.779	-88.45
302.994	-85.66
303.209	-45.14
303.423	-53.91
303.638	17.32
303.853	-9.29
304.068	-10.96
304.283	-31.95
304.497	-23.03
304.712	-37.34
304.927	-24.05
305.142	-24.93
305.356	-9.63
305.571	-19.29
305.786	-23.63
306	-46.19
306.215	-38.2
306.43	-66.6
306.644	-57.8
306.859	-14.79
307.074	12.81
307.288	-12.6
307.503	-19.45
307.717	-33.26
307.932	-38.35
308.147	-46.99
308.361	-22.07
308.576	-16.04
308.79	-44.65
309.005	-41.51
309.219	-29.49
309.434	-52.87
309.648	-59.07
309.863	-33.06
310.077	-41.07
310.292	-47.81
310.506	-43.23
310.72	-15.43
310.935	-5.17
311.149	-4.25
311.364	19.14
311.578	25.02
311.792	10.04
312.007	16.96
312.221	3.5
312.435	-6.12
312.649	-17.69
312.864	4.11
313.078	12.16
313.292	31.3
313.507	1.56
313.721	32.5
313.935	13.6
314.149	-3.67
314.363	9.54
314.578	15.03
314.792	14.43
315.006	-10.82
315.22	5.11
315.434	-0.45
315.648	9
315.862	4.91
316.077	15
316.291	-2.48
316.505	6.5
316.719	-6.55
316.933	-19.18
317.147	-3.31
317.361	-40.92
317.575	-67.5
317.789	-93.41
318.003	-128.09
318.217	-119.72
318.431	-40.13
318.645	2.29
318.859	4.15
319.073	14.75
319.287	0.27
319.5	-34.24
319.714	-78.95
319.928	-94.41
320.142	-105.03
320.356	-37.94
320.57	4.12
320.784	24.82
320.997	-0.4
321.211	-16.48
321.425	-76.06
321.639	-114.05
321.853	-63.54
322.066	-22.94
322.28	-22.83
322.494	-15.23
322.707	6.33
322.921	0.49
323.135	2.65
323.349	27.95
323.562	16.93
323.776	9.32
323.989	5.09
324.203	-38.08
324.417	-58.9
324.63	-77.54
324.844	-77.89
325.057	-88.38
325.271	-56.08
325.485	-19.37
325.698	5.41
325.912	15.23
326.125	-8.31
326.339	-2.75
326.552	-26.04
326.766	-24.07
326.979	-17.06
327.193	24.15
327.406	12.44
327.619	2.16
327.833	14.5
328.046	-4.81
328.26	-37.77
328.473	-17.9
328.686	-34.97
328.9	-58.85
329.113	-39.86
329.326	-56.42
329.54	-46.3
329.753	-41.19
329.966	-63.01
330.179	-55.26
330.393	-22.07
330.606	-15.78
330.819	-2.62
331.032	8.82
331.246	11.68
331.459	25.22
331.672	3.96
331.885	-8.88
332.098	-18.88
332.311	-46.07
332.525	-79.73
332.738	-47.74
332.951	-23.36
333.164	-5.47
333.377	17.44
333.59	29.04
333.803	25.1
334.016	16.67
334.229	9.92
334.442	7.55
334.655	8.3
334.868	10.24
335.081	5.49
335.294	-12.56
335.507	-29.35
335.72	-37.44
335.933	-40.5
336.146	-43.6
336.359	-30.25
336.572	-28.71
336.785	-42.11
336.997	-41.56
337.21	-9.68
337.423	-19.03
337.636	-19.72
337.849	6.65
338.062	-2.49
338.274	-13.7
338.487	-6.41
338.7	-7.08
338.913	-60.49
339.125	-77.25
339.338	-130.03
339.551	-114.28
339.763	-81.19
339.976	-50.18
340.189	-21.01
340.402	-5.54
340.614	-9.19
340.827	-17.61
341.039	-36.4
341.252	-38.07
341.465	-21.82
341.677	-16.59
341.89	-36.54
342.102	-20.7
342.315	-36.88
342.527	-73.45
342.74	-77.43
342.952	-49.18
343.165	-39.75
343.377	-12.59
343.59	-11.5
343.802	8.07
344.015	12.74
344.227	27.47
344.44	6.26
344.652	18.66
344.864	-7.07
345.077	6.43
345.289	-1.74
345.502	7.15
345.714	-8.02
345.926	2.96
346.139	-10.53
346.351	-0.3
346.563	5.99
346.775	14.73
346.988	-5
347.2	-16.78
347.412	-54.73
347.624	-57.13
347.837	-77.8
348.049	-49.25
348.261	-19.51
348.473	-8.42
348.685	-23.17
348.897	-29.54
349.11	-41.15
349.322	-75.44
349.534	-60.18
349.746	-58.72
349.958	-34.28
350.17	-29.51
350.382	-3.66
350.594	-15.81
350.806	-13.22
351.018	-6.53
351.23	-26.66
351.442	-78.74
351.654	-72.96
351.866	-58.42
352.078	-59.37
352.29	-27.35
352.502	-0.3
352.714	3.44
352.926	-9.96
353.138	-12.32
353.35	-20.47
353.561	-19.19
353.773	-35.27
353.985	-16.79
354.197	-25.07
354.409	-21.15
354.621	-19.92
354.832	-12.83
355.044	-32.8
355.256	-33.14
355.468	-18.31
355.679	-34.68
355.891	-29.27
356.103	-24.92
356.314	-13.95
356.526	-14.53
356.738	0.33
356.949	-7.99
357.161	0.33
357.373	-17.27
357.584	-37.29
357.796	-24.62
358.008	-32.17
358.219	-16.11
358.431	-6.49
358.642	11.34
358.854	3.64
359.065	4.72
359.277	-26.11
359.488	-36.06
359.7	-76.8
359.911	-92.56
360.123	-62.58
360.334	-65.91
360.546	-78.02
360.757	-56.08
360.969	-32.8
361.18	-16.4
361.391	-11.79
361.603	-6.68
361.814	-0.58
362.025	5.12
362.237	-17.59
362.448	-11.15
362.659	2.28
362.871	-5.24
363.082	-15.56
363.293	-12.46
363.504	-24.09
363.716	-58.97
363.927	-67.98
364.138	-92.65
364.349	-96.97
364.56	-78.64
364.772	-49.21
364.983	-16.65
365.194	-7.79
365.405	3.01
365.616	11.45
365.827	6.17
366.038	-28.84
366.25	-28.17
366.461	-60.28
366.672	-32.47
366.883	-22.04
367.094	-0.93
367.305	-12.48
367.516	-0.02
367.727	-29.17
367.938	-36.29
368.149	-39.07
368.36	-21.05
368.571	-18.21
368.781	-25.52
368.992	-45.17
369.203	-57.65
369.414	-78.71
369.625	-85.03
369.836	-84.32
370.047	-84.94
370.258	-81.53
370.468	-84.74
370.679	-98
370.89	-78.86
371.101	-51.21
371.312	-44.03
371.522	-24.14
371.733	-19.89
371.944	-17.17
372.155	-25.63
372.365	-29.4
372.576	-36.96
372.787	-31.35
372.997	-49.36
373.208	-41.49
373.419	-16.23
373.629	-37.47
373.84	-32.1
374.05	-28.35
374.261	-27.41
374.472	-56.39
374.682	1.86
374.893	6.5
375.103	35.44
375.314	32.77
375.524	38.81
375.735	32.32
375.945	29.44
376.156	2.72
376.366	2.85
376.577	-4.36
376.787	-18.61
376.997	-14.24
377.208	-6.26
377.418	-11.98
377.629	-1.08
377.839	4.17
378.049	-1.25
378.26	2.35
378.47	5.36
378.68	-8.38
378.89	-21.14
379.101	-30.35
379.311	-60.58
379.521	-81.44
379.732	-75.93
379.942	-67
380.152	-83.73
380.362	-48.05
380.572	-46.92
380.783	-26.48
380.993	-19.38
381.203	-9.53
381.413	-20.3
381.623	-2.71
381.833	-7.82
382.043	-10.25
382.253	-10.97
382.463	-2.69
382.674	-17.49
382.884	-36.95
383.094	-42.28
383.304	-38.44
383.514	-33.67
383.724	-16.47
383.934	-12.31
384.144	-19.58
384.353	-18.58
384.563	-17.57
384.773	-22.85
384.983	-27.76
385.193	-4.68
385.403	3.75
385.613	0.82
385.823	-8.18
386.033	-1.53
386.242	-7.97
386.452	-20.41
386.662	-28.46
386.872	-14.28
387.082	-22.53
387.291	-32.49
387.501	-28.6
387.711	-17.12
387.921	-27.85
388.13	-21.27
388.34	-6.3
388.55	-9.25
388.759	-13.85
388.969	-10.08
389.179	-9.41
389.388	-13.11
389.598	-6.32
389.807	-11.81
390.017	-11.4
390.227	-11.1
390.436	-11.14
390.646	-14.36
390.855	-8.14
391.065	-8.09
391.274	-10.83
391.484	-13.95
391.693	-9.78
391.903	-8.04
392.112	-3.15
392.322	0.57
392.531	4.57
392.74	2.81
392.95	-1.67
393.159	-4.2
393.369	-3.68
393.578	-4.69
393.787	-4.74
393.997	-1.35
394.206	-2.05
394.415	-2.15
394.625	-2.67
394.834	-3.91
395.043	-3.52
395.252	-0.47
395.462	0.54
395.671	1.51
395.88	2.59
396.089	3.82
396.298	1.26
396.508	1.07
396.717	0.92
396.926	1.12
397.135	0.25
397.344	0.23
397.553	0.97
397.762	2.02
397.971	2.27
398.181	2.24
398.39	1.97
398.599	1.73
398.808	1.51
399.017	2.22
399.226	3.1
399.435	4.82
399.644	4.77
399.853	3.81
400.062	3.37
400.27	2.91
400.479	2.04
400.688	1.21
400.897	1.92
401.106	1.76
401.315	1.7
401.524	1.91
401.733	2.35
401.941	2.58
402.15	3
402.359	2.88
402.568	2.95
402.777	3.3
402.985	2.86
403.194	2.52
403.403	2.52
403.612	2.3
403.82	2.21
404.029	2.55
404.238	2.5
404.446	2.63
404.655	2.55
404.864	2.5
405.072	2.29
405.281	2.57
405.489	2.29
405.698	2.35
405.906	2.28
406.115	2.28
406.324	1.98
406.532	2.11
406.741	2.29
406.949	2.36
407.158	2.29
407.366	2.42
407.574	2.47
407.783	2.39
407.991	2.15
408.2	2.45
408.408	2.36
408.617	2.22
408.825	2.16
409.033	2.27
409.242	2.11
409.45	2.17
409.658	2.24
409.867	2.26
410.075	2.18
410.283	2.13
410.491	2.15
410.7	2.08
410.908	2.09
411.116	2.44
411.324	2.35
411.533	2.24
411.741	2.4
411.949	2.43
412.157	2.07
412.365	2.19
412.573	2.31
412.781	2.39
412.99	2.36
413.198	2.45
413.406	2.41
413.614	2.39
413.822	2.12
414.03	2.1
414.238	2.04
414.446	2.09
414.654	1.84
414.862	1.93
415.07	1.99
415.278	2.21
415.486	2.08
415.694	2.36
415.902	2.39
416.109	2.27
416.317	2.16
416.525	2.08
416.733	2.01
416.941	2.08
417.149	2
417.357	1.98
417.564	2.18
417.772	2.4
417.98	2.38
418.188	2.42
418.395	2.53
418.603	2.69
418.811	2.28
419.019	2.09
419.226	2.15
419.434	2.25
419.642	1.88
419.849	2.05
420.057	2.09
420.265	2.19
420.472	1.81
420.68	1.92
420.887	1.85
421.095	1.92
421.302	1.76
421.51	2.07
421.717	2.1
421.925	2.2
422.132	2.05
422.34	1.87
422.547	1.74
422.755	1.67
422.962	1.54
423.17	1.48
423.377	1.68
423.585	1.69
423.792	1.67
423.999	1.69
424.207	1.71
424.414	1.77
424.621	1.75
424.829	1.67
425.036	1.72
425.243	1.86
425.451	1.83
425.658	1.8
425.865	2.06
426.072	2.02
426.28	2.24
426.487	2.24
426.694	2.19
426.901	1.92
427.108	1.96
427.315	1.74
427.523	1.92
427.73	1.92
427.937	1.87
428.144	1.64
428.351	1.7
428.558	1.72
428.765	1.69
428.972	1.83
429.179	2.13
429.386	2.23
429.593	1.95
429.8	1.92
430.007	1.96
430.214	1.89
430.421	1.69
430.628	1.52
430.835	1.39
431.042	1.46
431.249	1.51
431.456	1.57
431.662	1.79
431.869	2.03
432.076	1.98
432.283	2.03
432.49	1.94
432.697	2.05
432.903	1.93
433.11	1.89
433.317	1.94
433.524	2.09
433.73	1.98
433.937	2.2
434.144	2.17
434.35	2.11
434.557	2.05
434.764	2.12
434.97	1.95
435.177	2.07
435.384	2
435.59	2.07
435.797	2.21
436.003	2.27
436.21	2.27
436.416	2.39
436.623	2.39
436.829	2.38
437.036	2.45
437.242	2.41
437.449	2.3
437.655	2.35
437.862	2.21
438.068	2.16
438.275	2.34
438.481	2.55
438.687	2.48
438.894	2.56
439.1	2.63
439.307	2.77
439.513	2.66
439.719	2.73
439.926	2.84
440.132	2.77
440.338	2.45
440.544	2.55
440.751	2.47
440.957	2.45
441.163	2.39
441.369	2.58
441.575	2.39
441.782	2.43
441.988	2.27
442.194	2.33
442.4	2.23
442.606	2.57
442.812	2.64
443.018	2.82
443.224	2.86
443.431	2.89
443.637	2.58
443.843	2.46
444.049	2.44
444.255	2.39
444.461	2.51
444.667	2.57
444.873	2.72
445.079	2.79
445.284	2.86
445.49	2.6
445.696	2.49
445.902	2.39
446.108	2.31
446.314	2.25
446.52	2.37
446.726	2.58
446.931	2.54
447.137	2.57
447.343	2.63
447.549	2.63
447.755	2.56
447.96	2.71
448.166	2.64
448.372	2.61
448.578	2.64
448.783	2.65
448.989	2.69
449.195	2.88
449.4	2.96
449.606	2.94
449.812	2.88
450.017	2.92
450.223	2.76
450.428	2.66
450.634	2.8
450.84	2.93
451.045	2.78
451.251	2.76
451.456	3.01
451.662	3
451.867	3.11
452.073	3.14
452.278	3.22
452.483	3.27
452.689	3.17
452.894	3.12
453.1	3.07
453.305	3.05
453.51	2.9
453.716	2.89
453.921	2.86
454.127	2.89
454.332	2.82
454.537	2.77
454.742	2.8
454.948	2.73
455.153	2.74
455.358	2.82
455.563	2.98
455.769	3.04
455.974	3.07
456.179	2.92
456.384	2.89
456.589	2.79
456.795	2.7
457	2.62
457.205	2.91
457.41	2.91
457.615	2.83
457.82	2.86
458.025	2.95
458.23	2.78
458.435	2.8
458.64	2.77
458.845	2.88
459.05	2.86
459.255	2.91
