Data from Ofra_1a_PS_9CX5_Reflection_3.txt Node
Date: Tue Jul 20 11:04:58 EDT 2021
User: Adam
Spectrometer: FLMT01687
Trigger mode: 0
Integration Time (sec): 1.004000E0
Scans to average: 2
Electric dark correction enabled: true
Nonlinearity correction enabled: false
Boxcar width: 2
XAxis mode: Wavelengths
Number of Pixels in Spectrum: 3648
>>>>>Begin Spectral Data<<<<<
179.494	-384.26
179.716	-511.45
179.937	880.6
180.158	-1348.41
180.38	107.8
180.601	81.14
180.823	19.82
181.044	-2.83
181.265	-90.45
181.486	78.42
181.708	132.8
181.929	-827.27
182.15	7.76
182.372	-127.59
182.593	131.75
182.814	-6.96
183.035	28.8
183.257	52.77
183.478	26.22
183.699	29.58
183.92	-29.24
184.141	-22.4
184.363	-48.17
184.584	-37.46
184.805	-7.39
185.026	41.9
185.247	23.88
185.468	21.77
185.689	8.25
185.91	-25.97
186.132	2.14
186.353	34.55
186.574	27.74
186.795	44.86
187.016	61.74
187.237	39.7
187.458	32.93
187.679	59.66
187.9	66.8
188.121	72.29
188.342	73.37
188.563	77.8
188.784	67.63
189.005	42.85
189.226	44.54
189.447	36.68
189.667	20.64
189.888	5.63
190.109	-9.46
190.33	-16.8
190.551	-35.34
190.772	-17.2
190.993	-7.56
191.214	-25.05
191.434	-34.89
191.655	-16.82
191.876	-13.85
192.097	-17.24
192.318	10.55
192.538	-19.54
192.759	-12.89
192.98	4.36
193.201	-1.45
193.421	16.14
193.642	27.91
193.863	36.91
194.083	16.24
194.304	17.72
194.525	-5.17
194.745	-0.1
194.966	-2.43
195.187	-0.23
195.407	-0.09
195.628	9.05
195.848	14.71
196.069	14.08
196.29	28.22
196.51	8.39
196.731	-5.62
196.951	-25.45
197.172	-17.09
197.392	-28.71
197.613	14.62
197.833	2.21
198.054	8.77
198.274	7.75
198.495	14.72
198.715	-0.1
198.936	25.93
199.156	27.26
199.377	22.33
199.597	26.75
199.817	23.94
200.038	37.01
200.258	36.88
200.479	65.33
200.699	54.52
200.919	42.46
201.14	13.46
201.36	0.37
201.58	-51.64
201.801	-74.72
202.021	-60.69
202.241	-47.09
202.461	-23.24
202.682	19.32
202.902	41.62
203.122	35.8
203.342	32.02
203.563	16.92
203.783	-7.27
204.003	-38.55
204.223	-13.61
204.443	10.66
204.663	27.31
204.884	64.63
205.104	81.87
205.324	85.1
205.544	-5.14
205.764	1.23
205.984	-3.45
206.204	-5.26
206.424	-30.36
206.644	-15.84
206.864	-39.57
207.084	-19.01
207.304	-14.32
207.525	6.48
207.745	18.08
207.964	34.4
208.184	40.95
208.404	27.68
208.624	35.87
208.844	43.47
209.064	33.66
209.284	10.9
209.504	9.99
209.724	6.04
209.944	0.13
210.164	-6.23
210.384	8.66
210.604	-2.12
210.823	-38.91
211.043	-21.51
211.263	-70.53
211.483	-5.17
211.703	-7.27
211.922	-7.8
212.142	1.14
212.362	35.67
212.582	21.08
212.801	12.71
213.021	16.6
213.241	-9.51
213.461	-20.42
213.68	-20.84
213.9	-14.11
214.12	-13.99
214.339	13.48
214.559	10.63
214.779	16.73
214.998	38.89
215.218	41.06
215.438	24.55
215.657	13.92
215.877	13.7
216.096	17.41
216.316	10.96
216.535	-0.47
216.755	17.88
216.974	-0.31
217.194	-27.88
217.413	-17.87
217.633	-22.7
217.852	-30.43
218.072	-14.94
218.291	-12.46
218.511	-30.08
218.73	-40.25
218.95	-72.1
219.169	-56.23
219.389	-35.1
219.608	-26.54
219.827	-4.06
220.047	10.11
220.266	-35.21
220.485	-49.81
220.705	-34.05
220.924	-36.3
221.143	14.41
221.363	36.23
221.582	36.66
221.801	36.95
222.021	32.37
222.24	16.13
222.459	36.57
222.678	36.64
222.897	14.34
223.117	32.4
223.336	48.07
223.555	49.66
223.774	69.58
223.993	114.67
224.213	90.49
224.432	71.11
224.651	43.21
224.87	41.8
225.089	25.19
225.308	32.05
225.527	12.22
225.746	20.34
225.965	4
226.184	-11.06
226.404	-18.08
226.623	-2.08
226.842	0.39
227.061	-1.66
227.28	28.87
227.499	26.39
227.718	26.5
227.936	14.43
228.155	6.5
228.374	-16.65
228.593	-15.59
228.812	-18.29
229.031	6.22
229.25	-2.17
229.469	3.97
229.688	11.25
229.907	15.83
230.125	8.44
230.344	19.63
230.563	18.94
230.782	10.98
231.001	3.76
231.22	-9.96
231.438	2.74
231.657	11.91
231.876	4.6
232.095	6.44
232.313	8.76
232.532	-9.54
232.751	-37
232.969	-26.39
233.188	-34.18
233.407	-4.93
233.625	11.66
233.844	24.46
234.063	20.6
234.281	31.89
234.5	21.78
234.719	14.66
234.937	18.54
235.156	25.07
235.374	9.78
235.593	19.7
235.811	24.11
236.03	29.5
236.249	19.78
236.467	31.03
236.686	18.61
236.904	16.31
237.123	-1.83
237.341	10
237.559	-7.32
237.778	12.06
237.996	-13.82
238.215	-59.39
238.433	-96.86
238.652	-22.85
238.87	-51.82
239.088	-26.24
239.307	9.41
239.525	19.01
239.743	1.68
239.962	2.2
240.18	10.23
240.398	12.44
240.617	-10.17
240.835	-12.19
241.053	-15.72
241.271	-20.86
241.49	-13.09
241.708	-11.81
241.926	-10.9
242.144	2.07
242.363	0.71
242.581	-39.43
242.799	-40.94
243.017	-14.72
243.235	-13.78
243.453	-38.16
243.672	-17.02
243.89	-4.62
244.108	1.95
244.326	17.29
244.544	36.13
244.762	23.11
244.98	23.14
245.198	25.84
245.416	-3.04
245.634	-10.6
245.852	-19.23
246.07	10.21
246.288	0.26
246.506	13.87
246.724	12.51
246.942	24.88
247.16	14.29
247.378	-0.88
247.596	28
247.814	15.51
248.032	13.03
248.25	8.33
248.468	16.83
248.685	14.81
248.903	19.48
249.121	21.38
249.339	10.79
249.557	19.09
249.775	30.03
249.992	27.78
250.21	15.86
250.428	37.43
250.646	24.48
250.863	-10.63
251.081	-10.13
251.299	-2.38
251.517	-8.49
251.734	-10.19
251.952	6.8
252.17	1.68
252.387	7.27
252.605	-1.03
252.823	19.42
253.04	54.24
253.258	69.07
253.475	42.56
253.693	28.74
253.911	17.65
254.128	-5.61
254.346	-8.44
254.563	1.4
254.781	7.13
254.998	3.75
255.216	-16.51
255.433	-22.04
255.651	-10.38
255.868	-5.5
256.086	10.28
256.303	22.85
256.521	15.56
256.738	-0.44
256.956	-14.67
257.173	-31.1
257.39	-18.88
257.608	-14.44
257.825	4.18
258.043	42.04
258.26	47.13
258.477	41.58
258.695	50.93
258.912	37.45
259.129	-12.82
259.346	-27.72
259.564	-26.61
259.781	-50.4
259.998	-11.3
260.216	22.97
260.433	24.45
260.65	28.84
260.867	41.17
261.084	29.06
261.302	24.26
261.519	34.88
261.736	13.88
261.953	4.02
262.17	25.8
262.387	15.8
262.604	16.9
262.822	30.49
263.039	35.43
263.256	27.3
263.473	26.04
263.69	23.01
263.907	25.12
264.124	37.17
264.341	40.7
264.558	39.1
264.775	33.97
264.992	27.69
265.209	11.2
265.426	14.48
265.643	41.82
265.86	64.62
266.077	73.08
266.294	47.64
266.51	49.01
266.727	28.71
266.944	32.44
267.161	22.87
267.378	28.8
267.595	9.01
267.812	-0.42
268.028	-17.58
268.245	4.04
268.462	-4.6
268.679	-0.68
268.896	20.21
269.112	9.58
269.329	-24.57
269.546	-0.29
269.763	-0.26
269.979	-6.88
270.196	5.07
270.413	6.16
270.629	-4.31
270.846	-16.19
271.063	-30.11
271.279	-16.49
271.496	-18.9
271.712	3.23
271.929	18.01
272.146	43.25
272.362	27.43
272.579	29.05
272.795	14.62
273.012	15.29
273.228	27.5
273.445	22.38
273.661	15.51
273.878	-8.88
274.094	-10.92
274.311	-40.04
274.527	-49.97
274.744	-10
274.96	3.25
275.177	9.58
275.393	17.05
275.609	34.28
275.826	22.73
276.042	22.72
276.259	21.84
276.475	14.64
276.691	-10
276.908	-2.95
277.124	11.94
277.34	12.52
277.557	11.09
277.773	21.71
277.989	10.68
278.205	0.49
278.422	-12.88
278.638	-5.8
278.854	-7.03
279.07	-4.33
279.286	-10.98
279.503	-1.65
279.719	5.76
279.935	8.74
280.151	-2.41
280.367	15.36
280.583	24.81
280.799	17.81
281.016	-2.69
281.232	21.02
281.448	-0.49
281.664	-17.31
281.88	-4.42
282.096	16.05
282.312	8.51
282.528	5.8
282.744	8.63
282.96	-14.94
283.176	-33.78
283.392	-44.16
283.608	-22.48
283.824	-32.45
284.04	-47.85
284.256	-27.93
284.471	-26.92
284.687	-33.34
284.903	-30
285.119	-5.88
285.335	1.66
285.551	22.31
285.767	23.94
285.982	52.34
286.198	36.78
286.414	26.74
286.63	-41.39
286.846	-19.8
287.061	-43.34
287.277	-34.77
287.493	-52.93
287.709	-14.93
287.924	8.42
288.14	39.5
288.356	48.98
288.571	55.37
288.787	55.96
289.003	41.2
289.218	14.52
289.434	11.74
289.65	34.33
289.865	34.48
290.081	33.55
290.296	41.07
290.512	38.25
290.727	27.2
290.943	12.89
291.159	12.29
291.374	-3.47
291.59	1.14
291.805	-18.32
292.021	-9.85
292.236	-9.15
292.451	3.26
292.667	-13.8
292.882	12.37
293.098	9.73
293.313	12.95
293.529	8.42
293.744	16.9
293.959	5.19
294.175	10.81
294.39	-7.22
294.605	6.88
294.821	7.7
295.036	9.16
295.251	4.35
295.467	4.12
295.682	4.91
295.897	1.39
296.112	-5.24
296.328	7.52
296.543	-1.05
296.758	-10.76
296.973	-7.04
297.188	3.94
297.404	-30.31
297.619	-6.24
297.834	-38.08
298.049	-14.65
298.264	-13.33
298.479	3.55
298.694	13.99
298.909	36.98
299.125	28.05
299.34	29.08
299.555	33.99
299.77	50.22
299.985	37.37
300.2	32.07
300.415	31.98
300.63	28.33
300.845	6.55
301.06	8.87
301.275	9.93
301.49	12.53
301.704	15.38
301.919	9.28
302.134	8.2
302.349	3.93
302.564	-2.32
302.779	-17.42
302.994	1.22
303.209	3.54
303.423	13.85
303.638	20.72
303.853	12.92
304.068	7.63
304.283	13.6
304.497	17.1
304.712	5.66
304.927	14.52
305.142	28.51
305.356	15.91
305.571	16.58
305.786	16.45
306	22.43
306.215	10.07
306.43	18.68
306.644	14.65
306.859	-6.06
307.074	2.45
307.288	-6.68
307.503	15.44
307.717	10.15
307.932	23.19
308.147	13.52
308.361	23.78
308.576	-7.77
308.79	-4.12
309.005	-9.32
309.219	5.75
309.434	11.71
309.648	21.67
309.863	21.37
310.077	28.2
310.292	29.47
310.506	2.7
310.72	7.02
310.935	26.12
311.149	16.41
311.364	-0.26
311.578	5.74
311.792	10.22
312.007	-18.21
312.221	-33.43
312.435	-11.25
312.649	10.7
312.864	3.08
313.078	4.54
313.292	18.79
313.507	23.82
313.721	23.08
313.935	36.84
314.149	33.77
314.363	38.07
314.578	30.48
314.792	22.4
315.006	4.87
315.22	5.55
315.434	7.26
315.648	-0.43
315.862	-7.87
316.077	-9.26
316.291	-12.04
316.505	-29.85
316.719	-10
316.933	-12.55
317.147	-22.91
317.361	-6.33
317.575	-8.49
317.789	-4.35
318.003	-5.84
318.217	22.56
318.431	5.64
318.645	9.98
318.859	12.29
319.073	29.34
319.287	14.83
319.5	17.55
319.714	11.85
319.928	4.7
320.142	-4.96
320.356	3.13
320.57	-6.79
320.784	13.43
320.997	3.08
321.211	14.06
321.425	-3.22
321.639	12.96
321.853	10.75
322.066	6.36
322.28	0.43
322.494	17.7
322.707	12.82
322.921	7.02
323.135	22.73
323.349	19.11
323.562	11.29
323.776	7.18
323.989	27.46
324.203	12.34
324.417	4.8
324.63	-4.15
324.844	-14.92
325.057	-55.04
325.271	-39.36
325.485	-35.75
325.698	-19.15
325.912	4.31
326.125	6.61
326.339	15.86
326.552	13.87
326.766	5.1
326.979	-1.55
327.193	6.12
327.406	-19.55
327.619	-4.68
327.833	-2.05
328.046	-2.53
328.26	-13
328.473	3.89
328.686	-2.88
328.9	14.76
329.113	18.94
329.326	19.81
329.54	25.46
329.753	36.77
329.966	31.79
330.179	29.07
330.393	26.87
330.606	13.37
330.819	-3.64
331.032	-6.94
331.246	4.44
331.459	13.44
331.672	22.65
331.885	27.24
332.098	22.35
332.311	8.49
332.525	3.77
332.738	8.02
332.951	-2.86
333.164	7.2
333.377	7.96
333.59	2.55
333.803	-3.12
334.016	-1.15
334.229	-13.61
334.442	-18.76
334.655	-5.48
334.868	-12.79
335.081	-8.35
335.294	-17.3
335.507	-19.76
335.72	-5.98
335.933	-1.2
336.146	1
336.359	14.44
336.572	30.54
336.785	18.3
336.997	18.27
337.21	35.06
337.423	25.28
337.636	-3.43
337.849	-8.12
338.062	-21.73
338.274	-28.01
338.487	-32.23
338.7	-31.67
338.913	-13.56
339.125	1.83
339.338	-6.22
339.551	13.04
339.763	22.33
339.976	11.25
340.189	8.56
340.402	23.94
340.614	26.85
340.827	31.62
341.039	23.61
341.252	22.31
341.465	12.45
341.677	2.08
341.89	-17.31
342.102	-0.22
342.315	7.81
342.527	12.59
342.74	16.05
342.952	7.09
343.165	-4.82
343.377	-0.55
343.59	4.92
343.802	2.98
344.015	18.75
344.227	22.22
344.44	12.83
344.652	-2.92
344.864	-5.66
345.077	1
345.289	3.12
345.502	12.45
345.714	8.66
345.926	12.8
346.139	-19.7
346.351	-7.8
346.563	-5.86
346.775	23.43
346.988	30.96
347.2	39.32
347.412	25.89
347.624	16.29
347.837	7.71
348.049	4.22
348.261	13.12
348.473	12.98
348.685	12.39
348.897	-1.52
349.11	-3.89
349.322	-5.8
349.534	-0.23
349.746	6.6
349.958	7.43
350.17	6.58
350.382	14.74
350.594	10.62
350.806	18.4
351.018	19.51
351.23	18.72
351.442	26.53
351.654	28.25
351.866	21.8
352.078	28.98
352.29	29.91
352.502	15.17
352.714	-0.27
352.926	6.28
353.138	13.96
353.35	3.71
353.561	7.96
353.773	6.3
353.985	9.96
354.197	-0.72
354.409	5.84
354.621	-9.18
354.832	-4.01
355.044	-20.65
355.256	-19.71
355.468	-20.25
355.679	7.98
355.891	9.04
356.103	5.28
356.314	6.71
356.526	-12.45
356.738	-37.99
356.949	-40.78
357.161	-13.51
357.373	-13.09
357.584	4.23
357.796	19.76
358.008	29.54
358.219	23.38
358.431	22.74
358.642	33.27
358.854	39.49
359.065	25.82
359.277	12.65
359.488	8.57
359.7	-2.17
359.911	-11.9
360.123	-0.44
360.334	-3.01
360.546	-3.23
360.757	-4.36
360.969	1.3
361.18	0.59
361.391	16.34
361.603	14.57
361.814	29
362.025	26.49
362.237	20.58
362.448	26.83
362.659	23.8
362.871	8.25
363.082	-16.52
363.293	-28.23
363.504	-48.33
363.716	-38.16
363.927	-2.58
364.138	-0.27
364.349	-0.23
364.56	-19.46
364.772	-0.25
364.983	-12.12
365.194	5.49
365.405	9.73
365.616	30.78
365.827	9.8
366.038	15.95
366.25	4.11
366.461	8.01
366.672	11.25
366.883	11.32
367.094	3.8
367.305	7.71
367.516	12.64
367.727	-10.54
367.938	-10.24
368.149	-12.28
368.36	-19.22
368.571	-32.29
368.781	-27.08
368.992	-13.4
369.203	-15.87
369.414	-10.57
369.625	-12.35
369.836	4.42
370.047	6.14
370.258	23.27
370.468	14.03
370.679	26.68
370.89	8.36
371.101	18.68
371.312	4.33
371.522	8.43
371.733	-2.7
371.944	1.82
372.155	3.89
372.365	5.17
372.576	11.57
372.787	14.18
372.997	9.52
373.208	-1.78
373.419	0.23
373.629	-4.32
373.84	-24.02
374.05	-24.71
374.261	-40.87
374.472	-32.63
374.682	-28.54
374.893	-24.2
375.103	-11.29
375.314	-1.26
375.524	2.81
375.735	6.53
375.945	21.13
376.156	11.68
376.366	18.95
376.577	16.55
376.787	13.71
376.997	10.98
377.208	16.27
377.418	6.71
377.629	-0.63
377.839	0.96
378.049	-1.08
378.26	-5.32
378.47	-7.95
378.68	-7.72
378.89	-2.59
379.101	1.46
379.311	3.05
379.521	6.91
379.732	13.87
379.942	5.73
380.152	-7.47
380.362	-4.31
380.572	10.68
380.783	10.17
380.993	11.7
381.203	17.58
381.413	15.58
381.623	7.2
381.833	9.82
382.043	4.97
382.253	7.16
382.463	14.51
382.674	17.34
382.884	14.7
383.094	15.24
383.304	15.02
383.514	11.57
383.724	9.58
383.934	7.14
384.144	11.97
384.353	8.31
384.563	9.98
384.773	9.49
384.983	11.51
385.193	4.43
385.403	7.93
385.613	6.14
385.823	-0.33
386.033	-5.5
386.242	-4.7
386.452	-5.53
386.662	-8.93
386.872	-0.58
387.082	4.08
387.291	3.86
387.501	3.38
387.711	6.38
387.921	1.89
388.13	1.11
388.34	-0.02
388.55	-3.23
388.759	-6.58
388.969	-6.34
389.179	-3.89
389.388	-2.35
389.598	-0.07
389.807	-3.25
390.017	-2.7
390.227	-4.78
390.436	-1
390.646	0.98
390.855	3.77
391.065	3.54
391.274	3.75
391.484	-0.2
391.693	-2.75
391.903	-3.28
392.112	-4.14
392.322	-4.99
392.531	-3.87
392.74	-4.7
392.95	-4.55
393.159	-5.47
393.369	-3.69
393.578	-2.95
393.787	-2.06
393.997	-1.16
394.206	1.25
394.415	0.79
394.625	0.69
394.834	-0.13
395.043	-0.61
395.252	0.43
395.462	0.7
395.671	1.11
395.88	2.73
396.089	3.08
396.298	2.32
396.508	2.21
396.717	1.49
396.926	1.15
397.135	1.4
397.344	0.3
397.553	0.38
397.762	1.9
397.971	1.9
398.181	1.96
398.39	2.28
398.599	1.93
398.808	1.24
399.017	1.79
399.226	1.85
399.435	2.02
399.644	2.81
399.853	2.71
400.062	2.14
400.27	1.86
400.479	1.85
400.688	1.44
400.897	1.51
401.106	1.6
401.315	1.71
401.524	1.94
401.733	1.49
401.941	1.58
402.15	1.77
402.359	1.66
402.568	1.52
402.777	1.97
402.985	1.72
403.194	1.52
403.403	1.76
403.612	1.69
403.82	1.46
404.029	1.48
404.238	1.44
404.446	1.53
404.655	1.67
404.864	1.66
405.072	1.66
405.281	1.71
405.489	1.43
405.698	1.36
405.906	1.66
406.115	1.71
406.324	1.67
406.532	1.7
406.741	1.8
406.949	1.64
407.158	1.63
407.366	1.58
407.574	1.57
407.783	1.47
407.991	1.48
408.2	1.57
408.408	1.63
408.617	1.67
408.825	1.47
409.033	1.43
409.242	1.45
409.45	1.38
409.658	1.45
409.867	1.64
410.075	1.72
410.283	1.59
410.491	1.58
410.7	1.57
410.908	1.61
411.116	1.66
411.324	1.64
411.533	1.63
411.741	1.49
411.949	1.46
412.157	1.19
412.365	1.34
412.573	1.38
412.781	1.41
412.99	1.37
413.198	1.43
413.406	1.44
413.614	1.57
413.822	1.72
414.03	1.77
414.238	1.94
414.446	1.91
414.654	1.73
414.862	1.58
415.07	1.5
415.278	1.5
415.486	1.38
415.694	1.43
415.902	1.43
416.109	1.38
416.317	1.41
416.525	1.29
416.733	1.2
416.941	1.28
417.149	1.26
417.357	1.21
417.564	1.35
417.772	1.48
417.98	1.41
418.188	1.33
418.395	1.06
418.603	1.01
418.811	0.98
419.019	1
419.226	1.23
419.434	1.44
419.642	1.32
419.849	1.23
420.057	1.26
420.265	1.21
420.472	1.15
420.68	1.31
420.887	1.26
421.095	1.32
421.302	1.22
421.51	1.25
421.717	1.21
421.925	1.38
422.132	1.23
422.34	1.12
422.547	1.02
422.755	1.01
422.962	0.95
423.17	1.01
423.377	1.19
423.585	1.42
423.792	1.44
423.999	1.51
424.207	1.37
424.414	1.39
424.621	1.26
424.829	1.34
425.036	1.32
425.243	1.49
425.451	1.47
425.658	1.5
425.865	1.4
426.072	1.31
426.28	1.35
426.487	1.23
426.694	0.97
426.901	1.02
427.108	1.09
427.315	0.95
427.523	0.9
427.73	1.18
427.937	1.05
428.144	1.01
428.351	1.01
428.558	1.14
428.765	1.06
428.972	1.27
429.179	1.22
429.386	1.24
429.593	1.04
429.8	1.05
430.007	0.94
430.214	0.87
430.421	1.03
430.628	1.2
430.835	1.18
431.042	1.17
431.249	1.25
431.456	1.09
431.662	1.12
431.869	1.27
432.076	1.28
432.283	1.48
432.49	1.48
432.697	1.48
432.903	1.26
433.11	1.4
433.317	1.32
433.524	1.42
433.73	1.41
433.937	1.61
434.144	1.41
434.35	1.41
434.557	1.44
434.764	1.6
434.97	1.4
435.177	1.61
435.384	1.62
435.59	1.64
435.797	1.56
436.003	1.75
436.21	1.58
436.416	1.52
436.623	1.5
436.829	1.47
437.036	1.35
437.242	1.44
437.449	1.46
437.655	1.54
437.862	1.56
438.068	1.55
438.275	1.6
438.481	1.67
438.687	1.59
438.894	1.65
439.1	1.71
439.307	1.75
439.513	1.69
439.719	1.79
439.926	1.79
440.132	1.86
440.338	1.83
440.544	1.82
440.751	1.68
440.957	1.64
441.163	1.43
441.369	1.41
441.575	1.41
441.782	1.51
441.988	1.47
442.194	1.58
442.4	1.55
442.606	1.74
442.812	1.7
443.018	1.69
443.224	1.77
443.431	1.84
443.637	1.65
443.843	1.65
444.049	1.82
444.255	1.78
444.461	1.73
444.667	1.75
444.873	1.81
445.079	1.73
445.284	1.76
445.49	1.76
445.696	1.76
445.902	1.72
446.108	1.79
446.314	1.78
446.52	1.87
446.726	1.9
446.931	1.86
447.137	1.8
447.343	1.86
447.549	1.88
447.755	1.92
447.96	2.01
448.166	2.03
448.372	2.02
448.578	1.85
448.783	1.88
448.989	1.91
449.195	1.95
449.4	2
449.606	2.12
449.812	2.02
450.017	2.05
450.223	1.95
450.428	1.91
450.634	1.93
450.84	2.01
451.045	1.89
451.251	2.04
451.456	2.09
451.662	2.17
451.867	2.14
452.073	2.16
452.278	2.1
452.483	2.02
452.689	2.03
452.894	2.08
453.1	2.08
453.305	2.11
453.51	2.18
453.716	2.08
453.921	2.14
454.127	2.16
454.332	2.16
454.537	2.1
454.742	2.07
454.948	2.04
455.153	2.05
455.358	2.08
455.563	2.08
455.769	2.14
455.974	2.08
456.179	2.03
456.384	1.96
456.589	1.91
456.795	1.9
457	1.89
457.205	1.88
457.41	1.85
457.615	1.85
457.82	1.93
458.025	1.92
458.23	1.93
458.435	2.03
458.64	2.09
458.845	2.07
459.05	2.13
459.255	2.19
459.46	2.2
459.665	2.18
459.87	2.15
460.075	2.14
460.28	2.24
460.485	2.29
460.69	2.27
460.895	2.27
461.099	2.19
461.304	2.02
461.509	1.96
461.714	2.06
461.919	2.02
462.123	2.06
462.328	2.06
462.533	1.93
462.738	1.88
462.942	1.9
463.147	1.91
463.352	2
463.556	2.11
463.761	2.12
463.966	2.08
464.17	2.17
464.375	2.23
464.58	2.17
464.784	2.15
464.989	2.19
465.193	2.12
465.398	2.07
465.602	2.28
465.807	2.33
466.011	2.29
466.216	2.24
466.42	2.28
466.625	2.28
466.829	2.26
467.034	2.42
467.238	2.6
467.443	2.6
467.647	2.49
467.851	2.5
468.056	2.5
