Data from Ofra_2a_PS_4CX12_Reflection_2.txt Node
Date: Tue Jul 20 09:49:22 EDT 2021
User: Adam
Spectrometer: FLMT01687
Trigger mode: 0
Integration Time (sec): 9.450000E-1
Scans to average: 3
Electric dark correction enabled: true
Nonlinearity correction enabled: false
Boxcar width: 3
XAxis mode: Wavelengths
Number of Pixels in Spectrum: 3648
>>>>>Begin Spectral Data<<<<<
179.494	1008.28
179.716	570.69
179.937	596.15
180.158	1958.2
180.38	-777.03
180.601	-97.86
180.823	-8.01
181.044	74.4
181.265	-68.54
181.486	29.61
181.708	-1183.7
181.929	-175.47
182.15	-427.84
182.372	57.13
182.593	-12.59
182.814	404.64
183.035	245.76
183.257	144
183.478	111.86
183.699	108.12
183.92	95.62
184.141	88.47
184.363	85.18
184.584	67.49
184.805	67.15
185.026	72.02
185.247	42.82
185.468	46.5
185.689	38.03
185.91	29.43
186.132	58.91
186.353	52.54
186.574	53.65
186.795	52.67
187.016	47.11
187.237	61.01
187.458	62.51
187.679	30.72
187.9	42.93
188.121	40.07
188.342	57.45
188.563	62.38
188.784	57.31
189.005	90.2
189.226	85.91
189.447	68.54
189.667	70.33
189.888	61.1
190.109	66.12
190.33	54.07
190.551	19.05
190.772	22.6
190.993	36.92
191.214	27.94
191.434	33.02
191.655	27.98
191.876	45.34
192.097	51.48
192.318	56.1
192.538	56.07
192.759	66.44
192.98	60.46
193.201	75.93
193.421	69.76
193.642	58.12
193.863	68.67
194.083	54.27
194.304	44.31
194.525	57.81
194.745	22.55
194.966	22.92
195.187	40.83
195.407	34.46
195.628	43.92
195.848	49.94
196.069	42.45
196.29	55.8
196.51	59.04
196.731	65.65
196.951	63.11
197.172	44.59
197.392	37.54
197.613	32.25
197.833	30.13
198.054	35.87
198.274	10.88
198.495	14.43
198.715	8.2
198.936	19.86
199.156	31.68
199.377	43.43
199.597	35.37
199.817	60.95
200.038	71.17
200.258	83.96
200.479	85.69
200.699	89.73
200.919	65.51
201.14	66.68
201.36	68.96
201.58	60.81
201.801	61.18
202.021	58.63
202.241	54.38
202.461	72.15
202.682	69.62
202.902	57.38
203.122	50.86
203.342	60.14
203.563	50.37
203.783	50.54
204.003	32.54
204.223	38.42
204.443	38.59
204.663	46.19
204.884	25.18
205.104	34.83
205.324	43.98
205.544	61.51
205.764	71.1
205.984	63.85
206.204	59.93
206.424	64.09
206.644	60.08
206.864	50.18
207.084	63.96
207.304	53
207.525	67.31
207.745	63.13
207.964	80.97
208.184	64.72
208.404	60.6
208.624	38.82
208.844	37.62
209.064	22.54
209.284	30.62
209.504	30.49
209.724	14.58
209.944	14.38
210.164	20.96
210.384	40.05
210.604	36.33
210.823	19.51
211.043	5.26
211.263	29.1
211.483	37.49
211.703	38.9
211.922	21.57
212.142	42.62
212.362	45.32
212.582	43.99
212.801	37.31
213.021	34.97
213.241	27.1
213.461	34.39
213.68	20.66
213.9	27.36
214.12	33.23
214.339	29.89
214.559	32.55
214.779	40.93
214.998	42.03
215.218	41.01
215.438	47.65
215.657	49.57
215.877	48.89
216.096	52.16
216.316	39.9
216.535	39.31
216.755	32.61
216.974	26.04
217.194	18.98
217.413	39.4
217.633	31.74
217.852	38
218.072	42.39
218.291	55.1
218.511	43.11
218.73	44.31
218.95	37.89
219.169	40.83
219.389	28.36
219.608	39.48
219.827	21.66
220.047	32.29
220.266	32.23
220.485	34.01
220.705	31.19
220.924	38.9
221.143	19.65
221.363	32.29
221.582	25.98
221.801	23.56
222.021	20.88
222.24	23.07
222.459	20.23
222.678	28.52
222.897	21.34
223.117	34.91
223.336	43.31
223.555	35.57
223.774	31.03
223.993	49.05
224.213	39.14
224.432	53.03
224.651	44.09
224.87	34.74
225.089	39.33
225.308	43.01
225.527	35.24
225.746	45.35
225.965	28.2
226.184	35.76
226.404	43.55
226.623	47.57
226.842	43.17
227.061	35.86
227.28	46.62
227.499	49.77
227.718	36.93
227.936	24.35
228.155	25.94
228.374	30.13
228.593	36.01
228.812	20.59
229.031	7.21
229.25	14.7
229.469	29.4
229.688	27.46
229.907	30.27
230.125	25.3
230.344	30.76
230.563	43.59
230.782	38.3
231.001	34.84
231.22	37.31
231.438	32.86
231.657	35.28
231.876	38.68
232.095	38.79
232.313	52.18
232.532	49.79
232.751	58.19
232.969	65.31
233.188	71.23
233.407	70.35
233.625	53.11
233.844	51.41
234.063	50.22
234.281	33.22
234.5	27.29
234.719	33.31
234.937	39.9
235.156	44.92
235.374	36.15
235.593	41.53
235.811	56.32
236.03	57.35
236.249	49.43
236.467	40.6
236.686	52.78
236.904	46.62
237.123	48.59
237.341	35.94
237.559	33.39
237.778	33.57
237.996	37.46
238.215	38.68
238.433	44.75
238.652	37.77
238.87	37.7
239.088	39.06
239.307	36
239.525	28.23
239.743	19.26
239.962	17.81
240.18	25.69
240.398	32.74
240.617	38.77
240.835	44.12
241.053	51.79
241.271	59.11
241.49	53.22
241.708	49.41
241.926	39.67
242.144	38.81
242.363	27.75
242.581	35.26
242.799	21.75
243.017	31.87
243.235	29.23
243.453	42.23
243.672	48.58
243.89	52.65
244.108	53.81
244.326	57.42
244.544	64.71
244.762	63.51
244.98	57.18
245.198	46.18
245.416	47.35
245.634	44.76
245.852	52.57
246.07	40
246.288	38.56
246.506	47.19
246.724	59.83
246.942	57.02
247.16	38.16
247.378	34.95
247.596	29.75
247.814	26.65
248.032	25.01
248.25	12.38
248.468	20.17
248.685	35.95
248.903	23.35
249.121	38.69
249.339	36.51
249.557	31.46
249.775	12.77
249.992	1.56
250.21	-13.81
250.428	-9.12
250.646	-5.96
250.863	2.69
251.081	1.39
251.299	25.78
251.517	53.04
251.734	69.13
251.952	71.69
252.17	56.09
252.387	45
252.605	44.72
252.823	42.57
253.04	28.32
253.258	30.4
253.475	22.6
253.693	33.45
253.911	28.73
254.128	29.51
254.346	26.79
254.563	17.15
254.781	17.31
254.998	23.2
255.216	24.73
255.433	29.13
255.651	26.43
255.868	26.25
256.086	36.02
256.303	39.84
256.521	30.09
256.738	19.01
256.956	0.44
257.173	11.79
257.39	21.72
257.608	24.78
257.825	14.54
258.043	30.87
258.26	35.31
258.477	53.7
258.695	47.79
258.912	51.25
259.129	45.04
259.346	54.5
259.564	48.32
259.781	53.94
259.998	58.98
260.216	73.73
260.433	68.18
260.65	73.5
260.867	58.18
261.084	61.15
261.302	61.2
261.519	42.66
261.736	27.95
261.953	39.28
262.17	34.37
262.387	42.91
262.604	32.01
262.822	35.1
263.039	37.56
263.256	39.18
263.473	22.63
263.69	32.24
263.907	26.9
264.124	24.58
264.341	13.33
264.558	19.05
264.775	29.54
264.992	38.59
265.209	37.72
265.426	40.07
265.643	46.22
265.86	49.54
266.077	51.66
266.294	41.78
266.51	38.53
266.727	23.56
266.944	23.83
267.161	22.81
267.378	19.72
267.595	14.06
267.812	9.56
268.028	16.37
268.245	31.2
268.462	32.43
268.679	29.33
268.896	34.46
269.112	43.77
269.329	50.07
269.546	52.42
269.763	49.88
269.979	44
270.196	48.48
270.413	48.71
270.629	48.67
270.846	50.74
271.063	48.34
271.279	51.85
271.496	50.07
271.712	41.38
271.929	44.93
272.146	41.73
272.362	27.09
272.579	19.08
272.795	8.84
273.012	13.45
273.228	10.37
273.445	5.66
273.661	1.29
273.878	14.05
274.094	28.07
274.311	31.24
274.527	34.39
274.744	41.93
274.96	37.78
275.177	51.85
275.393	54.55
275.609	49.18
275.826	56.46
276.042	59.09
276.259	57.68
276.475	53.7
276.691	44.65
276.908	41.66
277.124	39.48
277.34	33.28
277.557	33.72
277.773	26.82
277.989	20.17
278.205	12.98
278.422	13.14
278.638	18.79
278.854	23.66
279.07	25.77
279.286	32.16
279.503	43.94
279.719	54.57
279.935	50.11
280.151	53.84
280.367	47.08
280.583	42.95
280.799	48.94
281.016	44.88
281.232	35.81
281.448	38.33
281.664	27.04
281.88	39.88
282.096	38.45
282.312	34.52
282.528	40.81
282.744	39.6
282.96	34.61
283.176	38.86
283.392	39.92
283.608	40.7
283.824	38.63
284.04	37.03
284.256	43.75
284.471	49.25
284.687	43.73
284.903	31.34
285.119	26.26
285.335	29.77
285.551	41.39
285.767	38
285.982	35.88
286.198	37.89
286.414	51.44
286.63	59.05
286.846	52.6
287.061	57.84
287.277	53.92
287.493	56.65
287.709	58
287.924	62.01
288.14	60.27
288.356	76.36
288.571	60.68
288.787	61.43
289.003	51.45
289.218	50.53
289.434	41.43
289.65	34.64
289.865	28.18
290.081	32.09
290.296	37.82
290.512	48.64
290.727	56.25
290.943	49.11
291.159	51.08
291.374	54.46
291.59	50.76
291.805	59.65
292.021	35.35
292.236	32.32
292.451	33.28
292.667	26.77
292.882	15.92
293.098	11.16
293.313	-3.32
293.529	12.37
293.744	5.88
293.959	11.75
294.175	19.44
294.39	38.16
294.605	46.28
294.821	48.6
295.036	51.11
295.251	50.14
295.467	50.38
295.682	51.74
295.897	35.46
296.112	39.79
296.328	50.26
296.543	44.2
296.758	47.3
296.973	50.21
297.188	45.32
297.404	44.89
297.619	39.42
297.834	32.42
298.049	33.14
298.264	37.8
298.479	26.41
298.694	38.07
298.909	37.49
299.125	41.05
299.34	40.82
299.555	44.11
299.77	39.68
299.985	41.62
300.2	22.93
300.415	20.68
300.63	10.67
300.845	11.09
301.06	9.71
301.275	14.04
301.49	20.38
301.704	24.43
301.919	25.26
302.134	29.82
302.349	27.63
302.564	21.17
302.779	15.86
302.994	5.23
303.209	10.86
303.423	23.74
303.638	30.05
303.853	25.5
304.068	41.21
304.283	40.03
304.497	46.66
304.712	42.37
304.927	31.82
305.142	22.12
305.356	26.86
305.571	21.11
305.786	14.77
306	17.6
306.215	19.44
306.43	33.23
306.644	44.24
306.859	43.59
307.074	45.9
307.288	54.62
307.503	49.19
307.717	45.6
307.932	47.21
308.147	33.69
308.361	34.36
308.576	31.09
308.79	26.31
309.005	23.8
309.219	25.41
309.434	22.49
309.648	25.68
309.863	22.74
310.077	21.07
310.292	30.63
310.506	45.75
310.72	47.27
310.935	40.18
311.149	39.04
311.364	42.39
311.578	42.52
311.792	33.92
312.007	22.87
312.221	29.91
312.435	28.6
312.649	43.68
312.864	40.34
313.078	30.98
313.292	50.26
313.507	55.51
313.721	50.39
313.935	65.59
314.149	43.47
314.363	48.21
314.578	73.56
314.792	60.21
315.006	58.36
315.22	62.88
315.434	50.48
315.648	56.84
315.862	45.99
316.077	34.31
316.291	38.49
316.505	42.19
316.719	19.99
316.933	36.51
317.147	37.61
317.361	50.25
317.575	45.75
317.789	45.7
318.003	41.81
318.217	50.84
318.431	39.44
318.645	38.84
318.859	24.78
319.073	25.75
319.287	26.84
319.5	24.06
319.714	20.02
319.928	28.43
320.142	28.61
320.356	40.01
320.57	31.55
320.784	28.79
320.997	33.01
321.211	34.79
321.425	23.67
321.639	27.72
321.853	15.84
322.066	25.38
322.28	23.25
322.494	17
322.707	15.83
322.921	21.65
323.135	20.32
323.349	26.14
323.562	24.43
323.776	23.84
323.989	28.23
324.203	39.08
324.417	33.12
324.63	29.62
324.844	28.71
325.057	33.12
325.271	30.34
325.485	32.03
325.698	24.51
325.912	35.9
326.125	33.03
326.339	36.17
326.552	38.35
326.766	45.05
326.979	48.2
327.193	46.25
327.406	44.39
327.619	38.6
327.833	43.93
328.046	32.44
328.26	33.81
328.473	22.3
328.686	23.73
328.9	16.71
329.113	25.84
329.326	22.25
329.54	31.15
329.753	27.41
329.966	33.89
330.179	36.03
330.393	40.17
330.606	35.95
330.819	39.19
331.032	35.18
331.246	40.47
331.459	29.78
331.672	29.65
331.885	25.79
332.098	33.18
332.311	21.07
332.525	22
332.738	15.98
332.951	18.48
333.164	10.37
333.377	15.02
333.59	16.31
333.803	24.93
334.016	23.11
334.229	35.12
334.442	45.83
334.655	53.07
334.868	40.82
335.081	47.53
335.294	46.59
335.507	44.78
335.72	31.62
335.933	34.54
336.146	40.37
336.359	40.33
336.572	31.36
336.785	34.41
336.997	35.79
337.21	45
337.423	38.65
337.636	36.25
337.849	43.92
338.062	44.79
338.274	47.12
338.487	45.16
338.7	46.03
338.913	48.83
339.125	45.9
339.338	43.49
339.551	46.42
339.763	39.89
339.976	33.92
340.189	30.71
340.402	28.28
340.614	33.2
340.827	22.06
341.039	23.97
341.252	27.08
341.465	28.62
341.677	16.05
341.89	14.98
342.102	15.87
342.315	28.79
342.527	18.89
342.74	11.45
342.952	10.7
343.165	28.17
343.377	32.25
343.59	36.01
343.802	36.63
344.015	38.74
344.227	37.31
344.44	32.47
344.652	26.62
344.864	25.42
345.077	12.36
345.289	7.43
345.502	13.29
345.714	16.82
345.926	28.24
346.139	28.42
346.351	17.05
346.563	25.49
346.775	28.03
346.988	21.69
347.2	28.34
347.412	29.58
347.624	30.19
347.837	38.25
348.049	34.51
348.261	28.66
348.473	25.45
348.685	34.16
348.897	31.04
349.11	36.02
349.322	40.06
349.534	43.22
349.746	58.73
349.958	58.86
350.17	36.15
350.382	37.29
350.594	32.08
350.806	27.98
351.018	31.14
351.23	26.68
351.442	23.32
351.654	34.39
351.866	35.15
352.078	30.56
352.29	30.92
352.502	26.87
352.714	24.12
352.926	22.54
353.138	18.71
353.35	15.08
353.561	15.24
353.773	17.31
353.985	13.57
354.197	10.64
354.409	17.75
354.621	17.25
354.832	17.94
355.044	25.1
355.256	21.6
355.468	27.41
355.679	28.41
355.891	20.41
356.103	25.51
356.314	23.87
356.526	20.11
356.738	17.38
356.949	18.56
357.161	20.35
357.373	24.12
357.584	27.4
357.796	27.5
358.008	29.98
358.219	37.44
358.431	35.37
358.642	35.31
358.854	37.65
359.065	28.81
359.277	29.05
359.488	24.29
359.7	19.31
359.911	15.18
360.123	16.72
360.334	12.93
360.546	13.52
360.757	16.67
360.969	26.13
361.18	20.53
361.391	23.98
361.603	26.91
361.814	29.82
362.025	30.46
362.237	28.8
362.448	29.85
362.659	31.82
362.871	35.3
363.082	26.43
363.293	26.11
363.504	28.7
363.716	27.93
363.927	25.33
364.138	28.22
364.349	31.83
364.56	35.87
364.772	36.22
364.983	31.33
365.194	36.6
365.405	34.77
365.616	24.42
365.827	18.81
366.038	26.81
366.25	25.1
366.461	36.91
366.672	28.19
366.883	35.43
367.094	40.21
367.305	37.8
367.516	31.79
367.727	29.29
367.938	24.07
368.149	30.65
368.36	24.82
368.571	30.01
368.781	24.52
368.992	25.77
369.203	32.8
369.414	29.11
369.625	27.3
369.836	25.8
370.047	26.38
370.258	20.96
370.468	15.48
370.679	7.15
370.89	12.41
371.101	9.4
371.312	9.78
371.522	0.69
371.733	8.89
371.944	10.66
372.155	4.45
372.365	5.03
372.576	5.96
372.787	5.77
372.997	9.67
373.208	17.7
373.419	18.18
373.629	35.71
373.84	30.52
374.05	31.37
374.261	27.79
374.472	24.89
374.682	15.66
374.893	14.34
375.103	11.54
375.314	13.45
375.524	15.67
375.735	14.74
375.945	19.69
376.156	25.28
376.366	31.11
376.577	26.35
376.787	34.13
376.997	31.2
377.208	26.87
377.418	28.61
377.629	24.63
377.839	25
378.049	30.14
378.26	27.06
378.47	33.33
378.68	40.25
378.89	35.25
379.101	26.79
379.311	18.67
379.521	20.23
379.732	7.18
379.942	0.42
380.152	4.91
380.362	6.99
380.572	18.01
380.783	19.87
380.993	15.86
381.203	27.07
381.413	28.2
381.623	25.64
381.833	26.9
382.043	17.97
382.253	21.9
382.463	22.37
382.674	21.9
382.884	19.88
383.094	18.36
383.304	16.66
383.514	26.32
383.724	23.36
383.934	19.29
384.144	17.44
384.353	18.17
384.563	15.4
384.773	14.95
384.983	13.69
385.193	16.54
385.403	19.93
385.613	19.86
385.823	18.63
386.033	20.3
386.242	22.63
386.452	21.42
386.662	21.37
386.872	16.09
387.082	13.88
387.291	17.41
387.501	17.04
387.711	16.17
387.921	13.73
388.13	11.7
388.34	11.57
388.55	14.5
388.759	9.58
388.969	7.02
389.179	8.61
389.388	9.2
389.598	9.27
389.807	8.88
390.017	6.31
390.227	6.81
390.436	7.37
390.646	6
390.855	6
391.065	4.93
391.274	5.11
391.484	5.73
391.693	6.97
391.903	8.18
392.112	7.97
392.322	9.33
392.531	9.54
392.74	9.07
392.95	8.93
393.159	8.31
393.369	7.17
393.578	7.85
393.787	7.5
393.997	8.1
394.206	8.81
394.415	8.64
394.625	7.77
394.834	6.98
395.043	6.89
395.252	6.71
395.462	6.27
395.671	6.29
395.88	6.12
396.089	6.11
396.298	6.97
396.508	6.24
396.717	5.63
396.926	5.2
397.135	4.31
397.344	4.25
397.553	4.93
397.762	4.57
397.971	4.88
398.181	4.72
398.39	4.92
398.599	5.36
398.808	5.47
399.017	5.41
399.226	5.74
399.435	5.48
399.644	5.69
399.853	5.69
400.062	5.59
400.27	5.51
400.479	5.41
400.688	5.4
400.897	5.48
401.106	5.5
401.315	5.49
401.524	5.71
401.733	5.78
401.941	5.73
402.15	5.32
402.359	5.15
402.568	5.12
402.777	4.89
402.985	4.75
403.194	4.58
403.403	4.4
403.612	4.54
403.82	4.72
404.029	4.65
404.238	4.72
404.446	4.6
404.655	4.54
404.864	4.59
405.072	4.54
405.281	4.32
405.489	4.24
405.698	4.14
405.906	4.1
406.115	4.13
406.324	4.07
406.532	4.12
406.741	4.25
406.949	4.19
407.158	4.33
407.366	4.4
407.574	4.38
407.783	4.39
407.991	4.26
408.2	4.17
408.408	4.3
408.617	4.24
408.825	4.26
409.033	4.26
409.242	4.21
409.45	4.25
409.658	4.23
409.867	4.14
410.075	4.11
410.283	3.99
410.491	3.94
410.7	3.98
410.908	3.99
411.116	3.95
411.324	4.03
411.533	3.97
411.741	4.02
411.949	4.08
412.157	4.08
412.365	3.99
412.573	4.01
412.781	3.92
412.99	3.97
413.198	4
413.406	3.93
413.614	3.92
413.822	4
414.03	3.96
414.238	4.04
414.446	3.96
414.654	3.87
414.862	3.9
415.07	3.98
415.278	3.87
415.486	3.98
415.694	3.9
415.902	3.87
416.109	3.89
416.317	3.83
416.525	3.82
416.733	3.93
416.941	3.81
417.149	3.9
417.357	3.9
417.564	3.9
417.772	3.97
417.98	3.88
418.188	3.75
418.395	3.83
418.603	3.68
418.811	3.69
419.019	3.74
419.226	3.79
419.434	3.71
419.642	3.8
419.849	3.78
420.057	3.79
420.265	3.8
420.472	3.75
420.68	3.61
420.887	3.7
421.095	3.74
421.302	3.8
421.51	3.89
421.717	3.9
421.925	3.81
422.132	3.81
422.34	3.78
422.547	3.69
422.755	3.62
422.962	3.5
423.17	3.52
423.377	3.67
423.585	3.76
423.792	3.69
423.999	3.72
424.207	3.6
424.414	3.68
424.621	3.78
424.829	3.72
425.036	3.61
425.243	3.73
425.451	3.75
425.658	3.82
425.865	3.72
426.072	3.7
426.28	3.7
426.487	3.72
426.694	3.65
426.901	3.56
427.108	3.56
427.315	3.66
427.523	3.6
427.73	3.62
427.937	3.65
428.144	3.69
428.351	3.78
428.558	3.76
428.765	3.7
428.972	3.67
429.179	3.51
429.386	3.49
429.593	3.41
429.8	3.39
430.007	3.48
430.214	3.55
430.421	3.57
430.628	3.64
430.835	3.63
431.042	3.7
431.249	3.69
431.456	3.7
431.662	3.72
431.869	3.81
432.076	3.85
432.283	3.86
432.49	3.78
432.697	3.84
432.903	3.83
433.11	3.78
433.317	3.76
433.524	3.72
433.73	3.78
433.937	3.84
434.144	3.87
434.35	3.86
434.557	3.85
434.764	3.79
434.97	3.89
435.177	3.8
435.384	3.86
435.59	3.83
435.797	3.84
436.003	3.87
436.21	3.89
436.416	3.84
436.623	3.93
436.829	3.91
437.036	3.92
437.242	3.95
437.449	3.99
437.655	3.99
437.862	3.98
438.068	4.02
438.275	4.01
438.481	3.98
438.687	4.04
438.894	3.99
439.1	4.08
439.307	4.08
439.513	4.06
439.719	4.11
439.926	4.14
440.132	4
440.338	4.03
440.544	3.99
440.751	3.98
440.957	3.93
441.163	3.95
441.369	3.94
441.575	4.01
441.782	4.02
441.988	3.97
442.194	4.06
442.4	4.14
442.606	4.13
442.812	4.19
443.018	4.23
443.224	4.23
443.431	4.34
443.637	4.21
443.843	4.22
444.049	4.22
444.255	4.23
444.461	4.17
444.667	4.16
444.873	4.11
445.079	4.23
445.284	4.19
445.49	4.15
445.696	4.18
445.902	4.25
446.108	4.27
446.314	4.35
446.52	4.35
446.726	4.37
446.931	4.42
447.137	4.4
447.343	4.38
447.549	4.41
447.755	4.35
447.96	4.31
448.166	4.34
448.372	4.3
448.578	4.27
448.783	4.28
448.989	4.23
449.195	4.25
449.4	4.3
449.606	4.28
449.812	4.36
450.017	4.34
450.223	4.38
450.428	4.44
450.634	4.42
450.84	4.44
451.045	4.43
451.251	4.46
451.456	4.51
451.662	4.49
451.867	4.5
452.073	4.56
452.278	4.53
452.483	4.51
452.689	4.49
452.894	4.49
453.1	4.48
453.305	4.44
453.51	4.45
453.716	4.46
453.921	4.52
454.127	4.51
454.332	4.57
454.537	4.6
454.742	4.63
454.948	4.58
455.153	4.59
455.358	4.66
455.563	4.66
455.769	4.61
455.974	4.58
456.179	4.54
456.384	4.59
456.589	4.64
456.795	4.54
457	4.57
457.205	4.61
457.41	4.68
457.615	4.76
457.82	4.8
458.025	4.77
458.23	4.83
458.435	4.79
458.64	4.8
458.845	4.75
459.05	4.74
459.255	4.73
459.46	4.69
459.665	4.71
459.87	4.78
460.075	4.78
460.28	4.86
460.485	4.91
460.69	4.86
460.895	5.01
461.099	5.02
461.304	5.03
461.509	4.98
461.714	4.95
461.919	4.87
462.123	4.96
462.328	4.87
462.533	4.88
462.738	4.85
462.942	4.89
463.147	4.86
463.352	4.94
463.556	4.97
463.761	4.97
463.966	5
464.17	5.01
464.375	4.98
464.58	5.01
464.784	5
464.989	4.93
465.193	4.96
465.398	5
465.602	5.01
465.807	5.07
466.011	5.14
466.216	5.14
466.42	5.21
466.625	5.18
466.829	5.18
467.034	5.24
467.238	5.27
467.443	5.26
467.647	5.28
467.851	5.26
468.056	5.29
468.26	5.26
468.464	5.21
468.669	5.2
468.873	5.18
