Data from Ofra_PS_T2_1A_9CX05_Reflection_1.txt Node
Date: Wed Jul 21 18:17:39 EDT 2021
User: Adam
Spectrometer: FLMT01687
Trigger mode: 0
Integration Time (sec): 1.100000E0
Scans to average: 2
Electric dark correction enabled: true
Nonlinearity correction enabled: false
Boxcar width: 2
XAxis mode: Wavelengths
Number of Pixels in Spectrum: 3648
>>>>>Begin Spectral Data<<<<<
179.494	578.6
179.716	626.35
179.937	571.22
180.158	506.56
180.38	767.66
180.601	315.61
180.823	99.3
181.044	40.4
181.265	364.89
181.486	107.31
181.708	63.34
181.929	137.24
182.15	-10.21
182.372	146.54
182.593	84.23
182.814	56.07
183.035	59.26
183.257	22.02
183.478	-13.67
183.699	-27.72
183.92	-53.3
184.141	-64.97
184.363	-87.54
184.584	-26.63
184.805	-14.6
185.026	25.66
185.247	54.88
185.468	46.47
185.689	31.73
185.91	26.22
186.132	5.95
186.353	-4.29
186.574	45.49
186.795	33.51
187.016	21.32
187.237	-0.4
187.458	-25.41
187.679	-37.78
187.9	-12.93
188.121	-4.84
188.342	14.83
188.563	38.15
188.784	41.5
189.005	-11.69
189.226	29.1
189.447	9.38
189.667	-214.68
189.888	-387.81
190.109	-1030.19
190.33	-676.29
190.551	-1195.8
190.772	-237.83
190.993	-210.8
191.214	-130.62
191.434	-73.82
191.655	0.95
191.876	-59.9
192.097	-100.92
192.318	-211.12
192.538	-328.52
192.759	-213.04
192.98	-78.35
193.201	-2.39
193.421	44.72
193.642	54.91
193.863	64.38
194.083	46.34
194.304	33.14
194.525	27.37
194.745	28.47
194.966	-4.03
195.187	-37.13
195.407	-91.93
195.628	-144.65
195.848	-130.92
196.069	-109.27
196.29	-35.96
196.51	-37.51
196.731	-47.02
196.951	-67.39
197.172	-90.74
197.392	-123.66
197.613	-152.42
197.833	-157.85
198.054	-127.85
198.274	-70.01
198.495	-91.64
198.715	-45.9
198.936	-65.74
199.156	-65.77
199.377	-162.1
199.597	-138.94
199.817	-134.44
200.038	-55.73
200.258	-82.81
200.479	-15.45
200.699	-2.34
200.919	13.76
201.14	-15.39
201.36	-32.25
201.58	14.47
201.801	32.91
202.021	-5.78
202.241	-19.54
202.461	-16.28
202.682	-137.9
202.902	-212
203.122	-121.26
203.342	-72.87
203.563	-17.41
203.783	13.27
204.003	-0.13
204.223	-0.13
204.443	4.54
204.663	-68.61
204.884	-63.61
205.104	-40.72
205.324	-9.61
205.544	17.61
205.764	46.28
205.984	53.33
206.204	51.63
206.424	31.68
206.644	-17.51
206.864	-25.46
207.084	-95.88
207.304	-99.87
207.525	-258.2
207.745	-108.86
207.964	-16.1
208.184	-50.96
208.404	-78.04
208.624	-79.97
208.844	-85.89
209.064	-401.21
209.284	-435.56
209.504	-249.58
209.724	-95.04
209.944	-62.26
210.164	-23.68
210.384	4.91
210.604	-6.99
210.823	-60.74
211.043	-84.48
211.263	-65.94
211.483	-80.2
211.703	-128.17
211.922	-99.11
212.142	-29.65
212.362	-41.13
212.582	-15.56
212.801	-0.34
213.021	-18.69
213.241	-29.74
213.461	-63.84
213.68	-89.38
213.9	-58.09
214.12	-25.58
214.339	-103.4
214.559	-77.47
214.779	-29.45
214.998	-32.18
215.218	-67.55
215.438	-25.69
215.657	-30.61
215.877	-35.9
216.096	-14.42
216.316	-6.57
216.535	1.54
216.755	-6.24
216.974	-92.92
217.194	-145.63
217.413	-131.6
217.633	-147.12
217.852	-201.78
218.072	-77.28
218.291	-39.67
218.511	-4.44
218.73	-20.49
218.95	-10.88
219.169	-10.44
219.389	-36.77
219.608	-35.95
219.827	-35.42
220.047	-28.71
220.266	-25.92
220.485	-25.74
220.705	-14.54
220.924	-14.02
221.143	17.36
221.363	-9.76
221.582	4.86
221.801	4.09
222.021	7.85
222.24	-98.22
222.459	-8.99
222.678	-6.83
222.897	-98.93
223.117	-111.63
223.336	-66.65
223.555	-48.24
223.774	-11.19
223.993	12.15
224.213	54.5
224.432	34.76
224.651	44.31
224.87	13.14
225.089	29.84
225.308	2.38
225.527	27.29
225.746	17.65
225.965	10.89
226.184	-12.12
226.404	24.31
226.623	-8.5
226.842	-17.14
227.061	2.32
227.28	8.65
227.499	-14.64
227.718	8.35
227.936	3.72
228.155	-1.29
228.374	-6.43
228.593	2.98
228.812	-10.99
229.031	-7.19
229.25	-31.95
229.469	-45.17
229.688	-42.21
229.907	-6.04
230.125	2.67
230.344	14.88
230.563	44.33
230.782	42.99
231.001	-20.49
231.22	-20.86
231.438	1.46
231.657	3.5
231.876	14.3
232.095	52.15
232.313	55.53
232.532	31.85
232.751	-14.7
232.969	-50.47
233.188	-123.91
233.407	-39.56
233.625	-8.02
233.844	10.98
234.063	18.96
234.281	12.62
234.5	2.54
234.719	22.62
234.937	21.36
235.156	37.21
235.374	46.43
235.593	40.11
235.811	10.03
236.03	0.65
236.249	-35.33
236.467	-41.9
236.686	-8.31
236.904	7.93
237.123	-9.89
237.341	-9.14
237.559	-0.72
237.778	-26.21
237.996	-67.65
238.215	-32.35
238.433	-9.65
238.652	-11.37
238.87	-21.15
239.088	8.63
239.307	8.87
239.525	-9.11
239.743	-37.64
239.962	-29.07
240.18	-53.92
240.398	-89.77
240.617	-75.17
240.835	-60.24
241.053	-26.43
241.271	2.59
241.49	24.49
241.708	-15.36
241.926	17.94
242.144	-10.98
242.363	-46.3
242.581	-59.87
242.799	-22.57
243.017	-5.1
243.235	-9.16
243.453	-0.65
243.672	-21.53
243.89	-18.67
244.108	-37.8
244.326	-14.59
244.544	-10.17
244.762	9.2
244.98	13.81
245.198	6.76
245.416	-41.92
245.634	-50.54
245.852	-50.02
246.07	-52.26
246.288	-55.84
246.506	-48.31
246.724	-28.51
246.942	-30.51
247.16	-8.71
247.378	7.25
247.596	33.27
247.814	26.58
248.032	7.97
248.25	-3.93
248.468	-9.36
248.685	-9.91
248.903	13.78
249.121	11.09
249.339	-5.79
249.557	2.11
249.775	-0.42
249.992	-47.64
250.21	-42.38
250.428	-30.7
250.646	-61.73
250.863	-76.25
251.081	-39.74
251.299	-38
251.517	-25.7
251.734	-20.02
251.952	-15.45
252.17	-16.25
252.387	-9.24
252.605	-16.62
252.823	-7.63
253.04	10.42
253.258	18.48
253.475	10.14
253.693	30.1
253.911	32.27
254.128	35.42
254.346	34.72
254.563	39.21
254.781	21.59
254.998	-1.08
255.216	-3.52
255.433	2.04
255.651	18.62
255.868	46.92
256.086	69.54
256.303	48.68
256.521	48.14
256.738	27.22
256.956	3.51
257.173	-13.24
257.39	-38.91
257.608	-73.04
257.825	-7.37
258.043	24.38
258.26	37.67
258.477	78.92
258.695	73.85
258.912	22.04
259.129	32.02
259.346	-1.08
259.564	-38.67
259.781	-58.97
259.998	-4.51
260.216	-9.74
260.433	20.29
260.65	15.61
260.867	35.74
261.084	-7.31
261.302	-40.84
261.519	-54.39
261.736	-62.56
261.953	-68.6
262.17	-21.1
262.387	-27.87
262.604	-55.45
262.822	-52.55
263.039	-56.34
263.256	-98.66
263.473	-62.19
263.69	-30.62
263.907	11.05
264.124	28.54
264.341	30.73
264.558	13.34
264.775	10.41
264.992	-11.27
265.209	-14.1
265.426	1.57
265.643	4.89
265.86	26.15
266.077	31.61
266.294	15.7
266.51	-22.78
266.727	-20.89
266.944	-50.85
267.161	-51.98
267.378	-38.55
267.595	-1.09
267.812	-30.21
268.028	-10.53
268.245	-11.49
268.462	-22.48
268.679	-39.86
268.896	16.86
269.112	-2.97
269.329	-3.62
269.546	-6.26
269.763	-12.69
269.979	-49.83
270.196	-32.8
270.413	-64.49
270.629	-80.52
270.846	-76.98
271.063	-65.29
271.279	-82.36
271.496	-59.53
271.712	-29.49
271.929	-12.61
272.146	-18.48
272.362	8.89
272.579	27.6
272.795	37.18
273.012	20.27
273.228	12.81
273.445	-27.65
273.661	-38.82
273.878	-79.75
274.094	-63.85
274.311	-76.49
274.527	-19.36
274.744	-34.7
274.96	-42.06
275.177	-31.93
275.393	-4.97
275.609	-3.06
275.826	23.12
276.042	31.62
276.259	29.74
276.475	36.85
276.691	37.69
276.908	22.13
277.124	31.92
277.34	20.59
277.557	-6.37
277.773	-26.62
277.989	-33.31
278.205	-42.03
278.422	-19.77
278.638	-17.22
278.854	4.73
279.07	0.11
279.286	-1.82
279.503	-15.94
279.719	-0.32
279.935	-30.27
280.151	-28.73
280.367	-19.77
280.583	-35.37
280.799	-26.44
281.016	-50.87
281.232	-13.05
281.448	-7.62
281.664	6.63
281.88	-25.91
282.096	5.44
282.312	16.17
282.528	45.01
282.744	50.71
282.96	41.31
283.176	15.52
283.392	-5.42
283.608	-14.6
283.824	-13.9
284.04	-11
284.256	12.76
284.471	15.36
284.687	-4.38
284.903	7.31
285.119	29.52
285.335	-0.25
285.551	-3.31
285.767	-6.28
285.982	-6.77
286.198	-33.22
286.414	14.67
286.63	18.08
286.846	41.03
287.061	15.81
287.277	38.04
287.493	7.59
287.709	22.17
287.924	6.11
288.14	38.25
288.356	30.28
288.571	46.92
288.787	26.2
289.003	17.45
289.218	-2.13
289.434	-36.83
289.65	-33.37
289.865	-57.15
290.081	-24.37
290.296	-19.42
290.512	-2.72
290.727	-32.27
290.943	-15.45
291.159	-38.92
291.374	-29.88
291.59	-43.69
291.805	-30.38
292.021	-18.06
292.236	-12.28
292.451	-10.8
292.667	-5.16
292.882	7.58
293.098	-13.41
293.313	-25.64
293.529	-37.89
293.744	-41.44
293.959	-51.24
294.175	-33.52
294.39	2.76
294.605	16.92
294.821	32.99
295.036	38.22
295.251	33.97
295.467	-1.84
295.682	-40.18
295.897	-84.65
296.112	-99.5
296.328	-96.62
296.543	-95.65
296.758	-53.07
296.973	-28.62
297.188	9.68
297.404	-8.24
297.619	-11.07
297.834	-21.57
298.049	-32.89
298.264	-47.27
298.479	-7.89
298.694	-5.32
298.909	8.28
299.125	18.53
299.34	23.19
299.555	-1.83
299.77	13.85
299.985	-32.89
300.2	-73.06
300.415	-93.87
300.63	-59.66
300.845	-71.91
301.06	-71.53
301.275	-39.96
301.49	-18.57
301.704	-24.88
301.919	-43.66
302.134	-48.07
302.349	-55.25
302.564	-96.16
302.779	-130.35
302.994	-107.41
303.209	-48.18
303.423	-6.36
303.638	22.2
303.853	1.08
304.068	2.52
304.283	-3.87
304.497	-14.33
304.712	-23.47
304.927	-10.55
305.142	-23.86
305.356	-9.67
305.571	-13.02
305.786	-41.62
306	-66.79
306.215	-48.24
306.43	-80.96
306.644	-68.53
306.859	7.55
307.074	31.28
307.288	-9.13
307.503	-1.64
307.717	-7.67
307.932	-10.19
308.147	-9.54
308.361	21.78
308.576	6.37
308.79	-30.32
309.005	-30.95
309.219	-16.57
309.434	-44.31
309.648	-22.15
309.863	-1.64
310.077	-19.98
310.292	-28.38
310.506	-12.86
310.72	-7.84
310.935	5.07
311.149	19.45
311.364	39.32
311.578	45.12
311.792	41.75
312.007	31.91
312.221	18.23
312.435	11.58
312.649	4.7
312.864	-43.04
313.078	-28.56
313.292	17.21
313.507	-47.13
313.721	-62.04
313.935	19.15
314.149	6.25
314.363	-15.59
314.578	-1.63
314.792	-2.98
315.006	-9.27
315.22	9.09
315.434	17.42
315.648	23.67
315.862	28.79
316.077	31.18
316.291	11.35
316.505	4.75
316.719	-4.04
316.933	-19.52
317.147	-21.33
317.361	-80.55
317.575	-104.88
317.789	-157.41
318.003	-255.83
318.217	-205.66
318.431	-97.67
318.645	-15.4
318.859	1.48
319.073	32.88
319.287	30.25
319.5	9.45
319.714	-42.36
319.928	-56.63
320.142	-80.31
320.356	-43.62
320.57	-2.97
320.784	-8.21
320.997	-12.06
321.211	-8.04
321.425	-58.27
321.639	-89.69
321.853	-43.75
322.066	-15.47
322.28	-16.96
322.494	-15.27
322.707	-4.49
322.921	-15.61
323.135	-33.57
323.349	-15.7
323.562	-19.77
323.776	-17.15
323.989	-12.95
324.203	-0.88
324.417	-6.38
324.63	-17.01
324.844	-21.5
325.057	-16.84
325.271	-10.94
325.485	-6.65
325.698	10.05
325.912	18.18
326.125	-2.62
326.339	-9.3
326.552	-27.88
326.766	-23.14
326.979	-13.05
327.193	20.62
327.406	14.82
327.619	13.19
327.833	16.49
328.046	-3.62
328.26	-25.18
328.473	-1.98
328.686	-22.52
328.9	-33.99
329.113	-12.49
329.326	-40.34
329.54	-42.69
329.753	-26.89
329.966	-34.94
330.179	-31.66
330.393	-9.44
330.606	-8.9
330.819	3.26
331.032	21.14
331.246	26.93
331.459	53.76
331.672	53.57
331.885	37.7
332.098	14.08
332.311	-10.92
332.525	-67.65
332.738	-35.64
332.951	3.18
333.164	16.6
333.377	36.46
333.59	61.7
333.803	49.74
334.016	36.47
334.229	38.03
334.442	40.14
334.655	29.21
334.868	30.12
335.081	32.45
335.294	31.16
335.507	21.81
335.72	6.37
335.933	-4
336.146	-14.35
336.359	-29.1
336.572	-57.64
336.785	-73.99
336.997	-77.8
337.21	-48.9
337.423	-26.22
337.636	-12.21
337.849	1.43
338.062	3.51
338.274	-0.77
338.487	-30.3
338.7	-25.86
338.913	-59.65
339.125	-79.24
339.338	-147.22
339.551	-107.85
339.763	-82.2
339.976	-39.35
340.189	-14.46
340.402	18.15
340.614	17.21
340.827	12.08
341.039	-13.65
341.252	-19.38
341.465	-16.85
341.677	-17.84
341.89	-56.94
342.102	-17.1
342.315	-35.05
342.527	-59.82
342.74	-58.08
342.952	-42.76
343.165	-45.87
343.377	4.59
343.59	-7.85
343.802	1.18
344.015	18.05
344.227	28.28
344.44	7
344.652	17.42
344.864	8.21
345.077	25.98
345.289	24.21
345.502	27.47
345.714	26.43
345.926	38.12
346.139	24.63
346.351	27.62
346.563	22.83
346.775	16.36
346.988	-2.13
347.2	-11.29
347.412	-58.88
347.624	-59.43
347.837	-53.06
348.049	-21.73
348.261	0.73
348.473	20.98
348.685	11.29
348.897	-10.9
349.11	-37.25
349.322	-63.97
349.534	-59.09
349.746	-64.03
349.958	-39.68
350.17	-27.06
350.382	-4.92
350.594	-2.85
350.806	17.86
351.018	33.45
351.23	28.97
351.442	-3.26
351.654	-18.95
351.866	-41.81
352.078	-43.47
352.29	-16.32
352.502	3.67
352.714	17.75
352.926	16.69
353.138	3.55
353.35	-8.94
353.561	-7.06
353.773	-27.48
353.985	-16.47
354.197	-18.3
354.409	-17.69
354.621	-21.11
354.832	-10.4
355.044	-17.37
355.256	-15.37
355.468	-9.26
355.679	-12.57
355.891	-14.1
356.103	-32.21
356.314	-23.22
356.526	-18.56
356.738	-27.17
356.949	-35.89
357.161	-12.69
357.373	-14.89
357.584	-20.42
357.796	-6.55
358.008	1.67
358.219	13.06
358.431	11.13
358.642	9.93
358.854	11.78
359.065	-6.72
359.277	-37.23
359.488	-42.14
359.7	-62.33
359.911	-77.34
360.123	-43.01
360.334	-33.91
360.546	-44.85
360.757	-38.07
360.969	-30.49
361.18	-19.21
361.391	-13.77
361.603	-14.99
361.814	1.76
362.025	-1.27
362.237	-9.62
362.448	11.73
362.659	33
362.871	21.63
363.082	32.01
363.293	23.82
363.504	3.13
363.716	-21.86
363.927	-34.14
364.138	-62.91
364.349	-53.23
364.56	-43.74
364.772	-35.07
364.983	-1.48
365.194	4.64
365.405	1.86
365.616	18.75
365.827	21.69
366.038	-9.46
366.25	-20.08
366.461	-50.94
366.672	-38.83
366.883	-20.13
367.094	-10.68
367.305	-7.79
367.516	4.24
367.727	-37.15
367.938	-57.19
368.149	-56.5
368.36	-32.49
368.571	-26.04
368.781	-20.06
368.992	-28.49
369.203	-43.55
369.414	-60.53
369.625	-61.4
369.836	-56.15
370.047	-70.4
370.258	-43.8
370.468	-50.53
370.679	-64.89
370.89	-55.45
371.101	-34.45
371.312	-42.23
371.522	-40.52
371.733	-24.73
371.944	-16.93
372.155	-11.53
372.365	-13.25
372.576	-20.43
372.787	-31.51
372.997	-52.95
373.208	-52.69
373.419	-32.89
373.629	-52.06
373.84	-51.86
374.05	-56.54
374.261	-47.56
374.472	-64.75
374.682	-8.66
374.893	-1.66
375.103	27.66
375.314	13.9
375.524	8.85
375.735	2.97
375.945	8.55
376.156	-15.29
376.366	-1.54
376.577	5.78
376.787	-3.19
376.997	-2.7
377.208	1.8
377.418	-13.14
377.629	-3.48
377.839	-5.29
378.049	-7.34
378.26	5.65
378.47	11.67
378.68	2.34
378.89	5.82
379.101	4.92
379.311	-26.94
379.521	-52.38
379.732	-53.72
379.942	-58.03
380.152	-72.96
380.362	-33.86
380.572	-24.83
380.783	-15.9
380.993	-4.03
381.203	10.84
381.413	8.46
381.623	17.52
381.833	19.51
382.043	11.23
382.253	-1.4
382.463	-0.41
382.674	-9.08
382.884	-27.61
383.094	-32.13
383.304	-20.04
383.514	-5.9
383.724	5.36
383.934	2.26
384.144	-1
384.353	-14.78
384.563	-27.68
384.773	-29.32
384.983	-36.85
385.193	-15.57
385.403	-3.72
385.613	-5.95
385.823	-14.25
386.033	-6.84
386.242	-15.95
386.452	-20.93
386.662	-17.85
386.872	-6.1
387.082	-9.82
387.291	-14.22
387.501	-17.27
387.711	-18.16
387.921	-25.97
388.13	-20.22
388.34	-10.94
388.55	-15.13
388.759	-14.38
388.969	-5.59
389.179	-7.25
389.388	-15
389.598	-4.85
389.807	-8.98
390.017	-16.5
390.227	-12.81
390.436	-10.21
390.646	-12.31
390.855	-6.66
391.065	-4.96
391.274	-5.76
391.484	-5.84
391.693	-3.83
391.903	-4.08
392.112	1.26
392.322	2.16
392.531	4.86
392.74	5.36
392.95	1
393.159	-2.07
393.369	-3.08
393.578	-4.46
393.787	-5.37
393.997	-3.17
394.206	-4.44
394.415	-2.93
394.625	-1.78
394.834	-4.22
395.043	-3.78
395.252	-1.31
395.462	-0.76
395.671	-0.39
395.88	1.85
396.089	2.5
396.298	0.59
396.508	0.64
396.717	-0.08
396.926	-0.09
397.135	-0.76
397.344	-0.19
397.553	0.11
397.762	1.19
397.971	1.17
398.181	1.63
398.39	1.74
398.599	1.39
398.808	0.97
399.017	1.8
399.226	2.53
399.435	3.26
399.644	3.44
399.853	2.48
400.062	1.54
400.27	0.99
400.479	0.53
400.688	-0.18
400.897	0.14
401.106	0.22
401.315	0.02
401.524	-0.12
401.733	0.61
401.941	1.07
402.15	1.44
402.359	1.36
402.568	1.83
402.777	1.87
402.985	1.68
403.194	1.5
403.403	1.91
403.612	1.53
403.82	1.21
404.029	1.42
404.238	1.27
404.446	1.36
404.655	1.24
404.864	1.31
405.072	1.13
405.281	1.39
405.489	1.08
405.698	1.14
405.906	1.1
406.115	1.17
406.324	1.08
406.532	1.22
406.741	1.47
406.949	1.47
407.158	1.4
407.366	1.36
407.574	1.25
407.783	1.21
407.991	1.06
408.2	1.17
408.408	1.22
408.617	1.11
408.825	0.96
409.033	1.14
409.242	1.09
409.45	1.08
409.658	1.07
409.867	1.11
410.075	0.98
410.283	0.88
410.491	0.87
410.7	0.83
410.908	0.76
411.116	1.03
411.324	1.08
411.533	1.06
411.741	1.25
411.949	1.35
412.157	1.11
412.365	1.14
412.573	1.17
412.781	1.24
412.99	1.04
413.198	1.26
413.406	1.27
413.614	1.28
413.822	1.15
414.03	1.25
414.238	0.97
414.446	0.97
414.654	0.74
414.862	0.85
415.07	0.98
415.278	1.26
415.486	1.14
415.694	1.34
415.902	1.22
416.109	0.99
416.317	0.97
416.525	0.93
416.733	0.89
416.941	1.01
417.149	1.02
417.357	0.97
417.564	1.12
417.772	1.26
417.98	1.16
418.188	1.28
418.395	1.3
418.603	1.42
418.811	1.07
419.019	1.1
419.226	1.29
419.434	1.42
419.642	1.27
419.849	1.4
420.057	1.37
420.265	1.22
420.472	0.98
420.68	1.04
420.887	1.04
421.095	1.07
421.302	0.96
421.51	1.11
421.717	1.1
421.925	1.18
422.132	1.07
422.34	1.01
422.547	0.99
422.755	0.86
422.962	0.88
423.17	0.89
423.377	1.01
423.585	0.97
423.792	0.93
423.999	0.75
424.207	0.84
424.414	0.9
424.621	0.88
424.829	0.99
425.036	1.06
425.243	1.11
425.451	0.89
425.658	0.77
425.865	0.81
426.072	0.84
426.28	1.01
426.487	1.01
426.694	1.06
426.901	1
427.108	0.96
427.315	0.74
427.523	1.09
427.73	1.15
427.937	1.11
428.144	0.99
428.351	1
428.558	0.89
428.765	0.79
428.972	0.77
429.179	0.99
429.386	1.19
429.593	1.08
429.8	1.05
430.007	1.12
430.214	1.15
430.421	0.94
430.628	0.77
430.835	0.7
431.042	0.72
431.249	0.7
431.456	0.66
431.662	0.95
431.869	1.18
432.076	1.2
432.283	1.24
432.49	1.23
432.697	1.14
432.903	0.96
433.11	0.94
433.317	0.93
433.524	1.15
433.73	1.06
433.937	1.23
434.144	1.14
434.35	1.1
434.557	0.83
434.764	0.85
434.97	0.76
435.177	0.9
435.384	0.85
435.59	1.02
435.797	1.26
436.003	1.28
436.21	1.2
436.416	1.31
436.623	1.23
436.829	1.28
437.036	1.36
437.242	1.45
437.449	1.32
437.655	1.35
437.862	1.17
438.068	1.03
438.275	1.07
438.481	1.27
438.687	1.3
438.894	1.32
439.1	1.45
439.307	1.55
439.513	1.42
439.719	1.34
439.926	1.38
440.132	1.29
440.338	1.05
440.544	1.15
440.751	1.21
440.957	1.3
441.163	1.28
441.369	1.44
441.575	1.27
441.782	1.22
441.988	1.09
442.194	1.15
442.4	1.17
442.606	1.53
442.812	1.57
443.018	1.65
443.224	1.64
443.431	1.68
443.637	1.4
443.843	1.41
444.049	1.37
444.255	1.34
444.461	1.39
444.667	1.4
444.873	1.49
445.079	1.56
445.284	1.66
445.49	1.36
445.696	1.19
445.902	1.05
446.108	0.97
446.314	0.87
446.52	1
446.726	1.33
446.931	1.28
447.137	1.37
447.343	1.38
447.549	1.31
447.755	1.1
447.96	1.16
448.166	1.13
448.372	1.03
448.578	1.14
448.783	1.16
448.989	1.31
449.195	1.46
449.4	1.59
449.606	1.55
449.812	1.47
450.017	1.46
450.223	1.26
450.428	1.19
450.634	1.26
450.84	1.48
451.045	1.35
451.251	1.36
451.456	1.6
451.662	1.7
451.867	1.63
452.073	1.68
452.278	1.79
452.483	1.78
452.689	1.64
452.894	1.74
453.1	1.73
453.305	1.62
453.51	1.52
453.716	1.51
453.921	1.45
454.127	1.45
454.332	1.47
454.537	1.4
454.742	1.43
454.948	1.43
455.153	1.4
455.358	1.48
455.563	1.63
455.769	1.66
455.974	1.68
456.179	1.6
456.384	1.56
456.589	1.48
456.795	1.38
457	1.29
457.205	1.47
457.41	1.43
457.615	1.39
457.82	1.47
458.025	1.48
458.23	1.42
458.435	1.47
458.64	1.45
458.845	1.56
459.05	1.62
459.255	1.65
459.46	1.68
459.665	1.7
459.87	1.66
460.075	1.63
460.28	1.6
