Data from Ofra_PS_T2_1A_0GT14_Reflection_2.txt Node
Date: Wed Jul 21 17:44:46 EDT 2021
User: Adam
Spectrometer: FLMT01687
Trigger mode: 0
Integration Time (sec): 1.100000E0
Scans to average: 2
Electric dark correction enabled: true
Nonlinearity correction enabled: false
Boxcar width: 2
XAxis mode: Wavelengths
Number of Pixels in Spectrum: 3648
>>>>>Begin Spectral Data<<<<<
179.494	535.6
179.716	614.59
179.937	598.08
180.158	563.12
180.38	948.44
180.601	420.72
180.823	152.56
181.044	55.21
181.265	339.34
181.486	38.47
181.708	54.62
181.929	231.63
182.15	182.39
182.372	194.76
182.593	11.67
182.814	20.22
183.035	59.57
183.257	27.07
183.478	-52.23
183.699	21.37
183.92	1.38
184.141	12.87
184.363	-36.97
184.584	15.41
184.805	18.53
185.026	38.99
185.247	50.44
185.468	29.32
185.689	34.68
185.91	36.8
186.132	42.23
186.353	36.75
186.574	107.32
186.795	80.99
187.016	37.76
187.237	3.41
187.458	-54.48
187.679	-50.71
187.9	-25.21
188.121	-19.97
188.342	-3.18
188.563	44.41
188.784	51.22
189.005	60.36
189.226	112.52
189.447	133.31
189.667	183.74
189.888	-20.44
190.109	-778.57
190.33	-522.26
190.551	-1329.65
190.772	-264.29
190.993	-241.17
191.214	-186.57
191.434	-131.63
191.655	-51.84
191.876	-161.37
192.097	-186.63
192.318	-277.77
192.538	-385.19
192.759	-242.62
192.98	-109.93
193.201	-41.92
193.421	-5.65
193.642	14.54
193.863	44.04
194.083	19.54
194.304	4.89
194.525	-4.64
194.745	-14.25
194.966	-66.38
195.187	-68.78
195.407	-118.2
195.628	-175.85
195.848	-170.3
196.069	-179.33
196.29	-92.02
196.51	-58.34
196.731	-45.94
196.951	-69
197.172	-54.95
197.392	-113.22
197.613	-128.02
197.833	-154.71
198.054	-133.32
198.274	-83.04
198.495	-99.8
198.715	-67.29
198.936	-81.85
199.156	-62.14
199.377	-141.4
199.597	-108.88
199.817	-101.78
200.038	-35.03
200.258	-78.21
200.479	-35.72
200.699	-55.04
200.919	8.57
201.14	-30.77
201.36	-22.73
201.58	38.5
201.801	56.95
202.021	10.28
202.241	12.07
202.461	-7.87
202.682	-143.73
202.902	-190.63
203.122	-116.37
203.342	-101.55
203.563	-25.57
203.783	13.8
204.003	-21.42
204.223	-28.73
204.443	40.58
204.663	-9.4
204.884	10.86
205.104	43.19
205.324	83.74
205.544	80.52
205.764	86.58
205.984	69.92
206.204	54.02
206.424	29.47
206.644	-33.41
206.864	-14.48
207.084	-79.15
207.304	-20.45
207.525	-102.97
207.745	-20.73
207.964	-14.4
208.184	-68.56
208.404	-111.72
208.624	-106.51
208.844	-114.72
209.064	-390.44
209.284	-370.6
209.504	-178.33
209.724	-23.35
209.944	-3.08
210.164	9.96
210.384	36.91
210.604	28.5
210.823	-27.4
211.043	-59.76
211.263	-31.81
211.483	-41.92
211.703	-93.63
211.922	-59.07
212.142	13.3
212.362	39.85
212.582	10.18
212.801	17.12
213.021	-18.57
213.241	-37.59
213.461	-97.3
213.68	-116.02
213.9	-87.19
214.12	-49.61
214.339	-116.83
214.559	-94.22
214.779	-33.99
214.998	-39.68
215.218	-91.73
215.438	-53.64
215.657	-37.38
215.877	-35.46
216.096	-8.34
216.316	4.57
216.535	-3.24
216.755	-14.75
216.974	-117.05
217.194	-178.09
217.413	-173.9
217.633	-137.11
217.852	-254.41
218.072	-98.26
218.291	-47.95
218.511	1.9
218.73	-35.45
218.95	-20.81
219.169	-33.48
219.389	-68.85
219.608	-58.32
219.827	-43.84
220.047	-25.31
220.266	-8.52
220.485	2.6
220.705	12.52
220.924	-14.1
221.143	19.95
221.363	4.7
221.582	12.96
221.801	8.6
222.021	25.73
222.24	-50.21
222.459	3.7
222.678	-57.98
222.897	-74.45
223.117	-124.11
223.336	-88.21
223.555	-50.18
223.774	10.39
223.993	-1.52
224.213	65.49
224.432	40.39
224.651	66.07
224.87	25
225.089	29.26
225.308	19.66
225.527	46.7
225.746	28.46
225.965	29.35
226.184	21.14
226.404	29.83
226.623	-17.76
226.842	-14.17
227.061	19.86
227.28	24.75
227.499	1.59
227.718	23.64
227.936	11.93
228.155	11.71
228.374	-23.56
228.593	0.87
228.812	-0.62
229.031	1.5
229.25	-52.15
229.469	-35.03
229.688	-30.61
229.907	2.78
230.125	10.65
230.344	32.02
230.563	58.02
230.782	63.07
231.001	-8.58
231.22	-19.32
231.438	-10.42
231.657	-15.58
231.876	-42.46
232.095	7.3
232.313	10.62
232.532	-25.19
232.751	-61.62
232.969	-45.83
233.188	-96.58
233.407	-24.71
233.625	-15.36
233.844	-54.36
234.063	-69.78
234.281	-42.16
234.5	-63.72
234.719	-32.88
234.937	15.41
235.156	33.04
235.374	31.74
235.593	30.18
235.811	14.03
236.03	-4.72
236.249	-56.78
236.467	-29.84
236.686	-4.34
236.904	-0.68
237.123	-15.04
237.341	-10.96
237.559	-3.05
237.778	-15.18
237.996	-20.32
238.215	7.1
238.433	23.58
238.652	-2.89
238.87	-22.79
239.088	-9.58
239.307	-2.39
239.525	-7.36
239.743	-29.49
239.962	-3.58
240.18	-41.11
240.398	-95.41
240.617	-109.85
240.835	-90.42
241.053	-45.71
241.271	19.35
241.49	30.06
241.708	35.49
241.926	63.22
242.144	11.51
242.363	-43.83
242.581	-63.46
242.799	-28.09
243.017	-7.39
243.235	-12.01
243.453	15.06
243.672	19.55
243.89	9.94
244.108	6.68
244.326	36.82
244.544	46.54
244.762	37.87
244.98	54.78
245.198	42.8
245.416	-8.28
245.634	-30.4
245.852	-24.92
246.07	-25.27
246.288	-34.54
246.506	-49.06
246.724	-34.7
246.942	-57.45
247.16	-30.89
247.378	-16.64
247.596	8.58
247.814	10.4
248.032	-8.92
248.25	-2.67
248.468	1.23
248.685	6.93
248.903	28.71
249.121	37.2
249.339	-1.71
249.557	-14.52
249.775	-9.77
249.992	-88.36
250.21	-66.94
250.428	-35.54
250.646	-74.55
250.863	-105.54
251.081	-62.02
251.299	-76.79
251.517	-64.34
251.734	-35.92
251.952	-31.54
252.17	-29.49
252.387	-17.92
252.605	-38.3
252.823	-34.93
253.04	-17.05
253.258	5.16
253.475	-7.08
253.693	24.95
253.911	42.68
254.128	47.12
254.346	47.54
254.563	22.8
254.781	-2.05
254.998	-25.9
255.216	-37.95
255.433	-39.57
255.651	22.97
255.868	55.11
256.086	79.36
256.303	70.21
256.521	49.51
256.738	18.39
256.956	-13.75
257.173	-59.92
257.39	-85.15
257.608	-101.85
257.825	-62.74
258.043	-23.96
258.26	10.56
258.477	50.44
258.695	35.53
258.912	-11.72
259.129	-5.35
259.346	-53.38
259.564	-91.01
259.781	-88.51
259.998	-18.96
260.216	0.04
260.433	53.76
260.65	61.26
260.867	64.28
261.084	36.15
261.302	7.43
261.519	-11.61
261.736	-54.9
261.953	-78.44
262.17	-34.84
262.387	-69.35
262.604	-120.99
262.822	-104.81
263.039	-72.7
263.256	-121.77
263.473	-64.54
263.69	-30.71
263.907	8.83
264.124	20.65
264.341	20.15
264.558	15.25
264.775	29.18
264.992	2.47
265.209	5.27
265.426	26.89
265.643	26.08
265.86	31.65
266.077	49.47
266.294	15.12
266.51	-33.32
266.727	-68.13
266.944	-60.01
267.161	-78.12
267.378	-56.72
267.595	-2.77
267.812	-8.6
268.028	-32.24
268.245	6.77
268.462	-18.87
268.679	-48.5
268.896	5.21
269.112	15.98
269.329	7.14
269.546	4.21
269.763	2.83
269.979	-1.85
270.196	-12.59
270.413	-40.15
270.629	-55.28
270.846	-52.05
271.063	-62.92
271.279	-64.65
271.496	-51.5
271.712	8.2
271.929	16.97
272.146	12.29
272.362	5.23
272.579	28.49
272.795	8.17
273.012	14.98
273.228	18.15
273.445	5.69
273.661	-38.07
273.878	-80.14
274.094	-73.09
274.311	-111.39
274.527	-20.79
274.744	1.74
274.96	5.21
275.177	5.48
275.393	32.05
275.609	8.42
275.826	23.21
276.042	34.98
276.259	21.62
276.475	26.24
276.691	28.54
276.908	-0.29
277.124	9.77
277.34	19.88
277.557	-4.35
277.773	-13.09
277.989	-20.73
278.205	-34.7
278.422	-19.84
278.638	-1.28
278.854	23.84
279.07	42.17
279.286	32.74
279.503	3.94
279.719	-16.11
279.935	-40.79
280.151	-56
280.367	-26.76
280.583	-45.71
280.799	-41.55
281.016	-84.39
281.232	-44.14
281.448	-52.58
281.664	-12.52
281.88	-42.57
282.096	-16.75
282.312	-1.32
282.528	13.85
282.744	11.91
282.96	34.36
283.176	33.72
283.392	12.47
283.608	0.46
283.824	-10.22
284.04	-12.24
284.256	-17.31
284.471	-2.3
284.687	-18.98
284.903	8.75
285.119	33.15
285.335	18.14
285.551	25.29
285.767	27.48
285.982	0.84
286.198	-47.44
286.414	8.52
286.63	-5.8
286.846	28.63
287.061	5.31
287.277	45.63
287.493	9.41
287.709	33.99
287.924	11.05
288.14	43.59
288.356	31.26
288.571	63.82
288.787	28.92
289.003	23.93
289.218	8.46
289.434	-34.1
289.65	-48.64
289.865	-35.22
290.081	-10.5
290.296	7.12
290.512	26.83
290.727	-10.11
290.943	-27.28
291.159	-48.7
291.374	-56.79
291.59	-82.62
291.805	-53.59
292.021	-38.16
292.236	-30.06
292.451	-11.64
292.667	-2.39
292.882	5.76
293.098	-1.47
293.313	-28.99
293.529	-71.35
293.744	-88.29
293.959	-89.08
294.175	-68.17
294.39	-14.31
294.605	7.5
294.821	39.92
295.036	46.08
295.251	42.27
295.467	7.28
295.682	-11.85
295.897	-76.2
296.112	-102.46
296.328	-98.58
296.543	-109.57
296.758	-65.82
296.973	-15.02
297.188	25.21
297.404	12.37
297.619	-16.06
297.834	-44.4
298.049	-60.34
298.264	-81.84
298.479	-17.58
298.694	13.58
298.909	38.97
299.125	38.57
299.34	51.85
299.555	21.06
299.77	29.84
299.985	-27.44
300.2	-79.27
300.415	-108.27
300.63	-74.12
300.845	-85.76
301.06	-81.54
301.275	-45.96
301.49	-10.9
301.704	-28.51
301.919	-40.82
302.134	-61.74
302.349	-53.55
302.564	-141.92
302.779	-179.65
302.994	-161.68
303.209	-73.09
303.423	-29.63
303.638	43.96
303.853	9.09
304.068	3.92
304.283	3
304.497	-19.78
304.712	-35.08
304.927	-12.5
305.142	-16.63
305.356	-5.09
305.571	-5.96
305.786	-23.91
306	-41.27
306.215	-37.02
306.43	-77.3
306.644	-92.65
306.859	-37.41
307.074	-20.96
307.288	-50
307.503	-58.94
307.717	-51.04
307.932	-50.53
308.147	-54.47
308.361	-11.89
308.576	-14.17
308.79	-39.16
309.005	-37.17
309.219	-22.58
309.434	-41.79
309.648	-40.99
309.863	-19.8
310.077	-23.4
310.292	-32.78
310.506	-31.08
310.72	-7.46
310.935	-4.95
311.149	-9.44
311.364	18.78
311.578	25.42
311.792	9.09
312.007	22.89
312.221	8.12
312.435	4.32
312.649	-9.08
312.864	-26.34
313.078	-24.81
313.292	40.74
313.507	-14.11
313.721	0.47
313.935	35.69
314.149	18.82
314.363	0.34
314.578	9.59
314.792	14.89
315.006	0.89
315.22	21.68
315.434	28.02
315.648	37.15
315.862	32.79
316.077	34.43
316.291	21.68
316.505	26.7
316.719	-21.07
316.933	-59.01
317.147	-55.98
317.361	-120.22
317.575	-140.82
317.789	-160.33
318.003	-224.65
318.217	-162.38
318.431	-33.24
318.645	18.26
318.859	19.97
319.073	52.98
319.287	23.71
319.5	-16.76
319.714	-64.67
319.928	-82.26
320.142	-105.68
320.356	-32.78
320.57	16.16
320.784	12.8
320.997	7.89
321.211	-14.25
321.425	-75.97
321.639	-112.92
321.853	-50.73
322.066	-34.78
322.28	-35.73
322.494	-12.09
322.707	7.1
322.921	-6.08
323.135	-3.59
323.349	16.98
323.562	-26.86
323.776	-47.5
323.989	-50.5
324.203	-72.09
324.417	-82.78
324.63	-75.38
324.844	-74.02
325.057	-75.12
325.271	-50.39
325.485	-28.21
325.698	1.99
325.912	25.68
326.125	1.46
326.339	16.68
326.552	14.53
326.766	0.23
326.979	7.97
327.193	51.57
327.406	21.49
327.619	11.38
327.833	21.37
328.046	-11.71
328.26	-53.34
328.473	-26.94
328.686	-53.45
328.9	-45.92
329.113	-12.37
329.326	-28.77
329.54	-7.06
329.753	-6.29
329.966	-37.09
330.179	-46.74
330.393	-20.84
330.606	-30.61
330.819	-6.17
331.032	17.46
331.246	26.42
331.459	54.97
331.672	50.94
331.885	39.96
332.098	17.06
332.311	2.31
332.525	-65.23
332.738	-32.46
332.951	5.92
333.164	28.29
333.377	28.77
333.59	48.93
333.803	32.93
334.016	18.96
334.229	2.85
334.442	15.38
334.655	37.03
334.868	41.54
335.081	33.51
335.294	31.63
335.507	9.41
335.72	-1.04
335.933	-8.85
336.146	-13.09
336.359	-12.98
336.572	-22.75
336.785	-58.16
336.997	-42.09
337.21	-18.72
337.423	-25.42
337.636	-18.61
337.849	16.9
338.062	0.98
338.274	3.18
338.487	1.53
338.7	-2.18
338.913	-66.68
339.125	-83.64
339.338	-141.25
339.551	-106.27
339.763	-54.85
339.976	-10.63
340.189	-0.97
340.402	12.37
340.614	3.66
340.827	-6.37
341.039	-15.04
341.252	1.72
341.465	19.16
341.677	-0.83
341.89	-50.31
342.102	-40.45
342.315	-67.3
342.527	-132.38
342.74	-107.39
342.952	-63.12
343.165	-60.82
343.377	-31.15
343.59	-19.67
343.802	-3.68
344.015	7.6
344.227	15.04
344.44	6.78
344.652	10.27
344.864	-0.89
345.077	21.97
345.289	27.82
345.502	35.01
345.714	32.01
345.926	40.06
346.139	22.74
346.351	18.29
346.563	26.7
346.775	21.31
346.988	3.07
347.2	-4.4
347.412	-36.93
347.624	-67.5
347.837	-77.5
348.049	-45.6
348.261	-4.27
348.473	8.6
348.685	14.49
348.897	11.38
349.11	-10.08
349.322	-34.09
349.534	-22
349.746	-35.88
349.958	-25.09
350.17	-7.04
350.382	-8.45
350.594	-26.68
350.806	-17.2
351.018	-22.72
351.23	-45.56
351.442	-88.38
351.654	-84.71
351.866	-64.91
352.078	-44.04
352.29	-6.43
352.502	20.58
352.714	36.78
352.926	26.16
353.138	25
353.35	2.7
353.561	-2.75
353.773	-31.52
353.985	-10.37
354.197	-16.58
354.409	-14.25
354.621	-23.91
354.832	-11.81
355.044	-37.25
355.256	-42.76
355.468	-19.62
355.679	-17.05
355.891	-11.7
356.103	-16.83
356.314	-10.72
356.526	-19.91
356.738	-15.14
356.949	-26.97
357.161	0.56
357.373	-5.93
357.584	-23.46
357.796	-20.57
358.008	-18.58
358.219	-12.42
358.431	-3.21
358.642	7.55
358.854	9.04
359.065	2.72
359.277	-31.85
359.488	-52.77
359.7	-79.98
359.911	-94
360.123	-66.42
360.334	-69.29
360.546	-80.18
360.757	-73.32
360.969	-55.1
361.18	-45.86
361.391	-11.54
361.603	-3.38
361.814	19.12
362.025	7.58
362.237	-0.65
362.448	1.23
362.659	10.37
362.871	6.75
363.082	16.56
363.293	14.44
363.504	-5.34
363.716	-31.67
363.927	-31.73
364.138	-61.35
364.349	-74.46
364.56	-52.86
364.772	-39.3
364.983	-19.7
365.194	-11.82
365.405	1.59
365.616	13.5
365.827	17.22
366.038	-14.85
366.25	-24.54
366.461	-65.52
366.672	-39.07
366.883	-16.15
367.094	-8.27
367.305	-11.23
367.516	-1.14
367.727	-32.55
367.938	-50.15
368.149	-43.15
368.36	-21
368.571	-11.15
368.781	-13.32
368.992	-33.94
369.203	-46.35
369.414	-70.77
369.625	-72.41
369.836	-74.27
370.047	-96.85
370.258	-86.94
370.468	-82.46
370.679	-102.39
370.89	-94.58
371.101	-56.89
371.312	-60.68
371.522	-52.57
371.733	-42.19
371.944	-36.54
372.155	-24.66
372.365	-33.24
372.576	-37.71
372.787	-47.5
372.997	-71.42
373.208	-77.11
373.419	-32.95
373.629	-53.03
373.84	-37.81
374.05	-29.99
374.261	-21.44
374.472	-52.69
374.682	-6.84
374.893	-2.01
375.103	35.74
375.314	28.28
375.524	32.42
375.735	32.74
375.945	45.03
376.156	24.67
376.366	27.29
376.577	23.2
376.787	4.43
376.997	-5.01
377.208	-10.72
377.418	-21.12
377.629	-13.7
377.839	-9.3
378.049	-12.42
378.26	-3.49
378.47	13.49
378.68	9.35
378.89	4.24
379.101	4.97
379.311	-24.08
379.521	-59.89
379.732	-49.84
379.942	-43.18
380.152	-62.23
380.362	-18.69
380.572	-21.1
380.783	-12.66
380.993	8.1
381.203	23.85
381.413	30.32
381.623	42.22
381.833	29.65
382.043	13.07
382.253	4.92
382.463	-6.08
382.674	-20.67
382.884	-38.1
383.094	-38.69
383.304	-32.07
383.514	-25.7
383.724	-10.53
383.934	-10.97
384.144	-17.97
384.353	-23.29
384.563	-23.3
384.773	-18.93
384.983	-20.91
385.193	-3.59
385.403	-2.45
385.613	-2.72
385.823	-16.57
386.033	-1.65
386.242	-8.65
386.452	-5.11
386.662	-19.34
386.872	-0.33
387.082	-12.86
387.291	-25.4
387.501	-29.14
387.711	-10.59
387.921	-25.15
388.13	-21.44
388.34	-2.42
388.55	-6.17
388.759	-12.5
388.969	-3.74
389.179	-3.06
389.388	-8.79
389.598	-1.71
389.807	-4.52
390.017	-12.11
390.227	-9.43
390.436	-10.89
390.646	-12.25
390.855	-7.64
391.065	-3.56
391.274	-4.27
391.484	-2.29
391.693	1.49
391.903	3.5
392.112	8.1
392.322	8.19
392.531	11.02
392.74	10.84
392.95	5.95
393.159	3.52
393.369	4.61
393.578	4.17
393.787	2.92
393.997	5.56
394.206	4
394.415	5.03
394.625	3.82
394.834	1.73
395.043	3.72
395.252	6.77
395.462	8.28
395.671	9.05
395.88	10.65
396.089	10.47
396.298	8.76
396.508	7.48
396.717	7.42
396.926	7.84
397.135	7.48
397.344	7.23
397.553	7.18
397.762	8.26
397.971	7.74
398.181	7.75
398.39	7.46
398.599	7.97
398.808	7.61
399.017	9.55
399.226	10.66
399.435	11.9
399.644	12.07
399.853	11.77
400.062	10.88
400.27	10.44
400.479	9.71
400.688	9.18
400.897	9.49
401.106	9.26
401.315	8.72
401.524	8.99
401.733	9.54
401.941	9.85
402.15	10.01
402.359	10.4
402.568	10.73
402.777	10.79
402.985	10.66
403.194	10.67
403.403	10.73
403.612	10.28
403.82	9.96
404.029	9.89
404.238	9.75
404.446	9.75
404.655	9.62
404.864	9.59
405.072	9.34
405.281	9.76
405.489	9.43
405.698	9.56
405.906	9.57
406.115	9.71
406.324	9.38
406.532	9.67
406.741	9.91
406.949	9.92
407.158	9.94
407.366	10.06
407.574	9.98
407.783	9.85
407.991	9.75
408.2	9.72
408.408	9.59
408.617	9.52
408.825	9.19
409.033	9.29
409.242	9.42
409.45	9.54
409.658	9.39
409.867	9.64
410.075	9.43
410.283	9.11
410.491	8.91
410.7	8.84
410.908	8.85
411.116	9.21
411.324	9.38
411.533	9.4
411.741	9.71
411.949	9.68
412.157	9.38
412.365	9.47
412.573	9.5
412.781	9.55
412.99	9.44
413.198	9.54
413.406	9.35
413.614	9.31
413.822	9.1
414.03	9.05
414.238	8.87
414.446	8.94
414.654	8.77
414.862	8.84
415.07	8.98
415.278	9.29
415.486	9.13
415.694	9.3
415.902	9.07
416.109	8.85
416.317	8.61
416.525	8.58
416.733	8.5
416.941	8.7
417.149	8.81
417.357	8.88
417.564	9.08
417.772	9.36
417.98	9.15
418.188	9.06
418.395	9.12
418.603	9.15
418.811	8.61
419.019	8.64
419.226	8.94
419.434	8.88
419.642	8.65
419.849	8.96
420.057	9.04
420.265	8.9
420.472	8.72
420.68	8.84
420.887	8.7
421.095	8.63
421.302	8.49
421.51	8.67
421.717	8.54
421.925	8.68
422.132	8.6
422.34	8.34
422.547	8.37
422.755	8.39
422.962	8.12
423.17	8.14
423.377	8.43
423.585	8.35
423.792	8.25
423.999	8.57
424.207	8.63
424.414	8.59
424.621	8.58
424.829	8.68
425.036	8.48
425.243	8.6
425.451	8.49
425.658	8.47
425.865	8.52
426.072	8.58
426.28	8.79
426.487	8.74
426.694	8.82
426.901	8.58
427.108	8.52
427.315	8.18
427.523	8.59
427.73	8.55
427.937	8.61
428.144	8.45
428.351	8.5
428.558	8.48
428.765	8.25
428.972	8.24
429.179	8.69
429.386	8.87
429.593	8.55
429.8	8.66
430.007	8.82
430.214	8.69
430.421	8.58
430.628	8.49
430.835	8.38
431.042	8.6
431.249	8.56
431.456	8.52
431.662	8.75
431.869	9.17
432.076	9.23
432.283	9.39
432.49	9.43
432.697	9.48
432.903	8.94
433.11	8.69
433.317	8.66
433.524	8.83
433.73	8.68
433.937	9.21
434.144	9.11
434.35	9.08
434.557	8.93
434.764	8.85
434.97	8.65
435.177	8.92
435.384	8.78
435.59	8.82
435.797	9.24
436.003	9.24
436.21	9.12
436.416	9.37
436.623	9.34
436.829	9.15
437.036	9.25
437.242	9.28
437.449	9.06
437.655	9.11
437.862	9.18
438.068	9.13
438.275	9.2
438.481	9.44
438.687	9.35
438.894	9.24
439.1	9.29
439.307	9.38
439.513	9.27
439.719	9.36
439.926	9.58
440.132	9.53
440.338	9.42
440.544	9.58
440.751	9.42
440.957	9.39
441.163	9.36
441.369	9.42
441.575	9.2
441.782	9.3
441.988	9.18
442.194	9.18
442.4	9.16
442.606	9.35
442.812	9.42
443.018	9.41
443.224	9.44
443.431	9.56
443.637	9.37
443.843	9.23
444.049	9.26
444.255	9.32
444.461	9.32
444.667	9.34
444.873	9.59
445.079	9.67
445.284	9.69
445.49	9.5
445.696	9.34
445.902	9.13
446.108	9.01
446.314	8.92
446.52	8.92
446.726	9.15
446.931	9.19
447.137	9.27
447.343	9.33
447.549	9.37
447.755	9.25
447.96	9.31
448.166	9.16
448.372	9.06
448.578	9.07
448.783	9.03
448.989	9.13
449.195	9.32
449.4	9.36
449.606	9.39
449.812	9.45
450.017	9.38
450.223	9.28
450.428	9.18
450.634	9.3
450.84	9.35
451.045	9.36
451.251	9.32
451.456	9.65
451.662	9.67
451.867	9.75
452.073	9.65
452.278	9.74
452.483	9.75
452.689	9.57
452.894	9.53
453.1	9.53
453.305	9.46
453.51	9.44
453.716	9.37
453.921	9.48
454.127	9.43
454.332	9.43
454.537	9.22
454.742	9.29
454.948	9.21
455.153	9.33
455.358	9.38
455.563	9.6
455.769	9.7
455.974	9.59
456.179	9.53
456.384	9.6
456.589	9.59
456.795	9.48
457	9.57
457.205	9.75
457.41	9.68
457.615	9.58
457.82	9.61
458.025	9.61
458.23	9.43
458.435	9.51
458.64	9.43
458.845	9.62
459.05	9.58
459.255	9.65
459.46	9.52
459.665	9.56
459.87	9.54
460.075	9.53
