Data from Ofra_2a_PS_4HS13_Reflection_3.txt Node
Date: Tue Jul 20 09:50:33 EDT 2021
User: Adam
Spectrometer: FLMT01687
Trigger mode: 0
Integration Time (sec): 9.450000E-1
Scans to average: 3
Electric dark correction enabled: true
Nonlinearity correction enabled: false
Boxcar width: 3
XAxis mode: Wavelengths
Number of Pixels in Spectrum: 3648
>>>>>Begin Spectral Data<<<<<
179.494	1504.14
179.716	995.25
179.937	1100
180.158	4686.72
180.38	-1994.77
180.601	-424.72
180.823	-178.22
181.044	-88.25
181.265	-39.95
181.486	42.87
181.708	223.91
181.929	-96.05
182.15	-469.32
182.372	29.06
182.593	94.35
182.814	77.54
183.035	116.74
183.257	62.62
183.478	24.49
183.699	37.98
183.92	35.63
184.141	47.61
184.363	31.39
184.584	12.24
184.805	20.05
185.026	-1.58
185.247	-12.45
185.468	-14.8
185.689	-5.26
185.91	-10.13
186.132	-1.1
186.353	-15.59
186.574	1.61
186.795	-8.44
187.016	-9.14
187.237	-26.37
187.458	-29.09
187.679	-40.86
187.9	-35.43
188.121	-37.88
188.342	-8.44
188.563	-11.84
188.784	-7.73
189.005	4.63
189.226	5.13
189.447	3.19
189.667	3.83
189.888	2.64
190.109	1.72
190.33	-8.53
190.551	-16.38
190.772	-17.31
190.993	-10.05
191.214	-17.54
191.434	-24.02
191.655	-16.96
191.876	-8.55
192.097	-3.8
192.318	1.83
192.538	8.42
192.759	20.2
192.98	13.64
193.201	36.4
193.421	47.55
193.642	55.12
193.863	64.23
194.083	47.87
194.304	33.37
194.525	47.94
194.745	15.53
194.966	13.49
195.187	18.82
195.407	14.77
195.628	16.64
195.848	14.07
196.069	-2.92
196.29	-8
196.51	-23.06
196.731	-11.64
196.951	-7.28
197.172	-20.89
197.392	-7.1
197.613	-2.38
197.833	-2.06
198.054	-7.79
198.274	-46.26
198.495	-59.45
198.715	-62.24
198.936	-77.75
199.156	-61.93
199.377	-62.86
199.597	-38.17
199.817	-23.81
200.038	-15.65
200.258	-9.97
200.479	-14.74
200.699	-20.54
200.919	-34.69
201.14	-40.98
201.36	-32.95
201.58	-26.06
201.801	-17.19
202.021	-8.21
202.241	-2.67
202.461	15.41
202.682	23.22
202.902	21.63
203.122	16.7
203.342	26.66
203.563	30.68
203.783	26.51
204.003	22.85
204.223	24.44
204.443	18.76
204.663	27.38
204.884	12.26
205.104	12.14
205.324	20.48
205.544	27.88
205.764	12.1
205.984	19.48
206.204	8.58
206.424	13.66
206.644	2.29
206.864	-0.17
207.084	3.43
207.304	-4.48
207.525	-13.8
207.745	-14.31
207.964	-11.83
208.184	-5.05
208.404	-17.22
208.624	-45.08
208.844	-45.45
209.064	-22.05
209.284	-23.53
209.504	-36.61
209.724	-75.12
209.944	-60.04
210.164	-23.46
210.384	-7.53
210.604	-45.77
210.823	-36.69
211.043	-39.06
211.263	0.02
211.483	-4.03
211.703	-10.87
211.922	-8.69
212.142	0.1
212.362	0.56
212.582	9.42
212.801	-7.08
213.021	-4.44
213.241	-2.25
213.461	-2.29
213.68	6.39
213.9	3.53
214.12	-6.88
214.339	-4.29
214.559	-7.92
214.779	-1.92
214.998	-3.31
215.218	-5.64
215.438	5.68
215.657	10.21
215.877	12.23
216.096	6.87
216.316	-11.43
216.535	-13.04
216.755	-33
216.974	-42.2
217.194	-39.56
217.413	-18.04
217.633	-10.25
217.852	-10.62
218.072	-20.84
218.291	21.06
218.511	15.5
218.73	2.01
218.95	0.58
219.169	-0.76
219.389	15.3
219.608	26.92
219.827	-2.4
220.047	4.22
220.266	16.83
220.485	11.38
220.705	9.94
220.924	3.45
221.143	-5.32
221.363	-7.69
221.582	-13.01
221.801	-6.2
222.021	-4.73
222.24	-6.39
222.459	-12.04
222.678	-18.77
222.897	-8.5
223.117	-5.87
223.336	-8.55
223.555	-23.34
223.774	-10.87
223.993	-5.41
224.213	-5.79
224.432	-0.1
224.651	-4
224.87	-4.32
225.089	6.46
225.308	1.19
225.527	2.99
225.746	-0.35
225.965	-12.75
226.184	-13.3
226.404	-39.58
226.623	-31.54
226.842	-36.6
227.061	-28.95
227.28	-17.21
227.499	12.06
227.718	20.84
227.936	24.27
228.155	19.27
228.374	20.68
228.593	16.14
228.812	11.76
229.031	-2.17
229.25	-1.77
229.469	11.17
229.688	14.59
229.907	6.79
230.125	6.92
230.344	10.53
230.563	15.92
230.782	7.15
231.001	6.65
231.22	-5.13
231.438	12.8
231.657	18.84
231.876	5.55
232.095	2.42
232.313	4.65
232.532	0.66
232.751	4.31
232.969	4.44
233.188	-8.8
233.407	1.55
233.625	-4.9
233.844	3.11
234.063	-5.23
234.281	-3.42
234.5	-1.66
234.719	-2.16
234.937	1.97
235.156	8.68
235.374	0.8
235.593	2.77
235.811	-4.08
236.03	-18.7
236.249	15.58
236.467	6.95
236.686	13.33
236.904	10.55
237.123	16.88
237.341	18.75
237.559	23.66
237.778	11.43
237.996	13.36
238.215	1.43
238.433	11.6
238.652	6.73
238.87	14.96
239.088	-7.52
239.307	-7.52
239.525	-9.98
239.743	-12.33
239.962	-17.52
240.18	-9.91
240.398	-15.67
240.617	16.17
240.835	17.88
241.053	25.26
241.271	26.73
241.49	14.51
241.708	6.59
241.926	-9.76
242.144	-21.36
242.363	-27.81
242.581	-26.03
242.799	-43.13
243.017	-21.89
243.235	-21.4
243.453	-6.31
243.672	-2.41
243.89	2.87
244.108	-2.71
244.326	3.55
244.544	0.99
244.762	4.55
244.98	-2.44
245.198	-11.37
245.416	-13.48
245.634	-0.18
245.852	7.3
246.07	2.57
246.288	-5.13
246.506	4.83
246.724	18.47
246.942	28.24
247.16	11.31
247.378	2.05
247.596	11.65
247.814	1.68
248.032	-4.36
248.25	-19.02
248.468	-18.39
248.685	-7.61
248.903	-7.05
249.121	-2.57
249.339	10.98
249.557	16.94
249.775	-0.33
249.992	-7.21
250.21	-24.69
250.428	-25.53
250.646	-36.66
250.863	-35.51
251.081	-39.58
251.299	-8.53
251.517	-1.97
251.734	16.78
251.952	29.85
252.17	18.84
252.387	17.19
252.605	8.28
252.823	-12.95
253.04	-21.13
253.258	-30.09
253.475	-23.1
253.693	-2.74
253.911	-4.59
254.128	-10.03
254.346	-9.24
254.563	-10.69
254.781	-7.1
254.998	-9.08
255.216	-17.75
255.433	-21.47
255.651	-16.53
255.868	-7.97
256.086	-10.79
256.303	-3.22
256.521	-13
256.738	-0.7
256.956	-3.57
257.173	8.48
257.39	15.42
257.608	12.36
257.825	4.34
258.043	11.35
258.26	8.62
258.477	12.51
258.695	8.41
258.912	0.58
259.129	2.03
259.346	6.1
259.564	2.76
259.781	6.46
259.998	8.57
260.216	4.54
260.433	-0.07
260.65	-0.17
260.867	-24.03
261.084	-17.63
261.302	-33.23
261.519	-47.83
261.736	-50.56
261.953	-41.47
262.17	-29.63
262.387	-18.81
262.604	-34.69
262.822	-22.29
263.039	-23.32
263.256	-18.14
263.473	-25.5
263.69	-32.88
263.907	-31.71
264.124	-27.31
264.341	-24.15
264.558	-19.16
264.775	-17.73
264.992	-14.36
265.209	-0.42
265.426	8.65
265.643	11.07
265.86	5.31
266.077	10.25
266.294	12.89
266.51	12.6
266.727	-5.87
266.944	-27.3
267.161	-28.52
267.378	-30.79
267.595	-48.12
267.812	-51.57
268.028	-37.77
268.245	-24.83
268.462	-16.82
268.679	-26.23
268.896	-22.84
269.112	-5.35
269.329	5.92
269.546	0.9
269.763	1.9
269.979	3.41
270.196	12.06
270.413	11.17
270.629	4.67
270.846	-3.78
271.063	-7.21
271.279	-11.18
271.496	-19.18
271.712	-21.08
271.929	-12.91
272.146	-8.95
272.362	-22.32
272.579	-21.09
272.795	-18.79
273.012	-10.23
273.228	-8.82
273.445	-9.39
273.661	-8.83
273.878	2.44
274.094	6.29
274.311	8.32
274.527	10.88
274.744	12.63
274.96	5.91
275.177	14.64
275.393	14.74
275.609	18.64
275.826	14.88
276.042	18.56
276.259	12.58
276.475	10.96
276.691	8
276.908	8.13
277.124	3.13
277.34	-3.94
277.557	-10.15
277.773	-7.64
277.989	-15.69
278.205	-35.36
278.422	-32.19
278.638	-35.28
278.854	-22.68
279.07	-32.83
279.286	-35.91
279.503	-31.25
279.719	-0.06
279.935	-12.47
280.151	3.38
280.367	3.61
280.583	14.32
280.799	16.9
281.016	20.78
281.232	10.37
281.448	6.16
281.664	-5.79
281.88	-7.47
282.096	-4.53
282.312	-11.97
282.528	-31.07
282.744	-33.68
282.96	-17.1
283.176	-13.19
283.392	-3.23
283.608	-9.23
283.824	-9.82
284.04	5.44
284.256	9.58
284.471	6.37
284.687	7.73
284.903	0.25
285.119	-3.73
285.335	4.61
285.551	9.73
285.767	1.13
285.982	1.18
286.198	-7.26
286.414	-3.05
286.63	8.39
286.846	3.18
287.061	2.05
287.277	8.32
287.493	12.84
287.709	10.53
287.924	20.48
288.14	13.58
288.356	20.59
288.571	16.48
288.787	12.74
289.003	14.54
289.218	19.34
289.434	2.55
289.65	5.98
289.865	12.24
290.081	16.22
290.296	16.89
290.512	14.98
290.727	24.67
290.943	24.07
291.159	18.49
291.374	16.36
291.59	4.46
291.805	-1.85
292.021	-10.38
292.236	-19.08
292.451	-16.11
292.667	-16.06
292.882	-25.74
293.098	-21.99
293.313	-26.71
293.529	-17.01
293.744	-12.64
293.959	-11.95
294.175	-14.36
294.39	-10.61
294.605	-11.27
294.821	-6.95
295.036	-7.8
295.251	-6.55
295.467	-7
295.682	-2.41
295.897	-8.96
296.112	-11.68
296.328	-5.64
296.543	-10.99
296.758	-15.72
296.973	-11.12
297.188	-10.33
297.404	4.38
297.619	10.4
297.834	16.43
298.049	16.78
298.264	20.53
298.479	8.17
298.694	14.14
298.909	-3.5
299.125	2.66
299.34	-4.44
299.555	-2.11
299.77	-9.2
299.985	-7.98
300.2	-12.87
300.415	6.54
300.63	0.08
300.845	3.55
301.06	3.84
301.275	4.33
301.49	13.53
301.704	10.33
301.919	-4.06
302.134	-6.43
302.349	-13.94
302.564	-20.79
302.779	-27.32
302.994	-35.6
303.209	-40.76
303.423	-21.5
303.638	-15.43
303.853	-10.86
304.068	-6.42
304.283	0.28
304.497	6.43
304.712	17.88
304.927	5.22
305.142	3.96
305.356	-2.92
305.571	7.32
305.786	7.96
306	4.62
306.215	0.26
306.43	11.58
306.644	11.09
306.859	21.35
307.074	5.57
307.288	9.91
307.503	9.04
307.717	6.43
307.932	6.2
308.147	6.13
308.361	9.98
308.576	16.79
308.79	12
309.005	13.66
309.219	15.77
309.434	10.41
309.648	1.7
309.863	3.6
310.077	1.95
310.292	10.48
310.506	12.78
310.72	16.41
310.935	26.87
311.149	29.41
311.364	26.29
311.578	17.73
311.792	10.32
312.007	13.02
312.221	10.02
312.435	-2.04
312.649	-26.6
312.864	-49.31
313.078	-42.52
313.292	-30.31
313.507	-21.84
313.721	-32.38
313.935	-16.11
314.149	13.56
314.363	23.07
314.578	52.84
314.792	47.63
315.006	37.63
315.22	44.29
315.434	38.13
315.648	25.91
315.862	21.49
316.077	3.94
316.291	1.31
316.505	-1.41
316.719	-18.58
316.933	-9.09
317.147	-1.59
317.361	0.87
317.575	-3.21
317.789	3.93
318.003	5.88
318.217	18.12
318.431	12.79
318.645	16
318.859	9.5
319.073	10.24
319.287	9.48
319.5	11.27
319.714	8.86
319.928	15.11
320.142	17.16
320.356	33.59
320.57	28.55
320.784	25.46
320.997	29.26
321.211	29.12
321.425	20.84
321.639	20.43
321.853	2.54
322.066	6.13
322.28	8.15
322.494	-13.24
322.707	-16.61
322.921	-11.08
323.135	-12.24
323.349	-4.71
323.562	-9.2
323.776	-10.77
323.989	1.3
324.203	6.79
324.417	-4.08
324.63	-15.38
324.844	-20.27
325.057	-9.28
325.271	-16.15
325.485	-7.66
325.698	-2.77
325.912	13.99
326.125	21.5
326.339	24.14
326.552	20.29
326.766	32.35
326.979	31.52
327.193	24.56
327.406	15.97
327.619	-6.59
327.833	-10.96
328.046	-15.98
328.26	-40.11
328.473	-43.43
328.686	-39.22
328.9	-46.79
329.113	-27.99
329.326	-20.21
329.54	-17.62
329.753	-3.13
329.966	0.95
330.179	9.94
330.393	15.05
330.606	21.49
330.819	22.94
331.032	22.26
331.246	13.19
331.459	11.2
331.672	4.62
331.885	3.79
332.098	1.18
332.311	-21.48
332.525	-9.33
332.738	-0.89
332.951	-1.02
333.164	-7.69
333.377	-17.51
333.59	-20.9
333.803	-3.74
334.016	-21.38
334.229	-26.71
334.442	-16.09
334.655	-7.6
334.868	8.27
335.081	15.39
335.294	10.57
335.507	22.33
335.72	9.53
335.933	7.96
336.146	13.07
336.359	7.99
336.572	0.64
336.785	7.8
336.997	2.52
337.21	15.83
337.423	11.58
337.636	6.56
337.849	2.5
338.062	3.71
338.274	-6.29
338.487	-8.39
338.7	-6.61
338.913	-11.96
339.125	-14.48
339.338	-3.38
339.551	5.54
339.763	12.24
339.976	14.16
340.189	10.08
340.402	12.75
340.614	14.82
340.827	2.34
341.039	-5.9
341.252	-12.48
341.465	-20.6
341.677	-22.16
341.89	-20.08
342.102	-14.87
342.315	-8.65
342.527	-18.42
342.74	-14.07
342.952	-9.17
343.165	2.25
343.377	5.03
343.59	3.92
343.802	10.04
344.015	21.05
344.227	14.83
344.44	14.97
344.652	10.39
344.864	12.99
345.077	9.11
345.289	-0.07
345.502	-1.15
345.714	-1.65
345.926	-8.46
346.139	-12.99
346.351	-39.25
346.563	-33.09
346.775	-34.12
346.988	-34.76
347.2	-19.67
347.412	-11.2
347.624	-4.67
347.837	6.58
348.049	7.55
348.261	12.59
348.473	5.91
348.685	10.26
348.897	9.71
349.11	4.84
349.322	1.2
349.534	-5.1
349.746	-3.69
349.958	6.18
350.17	3.44
350.382	0.6
350.594	-2.67
350.806	11.53
351.018	18.42
351.23	19.59
351.442	19.77
351.654	8.19
351.866	8.97
352.078	6.15
352.29	1.82
352.502	-3.64
352.714	-8.23
352.926	-9.84
353.138	-1.41
353.35	-6.21
353.561	-1.24
353.773	-1.64
353.985	0.54
354.197	-10.18
354.409	-8.19
354.621	-5.94
354.832	-10.71
355.044	-7.74
355.256	-17.48
355.468	-24.07
355.679	-13.31
355.891	-5.51
356.103	-8.94
356.314	-2.55
356.526	-6.4
356.738	-4.19
356.949	-2.72
357.161	7.87
357.373	2.9
357.584	4.02
357.796	2.48
358.008	9.73
358.219	15.25
358.431	17.48
358.642	5.39
358.854	-0.52
359.065	-3.4
359.277	-3.15
359.488	-7.13
359.7	-14.42
359.911	-19.08
360.123	-9.67
360.334	-5.5
360.546	-10.45
360.757	-3.33
360.969	4.26
361.18	2.18
361.391	7.52
361.603	1.05
361.814	2.17
362.025	8.06
362.237	3.03
362.448	0.36
362.659	-7.26
362.871	-11.68
363.082	-2.99
363.293	-2.35
363.504	-3.41
363.716	2.94
363.927	-1.88
364.138	11.21
364.349	13.73
364.56	6.51
364.772	2.27
364.983	-0.73
365.194	-7.69
365.405	-15.18
365.616	-30.17
365.827	-36.6
366.038	-17.1
366.25	-13.77
366.461	-5.67
366.672	-3.52
366.883	8.58
367.094	10.29
367.305	13.66
367.516	-4.48
367.727	-6.85
367.938	-4.51
368.149	-0.6
368.36	-8.87
368.571	-1.9
368.781	-3.94
368.992	-1.9
369.203	4.68
369.414	-5.62
369.625	-13.12
369.836	-7.97
370.047	-10.18
370.258	-7.66
370.468	-7.2
370.679	-10.85
370.89	-1.71
371.101	-4.3
371.312	-6.07
371.522	-4.47
371.733	-18.22
371.944	-16.25
372.155	-30.78
372.365	-40.4
372.576	-31.43
372.787	-34.86
372.997	-37.62
373.208	-23.32
373.419	-27.75
373.629	-12.75
373.84	-7.94
374.05	-4.35
374.261	-3.89
374.472	-5.04
374.682	-7.39
374.893	-2.6
375.103	-1.7
375.314	-2.9
375.524	-8.33
375.735	-0.79
375.945	-1.44
376.156	-2.46
376.366	0.4
376.577	-2.02
376.787	2
376.997	6.1
377.208	5.26
377.418	11.94
377.629	10.81
377.839	11.55
378.049	18.91
378.26	13
378.47	15.59
378.68	10.95
378.89	0.57
379.101	-4.61
379.311	-11.03
379.521	-6.04
379.732	-11.92
379.942	-17.55
380.152	-10.79
380.362	-3.51
380.572	-0.9
380.783	1.31
380.993	-5.2
381.203	1.04
381.413	2.8
381.623	-2.52
381.833	-11.14
382.043	-10.18
382.253	-7.48
382.463	-4.02
382.674	-3.07
382.884	-1.66
383.094	-1.21
383.304	4.43
383.514	9.15
383.724	5.12
383.934	0.32
384.144	1.1
384.353	1.12
384.563	-1.37
384.773	1.05
384.983	-0.99
385.193	-0.06
385.403	-0.94
385.613	-1.25
385.823	-3.58
386.033	-1.37
386.242	-3.04
386.452	-2.77
386.662	-0.34
386.872	-0.6
387.082	-2.1
387.291	-2.56
387.501	0.4
387.711	-1.66
387.921	-1.73
388.13	-3.69
388.34	-2.42
388.55	-1.66
388.759	-0.14
388.969	-4.78
389.179	-0.43
389.388	-0.5
389.598	-2.49
389.807	-3.5
390.017	-3.75
390.227	-5.85
390.436	-4.29
390.646	-4.24
390.855	-4.46
391.065	-2.94
391.274	-2.6
391.484	-1.75
391.693	1.31
391.903	0.67
392.112	-0.31
392.322	1.47
392.531	2.5
392.74	1.8
392.95	2.75
393.159	2.77
393.369	4.11
393.578	4.62
393.787	3.37
393.997	4.3
394.206	4.48
394.415	3.68
394.625	1.77
394.834	0.61
395.043	0.39
395.252	1.31
395.462	0.34
395.671	1.23
395.88	1.84
396.089	2.6
396.298	3.5
396.508	3.46
396.717	2.69
396.926	2.87
397.135	2.52
397.344	2.29
397.553	2.38
397.762	2.12
397.971	2.12
398.181	1.99
398.39	1.86
398.599	2.24
398.808	2.14
399.017	2.52
399.226	2.71
399.435	2.64
399.644	2.72
399.853	2.86
400.062	2.48
400.27	2.69
400.479	2.36
400.688	2.25
400.897	2.69
401.106	2.85
401.315	2.69
401.524	2.92
401.733	3.11
401.941	3.15
402.15	3.11
402.359	2.89
402.568	2.93
402.777	2.9
402.985	2.73
403.194	2.4
403.403	2.28
403.612	2.38
403.82	2.48
404.029	2.41
404.238	2.57
404.446	2.58
404.655	2.6
404.864	2.64
405.072	2.58
405.281	2.35
405.489	2.36
405.698	2.23
405.906	2.18
406.115	2.28
406.324	2.27
406.532	2.34
406.741	2.44
406.949	2.43
407.158	2.54
407.366	2.66
407.574	2.65
407.783	2.64
407.991	2.54
408.2	2.5
408.408	2.42
408.617	2.36
408.825	2.32
409.033	2.24
409.242	2.21
409.45	2.25
409.658	2.26
409.867	2.27
410.075	2.27
410.283	2.15
410.491	2.15
410.7	2.24
410.908	2.25
411.116	2.18
411.324	2.32
411.533	2.13
411.741	2.15
411.949	2.2
412.157	2.19
412.365	2.15
412.573	2.18
412.781	2.1
412.99	2.3
413.198	2.35
413.406	2.3
413.614	2.24
413.822	2.19
414.03	2.16
414.238	2.22
414.446	2.13
414.654	2.13
414.862	2.06
415.07	2.12
415.278	2.1
415.486	2.18
415.694	2.02
415.902	2
416.109	2.06
416.317	2.05
416.525	2.13
416.733	2.16
416.941	2.09
417.149	2.25
417.357	2.3
417.564	2.18
417.772	2.19
417.98	2.04
418.188	1.99
418.395	2
418.603	1.84
418.811	1.72
419.019	1.73
419.226	1.8
419.434	1.79
419.642	1.79
419.849	1.83
420.057	1.9
420.265	1.91
420.472	1.89
420.68	1.9
420.887	1.86
421.095	1.91
421.302	1.82
421.51	1.89
421.717	1.96
421.925	1.91
422.132	1.73
422.34	1.78
422.547	1.67
422.755	1.73
422.962	1.56
423.17	1.52
423.377	1.65
423.585	1.73
423.792	1.66
423.999	1.7
424.207	1.58
424.414	1.69
424.621	1.78
424.829	1.71
425.036	1.61
425.243	1.7
425.451	1.76
425.658	1.88
425.865	1.74
426.072	1.66
426.28	1.69
426.487	1.72
426.694	1.62
426.901	1.55
427.108	1.53
427.315	1.58
427.523	1.58
427.73	1.57
427.937	1.59
428.144	1.65
428.351	1.74
428.558	1.57
428.765	1.53
428.972	1.54
429.179	1.46
429.386	1.51
429.593	1.47
429.8	1.46
430.007	1.63
430.214	1.68
430.421	1.66
430.628	1.58
430.835	1.55
431.042	1.53
431.249	1.47
431.456	1.44
431.662	1.45
431.869	1.54
432.076	1.65
432.283	1.65
432.49	1.71
432.697	1.75
432.903	1.75
433.11	1.81
433.317	1.81
433.524	1.76
433.73	1.78
433.937	1.67
434.144	1.75
434.35	1.7
434.557	1.62
434.764	1.56
434.97	1.57
435.177	1.57
435.384	1.69
435.59	1.59
435.797	1.64
436.003	1.64
436.21	1.58
436.416	1.59
436.623	1.57
436.829	1.51
437.036	1.51
437.242	1.48
437.449	1.51
437.655	1.59
437.862	1.56
438.068	1.66
438.275	1.69
438.481	1.77
438.687	1.84
438.894	1.83
439.1	1.84
439.307	1.87
439.513	1.76
439.719	1.76
439.926	1.77
440.132	1.67
440.338	1.7
440.544	1.65
440.751	1.7
440.957	1.7
441.163	1.69
441.369	1.64
441.575	1.7
441.782	1.64
441.988	1.64
442.194	1.64
442.4	1.76
442.606	1.82
442.812	1.84
443.018	1.83
443.224	1.86
443.431	1.91
443.637	1.87
443.843	1.82
444.049	1.73
444.255	1.7
444.461	1.69
444.667	1.66
444.873	1.65
445.079	1.67
445.284	1.64
445.49	1.61
445.696	1.66
445.902	1.76
446.108	1.81
446.314	1.78
446.52	1.81
446.726	1.85
446.931	1.93
447.137	1.89
447.343	1.83
447.549	1.81
447.755	1.79
447.96	1.72
448.166	1.72
448.372	1.7
448.578	1.73
448.783	1.72
448.989	1.71
449.195	1.71
449.4	1.76
449.606	1.7
449.812	1.75
450.017	1.73
450.223	1.71
450.428	1.71
450.634	1.75
450.84	1.72
451.045	1.75
451.251	1.72
451.456	1.72
451.662	1.7
451.867	1.71
452.073	1.73
452.278	1.75
452.483	1.71
452.689	1.7
452.894	1.66
453.1	1.65
453.305	1.63
453.51	1.59
453.716	1.57
453.921	1.61
454.127	1.6
454.332	1.64
454.537	1.72
454.742	1.75
454.948	1.75
455.153	1.78
455.358	1.82
455.563	1.88
455.769	1.88
455.974	1.8
456.179	1.75
456.384	1.77
456.589	1.81
456.795	1.69
457	1.63
457.205	1.6
457.41	1.63
457.615	1.69
457.82	1.73
458.025	1.67
458.23	1.76
458.435	1.74
458.64	1.81
458.845	1.8
459.05	1.77
459.255	1.72
459.46	1.72
459.665	1.74
459.87	1.69
460.075	1.63
460.28	1.67
460.485	1.69
460.69	1.63
460.895	1.67
461.099	1.65
461.304	1.74
461.509	1.68
461.714	1.65
461.919	1.63
462.123	1.71
462.328	1.66
462.533	1.67
462.738	1.62
462.942	1.71
463.147	1.72
463.352	1.75
463.556	1.72
463.761	1.7
463.966	1.69
464.17	1.72
464.375	1.64
464.58	1.59
464.784	1.6
464.989	1.6
465.193	1.64
465.398	1.64
465.602	1.64
465.807	1.68
466.011	1.72
466.216	1.68
466.42	1.72
466.625	1.72
466.829	1.77
467.034	1.79
467.238	1.86
