Data from Ofra_PS_T2_1A_2HS17_Reflection_1.txt Node
Date: Wed Jul 21 18:01:22 EDT 2021
User: Adam
Spectrometer: FLMT01687
Trigger mode: 0
Integration Time (sec): 1.100000E0
Scans to average: 2
Electric dark correction enabled: true
Nonlinearity correction enabled: false
Boxcar width: 2
XAxis mode: Wavelengths
Number of Pixels in Spectrum: 3648
>>>>>Begin Spectral Data<<<<<
179.494	484.8
179.716	552
179.937	523.19
180.158	485.25
180.38	793.12
180.601	293.37
180.823	82.1
181.044	-34.12
181.265	44.12
181.486	47.45
181.708	107.39
181.929	734.69
182.15	-342.25
182.372	19.26
182.593	21.95
182.814	11.36
183.035	90.26
183.257	84.03
183.478	-0.64
183.699	16.61
183.92	28.3
184.141	-6.21
184.363	-71.34
184.584	-11.89
184.805	4.31
185.026	27.15
185.247	36.9
185.468	36.66
185.689	53.99
185.91	68.54
186.132	60.66
186.353	38.09
186.574	87.17
186.795	69.05
187.016	-4.23
187.237	-17.66
187.458	-26.87
187.679	-58.22
187.9	-35.5
188.121	-9.73
188.342	20.27
188.563	70.98
188.784	128.99
189.005	104.96
189.226	152.33
189.447	182.59
189.667	103.4
189.888	-147.78
190.109	-923.38
190.33	-509.03
190.551	-1226.55
190.772	-305.08
190.993	-272.79
191.214	-172.93
191.434	-118.45
191.655	-25.77
191.876	-28.24
192.097	-66.08
192.318	-104.51
192.538	-214.66
192.759	-138.2
192.98	-66.5
193.201	-13.89
193.421	-8.54
193.642	23.73
193.863	18.81
194.083	1.17
194.304	-13.41
194.525	-7.73
194.745	-22.75
194.966	-31.56
195.187	-14.53
195.407	-29.38
195.628	-81.54
195.848	-83.31
196.069	-96.73
196.29	-61.13
196.51	-52.06
196.731	-34.27
196.951	-63.58
197.172	-48.04
197.392	-72.35
197.613	-71.03
197.833	-102.32
198.054	-107.52
198.274	-68
198.495	-89.34
198.715	-54.27
198.936	-68.11
199.156	-28.02
199.377	-91.02
199.597	-71.61
199.817	-96.32
200.038	-41.63
200.258	-96.95
200.479	-49.06
200.699	-74.73
200.919	1.93
201.14	-5.2
201.36	0.69
201.58	40.27
201.801	68.34
202.021	41.39
202.241	27.07
202.461	19.09
202.682	-69.94
202.902	-159.97
203.122	-103.24
203.342	-60.72
203.563	-20.87
203.783	14.79
204.003	-7.86
204.223	1.28
204.443	33.59
204.663	-14.02
204.884	-16.91
205.104	50.19
205.324	61.89
205.544	45.62
205.764	78.11
205.984	72.62
206.204	49.24
206.424	39.69
206.644	1.87
206.864	15.05
207.084	-10.68
207.304	23.54
207.525	-120
207.745	-35.46
207.964	-6.3
208.184	-37.42
208.404	-97.47
208.624	-74.79
208.844	-66.63
209.064	-339.4
209.284	-355.96
209.504	-172.23
209.724	-61.11
209.944	-36.48
210.164	-0.88
210.384	9.22
210.604	7.12
210.823	-25.35
211.043	-38.77
211.263	-17.11
211.483	-6.73
211.703	-46.71
211.922	-14.57
212.142	26.3
212.362	22.31
212.582	-10.64
212.801	1.68
213.021	-15.61
213.241	-24.02
213.461	-40.83
213.68	-46.2
213.9	-6.56
214.12	9.52
214.339	-50.92
214.559	-47.13
214.779	9.56
214.998	-6.06
215.218	-51.98
215.438	-11.04
215.657	-23.84
215.877	-38.02
216.096	-5.07
216.316	25.07
216.535	-0.94
216.755	0.68
216.974	-46.15
217.194	-62.12
217.413	-105.15
217.633	-60.65
217.852	-108.25
218.072	-56.31
218.291	-40.94
218.511	16.16
218.73	-1.91
218.95	-6.68
219.169	-12.29
219.389	-36.07
219.608	-27.64
219.827	-22.11
220.047	0.44
220.266	13.99
220.485	11.05
220.705	14.45
220.924	-4.65
221.143	24.11
221.363	3.51
221.582	33.18
221.801	22.35
222.021	55.15
222.24	12.57
222.459	101.2
222.678	1.77
222.897	-18.04
223.117	-134.92
223.336	-72.63
223.555	-59.93
223.774	8.19
223.993	15.1
224.213	95.2
224.432	56.42
224.651	76.84
224.87	38.83
225.089	41.26
225.308	28.56
225.527	42.96
225.746	18.28
225.965	14
226.184	-7.36
226.404	17.27
226.623	-10.91
226.842	5.75
227.061	24.16
227.28	28.58
227.499	4.34
227.718	26.71
227.936	17.08
228.155	16.51
228.374	6.55
228.593	26.75
228.812	33.58
229.031	17.76
229.25	-18.52
229.469	7.82
229.688	-4.21
229.907	4.34
230.125	21.68
230.344	26.25
230.563	31.8
230.782	56.08
231.001	-4.18
231.22	5.6
231.438	37.36
231.657	19.37
231.876	-5.71
232.095	37.18
232.313	42.75
232.532	35.89
232.751	-8.06
232.969	-20.85
233.188	-69.12
233.407	-22.33
233.625	-15.62
233.844	1.58
234.063	8.82
234.281	25.39
234.5	16.54
234.719	23.08
234.937	30.07
235.156	31.98
235.374	28.54
235.593	4.72
235.811	-13.75
236.03	-22.32
236.249	-45.53
236.467	-53.38
236.686	4.71
236.904	14.43
237.123	-1.97
237.341	-4.39
237.559	3.61
237.778	-20.23
237.996	-32.53
238.215	2.86
238.433	20.79
238.652	39.48
238.87	11.7
239.088	20.3
239.307	19.19
239.525	11.56
239.743	-35.82
239.962	-8.79
240.18	-33.85
240.398	-81.24
240.617	-92.61
240.835	-51.95
241.053	-14.59
241.271	48.24
241.49	60.48
241.708	64.35
241.926	43.52
242.144	3.32
242.363	-73.14
242.581	-99.42
242.799	-48.15
243.017	-28.68
243.235	-35.92
243.453	-21.88
243.672	-17.94
243.89	-12.05
244.108	-11.14
244.326	5
244.544	15.5
244.762	17.47
244.98	13.68
245.198	6.64
245.416	-34.18
245.634	-33.77
245.852	-32.16
246.07	-41.11
246.288	-24.18
246.506	-14.08
246.724	25.5
246.942	7.15
247.16	37.78
247.378	40.92
247.596	56.29
247.814	39.02
248.032	33.81
248.25	30.65
248.468	26.82
248.685	41.78
248.903	54.92
249.121	54.31
249.339	23.58
249.557	8.77
249.775	-0.69
249.992	-62.46
250.21	-66.78
250.428	-44.07
250.646	-48.7
250.863	-52.68
251.081	-12.74
251.299	9.41
251.517	13.21
251.734	0.92
251.952	-16
252.17	-12.17
252.387	-3.82
252.605	-16.29
252.823	6.12
253.04	33.7
253.258	36.44
253.475	39.58
253.693	80.22
253.911	63.45
254.128	55.73
254.346	66.87
254.563	49.76
254.781	7.92
254.998	-23
255.216	-9.96
255.433	-10.67
255.651	6.43
255.868	51.63
256.086	76.56
256.303	43.94
256.521	39.84
256.738	23.58
256.956	5.1
257.173	-2.67
257.39	-4.53
257.608	-24.31
257.825	16.6
258.043	39.84
258.26	27.44
258.477	57.93
258.695	58.91
258.912	-5.53
259.129	-12.73
259.346	-31.57
259.564	-63.95
259.781	-71.25
259.998	18.56
260.216	44.53
260.433	75.1
260.65	54.91
260.867	65.65
261.084	35.91
261.302	13.88
261.519	-27.8
261.736	-37.16
261.953	-75.23
262.17	-42.89
262.387	-86.48
262.604	-109.14
262.822	-102.62
263.039	-61.91
263.256	-123.4
263.473	-55.08
263.69	-11.55
263.907	14.82
264.124	23.46
264.341	32.23
264.558	13.55
264.775	27.51
264.992	27.05
265.209	10.82
265.426	39.19
265.643	47.15
265.86	51.7
266.077	51.03
266.294	75.66
266.51	31.54
266.727	16.68
266.944	-14.77
267.161	-14.47
267.378	-34.52
267.595	-5.01
267.812	-18.75
268.028	-19.62
268.245	-11.38
268.462	-23.22
268.679	-23.73
268.896	26.27
269.112	33.19
269.329	36.8
269.546	46
269.763	29.77
269.979	9.42
270.196	8.69
270.413	-38.8
270.629	-50.04
270.846	-44.91
271.063	-35.68
271.279	-41.02
271.496	-14.97
271.712	15.32
271.929	22.57
272.146	16.77
272.362	22.36
272.579	25.46
272.795	33.21
273.012	28.59
273.228	24.68
273.445	-3.06
273.661	-1.45
273.878	-64.7
274.094	-53.91
274.311	-85.71
274.527	-21.21
274.744	-18.07
274.96	-10.15
275.177	14.03
275.393	40.14
275.609	45.65
275.826	57.81
276.042	61.68
276.259	44.34
276.475	45.71
276.691	40.31
276.908	9.07
277.124	21.93
277.34	27.82
277.557	22.68
277.773	23.23
277.989	32.73
278.205	26.17
278.422	41.21
278.638	36.94
278.854	45.57
279.07	53.84
279.286	48.97
279.503	15.63
279.719	16.38
279.935	-11.98
280.151	-19.58
280.367	-9.84
280.583	-32.88
280.799	-38.8
281.016	-59.57
281.232	-36.89
281.448	-36.79
281.664	9.11
281.88	-2.19
282.096	25.99
282.312	60.09
282.528	79.38
282.744	71.71
282.96	57.63
283.176	38.55
283.392	18.75
283.608	-2.33
283.824	-11.76
284.04	-7.39
284.256	-16.13
284.471	-22.07
284.687	-18.29
284.903	-4.74
285.119	27.83
285.335	13.89
285.551	29.84
285.767	20.63
285.982	21.07
286.198	-31.17
286.414	31.54
286.63	35.13
286.846	56.92
287.061	23.21
287.277	60.66
287.493	30.03
287.709	37.98
287.924	4.84
288.14	47.49
288.356	36
288.571	55.1
288.787	33.74
289.003	44.97
289.218	19.39
289.434	-23.11
289.65	-25.15
289.865	-23.23
290.081	2.75
290.296	3.44
290.512	39.17
290.727	11.7
290.943	15.73
291.159	-12.03
291.374	6.56
291.59	-28.41
291.805	-12.55
292.021	-12.31
292.236	1.55
292.451	0.47
292.667	11.9
292.882	20.55
293.098	17.83
293.313	-12.54
293.529	-14.7
293.744	-13.86
293.959	-23.79
294.175	-20.49
294.39	16.38
294.605	23.02
294.821	38.39
295.036	41.63
295.251	57.51
295.467	24.12
295.682	1.86
295.897	-39.36
296.112	-39.02
296.328	-48.06
296.543	-39.79
296.758	-9.61
296.973	38.89
297.188	59.97
297.404	32.52
297.619	24.53
297.834	3.79
298.049	-20.26
298.264	-62.83
298.479	-0.15
298.694	5.67
298.909	25.79
299.125	32.18
299.34	42.61
299.555	12.44
299.77	24.19
299.985	-20.15
300.2	-77.52
300.415	-89.67
300.63	-57.5
300.845	-57.24
301.06	-58.01
301.275	-19.22
301.49	4.2
301.704	-6.65
301.919	-28.32
302.134	-24.88
302.349	-29.63
302.564	-106.7
302.779	-143.4
302.994	-103.92
303.209	-76.48
303.423	-58.34
303.638	14.57
303.853	-6.94
304.068	-19.46
304.283	-18.19
304.497	-5.24
304.712	-16.79
304.927	5.83
305.142	3.72
305.356	12.08
305.571	2.91
305.786	-7.31
306	-40.34
306.215	-24.19
306.43	-47.34
306.644	-34.65
306.859	-19.34
307.074	11.12
307.288	-31.96
307.503	-21.19
307.717	-21.84
307.932	-11.18
308.147	-23.66
308.361	5.78
308.576	-8.92
308.79	-55.25
309.005	-46.68
309.219	-26.13
309.434	-18.21
309.648	-8.28
309.863	21.71
310.077	17.62
310.292	14.6
310.506	1.38
310.72	4.25
310.935	11.56
311.149	11.8
311.364	25.54
311.578	34.86
311.792	32.88
312.007	28.76
312.221	22.59
312.435	24.53
312.649	8.56
312.864	8.07
313.078	21.23
313.292	48.4
313.507	6.12
313.721	23.61
313.935	34.72
314.149	20.51
314.363	15.21
314.578	18.5
314.792	14.17
315.006	13.96
315.22	28.42
315.434	39.22
315.648	43.58
315.862	49.59
316.077	48.07
316.291	30.22
316.505	46.04
316.719	65.66
316.933	23.57
317.147	8.16
317.361	-29.61
317.575	-57.08
317.789	-85.79
318.003	-111.59
318.217	-66.63
318.431	21.93
318.645	45.18
318.859	33.87
319.073	52.03
319.287	31.63
319.5	-11.62
319.714	-61.06
319.928	-92.55
320.142	-114.55
320.356	-42.17
320.57	9.36
320.784	15.23
320.997	46.65
321.211	47.16
321.425	-37.06
321.639	-84.59
321.853	-13.58
322.066	-2.45
322.28	-4.76
322.494	1.27
322.707	26.87
322.921	9.95
323.135	1.26
323.349	21.72
323.562	12.68
323.776	2.58
323.989	7.1
324.203	9.51
324.417	-21.11
324.63	-17.97
324.844	-13.21
325.057	-10.89
325.271	1.36
325.485	27.66
325.698	39.24
325.912	50.45
326.125	23.74
326.339	27.85
326.552	12.11
326.766	16.03
326.979	20.13
327.193	60.06
327.406	51.07
327.619	43.54
327.833	46.18
328.046	25.48
328.26	-22.29
328.473	-14.84
328.686	-56.07
328.9	-46.56
329.113	-45.83
329.326	-66.06
329.54	-48.32
329.753	-29.46
329.966	-59.19
330.179	-23.39
330.393	8.78
330.606	11.77
330.819	20.9
331.032	36.7
331.246	39.37
331.459	62.18
331.672	49.76
331.885	48.93
332.098	28.89
332.311	23.97
332.525	-43.51
332.738	-23.15
332.951	-9.37
333.164	14.04
333.377	12.07
333.59	41.36
333.803	41.72
334.016	38.02
334.229	26.66
334.442	37.5
334.655	38.7
334.868	55.89
335.081	43.94
335.294	39.41
335.507	16.42
335.72	7.34
335.933	-16.56
336.146	-29.68
336.359	-35.02
336.572	-45.56
336.785	-67.62
336.997	-61.7
337.21	-27.1
337.423	-27.89
337.636	-13.36
337.849	5.51
338.062	15.86
338.274	28.74
338.487	25.53
338.7	8.05
338.913	-30.22
339.125	-68.8
339.338	-134.91
339.551	-104.9
339.763	-52.76
339.976	-16.43
340.189	3.4
340.402	7.78
340.614	-0.86
340.827	-7.51
341.039	-30.72
341.252	-24.73
341.465	-5.02
341.677	-5.87
341.89	-46.78
342.102	-2.78
342.315	-17.02
342.527	-53.82
342.74	-50.03
342.952	-6.82
343.165	-15.89
343.377	12.56
343.59	16.44
343.802	30.19
344.015	36.81
344.227	47.08
344.44	33.77
344.652	28.48
344.864	9.35
345.077	25.91
345.289	28.1
345.502	26.46
345.714	20.62
345.926	32.43
346.139	9.19
346.351	14.39
346.563	26.16
346.775	24.24
346.988	1.66
347.2	3.48
347.412	-52.64
347.624	-67.33
347.837	-60.18
348.049	-9.75
348.261	9.02
348.473	32.61
348.685	13.11
348.897	-4.54
349.11	-25.36
349.322	-65.95
349.534	-38.79
349.746	-32.63
349.958	-18.9
350.17	-17.59
350.382	16.45
350.594	2.43
350.806	8.09
351.018	14.37
351.23	5.85
351.442	-31.09
351.654	-49.78
351.866	-40.69
352.078	-33.84
352.29	-7.75
352.502	3.31
352.714	19.73
352.926	11.43
353.138	9.07
353.35	-1.7
353.561	3.04
353.773	-28.09
353.985	-8.15
354.197	-11.43
354.409	-6.16
354.621	-4.61
354.832	15.4
355.044	5.95
355.256	9.38
355.468	12.77
355.679	1.26
355.891	6.66
356.103	-5.2
356.314	-2.72
356.526	-0.18
356.738	-0.18
356.949	-10.05
357.161	0.36
357.373	-1.45
357.584	-13
357.796	-4.15
358.008	-5.98
358.219	19.2
358.431	9.17
358.642	16.42
358.854	25.93
359.065	11.87
359.277	-17.73
359.488	-13.74
359.7	-20.62
359.911	-45.41
360.123	-26.14
360.334	-43.49
360.546	-54.49
360.757	-74.86
360.969	-52.78
361.18	-42.07
361.391	-15.23
361.603	-27.49
361.814	2.57
362.025	-6.69
362.237	-10.91
362.448	-3.25
362.659	23.72
362.871	16.19
363.082	7.55
363.293	9.33
363.504	-17.54
363.716	-50.85
363.927	-54.46
364.138	-62.29
364.349	-69.53
364.56	-49.87
364.772	-42.66
364.983	-25.78
365.194	-20.11
365.405	-7.97
365.616	8.75
365.827	11.83
366.038	-7.83
366.25	-7.65
366.461	-41.05
366.672	-19.98
366.883	5.39
367.094	11.66
367.305	4.48
367.516	11.93
367.727	-22.31
367.938	-44.1
368.149	-45.97
368.36	-28.03
368.571	-22.09
368.781	-19.75
368.992	-32.78
369.203	-45.92
369.414	-76.93
369.625	-87.51
369.836	-75
370.047	-70.89
370.258	-56.99
370.468	-57.77
370.679	-55.06
370.89	-60.28
371.101	-38.76
371.312	-34.81
371.522	-9.34
371.733	-14.25
371.944	-9.78
372.155	-1.07
372.365	-13.46
372.576	-12.88
372.787	-5.4
372.997	-17.32
373.208	-35.23
373.419	-0.56
373.629	-35.78
373.84	-39.28
374.05	-38.16
374.261	-28.06
374.472	-47.34
374.682	7.93
374.893	6.23
375.103	33.43
375.314	30.29
375.524	15.46
375.735	7.68
375.945	10.72
376.156	-7.5
376.366	-3.32
376.577	16.67
376.787	1.51
376.997	7.17
377.208	0.23
377.418	-14.22
377.629	-15.73
377.839	-17.24
378.049	-11.41
378.26	9.39
378.47	17.7
378.68	6.34
378.89	14.11
379.101	12.35
379.311	-9.57
379.521	-27.52
379.732	-19.73
379.942	-31.24
380.152	-54.75
380.362	-35.05
380.572	-24.01
380.783	-10.6
380.993	7.64
381.203	22
381.413	29.67
381.623	31.17
381.833	24.85
382.043	6.16
382.253	2.19
382.463	-0.09
382.674	-13.36
382.884	-24.01
383.094	-17.97
383.304	-19.39
383.514	-13.38
383.724	-2.49
383.934	-7.05
384.144	-16.85
384.353	-23.03
384.563	-26.29
384.773	-19.58
384.983	-25.41
385.193	-8.91
385.403	-1.31
385.613	1.29
385.823	-7.78
386.033	6.16
386.242	-0.77
386.452	-1.14
386.662	-9.97
386.872	-0.34
387.082	-5.36
387.291	-8.84
387.501	-3.95
387.711	0.73
387.921	-9.87
388.13	-14.41
388.34	2.31
388.55	-5.97
388.759	-4.92
388.969	1.87
389.179	1.53
389.388	-5.92
389.598	1.2
389.807	-5.3
390.017	-8.44
390.227	-4.89
390.436	-6.47
390.646	-7.23
390.855	-1.23
391.065	-0.8
391.274	-3.12
391.484	-5.31
391.693	-2.83
391.903	-2.87
392.112	4.31
392.322	8.02
392.531	12.3
392.74	12.19
392.95	7.88
393.159	2.57
393.369	1.53
393.578	-0.7
393.787	-0.95
393.997	0.45
394.206	-0.06
394.415	0.43
394.625	0.57
394.834	-1.98
395.043	-0.76
395.252	1.07
395.462	1.82
395.671	2.87
395.88	3.95
396.089	4.45
396.298	2.69
396.508	3.11
396.717	3.02
396.926	3.3
397.135	3.22
397.344	3.82
397.553	3.47
397.762	4.8
397.971	4.77
398.181	4.76
398.39	4
398.599	4.38
398.808	4.13
399.017	4.6
399.226	5.87
399.435	7.47
399.644	6.72
399.853	5.6
400.062	5.17
400.27	4.11
400.479	3.31
400.688	3.08
400.897	3.42
401.106	3.7
401.315	3.67
401.524	3.78
401.733	4.24
401.941	4.78
402.15	4.83
402.359	4.76
402.568	4.94
402.777	5.31
402.985	4.97
403.194	4.75
403.403	4.81
403.612	4.51
403.82	4.11
404.029	4.02
404.238	3.91
404.446	4.1
404.655	3.99
404.864	3.93
405.072	3.75
405.281	4.03
405.489	3.76
405.698	3.82
405.906	3.87
406.115	3.9
406.324	3.82
406.532	3.96
406.741	4.21
406.949	4.12
407.158	4.19
407.366	4.17
407.574	4.09
407.783	3.98
407.991	3.96
408.2	4.11
408.408	4.11
408.617	4.05
408.825	3.91
409.033	3.94
409.242	3.97
409.45	3.93
409.658	3.86
409.867	3.98
410.075	3.89
410.283	3.66
410.491	3.64
410.7	3.6
410.908	3.64
411.116	3.96
411.324	4.04
411.533	3.94
411.741	4.25
411.949	4.2
412.157	3.87
412.365	3.9
412.573	4
412.781	3.96
412.99	3.82
413.198	4.01
413.406	3.93
413.614	3.96
413.822	3.77
414.03	3.78
414.238	3.55
414.446	3.65
414.654	3.35
414.862	3.45
415.07	3.51
415.278	3.68
415.486	3.45
415.694	3.71
415.902	3.51
416.109	3.29
416.317	3.24
416.525	3.17
416.733	3.05
416.941	3.25
417.149	3.3
417.357	3.3
417.564	3.58
417.772	3.9
417.98	3.81
418.188	3.82
418.395	3.89
418.603	4
418.811	3.57
419.019	3.47
419.226	3.82
419.434	3.76
419.642	3.39
419.849	3.5
420.057	3.5
420.265	3.34
420.472	3.23
420.68	3.35
420.887	3.29
421.095	3.46
421.302	3.32
421.51	3.46
421.717	3.53
421.925	3.68
422.132	3.36
422.34	3.16
422.547	3.16
422.755	2.98
422.962	2.91
423.17	2.97
423.377	3.15
423.585	3.09
423.792	3.12
423.999	3.2
424.207	3.24
424.414	3.47
424.621	3.45
424.829	3.4
425.036	3.4
425.243	3.49
425.451	3.24
425.658	3.05
425.865	3.24
426.072	3.14
426.28	3.34
426.487	3.35
426.694	3.56
426.901	3.4
427.108	3.42
427.315	3.23
427.523	3.51
427.73	3.47
427.937	3.4
428.144	3.27
428.351	3.16
428.558	3.17
428.765	3.15
428.972	3.09
429.179	3.26
429.386	3.47
429.593	3.11
429.8	2.98
430.007	3.28
430.214	3.35
430.421	3.22
430.628	3.18
430.835	3.08
431.042	3.01
431.249	2.97
431.456	2.93
431.662	3.06
431.869	3.26
432.076	3.21
432.283	3.22
432.49	3.22
432.697	3.19
432.903	2.98
433.11	3
433.317	3.05
433.524	3.27
433.73	3.28
433.937	3.5
434.144	3.5
434.35	3.34
434.557	3.17
434.764	3.11
434.97	3.04
435.177	3.18
435.384	3.22
435.59	3.26
435.797	3.45
436.003	3.47
436.21	3.35
436.416	3.5
436.623	3.46
436.829	3.42
437.036	3.58
437.242	3.55
437.449	3.42
437.655	3.43
437.862	3.41
438.068	3.31
438.275	3.39
438.481	3.63
438.687	3.64
438.894	3.55
439.1	3.47
439.307	3.58
439.513	3.41
439.719	3.35
439.926	3.48
440.132	3.59
440.338	3.39
440.544	3.5
440.751	3.49
440.957	3.53
441.163	3.38
441.369	3.42
441.575	3.15
441.782	3.18
441.988	2.99
442.194	3.06
442.4	3.08
442.606	3.39
442.812	3.54
443.018	3.8
443.224	3.73
443.431	3.76
443.637	3.49
443.843	3.33
444.049	3.18
444.255	3.15
444.461	3.23
444.667	3.2
444.873	3.34
445.079	3.29
445.284	3.46
445.49	3.21
445.696	3.2
445.902	3.12
446.108	3.11
446.314	3.02
446.52	3.18
446.726	3.34
446.931	3.29
447.137	3.35
447.343	3.36
447.549	3.3
447.755	3.16
447.96	3.29
448.166	3.24
448.372	3.18
448.578	3.27
448.783	3.3
448.989	3.27
449.195	3.5
449.4	3.52
449.606	3.43
449.812	3.34
450.017	3.34
450.223	3.16
450.428	3.14
450.634	3.3
450.84	3.52
451.045	3.47
451.251	3.43
451.456	3.72
451.662	3.71
451.867	3.66
452.073	3.6
452.278	3.74
452.483	3.74
452.689	3.6
452.894	3.57
453.1	3.69
453.305	3.56
453.51	3.36
453.716	3.32
453.921	3.32
454.127	3.19
454.332	3.04
454.537	2.98
454.742	3.04
454.948	3.07
455.153	3.15
455.358	3.36
455.563	3.56
455.769	3.73
455.974	3.59
456.179	3.48
456.384	3.46
456.589	3.35
456.795	3.07
457	3.14
457.205	3.31
457.41	3.21
457.615	3.17
457.82	3.28
458.025	3.32
458.23	3.18
458.435	3.27
458.64	3.18
458.845	3.26
459.05	3.27
459.255	3.34
459.46	3.32
459.665	3.37
459.87	3.4
460.075	3.37
460.28	3.47
460.485	3.62
460.69	3.67
460.895	3.4
461.099	3.3
461.304	3.41
461.509	3.33
461.714	3.26
461.919	3.51
462.123	3.49
462.328	3.42
462.533	3.3
462.738	3.37
462.942	3.26
463.147	3.34
463.352	3.33
