Data from Ofra_2a_PS_OGT35_Reflection_3.txt Node
Date: Tue Jul 20 09:29:54 EDT 2021
User: Adam
Spectrometer: FLMT01687
Trigger mode: 0
Integration Time (sec): 9.450000E-1
Scans to average: 3
Electric dark correction enabled: true
Nonlinearity correction enabled: false
Boxcar width: 3
XAxis mode: Wavelengths
Number of Pixels in Spectrum: 3648
>>>>>Begin Spectral Data<<<<<
179.494	467.46
179.716	315.76
179.937	320.33
180.158	1326.95
180.38	-534.01
180.601	-156.23
180.823	-88.01
181.044	-38.35
181.265	-87.68
181.486	-1.46
181.708	-222.83
181.929	-15.47
182.15	-286.93
182.372	17.42
182.593	19.61
182.814	330.39
183.035	195.76
183.257	49.8
183.478	30.03
183.699	35.93
183.92	29.69
184.141	22.63
184.363	5.95
184.584	9.79
184.805	29.51
185.026	7.46
185.247	0.17
185.468	-6.8
185.689	4.98
185.91	10.01
186.132	2.23
186.353	-29.25
186.574	-12.54
186.795	-23.71
187.016	-18.44
187.237	-20.86
187.458	-40.2
187.679	-52.9
187.9	-36.22
188.121	-11.56
188.342	19.94
188.563	9.15
188.784	3.29
189.005	12.31
189.226	14.92
189.447	14.17
189.667	7.73
189.888	6.37
190.109	8.6
190.33	3.75
190.551	-8.46
190.772	-13.27
190.993	3.84
191.214	-2.41
191.434	-9.79
191.655	9.18
191.876	14.32
192.097	24.83
192.318	27.29
192.538	14.74
192.759	25.02
192.98	15
193.201	21.08
193.421	17.04
193.642	11.55
193.863	-0.47
194.083	17.29
194.304	-2.05
194.525	29.11
194.745	-0.82
194.966	11.2
195.187	16.19
195.407	22.08
195.628	17.76
195.848	15.6
196.069	12
196.29	14.86
196.51	11.39
196.731	10.29
196.951	-0.76
197.172	-13.51
197.392	7.97
197.613	-13.51
197.833	-19
198.054	-15.31
198.274	-26.7
198.495	-22.55
198.715	-11.95
198.936	-31.17
199.156	-8.13
199.377	-1.53
199.597	-12.86
199.817	-9.58
200.038	-10.42
200.258	-18.99
200.479	-16.89
200.699	-13.94
200.919	-21.25
201.14	-2.72
201.36	2.55
201.58	20.83
201.801	24.77
202.021	28.06
202.241	25.31
202.461	37.88
202.682	33.2
202.902	31.91
203.122	26.52
203.342	18.65
203.563	16.52
203.783	13.88
204.003	4.7
204.223	14.7
204.443	7.92
204.663	10
204.884	16.35
205.104	10.97
205.324	11.12
205.544	9.04
205.764	3.5
205.984	17.3
206.204	14.69
206.424	22.04
206.644	21.21
206.864	28.36
207.084	48.57
207.304	39.49
207.525	39.98
207.745	37.16
207.964	33.19
208.184	30.63
208.404	25.62
208.624	-7.88
208.844	-6.43
209.064	-6.33
209.284	-0.12
209.504	-6.29
209.724	-33.27
209.944	-32.51
210.164	-8.82
210.384	-1.47
210.604	-8.14
210.823	0.97
211.043	9.35
211.263	43.23
211.483	43.33
211.703	47.11
211.922	43.82
212.142	43.11
212.362	32.94
212.582	33.84
212.801	22.14
213.021	9.13
213.241	-4.18
213.461	-11.1
213.68	-1.75
213.9	10.65
214.12	1.5
214.339	6.81
214.559	19.29
214.779	24.22
214.998	29.23
215.218	33.24
215.438	40.2
215.657	39.91
215.877	38.63
216.096	30.31
216.316	26.64
216.535	29.76
216.755	4.71
216.974	-11.48
217.194	10.82
217.413	26.51
217.633	26.34
217.852	30.64
218.072	8.89
218.291	37.74
218.511	42.45
218.73	17.54
218.95	18.14
219.169	30.33
219.389	25.85
219.608	43.33
219.827	37.44
220.047	38.54
220.266	50.07
220.485	34.5
220.705	25
220.924	36.61
221.143	24.76
221.363	30.73
221.582	32.83
221.801	29.33
222.021	20.45
222.24	13.59
222.459	1.62
222.678	-8.69
222.897	-17.56
223.117	-23.34
223.336	-15.77
223.555	-16.29
223.774	-9.36
223.993	7.19
224.213	12.1
224.432	14
224.651	24.47
224.87	21.92
225.089	33.63
225.308	29
225.527	21.03
225.746	20.17
225.965	21.24
226.184	6.53
226.404	-1.41
226.623	4.83
226.842	19.53
227.061	23.95
227.28	36.46
227.499	30.19
227.718	34.73
227.936	29.11
228.155	26.43
228.374	25.78
228.593	29.01
228.812	30.49
229.031	31.03
229.25	36.5
229.469	50.1
229.688	51.99
229.907	42.86
230.125	31.09
230.344	21.94
230.563	24.04
230.782	14.34
231.001	9.27
231.22	1.14
231.438	9.9
231.657	13.55
231.876	22.54
232.095	19.55
232.313	25.49
232.532	28.86
232.751	31.88
232.969	38.4
233.188	43.7
233.407	26.92
233.625	35.89
233.844	35.8
234.063	29.32
234.281	23.97
234.5	18.43
234.719	5.38
234.937	11.7
235.156	7.84
235.374	-3.93
235.593	-7.35
235.811	-10.74
236.03	-17.73
236.249	1.47
236.467	1.11
236.686	-0.25
236.904	5.96
237.123	15.21
237.341	11.36
237.559	9.98
237.778	15.66
237.996	15.13
238.215	6.56
238.433	17.11
238.652	20.21
238.87	27.27
239.088	22
239.307	17.95
239.525	12.62
239.743	16.66
239.962	5.75
240.18	10.73
240.398	12.7
240.617	21.8
240.835	20.27
241.053	27.97
241.271	35.67
241.49	26.38
241.708	18.15
241.926	2.57
242.144	-3.97
242.363	-17.36
242.581	-18.67
242.799	-28.19
243.017	-10.92
243.235	-18.7
243.453	-10.79
243.672	-11.41
243.89	10.16
244.108	14.21
244.326	5.95
244.544	8.94
244.762	14.59
244.98	21.13
245.198	14.62
245.416	-1.28
245.634	3.78
245.852	18.34
246.07	13.96
246.288	1.22
246.506	-9.85
246.724	4.1
246.942	16.02
247.16	15.15
247.378	-7.58
247.596	-2.16
247.814	2.86
248.032	5.53
248.25	-5.36
248.468	8.09
248.685	8.36
248.903	23.73
249.121	23.32
249.339	24.15
249.557	22.56
249.775	22.22
249.992	13.55
250.21	6.6
250.428	9.99
250.646	9.01
250.863	11.59
251.081	16.96
251.299	25.95
251.517	20.77
251.734	26.9
251.952	26.91
252.17	14.26
252.387	19.2
252.605	18.8
252.823	-2.75
253.04	-9.31
253.258	-3.79
253.475	-6.04
253.693	5.32
253.911	-3.87
254.128	-0.41
254.346	11.07
254.563	7.27
254.781	4.85
254.998	15.61
255.216	21.3
255.433	21.09
255.651	17.79
255.868	22.69
256.086	32.05
256.303	32.17
256.521	13.44
256.738	8.71
256.956	2.65
257.173	6.95
257.39	3.47
257.608	5.46
257.825	-1.05
258.043	13.1
258.26	5.2
258.477	18.44
258.695	20.1
258.912	27.89
259.129	28.69
259.346	33.61
259.564	21.6
259.781	31.04
259.998	28.23
260.216	29.21
260.433	19.56
260.65	18.29
260.867	5.8
261.084	17.63
261.302	11.2
261.519	9.76
261.736	12.21
261.953	19.62
262.17	29.54
262.387	35.55
262.604	15.92
262.822	25.83
263.039	18.25
263.256	13.52
263.473	2.46
263.69	-17.67
263.907	-18.67
264.124	-7.41
264.341	-13.49
264.558	0.14
264.775	-3.96
264.992	-3.66
265.209	12.37
265.426	21.58
265.643	21.99
265.86	19.37
266.077	15.15
266.294	19.82
266.51	28.03
266.727	14.2
266.944	-0.11
267.161	-6.52
267.378	-13.18
267.595	-19.17
267.812	-27.93
268.028	-26.34
268.245	-18.43
268.462	-6.83
268.679	5.19
268.896	7.55
269.112	21.59
269.329	22.3
269.546	14.28
269.763	20.67
269.979	11.91
270.196	14.24
270.413	11.37
270.629	-1.51
270.846	5.27
271.063	13.19
271.279	8.32
271.496	6.97
271.712	-2.61
271.929	6.54
272.146	14.88
272.362	1.13
272.579	-9.86
272.795	-7.55
273.012	-4.57
273.228	0.58
273.445	-4.01
273.661	-2.63
273.878	8.37
274.094	14.28
274.311	9.24
274.527	11.01
274.744	3.19
274.96	3.33
275.177	-1.36
275.393	-5.71
275.609	-3.92
275.826	1.58
276.042	11.16
276.259	21.14
276.475	19.47
276.691	24.81
276.908	24.69
277.124	21.61
277.34	16.28
277.557	10.31
277.773	4.23
277.989	11.89
278.205	-8.96
278.422	-11
278.638	-8.67
278.854	-11.98
279.07	-17.17
279.286	-18.09
279.503	-22.9
279.719	6.35
279.935	2.97
280.151	7.12
280.367	14.21
280.583	10.93
280.799	16.19
281.016	17.32
281.232	5.25
281.448	-2.45
281.664	-5.54
281.88	2.49
282.096	8.74
282.312	-2.37
282.528	-24.46
282.744	-28.88
282.96	-8.65
283.176	-2.25
283.392	3.52
283.608	6.76
283.824	8.16
284.04	23.09
284.256	29.33
284.471	30.69
284.687	26
284.903	20.27
285.119	8.26
285.335	12.37
285.551	18.8
285.767	17.31
285.982	9.58
286.198	7.96
286.414	12.16
286.63	17.05
286.846	17.95
287.061	14.71
287.277	22.18
287.493	25.34
287.709	26.52
287.924	24.36
288.14	25.72
288.356	23.6
288.571	13.57
288.787	12.99
289.003	17.5
289.218	9.45
289.434	8.2
289.65	4.85
289.865	7.8
290.081	13.16
290.296	7.06
290.512	10.13
290.727	11.2
290.943	4.81
291.159	7.64
291.374	13.81
291.59	15.37
291.805	22.84
292.021	11.24
292.236	12.22
292.451	14.57
292.667	10.76
292.882	-0.01
293.098	-10.96
293.313	-26.2
293.529	-24.52
293.744	-24.89
293.959	-11.49
294.175	-13.04
294.39	-17.41
294.605	-10.35
294.821	1.39
295.036	2.13
295.251	-1.09
295.467	-13.36
295.682	-0.59
295.897	2.53
296.112	-0.73
296.328	1.54
296.543	-1.1
296.758	7.69
296.973	13.87
297.188	12.16
297.404	20.85
297.619	28.52
297.834	33.25
298.049	33.77
298.264	26.42
298.479	14.46
298.694	15.11
298.909	19.49
299.125	15.57
299.34	14.94
299.555	11
299.77	11.89
299.985	12.7
300.2	8.43
300.415	1.61
300.63	-2.29
300.845	-8.29
301.06	-4.58
301.275	-3.2
301.49	-3.7
301.704	-6.74
301.919	-9.87
302.134	-5.69
302.349	-9.23
302.564	-21.5
302.779	-20.19
302.994	-20.28
303.209	-17.42
303.423	-12.66
303.638	-9.87
303.853	8.07
304.068	19.21
304.283	14.03
304.497	17.46
304.712	15.1
304.927	7.91
305.142	8.64
305.356	4.05
305.571	6.82
305.786	1.57
306	10.2
306.215	11.61
306.43	24.67
306.644	27.53
306.859	19.23
307.074	10.6
307.288	21.28
307.503	17.84
307.717	21.2
307.932	19.32
308.147	12.03
308.361	13.98
308.576	16.9
308.79	9.47
309.005	13.32
309.219	7.74
309.434	6.56
309.648	4.45
309.863	6.95
310.077	7.99
310.292	11.32
310.506	11.63
310.72	11.2
310.935	8.12
311.149	6.66
311.364	9.76
311.578	5.46
311.792	2.02
312.007	-2.45
312.221	1.15
312.435	2.4
312.649	19.24
312.864	12.44
313.078	22.31
313.292	30.11
313.507	32.36
313.721	31.71
313.935	51.43
314.149	35.27
314.363	42.38
314.578	43.52
314.792	35.98
315.006	35.19
315.22	38.61
315.434	22.44
315.648	12.94
315.862	5.04
316.077	0.5
316.291	3.57
316.505	5.5
316.719	-16.22
316.933	-4.6
317.147	2
317.361	12.95
317.575	19.08
317.789	25.25
318.003	16.75
318.217	32.35
318.431	20.9
318.645	20.55
318.859	8.32
319.073	6.94
319.287	10.06
319.5	10.91
319.714	7.45
319.928	17.56
320.142	13.9
320.356	29.53
320.57	27.38
320.784	20.62
320.997	21.22
321.211	22.86
321.425	12.6
321.639	21.31
321.853	6.09
322.066	3.9
322.28	10.4
322.494	7.52
322.707	6.08
322.921	8.77
323.135	11.25
323.349	23.08
323.562	27.3
323.776	24.68
323.989	26.71
324.203	27.97
324.417	26.74
324.63	15.54
324.844	0.91
325.057	8.65
325.271	-0.28
325.485	0.86
325.698	8.01
325.912	18.05
326.125	23.18
326.339	38.76
326.552	25.35
326.766	29.66
326.979	31.72
327.193	13.42
327.406	4.42
327.619	-15.61
327.833	-28.83
328.046	-17.77
328.26	-28.59
328.473	-33.38
328.686	-16.94
328.9	-19.42
329.113	-0.65
329.326	7.4
329.54	5.87
329.753	17.86
329.966	15.84
330.179	22.07
330.393	22.34
330.606	17.86
330.819	20.63
331.032	21.4
331.246	21.48
331.459	25.58
331.672	22.75
331.885	15.47
332.098	9.47
332.311	-10.89
332.525	-2.18
332.738	0.34
332.951	4.27
333.164	-3.46
333.377	-11.95
333.59	0.32
333.803	6.52
334.016	2.31
334.229	-3.03
334.442	12.95
334.655	19.81
334.868	31.55
335.081	34.21
335.294	34.3
335.507	38.81
335.72	24.26
335.933	15.89
336.146	15.07
336.359	13.2
336.572	3.2
336.785	2.96
336.997	-21.06
337.21	-7.22
337.423	-12.76
337.636	-13.25
337.849	-19.4
338.062	-12.64
338.274	-11.56
338.487	-2.34
338.7	-1.66
338.913	-5.29
339.125	-11.02
339.338	4.59
339.551	4.41
339.763	7.91
339.976	10.83
340.189	6.79
340.402	3.19
340.614	7.23
340.827	-7.86
341.039	-7.87
341.252	-1.32
341.465	-4.42
341.677	-3.17
341.89	6.46
342.102	13.47
342.315	22.88
342.527	25.56
342.74	15.29
342.952	19.93
343.165	23.21
343.377	26.11
343.59	23.78
343.802	21.08
344.015	17.68
344.227	19.85
344.44	9.8
344.652	5.69
344.864	1.87
345.077	-4.83
345.289	-3.26
345.502	3.41
345.714	-1.5
345.926	4.36
346.139	12.52
346.351	-3.67
346.563	-5.63
346.775	-14.88
346.988	-17.72
347.2	-7.36
347.412	-7.76
347.624	-7.35
347.837	3.4
348.049	12.77
348.261	19.67
348.473	15.5
348.685	14.97
348.897	22.21
349.11	19.29
349.322	15.8
349.534	1.02
349.746	5.42
349.958	5.55
350.17	10.8
350.382	7.85
350.594	3.35
350.806	8.69
351.018	24.51
351.23	27.42
351.442	28.54
351.654	26.61
351.866	29.09
352.078	26.1
352.29	27.86
352.502	26.05
352.714	23.41
352.926	21.87
353.138	15.07
353.35	11.81
353.561	13.97
353.773	11.54
353.985	8.34
354.197	0.8
354.409	6.21
354.621	9.02
354.832	1.29
355.044	12.08
355.256	8.53
355.468	11.21
355.679	12.02
355.891	9.03
356.103	14.01
356.314	27.05
356.526	13.82
356.738	17.49
356.949	24.51
357.161	26.4
357.373	26.98
357.584	27.3
357.796	17.74
358.008	31.23
358.219	36.2
358.431	29.45
358.642	23.64
358.854	26.47
359.065	17.5
359.277	17.05
359.488	9.28
359.7	5.73
359.911	-3.18
360.123	5.82
360.334	5.57
360.546	3.57
360.757	9.31
360.969	15.65
361.18	10.32
361.391	15.54
361.603	19.34
361.814	18.38
362.025	19.53
362.237	14.11
362.448	9.45
362.659	2.84
362.871	4.11
363.082	-3.5
363.293	4.83
363.504	7.76
363.716	16.2
363.927	15
364.138	22.4
364.349	19.9
364.56	22.79
364.772	16.41
364.983	9.63
365.194	4.27
365.405	6.17
365.616	0.54
365.827	1.86
366.038	3.42
366.25	12.46
366.461	23.51
366.672	22.72
366.883	27.64
367.094	32.27
367.305	31.68
367.516	29.32
367.727	21.55
367.938	19.97
368.149	14.73
368.36	10.24
368.571	11.19
368.781	6.83
368.992	7.53
369.203	5
369.414	0.37
369.625	5.32
369.836	3.62
370.047	3.73
370.258	-0.33
370.468	-0.72
370.679	-2.86
370.89	5.36
371.101	3.12
371.312	3.27
371.522	1.9
371.733	-0.07
371.944	-2.38
372.155	-3.76
372.365	-10.86
372.576	-11.16
372.787	-12.12
372.997	-11.64
373.208	-0.13
373.419	0.51
373.629	7
373.84	2.63
374.05	2.17
374.261	8.12
374.472	5.18
374.682	-4.38
374.893	-1.66
375.103	-6.91
375.314	-3.1
375.524	2.55
375.735	0.51
375.945	5.61
376.156	9.8
376.366	11.31
376.577	16.31
376.787	21.81
376.997	21.89
377.208	16.54
377.418	7.32
377.629	12.01
377.839	10.36
378.049	14.4
378.26	13.47
378.47	15.08
378.68	13.51
378.89	9.89
379.101	3.72
379.311	-1.36
379.521	-1.56
379.732	-5.83
379.942	-6.34
380.152	-1.58
380.362	3
380.572	5.52
380.783	9.03
380.993	6.96
381.203	1.75
381.413	2.89
381.623	2.09
381.833	2.04
382.043	-1.09
382.253	2.15
382.463	-0.6
382.674	9.95
382.884	4.57
383.094	6.74
383.304	2.21
383.514	7.81
383.724	1.87
383.934	4.14
384.144	2.88
384.353	5.16
384.563	-1.01
384.773	4.98
384.983	3.28
385.193	5.94
385.403	3.16
385.613	-2.41
385.823	-2.54
386.033	0.79
386.242	0.3
386.452	-2.24
386.662	-0.14
386.872	-0.07
387.082	3.49
387.291	1.5
387.501	3.65
387.711	4.32
387.921	4.6
388.13	1.09
388.34	0.62
388.55	2.3
388.759	3.76
388.969	-1.52
389.179	-0.94
389.388	1.14
389.598	1.8
389.807	1.74
390.017	1.9
390.227	1.19
390.436	4.25
390.646	4.6
390.855	4.59
391.065	4.7
391.274	5.23
391.484	4.77
391.693	5.06
391.903	4.91
392.112	2.72
392.322	3.85
392.531	4.23
392.74	3.27
392.95	3.34
393.159	3.95
393.369	4.58
393.578	5.74
393.787	5.4
393.997	6.75
394.206	6.91
394.415	6.24
394.625	5.52
394.834	4.63
395.043	4.38
395.252	4.15
395.462	3.48
395.671	4.41
395.88	4.41
396.089	4.32
396.298	4.35
396.508	4.1
396.717	3.86
396.926	3.38
397.135	2.62
397.344	2.74
397.553	3.45
397.762	3.43
397.971	3.42
398.181	2.99
398.39	3.48
398.599	4.24
398.808	4.16
399.017	4.21
399.226	4.85
399.435	5
399.644	5.26
399.853	5.07
400.062	4.61
400.27	4.72
400.479	4.64
400.688	4.57
400.897	4.8
401.106	5.02
401.315	5
401.524	5.21
401.733	5.03
401.941	4.82
402.15	4.53
402.359	4.25
402.568	3.97
402.777	3.79
402.985	3.68
403.194	3.72
403.403	3.56
403.612	3.5
403.82	3.62
404.029	3.74
404.238	4.01
404.446	3.95
404.655	3.92
404.864	4.07
405.072	4.2
405.281	4.01
405.489	4.06
405.698	3.9
405.906	3.92
406.115	4.05
406.324	3.97
406.532	3.95
406.741	4.11
406.949	3.96
407.158	3.98
407.366	3.97
407.574	3.95
407.783	3.93
407.991	3.86
408.2	3.83
408.408	3.9
408.617	3.85
408.825	3.86
409.033	3.85
409.242	3.8
409.45	3.77
409.658	3.71
409.867	3.65
410.075	3.6
410.283	3.56
410.491	3.51
410.7	3.56
410.908	3.63
411.116	3.56
411.324	3.58
411.533	3.56
411.741	3.51
411.949	3.57
412.157	3.64
412.365	3.62
412.573	3.7
412.781	3.71
412.99	3.82
413.198	3.8
413.406	3.74
413.614	3.71
413.822	3.69
414.03	3.63
414.238	3.59
414.446	3.45
414.654	3.55
414.862	3.45
415.07	3.4
415.278	3.3
415.486	3.4
415.694	3.33
415.902	3.37
416.109	3.35
416.317	3.36
416.525	3.46
416.733	3.52
416.941	3.42
417.149	3.53
417.357	3.58
417.564	3.48
417.772	3.57
417.98	3.44
418.188	3.34
418.395	3.34
418.603	3.2
418.811	3.13
419.019	3.19
419.226	3.17
419.434	3.14
419.642	3.13
419.849	3.14
420.057	3.24
420.265	3.26
420.472	3.19
420.68	3.18
420.887	3.26
421.095	3.38
421.302	3.44
421.51	3.4
421.717	3.38
421.925	3.29
422.132	3.22
422.34	3.14
422.547	3.1
422.755	3.08
422.962	2.97
423.17	2.95
423.377	3.11
423.585	3.12
423.792	3.12
423.999	3.15
424.207	3.04
424.414	3.19
424.621	3.19
424.829	3.12
425.036	3.08
425.243	3.14
425.451	3.11
425.658	3.19
425.865	3.06
426.072	3.09
426.28	3.07
426.487	3.08
426.694	2.96
426.901	2.91
427.108	2.86
427.315	2.89
427.523	2.87
427.73	3.01
427.937	3.06
428.144	3.16
428.351	3.32
428.558	3.3
428.765	3.26
428.972	3.24
429.179	3.11
429.386	3.23
429.593	3.22
429.8	3.13
430.007	3.26
430.214	3.37
430.421	3.44
430.628	3.4
430.835	3.3
431.042	3.34
431.249	3.35
431.456	3.35
431.662	3.32
431.869	3.33
432.076	3.4
432.283	3.33
432.49	3.3
432.697	3.27
432.903	3.26
433.11	3.26
433.317	3.32
433.524	3.28
433.73	3.39
433.937	3.39
434.144	3.49
434.35	3.48
434.557	3.44
434.764	3.38
434.97	3.46
435.177	3.44
435.384	3.52
435.59	3.43
435.797	3.47
436.003	3.51
436.21	3.52
436.416	3.51
436.623	3.56
436.829	3.52
437.036	3.55
437.242	3.56
437.449	3.67
437.655	3.65
437.862	3.71
438.068	3.74
438.275	3.79
438.481	3.83
438.687	3.88
438.894	3.85
439.1	3.93
439.307	3.94
439.513	3.9
439.719	3.93
439.926	3.96
440.132	3.89
440.338	3.85
440.544	3.81
440.751	3.83
440.957	3.79
441.163	3.77
441.369	3.76
441.575	3.77
441.782	3.79
441.988	3.81
442.194	3.81
442.4	3.89
442.606	3.92
442.812	3.9
443.018	3.94
443.224	3.96
443.431	4.01
443.637	3.97
443.843	3.96
444.049	3.91
444.255	3.93
444.461	3.93
444.667	3.95
444.873	3.95
445.079	3.99
445.284	3.97
445.49	3.97
445.696	4.01
445.902	4.04
446.108	4
446.314	4.05
446.52	4.1
446.726	4.13
446.931	4.2
447.137	4.21
447.343	4.21
447.549	4.24
447.755	4.16
447.96	4.1
448.166	4.09
448.372	4.09
448.578	4.14
448.783	4.09
448.989	4.1
449.195	4.16
449.4	4.2
449.606	4.24
449.812	4.23
450.017	4.19
450.223	4.24
450.428	4.29
450.634	4.27
450.84	4.21
451.045	4.22
451.251	4.26
451.456	4.24
451.662	4.23
451.867	4.21
452.073	4.28
452.278	4.32
452.483	4.29
452.689	4.23
452.894	4.27
453.1	4.27
453.305	4.28
453.51	4.24
453.716	4.26
453.921	4.29
454.127	4.3
454.332	4.25
454.537	4.31
454.742	4.27
454.948	4.3
455.153	4.36
455.358	4.42
455.563	4.49
455.769	4.56
455.974	4.48
456.179	4.52
456.384	4.53
456.589	4.52
456.795	4.45
457	4.43
457.205	4.43
457.41	4.5
457.615	4.55
457.82	4.59
458.025	4.61
458.23	4.65
458.435	4.61
458.64	4.71
458.845	4.68
459.05	4.68
459.255	4.65
459.46	4.62
459.665	4.66
459.87	4.74
460.075	4.67
460.28	4.73
460.485	4.75
460.69	4.73
460.895	4.78
461.099	4.79
461.304	4.76
461.509	4.72
461.714	4.69
461.919	4.68
462.123	4.77
462.328	4.78
462.533	4.81
462.738	4.8
462.942	4.88
463.147	4.87
463.352	4.91
463.556	4.9
463.761	4.87
463.966	4.89
464.17	4.9
464.375	4.89
464.58	4.97
464.784	4.94
464.989	4.93
465.193	4.93
465.398	4.9
465.602	4.92
465.807	4.93
466.011	4.93
466.216	4.97
466.42	4.99
466.625	5.05
466.829	5.12
467.034	5.11
467.238	5.13
467.443	5.15
467.647	5.16
467.851	5.16
468.056	5.12
468.26	5.09
468.464	5.13
468.669	5.19
468.873	5.14
469.077	5.13
469.282	5.16
469.486	5.19
469.69	5.17
469.894	5.19
470.099	5.2
470.303	5.26
470.507	5.25
470.711	5.19
470.915	5.25
471.119	5.31
