Data from Ofra_PS_T2_1A_8CX24_Reflection_2.txt Node
Date: Wed Jul 21 18:14:19 EDT 2021
User: Adam
Spectrometer: FLMT01687
Trigger mode: 0
Integration Time (sec): 1.100000E0
Scans to average: 2
Electric dark correction enabled: true
Nonlinearity correction enabled: false
Boxcar width: 2
XAxis mode: Wavelengths
Number of Pixels in Spectrum: 3648
>>>>>Begin Spectral Data<<<<<
179.494	512
179.716	599.53
179.937	557.46
180.158	505.25
180.38	766.25
180.601	377.35
180.823	118.67
181.044	181.52
181.265	420.59
181.486	146.11
181.708	89.15
181.929	267.35
182.15	170.42
182.372	212.16
182.593	99.65
182.814	45.09
183.035	75.83
183.257	72.42
183.478	-41.91
183.699	17.3
183.92	7.55
184.141	2.46
184.363	-32.77
184.584	26.98
184.805	26.9
185.026	51.37
185.247	49.04
185.468	32.94
185.689	34.47
185.91	51.24
186.132	52.48
186.353	70.16
186.574	133.6
186.795	105.09
187.016	59.59
187.237	44.67
187.458	5.02
187.679	8.64
187.9	2.35
188.121	0.65
188.342	-23.38
188.563	30.31
188.784	30.09
189.005	35.48
189.226	101.13
189.447	120.93
189.667	73.3
189.888	-173.89
190.109	-925.97
190.33	-556.77
190.551	-1111.5
190.772	-194.43
190.993	-110.74
191.214	-73.14
191.434	-42.38
191.655	4.17
191.876	-61.63
192.097	-121.5
192.318	-122.13
192.538	-228.45
192.759	-121.67
192.98	13.64
193.201	50.85
193.421	54.39
193.642	64.77
193.863	61.78
194.083	29.32
194.304	26.3
194.525	13.08
194.745	4.33
194.966	7.01
195.187	-9.51
195.407	-37.61
195.628	-87.15
195.848	-111.21
196.069	-84.23
196.29	-49.73
196.51	-52.95
196.731	-25.45
196.951	-11.57
197.172	-60.39
197.392	-98.17
197.613	-75.44
197.833	-111
198.054	-97.33
198.274	-42.78
198.495	-46.05
198.715	-32.44
198.936	-55.06
199.156	-41.81
199.377	-127.69
199.597	-134.95
199.817	-108.63
200.038	-34.13
200.258	-77.75
200.479	-25.2
200.699	16.08
200.919	12.11
201.14	-11.66
201.36	-20.6
201.58	20
201.801	48.1
202.021	17.72
202.241	23.93
202.461	25.71
202.682	-46.39
202.902	-101.2
203.122	-51.99
203.342	-41.08
203.563	-2.53
203.783	28.01
204.003	-1.41
204.223	5.22
204.443	36.45
204.663	3.7
204.884	12.29
205.104	50
205.324	77.47
205.544	70.12
205.764	78.62
205.984	68.47
206.204	53.34
206.424	37.76
206.644	22.03
206.864	14.88
207.084	-39.02
207.304	-27.38
207.525	-186.25
207.745	-94.37
207.964	-46.6
208.184	-39.5
208.404	-70.53
208.624	-62.04
208.844	-81.19
209.064	-342.63
209.284	-406.99
209.504	-205.25
209.724	-34.02
209.944	-14.56
210.164	20.13
210.384	35.79
210.604	44.07
210.823	-6.71
211.043	-19.93
211.263	-15.31
211.483	-4.64
211.703	-69.72
211.922	-45.28
212.142	18.7
212.362	23.62
212.582	-4.22
212.801	11.63
213.021	-6.13
213.241	-23.13
213.461	-31.78
213.68	-38.4
213.9	-14.4
214.12	0.09
214.339	-47.06
214.559	-36.51
214.779	14.75
214.998	26.78
215.218	3.07
215.438	20.15
215.657	8.96
215.877	-22.27
216.096	-22.41
216.316	-6.84
216.535	-20.55
216.755	-14.71
216.974	-39.04
217.194	-57.14
217.413	-88.4
217.633	-97.96
217.852	-166.79
218.072	-76.46
218.291	-40.64
218.511	2.35
218.73	-8.64
218.95	-8.7
219.169	-21.81
219.389	-64.33
219.608	-55.06
219.827	-45.08
220.047	-44.72
220.266	-31.99
220.485	-15.33
220.705	-2.34
220.924	-5.55
221.143	36.41
221.363	33.3
221.582	37.15
221.801	45.82
222.021	53.55
222.24	-6.15
222.459	25.99
222.678	18.76
222.897	-25
223.117	-80.07
223.336	-47.31
223.555	-40.43
223.774	7.6
223.993	19.6
224.213	86.48
224.432	68.35
224.651	75.31
224.87	34.21
225.089	51.46
225.308	28.8
225.527	33.5
225.746	37.54
225.965	40.92
226.184	-3.11
226.404	18
226.623	1.4
226.842	-12.11
227.061	-3.53
227.28	7.5
227.499	-12.95
227.718	10.53
227.936	1.44
228.155	26.44
228.374	17.33
228.593	26.3
228.812	38.88
229.031	45.19
229.25	-6.93
229.469	6.29
229.688	19.64
229.907	19.5
230.125	30.05
230.344	45.59
230.563	55.33
230.782	49.36
231.001	-12.2
231.22	-12.52
231.438	0.52
231.657	7.21
231.876	5.79
232.095	47.04
232.313	48.11
232.532	57.29
232.751	4.13
232.969	-17.48
233.188	-97.5
233.407	-29.19
233.625	-28
233.844	-9.42
234.063	5.56
234.281	25.82
234.5	9.35
234.719	14.63
234.937	21.14
235.156	25.03
235.374	17.85
235.593	14.42
235.811	17.93
236.03	12.12
236.249	-30.25
236.467	-8.61
236.686	10.15
236.904	15.6
237.123	6.11
237.341	14.11
237.559	8.06
237.778	-13.19
237.996	-34.19
238.215	-2.23
238.433	15.65
238.652	21.8
238.87	14.11
239.088	26.34
239.307	21.49
239.525	2.62
239.743	-16.21
239.962	-9.48
240.18	-22.56
240.398	-62.28
240.617	-61.05
240.835	-49.51
241.053	-15.06
241.271	7.04
241.49	24.66
241.708	1.35
241.926	-12.2
242.144	-8.04
242.363	-25.14
242.581	-12.31
242.799	3.61
243.017	22.73
243.235	-5.26
243.453	-10.02
243.672	-22.63
243.89	-8.19
244.108	-15.9
244.326	14.9
244.544	9.25
244.762	23.17
244.98	29.37
245.198	33.49
245.416	10.19
245.634	18.42
245.852	1.76
246.07	-5.56
246.288	-10.31
246.506	-43.69
246.724	-25.4
246.942	-13.9
247.16	16.2
247.378	20.76
247.596	52.81
247.814	52.53
248.032	29.18
248.25	25.09
248.468	21.2
248.685	26.39
248.903	31.99
249.121	36.26
249.339	3.53
249.557	-10.7
249.775	-5.79
249.992	-64.99
250.21	-63.58
250.428	-37.38
250.646	-50.27
250.863	-69.53
251.081	-25.62
251.299	1.66
251.517	18.65
251.734	5.11
251.952	1.35
252.17	-9.28
252.387	-11.96
252.605	-21.58
252.823	-5.19
253.04	14.28
253.258	42.79
253.475	40.33
253.693	47.47
253.911	53.38
254.128	42.18
254.346	23.37
254.563	7.59
254.781	-10.77
254.998	-48.86
255.216	-48.38
255.433	-15.34
255.651	29.45
255.868	35.66
256.086	66.49
256.303	44.71
256.521	32.08
256.738	8.31
256.956	-12.96
257.173	-37.37
257.39	-32.49
257.608	-78.28
257.825	0.76
258.043	44
258.26	38.86
258.477	59.87
258.695	70.87
258.912	4.92
259.129	17.99
259.346	1.26
259.564	-30.68
259.781	-39.71
259.998	10.9
260.216	6.5
260.433	27.63
260.65	32.59
260.867	37.98
261.084	8.14
261.302	-0.6
261.519	-1.5
261.736	-46.43
261.953	-70.28
262.17	-25.7
262.387	-71.71
262.604	-91.47
262.822	-65.79
263.039	-42.22
263.256	-93.07
263.473	-51.07
263.69	-26.75
263.907	10.09
264.124	35.6
264.341	29.97
264.558	26.4
264.775	23.96
264.992	5.56
265.209	-10.59
265.426	9.85
265.643	13.96
265.86	30.01
266.077	40.73
266.294	35.28
266.51	20.68
266.727	20.15
266.944	7.7
267.161	7.1
267.378	11.66
267.595	30.35
267.812	11.45
268.028	3.81
268.245	21.55
268.462	7.26
268.679	3.92
268.896	39.46
269.112	45.65
269.329	37.32
269.546	44.5
269.763	36.21
269.979	10.8
270.196	9.43
270.413	-14.31
270.629	-44.9
270.846	-54.68
271.063	-39.51
271.279	-70.47
271.496	-71.77
271.712	-35.47
271.929	-26.41
272.146	-28.13
272.362	-17.91
272.579	30.78
272.795	47.97
273.012	53.14
273.228	41.74
273.445	41.05
273.661	5.92
273.878	-52.17
274.094	-49.14
274.311	-67.48
274.527	-7.26
274.744	-7.74
274.96	4.24
275.177	12.93
275.393	30.23
275.609	27.45
275.826	37.06
276.042	30.04
276.259	12.23
276.475	24.35
276.691	9.93
276.908	-1.35
277.124	15.43
277.34	20.88
277.557	4.45
277.773	-3.11
277.989	-14.79
278.205	-19.53
278.422	-4.13
278.638	-2.28
278.854	20.45
279.07	42
279.286	36.06
279.503	2.68
279.719	7.81
279.935	-26.78
280.151	-46.17
280.367	-21.91
280.583	-26.61
280.799	-39.48
281.016	-54.36
281.232	-20.53
281.448	-28.63
281.664	-3.72
281.88	-39.37
282.096	-9.96
282.312	14.31
282.528	16.84
282.744	10.66
282.96	32.73
283.176	23.02
283.392	4.94
283.608	4.27
283.824	11.12
284.04	19.41
284.256	20.87
284.471	18.97
284.687	23.37
284.903	48.2
285.119	64.18
285.335	46.13
285.551	65.49
285.767	46.7
285.982	13.23
286.198	-10.63
286.414	43.13
286.63	27.52
286.846	48.55
287.061	30.61
287.277	52.35
287.493	22.14
287.709	41.59
287.924	26.78
288.14	63.76
288.356	44
288.571	63.85
288.787	44.5
289.003	36.2
289.218	16.48
289.434	-7.08
289.65	-4.1
289.865	-0.54
290.081	36.95
290.296	36.58
290.512	48.58
290.727	16.45
290.943	3.17
291.159	-23.15
291.374	-21.33
291.59	-35.68
291.805	-24.39
292.021	-13.36
292.236	-1.66
292.451	8.14
292.667	23
292.882	47.05
293.098	47.18
293.313	26.78
293.529	-2.95
293.744	-24.82
293.959	-43.36
294.175	-34.2
294.39	14.12
294.605	30.54
294.821	56.57
295.036	69.61
295.251	70.02
295.467	20.47
295.682	12.5
295.897	-39.06
296.112	-66.05
296.328	-61.1
296.543	-55.44
296.758	-62.97
296.973	-29.25
297.188	7.98
297.404	-15.29
297.619	-15.24
297.834	-12.94
298.049	-18.73
298.264	-47.53
298.479	1.86
298.694	1.43
298.909	20.1
299.125	20.12
299.34	29.4
299.555	2.34
299.77	22.32
299.985	-27.59
300.2	-72.12
300.415	-71.75
300.63	-42.69
300.845	-62.44
301.06	-55.61
301.275	-8.92
301.49	-2.97
301.704	-16
301.919	-16.93
302.134	-18.65
302.349	-22.83
302.564	-72.79
302.779	-64.06
302.994	-52.51
303.209	-29.06
303.423	-29.92
303.638	21.07
303.853	-13.43
304.068	-14.58
304.283	-14.83
304.497	-13.5
304.712	-16.56
304.927	4.56
305.142	-2.43
305.356	6.87
305.571	10.9
305.786	-3.77
306	-23.79
306.215	0.07
306.43	-17.27
306.644	-11.15
306.859	24.36
307.074	37.89
307.288	-3.01
307.503	-17.28
307.717	-22.34
307.932	-35.78
308.147	-42.17
308.361	-24.32
308.576	-7.21
308.79	-31.41
309.005	-24.67
309.219	-10.32
309.434	-7.14
309.648	-25.69
309.863	-4.67
310.077	12.57
310.292	16.47
310.506	15.26
310.72	29.1
310.935	26.39
311.149	15.49
311.364	23.99
311.578	29.75
311.792	20.74
312.007	36.29
312.221	19.11
312.435	10.02
312.649	3.99
312.864	33.21
313.078	18.15
313.292	90.01
313.507	100.21
313.721	139.76
313.935	70.82
314.149	72.14
314.363	49.61
314.578	51.33
314.792	35.06
315.006	12.14
315.22	17.95
315.434	15.11
315.648	18.61
315.862	13.53
316.077	18.23
316.291	8.44
316.505	4.68
316.719	-3.14
316.933	21.44
317.147	33.54
317.361	-15.9
317.575	-27.35
317.789	-52.34
318.003	-127.9
318.217	-105.97
318.431	-28.15
318.645	0.26
318.859	0.67
319.073	37.3
319.287	29.03
319.5	6.02
319.714	-26.73
319.928	-36.17
320.142	-70.32
320.356	-37.01
320.57	23.74
320.784	32.44
320.997	15.1
321.211	6.49
321.425	-38.32
321.639	-77.93
321.853	-39.83
322.066	-2.39
322.28	-3.72
322.494	7.84
322.707	24.28
322.921	21.36
323.135	4.77
323.349	10.42
323.562	-12.63
323.776	-32.98
323.989	-28.51
324.203	-40.36
324.417	-44.99
324.63	-34.82
324.844	-40.16
325.057	-49.55
325.271	-18.75
325.485	-2.53
325.698	17.25
325.912	41.81
326.125	17.42
326.339	10.65
326.552	9.4
326.766	16.68
326.979	17.29
327.193	50.08
327.406	26.02
327.619	21.89
327.833	20.09
328.046	-11.53
328.26	-34.7
328.473	9.63
328.686	-4.46
328.9	1.29
329.113	26.08
329.326	18.71
329.54	4.66
329.753	-11.61
329.966	-36.17
330.179	-5.35
330.393	16.45
330.606	29.31
330.819	49.35
331.032	61.93
331.246	45.31
331.459	56.37
331.672	42.99
331.885	32.35
332.098	1.57
332.311	-5.64
332.525	-41.6
332.738	-25.64
332.951	21.22
333.164	46.23
333.377	59.61
333.59	76.76
333.803	78.27
334.016	50.6
334.229	47.93
334.442	54.27
334.655	55.45
334.868	55.34
335.081	50.1
335.294	38.38
335.507	26.84
335.72	20.11
335.933	1.94
336.146	0.44
336.359	9.27
336.572	-18.03
336.785	-40.96
336.997	-28.21
337.21	-9.22
337.423	-21.38
337.636	-12.25
337.849	14.09
338.062	2.71
338.274	6.54
338.487	13.39
338.7	18.39
338.913	-22.09
339.125	-24.3
339.338	-48.94
339.551	-19.42
339.763	14.98
339.976	30.16
340.189	49
340.402	53.61
340.614	31.68
340.827	22.43
341.039	10.43
341.252	7.75
341.465	10.25
341.677	7.99
341.89	-36.85
342.102	-5.5
342.315	-27.99
342.527	-59.64
342.74	-45.27
342.952	2.16
343.165	-2.65
343.377	24.87
343.59	27.68
343.802	35.59
344.015	34.34
344.227	51.52
344.44	44.82
344.652	48.12
344.864	44.02
345.077	36.25
345.289	33.41
345.502	28.5
345.714	25.05
345.926	27.94
346.139	24.73
346.351	31.87
346.563	37.18
346.775	42.11
346.988	32.01
347.2	32.93
347.412	-21.03
347.624	-36.56
347.837	-69.8
348.049	-62.44
348.261	-34.79
348.473	-15.22
348.685	-12.66
348.897	0.58
349.11	-1.83
349.322	-25.06
349.534	-0.15
349.746	-5.62
349.958	-8.15
350.17	-16.37
350.382	18.23
350.594	9.94
350.806	7.27
351.018	9.46
351.23	-9.21
351.442	-68.18
351.654	-69.33
351.866	-40.1
352.078	-12.79
352.29	21.29
352.502	37.17
352.714	38.86
352.926	24
353.138	14.33
353.35	-0.2
353.561	-14.49
353.773	-32.82
353.985	-7.28
354.197	-11.25
354.409	-3.31
354.621	2.5
354.832	21.72
355.044	2.16
355.256	-2.3
355.468	4.21
355.679	3.2
355.891	7.87
356.103	3.36
356.314	9.13
356.526	3.69
356.738	6.56
356.949	-14.58
357.161	-4.03
357.373	-2.2
357.584	-9.97
357.796	9.86
358.008	-1.55
358.219	17.21
358.431	11.91
358.642	22.63
358.854	5.12
359.065	7.81
359.277	-24.49
359.488	-29.44
359.7	-57.42
359.911	-59.67
360.123	-46.78
360.334	-60.76
360.546	-65.16
360.757	-54.86
360.969	-52.91
361.18	-40.08
361.391	-8.42
361.603	-26.71
361.814	-8.38
362.025	-14.19
362.237	-12.05
362.448	-8.32
362.659	17.44
362.871	11.85
363.082	28.55
363.293	28.87
363.504	26.73
363.716	7.32
363.927	8.93
364.138	-11.74
364.349	-33.6
364.56	-26.31
364.772	-18.02
364.983	-15.64
365.194	-7.36
365.405	7.9
365.616	22.86
365.827	28.12
366.038	26.83
366.25	19.9
366.461	-4.02
366.672	-1.31
366.883	5.59
367.094	7.3
367.305	-7.82
367.516	-1.35
367.727	-30.61
367.938	-41.39
368.149	-44.01
368.36	-26.75
368.571	-17.76
368.781	-27.16
368.992	-36.81
369.203	-53.93
369.414	-73.19
369.625	-80.27
369.836	-69.51
370.047	-86.16
370.258	-63.56
370.468	-53.4
370.679	-59.45
370.89	-48.79
371.101	-27.93
371.312	-26.56
371.522	-17.69
371.733	-16.81
371.944	-3.71
372.155	2.45
372.365	-4.49
372.576	-9.95
372.787	-2.66
372.997	-28.4
373.208	-14.74
373.419	4.27
373.629	-13.29
373.84	-18.71
374.05	-21.82
374.261	-26.48
374.472	-30.29
374.682	19.14
374.893	21.07
375.103	46.44
375.314	35.81
375.524	30.59
375.735	17.03
375.945	35.51
376.156	16.36
376.366	15.97
376.577	12.26
376.787	1.32
376.997	-8.39
377.208	-5.39
377.418	-15.94
377.629	-11.55
377.839	-13.59
378.049	-14.26
378.26	-3.1
378.47	10.24
378.68	4.43
378.89	10.59
379.101	11.21
379.311	-8.92
379.521	-38.22
379.732	-30.41
379.942	-48.22
380.152	-61.6
380.362	-28.27
380.572	-17.3
380.783	-0.73
380.993	17.63
381.203	25.36
381.413	24.21
381.623	34.29
381.833	30.29
382.043	15.18
382.253	15.06
382.463	9.17
382.674	1.94
382.884	-23.65
383.094	-10.63
383.304	-9.67
383.514	-11.36
383.724	-5.46
383.934	-1.04
384.144	-17.17
384.353	-31.01
384.563	-23.02
384.773	-23.45
384.983	-30.23
385.193	-9.46
385.403	0.87
385.613	1.62
385.823	-9.72
386.033	-5.12
386.242	-14.28
386.452	-18.82
386.662	-24.49
386.872	-6.67
387.082	-6.77
387.291	-10.01
387.501	-7.95
387.711	-4.36
387.921	-12.52
388.13	-9.48
388.34	-0.15
388.55	-4.99
388.759	-9.36
388.969	-5.75
389.179	-9.19
389.388	-12.12
389.598	-5.68
389.807	-8.8
390.017	-10.74
390.227	-8.27
390.436	-9.35
390.646	-5.8
390.855	-2.1
391.065	-1.95
391.274	-2.9
391.484	-2.66
391.693	-1.4
391.903	0.55
392.112	5.62
392.322	7.45
392.531	9.42
392.74	5.71
392.95	1.47
393.159	-0.4
393.369	-1.05
393.578	-1.52
393.787	-2.64
393.997	-0.26
394.206	-2.97
394.415	-3.25
394.625	-3.25
394.834	-4.04
395.043	-3.28
395.252	-0.85
395.462	0.79
395.671	0.66
395.88	1.55
396.089	1.62
396.298	0.59
396.508	-0.12
396.717	0.03
396.926	0.93
397.135	0.38
397.344	-0.09
397.553	0.29
397.762	1.47
397.971	0.92
398.181	0.92
398.39	0.84
398.599	0.85
398.808	0.69
399.017	1.68
399.226	2.74
399.435	3.64
399.644	3.81
399.853	2.64
400.062	2.23
400.27	1.64
400.479	1.09
400.688	0.42
400.897	0.92
401.106	0.67
401.315	0.61
401.524	0.75
401.733	1.45
401.941	1.98
402.15	2.39
402.359	2.31
402.568	2.62
402.777	2.52
402.985	2.2
403.194	1.92
403.403	1.98
403.612	1.56
403.82	1.22
404.029	1.16
404.238	1.2
404.446	1.49
404.655	1.37
404.864	1.6
405.072	1.43
405.281	1.58
405.489	1.28
405.698	1.3
405.906	1.15
406.115	1.23
406.324	1.11
406.532	1.21
406.741	1.58
406.949	1.55
407.158	1.52
407.366	1.58
407.574	1.61
407.783	1.52
407.991	1.45
408.2	1.65
408.408	1.62
408.617	1.43
408.825	1.29
409.033	1.45
409.242	1.4
409.45	1.48
409.658	1.39
409.867	1.59
410.075	1.57
410.283	1.49
410.491	1.46
410.7	1.43
410.908	1.43
411.116	1.55
411.324	1.62
411.533	1.44
411.741	1.78
411.949	1.6
412.157	1.31
412.365	1.33
412.573	1.47
412.781	1.45
412.99	1.44
413.198	1.73
413.406	1.57
413.614	1.5
413.822	1.39
414.03	1.42
414.238	1.13
414.446	1.29
414.654	1.15
414.862	1.13
415.07	1.1
415.278	1.32
415.486	1.13
415.694	1.22
415.902	1.14
416.109	1.14
416.317	1.08
416.525	0.93
416.733	1
416.941	1.14
417.149	1.03
417.357	1.09
417.564	1.45
417.772	1.59
417.98	1.51
418.188	1.62
418.395	1.55
418.603	1.49
418.811	1.15
419.019	1.05
419.226	1.25
419.434	1.39
419.642	1.17
419.849	1.33
420.057	1.41
420.265	1.28
420.472	1.1
420.68	1.2
420.887	1.2
421.095	1.2
421.302	1.16
421.51	1.38
421.717	1.56
421.925	1.65
422.132	1.53
422.34	1.38
422.547	1.31
422.755	1.2
422.962	1.02
423.17	1.08
423.377	1.1
423.585	1.14
423.792	1.08
423.999	1.22
424.207	1.13
424.414	1.31
424.621	1.23
424.829	1.17
425.036	1.12
425.243	1.36
425.451	1.37
425.658	1.11
425.865	1.24
426.072	1.27
426.28	1.4
426.487	1.2
426.694	1.33
426.901	1.14
427.108	1.13
427.315	0.89
427.523	1.22
427.73	1.29
427.937	1.32
428.144	1.15
428.351	1.12
428.558	1.1
428.765	1.05
428.972	1.04
429.179	1.28
429.386	1.56
429.593	1.32
429.8	1.28
430.007	1.3
430.214	1.35
430.421	1.11
430.628	1
430.835	0.98
431.042	1.16
431.249	1.18
431.456	1.16
431.662	1.27
431.869	1.44
432.076	1.36
432.283	1.34
432.49	1.36
432.697	1.31
432.903	1
433.11	0.97
433.317	1.06
433.524	1.2
433.73	1.2
433.937	1.47
434.144	1.41
434.35	1.28
434.557	1.07
434.764	1.14
434.97	1.04
435.177	1.2
435.384	1.09
435.59	1.23
435.797	1.39
436.003	1.39
436.21	1.38
436.416	1.55
436.623	1.48
436.829	1.44
437.036	1.57
437.242	1.61
437.449	1.52
437.655	1.55
437.862	1.57
438.068	1.43
438.275	1.39
438.481	1.6
438.687	1.59
438.894	1.47
439.1	1.43
439.307	1.54
439.513	1.4
439.719	1.35
439.926	1.52
440.132	1.59
440.338	1.37
440.544	1.52
440.751	1.52
440.957	1.51
441.163	1.44
441.369	1.59
441.575	1.34
441.782	1.43
441.988	1.29
442.194	1.31
442.4	1.2
442.606	1.51
442.812	1.58
443.018	1.62
443.224	1.68
443.431	1.83
443.637	1.47
443.843	1.32
444.049	1.33
444.255	1.25
444.461	1.26
444.667	1.3
444.873	1.44
445.079	1.47
445.284	1.66
445.49	1.43
445.696	1.34
445.902	1.18
446.108	1.14
446.314	0.97
446.52	1.05
446.726	1.29
446.931	1.4
447.137	1.38
447.343	1.43
447.549	1.41
447.755	1.26
447.96	1.2
448.166	1.14
448.372	1.07
448.578	1.11
448.783	1.17
448.989	1.28
449.195	1.51
449.4	1.53
449.606	1.48
449.812	1.39
450.017	1.37
450.223	1.24
450.428	1.22
450.634	1.42
450.84	1.57
451.045	1.48
451.251	1.45
451.456	1.69
451.662	1.58
451.867	1.67
452.073	1.72
452.278	1.82
452.483	1.85
452.689	1.85
452.894	1.83
453.1	1.8
453.305	1.66
453.51	1.5
453.716	1.44
453.921	1.41
454.127	1.37
454.332	1.3
454.537	1.22
454.742	1.27
454.948	1.24
455.153	1.25
455.358	1.41
455.563	1.57
455.769	1.59
455.974	1.52
456.179	1.48
456.384	1.43
456.589	1.33
456.795	1.14
457	1.13
457.205	1.39
457.41	1.38
457.615	1.35
457.82	1.44
458.025	1.47
458.23	1.27
458.435	1.3
458.64	1.26
458.845	1.47
459.05	1.48
459.255	1.48
459.46	1.5
459.665	1.52
459.87	1.48
460.075	1.43
460.28	1.56
460.485	1.58
460.69	1.64
460.895	1.48
461.099	1.45
461.304	1.51
461.509	1.47
461.714	1.44
461.919	1.56
462.123	1.5
462.328	1.46
462.533	1.43
462.738	1.51
462.942	1.5
463.147	1.61
463.352	1.62
463.556	1.65
463.761	1.61
463.966	1.59
464.17	1.59
464.375	1.48
