Data from Ofra_PS_T2_2A_6GT17_Reflection_3.txt Node
Date: Wed Jul 21 17:18:06 EDT 2021
User: Adam
Spectrometer: FLMT01687
Trigger mode: 0
Integration Time (sec): 1.100000E0
Scans to average: 2
Electric dark correction enabled: true
Nonlinearity correction enabled: false
Boxcar width: 2
XAxis mode: Wavelengths
Number of Pixels in Spectrum: 3648
>>>>>Begin Spectral Data<<<<<
179.494	559.2
179.716	590.82
179.937	594.56
180.158	534
180.38	783.75
180.601	208.84
180.823	98.21
181.044	-173.46
181.265	88.24
181.486	42.63
181.708	109.47
181.929	661.22
182.15	-477.46
182.372	73.99
182.593	-48.08
182.814	16.01
183.035	58.96
183.257	34.4
183.478	-45.32
183.699	62.8
183.92	28.3
184.141	55.11
184.363	8.23
184.584	86.32
184.805	40.97
185.026	66.64
185.247	29.18
185.468	26.76
185.689	4.58
185.91	19.37
186.132	9.38
186.353	40.87
186.574	95.35
186.795	78.62
187.016	45.5
187.237	21.03
187.458	-35.82
187.679	-15.62
187.9	7.68
188.121	-6.95
188.342	9.73
188.563	65.43
188.784	69.43
189.005	54.71
189.226	134.51
189.447	130.35
189.667	100.49
189.888	-211.33
190.109	-1012.99
190.33	-692.9
190.551	-1245.13
190.772	-266.59
190.993	-145.35
191.214	-122.49
191.434	-83.23
191.655	13.99
191.876	-23.98
192.097	-68.71
192.318	-102.05
192.538	-126.69
192.759	-140.13
192.98	-33.98
193.201	-10.21
193.421	5.22
193.642	19.98
193.863	28.3
194.083	5.27
194.304	-6.61
194.525	-6.51
194.745	-27.3
194.966	-54.11
195.187	-69.93
195.407	-79.08
195.628	-120.97
195.848	-113.2
196.069	-97.16
196.29	-47.86
196.51	-87.76
196.731	-87.78
196.951	-93.91
197.172	-111.49
197.392	-156.76
197.613	-163.98
197.833	-174.21
198.054	-169.9
198.274	-108.94
198.495	-130.35
198.715	-75.8
198.936	-101.75
199.156	-67.53
199.377	-162.71
199.597	-106.22
199.817	-130.49
200.038	-44.77
200.258	-116.03
200.479	-41.42
200.699	-37.1
200.919	51.8
201.14	2.77
201.36	4.83
201.58	41.86
201.801	57.72
202.021	19.94
202.241	24.26
202.461	31.43
202.682	-55.03
202.902	-107.31
203.122	-59.94
203.342	-57.41
203.563	-45.3
203.783	-13.56
204.003	-62.6
204.223	-51.81
204.443	20.39
204.663	32.28
204.884	51.57
205.104	93.89
205.324	121.58
205.544	76.98
205.764	75.44
205.984	72.41
206.204	64.71
206.424	45.64
206.644	32.65
206.864	44.63
207.084	14.69
207.304	84.64
207.525	93.75
207.745	81.05
207.964	56.37
208.184	3.12
208.404	-77.63
208.624	-82.38
208.844	-88.63
209.064	-391.94
209.284	-435.23
209.504	-187.99
209.724	-42.9
209.944	-21.36
210.164	15.43
210.384	45.9
210.604	36.45
210.823	-21.43
211.043	-38.26
211.263	-25.99
211.483	-40.16
211.703	-102.91
211.922	-77.82
212.142	-8.61
212.362	-12.36
212.582	-19.51
212.801	-5.05
213.021	-4.28
213.241	-20.28
213.461	-49.54
213.68	-64.45
213.9	-46.76
214.12	-21.36
214.339	-68.27
214.559	-63.49
214.779	-7.34
214.998	2.24
215.218	-49.01
215.438	-31.1
215.657	-8.87
215.877	-21.25
216.096	1.54
216.316	14.48
216.535	22.03
216.755	3.87
216.974	-73.15
217.194	-111.72
217.413	-106.7
217.633	-130.26
217.852	-228.6
218.072	-99.8
218.291	-55.04
218.511	-9.53
218.73	-45.25
218.95	-35.63
219.169	-40.21
219.389	-94.57
219.608	-81.14
219.827	-65.26
220.047	-39.77
220.266	-20.01
220.485	3.55
220.705	19.93
220.924	11.03
221.143	29.12
221.363	1
221.582	8.17
221.801	-2.3
222.021	6.69
222.24	-86.73
222.459	13.43
222.678	-27.03
222.897	-79.27
223.117	-131.86
223.336	-73.58
223.555	-65.31
223.774	-14.25
223.993	17.48
224.213	83.42
224.432	41.25
224.651	59.36
224.87	33.71
225.089	44.87
225.308	37.15
225.527	63.78
225.746	58.71
225.965	33.1
226.184	-2.21
226.404	-0.17
226.623	-41.33
226.842	-19.94
227.061	23.41
227.28	29.7
227.499	31.39
227.718	42.2
227.936	21.05
228.155	20.13
228.374	4.59
228.593	6.77
228.812	14.61
229.031	15.25
229.25	-24.4
229.469	-22.12
229.688	-10.52
229.907	12.57
230.125	31.82
230.344	40.4
230.563	53.72
230.782	56.99
231.001	-14.11
231.22	-24.49
231.438	-2
231.657	-0.56
231.876	-9.14
232.095	38.37
232.313	45.96
232.532	44.02
232.751	36.26
232.969	33.66
233.188	-1.5
233.407	51.63
233.625	24.23
233.844	5.81
234.063	3.81
234.281	23.71
234.5	11.3
234.719	4.35
234.937	12.79
235.156	19.84
235.374	15.85
235.593	-7.59
235.811	-3.14
236.03	10.03
236.249	-15.5
236.467	-20.02
236.686	5.89
236.904	18.78
237.123	-16.05
237.341	-16.55
237.559	-10.95
237.778	-30.07
237.996	-68.54
238.215	-3.63
238.433	3.57
238.652	3.13
238.87	-23.41
239.088	-3.99
239.307	-13.04
239.525	-17.33
239.743	-54.49
239.962	-30.52
240.18	-62.58
240.398	-111.12
240.617	-110.15
240.835	-47.28
241.053	-12.3
241.271	51.26
241.49	58.09
241.708	65.28
241.926	20.41
242.144	-2.41
242.363	-71.7
242.581	-98.04
242.799	-58.16
243.017	0.6
243.235	-13.82
243.453	4.38
243.672	-0.53
243.89	-5.49
244.108	-32.41
244.326	-22.75
244.544	-10.28
244.762	-2.18
244.98	11.55
245.198	13.7
245.416	-2.02
245.634	0.21
245.852	-22.56
246.07	-26.51
246.288	1.53
246.506	-31.6
246.724	-28.37
246.942	1.49
247.16	16.35
247.378	7.78
247.596	42.74
247.814	28.43
248.032	-7.61
248.25	-11.72
248.468	-3.44
248.685	5.01
248.903	28.68
249.121	46.55
249.339	23.76
249.557	12.16
249.775	15.3
249.992	-34.8
250.21	-47.19
250.428	-22.97
250.646	-51.37
250.863	-84.63
251.081	-60
251.299	-36.32
251.517	-47.8
251.734	-14.66
251.952	-2.77
252.17	-10.01
252.387	-4.24
252.605	-13.82
252.823	-14.13
253.04	7.34
253.258	33.3
253.475	20.9
253.693	51.86
253.911	60.78
254.128	56.47
254.346	50.96
254.563	36.9
254.781	4.17
254.998	-34.26
255.216	-52.93
255.433	-35.81
255.651	9.79
255.868	45.6
256.086	88.78
256.303	76.84
256.521	58.58
256.738	18.87
256.956	-16.99
257.173	-53.94
257.39	-60.82
257.608	-104.22
257.825	-2.5
258.043	39.36
258.26	56.33
258.477	95.36
258.695	105.92
258.912	35.28
259.129	24.21
259.346	-21.64
259.564	-78.84
259.781	-108.75
259.998	-35.57
260.216	-0.23
260.433	35.35
260.65	38.46
260.867	53.72
261.084	16.36
261.302	-5.6
261.519	-9.8
261.736	-41.95
261.953	-71.05
262.17	-31.19
262.387	-77.14
262.604	-120.78
262.822	-107.66
263.039	-62.42
263.256	-99.48
263.473	-72.97
263.69	-27.65
263.907	5.56
264.124	13.15
264.341	4.63
264.558	17.06
264.775	32.1
264.992	32.14
265.209	20.28
265.426	54.03
265.643	55.46
265.86	49.1
266.077	60.2
266.294	53.39
266.51	2.35
266.727	-19.58
266.944	9.77
267.161	-26.67
267.378	2.08
267.595	15.64
267.812	-12.01
268.028	-53.39
268.245	-4.91
268.462	-48.9
268.679	-45.76
268.896	21.26
269.112	22.88
269.329	5.26
269.546	19.51
269.763	8.73
269.979	-27.89
270.196	-10.91
270.413	-36.84
270.629	-62.07
270.846	-75.05
271.063	-41.83
271.279	-69.2
271.496	-48.97
271.712	-8.58
271.929	21.59
272.146	-6.92
272.362	-1.91
272.579	17.97
272.795	13.1
273.012	6.71
273.228	7.92
273.445	-16.25
273.661	-58.78
273.878	-92.35
274.094	-74.06
274.311	-92.02
274.527	-7.71
274.744	4.19
274.96	15.12
275.177	14.69
275.393	34.63
275.609	11.18
275.826	31.6
276.042	25.53
276.259	1.37
276.475	14.38
276.691	15.45
276.908	-13.91
277.124	7.77
277.34	16.59
277.557	-14.87
277.773	-11.7
277.989	-13.33
278.205	-22.87
278.422	8.51
278.638	27.19
278.854	50.2
279.07	65.34
279.286	60
279.503	12.59
279.719	-11.6
279.935	-53.48
280.151	-82.71
280.367	-41.45
280.583	-39.56
280.799	-32.86
281.016	-44.79
281.232	-0.47
281.448	-10.3
281.664	5.16
281.88	-16.8
282.096	8.39
282.312	19.65
282.528	23.91
282.744	38.95
282.96	38.49
283.176	23.63
283.392	11.03
283.608	3.49
283.824	-6.37
284.04	0.44
284.256	9.19
284.471	6.31
284.687	-0.18
284.903	29.56
285.119	62.18
285.335	41.32
285.551	47.97
285.767	38.58
285.982	16.81
286.198	-33.85
286.414	30.53
286.63	30.3
286.846	51.55
287.061	21.89
287.277	52.43
287.493	7.8
287.709	23.78
287.924	-7.02
288.14	29.31
288.356	9
288.571	35.52
288.787	8.95
289.003	19.5
289.218	3.26
289.434	-29.47
289.65	-11.04
289.865	-0.61
290.081	11.45
290.296	25.55
290.512	29.63
290.727	-24.97
290.943	-32.14
291.159	-35.38
291.374	-38.24
291.59	-57.91
291.805	-43.67
292.021	-40.72
292.236	-34.56
292.451	-13.85
292.667	7.09
292.882	29.79
293.098	29.1
293.313	-3.95
293.529	-47.12
293.744	-58.26
293.959	-81.37
294.175	-59.07
294.39	-22.77
294.605	0.59
294.821	30.01
295.036	43.51
295.251	40.05
295.467	39.96
295.682	34.72
295.897	-13.04
296.112	-23.59
296.328	-6.66
296.543	-29.55
296.758	-28.83
296.973	9.58
297.188	48.01
297.404	17.34
297.619	9.81
297.834	-3.97
298.049	-22.35
298.264	-71.72
298.479	-0.75
298.694	11.07
298.909	28.53
299.125	28.94
299.34	43.39
299.555	5.43
299.77	13.55
299.985	-33.17
300.2	-82.27
300.415	-84.57
300.63	-37.26
300.845	-47.4
301.06	-29.4
301.275	-1.44
301.49	7.74
301.704	-9.57
301.919	-29.35
302.134	-41.47
302.349	-31.76
302.564	-98.19
302.779	-126.53
302.994	-94.51
303.209	-49.14
303.423	-18.99
303.638	32.57
303.853	-1.74
304.068	-15.19
304.283	-10.92
304.497	-19.22
304.712	-26.12
304.927	1.02
305.142	5.37
305.356	19.67
305.571	14.09
305.786	-2.99
306	-25.4
306.215	-13.98
306.43	-49.22
306.644	-34.06
306.859	42.68
307.074	39.04
307.288	-4.41
307.503	4.09
307.717	-10.63
307.932	-27.32
308.147	-35.05
308.361	-6.32
308.576	-14.2
308.79	-57.33
309.005	-46.13
309.219	-26.87
309.434	-28.42
309.648	-33.66
309.863	13.69
310.077	1.94
310.292	-3.25
310.506	-7.78
310.72	2.64
310.935	3.21
311.149	12.82
311.364	36.72
311.578	43.85
311.792	47.61
312.007	35.18
312.221	9.01
312.435	9.15
312.649	-5.17
312.864	13.08
313.078	36.37
313.292	97.89
313.507	73.07
313.721	112.75
313.935	57.69
314.149	46.96
314.363	40.3
314.578	24.78
314.792	17.65
315.006	2.45
315.22	11.77
315.434	10.09
315.648	22.69
315.862	30.01
316.077	30.65
316.291	20.42
316.505	18.9
316.719	15.93
316.933	-8.6
317.147	-18.5
317.361	-65.24
317.575	-82.78
317.789	-89.44
318.003	-153.63
318.217	-91.16
318.431	-8.57
318.645	30.83
318.859	17.63
319.073	51.41
319.287	28.1
319.5	8.39
319.714	-30.98
319.928	-41.49
320.142	-65.74
320.356	1.33
320.57	40.81
320.784	38.24
320.997	6.13
321.211	-8.22
321.425	-73.85
321.639	-124.26
321.853	-50.97
322.066	-23.44
322.28	-22.31
322.494	-11.04
322.707	11.49
322.921	-2.1
323.135	11.48
323.349	31.76
323.562	11.46
323.776	3.22
323.989	-13.21
324.203	-40.82
324.417	-53.59
324.63	-54.94
324.844	-68.85
325.057	-45.01
325.271	-9.89
325.485	7.6
325.698	23.09
325.912	40.76
326.125	7.33
326.339	7.42
326.552	-26.8
326.766	-13.09
326.979	-7.16
327.193	40.6
327.406	11.25
327.619	18.06
327.833	17.72
328.046	-8.96
328.26	-47.57
328.473	-14.84
328.686	-51.55
328.9	-30.84
329.113	-6
329.326	-25.08
329.54	-20.61
329.753	-25.57
329.966	-73.11
330.179	-69.36
330.393	-35.5
330.606	-34.1
330.819	-0.14
331.032	14.05
331.246	22.12
331.459	48.99
331.672	47.06
331.885	28.62
332.098	9.43
332.311	-5.14
332.525	-51.98
332.738	-17.54
332.951	19.4
333.164	41.25
333.377	47.17
333.59	60.08
333.803	36.04
334.016	25.35
334.229	21.21
334.442	27.78
334.655	45.12
334.868	51.99
335.081	51.17
335.294	31.05
335.507	16.42
335.72	0.36
335.933	1.02
336.146	-6.47
336.359	3.6
336.572	-22.17
336.785	-55.9
336.997	-46.47
337.21	-23.95
337.423	-23.18
337.636	-10.2
337.849	12.03
338.062	-4.15
338.274	-0.88
338.487	-27.03
338.7	-13.09
338.913	-58.43
339.125	-107.84
339.338	-178.43
339.551	-128.37
339.763	-100.32
339.976	-56.33
340.189	9.39
340.402	18.42
340.614	0.17
340.827	-5.75
341.039	-25.63
341.252	-30.54
341.465	-3.29
341.677	7.76
341.89	-21.4
342.102	17.37
342.315	-3.18
342.527	-36.59
342.74	-44.72
342.952	-7.17
343.165	-18.93
343.377	4.81
343.59	7.94
343.802	27.17
344.015	26.13
344.227	34.59
344.44	25.76
344.652	21.85
344.864	4.75
345.077	21.39
345.289	21.2
345.502	28.36
345.714	31.21
345.926	36.4
346.139	21.93
346.351	28.64
346.563	26.81
346.775	25.01
346.988	16.05
347.2	9.64
347.412	-44.24
347.624	-67.53
347.837	-97.6
348.049	-65.61
348.261	-23.17
348.473	-8.94
348.685	-3.28
348.897	10.65
349.11	-18.5
349.322	-53.27
349.534	-22.04
349.746	-21.24
349.958	-17.79
350.17	-1.37
350.382	18
350.594	-0.87
350.806	8.79
351.018	2.74
351.23	-15.94
351.442	-71.9
351.654	-58.92
351.866	-57.12
352.078	-24.31
352.29	2.58
352.502	23.74
352.714	26.26
352.926	11.03
353.138	-0.62
353.35	-7.91
353.561	-13.22
353.773	-28.62
353.985	-8.03
354.197	-13.2
354.409	-13.29
354.621	-10.24
354.832	1.23
355.044	-13.35
355.256	-15.87
355.468	-3.44
355.679	-10.12
355.891	-3.76
356.103	-16.39
356.314	-0.76
356.526	-4.17
356.738	3.61
356.949	-6.07
357.161	31.28
357.373	10.15
357.584	-1.72
357.796	-0.69
358.008	-7.71
358.219	-3.38
358.431	-2.56
358.642	-8.35
358.854	0.99
359.065	-5.54
359.277	-44.49
359.488	-36.7
359.7	-37.05
359.911	-66.33
360.123	-43.26
360.334	-39.73
360.546	-72.32
360.757	-65.83
360.969	-34.73
361.18	-22.73
361.391	-2.31
361.603	3.23
361.814	9.73
362.025	-13.56
362.237	-30.34
362.448	-29.25
362.659	-3.02
362.871	-6.31
363.082	3.71
363.293	9.47
363.504	5.22
363.716	-15.85
363.927	-12.06
364.138	-47.94
364.349	-63.09
364.56	-52.57
364.772	-50.16
364.983	-25.31
365.194	-12.95
365.405	8.98
365.616	17.26
365.827	18.99
366.038	-5.32
366.25	-11.23
366.461	-51.87
366.672	-34.32
366.883	-4.49
367.094	-5.7
367.305	-12.1
367.516	-3.24
367.727	-31.89
367.938	-58.9
368.149	-46.56
368.36	-20.61
368.571	-16.76
368.781	-20.66
368.992	-25.67
369.203	-39.69
369.414	-73.42
369.625	-79.62
369.836	-73.95
370.047	-103.43
370.258	-87.3
370.468	-76.97
370.679	-87.91
370.89	-75.77
371.101	-36.58
371.312	-40.9
371.522	-33.77
371.733	-15.9
371.944	0.94
372.155	-2.93
372.365	-13.85
372.576	-13.15
372.787	-24.3
372.997	-69.12
373.208	-64.52
373.419	-31.85
373.629	-60.79
373.84	-66.7
374.05	-58.85
374.261	-52.23
374.472	-79.94
374.682	-19.09
374.893	2.17
375.103	43.09
375.314	39.23
375.524	49.71
375.735	45.68
375.945	47.25
376.156	6.91
376.366	0.69
376.577	-0.46
376.787	-8.25
376.997	-14.22
377.208	-8.89
377.418	-11.83
377.629	3.55
377.839	-8.04
378.049	-6.79
378.26	13.65
378.47	19.28
378.68	0.62
378.89	6.53
379.101	-5.54
379.311	-45.66
379.521	-77.11
379.732	-78.59
379.942	-76.97
380.152	-86.85
380.362	-44.41
380.572	-41.79
380.783	-24.05
380.993	-15.38
381.203	2.18
381.413	14.4
381.623	45.53
381.833	38.58
382.043	32.89
382.253	21.59
382.463	10.71
382.674	-8.64
382.884	-25.41
383.094	-24.09
383.304	-18.77
383.514	-13.46
383.724	-3.77
383.934	-11.31
384.144	-19.65
384.353	-26.12
384.563	-29.35
384.773	-21.25
384.983	-20.11
385.193	-1.06
385.403	6.53
385.613	6.15
385.823	-3.38
386.033	9.5
386.242	-1.55
386.452	-5.4
386.662	-13.97
386.872	-2.59
387.082	-13.08
387.291	-21.33
387.501	-23.11
387.711	-11.99
387.921	-21.64
388.13	-19.75
388.34	-1.85
388.55	-6.99
388.759	-10.46
388.969	-0.25
389.179	-1.19
389.388	-6.22
389.598	-2.15
389.807	-8.53
390.017	-15.53
390.227	-13.64
390.436	-12.46
390.646	-9.8
390.855	-5.16
391.065	-6.88
391.274	-8.16
391.484	-14.18
391.693	-9.24
391.903	-6.46
392.112	0.95
392.322	3.35
392.531	7.86
392.74	5.7
392.95	0.35
393.159	-4.12
393.369	-5.46
393.578	-5.69
393.787	-7.43
393.997	-5.18
394.206	-5.51
394.415	-4.49
394.625	-4.57
394.834	-5.81
395.043	-3.44
395.252	-0.37
395.462	1.67
395.671	2.86
395.88	4.8
396.089	4.74
396.298	3.54
396.508	2.5
396.717	1.11
396.926	1.73
397.135	1.25
397.344	0.11
397.553	0.94
397.762	2.44
397.971	1.99
398.181	1.86
398.39	2.2
398.599	2.01
398.808	1.73
399.017	2.64
399.226	4.16
399.435	5.43
399.644	5.57
399.853	4.46
400.062	3.64
400.27	2.83
400.479	2.11
400.688	1.44
400.897	1.78
401.106	1.9
401.315	1.7
401.524	1.54
401.733	2.06
401.941	2.72
402.15	2.86
402.359	2.75
402.568	3.07
402.777	2.93
402.985	2.66
403.194	2.33
403.403	2.19
403.612	1.56
403.82	1.3
404.029	1.53
404.238	1.53
404.446	2.02
404.655	2.02
404.864	2.11
405.072	1.68
405.281	1.91
405.489	1.41
405.698	1.66
405.906	1.65
406.115	1.82
406.324	1.81
406.532	2.17
406.741	2.3
406.949	2.2
407.158	2.15
407.366	2.02
407.574	1.8
407.783	1.72
407.991	1.71
408.2	1.83
408.408	1.84
408.617	1.78
408.825	1.66
409.033	1.79
409.242	1.77
409.45	2
409.658	2.06
409.867	2.22
410.075	2.04
410.283	1.97
410.491	1.72
410.7	1.75
410.908	1.64
411.116	2
411.324	1.94
411.533	1.87
411.741	1.99
411.949	2.02
412.157	1.67
412.365	1.7
412.573	1.84
412.781	1.88
412.99	1.78
413.198	1.99
413.406	2.01
413.614	2.01
413.822	1.82
414.03	1.86
414.238	1.72
414.446	1.78
414.654	1.65
414.862	1.77
415.07	1.84
415.278	1.99
415.486	1.84
415.694	1.86
415.902	1.72
416.109	1.63
416.317	1.64
416.525	1.5
416.733	1.52
416.941	1.62
417.149	1.61
417.357	1.61
417.564	1.88
417.772	2.13
417.98	2.03
418.188	2.07
418.395	2.1
418.603	2.19
418.811	1.75
419.019	1.74
419.226	1.83
419.434	2
419.642	1.65
419.849	1.96
420.057	1.95
420.265	1.92
420.472	1.44
420.68	1.59
420.887	1.37
421.095	1.54
421.302	1.44
421.51	1.75
421.717	1.83
421.925	2.08
422.132	1.77
422.34	1.57
422.547	1.6
422.755	1.46
422.962	1.29
423.17	1.44
423.377	1.64
423.585	1.54
423.792	1.53
423.999	1.53
424.207	1.49
424.414	1.57
424.621	1.59
424.829	1.63
425.036	1.7
425.243	1.85
425.451	1.7
425.658	1.51
425.865	1.78
426.072	1.68
426.28	1.86
426.487	1.82
426.694	1.95
426.901	1.66
427.108	1.65
427.315	1.37
427.523	1.69
427.73	1.72
427.937	1.61
428.144	1.51
428.351	1.47
428.558	1.6
428.765	1.57
428.972	1.61
429.179	1.73
429.386	2.04
429.593	1.63
429.8	1.46
430.007	1.53
430.214	1.69
430.421	1.4
430.628	1.26
430.835	1.25
431.042	1.45
431.249	1.45
431.456	1.49
431.662	1.7
431.869	1.81
432.076	1.72
432.283	1.71
432.49	1.72
432.697	1.75
432.903	1.47
433.11	1.44
433.317	1.52
433.524	1.8
433.73	1.68
433.937	2.06
434.144	1.9
434.35	1.82
434.557	1.52
434.764	1.6
434.97	1.45
435.177	1.68
435.384	1.54
435.59	1.66
435.797	1.89
436.003	2.02
436.21	1.95
436.416	2.22
436.623	2.14
436.829	2.02
437.036	2.09
437.242	2.08
437.449	1.92
437.655	1.9
437.862	1.85
438.068	1.77
438.275	1.91
438.481	2.12
438.687	2.17
438.894	2.14
439.1	2.15
439.307	2.31
439.513	2.15
439.719	2.13
439.926	2.28
440.132	2.27
440.338	2.02
440.544	2.18
440.751	2.17
440.957	2.2
441.163	2.12
441.369	2.21
441.575	1.91
441.782	1.83
441.988	1.74
442.194	1.78
442.4	1.75
442.606	2.04
442.812	2.18
443.018	2.24
443.224	2.31
443.431	2.4
443.637	2.2
443.843	2.16
444.049	2.11
444.255	1.97
444.461	1.99
444.667	1.98
444.873	2.08
445.079	2.09
445.284	2.24
445.49	1.96
445.696	1.86
445.902	1.74
446.108	1.72
446.314	1.71
446.52	1.85
446.726	2.12
446.931	2.17
447.137	2.26
447.343	2.23
447.549	2.13
447.755	1.98
447.96	1.97
448.166	1.86
448.372	1.82
448.578	1.89
448.783	1.82
448.989	1.9
449.195	2.08
449.4	2.14
449.606	2.11
449.812	2.13
450.017	2.12
450.223	1.92
450.428	1.83
450.634	2.11
450.84	2.29
451.045	2.22
451.251	2.19
451.456	2.44
451.662	2.38
451.867	2.3
452.073	2.28
452.278	2.43
452.483	2.42
452.689	2.27
452.894	2.3
453.1	2.37
453.305	2.29
453.51	2.22
453.716	2.18
453.921	2.19
454.127	2.1
454.332	2.08
454.537	2.01
454.742	2.09
454.948	2.02
455.153	2.13
455.358	2.13
455.563	2.31
455.769	2.45
455.974	2.49
456.179	2.37
456.384	2.44
456.589	2.32
456.795	2.05
457	1.95
457.205	2.22
457.41	2.14
457.615	2.06
457.82	2.15
458.025	2.24
458.23	2
458.435	2.04
458.64	2.04
458.845	2.22
459.05	2.27
459.255	2.35
459.46	2.36
459.665	2.37
459.87	2.27
460.075	2.13
460.28	2.1
460.485	2.12
460.69	2.1
460.895	1.97
461.099	1.96
461.304	2.11
461.509	2.13
461.714	2.07
461.919	2.34
462.123	2.23
462.328	2.21
462.533	2.12
