Data from Ofra_1a_PS_8HS21_Reflection_2.txt Node
Date: Tue Jul 20 11:01:57 EDT 2021
User: Adam
Spectrometer: FLMT01687
Trigger mode: 0
Integration Time (sec): 1.004000E0
Scans to average: 2
Electric dark correction enabled: true
Nonlinearity correction enabled: false
Boxcar width: 2
XAxis mode: Wavelengths
Number of Pixels in Spectrum: 3648
>>>>>Begin Spectral Data<<<<<
179.494	-132.49
179.716	-93.89
179.937	283.95
180.158	261.78
180.38	-8.49
180.601	-9.43
180.823	-44.39
181.044	-105.96
181.265	171.12
181.486	32.37
181.708	77.96
181.929	3790.91
182.15	-6.35
182.372	-397.54
182.593	209.75
182.814	-191
183.035	0.14
183.257	5.19
183.478	-5.01
183.699	18.89
183.92	-15.66
184.141	-15.1
184.363	-14.55
184.584	-12.22
184.805	6.27
185.026	37.68
185.247	36.33
185.468	17.36
185.689	18.24
185.91	-25.46
186.132	-21.61
186.353	-27.84
186.574	-20.52
186.795	-16.01
187.016	-3.23
187.237	-10.94
187.458	-4.69
187.679	-12.26
187.9	21.45
188.121	48.37
188.342	53.05
188.563	72.87
188.784	81.88
189.005	44.51
189.226	34.91
189.447	26.88
189.667	15.44
189.888	2.7
190.109	1.1
190.33	8.06
190.551	5.13
190.772	17.68
190.993	0.08
191.214	-7.38
191.434	-4.46
191.655	-16.39
191.876	-8.44
192.097	17.9
192.318	43.15
192.538	4.93
192.759	16.8
192.98	29.14
193.201	39.07
193.421	26.35
193.642	45.9
193.863	61.75
194.083	41.4
194.304	48.71
194.525	50.94
194.745	29.29
194.966	12.2
195.187	24.17
195.407	-4.55
195.628	-3.71
195.848	-2.55
196.069	-20.96
196.29	-26.53
196.51	-13.77
196.731	-40.35
196.951	-49.23
197.172	-23.83
197.392	-39.1
197.613	-14.11
197.833	1.93
198.054	23.08
198.274	25.98
198.495	43.4
198.715	54.21
198.936	59.61
199.156	37.39
199.377	40.32
199.597	31.65
199.817	35.42
200.038	22.35
200.258	40.53
200.479	43.92
200.699	48.86
200.919	21.97
201.14	16.82
201.36	14.31
201.58	-26.99
201.801	-23.74
202.021	-40.61
202.241	-30.9
202.461	-25.93
202.682	36.07
202.902	30.03
203.122	65.43
203.342	72.63
203.563	54.29
203.783	18.21
204.003	15.21
204.223	-0.34
204.443	1.26
204.663	9.57
204.884	24.33
205.104	4.98
205.324	3.87
205.544	0.48
205.764	22.79
205.984	20.11
206.204	33.12
206.424	12.11
206.644	-17.06
206.864	-45.32
207.084	-4.03
207.304	-16.28
207.525	12.5
207.745	19.03
207.964	28.82
208.184	25.39
208.404	25.56
208.624	16.83
208.844	13.95
209.064	8.28
209.284	0.62
209.504	-12.61
209.724	-15.17
209.944	-28.92
210.164	-29.66
210.384	-41.68
210.604	-88.55
210.823	-128.16
211.043	-97.92
211.263	-237.46
211.483	-141.8
211.703	-93.52
211.922	-70.23
212.142	-29.62
212.362	24.32
212.582	28.74
212.801	49.91
213.021	33.21
213.241	20.95
213.461	15.48
213.68	12.81
213.9	7.49
214.12	3.71
214.339	3.15
214.559	1.29
214.779	-13.55
214.998	-7.44
215.218	-1.65
215.438	2.08
215.657	-21.71
215.877	-26.69
216.096	-9.87
216.316	-13.2
216.535	-12.72
216.755	-1.21
216.974	-7.3
217.194	-35.56
217.413	-34.43
217.633	-53.2
217.852	-36.26
218.072	-15.6
218.291	-2.83
218.511	-3.22
218.73	-4.43
218.95	-45.92
219.169	-60.21
219.389	-38.68
219.608	-27.68
219.827	-8.94
220.047	30.04
220.266	14.69
220.485	-12.19
220.705	-17.04
220.924	-63.73
221.143	-39.24
221.363	-5.63
221.582	-12.95
221.801	12.69
222.021	30.23
222.24	24.72
222.459	46.71
222.678	59.17
222.897	59.3
223.117	58.36
223.336	71.65
223.555	63.9
223.774	65.5
223.993	49.06
224.213	71.93
224.432	67.5
224.651	56.12
224.87	52.25
225.089	51.69
225.308	42.28
225.527	16.5
225.746	15.32
225.965	-2.61
226.184	3.43
226.404	-6.29
226.623	16.41
226.842	11.58
227.061	24.16
227.28	27.83
227.499	35.98
227.718	39.86
227.936	40.4
228.155	41.97
228.374	29.89
228.593	23.08
228.812	7.54
229.031	15.93
229.25	5.71
229.469	15.3
229.688	15.2
229.907	27
230.125	21.57
230.344	29.15
230.563	25.81
230.782	23.3
231.001	17.23
231.22	18.17
231.438	15.81
231.657	16.01
231.876	21.34
232.095	24.27
232.313	27.48
232.532	30.16
232.751	21.2
232.969	19.93
233.188	16.71
233.407	16.62
233.625	11.43
233.844	28.61
234.063	27.77
234.281	19.3
234.5	17.57
234.719	12.6
234.937	-8.02
235.156	-12.31
235.374	18.88
235.593	23.88
235.811	52.06
236.03	47.84
236.249	56.46
236.467	38.55
236.686	31.61
236.904	15.37
237.123	2.6
237.341	-22.87
237.559	-20.45
237.778	1.67
237.996	-20.62
238.215	-30.78
238.433	-18.74
238.652	24.45
238.87	25.49
239.088	44.51
239.307	49.13
239.525	44.8
239.743	18.32
239.962	-5.35
240.18	-4.28
240.398	-16.39
240.617	-33.66
240.835	-27.8
241.053	-4.06
241.271	-3.65
241.49	12.89
241.708	7.76
241.926	-0.33
242.144	-0.42
242.363	-5.68
242.581	-63.88
242.799	-45.37
243.017	-32.79
243.235	-20.07
243.453	-25.06
243.672	-4.84
243.89	-0.94
244.108	25.32
244.326	34.91
244.544	44.93
244.762	36.74
244.98	45.36
245.198	30.36
245.416	17.12
245.634	9.16
245.852	3.73
246.07	8.98
246.288	19.45
246.506	14.72
246.724	19.12
246.942	26.72
247.16	21.92
247.378	-5.09
247.596	18.53
247.814	-0.98
248.032	-7.01
248.25	16.43
248.468	45.69
248.685	43.37
248.903	42.75
249.121	48.2
249.339	47.18
249.557	34.04
249.775	36.28
249.992	31.62
250.21	24.33
250.428	33.52
250.646	28.54
250.863	13.67
251.081	30.38
251.299	40.71
251.517	11.71
251.734	25.52
251.952	25.93
252.17	13.73
252.387	-4.12
252.605	11.5
252.823	7.36
253.04	32.74
253.258	34.9
253.475	42.5
253.693	26.63
253.911	22.91
254.128	17.01
254.346	24.6
254.563	26.22
254.781	33.5
254.998	37.34
255.216	23.5
255.433	-12.2
255.651	-7.96
255.868	8.93
256.086	-2.59
256.303	13.49
256.521	29.62
256.738	21.86
256.956	18.06
257.173	30.73
257.39	27.31
257.608	15.82
257.825	12.02
258.043	15.68
258.26	16.49
258.477	20.23
258.695	21.62
258.912	16.96
259.129	5.69
259.346	-13.49
259.564	-20.72
259.781	-22.91
259.998	23.35
260.216	31.42
260.433	30.05
260.65	27.54
260.867	25.52
261.084	6.97
261.302	2.38
261.519	7.23
261.736	16.07
261.953	31.14
262.17	40.1
262.387	24.12
262.604	26.2
262.822	32.35
263.039	34.95
263.256	31.83
263.473	42.22
263.69	36.74
263.907	35.82
264.124	35.12
264.341	25.77
264.558	17.89
264.775	25.85
264.992	17.44
265.209	10.56
265.426	9.71
265.643	18.67
265.86	6.78
266.077	8.44
266.294	16.95
266.51	41.52
266.727	35.45
266.944	40
267.161	36.43
267.378	40.16
267.595	22.65
267.812	3.73
268.028	-10.78
268.245	-0.4
268.462	3.78
268.679	21.43
268.896	54.18
269.112	34.87
269.329	-1.16
269.546	-8.4
269.763	-23.08
269.979	-32.51
270.196	-15.05
270.413	1.13
270.629	-5.34
270.846	2.08
271.063	-2.19
271.279	3.59
271.496	-0.77
271.712	2.99
271.929	9.97
272.146	18.73
272.362	13.6
272.579	19.94
272.795	20.16
273.012	24.01
273.228	5.53
273.445	9.49
273.661	8.45
273.878	-9.61
274.094	-23.05
274.311	-2.12
274.527	-0.93
274.744	7.66
274.96	20.64
275.177	28.16
275.393	38.18
275.609	42.76
275.826	37.24
276.042	26.59
276.259	24.21
276.475	4.22
276.691	-14.17
276.908	-8.94
277.124	13.17
277.34	29.25
277.557	29.92
277.773	44.66
277.989	41.59
278.205	29.59
278.422	9.36
278.638	3.52
278.854	-3.28
279.07	-4.84
279.286	-16.26
279.503	-6.19
279.719	10.01
279.935	5.06
280.151	3.56
280.367	26.76
280.583	21.91
280.799	10.34
281.016	2.66
281.232	-1.18
281.448	-9.15
281.664	-11.9
281.88	-8.83
282.096	-1.13
282.312	-1.58
282.528	-2.83
282.744	10.83
282.96	7
283.176	9.57
283.392	11.69
283.608	0.08
283.824	-45.36
284.04	-106.74
284.256	-46.57
284.471	-16
284.687	-8.4
284.903	3.14
285.119	30.7
285.335	34.15
285.551	39.88
285.767	34.12
285.982	32.45
286.198	-9.5
286.414	3.36
286.63	-9.24
286.846	8.56
287.061	27.15
287.277	56.33
287.493	33.39
287.709	39.75
287.924	46.1
288.14	43.85
288.356	36.27
288.571	24.56
288.787	5.5
289.003	0.39
289.218	-22.87
289.434	-30.76
289.65	4.52
289.865	16.87
290.081	13.2
290.296	24.51
290.512	31.13
290.727	23.04
290.943	20.93
291.159	29
291.374	16.14
291.59	10.25
291.805	-6.04
292.021	-10.08
292.236	-23.84
292.451	-8.11
292.667	4.44
292.882	22.4
293.098	24.95
293.313	14.01
293.529	19.73
293.744	13.96
293.959	20.91
294.175	23.7
294.39	6.42
294.605	12.69
294.821	16.14
295.036	10.51
295.251	4.71
295.467	16.72
295.682	13.14
295.897	0.2
296.112	-20.99
296.328	-2.35
296.543	-11.11
296.758	-15.05
296.973	-3.61
297.188	8.7
297.404	-7.05
297.619	-5.71
297.834	-24.33
298.049	1.37
298.264	-3.9
298.479	0.79
298.694	39.49
298.909	54.85
299.125	36.93
299.34	45.47
299.555	49.03
299.77	32.55
299.985	11.29
300.2	20.85
300.415	26.7
300.63	26.76
300.845	28.15
301.06	36.2
301.275	41.7
301.49	31.14
301.704	19.15
301.919	11.13
302.134	13.77
302.349	26.3
302.564	25.44
302.779	15.07
302.994	37.07
303.209	47.12
303.423	24.32
303.638	28.29
303.853	53.29
304.068	21.19
304.283	8.97
304.497	11.53
304.712	17.64
304.927	11.7
305.142	18.59
305.356	28.64
305.571	29.44
305.786	29.58
306	40.33
306.215	33.05
306.43	17.16
306.644	3.54
306.859	-22.85
307.074	-25.31
307.288	-6.74
307.503	12.6
307.717	15.58
307.932	26.3
308.147	27.72
308.361	30.19
308.576	13.7
308.79	6.68
309.005	-8.78
309.219	-3.05
309.434	-9.65
309.648	-2.3
309.863	7.33
310.077	20.48
310.292	13.96
310.506	-4.12
310.72	-13.56
310.935	-22.53
311.149	-12.76
311.364	4.79
311.578	19.53
311.792	18.98
312.007	48.12
312.221	21.6
312.435	-15.17
312.649	-15.51
312.864	-4.24
313.078	-14.93
313.292	-5.13
313.507	10.82
313.721	15.17
313.935	22.86
314.149	30.98
314.363	24.29
314.578	19.93
314.792	9.49
315.006	-14.83
315.22	-6.94
315.434	3.53
315.648	-20.46
315.862	-10.13
316.077	-8.17
316.291	-16.15
316.505	-45.45
316.719	-9.23
316.933	-20.62
317.147	-4.53
317.361	-6.22
317.575	8.15
317.789	11.47
318.003	24.22
318.217	10.68
318.431	-2.81
318.645	-1.77
318.859	-7.49
319.073	0.57
319.287	7.89
319.5	17.07
319.714	9.33
319.928	6.74
320.142	-2.75
320.356	3.52
320.57	5.92
320.784	0.21
320.997	-11.13
321.211	9.64
321.425	-18.51
321.639	-11.28
321.853	-2.36
322.066	-7.38
322.28	-39.99
322.494	-14.02
322.707	-17.55
322.921	-24.46
323.135	-3.54
323.349	6.71
323.562	8.59
323.776	11.38
323.989	28.49
324.203	18.11
324.417	27.81
324.63	30.43
324.844	16.65
325.057	-6.15
325.271	-8.97
325.485	-14.17
325.698	-11.88
325.912	7.38
326.125	12.02
326.339	20.87
326.552	11.36
326.766	-1.68
326.979	4.47
327.193	12.98
327.406	8.74
327.619	21.62
327.833	35.57
328.046	22.85
328.26	14.1
328.473	23.02
328.686	14.3
328.9	24.81
329.113	22.21
329.326	22.65
329.54	29.2
329.753	34.91
329.966	22.22
330.179	15.15
330.393	13.3
330.606	0.68
330.819	-19.81
331.032	-10.51
331.246	6.19
331.459	26.74
331.672	32.87
331.885	32.68
332.098	30.51
332.311	22.52
332.525	20.74
332.738	10.32
332.951	8.57
333.164	4.66
333.377	10.54
333.59	-6.58
333.803	4.28
334.016	8.73
334.229	10.47
334.442	4.43
334.655	9.37
334.868	9.92
335.081	11.57
335.294	4.11
335.507	7.85
335.72	17.49
335.933	5.2
336.146	15.73
336.359	21.85
336.572	26.97
336.785	12.54
336.997	19.59
337.21	16.21
337.423	6.8
337.636	10.5
337.849	3.69
338.062	12.92
338.274	24.22
338.487	16.2
338.7	-4.33
338.913	11.16
339.125	1.77
339.338	-16.3
339.551	-7.34
339.763	5.56
339.976	12.37
340.189	4.44
340.402	28.89
340.614	40.77
340.827	40.55
341.039	28.07
341.252	40.94
341.465	22.45
341.677	5.32
341.89	-10.79
342.102	-0.74
342.315	-1.25
342.527	9.53
342.74	11.88
342.952	14.39
343.165	24.31
343.377	12.4
343.59	16.12
343.802	16.63
344.015	27.26
344.227	19.79
344.44	14.15
344.652	9.32
344.864	25.4
345.077	39.51
345.289	36.01
345.502	44.38
345.714	47.4
345.926	50.48
346.139	26.9
346.351	24.15
346.563	36.05
346.775	15.79
346.988	6.55
347.2	14.49
347.412	14.78
347.624	11.98
347.837	29.73
348.049	27.27
348.261	14.03
348.473	3.79
348.685	-1.43
348.897	-30.38
349.11	-22.73
349.322	-3.35
349.534	-0.61
349.746	1.12
349.958	7.22
350.17	-13.48
350.382	-13.37
350.594	1.4
350.806	18.05
351.018	25.85
351.23	36.85
351.442	39.39
351.654	37.41
351.866	23.54
352.078	26.81
352.29	23.65
352.502	5.33
352.714	-8.87
352.926	-5.98
353.138	0.64
353.35	-4.43
353.561	5.72
353.773	11.66
353.985	24.46
354.197	9.36
354.409	17.8
354.621	10.89
354.832	8.84
355.044	-14.17
355.256	-9.86
355.468	-20.52
355.679	-2.34
355.891	15.81
356.103	11.17
356.314	15.77
356.526	0.91
356.738	-4.21
356.949	-17.74
357.161	15.23
357.373	17.05
357.584	29.77
357.796	35.99
358.008	37.44
358.219	19.83
358.431	10.91
358.642	17.77
358.854	10.54
359.065	-5.52
359.277	-3.42
359.488	-3.12
359.7	-10.05
359.911	-9.99
360.123	8.87
360.334	8.87
360.546	4.52
360.757	3.45
360.969	-5.13
361.18	-5.86
361.391	2.23
361.603	6.13
361.814	15.85
362.025	29.72
362.237	19.19
362.448	27.98
362.659	18.49
362.871	5.77
363.082	-5.81
363.293	-9.52
363.504	-34.79
363.716	-24.21
363.927	-0.85
364.138	-9.52
364.349	-10.37
364.56	-9.64
364.772	12.52
364.983	20.88
365.194	22.08
365.405	32.42
365.616	34.61
365.827	22.65
366.038	12.01
366.25	15.49
366.461	13.13
366.672	7.6
366.883	2.43
367.094	-13.02
367.305	-22.2
367.516	-12.82
367.727	-17.89
367.938	-5.12
368.149	-1.77
368.36	8.32
368.571	-5.14
368.781	2.42
368.992	-23.54
369.203	-22.6
369.414	-37.57
369.625	-32.64
369.836	-8.14
370.047	8.2
370.258	25.74
370.468	34.7
370.679	24.68
370.89	3.51
371.101	4.23
371.312	-5.09
371.522	-2.54
371.733	-1.78
371.944	-9.37
372.155	0.51
372.365	6.39
372.576	-4.71
372.787	1.74
372.997	8.15
373.208	-0.82
373.419	-8.94
373.629	-6.57
373.84	-6.21
374.05	-8.55
374.261	-21.09
374.472	-11.22
374.682	0.8
374.893	-8.32
375.103	3.38
375.314	17.19
375.524	3.42
375.735	13.2
375.945	23.7
376.156	25.43
376.366	23.17
376.577	29.78
376.787	10.79
376.997	8.59
377.208	8.66
377.418	4.95
377.629	4.81
377.839	21.27
378.049	22.92
378.26	15.33
378.47	8.55
378.68	6.37
378.89	-1.74
379.101	0.78
379.311	7.28
379.521	12.83
379.732	26.64
379.942	18.58
380.152	10.73
380.362	11.22
380.572	20.31
380.783	14.61
380.993	15.71
381.203	15.97
381.413	17.1
381.623	14.76
381.833	22.35
382.043	23.16
382.253	21.22
382.463	22.81
382.674	21.2
382.884	20.84
383.094	20.17
383.304	25.99
383.514	21.44
383.724	23.61
383.934	13.38
384.144	19.7
384.353	14.04
384.563	18.41
384.773	19.66
384.983	15.03
385.193	6.47
385.403	11.15
385.613	10.87
385.823	9.6
386.033	15.65
386.242	16.95
386.452	13.27
386.662	5.15
386.872	5.05
387.082	-5.15
387.291	-9.21
387.501	-6.73
387.711	-1.24
387.921	-2.69
388.13	6.12
388.34	11.86
388.55	7.05
388.759	1.06
388.969	-1.09
389.179	-4.67
389.388	-4.09
389.598	-7.04
389.807	-7.23
390.017	-5.26
390.227	-7.26
390.436	-7.73
390.646	-1.44
390.855	2.85
391.065	1.42
391.274	5.02
391.484	2.46
391.693	-1.22
391.903	-3.2
392.112	-2.53
392.322	-5.46
392.531	-4.62
392.74	-4.43
392.95	-2.13
393.159	-0.9
393.369	0.41
393.578	-0.11
393.787	1.89
393.997	1.66
394.206	-0.4
394.415	0.14
394.625	0.96
394.834	-0.04
395.043	0
395.252	4.46
395.462	5.05
395.671	5.75
395.88	6.9
396.089	6.63
396.298	4.35
396.508	4.57
396.717	4.08
396.926	3.13
397.135	3.62
397.344	2.84
397.553	2.16
397.762	3.41
397.971	3.69
398.181	3.19
398.39	3.03
398.599	2.96
398.808	1.56
399.017	2.28
399.226	2.02
399.435	2.86
399.644	2.99
399.853	3.61
400.062	3.21
400.27	3.1
400.479	2.73
400.688	2.69
400.897	2.35
401.106	2.43
401.315	2.49
401.524	2.75
401.733	2.54
401.941	2.91
402.15	2.76
402.359	3.1
402.568	3.34
402.777	3.75
402.985	3.31
403.194	3.2
403.403	3.28
403.612	2.91
403.82	2.57
404.029	2.92
404.238	2.86
404.446	2.83
404.655	2.91
404.864	2.94
405.072	2.76
405.281	2.96
405.489	2.74
405.698	2.8
405.906	2.94
406.115	2.88
406.324	2.84
406.532	2.84
406.741	2.76
406.949	2.76
407.158	2.91
407.366	2.73
407.574	2.91
407.783	3.02
407.991	2.92
408.2	2.98
408.408	3.16
408.617	2.96
408.825	2.75
409.033	2.75
409.242	2.71
409.45	2.55
409.658	2.64
409.867	2.81
410.075	2.87
410.283	2.7
410.491	2.69
410.7	2.57
410.908	2.6
411.116	2.73
411.324	2.8
411.533	2.84
411.741	2.85
411.949	2.79
412.157	2.56
412.365	2.53
412.573	2.7
412.781	2.69
412.99	2.74
413.198	2.82
413.406	2.9
413.614	2.84
413.822	3.06
414.03	2.91
414.238	3
414.446	2.95
414.654	2.83
414.862	2.67
415.07	2.66
415.278	2.62
415.486	2.6
415.694	2.68
415.902	2.63
416.109	2.63
416.317	2.57
416.525	2.46
416.733	2.27
416.941	2.4
417.149	2.37
417.357	2.44
417.564	2.55
417.772	2.65
417.98	2.65
418.188	2.61
418.395	2.36
418.603	2.3
418.811	2.35
419.019	2.28
419.226	2.23
419.434	2.36
419.642	2.23
419.849	2.13
420.057	2.08
420.265	2.1
420.472	2.09
420.68	2.3
420.887	2.31
421.095	2.36
421.302	2.52
421.51	2.58
421.717	2.53
421.925	2.56
422.132	2.48
422.34	2.17
422.547	2.02
422.755	2.13
422.962	2.19
423.17	2.02
423.377	2.25
423.585	2.47
423.792	2.32
423.999	2.28
424.207	2.33
424.414	2.1
424.621	2.03
424.829	2.11
425.036	2.03
425.243	2.24
425.451	2.39
425.658	2.31
425.865	2.23
426.072	2.26
426.28	2.3
426.487	2.29
426.694	2.24
426.901	2.26
427.108	2.27
427.315	2.18
427.523	2.07
427.73	2.02
427.937	1.85
428.144	1.88
428.351	1.81
428.558	2
428.765	2.06
428.972	2.29
429.179	2.16
429.386	2.18
429.593	1.98
429.8	2.16
430.007	2.22
430.214	2.36
430.421	2.51
430.628	2.58
430.835	2.4
431.042	2.29
431.249	2.31
431.456	2.05
431.662	2.16
431.869	2.27
432.076	2.19
432.283	2.27
432.49	2.4
432.697	2.44
432.903	2.43
433.11	2.58
433.317	2.59
433.524	2.63
433.73	2.48
433.937	2.65
434.144	2.47
434.35	2.32
434.557	2.3
434.764	2.34
434.97	2.14
435.177	2.35
435.384	2.48
435.59	2.53
435.797	2.69
436.003	2.73
436.21	2.65
436.416	2.7
436.623	2.62
436.829	2.51
437.036	2.57
437.242	2.53
437.449	2.49
437.655	2.61
437.862	2.55
438.068	2.58
438.275	2.7
438.481	2.72
438.687	2.63
438.894	2.94
439.1	2.83
439.307	2.86
439.513	2.79
439.719	2.96
439.926	2.83
440.132	2.84
440.338	2.78
440.544	2.78
440.751	2.67
440.957	2.64
441.163	2.65
441.369	2.77
441.575	2.71
441.782	2.76
441.988	2.76
442.194	2.81
442.4	2.71
442.606	2.94
442.812	2.91
443.018	2.93
443.224	3
443.431	2.94
443.637	2.76
443.843	2.81
444.049	2.92
444.255	2.86
444.461	2.81
444.667	2.79
444.873	2.77
445.079	2.7
445.284	2.71
445.49	2.78
445.696	2.86
445.902	2.94
446.108	2.93
446.314	2.99
446.52	3.05
446.726	3.05
446.931	2.95
447.137	2.87
447.343	2.96
447.549	2.99
447.755	3.03
447.96	3.09
448.166	3.21
448.372	3.09
448.578	3.01
448.783	3.01
448.989	3.01
449.195	2.96
449.4	3.07
449.606	3.12
449.812	3.13
450.017	3.19
450.223	3.2
450.428	3.12
450.634	3.11
450.84	3.06
451.045	2.98
451.251	2.99
451.456	3.05
451.662	3.19
451.867	3.22
452.073	3.3
452.278	3.34
452.483	3.37
452.689	3.31
452.894	3.44
453.1	3.45
453.305	3.44
453.51	3.42
453.716	3.39
453.921	3.35
454.127	3.28
454.332	3.21
454.537	3.18
454.742	3.25
454.948	3.2
455.153	3.2
455.358	3.28
455.563	3.39
455.769	3.35
455.974	3.26
456.179	3.28
456.384	3.22
456.589	3.1
456.795	3.03
457	3.1
457.205	3.08
457.41	3.06
457.615	3.06
457.82	3.17
458.025	3.19
458.23	3.24
458.435	3.29
458.64	3.31
458.845	3.32
459.05	3.32
459.255	3.32
459.46	3.35
459.665	3.35
459.87	3.27
460.075	3.34
460.28	3.4
460.485	3.46
460.69	3.44
460.895	3.57
461.099	3.4
461.304	3.32
461.509	3.25
461.714	3.33
461.919	3.27
462.123	3.36
462.328	3.34
462.533	3.27
462.738	3.18
462.942	3.1
463.147	3.06
463.352	3.12
463.556	3.27
463.761	3.3
463.966	3.39
464.17	3.5
464.375	3.55
464.58	3.47
464.784	3.57
464.989	3.53
465.193	3.48
465.398	3.41
465.602	3.53
465.807	3.5
466.011	3.53
466.216	3.48
466.42	3.58
466.625	3.57
466.829	3.55
467.034	3.61
467.238	3.75
467.443	3.72
467.647	3.68
467.851	3.74
468.056	3.78
