Data from Ofra_PS_T2_1A_6EV18_Reflection_1.txt Node
Date: Wed Jul 21 18:09:37 EDT 2021
User: Adam
Spectrometer: FLMT01687
Trigger mode: 0
Integration Time (sec): 1.100000E0
Scans to average: 2
Electric dark correction enabled: true
Nonlinearity correction enabled: false
Boxcar width: 2
XAxis mode: Wavelengths
Number of Pixels in Spectrum: 3648
>>>>>Begin Spectral Data<<<<<
179.494	542
179.716	639.06
179.937	596.47
180.158	601.62
180.38	1022.19
180.601	282.04
180.823	72.25
181.044	-66.59
181.265	110.66
181.486	68.5
181.708	167.78
181.929	852.04
182.15	-380.99
182.372	113.34
182.593	100.17
182.814	69.1
183.035	71.91
183.257	52.18
183.478	-33.94
183.699	-56.66
183.92	-80.19
184.141	-64.1
184.363	-118.06
184.584	-84.08
184.805	-38.55
185.026	-8.82
185.247	11.78
185.468	-7.83
185.689	21.86
185.91	28.52
186.132	39.94
186.353	17.75
186.574	77.58
186.795	51.68
187.016	22.7
187.237	-16.59
187.458	-39.96
187.679	-67.16
187.9	-49.63
188.121	-39.81
188.342	-1.69
188.563	44.32
188.784	98.96
189.005	106.02
189.226	152.69
189.447	118.77
189.667	88.59
189.888	-202.71
190.109	-1001.95
190.33	-602.26
190.551	-1176.55
190.772	-317.55
190.993	-204.18
191.214	-215.61
191.434	-152.82
191.655	-36.87
191.876	-62.43
192.097	-118.62
192.318	-105.23
192.538	-184.9
192.759	-192.22
192.98	-51.22
193.201	-1.75
193.421	20.83
193.642	43.51
193.863	69.35
194.083	38
194.304	7.74
194.525	-5.12
194.745	-22.81
194.966	-45.74
195.187	-50.78
195.407	-62.82
195.628	-128.14
195.848	-152.86
196.069	-154.76
196.29	-115.08
196.51	-106.17
196.731	-98.35
196.951	-69.12
197.172	-80.01
197.392	-115.53
197.613	-139.86
197.833	-118.15
198.054	-125.1
198.274	-78.09
198.495	-91.33
198.715	-48.36
198.936	-64.57
199.156	-56.09
199.377	-147.98
199.597	-123.59
199.817	-148.16
200.038	-91.02
200.258	-142.32
200.479	-49.93
200.699	-53.62
200.919	21.97
201.14	15.88
201.36	-9.03
201.58	9.34
201.801	40.57
202.021	0.92
202.241	-12.87
202.461	4.6
202.682	-79.94
202.902	-125.33
203.122	-53.71
203.342	-34.62
203.563	-2.65
203.783	33.05
204.003	11.14
204.223	17.86
204.443	46.06
204.663	12.99
204.884	19.92
205.104	44.22
205.324	57.42
205.544	71.22
205.764	85.61
205.984	82.93
206.204	79.45
206.424	73.57
206.644	39.83
206.864	44.85
207.084	-5.42
207.304	-33.64
207.525	-216.72
207.745	-141.37
207.964	-100.19
208.184	-91.42
208.404	-113.86
208.624	-105.48
208.844	-80.07
209.064	-313.94
209.284	-403.5
209.504	-185.83
209.724	-51.73
209.944	-26.68
210.164	-0.26
210.384	23.02
210.604	10.32
210.823	-34.54
211.043	-39.06
211.263	-37.73
211.483	-44.69
211.703	-83.96
211.922	-60.54
212.142	-11.44
212.362	13.22
212.582	10.09
212.801	4.29
213.021	-19.92
213.241	-28.87
213.461	-60.79
213.68	-67.63
213.9	-23.29
214.12	5.36
214.339	-77
214.559	-56.05
214.779	-18.94
214.998	-45.36
215.218	-104.6
215.438	-29.64
215.657	-33.87
215.877	-20.46
216.096	30.16
216.316	50.97
216.535	33.24
216.755	34.76
216.974	-19.67
217.194	-90.61
217.413	-113.34
217.633	-131.14
217.852	-270.73
218.072	-124.28
218.291	-65.77
218.511	-15.16
218.73	-30.21
218.95	-10.84
219.169	-12.79
219.389	-56.69
219.608	-50.94
219.827	-32.84
220.047	-19.92
220.266	-13.24
220.485	-12.07
220.705	4.34
220.924	-25.97
221.143	10.98
221.363	-6.04
221.582	25.67
221.801	30.88
222.021	49.9
222.24	-1.33
222.459	74.27
222.678	-10.27
222.897	-61.31
223.117	-118.65
223.336	-76.03
223.555	-53.89
223.774	29.16
223.993	45.23
224.213	84.68
224.432	62.44
224.651	57.94
224.87	-1.74
225.089	15.44
225.308	17.32
225.527	35.65
225.746	20.09
225.965	27.4
226.184	10.02
226.404	21.98
226.623	-7.68
226.842	11.8
227.061	29.95
227.28	32.91
227.499	20.61
227.718	38.19
227.936	16.01
228.155	25.74
228.374	-0.47
228.593	8.94
228.812	-6.8
229.031	3.31
229.25	-57.64
229.469	-55.89
229.688	-54.16
229.907	-14.89
230.125	-17.1
230.344	4.68
230.563	23.63
230.782	30.21
231.001	-50.74
231.22	-32.23
231.438	-9.82
231.657	-11.69
231.876	-38.88
232.095	16.87
232.313	7.91
232.532	-16.03
232.751	-48.71
232.969	-49.5
233.188	-157.35
233.407	-61.8
233.625	-29.92
233.844	-48.9
234.063	-11.72
234.281	18.82
234.5	4.2
234.719	7.72
234.937	32.46
235.156	14.34
235.374	-1.79
235.593	-2.08
235.811	-17.4
236.03	-30.39
236.249	-65.93
236.467	-53.14
236.686	-7.26
236.904	4.6
237.123	-11.65
237.341	-0.32
237.559	-0.82
237.778	-17.75
237.996	-48.72
238.215	-7.86
238.433	-2.79
238.652	-4.63
238.87	-41.58
239.088	-11.99
239.307	-28.17
239.525	-29.85
239.743	-50.83
239.962	-31.08
240.18	-66.76
240.398	-100.15
240.617	-101.42
240.835	-66.59
241.053	-53.53
241.271	16.23
241.49	24.11
241.708	-2.54
241.926	-38.96
242.144	-21.16
242.363	-60.28
242.581	-56.33
242.799	-20.33
243.017	15.21
243.235	-3.78
243.453	-19.63
243.672	-21.31
243.89	-15.28
244.108	-21.3
244.326	12.4
244.544	19.98
244.762	18.53
244.98	29.9
245.198	23.63
245.416	-30.17
245.634	-27.35
245.852	-26.68
246.07	-39.97
246.288	-58.83
246.506	-84.52
246.724	-66.37
246.942	-77.51
247.16	-36.93
247.378	-28.72
247.596	10.39
247.814	-2.46
248.032	-19.07
248.25	-37.23
248.468	-15.5
248.685	4.98
248.903	24.09
249.121	34.4
249.339	17.66
249.557	15.32
249.775	-4.15
249.992	-73.09
250.21	-73.07
250.428	-44.27
250.646	-77.29
250.863	-86.14
251.081	-36.61
251.299	-20.95
251.517	-26.19
251.734	-11.72
251.952	-10.28
252.17	-12.03
252.387	-12.03
252.605	-21.78
252.823	-8.33
253.04	1.17
253.258	22.17
253.475	20.87
253.693	30.35
253.911	17.03
254.128	17.81
254.346	15.18
254.563	4.01
254.781	-14.42
254.998	-39.93
255.216	-50.09
255.433	-48.18
255.651	-12.63
255.868	10.56
256.086	44.47
256.303	16.3
256.521	18.16
256.738	-4.24
256.956	-32.5
257.173	-62.67
257.39	-45.33
257.608	-69.87
257.825	-5.04
258.043	50.36
258.26	58.98
258.477	85.55
258.695	68.04
258.912	0.42
259.129	-5.59
259.346	-38.75
259.564	-122.34
259.781	-128.12
259.998	-43.34
260.216	-20.01
260.433	12.15
260.65	45.7
260.867	46.84
261.084	-3.22
261.302	-24.22
261.519	-37.38
261.736	-66.6
261.953	-57.16
262.17	-3.5
262.387	-43.55
262.604	-65.73
262.822	-74.35
263.039	-79.23
263.256	-131.01
263.473	-62.12
263.69	-39.03
263.907	8.16
264.124	6.55
264.341	18.84
264.558	-5.51
264.775	8.49
264.992	2.2
265.209	18.56
265.426	25.8
265.643	37.21
265.86	42.93
266.077	45.42
266.294	30.37
266.51	-7.86
266.727	-17.2
266.944	-18.15
267.161	-32.7
267.378	-35.95
267.595	-7.25
267.812	-38.17
268.028	-63.87
268.245	-32.63
268.462	-39.28
268.679	-48.36
268.896	11.72
269.112	0.3
269.329	-16.73
269.546	-6.84
269.763	-9.06
269.979	-36.4
270.196	-22.36
270.413	-49.08
270.629	-74.77
270.846	-83.08
271.063	-81.03
271.279	-98.76
271.496	-71.45
271.712	-15.96
271.929	11
272.146	23.65
272.362	56.95
272.579	66.35
272.795	49.89
273.012	58.66
273.228	42.75
273.445	11.26
273.661	-18.38
273.878	-63.09
274.094	-71.52
274.311	-94.08
274.527	-27.99
274.744	-11.45
274.96	-4.01
275.177	2.94
275.393	12.23
275.609	-2.45
275.826	12.52
276.042	-0.2
276.259	-9.45
276.475	9.56
276.691	6.98
276.908	-16.91
277.124	-1.24
277.34	-10.76
277.557	-18.14
277.773	-14.41
277.989	-21.96
278.205	-17.14
278.422	10.28
278.638	16.84
278.854	35.95
279.07	43.47
279.286	27.45
279.503	-0.47
279.719	-24.6
279.935	-46.63
280.151	-74.18
280.367	-32.69
280.583	-56.75
280.799	-36.79
281.016	-51.04
281.232	-6.68
281.448	-24.68
281.664	-0.2
281.88	-34.37
282.096	-14.56
282.312	-0.04
282.528	18.69
282.744	19.3
282.96	24.1
283.176	17.91
283.392	17.78
283.608	1.28
283.824	-2.93
284.04	7.22
284.256	17.83
284.471	2.63
284.687	7.68
284.903	18.54
285.119	31.15
285.335	-2.32
285.551	-5.55
285.767	-15.51
285.982	-24.54
286.198	-62.62
286.414	-7.31
286.63	13.96
286.846	35.12
287.061	11.43
287.277	32.19
287.493	1.85
287.709	2.29
287.924	-23.41
288.14	13.56
288.356	12.32
288.571	32.89
288.787	2.18
289.003	10.65
289.218	-5.06
289.434	-38.03
289.65	-39.11
289.865	-27.75
290.081	-25.46
290.296	-11.42
290.512	11.13
290.727	-15.05
290.943	-28.72
291.159	-34.24
291.374	-50.91
291.59	-72.6
291.805	-45.49
292.021	-35.22
292.236	-23.07
292.451	13.67
292.667	20.52
292.882	24.03
293.098	34.89
293.313	27.36
293.529	-9.6
293.744	-29.17
293.959	-32.5
294.175	-37.97
294.39	-1.3
294.605	16
294.821	44.07
295.036	47.52
295.251	59.83
295.467	14.63
295.682	-2.63
295.897	-56.71
296.112	-65.28
296.328	-75.14
296.543	-67.71
296.758	-49.73
296.973	-3.75
297.188	28.08
297.404	12.81
297.619	12.92
297.834	-13.21
298.049	-39.73
298.264	-84.03
298.479	-18.83
298.694	-12.62
298.909	3.76
299.125	8.84
299.34	25.57
299.555	-5.11
299.77	15.26
299.985	-21.43
300.2	-62.72
300.415	-79.5
300.63	-54.32
300.845	-79.41
301.06	-67
301.275	-22.84
301.49	-8.27
301.704	-11.86
301.919	-17.02
302.134	-28.97
302.349	-41.19
302.564	-100.35
302.779	-121.09
302.994	-96.94
303.209	-53.63
303.423	-35.96
303.638	30.18
303.853	-2.92
304.068	-3.37
304.283	9.4
304.497	14.1
304.712	0.82
304.927	15.85
305.142	13.05
305.356	7.1
305.571	1.27
305.786	-13.99
306	-23.5
306.215	-30.66
306.43	-42.7
306.644	-53.06
306.859	6.09
307.074	5.4
307.288	-15.91
307.503	-32.47
307.717	-28.7
307.932	-35.16
308.147	-47.52
308.361	-21.34
308.576	-22.98
308.79	-66.12
309.005	-70.15
309.219	-38.76
309.434	-52.87
309.648	-44.36
309.863	-7.73
310.077	-5.67
310.292	-12.65
310.506	-19.73
310.72	-7.95
310.935	-5.65
311.149	-6.87
311.364	3.57
311.578	24.54
311.792	17.41
312.007	30.74
312.221	21.4
312.435	22.42
312.649	6.64
312.864	31.58
313.078	19.84
313.292	92.35
313.507	64.65
313.721	92.74
313.935	42.35
314.149	37.16
314.363	11.74
314.578	16.75
314.792	13.73
315.006	3.72
315.22	15.51
315.434	11.2
315.648	21.38
315.862	18.25
316.077	23.11
316.291	2.62
316.505	11.35
316.719	-19.56
316.933	-26.66
317.147	-37.58
317.361	-85.46
317.575	-106.8
317.789	-123.13
318.003	-162.87
318.217	-140.28
318.431	-29.03
318.645	20.52
318.859	24.41
319.073	43.07
319.287	40.44
319.5	10.3
319.714	-31.38
319.928	-55.66
320.142	-87.61
320.356	-48.35
320.57	-36.7
320.784	-48.55
320.997	-57.26
321.211	-42.65
321.425	-83.63
321.639	-78.85
321.853	-19.67
322.066	2.94
322.28	1.12
322.494	14.08
322.707	15
322.921	1.72
323.135	-11.82
323.349	-10.72
323.562	-29.66
323.776	-47.72
323.989	-61.78
324.203	-79.89
324.417	-79.8
324.63	-67.31
324.844	-64.48
325.057	-47.77
325.271	-26.02
325.485	1.41
325.698	11.14
325.912	25.91
326.125	-8.31
326.339	-9.56
326.552	-35.57
326.766	-30.72
326.979	-14.35
327.193	35.4
327.406	32.34
327.619	29.68
327.833	39.18
328.046	18.66
328.26	-23.03
328.473	-15.03
328.686	-51.37
328.9	-61.3
329.113	-40.86
329.326	-43.5
329.54	-8.74
329.753	-20.01
329.966	-45.6
330.179	-32.96
330.393	-8.03
330.606	-14.4
330.819	10.5
331.032	34.13
331.246	29.39
331.459	48.16
331.672	34.44
331.885	24.38
332.098	1.65
332.311	-15.82
332.525	-70.11
332.738	-46.1
332.951	-20.09
333.164	1.2
333.377	22.53
333.59	40.78
333.803	37.81
334.016	34.57
334.229	46.34
334.442	43.69
334.655	54.92
334.868	56.68
335.081	49.43
335.294	14.32
335.507	-2.96
335.72	-10.41
335.933	-25.98
336.146	-35.03
336.359	-17.44
336.572	-24.85
336.785	-49.86
336.997	-34.05
337.21	-6.34
337.423	-5.43
337.636	-8.47
337.849	11.33
338.062	0.72
338.274	-2.31
338.487	-31.38
338.7	-18.76
338.913	-68.54
339.125	-83.5
339.338	-149.18
339.551	-107.49
339.763	-66.29
339.976	-16.04
340.189	7.16
340.402	20.66
340.614	14.14
340.827	-5.78
341.039	-28.67
341.252	-27.58
341.465	-13.67
341.677	-19.7
341.89	-42.2
342.102	-14.62
342.315	-24.53
342.527	-56.92
342.74	-55.99
342.952	-27.67
343.165	-31.13
343.377	-6.54
343.59	-0.31
343.802	23.44
344.015	42.73
344.227	51.43
344.44	35.47
344.652	38.55
344.864	18.21
345.077	24.65
345.289	29.81
345.502	34.03
345.714	24.09
345.926	32.63
346.139	6.02
346.351	0.95
346.563	11.62
346.775	18.19
346.988	2.47
347.2	0.13
347.412	-37.55
347.624	-71.25
347.837	-95.15
348.049	-49.25
348.261	-14.18
348.473	-1.15
348.685	5.56
348.897	12.54
349.11	-19.22
349.322	-31.63
349.534	-15.88
349.746	-23.47
349.958	-14.49
350.17	-7.58
350.382	12.61
350.594	8.47
350.806	17.56
351.018	16.05
351.23	20.95
351.442	-33.32
351.654	-38.79
351.866	-15.96
352.078	2.34
352.29	0.15
352.502	13.78
352.714	27.01
352.926	9.23
353.138	4.08
353.35	-1.6
353.561	3.15
353.773	-18.97
353.985	-6.99
354.197	-27.25
354.409	-28.57
354.621	-27.85
354.832	-15.67
355.044	-25.53
355.256	-18.1
355.468	-1.25
355.679	-14.95
355.891	-7.26
356.103	-13.58
356.314	3.46
356.526	-10.91
356.738	3.22
356.949	-7.99
357.161	1.04
357.373	-24.19
357.584	-27.27
357.796	-18.26
358.008	-21.15
358.219	-1.51
358.431	2.54
358.642	3.67
358.854	2.09
359.065	-4.78
359.277	-37.7
359.488	-35.56
359.7	-58.85
359.911	-72.2
360.123	-51.69
360.334	-62.48
360.546	-83.49
360.757	-64.55
360.969	-47.51
361.18	-32.54
361.391	-9.09
361.603	-5.42
361.814	5.66
362.025	4.61
362.237	-10.77
362.448	-5.67
362.659	15.21
362.871	9.03
363.082	9.95
363.293	18.49
363.504	10.56
363.716	-23.14
363.927	-17.24
364.138	-42.52
364.349	-62.02
364.56	-62.44
364.772	-44.91
364.983	-35.54
365.194	-24.2
365.405	-4.96
365.616	25.17
365.827	24.2
366.038	3.26
366.25	-19.71
366.461	-51.7
366.672	-41.52
366.883	-17.4
367.094	0.11
367.305	-1.96
367.516	-0.25
367.727	-33.14
367.938	-54.19
368.149	-41.58
368.36	-19.67
368.571	-17.56
368.781	-29.32
368.992	-32.14
369.203	-68.91
369.414	-91.85
369.625	-87.36
369.836	-83.79
370.047	-91.3
370.258	-57.84
370.468	-45.14
370.679	-63.37
370.89	-48.16
371.101	-29.78
371.312	-40.35
371.522	-39.86
371.733	-23.18
371.944	-10.74
372.155	-1.49
372.365	-2.87
372.576	-5.94
372.787	-8.53
372.997	-33.74
373.208	-36.27
373.419	-6.08
373.629	-23.07
373.84	-21.03
374.05	-27.33
374.261	-29.1
374.472	-47.54
374.682	-12.26
374.893	-9.74
375.103	31.5
375.314	19.18
375.524	7.28
375.735	2.75
375.945	2.57
376.156	-23.6
376.366	-4.37
376.577	-0.93
376.787	-10.24
376.997	-1.28
377.208	-2.56
377.418	-18.27
377.629	-8.65
377.839	-6.54
378.049	-13.28
378.26	9.18
378.47	19.18
378.68	11.34
378.89	7.38
379.101	8.93
379.311	-30.9
379.521	-65.1
379.732	-59.84
379.942	-65.74
380.152	-79.67
380.362	-33.08
380.572	-21.36
380.783	-7.23
380.993	19.13
381.203	32.64
381.413	34.16
381.623	40.89
381.833	29.41
382.043	15.23
382.253	6.24
382.463	3.22
382.674	-11.17
382.884	-24.68
383.094	-23.03
383.304	-21.96
383.514	-19.95
383.724	-8.33
383.934	-10.26
384.144	-23.88
384.353	-27.32
384.563	-22.97
384.773	-20.23
384.983	-27.04
385.193	-6.39
385.403	-3.39
385.613	-6.46
385.823	-18.56
386.033	-7.7
386.242	-15.16
386.452	-14.16
386.662	-25.33
386.872	-10.12
387.082	-14.95
387.291	-20.52
387.501	-23.85
387.711	-11.2
387.921	-19.11
388.13	-17.44
388.34	-2.95
388.55	-4.25
388.759	-6.26
388.969	-0.51
389.179	-2.63
389.388	-7.55
389.598	-1.92
389.807	-8.78
390.017	-13.67
390.227	-8.89
390.436	-10.31
390.646	-11.04
390.855	-6.28
391.065	-6.41
391.274	-11.04
391.484	-11.24
391.693	-10.96
391.903	-10.63
392.112	-3.27
392.322	1.68
392.531	3.69
392.74	2.35
392.95	0.27
393.159	-2.6
393.369	-4.61
393.578	-5.02
393.787	-3.95
393.997	-2.28
394.206	-3.89
394.415	-2.01
394.625	-2.73
394.834	-3.65
395.043	-3.06
395.252	0.18
395.462	0.99
395.671	2.76
395.88	3.27
396.089	4.63
396.298	3.07
396.508	1.69
396.717	0.5
396.926	1.21
397.135	0.85
397.344	0.18
397.553	1.04
397.762	2.63
397.971	2.38
398.181	2.47
398.39	2.02
398.599	1.7
398.808	1.45
399.017	2.23
399.226	3.28
399.435	4.49
399.644	4.88
399.853	4.24
400.062	3.73
400.27	2.96
400.479	2.52
400.688	1.6
400.897	1.69
401.106	1.61
401.315	1.38
401.524	1.77
401.733	2.54
401.941	2.95
402.15	2.94
402.359	2.66
402.568	2.83
402.777	2.86
402.985	2.87
403.194	3.03
403.403	3.13
403.612	2.58
403.82	2.24
404.029	2.25
404.238	2.08
404.446	2.39
404.655	2.32
404.864	2.22
405.072	1.87
405.281	1.9
405.489	1.64
405.698	1.7
405.906	1.83
406.115	1.9
406.324	1.97
406.532	2.24
406.741	2.51
406.949	2.51
407.158	2.43
407.366	2.45
407.574	2.26
407.783	2.04
407.991	1.92
408.2	2.02
408.408	1.95
408.617	1.92
408.825	1.86
409.033	1.98
409.242	2.12
409.45	2.19
409.658	2.04
409.867	2.19
410.075	2
410.283	1.87
410.491	1.83
410.7	1.76
410.908	1.74
411.116	2.09
411.324	1.94
411.533	1.82
411.741	2.13
411.949	2.07
412.157	1.77
412.365	1.9
412.573	2.02
412.781	1.97
412.99	1.95
413.198	2.17
413.406	2.17
413.614	2.13
413.822	1.95
414.03	1.86
414.238	1.64
414.446	1.76
414.654	1.55
414.862	1.7
415.07	1.88
415.278	2.11
415.486	1.81
415.694	2.01
415.902	1.85
416.109	1.72
416.317	1.67
416.525	1.56
416.733	1.52
416.941	1.66
417.149	1.59
417.357	1.49
417.564	1.85
417.772	2.12
417.98	2.1
418.188	2.08
418.395	2.19
418.603	2.32
418.811	1.74
419.019	1.61
419.226	1.83
419.434	1.87
419.642	1.54
419.849	1.93
420.057	1.99
420.265	1.97
420.472	1.71
420.68	1.89
420.887	1.73
421.095	1.79
421.302	1.77
421.51	1.94
421.717	1.98
421.925	2.03
422.132	1.93
422.34	1.68
422.547	1.76
422.755	1.6
422.962	1.56
423.17	1.56
423.377	1.76
423.585	1.74
423.792	1.69
423.999	1.74
424.207	1.56
424.414	1.6
424.621	1.44
424.829	1.47
425.036	1.48
425.243	1.77
425.451	1.56
425.658	1.49
425.865	1.53
426.072	1.52
426.28	1.67
426.487	1.7
426.694	1.9
426.901	1.85
427.108	1.82
427.315	1.58
427.523	1.88
427.73	1.84
427.937	1.79
428.144	1.69
428.351	1.61
428.558	1.63
428.765	1.58
428.972	1.59
429.179	1.84
429.386	2.15
429.593	1.85
429.8	1.65
430.007	1.64
430.214	1.65
430.421	1.39
430.628	1.3
430.835	1.34
431.042	1.51
431.249	1.47
431.456	1.5
431.662	1.71
431.869	1.84
432.076	1.79
432.283	1.85
432.49	1.89
432.697	1.88
432.903	1.72
433.11	1.65
433.317	1.69
433.524	1.84
433.73	1.72
433.937	1.91
434.144	1.84
434.35	1.76
434.557	1.55
434.764	1.59
434.97	1.48
435.177	1.69
435.384	1.58
435.59	1.71
435.797	1.9
436.003	2.05
436.21	1.94
436.416	2.14
436.623	2.06
436.829	2.11
437.036	2.06
437.242	2.12
437.449	1.92
437.655	1.9
437.862	1.83
438.068	1.82
438.275	1.87
438.481	2.05
438.687	2.1
438.894	2.07
439.1	2.1
439.307	2.27
439.513	2.25
439.719	2.26
439.926	2.35
440.132	2.27
440.338	2.05
440.544	2.17
440.751	2.11
440.957	2.11
441.163	2.11
441.369	2.27
441.575	2.02
441.782	2.03
441.988	1.95
442.194	1.97
442.4	1.86
442.606	2.14
442.812	2.2
443.018	2.21
443.224	2.29
443.431	2.42
443.637	2.15
443.843	2.12
444.049	2.13
444.255	2.03
444.461	1.97
444.667	2.01
444.873	2.16
445.079	2.05
445.284	2.12
445.49	1.87
445.696	1.74
445.902	1.61
446.108	1.72
446.314	1.67
446.52	1.84
446.726	2.15
446.931	2.22
447.137	2.29
447.343	2.3
447.549	2.27
447.755	2.04
447.96	2.04
448.166	1.9
448.372	1.92
448.578	1.91
448.783	2.05
448.989	2.17
449.195	2.33
449.4	2.33
449.606	2.32
449.812	2.25
450.017	2.16
450.223	2.04
450.428	1.93
450.634	2.09
450.84	2.2
451.045	2.12
451.251	2.1
451.456	2.38
451.662	2.42
451.867	2.45
452.073	2.48
452.278	2.58
452.483	2.63
452.689	2.46
452.894	2.36
453.1	2.35
453.305	2.34
453.51	2.26
453.716	2.24
453.921	2.28
454.127	2.19
454.332	2.11
454.537	2.02
454.742	2.08
454.948	2.04
455.153	2.15
455.358	2.22
455.563	2.31
455.769	2.38
455.974	2.36
456.179	2.24
456.384	2.22
456.589	2.22
456.795	2.04
457	2.05
457.205	2.31
457.41	2.29
457.615	2.18
457.82	2.27
458.025	2.28
458.23	2.11
458.435	2.19
458.64	2.15
458.845	2.24
459.05	2.26
459.255	2.25
459.46	2.26
459.665	2.35
459.87	2.35
460.075	2.26
460.28	2.27
