Data from Ofra_PS_T2_2A_6GT17_Reflection_2.txt Node
Date: Wed Jul 21 17:17:42 EDT 2021
User: Adam
Spectrometer: FLMT01687
Trigger mode: 0
Integration Time (sec): 1.100000E0
Scans to average: 2
Electric dark correction enabled: true
Nonlinearity correction enabled: false
Boxcar width: 2
XAxis mode: Wavelengths
Number of Pixels in Spectrum: 3648
>>>>>Begin Spectral Data<<<<<
179.494	575.8
179.716	684.47
179.937	627.57
180.158	595.94
180.38	992.97
180.601	521.41
180.823	164.64
181.044	27.84
181.265	345.4
181.486	97.79
181.708	70.38
181.929	-204.59
182.15	-175.7
182.372	195.02
182.593	97.65
182.814	34.29
183.035	68.04
183.257	65.93
183.478	-20.16
183.699	15.27
183.92	-1.56
184.141	-31.27
184.363	-100.88
184.584	-40.51
184.805	-30.06
185.026	23.15
185.247	34.59
185.468	25.58
185.689	23.54
185.91	18.48
186.132	0.11
186.353	-12.4
186.574	35.56
186.795	17.18
187.016	-27.17
187.237	-31.85
187.458	-73.1
187.679	-43.88
187.9	-8.82
188.121	8.46
188.342	13.95
188.563	47.53
188.784	50.21
189.005	42.21
189.226	104.56
189.447	103.71
189.667	45.75
189.888	-210.71
190.109	-921.75
190.33	-574.03
190.551	-1193.58
190.772	-254.66
190.993	-199.46
191.214	-223.09
191.434	-182.74
191.655	-62.42
191.876	-146.31
192.097	-213.77
192.318	-225.97
192.538	-377.93
192.759	-273.31
192.98	-109.47
193.201	-39.01
193.421	-15.79
193.642	15.95
193.863	36.05
194.083	-4.8
194.304	-15.66
194.525	-12.53
194.745	-26.84
194.966	-77.13
195.187	-71.73
195.407	-113.39
195.628	-183.27
195.848	-162.73
196.069	-135.76
196.29	-93.53
196.51	-92.96
196.731	-75.03
196.951	-108.74
197.172	-126.01
197.392	-152.95
197.613	-150.22
197.833	-184.69
198.054	-142.45
198.274	-76.28
198.495	-75.33
198.715	-42.27
198.936	-60.55
199.156	-61.28
199.377	-158.75
199.597	-170.22
199.817	-178.68
200.038	-97.98
200.258	-139.7
200.479	-82.27
200.699	-50.66
200.919	12.53
201.14	19.89
201.36	-10.56
201.58	22.21
201.801	50.65
202.021	13.94
202.241	-0.92
202.461	12.03
202.682	-80.09
202.902	-214.06
203.122	-126.96
203.342	-118.01
203.563	-64.17
203.783	-38.75
204.003	-66.1
204.223	-74.07
204.443	-9.17
204.663	-61.82
204.884	-14.58
205.104	25.49
205.324	50.97
205.544	41.31
205.764	56.45
205.984	47.8
206.204	48.08
206.424	33.31
206.644	-10.06
206.864	-14.68
207.084	-76.37
207.304	-65.4
207.525	-236.8
207.745	-142.73
207.964	-89.96
208.184	-116.81
208.404	-158.05
208.624	-145.52
208.844	-134.4
209.064	-448.33
209.284	-417.03
209.504	-219.84
209.724	-87.3
209.944	-61.34
210.164	-17.76
210.384	-15.09
210.604	-16.73
210.823	-63.92
211.043	-76.67
211.263	-55.14
211.483	-53.76
211.703	-117.17
211.922	-69.45
212.142	4.98
212.362	20.33
212.582	10.75
212.801	25.6
213.021	-12.74
213.241	-35.12
213.461	-89.77
213.68	-99.41
213.9	-80.01
214.12	-53.67
214.339	-110.1
214.559	-91.38
214.779	-34.82
214.998	-30.87
215.218	-87.8
215.438	-49.06
215.657	-40.37
215.877	-42.94
216.096	-2.77
216.316	21.06
216.535	-7.87
216.755	-8.55
216.974	-123.91
217.194	-181.82
217.413	-167.24
217.633	-127.24
217.852	-245.63
218.072	-85.68
218.291	-58.81
218.511	-25.4
218.73	-61.74
218.95	-29.52
219.169	-39.83
219.389	-84.9
219.608	-60.06
219.827	-48.32
220.047	-39.24
220.266	-21.87
220.485	-5.05
220.705	-12.17
220.924	-29.53
221.143	5.21
221.363	-22.98
221.582	-10.99
221.801	0.92
222.021	19.31
222.24	-75.66
222.459	-24.57
222.678	-56.09
222.897	-154.07
223.117	-190.93
223.336	-136.51
223.555	-116.48
223.774	-66.48
223.993	-12.95
224.213	32.85
224.432	5.59
224.651	34.38
224.87	12.25
225.089	18.12
225.308	6.91
225.527	38.12
225.746	34.78
225.965	24.48
226.184	1.57
226.404	26.14
226.623	-18.1
226.842	-22.24
227.061	14.08
227.28	22.42
227.499	4.75
227.718	23.38
227.936	25.26
228.155	21.63
228.374	-17.83
228.593	-5.85
228.812	-12.77
229.031	-23.52
229.25	-88.23
229.469	-70.03
229.688	-73.52
229.907	-22.07
230.125	11.16
230.344	19.16
230.563	39.06
230.782	46.62
231.001	-38.57
231.22	-43.76
231.438	-20.81
231.657	-15.72
231.876	-34.63
232.095	27.28
232.313	31.29
232.532	34.32
232.751	-3.59
232.969	-22.52
233.188	-79.92
233.407	-25.32
233.625	-18.92
233.844	-39.24
234.063	-6.1
234.281	5.49
234.5	-9.6
234.719	-7.87
234.937	13.55
235.156	1.1
235.374	-6.62
235.593	-24.93
235.811	-47.89
236.03	-46.3
236.249	-90.93
236.467	-97.94
236.686	-45
236.904	-21.1
237.123	-46.27
237.341	-31.87
237.559	-18.78
237.778	-26.95
237.996	-51.06
238.215	-15.01
238.433	-5.78
238.652	-4.72
238.87	-39.52
239.088	-25.48
239.307	-34.39
239.525	-35.5
239.743	-70.03
239.962	-70.24
240.18	-67.11
240.398	-103.17
240.617	-115.71
240.835	-99.39
241.053	-25.62
241.271	20.93
241.49	45.12
241.708	34.64
241.926	36.75
242.144	0.73
242.363	-65.85
242.581	-90.3
242.799	-24.77
243.017	26.15
243.235	-2.48
243.453	18.53
243.672	5.7
243.89	-2.83
244.108	-38.16
244.326	-7.84
244.544	-19.04
244.762	-23.03
244.98	-26
245.198	-6.35
245.416	-32.51
245.634	-23.05
245.852	-21.02
246.07	-29.67
246.288	-61.71
246.506	-105.92
246.724	-98.7
246.942	-94.91
247.16	-44.75
247.378	-17.92
247.596	15.1
247.814	11.11
248.032	-5.5
248.25	-11.4
248.468	-17.12
248.685	-3.67
248.903	32.82
249.121	22.86
249.339	3.37
249.557	-2.91
249.775	0.24
249.992	-83.99
250.21	-57.1
250.428	-50.13
250.646	-65.87
250.863	-95.33
251.081	-49.43
251.299	-56.6
251.517	-51.05
251.734	-39.98
251.952	-34.48
252.17	-30.78
252.387	-11.67
252.605	-21.43
252.823	-19.16
253.04	-8.77
253.258	10.34
253.475	-4.58
253.693	23.99
253.911	39.71
254.128	43.3
254.346	36.07
254.563	22.11
254.781	-3.25
254.998	-53
255.216	-79.54
255.433	-60.14
255.651	-33.71
255.868	-3.9
256.086	66.97
256.303	65.2
256.521	43.37
256.738	18.09
256.956	-5.77
257.173	-53.4
257.39	-66.98
257.608	-105.67
257.825	-26.29
258.043	14.26
258.26	32.48
258.477	70.61
258.695	78.3
258.912	6.55
259.129	0.79
259.346	-31.88
259.564	-75.81
259.781	-93.05
259.998	-23.77
260.216	9.74
260.433	41.63
260.65	38.73
260.867	43.61
261.084	10.29
261.302	-27.22
261.519	-60
261.736	-65.1
261.953	-85.35
262.17	-35.87
262.387	-80.49
262.604	-106.44
262.822	-110.91
263.039	-76.25
263.256	-133.03
263.473	-71.46
263.69	-36.02
263.907	10.41
264.124	8.96
264.341	14.14
264.558	4.18
264.775	17.26
264.992	-4.19
265.209	-3.82
265.426	26.78
265.643	36.51
265.86	42.48
266.077	49.12
266.294	69.77
266.51	8.45
266.727	-8.6
266.944	-2.52
267.161	-31.75
267.378	-37.43
267.595	1.29
267.812	-21.4
268.028	-54.28
268.245	-25.75
268.462	-48.2
268.679	-63.63
268.896	12.17
269.112	23.27
269.329	27.28
269.546	48.23
269.763	36.22
269.979	11.76
270.196	10.81
270.413	-35.57
270.629	-60.5
270.846	-69.22
271.063	-65.33
271.279	-100.43
271.496	-85.44
271.712	-58.73
271.929	-40.62
272.146	-66.44
272.362	-45.98
272.579	-3.39
272.795	-13.69
273.012	0.96
273.228	-6.47
273.445	-28.87
273.661	-40.03
273.878	-86.98
274.094	-104.43
274.311	-117.63
274.527	-25.76
274.744	-29.6
274.96	-5.89
275.177	13.44
275.393	25.96
275.609	9.95
275.826	33.42
276.042	34.17
276.259	12.25
276.475	26.44
276.691	22.69
276.908	-15.26
277.124	-2.83
277.34	9.18
277.557	-10.02
277.773	-23.17
277.989	-8.53
278.205	-17.7
278.422	-7.4
278.638	2.68
278.854	29.37
279.07	13.15
279.286	2.98
279.503	-32.04
279.719	-46.08
279.935	-84.45
280.151	-83.83
280.367	-51.62
280.583	-66.38
280.799	-49.3
281.016	-75.12
281.232	-43.15
281.448	-45.72
281.664	-10.24
281.88	-67.11
282.096	-17.1
282.312	9.36
282.528	30.18
282.744	38.54
282.96	61.88
283.176	28.06
283.392	20.71
283.608	4.86
283.824	-6.17
284.04	-14.86
284.256	6.49
284.471	-8.23
284.687	-21.08
284.903	14.29
285.119	49.75
285.335	13.79
285.551	36.59
285.767	26.91
285.982	-10.45
286.198	-63.45
286.414	1.1
286.63	-3.43
286.846	21.7
287.061	-5.37
287.277	41.19
287.493	2.51
287.709	2.23
287.924	-11.79
288.14	33.8
288.356	10.31
288.571	43.56
288.787	30.57
289.003	24.82
289.218	7.91
289.434	-35.77
289.65	-42.26
289.865	-52.5
290.081	-27.84
290.296	-10.65
290.512	6.58
290.727	-13.96
290.943	-18.25
291.159	-28.21
291.374	-39.11
291.59	-60.03
291.805	-37.09
292.021	-16.82
292.236	-19.87
292.451	-8.49
292.667	3.03
292.882	4.37
293.098	1.96
293.313	-15.92
293.529	-33.96
293.744	-49.24
293.959	-62.41
294.175	-58.68
294.39	-26.3
294.605	-16.68
294.821	15.75
295.036	11.6
295.251	14.73
295.467	3.61
295.682	3.05
295.897	-61.3
296.112	-51.71
296.328	-49.84
296.543	-70.67
296.758	-72.09
296.973	-3.44
297.188	23.3
297.404	-1.26
297.619	-13.85
297.834	-10.22
298.049	-40.86
298.264	-67.4
298.479	-0.24
298.694	9.19
298.909	27.8
299.125	32.73
299.34	42.52
299.555	-2.38
299.77	-4.18
299.985	-57.54
300.2	-109.67
300.415	-128.63
300.63	-75.77
300.845	-67.02
301.06	-49.76
301.275	-6.03
301.49	19.41
301.704	-7.39
301.919	-21.21
302.134	-36.63
302.349	-50.13
302.564	-119.14
302.779	-164.15
302.994	-174.73
303.209	-74.85
303.423	-7.45
303.638	52.38
303.853	27.84
304.068	35.65
304.283	17.1
304.497	-5.47
304.712	-19.77
304.927	-2.71
305.142	-13.15
305.356	-8.61
305.571	-11.91
305.786	-25.53
306	-33.47
306.215	-17.66
306.43	-36.46
306.644	-35.41
306.859	2.28
307.074	13.69
307.288	-13.57
307.503	-20.83
307.717	-28.97
307.932	-33.1
308.147	-42.33
308.361	-25.21
308.576	-36.09
308.79	-78.72
309.005	-64.83
309.219	-41.43
309.434	-46.55
309.648	-46.28
309.863	-4.34
310.077	-14.9
310.292	-29.31
310.506	-22.74
310.72	-6.25
310.935	-1.22
311.149	-6.93
311.364	14.56
311.578	18.62
311.792	11.25
312.007	5.67
312.221	-2.69
312.435	0.61
312.649	-12.31
312.864	-42.21
313.078	-24.08
313.292	13.86
313.507	-55.87
313.721	-55.6
313.935	16.69
314.149	-7.01
314.363	0.85
314.578	13.87
314.792	19.79
315.006	9.13
315.22	28.85
315.434	33.03
315.648	35.51
315.862	22.68
316.077	28.61
316.291	-2.98
316.505	3.25
316.719	-11.89
316.933	-32.05
317.147	-38.78
317.361	-76.14
317.575	-116.29
317.789	-163.34
318.003	-204.3
318.217	-161.63
318.431	-57.37
318.645	-10.2
318.859	-0.09
319.073	20.38
319.287	0.21
319.5	-27.53
319.714	-62.62
319.928	-89.72
320.142	-129.42
320.356	-69.28
320.57	-30.05
320.784	-58.94
320.997	-44.81
321.211	-10.52
321.425	-63.46
321.639	-95.25
321.853	-22.48
322.066	-11.12
322.28	-16.5
322.494	-14.4
322.707	1.13
322.921	-23.15
323.135	-30.3
323.349	-21.98
323.562	-39.19
323.776	-45.37
323.989	-46.49
324.203	-67.68
324.417	-78.67
324.63	-81.18
324.844	-90.18
325.057	-77.37
325.271	-45.69
325.485	-13.13
325.698	21.19
325.912	40.39
326.125	10.42
326.339	11.72
326.552	-4.88
326.766	-14.19
326.979	2.4
327.193	45.07
327.406	34.69
327.619	17.54
327.833	36.51
328.046	0.99
328.26	-32.58
328.473	-18.6
328.686	-51.67
328.9	-76.09
329.113	-48.35
329.326	-81.6
329.54	-67.46
329.753	-66.62
329.966	-85.47
330.179	-87.19
330.393	-38.93
330.606	-27.11
330.819	2.8
331.032	24.64
331.246	23.44
331.459	46.4
331.672	43.39
331.885	33.45
332.098	-0.09
332.311	-0.3
332.525	-56.47
332.738	-47.6
332.951	-22.58
333.164	7.8
333.377	21.98
333.59	39.88
333.803	33.71
334.016	36
334.229	31.24
334.442	38.55
334.655	47.56
334.868	53.92
335.081	36.98
335.294	22.59
335.507	9.46
335.72	-7.62
335.933	-20.59
336.146	-34.73
336.359	-27.94
336.572	-63.58
336.785	-81.35
336.997	-71.7
337.21	-35.94
337.423	-37.41
337.636	-29.47
337.849	-15.13
338.062	-28.62
338.274	-41.11
338.487	-57.18
338.7	-56.9
338.913	-89.68
339.125	-103.65
339.338	-146.98
339.551	-98.85
339.763	-47.22
339.976	-25.94
340.189	0.48
340.402	19.64
340.614	1.97
340.827	-27.58
341.039	-49.86
341.252	-55.01
341.465	-28.79
341.677	-33.57
341.89	-58.86
342.102	-10.35
342.315	-20.31
342.527	-62.45
342.74	-44.23
342.952	-2.9
343.165	-16.49
343.377	9.84
343.59	7.71
343.802	16.25
344.015	8.97
344.227	10.36
344.44	3.99
344.652	1.72
344.864	-15.56
345.077	16.46
345.289	18.41
345.502	20.18
345.714	8.38
345.926	17.14
346.139	-2.7
346.351	10.85
346.563	16.66
346.775	31.09
346.988	17.77
347.2	7.97
347.412	-51.63
347.624	-74.4
347.837	-99.31
348.049	-61.71
348.261	-37.44
348.473	-12.22
348.685	-25.18
348.897	-20.71
349.11	-46.36
349.322	-72.54
349.534	-67.16
349.746	-38.89
349.958	-35.93
350.17	-30.29
350.382	-11.87
350.594	-23.86
350.806	-32.99
351.018	-34.14
351.23	-54.39
351.442	-114.31
351.654	-103.21
351.866	-85.57
352.078	-64.95
352.29	-30.2
352.502	4.06
352.714	8.12
352.926	-9.06
353.138	-6.29
353.35	-18.08
353.561	-22.41
353.773	-38.77
353.985	-15.31
354.197	-29.89
354.409	-29.19
354.621	-29.2
354.832	-9.31
355.044	-20.69
355.256	-17.33
355.468	-4
355.679	-15.5
355.891	-16.45
356.103	-32.87
356.314	-28.09
356.526	-36.72
356.738	-19.43
356.949	-40.95
357.161	-18.05
357.373	-23.13
357.584	-25.77
357.796	-19.29
358.008	-17.75
358.219	-8.19
358.431	-7.76
358.642	-11.03
358.854	-6.42
359.065	-14.5
359.277	-37.94
359.488	-42.84
359.7	-49.57
359.911	-78.13
360.123	-53
360.334	-63.69
360.546	-74.05
360.757	-76.66
360.969	-38.57
361.18	-29.02
361.391	-19.39
361.603	-17.53
361.814	0.63
362.025	-14
362.237	-17.14
362.448	6.23
362.659	16.45
362.871	8.57
363.082	12.89
363.293	7.55
363.504	-6.46
363.716	-32.29
363.927	-40.38
364.138	-59.13
364.349	-80.12
364.56	-70.45
364.772	-59.28
364.983	-26.8
365.194	-31.4
365.405	-9.95
365.616	12.23
365.827	26.07
366.038	-6.67
366.25	-10.18
366.461	-28.91
366.672	-23.32
366.883	-8.77
367.094	1.48
367.305	-3.82
367.516	-2.85
367.727	-35.8
367.938	-52.78
368.149	-44.58
368.36	-12.04
368.571	-1.38
368.781	-4.78
368.992	-13.64
369.203	-34
369.414	-64.94
369.625	-77.75
369.836	-69.85
370.047	-100.55
370.258	-65.7
370.468	-67.23
370.679	-86.08
370.89	-84.5
371.101	-50.58
371.312	-70.98
371.522	-58.13
371.733	-32.97
371.944	-17.22
372.155	-17.82
372.365	-20.27
372.576	-26.9
372.787	-32.35
372.997	-54.06
373.208	-59.68
373.419	-19.11
373.629	-54.21
373.84	-50.76
374.05	-62
374.261	-53
374.472	-92.01
374.682	-35.04
374.893	-38.65
375.103	6.03
375.314	8.63
375.524	17.98
375.735	19.81
375.945	23.62
376.156	-8.29
376.366	-8.89
376.577	-11.26
376.787	-20.63
376.997	-12.03
377.208	-13.35
377.418	-22.85
377.629	-3.85
377.839	1.8
378.049	-1.6
378.26	16.92
378.47	19.85
378.68	-0.32
378.89	-3.61
379.101	-14.15
379.311	-49.49
379.521	-70.89
379.732	-56.12
379.942	-62
380.152	-60.54
380.362	-22.4
380.572	-9.74
380.783	-2.47
380.993	14.99
381.203	25.14
381.413	38.37
381.623	36.22
381.833	33.01
382.043	14.45
382.253	2.44
382.463	-5.41
382.674	-17.43
382.884	-38.4
383.094	-30.77
383.304	-25.7
383.514	-19.99
383.724	-7.76
383.934	-5.95
384.144	-14.62
384.353	-20.17
384.563	-24.45
384.773	-20.26
384.983	-30.49
385.193	-8.06
385.403	-0.51
385.613	-1.11
385.823	-12.15
386.033	-2.51
386.242	-19.06
386.452	-28.98
386.662	-40.85
386.872	-22.98
387.082	-23.56
387.291	-26.28
387.501	-26.7
387.711	-17.59
387.921	-26.33
388.13	-29.73
388.34	-14.59
388.55	-17.9
388.759	-15.2
388.969	-10.15
389.179	-8.24
389.388	-11.72
389.598	0.69
389.807	-8.31
390.017	-11.97
390.227	-6.14
390.436	-7.59
390.646	-8.92
390.855	-5.48
391.065	-5.77
391.274	-9.48
391.484	-12.32
391.693	-11.04
391.903	-7.93
392.112	-0.59
392.322	1.53
392.531	5.95
392.74	6.17
392.95	1.92
393.159	-2.97
393.369	-3.01
393.578	-3.31
393.787	-4.56
393.997	-1.92
394.206	-2.47
394.415	-2.03
394.625	-2.51
394.834	-3.01
395.043	-2.76
395.252	-0.36
395.462	0.52
395.671	1.26
395.88	1.85
396.089	2.22
396.298	0.46
396.508	0.57
396.717	0.2
396.926	0.96
397.135	1.02
397.344	1.14
397.553	1.66
397.762	3.2
397.971	2.77
398.181	2.67
398.39	1.97
398.599	1.21
398.808	0.4
399.017	1.66
399.226	3.34
399.435	4.74
399.644	5.12
399.853	4.2
400.062	3.31
400.27	2.45
400.479	1.86
400.688	1.14
400.897	1.91
401.106	1.99
401.315	1.67
401.524	1.75
401.733	2.3
401.941	2.8
402.15	2.85
402.359	2.85
402.568	3.22
402.777	3.44
402.985	3.03
403.194	3
403.403	2.85
403.612	2.31
403.82	1.84
404.029	2.09
404.238	1.86
404.446	2.4
404.655	2.34
404.864	2.46
405.072	2.02
405.281	2.36
405.489	1.89
405.698	2.03
405.906	1.98
406.115	2.09
406.324	1.94
406.532	2.12
406.741	2.51
406.949	2.56
407.158	2.58
407.366	2.62
407.574	2.56
407.783	2.41
407.991	2.36
408.2	2.5
408.408	2.46
408.617	2.4
408.825	2.14
409.033	2.24
409.242	2.26
409.45	2.37
409.658	2.25
409.867	2.6
410.075	2.36
410.283	2.2
410.491	2.05
410.7	2.11
410.908	2.03
411.116	2.35
411.324	2.45
411.533	2.4
411.741	2.73
411.949	2.75
412.157	2.47
412.365	2.4
412.573	2.46
412.781	2.34
412.99	2.11
413.198	2.36
413.406	2.46
413.614	2.42
413.822	2.34
414.03	2.38
414.238	2
414.446	1.99
414.654	1.8
414.862	1.9
415.07	1.93
415.278	2.27
415.486	2.01
415.694	2.16
415.902	1.86
416.109	1.74
416.317	1.65
416.525	1.64
416.733	1.57
416.941	1.86
417.149	1.75
417.357	1.75
417.564	1.87
417.772	2.17
417.98	1.99
418.188	2.16
418.395	2.17
418.603	2.31
418.811	1.98
419.019	1.98
419.226	2.11
419.434	2.31
419.642	2.05
419.849	2.13
420.057	2.13
420.265	2.17
420.472	1.74
420.68	1.83
420.887	1.81
421.095	1.9
421.302	1.65
421.51	2.07
421.717	2.17
421.925	2.25
422.132	2.12
422.34	1.9
422.547	1.67
422.755	1.53
422.962	1.37
423.17	1.31
423.377	1.6
423.585	1.69
423.792	1.58
423.999	1.8
424.207	1.8
424.414	1.91
424.621	1.83
424.829	1.94
425.036	1.78
425.243	1.95
425.451	1.75
425.658	1.52
425.865	1.8
426.072	1.77
426.28	1.97
426.487	1.95
426.694	2.07
426.901	1.75
427.108	1.84
427.315	1.68
427.523	1.98
427.73	2.11
427.937	2.07
428.144	1.94
428.351	1.68
428.558	1.71
428.765	1.56
428.972	1.53
429.179	1.68
429.386	2.04
429.593	1.73
429.8	1.75
430.007	1.89
430.214	2.01
430.421	1.8
430.628	1.77
430.835	1.64
431.042	1.81
431.249	1.83
431.456	1.82
431.662	1.93
431.869	2.19
432.076	2.02
432.283	2.03
432.49	2.07
432.697	2.09
432.903	1.81
433.11	1.74
433.317	1.77
433.524	1.94
433.73	1.86
433.937	2.14
434.144	2.13
434.35	1.94
434.557	1.69
434.764	1.73
434.97	1.63
435.177	1.82
435.384	1.82
435.59	1.91
435.797	2.14
436.003	2.21
436.21	2.21
436.416	2.4
436.623	2.42
436.829	2.35
437.036	2.48
437.242	2.47
437.449	2.36
437.655	2.41
437.862	2.4
438.068	2.2
438.275	2.28
438.481	2.5
438.687	2.45
438.894	2.34
439.1	2.39
439.307	2.48
439.513	2.27
439.719	2.27
439.926	2.49
440.132	2.47
440.338	2.29
440.544	2.56
440.751	2.53
440.957	2.45
441.163	2.37
441.369	2.46
441.575	2.11
441.782	2.09
441.988	1.95
442.194	2.03
442.4	2
442.606	2.3
442.812	2.39
443.018	2.53
443.224	2.61
443.431	2.7
443.637	2.47
443.843	2.4
444.049	2.41
444.255	2.33
444.461	2.4
444.667	2.34
444.873	2.56
445.079	2.48
445.284	2.51
445.49	2.19
445.696	2.1
445.902	1.95
446.108	2
446.314	1.96
446.52	2.03
446.726	2.34
446.931	2.28
447.137	2.3
447.343	2.31
447.549	2.29
447.755	2.07
447.96	2.16
448.166	2.12
448.372	2.13
448.578	2.15
448.783	2.26
448.989	2.31
449.195	2.43
449.4	2.46
449.606	2.43
449.812	2.34
450.017	2.31
450.223	2.17
450.428	2.1
450.634	2.27
450.84	2.46
451.045	2.35
451.251	2.3
451.456	2.67
451.662	2.71
451.867	2.7
452.073	2.85
452.278	2.98
452.483	2.87
452.689	2.78
452.894	2.74
453.1	2.65
453.305	2.55
453.51	2.45
453.716	2.33
453.921	2.39
454.127	2.31
454.332	2.33
454.537	2.28
454.742	2.37
454.948	2.27
455.153	2.38
455.358	2.48
455.563	2.71
455.769	2.82
455.974	2.83
456.179	2.71
456.384	2.65
456.589	2.46
456.795	2.29
457	2.23
457.205	2.57
457.41	2.56
457.615	2.53
457.82	2.58
458.025	2.64
458.23	2.33
458.435	2.32
458.64	2.23
458.845	2.32
459.05	2.37
459.255	2.43
459.46	2.49
