Data from Ofra_2a_PS_2GT38_Reflection_2.txt Node
Date: Tue Jul 20 09:42:48 EDT 2021
User: Adam
Spectrometer: FLMT01687
Trigger mode: 0
Integration Time (sec): 9.450000E-1
Scans to average: 3
Electric dark correction enabled: true
Nonlinearity correction enabled: false
Boxcar width: 3
XAxis mode: Wavelengths
Number of Pixels in Spectrum: 3648
>>>>>Begin Spectral Data<<<<<
179.494	1095.86
179.716	642.17
179.937	680.77
180.158	2639.45
180.38	-1179.36
180.601	-194.14
180.823	16.37
181.044	74
181.265	-28.83
181.486	30.08
181.708	-1148.91
181.929	-69.88
182.15	-314.2
182.372	99.73
182.593	97.69
182.814	192.07
183.035	146.18
183.257	132.09
183.478	65.68
183.699	83.41
183.92	64.86
184.141	71.8
184.363	41.43
184.584	31.17
184.805	33.61
185.026	17.17
185.247	-6.26
185.468	-7.7
185.689	12.75
185.91	31.1
186.132	38.41
186.353	20
186.574	39.71
186.795	41.67
187.016	46.14
187.237	32.19
187.458	24.88
187.679	41.86
187.9	50.85
188.121	23.85
188.342	36.3
188.563	36.64
188.784	40.9
189.005	56.17
189.226	29.59
189.447	37.35
189.667	39.81
189.888	38.16
190.109	30.67
190.33	33.94
190.551	32.8
190.772	28.61
190.993	28.11
191.214	30.3
191.434	30.63
191.655	39.53
191.876	32.93
192.097	25.08
192.318	31.58
192.538	33.6
192.759	37.26
192.98	22.41
193.201	38.83
193.421	40.71
193.642	41.61
193.863	53.06
194.083	45.81
194.304	36.69
194.525	49.27
194.745	20.08
194.966	26.94
195.187	26.71
195.407	30.96
195.628	34.74
195.848	40.19
196.069	38.49
196.29	29.97
196.51	23.22
196.731	33.34
196.951	29.21
197.172	23.78
197.392	29.1
197.613	26.55
197.833	33.34
198.054	41.93
198.274	22.94
198.495	25.58
198.715	12.98
198.936	17.73
199.156	24.67
199.377	39.17
199.597	18.07
199.817	42.07
200.038	41.74
200.258	45.2
200.479	34.13
200.699	42.58
200.919	15.1
201.14	14.56
201.36	17.04
201.58	11.55
201.801	10.77
202.021	22.4
202.241	19.63
202.461	42.92
202.682	44.11
202.902	38.47
203.122	37.61
203.342	60.97
203.563	53.69
203.783	54.26
204.003	48.94
204.223	51.33
204.443	53.77
204.663	50.49
204.884	35.18
205.104	41.49
205.324	60.35
205.544	44.9
205.764	51.31
205.984	47.07
206.204	57.48
206.424	49.24
206.644	45.37
206.864	22.26
207.084	41.48
207.304	30.4
207.525	21.27
207.745	25.8
207.964	31.41
208.184	30.51
208.404	31.29
208.624	2.52
208.844	8.68
209.064	20.95
209.284	20.5
209.504	11.61
209.724	-26.64
209.944	-6.7
210.164	24.74
210.384	41.07
210.604	32.47
210.823	3.77
211.043	10.86
211.263	44.94
211.483	32.69
211.703	26.35
211.922	22.64
212.142	34.3
212.362	55
212.582	59.28
212.801	54.5
213.021	58.12
213.241	55.32
213.461	58.48
213.68	53.08
213.9	36.63
214.12	32.01
214.339	36.18
214.559	43.88
214.779	50.3
214.998	35.43
215.218	35.42
215.438	51.52
215.657	44.63
215.877	47.71
216.096	38.04
216.316	30.21
216.535	37.05
216.755	23.35
216.974	13.94
217.194	16.75
217.413	25.58
217.633	20.64
217.852	21.92
218.072	22.39
218.291	33.2
218.511	26.96
218.73	20.24
218.95	11.98
219.169	12.94
219.389	21.27
219.608	23.7
219.827	25.24
220.047	25.34
220.266	26.39
220.485	25.8
220.705	15.07
220.924	11.77
221.143	8.47
221.363	-6.2
221.582	-7.09
221.801	-2.25
222.021	-0.6
222.24	8.08
222.459	7.92
222.678	6.49
222.897	18.17
223.117	35.22
223.336	42.59
223.555	40.88
223.774	50.07
223.993	53.02
224.213	49.21
224.432	53.34
224.651	41.16
224.87	31.97
225.089	40.07
225.308	34.12
225.527	32.35
225.746	32.55
225.965	34.13
226.184	33.05
226.404	31.19
226.623	36
226.842	48.54
227.061	51.75
227.28	70.56
227.499	64.85
227.718	65.53
227.936	66.28
228.155	61.5
228.374	61.02
228.593	58.03
228.812	49.75
229.031	50.87
229.25	57.97
229.469	56.05
229.688	53.43
229.907	41.93
230.125	38.08
230.344	42.65
230.563	49.59
230.782	35.03
231.001	41.2
231.22	39.85
231.438	45.29
231.657	48.33
231.876	42.64
232.095	36.09
232.313	36.72
232.532	32.32
232.751	34.63
232.969	41.32
233.188	39.53
233.407	31.8
233.625	25.31
233.844	32.62
234.063	29.6
234.281	20.2
234.5	11.5
234.719	6.75
234.937	13.14
235.156	16.6
235.374	10.4
235.593	8.76
235.811	15.3
236.03	10.28
236.249	26.54
236.467	23.91
236.686	28.5
236.904	35.94
237.123	37.41
237.341	32.27
237.559	40.9
237.778	36.73
237.996	40.74
238.215	37.83
238.433	42.03
238.652	45.66
238.87	53.41
239.088	43.79
239.307	43.31
239.525	33.2
239.743	32.45
239.962	33.56
240.18	38.77
240.398	42.08
240.617	48.16
240.835	42.8
241.053	58.95
241.271	59.63
241.49	51.1
241.708	48.47
241.926	33.92
242.144	33.44
242.363	37.29
242.581	20.93
242.799	11.57
243.017	8.79
243.235	2.43
243.453	9.2
243.672	1.91
243.89	7.78
244.108	14.56
244.326	16.56
244.544	24.03
244.762	26.29
244.98	26.71
245.198	33.72
245.416	30.08
245.634	39.45
245.852	41.48
246.07	36.04
246.288	30.91
246.506	30.78
246.724	27.22
246.942	28.54
247.16	10.49
247.378	5.91
247.596	11.04
247.814	2.4
248.032	-7.69
248.25	-3.92
248.468	9.15
248.685	32.63
248.903	38.93
249.121	47.99
249.339	61.41
249.557	64.47
249.775	47.03
249.992	33.61
250.21	26.26
250.428	22.71
250.646	19.36
250.863	19.23
251.081	29.74
251.299	46.66
251.517	63.7
251.734	66.52
251.952	79.5
252.17	81.74
252.387	68.58
252.605	59.8
252.823	52.88
253.04	38.86
253.258	34.13
253.475	29.25
253.693	37.03
253.911	37.72
254.128	41.37
254.346	41.14
254.563	45.39
254.781	46.96
254.998	42.34
255.216	38.12
255.433	33.54
255.651	34
255.868	37.82
256.086	38.65
256.303	39.81
256.521	24.13
256.738	21.13
256.956	15.35
257.173	13.45
257.39	13.49
257.608	13.61
257.825	8.18
258.043	27.39
258.26	26.6
258.477	33.55
258.695	32.32
258.912	32.84
259.129	32.63
259.346	33.61
259.564	33.88
259.781	37.66
259.998	40.97
260.216	42.5
260.433	41.16
260.65	44.85
260.867	37.41
261.084	35.1
261.302	29.5
261.519	29.75
261.736	29.04
261.953	21.29
262.17	14.2
262.387	13.3
262.604	-13.33
262.822	-3.12
263.039	-8.83
263.256	-8.02
263.473	-7.4
263.69	-3.79
263.907	5.22
264.124	11.87
264.341	2.03
264.558	7.32
264.775	17.04
264.992	18.18
265.209	25.76
265.426	21.31
265.643	27.39
265.86	29.42
266.077	34.29
266.294	33.99
266.51	40.62
266.727	31.35
266.944	35.65
267.161	32.22
267.378	39.62
267.595	31.36
267.812	20.29
268.028	14.46
268.245	21.02
268.462	28.94
268.679	25.89
268.896	16.92
269.112	25.14
269.329	25.14
269.546	24.7
269.763	25.16
269.979	21.88
270.196	27.05
270.413	34.61
270.629	25.14
270.846	29.41
271.063	31.34
271.279	35.25
271.496	24.35
271.712	28.24
271.929	31.8
272.146	38.24
272.362	28.38
272.579	20.82
272.795	11.26
273.012	22.8
273.228	17.58
273.445	13.82
273.661	16.08
273.878	25.77
274.094	28.04
274.311	33.09
274.527	30.84
274.744	29.44
274.96	27.99
275.177	30.01
275.393	32.78
275.609	39.63
275.826	35.31
276.042	41.57
276.259	39.39
276.475	39.75
276.691	42.55
276.908	34.6
277.124	31.91
277.34	33.03
277.557	32.24
277.773	32.78
277.989	41.32
278.205	38.3
278.422	46.77
278.638	50.37
278.854	40.38
279.07	27.06
279.286	24.89
279.503	16.11
279.719	10.51
279.935	-2.58
280.151	1.43
280.367	8.7
280.583	23.22
280.799	33.43
281.016	32.55
281.232	31.73
281.448	31.74
281.664	24.7
281.88	36.49
282.096	38.08
282.312	28.88
282.528	22.41
282.744	27.81
282.96	31.85
283.176	33.65
283.392	33.11
283.608	29.53
283.824	30.15
284.04	29.21
284.256	27.91
284.471	29.44
284.687	27.53
284.903	25.32
285.119	15.84
285.335	25.22
285.551	37.17
285.767	43.43
285.982	41.49
286.198	40.71
286.414	31.11
286.63	41.29
286.846	29.04
287.061	35.93
287.277	32.24
287.493	30.8
287.709	34.28
287.924	41.02
288.14	39.94
288.356	51.3
288.571	39.18
288.787	40.13
289.003	47.57
289.218	37.15
289.434	29
289.65	33.59
289.865	35.26
290.081	32.41
290.296	30.73
290.512	29.6
290.727	36.44
290.943	38.72
291.159	26.11
291.374	18.36
291.59	20.41
291.805	13.53
292.021	8.48
292.236	15.7
292.451	14.75
292.667	27.79
292.882	28.06
293.098	22.08
293.313	31.28
293.529	30.55
293.744	24.53
293.959	37.11
294.175	32.8
294.39	41.36
294.605	45.97
294.821	40.49
295.036	35.54
295.251	33.14
295.467	16.42
295.682	13.26
295.897	15.18
296.112	16.05
296.328	17.49
296.543	21.07
296.758	25.99
296.973	32.45
297.188	29.4
297.404	33.68
297.619	33.27
297.834	37.95
298.049	33.03
298.264	21.65
298.479	7.15
298.694	17.84
298.909	2.23
299.125	1.55
299.34	-5.01
299.555	0.19
299.77	-1.04
299.985	3.48
300.2	-2.33
300.415	12.03
300.63	9.4
300.845	17.58
301.06	18.47
301.275	32.35
301.49	37.76
301.704	41.97
301.919	32.1
302.134	32.33
302.349	22.73
302.564	23.92
302.779	6.15
302.994	0.66
303.209	-6.91
303.423	-1.5
303.638	7.88
303.853	19.36
304.068	14.61
304.283	20.79
304.497	22.34
304.712	29.6
304.927	31.4
305.142	29.61
305.356	28.44
305.571	36.32
305.786	38.94
306	41.83
306.215	28.03
306.43	38.02
306.644	41.08
306.859	39.23
307.074	34.75
307.288	34.52
307.503	29.23
307.717	33.43
307.932	31.71
308.147	29.25
308.361	26.88
308.576	27.68
308.79	27.19
309.005	34.89
309.219	40.06
309.434	34.2
309.648	22.5
309.863	23.54
310.077	23.74
310.292	31.89
310.506	29.4
310.72	15.21
310.935	10.51
311.149	27.47
311.364	27.58
311.578	25.19
311.792	15.56
312.007	13
312.221	27.43
312.435	31.12
312.649	34.7
312.864	32.08
313.078	37.48
313.292	47.56
313.507	45.69
313.721	41.82
313.935	57.33
314.149	40.86
314.363	37.18
314.578	53.8
314.792	41.8
315.006	41.29
315.22	47.83
315.434	36.56
315.648	31.58
315.862	38.91
316.077	22.34
316.291	33.82
316.505	38.82
316.719	27.47
316.933	31.63
317.147	36.3
317.361	36.92
317.575	45.17
317.789	38.84
318.003	36.53
318.217	38.6
318.431	32.11
318.645	33.78
318.859	19.71
319.073	14.75
319.287	17.47
319.5	18.67
319.714	22.08
319.928	26.51
320.142	29.64
320.356	49.23
320.57	45.86
320.784	47.97
320.997	50.27
321.211	42.02
321.425	37.4
321.639	35.05
321.853	20.1
322.066	26.16
322.28	16.19
322.494	6.37
322.707	7.83
322.921	6.8
323.135	8.4
323.349	13.22
323.562	13.51
323.776	18.76
323.989	20.61
324.203	28.6
324.417	23.96
324.63	15.83
324.844	14.63
325.057	16.58
325.271	11.29
325.485	18.05
325.698	14.81
325.912	33.66
326.125	33.54
326.339	48.4
326.552	42.02
326.766	47.17
326.979	47.4
327.193	51.16
327.406	45.87
327.619	38.95
327.833	24.52
328.046	20.03
328.26	21.1
328.473	19.01
328.686	15.52
328.9	11.23
329.113	22.81
329.326	31.41
329.54	32.24
329.753	37.22
329.966	28.37
330.179	23.93
330.393	28.87
330.606	33.98
330.819	31.63
331.032	39.01
331.246	27.41
331.459	39.38
331.672	44.34
331.885	36.7
332.098	31.91
332.311	17.59
332.525	12.5
332.738	20.47
332.951	14.87
333.164	6.67
333.377	0.17
333.59	7.85
333.803	24.76
334.016	32.35
334.229	42.65
334.442	50.79
334.655	66.16
334.868	66.78
335.081	65.04
335.294	58.31
335.507	54.79
335.72	33.92
335.933	31.35
336.146	19.93
336.359	14.17
336.572	10.09
336.785	8.69
336.997	3.36
337.21	10.49
337.423	13.93
337.636	23.35
337.849	31.53
338.062	40.11
338.274	46.13
338.487	38.63
338.7	45.59
338.913	33.38
339.125	30.22
339.338	29.68
339.551	29.57
339.763	27.52
339.976	32.27
340.189	31.45
340.402	33.12
340.614	33.24
340.827	24.86
341.039	16.88
341.252	13.87
341.465	11.58
341.677	2.7
341.89	9.9
342.102	14.17
342.315	28.31
342.527	23.96
342.74	31.11
342.952	27.24
343.165	41.02
343.377	35.4
343.59	31.87
343.802	20.5
344.015	33.96
344.227	26.26
344.44	27.93
344.652	16.28
344.864	15.47
345.077	4.27
345.289	11.57
345.502	0.58
345.714	-2.17
345.926	2.09
346.139	14.59
346.351	-7.33
346.563	9.3
346.775	0.08
346.988	6.38
347.2	12.66
347.412	7.26
347.624	-0.27
347.837	13.8
348.049	6.06
348.261	7.49
348.473	-1.67
348.685	5.52
348.897	6.81
349.11	13.78
349.322	8.97
349.534	13.45
349.746	27.37
349.958	29.99
350.17	25.84
350.382	23.89
350.594	21.22
350.806	37.59
351.018	39.86
351.23	29.11
351.442	25.3
351.654	22.97
351.866	28.91
352.078	30.72
352.29	30.45
352.502	28.9
352.714	31.65
352.926	35.99
353.138	36.46
353.35	23.34
353.561	17.78
353.773	14.29
353.985	17.04
354.197	13.46
354.409	18.12
354.621	20.93
354.832	24.55
355.044	32.96
355.256	28.45
355.468	24.08
355.679	24.76
355.891	19.76
356.103	22.18
356.314	30.71
356.526	18.56
356.738	16.2
356.949	21.84
357.161	26.47
357.373	33.19
357.584	35.46
357.796	24.4
358.008	32.24
358.219	41.3
358.431	33.63
358.642	31.2
358.854	26.47
359.065	12.29
359.277	11.69
359.488	6.71
359.7	6.47
359.911	6.34
360.123	5.56
360.334	9.52
360.546	11.98
360.757	7.28
360.969	17.9
361.18	11.91
361.391	17.47
361.603	17.37
361.814	16.72
362.025	21.4
362.237	30.81
362.448	27.5
362.659	17
362.871	21.95
363.082	26.9
363.293	22.67
363.504	27.64
363.716	28.89
363.927	26.92
364.138	36.65
364.349	33.37
364.56	27.82
364.772	34.11
364.983	31.06
365.194	32.7
365.405	29.54
365.616	24
365.827	17.65
366.038	34.3
366.25	31.63
366.461	41.27
366.672	35
366.883	41.17
367.094	41.23
367.305	39.11
367.516	28.44
367.727	27.69
367.938	18.7
368.149	26.21
368.36	18.88
368.571	20.36
368.781	21.44
368.992	16.75
369.203	16.73
369.414	12.19
369.625	7.38
369.836	9.63
370.047	9.59
370.258	10.2
370.468	12.54
370.679	5.77
370.89	13
371.101	7.79
371.312	5.79
371.522	7.3
371.733	3.05
371.944	3.93
372.155	0.18
372.365	-1.93
372.576	-0.48
372.787	2.01
372.997	0.74
373.208	10.02
373.419	13.2
373.629	21.5
373.84	11.21
374.05	17.37
374.261	15.93
374.472	17.68
374.682	7.78
374.893	9.35
375.103	11.01
375.314	13.26
375.524	8.28
375.735	9.26
375.945	11.8
376.156	21.29
376.366	19.05
376.577	18.12
376.787	28.93
376.997	28.95
377.208	26.54
377.418	19.85
377.629	13.4
377.839	18.88
378.049	23.22
378.26	23.28
378.47	28.01
378.68	32.06
378.89	27.08
379.101	20.92
379.311	16.29
379.521	10.55
379.732	-2.75
379.942	-5.82
380.152	-7.15
380.362	5.24
380.572	14.02
380.783	14.3
380.993	18.42
381.203	26.02
381.413	28.28
381.623	30.14
381.833	26.13
382.043	15.54
382.253	15.17
382.463	12.69
382.674	10.7
382.884	7.34
383.094	5.19
383.304	3.14
383.514	12.91
383.724	13.09
383.934	10.09
384.144	14.81
384.353	17.76
384.563	9.83
384.773	10.14
384.983	9.72
385.193	6.95
385.403	11.36
385.613	3.98
385.823	1.62
386.033	8.89
386.242	11.17
386.452	10.42
386.662	12.92
386.872	8.21
387.082	9.89
387.291	10.09
387.501	7.79
387.711	7.76
387.921	5.83
388.13	6.04
388.34	5.87
388.55	6.89
388.759	5.67
388.969	5.9
389.179	8.65
389.388	10.14
389.598	9.36
389.807	11.68
390.017	9.72
390.227	8.65
390.436	9.64
390.646	7.95
390.855	6.48
391.065	5.89
391.274	2.42
391.484	4.03
391.693	5.7
391.903	3.73
392.112	1.79
392.322	3.81
392.531	3.85
392.74	3.98
392.95	4.97
393.159	4.93
393.369	5.99
393.578	7
393.787	6.16
393.997	6.88
394.206	7.45
394.415	6.48
394.625	5.67
394.834	4.7
395.043	4.9
395.252	4.85
395.462	4.67
395.671	5.14
395.88	5.28
396.089	5.83
396.298	6.18
396.508	5.49
396.717	5.35
396.926	4.76
397.135	3.98
397.344	3.3
397.553	3.11
397.762	2.61
397.971	2.79
398.181	2.5
398.39	3
398.599	3.55
398.808	3.89
399.017	3.79
399.226	4.22
399.435	4.05
399.644	4.15
399.853	4.05
400.062	3.85
400.27	3.93
400.479	3.91
400.688	3.85
400.897	4.12
401.106	4.32
401.315	4.15
401.524	4.29
401.733	4.2
401.941	4.09
402.15	3.8
402.359	3.72
402.568	3.59
402.777	3.64
402.985	3.43
403.194	3.49
403.403	3.47
403.612	3.54
403.82	3.58
404.029	3.58
404.238	3.58
404.446	3.63
404.655	3.41
404.864	3.39
405.072	3.37
405.281	3.18
405.489	3.2
405.698	3.12
405.906	3.09
406.115	3.3
406.324	3.26
406.532	3.31
406.741	3.37
406.949	3.2
407.158	3.25
407.366	3.36
407.574	3.21
407.783	3.22
407.991	3.13
408.2	3.06
408.408	3.12
408.617	3.11
408.825	3
409.033	3.04
409.242	3
409.45	3.05
409.658	3
409.867	2.97
410.075	2.9
410.283	2.85
410.491	2.82
410.7	2.89
410.908	2.79
411.116	2.77
411.324	2.86
411.533	2.75
411.741	2.74
411.949	2.81
412.157	2.79
412.365	2.87
412.573	2.91
412.781	2.89
412.99	2.98
413.198	3.03
413.406	2.93
413.614	2.87
413.822	2.84
414.03	2.74
414.238	2.74
414.446	2.71
414.654	2.71
414.862	2.7
415.07	2.79
415.278	2.74
415.486	2.96
415.694	2.83
415.902	2.79
416.109	2.78
416.317	2.79
416.525	2.82
416.733	2.91
416.941	2.77
417.149	2.94
417.357	3.01
417.564	2.89
417.772	2.89
417.98	2.73
418.188	2.51
418.395	2.52
418.603	2.36
418.811	2.24
419.019	2.4
419.226	2.5
419.434	2.55
419.642	2.7
419.849	2.69
420.057	2.7
420.265	2.8
420.472	2.65
420.68	2.52
420.887	2.54
421.095	2.54
421.302	2.66
421.51	2.71
421.717	2.76
421.925	2.7
422.132	2.69
422.34	2.62
422.547	2.6
422.755	2.53
422.962	2.46
423.17	2.37
423.377	2.45
423.585	2.47
423.792	2.51
423.999	2.47
424.207	2.41
424.414	2.5
424.621	2.45
424.829	2.46
425.036	2.44
425.243	2.44
425.451	2.5
425.658	2.58
425.865	2.48
426.072	2.64
426.28	2.62
426.487	2.6
426.694	2.58
426.901	2.49
427.108	2.44
427.315	2.47
427.523	2.36
427.73	2.42
427.937	2.42
428.144	2.45
428.351	2.61
428.558	2.51
428.765	2.43
428.972	2.45
429.179	2.35
429.386	2.48
429.593	2.45
429.8	2.43
430.007	2.55
430.214	2.68
430.421	2.69
430.628	2.58
430.835	2.48
431.042	2.55
431.249	2.44
431.456	2.47
431.662	2.43
431.869	2.5
432.076	2.59
432.283	2.56
432.49	2.46
432.697	2.51
432.903	2.49
433.11	2.51
433.317	2.46
433.524	2.46
433.73	2.47
433.937	2.44
434.144	2.58
434.35	2.56
434.557	2.54
434.764	2.52
434.97	2.58
435.177	2.56
435.384	2.66
435.59	2.5
435.797	2.48
436.003	2.47
436.21	2.46
436.416	2.48
436.623	2.54
436.829	2.51
437.036	2.59
437.242	2.66
437.449	2.69
437.655	2.77
437.862	2.7
438.068	2.71
438.275	2.71
438.481	2.76
438.687	2.78
438.894	2.78
439.1	2.69
439.307	2.69
439.513	2.68
439.719	2.73
439.926	2.7
440.132	2.63
440.338	2.67
440.544	2.7
440.751	2.72
440.957	2.69
441.163	2.66
441.369	2.65
441.575	2.65
441.782	2.6
441.988	2.61
442.194	2.71
442.4	2.75
442.606	2.78
442.812	2.8
443.018	2.81
443.224	2.86
443.431	2.89
443.637	2.8
443.843	2.85
444.049	2.84
444.255	2.77
444.461	2.74
444.667	2.68
444.873	2.66
445.079	2.67
445.284	2.61
445.49	2.6
445.696	2.71
445.902	2.83
446.108	2.86
446.314	2.89
446.52	2.96
446.726	3.02
446.931	3.06
447.137	3.02
447.343	2.96
447.549	2.96
447.755	2.91
447.96	2.86
448.166	2.84
448.372	2.79
448.578	2.78
448.783	2.76
448.989	2.76
449.195	2.77
449.4	2.79
449.606	2.73
449.812	2.81
450.017	2.83
450.223	2.83
450.428	2.85
450.634	2.89
450.84	2.86
451.045	2.92
451.251	2.92
451.456	2.91
451.662	2.91
451.867	2.95
452.073	2.91
452.278	2.91
452.483	2.89
452.689	2.87
452.894	2.9
453.1	2.87
453.305	2.82
453.51	2.85
453.716	2.87
453.921	2.86
454.127	2.83
454.332	2.8
454.537	2.89
454.742	2.91
454.948	2.94
455.153	2.97
455.358	3.02
455.563	3.07
455.769	3.09
455.974	2.98
456.179	2.98
456.384	2.96
456.589	2.95
456.795	2.85
457	2.85
457.205	2.83
457.41	2.86
457.615	2.89
457.82	2.96
458.025	2.94
458.23	3.02
458.435	2.98
458.64	3.06
458.845	3.07
459.05	3.04
459.255	3
459.46	3
459.665	3.06
459.87	3.08
460.075	3.02
460.28	3.06
460.485	3.11
460.69	3.01
460.895	3.04
461.099	3.02
461.304	3.01
461.509	2.98
461.714	2.99
461.919	2.94
462.123	3.07
462.328	3.09
462.533	3.03
462.738	3.04
462.942	3.13
463.147	3.14
463.352	3.18
463.556	3.18
463.761	3.14
463.966	3.2
464.17	3.21
464.375	3.17
464.58	3.08
464.784	3.06
464.989	3.03
465.193	3.04
465.398	3.04
465.602	3.04
465.807	3.09
466.011	3.17
466.216	3.23
466.42	3.31
466.625	3.34
466.829	3.34
467.034	3.35
467.238	3.36
467.443	3.36
467.647	3.35
467.851	3.3
468.056	3.32
468.26	3.3
468.464	3.29
468.669	3.31
468.873	3.32
469.077	3.36
469.282	3.39
469.486	3.42
469.69	3.48
469.894	3.58
470.099	3.54
