Data from Ofra_2a_PS_2GT41_Reflection_2.txt Node
Date: Tue Jul 20 09:43:48 EDT 2021
User: Adam
Spectrometer: FLMT01687
Trigger mode: 0
Integration Time (sec): 9.450000E-1
Scans to average: 3
Electric dark correction enabled: true
Nonlinearity correction enabled: false
Boxcar width: 3
XAxis mode: Wavelengths
Number of Pixels in Spectrum: 3648
>>>>>Begin Spectral Data<<<<<
179.494	694.08
179.716	441.02
179.937	497.8
180.158	1722.66
180.38	-898.26
180.601	-145.54
180.823	-54.66
181.044	-0.6
181.265	-30.86
181.486	89.37
181.708	-450
181.929	32.79
182.15	180.68
182.372	34.12
182.593	39.55
182.814	234.43
183.035	97.31
183.257	82.05
183.478	63.79
183.699	57.8
183.92	49.09
184.141	51.82
184.363	34.27
184.584	30.36
184.805	42.58
185.026	41.75
185.247	24.33
185.468	41.54
185.689	33.08
185.91	38.82
186.132	44.59
186.353	20.22
186.574	16.41
186.795	8.52
187.016	4.87
187.237	3.1
187.458	-4.15
187.679	-23.49
187.9	-9.93
188.121	17.61
188.342	42.56
188.563	54.16
188.784	51.75
189.005	55.44
189.226	61.19
189.447	63.38
189.667	42.83
189.888	43.24
190.109	41.77
190.33	45.29
190.551	40.45
190.772	30.54
190.993	31.32
191.214	33.61
191.434	29.28
191.655	29.4
191.876	29.73
192.097	16.74
192.318	21.89
192.538	21.41
192.759	30.47
192.98	32.74
193.201	43.79
193.421	49.72
193.642	58.36
193.863	69.47
194.083	67.25
194.304	38.23
194.525	41.41
194.745	10.31
194.966	9.84
195.187	29.5
195.407	22.04
195.628	22.04
195.848	31.47
196.069	24.09
196.29	26.78
196.51	16.75
196.731	13.62
196.951	15.43
197.172	12.74
197.392	19.24
197.613	19.87
197.833	22.29
198.054	21.99
198.274	-1.31
198.495	9.38
198.715	-6.42
198.936	-3.82
199.156	-10.02
199.377	2.77
199.597	11.41
199.817	43.33
200.038	32.63
200.258	53.02
200.479	48.08
200.699	44.52
200.919	25.66
201.14	32.55
201.36	24.37
201.58	26.15
201.801	27.48
202.021	25.75
202.241	41.59
202.461	48.66
202.682	52.5
202.902	54.48
203.122	48.76
203.342	52.95
203.563	54.32
203.783	46.64
204.003	51.48
204.223	49.29
204.443	44.64
204.663	48.13
204.884	45.19
205.104	50.54
205.324	65.02
205.544	62.72
205.764	55.41
205.984	59.81
206.204	52.61
206.424	39.98
206.644	45.8
206.864	34.03
207.084	49.25
207.304	51.12
207.525	41.61
207.745	54.16
207.964	72.7
208.184	49.19
208.404	51.66
208.624	40.4
208.844	19.19
209.064	20.79
209.284	26.31
209.504	26.85
209.724	3.67
209.944	3.43
210.164	10.14
210.384	37.57
210.604	28.25
210.823	4.27
211.043	2.13
211.263	21.56
211.483	15.14
211.703	12.36
211.922	11.42
212.142	21.78
212.362	31.16
212.582	28.61
212.801	21.06
213.021	27.7
213.241	16.04
213.461	1.65
213.68	0.99
213.9	5.27
214.12	0.81
214.339	17.19
214.559	17.49
214.779	20.31
214.998	30.72
215.218	38.36
215.438	42.21
215.657	37.51
215.877	29.5
216.096	36.64
216.316	36.36
216.535	34.07
216.755	16.29
216.974	7.63
217.194	23.14
217.413	31.67
217.633	12.26
217.852	13.15
218.072	-2.23
218.291	30.06
218.511	26.47
218.73	14.21
218.95	8.35
219.169	14.84
219.389	15.34
219.608	33.93
219.827	21.57
220.047	49.87
220.266	57.24
220.485	57.61
220.705	48.59
220.924	59.83
221.143	49.59
221.363	58.49
221.582	51.67
221.801	48.64
222.021	39.49
222.24	44.01
222.459	21.45
222.678	27.69
222.897	19.37
223.117	13.49
223.336	27.24
223.555	25.29
223.774	36.83
223.993	49.07
224.213	36.46
224.432	38.81
224.651	27.8
224.87	21.75
225.089	29.48
225.308	25.65
225.527	35.04
225.746	43.89
225.965	29.67
226.184	33.25
226.404	21.9
226.623	33.2
226.842	25.26
227.061	8.67
227.28	12.05
227.499	41.24
227.718	30.84
227.936	25.94
228.155	18.56
228.374	28.15
228.593	32.87
228.812	24.33
229.031	12.7
229.25	25.01
229.469	37.6
229.688	55.1
229.907	39.3
230.125	35.55
230.344	35.22
230.563	37.35
230.782	31.43
231.001	36.31
231.22	17.21
231.438	27.76
231.657	32.98
231.876	40.9
232.095	33.92
232.313	52.56
232.532	41.13
232.751	50.09
232.969	61.08
233.188	59.4
233.407	62.9
233.625	61.07
233.844	49.63
234.063	54.47
234.281	43.39
234.5	35.16
234.719	41.05
234.937	39.83
235.156	40.94
235.374	35.19
235.593	24.83
235.811	21.51
236.03	15.36
236.249	1.17
236.467	-6.54
236.686	-9.45
236.904	-13.63
237.123	10.9
237.341	21.3
237.559	21.59
237.778	29.08
237.996	30.04
238.215	21.58
238.433	28.23
238.652	22.37
238.87	22.56
239.088	22.04
239.307	19.61
239.525	14.88
239.743	13.84
239.962	17.33
240.18	28.26
240.398	32.31
240.617	39.74
240.835	51.4
241.053	64.39
241.271	69.42
241.49	61.78
241.708	55.59
241.926	37.75
242.144	27.46
242.363	16.81
242.581	12.93
242.799	8.25
243.017	19.84
243.235	6.9
243.453	21.52
243.672	24.78
243.89	27.41
244.108	36.81
244.326	36.02
244.544	41.12
244.762	41.4
244.98	38.6
245.198	23.17
245.416	20.38
245.634	13.9
245.852	29.36
246.07	20.58
246.288	20.67
246.506	25.35
246.724	56.52
246.942	62.65
247.16	41.75
247.378	18
247.596	18.73
247.814	11.97
248.032	12.39
248.25	0.98
248.468	8.72
248.685	24.53
248.903	37.41
249.121	39.34
249.339	51.18
249.557	51
249.775	28.99
249.992	26.1
250.21	21.53
250.428	15.16
250.646	15.04
250.863	15.87
251.081	9.37
251.299	33.74
251.517	38.26
251.734	33.57
251.952	54.11
252.17	53.14
252.387	47.6
252.605	43.77
252.823	33.99
253.04	25.81
253.258	46.56
253.475	29.2
253.693	40.69
253.911	39.89
254.128	37
254.346	33.61
254.563	30.46
254.781	23.14
254.998	28.35
255.216	22.58
255.433	18.8
255.651	22.86
255.868	27.95
256.086	36.6
256.303	38.06
256.521	24.29
256.738	21.49
256.956	17.25
257.173	21
257.39	26.37
257.608	23.45
257.825	22.9
258.043	36.17
258.26	37.78
258.477	43.69
258.695	51.63
258.912	64.62
259.129	55.61
259.346	62.61
259.564	65.18
259.781	65.13
259.998	64.14
260.216	56.57
260.433	38.91
260.65	44.24
260.867	25.14
261.084	33.92
261.302	31.82
261.519	26.7
261.736	21.03
261.953	21.91
262.17	21.41
262.387	26.01
262.604	10.07
262.822	2.44
263.039	9.89
263.256	13.57
263.473	10.51
263.69	14.41
263.907	13.58
264.124	17.28
264.341	23.1
264.558	23.65
264.775	29.17
264.992	41.53
265.209	43.21
265.426	45.66
265.643	45.13
265.86	41.76
266.077	38.58
266.294	38.33
266.51	31.27
266.727	16.94
266.944	9.19
267.161	-3.85
267.378	-0.66
267.595	-6.33
267.812	-23.94
268.028	-12.02
268.245	-0.14
268.462	4.14
268.679	0.47
268.896	-6.62
269.112	7.13
269.329	17.07
269.546	9.57
269.763	9.08
269.979	6.17
270.196	17.18
270.413	22.22
270.629	18.16
270.846	22.55
271.063	23.2
271.279	28.15
271.496	24.07
271.712	30.05
271.929	35.68
272.146	39.77
272.362	27.21
272.579	32.77
272.795	28.07
273.012	38.44
273.228	36.3
273.445	30.22
273.661	30.06
273.878	33.3
274.094	32.32
274.311	22.95
274.527	16.91
274.744	15.39
274.96	13.14
275.177	11.46
275.393	11.79
275.609	10.59
275.826	21
276.042	34.06
276.259	33.5
276.475	36.74
276.691	34.69
276.908	34.79
277.124	38.33
277.34	39.51
277.557	30.68
277.773	27.68
277.989	25.98
278.205	21.2
278.422	31.48
278.638	31.97
278.854	26.81
279.07	25.46
279.286	19.22
279.503	18.04
279.719	28.64
279.935	12.77
280.151	18.54
280.367	24.09
280.583	26.11
280.799	36.41
281.016	39.49
281.232	33.73
281.448	33.72
281.664	26.78
281.88	22.94
282.096	30.24
282.312	19.41
282.528	12.79
282.744	12.44
282.96	14.97
283.176	16.44
283.392	18.09
283.608	17.67
283.824	17.77
284.04	31.24
284.256	37.05
284.471	44.48
284.687	34.13
284.903	39.4
285.119	26.71
285.335	25.42
285.551	28.22
285.767	31.26
285.982	23.98
286.198	34.97
286.414	40.02
286.63	48.73
286.846	45
287.061	47.82
287.277	44.64
287.493	52.15
287.709	53.65
287.924	57.47
288.14	56.84
288.356	74.78
288.571	57.91
288.787	53.89
289.003	52.41
289.218	43.09
289.434	30.62
289.65	27.76
289.865	25.36
290.081	27.33
290.296	28.37
290.512	30.11
290.727	35.9
290.943	38.02
291.159	34.9
291.374	43.86
291.59	41.64
291.805	51.54
292.021	42.7
292.236	42.88
292.451	35.39
292.667	42.3
292.882	31.59
293.098	33.45
293.313	16.57
293.529	22.69
293.744	20.76
293.959	28.83
294.175	17.21
294.39	24.85
294.605	33.7
294.821	37.38
295.036	37.27
295.251	37.41
295.467	33.2
295.682	40.25
295.897	28.46
296.112	28.68
296.328	37.66
296.543	39.01
296.758	39.29
296.973	40.38
297.188	35.36
297.404	46.48
297.619	43.22
297.834	40.57
298.049	38.18
298.264	31.92
298.479	24.81
298.694	29.96
298.909	17.7
299.125	22.65
299.34	19.5
299.555	25.2
299.77	22.45
299.985	24.42
300.2	23.88
300.415	27.7
300.63	23.03
300.845	23.06
301.06	10.04
301.275	21.37
301.49	23.97
301.704	22.22
301.919	21.13
302.134	13.32
302.349	6.98
302.564	10.18
302.779	-1.77
302.994	-1.28
303.209	-3.56
303.423	11.61
303.638	26.35
303.853	37.12
304.068	41.6
304.283	43.92
304.497	38.88
304.712	41.65
304.927	30.22
305.142	21.07
305.356	18.28
305.571	20.51
305.786	16.93
306	20.23
306.215	9.55
306.43	24.33
306.644	28.59
306.859	28.78
307.074	28.06
307.288	30.65
307.503	29.4
307.717	35.29
307.932	27.21
308.147	30.36
308.361	35.6
308.576	33.85
308.79	28.52
309.005	26.42
309.219	30.05
309.434	30.82
309.648	22.93
309.863	21.42
310.077	17.05
310.292	21.4
310.506	36.24
310.72	18.11
310.935	17.78
311.149	27.58
311.364	24.87
311.578	18.86
311.792	15.54
312.007	4.63
312.221	19.58
312.435	16.66
312.649	-13.52
312.864	-24.61
313.078	-0.58
313.292	5.91
313.507	9.21
313.721	1.42
313.935	22.19
314.149	38.4
314.363	43.62
314.578	62.17
314.792	58.26
315.006	53.92
315.22	53.17
315.434	38.98
315.648	43.99
315.862	43.49
316.077	25.01
316.291	28.07
316.505	34.69
316.719	29.08
316.933	33.42
317.147	29.62
317.361	28.61
317.575	21.71
317.789	25.63
318.003	28
318.217	36.11
318.431	39.52
318.645	42.82
318.859	43.22
319.073	43.56
319.287	42.39
319.5	37.03
319.714	30.61
319.928	30.35
320.142	23.12
320.356	29.18
320.57	21.03
320.784	17.34
320.997	26.78
321.211	30.96
321.425	27.4
321.639	36.63
321.853	26.63
322.066	33.53
322.28	38.91
322.494	24.68
322.707	19.7
322.921	22.01
323.135	21.05
323.349	25.61
323.562	27.95
323.776	25.45
323.989	36.72
324.203	45.6
324.417	38.98
324.63	28.15
324.844	25.24
325.057	23.52
325.271	13.73
325.485	12.08
325.698	13.03
325.912	25.95
326.125	35.52
326.339	37.99
326.552	35.69
326.766	46.94
326.979	43.43
327.193	35.39
327.406	30.04
327.619	13.54
327.833	4.72
328.046	13.35
328.26	2.32
328.473	-4.52
328.686	-2.27
328.9	-2.06
329.113	11.61
329.326	19.26
329.54	13.88
329.753	14.21
329.966	18.2
330.179	26.04
330.393	29.4
330.606	24.08
330.819	29.05
331.032	39.9
331.246	52.28
331.459	50.83
331.672	46.21
331.885	41.78
332.098	49.66
332.311	32.59
332.525	17.53
332.738	9.27
332.951	11.13
333.164	2.97
333.377	-6.76
333.59	-3.93
333.803	9.34
334.016	1
334.229	4.89
334.442	15.5
334.655	20.97
334.868	31.9
335.081	32.48
335.294	29.75
335.507	43.21
335.72	32.22
335.933	31.61
336.146	34.63
336.359	31.27
336.572	28.94
336.785	41.51
336.997	36.75
337.21	42.69
337.423	40.82
337.636	40.41
337.849	36.99
338.062	37.64
338.274	29.53
338.487	20.8
338.7	24.25
338.913	23.84
339.125	13.45
339.338	20.89
339.551	25.83
339.763	18.08
339.976	21.17
340.189	20.1
340.402	17.98
340.614	31.38
340.827	16.36
341.039	8.02
341.252	14.97
341.465	6.38
341.677	-4.12
341.89	0.18
342.102	-8.77
342.315	11.02
342.527	14.75
342.74	17.98
342.952	31.15
343.165	50.09
343.377	51.67
343.59	52.98
343.802	55.32
344.015	52.69
344.227	43.81
344.44	36.29
344.652	36.68
344.864	32.94
345.077	40.56
345.289	27.78
345.502	25.65
345.714	28.15
345.926	33.59
346.139	27.32
346.351	16.89
346.563	18.66
346.775	19.12
346.988	25.67
347.2	22.64
347.412	20.2
347.624	20.45
347.837	25.78
348.049	22.34
348.261	18.16
348.473	13.1
348.685	16.67
348.897	21.95
349.11	20.79
349.322	11.96
349.534	8.14
349.746	17.09
349.958	11.53
350.17	7.16
350.382	3.22
350.594	3.48
350.806	14.53
351.018	22.4
351.23	28.14
351.442	33.56
351.654	42.46
351.866	50.22
352.078	50.34
352.29	61.78
352.502	63.1
352.714	60.44
352.926	65.29
353.138	53.99
353.35	44.67
353.561	38.3
353.773	29.91
353.985	33.41
354.197	30.98
354.409	24.84
354.621	28.42
354.832	24.32
355.044	26.7
355.256	21.14
355.468	8.47
355.679	10.76
355.891	17.29
356.103	18.39
356.314	27.54
356.526	26.47
356.738	20.85
356.949	22.77
357.161	21.49
357.373	19.45
357.584	16.66
357.796	10.82
358.008	8.01
358.219	26.55
358.431	19.76
358.642	19.18
358.854	20.24
359.065	20.88
359.277	15.79
359.488	19.95
359.7	16.96
359.911	25.06
360.123	28.5
360.334	23.72
360.546	15.59
360.757	20.15
360.969	31.64
361.18	17.04
361.391	12.67
361.603	14.71
361.814	17.25
362.025	24.17
362.237	28.63
362.448	25.31
362.659	27.85
362.871	36.62
363.082	34.62
363.293	37.37
363.504	40.01
363.716	36.67
363.927	36.12
364.138	38.38
364.349	37.07
364.56	34.83
364.772	31.65
364.983	19.74
365.194	21.09
365.405	10.92
365.616	-1.13
365.827	-7.25
366.038	6.66
366.25	10.39
366.461	23.62
366.672	19.89
366.883	28.22
367.094	32.37
367.305	35.72
367.516	25.89
367.727	19.48
367.938	18.99
368.149	23.61
368.36	23.35
368.571	25.09
368.781	18.2
368.992	19.73
369.203	26.67
369.414	18.48
369.625	12.01
369.836	10.84
370.047	13.78
370.258	19.93
370.468	9.91
370.679	2.14
370.89	20.67
371.101	23.06
371.312	21.26
371.522	23.16
371.733	17.04
371.944	25.94
372.155	24.97
372.365	21.04
372.576	20.91
372.787	22.67
372.997	15.19
373.208	26.89
373.419	23.67
373.629	25.6
373.84	14.69
374.05	11.77
374.261	8.16
374.472	14.03
374.682	2.35
374.893	1.56
375.103	5.22
375.314	10.38
375.524	15.52
375.735	18.11
375.945	17.91
376.156	20.09
376.366	23.88
376.577	25.05
376.787	25.2
376.997	21.93
377.208	20.28
377.418	16.39
377.629	18.63
377.839	17.17
378.049	23.09
378.26	19.12
378.47	16.34
378.68	18.24
378.89	19.41
379.101	10.6
379.311	6.82
379.521	5.86
379.732	3.72
379.942	10.61
380.152	19.32
380.362	21.02
380.572	28.42
380.783	28.1
380.993	28.51
381.203	25.48
381.413	27.4
381.623	22.05
381.833	20.69
382.043	15.13
382.253	20.69
382.463	16.75
382.674	20.02
382.884	15.18
383.094	8.67
383.304	8.03
383.514	16.79
383.724	15.03
383.934	13.38
384.144	15.97
384.353	15.83
384.563	14.81
384.773	17.22
384.983	14.17
385.193	15.15
385.403	15.99
385.613	14.91
385.823	15.6
386.033	19.55
386.242	16.04
386.452	13.52
386.662	15.84
386.872	14.22
387.082	11.37
387.291	9.28
387.501	8.2
387.711	8.28
387.921	8.76
388.13	5.79
388.34	5.86
388.55	8.99
388.759	7.98
388.969	5.04
389.179	8.53
389.388	8.36
389.598	7.11
389.807	7.42
390.017	6.38
390.227	6.91
390.436	8.48
390.646	8.62
390.855	8.91
391.065	8.22
391.274	7.47
391.484	8.04
391.693	8.3
391.903	8.32
392.112	5.65
392.322	7.99
392.531	9.26
392.74	8.59
392.95	9.23
393.159	9.48
393.369	8.58
393.578	9.26
393.787	8.18
393.997	8.47
394.206	8.79
394.415	8.05
394.625	7.43
394.834	7.63
395.043	8.02
395.252	7.76
395.462	6.36
395.671	6.47
395.88	6.53
396.089	6.15
396.298	5.92
396.508	5.43
396.717	5.39
396.926	5.57
397.135	5.22
397.344	5.16
397.553	5.84
397.762	6.03
397.971	5.96
398.181	5.43
398.39	5.77
398.599	6.36
398.808	6.36
399.017	6.22
399.226	6.22
399.435	6.42
399.644	6.35
399.853	6.55
400.062	6.17
400.27	6.18
400.479	6.03
400.688	6.11
400.897	6.19
401.106	6.39
401.315	5.99
401.524	6.08
401.733	6.09
401.941	6.01
402.15	5.89
402.359	5.75
402.568	5.83
402.777	6.01
402.985	5.93
403.194	5.73
403.403	5.53
403.612	5.58
403.82	5.58
404.029	5.47
404.238	5.39
404.446	5.32
404.655	5.26
404.864	5.3
405.072	5.25
405.281	5.17
405.489	5.13
405.698	5.05
405.906	5.03
406.115	5.08
406.324	5.04
406.532	4.99
406.741	4.99
406.949	4.97
407.158	4.97
407.366	5.07
407.574	5.06
407.783	5.09
407.991	5.03
408.2	4.99
408.408	4.99
408.617	4.96
408.825	4.79
409.033	4.78
409.242	4.78
409.45	4.84
409.658	4.77
409.867	4.82
410.075	4.82
410.283	4.87
410.491	4.83
410.7	4.88
410.908	4.81
411.116	4.84
411.324	4.85
411.533	4.79
411.741	4.74
411.949	4.8
412.157	4.78
412.365	4.81
412.573	4.76
412.781	4.68
412.99	4.78
413.198	4.92
413.406	4.85
413.614	4.8
413.822	4.79
414.03	4.79
414.238	4.81
414.446	4.7
414.654	4.63
414.862	4.57
415.07	4.59
415.278	4.52
415.486	4.61
415.694	4.52
415.902	4.54
416.109	4.53
416.317	4.53
416.525	4.58
416.733	4.67
416.941	4.57
417.149	4.71
417.357	4.77
417.564	4.73
417.772	4.75
417.98	4.64
418.188	4.51
418.395	4.5
418.603	4.31
418.811	4.12
419.019	4.14
419.226	4.25
419.434	4.21
419.642	4.3
419.849	4.31
420.057	4.44
420.265	4.53
420.472	4.45
420.68	4.34
420.887	4.35
421.095	4.39
421.302	4.46
421.51	4.43
421.717	4.46
421.925	4.47
422.132	4.42
422.34	4.51
422.547	4.42
422.755	4.35
422.962	4.31
423.17	4.25
423.377	4.34
423.585	4.38
423.792	4.37
423.999	4.44
424.207	4.41
424.414	4.43
424.621	4.48
424.829	4.37
425.036	4.36
425.243	4.3
425.451	4.22
425.658	4.27
425.865	4.25
426.072	4.27
426.28	4.35
426.487	4.32
426.694	4.3
426.901	4.26
427.108	4.25
427.315	4.22
427.523	4.18
427.73	4.17
427.937	4.21
428.144	4.26
428.351	4.36
428.558	4.26
428.765	4.32
428.972	4.33
429.179	4.23
429.386	4.27
429.593	4.26
429.8	4.22
430.007	4.34
430.214	4.34
430.421	4.38
430.628	4.34
430.835	4.3
431.042	4.3
431.249	4.35
431.456	4.4
431.662	4.36
431.869	4.39
432.076	4.49
432.283	4.45
432.49	4.41
432.697	4.45
432.903	4.47
433.11	4.53
433.317	4.54
433.524	4.47
433.73	4.54
433.937	4.62
434.144	4.68
434.35	4.59
434.557	4.54
434.764	4.47
434.97	4.57
435.177	4.56
435.384	4.62
435.59	4.5
435.797	4.53
436.003	4.56
436.21	4.56
436.416	4.53
436.623	4.54
436.829	4.49
437.036	4.49
437.242	4.51
437.449	4.54
437.655	4.57
437.862	4.67
438.068	4.7
438.275	4.65
438.481	4.78
438.687	4.79
438.894	4.78
439.1	4.82
439.307	4.74
439.513	4.71
439.719	4.85
439.926	4.81
440.132	4.84
440.338	4.92
440.544	4.89
440.751	4.93
440.957	4.94
441.163	4.92
441.369	4.9
441.575	4.87
441.782	4.79
441.988	4.79
442.194	4.78
442.4	4.84
442.606	4.86
442.812	4.88
443.018	4.89
443.224	4.9
443.431	4.91
443.637	4.9
443.843	4.91
444.049	4.81
444.255	4.82
444.461	4.81
444.667	4.81
444.873	4.77
445.079	4.78
445.284	4.74
445.49	4.76
445.696	4.76
445.902	4.84
446.108	4.83
446.314	4.93
446.52	5.01
446.726	5.04
446.931	5.07
447.137	5.11
447.343	5.07
447.549	5.07
447.755	5.04
447.96	4.94
448.166	4.97
448.372	4.95
448.578	4.94
448.783	4.91
448.989	4.93
449.195	4.91
449.4	4.92
449.606	4.9
449.812	4.93
450.017	4.91
450.223	4.97
450.428	4.99
450.634	5.06
450.84	5.09
451.045	5.11
451.251	5.12
451.456	5.15
451.662	5.11
451.867	5.13
452.073	5.07
452.278	5.02
452.483	5.06
452.689	5.06
452.894	5.03
453.1	4.97
453.305	4.94
453.51	4.97
453.716	5
453.921	4.95
454.127	4.95
454.332	5.01
454.537	5.1
454.742	5.07
454.948	5.06
455.153	5.12
455.358	5.17
455.563	5.18
455.769	5.12
455.974	5.08
456.179	5.1
456.384	5.12
456.589	5.11
456.795	5.04
457	5.02
457.205	4.99
457.41	5.05
457.615	5.1
457.82	5.14
458.025	5.14
458.23	5.15
458.435	5.17
458.64	5.26
458.845	5.28
459.05	5.27
459.255	5.23
459.46	5.23
459.665	5.28
459.87	5.28
460.075	5.27
460.28	5.22
460.485	5.26
460.69	5.25
460.895	5.26
461.099	5.3
461.304	5.3
461.509	5.23
461.714	5.27
461.919	5.21
462.123	5.25
462.328	5.31
462.533	5.31
462.738	5.32
462.942	5.44
463.147	5.45
463.352	5.52
463.556	5.52
463.761	5.5
463.966	5.52
464.17	5.55
464.375	5.49
464.58	5.46
464.784	5.44
464.989	5.45
465.193	5.5
465.398	5.51
465.602	5.5
465.807	5.53
466.011	5.59
466.216	5.59
466.42	5.59
466.625	5.55
466.829	5.55
467.034	5.58
467.238	5.6
467.443	5.6
467.647	5.63
467.851	5.64
468.056	5.66
468.26	5.67
468.464	5.68
468.669	5.68
468.873	5.68
