Data from Ofra_PS_T2_1A_4HS15_Reflection_2.txt Node
Date: Wed Jul 21 18:07:08 EDT 2021
User: Adam
Spectrometer: FLMT01687
Trigger mode: 0
Integration Time (sec): 1.100000E0
Scans to average: 2
Electric dark correction enabled: true
Nonlinearity correction enabled: false
Boxcar width: 2
XAxis mode: Wavelengths
Number of Pixels in Spectrum: 3648
>>>>>Begin Spectral Data<<<<<
179.494	537
179.716	599.29
179.937	613.76
180.158	581.81
180.38	940.78
180.601	412.29
180.823	178.58
181.044	-10.31
181.265	222.24
181.486	88.27
181.708	135.62
181.929	935.2
182.15	-675
182.372	97.55
182.593	46.25
182.814	58.48
183.035	126.39
183.257	115.93
183.478	-3.67
183.699	16.74
183.92	-12.52
184.141	-20.47
184.363	-65.28
184.584	36.54
184.805	42.58
185.026	74.11
185.247	80.12
185.468	63.25
185.689	28.08
185.91	24.4
186.132	4.76
186.353	-26.07
186.574	20.52
186.795	63.43
187.016	29.66
187.237	25.02
187.458	50.58
187.679	2.93
187.9	-18.79
188.121	-4.66
188.342	35.78
188.563	54.69
188.784	98.02
189.005	96.87
189.226	141.83
189.447	97.4
189.667	-25.85
189.888	-309.98
190.109	-1440.58
190.33	-837.58
190.551	-1382.52
190.772	-238.8
190.993	-164.5
191.214	-100.05
191.434	-51.56
191.655	12.98
191.876	-60.61
192.097	-72.25
192.318	-106.81
192.538	-186.29
192.759	-153.49
192.98	-69.34
193.201	-54.66
193.421	-25.32
193.642	-15.67
193.863	1.32
194.083	-9.7
194.304	-6.56
194.525	-6.25
194.745	25.11
194.966	-17.36
195.187	-13.64
195.407	-40.54
195.628	-122.19
195.848	-147.1
196.069	-123.9
196.29	-137.03
196.51	-161.43
196.731	-129.18
196.951	-170.19
197.172	-206.75
197.392	-170.55
197.613	-151.79
197.833	-174.11
198.054	-127.05
198.274	-63.39
198.495	-90.5
198.715	-44.14
198.936	-51.22
199.156	-38.1
199.377	-154.27
199.597	-146.52
199.817	-159.06
200.038	-99.17
200.258	-193.81
200.479	-87.97
200.699	-69.3
200.919	6.28
201.14	4.24
201.36	16.31
201.58	31.94
201.801	43.17
202.021	7.83
202.241	-6.77
202.461	-10.56
202.682	-112.1
202.902	-168.25
203.122	-110.38
203.342	-71.17
203.563	-24.6
203.783	-10.22
204.003	-62.53
204.223	-71.24
204.443	-17.32
204.663	-86.33
204.884	-37.64
205.104	-0.78
205.324	24.39
205.544	20.35
205.764	68.18
205.984	54.94
206.204	52.97
206.424	47.84
206.644	4.08
206.864	-11.29
207.084	-51.08
207.304	-24.92
207.525	-123.52
207.745	-18.43
207.964	24.57
208.184	-19.88
208.404	-60.34
208.624	-72.19
208.844	-71.65
209.064	-357.89
209.284	-334
209.504	-189.54
209.724	-48.67
209.944	-25.62
210.164	26.29
210.384	30.59
210.604	38.23
210.823	-13.52
211.043	-29.84
211.263	-42.18
211.483	-56.94
211.703	-119.78
211.922	-77.2
212.142	-18.56
212.362	12.14
212.582	28.19
212.801	26.76
213.021	1.12
213.241	-35.97
213.461	-91.56
213.68	-120.27
213.9	-67.75
214.12	-56.54
214.339	-94.53
214.559	-83.39
214.779	-26.19
214.998	-33.38
215.218	-74.18
215.438	-25.27
215.657	-20.45
215.877	-44.66
216.096	-24.41
216.316	-6.21
216.535	-23.38
216.755	-24.28
216.974	-112.66
217.194	-153.01
217.413	-134.83
217.633	-146.44
217.852	-234.79
218.072	-91.39
218.291	-43.61
218.511	-8.24
218.73	-16.52
218.95	-10.3
219.169	-18.79
219.389	-60.68
219.608	-50.55
219.827	-51.25
220.047	-40.59
220.266	-30.65
220.485	-16.92
220.705	-4.54
220.924	-21.82
221.143	16.76
221.363	13.91
221.582	12.46
221.801	8.2
222.021	37.45
222.24	-35.51
222.459	2.19
222.678	2.33
222.897	-35.48
223.117	-105.66
223.336	-70.61
223.555	-70.96
223.774	-17.01
223.993	-16.19
224.213	59.95
224.432	45.27
224.651	72.76
224.87	41.23
225.089	48.18
225.308	40.7
225.527	49.69
225.746	41.77
225.965	39.2
226.184	28.27
226.404	26.62
226.623	1.96
226.842	-0.13
227.061	33.29
227.28	35.33
227.499	25.53
227.718	39.14
227.936	35.24
228.155	29.24
228.374	25.84
228.593	24.08
228.812	21.64
229.031	16.77
229.25	-36.09
229.469	-39.32
229.688	-5.04
229.907	24.73
230.125	42.26
230.344	44.75
230.563	50.27
230.782	41.83
231.001	-44.88
231.22	-42.87
231.438	-7.51
231.657	-12.93
231.876	-19.82
232.095	30.97
232.313	28.99
232.532	2.59
232.751	-18.83
232.969	-34.78
233.188	-85.02
233.407	-3.05
233.625	-2.43
233.844	-8.12
234.063	13.17
234.281	28.8
234.5	19.82
234.719	25.58
234.937	32.53
235.156	31.17
235.374	20.48
235.593	0.87
235.811	1.75
236.03	4.08
236.249	-44.16
236.467	-28.94
236.686	-0.97
236.904	10.96
237.123	-12.24
237.341	-8.61
237.559	-0.9
237.778	-3
237.996	-40.17
238.215	3.68
238.433	20.34
238.652	13.84
238.87	-31.36
239.088	-2.13
239.307	-5.54
239.525	-16.35
239.743	-41.84
239.962	-28.12
240.18	-59.35
240.398	-95.96
240.617	-96.41
240.835	-79.01
241.053	-30.82
241.271	6.11
241.49	19.85
241.708	6.92
241.926	-7.61
242.144	-32.49
242.363	-66.47
242.581	-86.57
242.799	-40.51
243.017	-4.56
243.235	-9.23
243.453	3.66
243.672	0.92
243.89	-7.59
244.108	-10.43
244.326	7.63
244.544	0.77
244.762	2.96
244.98	9.89
245.198	-2.23
245.416	-28.73
245.634	-18.71
245.852	-35.46
246.07	-55.64
246.288	-55.33
246.506	-79.07
246.724	-71.01
246.942	-63.68
247.16	-18.28
247.378	-2.17
247.596	12.77
247.814	14.6
248.032	5.21
248.25	-0.39
248.468	2.28
248.685	15.51
248.903	35.08
249.121	32.53
249.339	4.73
249.557	-19.49
249.775	-7.87
249.992	-74.3
250.21	-54.98
250.428	-32.8
250.646	-43.51
250.863	-70.61
251.081	-45.15
251.299	-56.9
251.517	-34.51
251.734	-27.42
251.952	-19.36
252.17	-5.29
252.387	1.73
252.605	-22.96
252.823	-17.44
253.04	-2.96
253.258	-5.26
253.475	-11.51
253.693	21.93
253.911	35.77
254.128	35.36
254.346	56.78
254.563	26.12
254.781	-2.45
254.998	-25.88
255.216	-48.14
255.433	-51.88
255.651	-13.35
255.868	20.15
256.086	35.8
256.303	38.71
256.521	34.07
256.738	17.56
256.956	-8.26
257.173	-15.32
257.39	-35.32
257.608	-46.23
257.825	8.47
258.043	36.78
258.26	51.84
258.477	104.44
258.695	95.24
258.912	51.94
259.129	47.56
259.346	1.64
259.564	-40.7
259.781	-61.95
259.998	-17.4
260.216	4.19
260.433	43.79
260.65	28.56
260.867	55.34
261.084	36.38
261.302	7.22
261.519	-5.23
261.736	-24.34
261.953	-75.87
262.17	-36.55
262.387	-78.94
262.604	-98.99
262.822	-100.3
263.039	-63.13
263.256	-123.01
263.473	-60.32
263.69	-45.96
263.907	2.05
264.124	13.73
264.341	22.66
264.558	10.85
264.775	19.36
264.992	-6.46
265.209	2.92
265.426	23.94
265.643	40.32
265.86	47.85
266.077	55.07
266.294	44.11
266.51	-8.01
266.727	-40.55
266.944	-50.46
267.161	-54.94
267.378	-55.77
267.595	-29.23
267.812	-60.62
268.028	-73.7
268.245	-33.81
268.462	-50.7
268.679	-59.18
268.896	14.9
269.112	25.34
269.329	8.85
269.546	11.19
269.763	10.01
269.979	-20.87
270.196	-24.16
270.413	-57.27
270.629	-64.34
270.846	-65.57
271.063	-51.42
271.279	-68.24
271.496	-56.18
271.712	-19.76
271.929	-24.47
272.146	-23.36
272.362	-4.57
272.579	28.27
272.795	17.9
273.012	31.68
273.228	17.72
273.445	4.06
273.661	-20.88
273.878	-65.46
274.094	-40.96
274.311	-72.79
274.527	0.05
274.744	8.61
274.96	27.3
275.177	11.27
275.393	47.08
275.609	22.22
275.826	35.46
276.042	21.46
276.259	3.19
276.475	6.27
276.691	16.61
276.908	-3.09
277.124	22.42
277.34	52.43
277.557	46.55
277.773	25.65
277.989	24.68
278.205	7.12
278.422	-4.59
278.638	-4.91
278.854	13.24
279.07	7.85
279.286	9.34
279.503	-6.24
279.719	-10.63
279.935	-34.78
280.151	-36.89
280.367	-13.56
280.583	-25.68
280.799	-14.99
281.016	-44.52
281.232	-9.3
281.448	-9.15
281.664	23.6
281.88	-4.08
282.096	13.76
282.312	35.07
282.528	34.57
282.744	25.09
282.96	18.36
283.176	9.76
283.392	-4.53
283.608	-10.29
283.824	-14.36
284.04	7.87
284.256	19.99
284.471	-2.61
284.687	-9.64
284.903	25.25
285.119	35.8
285.335	14.82
285.551	38.85
285.767	42.14
285.982	26.38
286.198	-11.14
286.414	38.86
286.63	48.15
286.846	65.67
287.061	34.27
287.277	55.05
287.493	27.03
287.709	33.08
287.924	9.56
288.14	46.71
288.356	41.69
288.571	71.52
288.787	47.42
289.003	40.6
289.218	25.94
289.434	-10.82
289.65	-32.34
289.865	-36.23
290.081	-11.62
290.296	-4.89
290.512	23.6
290.727	1.02
290.943	-1.68
291.159	-13.74
291.374	-14.01
291.59	-38.62
291.805	-19.84
292.021	-8.8
292.236	-17.49
292.451	-6.19
292.667	10.24
292.882	11.99
293.098	4.74
293.313	15.15
293.529	-11.37
293.744	-48.81
293.959	-51.49
294.175	-41.58
294.39	-16.22
294.605	2.88
294.821	37.02
295.036	47.44
295.251	49.77
295.467	17.06
295.682	1.16
295.897	-52.12
296.112	-68.72
296.328	-60.28
296.543	-59.51
296.758	-53.14
296.973	-19.5
297.188	13.25
297.404	-17.13
297.619	-29.38
297.834	-40.77
298.049	-68.47
298.264	-80.98
298.479	-18.92
298.694	2.39
298.909	20.61
299.125	30.22
299.34	23.45
299.555	-14.15
299.77	-19.11
299.985	-63.09
300.2	-116.23
300.415	-109.43
300.63	-80.15
300.845	-78.03
301.06	-73.73
301.275	-27.44
301.49	-18.12
301.704	-14.39
301.919	-37.37
302.134	-33.31
302.349	-35.62
302.564	-96.47
302.779	-116.53
302.994	-78.88
303.209	-66.04
303.423	-80.7
303.638	15.48
303.853	-20.58
304.068	-18.11
304.283	-1.28
304.497	20.42
304.712	-3.86
304.927	6.74
305.142	-6.57
305.356	-6.31
305.571	-26.67
305.786	-37.52
306	-52.31
306.215	-48.54
306.43	-66.74
306.644	-50.27
306.859	16.04
307.074	29.96
307.288	0.28
307.503	9.77
307.717	-13.24
307.932	-21.24
308.147	-32.72
308.361	11.06
308.576	-6.73
308.79	-35.6
309.005	-31.39
309.219	-22.56
309.434	-45.58
309.648	-36.93
309.863	1.77
310.077	-11.05
310.292	9.06
310.506	6.44
310.72	17.93
310.935	16.26
311.149	9.36
311.364	19.59
311.578	35.01
311.792	23.98
312.007	35.08
312.221	28.9
312.435	22.76
312.649	5.2
312.864	-11.28
313.078	-32.02
313.292	6.67
313.507	-36.94
313.721	-36.94
313.935	28.42
314.149	19.98
314.363	21.21
314.578	28.58
314.792	37.83
315.006	15.01
315.22	33.96
315.434	27.61
315.648	31.23
315.862	18.6
316.077	29.48
316.291	-11.79
316.505	-15.45
316.719	-44.77
316.933	-53.17
317.147	-70.1
317.361	-84.56
317.575	-110.65
317.789	-129.18
318.003	-168.44
318.217	-134.5
318.431	-41.79
318.645	11.88
318.859	6.22
319.073	19.59
319.287	9.6
319.5	-23.04
319.714	-67.76
319.928	-83.38
320.142	-106.15
320.356	-49.31
320.57	-11.89
320.784	-31.32
320.997	-26.14
321.211	-33.7
321.425	-74.86
321.639	-79.53
321.853	-6.01
322.066	-1.71
322.28	-7.67
322.494	-5.02
322.707	8
322.921	-17.24
323.135	-16.32
323.349	15.67
323.562	-2.25
323.776	-32.18
323.989	-16.63
324.203	-43.94
324.417	-77.08
324.63	-68.89
324.844	-48.18
325.057	-56.05
325.271	-8.29
325.485	24.26
325.698	42.44
325.912	49.06
326.125	34.29
326.339	18.96
326.552	-3.33
326.766	-8.16
326.979	2.56
327.193	36.23
327.406	24.28
327.619	15.33
327.833	30.97
328.046	2.35
328.26	-36.29
328.473	-10.65
328.686	-38.98
328.9	-37.93
329.113	-16.56
329.326	-42.65
329.54	-37.04
329.753	-39.14
329.966	-73.62
330.179	-54.6
330.393	-24.53
330.606	-19.35
330.819	8.83
331.032	22.44
331.246	21.1
331.459	43.39
331.672	36.68
331.885	33.02
332.098	13.57
332.311	9.37
332.525	-20.1
332.738	-4.15
332.951	6.38
333.164	20.93
333.377	24.66
333.59	45.31
333.803	42.66
334.016	30.16
334.229	35.15
334.442	44.15
334.655	46.45
334.868	45.26
335.081	35.43
335.294	16.57
335.507	10.02
335.72	-3.18
335.933	-12.76
336.146	-18.21
336.359	-16.56
336.572	-45.71
336.785	-74.9
336.997	-70.55
337.21	-26.5
337.423	-24.71
337.636	-7.87
337.849	24.43
338.062	35.92
338.274	8.1
338.487	1.74
338.7	4.48
338.913	-49.2
339.125	-79.1
339.338	-110.18
339.551	-101.15
339.763	-84.64
339.976	-56.49
340.189	-33.11
340.402	-14.57
340.614	-9.12
340.827	-19.78
341.039	-42.16
341.252	-32.37
341.465	-14.86
341.677	-26.01
341.89	-61.84
342.102	-15.76
342.315	-33.43
342.527	-82.08
342.74	-55.29
342.952	-4.85
343.165	-18.89
343.377	2.37
343.59	6.7
343.802	10.05
344.015	7.31
344.227	24.17
344.44	21.09
344.652	25.95
344.864	19.19
345.077	25.6
345.289	23.26
345.502	26.48
345.714	20.76
345.926	23.96
346.139	16.58
346.351	16.09
346.563	18.73
346.775	26.84
346.988	7.92
347.2	0.67
347.412	-43.82
347.624	-58.88
347.837	-79.51
348.049	-53.43
348.261	-29.07
348.473	1.54
348.685	-9.01
348.897	0.57
349.11	-14.35
349.322	-41.45
349.534	-34.6
349.746	-38.7
349.958	-40.42
350.17	-43.58
350.382	-2.9
350.594	-14.7
350.806	-5.93
351.018	-2.86
351.23	6.71
351.442	-37.35
351.654	-31.14
351.866	-15.61
352.078	-20.67
352.29	-11.03
352.502	12.18
352.714	29.37
352.926	9.7
353.138	6.99
353.35	-6.42
353.561	-12.65
353.773	-37.2
353.985	-9.66
354.197	-13.71
354.409	-7.52
354.621	-13.08
354.832	0.65
355.044	-15.43
355.256	-14.32
355.468	-2.92
355.679	-3.89
355.891	-12.85
356.103	-31
356.314	-15.1
356.526	-16.99
356.738	-3.93
356.949	-7.27
357.161	9.11
357.373	-0.12
357.584	-8.42
357.796	-3.97
358.008	-9.4
358.219	8.96
358.431	-3.2
358.642	-4.62
358.854	-2.78
359.065	-9.78
359.277	-39.84
359.488	-29.29
359.7	-41.2
359.911	-82.11
360.123	-46.64
360.334	-60.29
360.546	-97.18
360.757	-88.73
360.969	-47.04
361.18	-44.56
361.391	-10.75
361.603	-4.63
361.814	-1.42
362.025	-15.4
362.237	-25.53
362.448	-27.49
362.659	-4.42
362.871	-6.42
363.082	-17.35
363.293	-17.49
363.504	-19.54
363.716	-32.82
363.927	-34.2
364.138	-50.08
364.349	-53.48
364.56	-42.05
364.772	-34.15
364.983	-15.42
365.194	3.36
365.405	17.43
365.616	23.92
365.827	16.41
366.038	-2
366.25	-10.53
366.461	-47.53
366.672	-24.03
366.883	1.68
367.094	14.55
367.305	-2.63
367.516	5.82
367.727	-29.53
367.938	-49.99
368.149	-52.86
368.36	-19.48
368.571	-13.74
368.781	-19.85
368.992	-31.95
369.203	-48.16
369.414	-83.54
369.625	-90.33
369.836	-88.1
370.047	-103.57
370.258	-75.99
370.468	-59.37
370.679	-74.41
370.89	-56.06
371.101	-29.58
371.312	-38.6
371.522	-37.15
371.733	-15.32
371.944	-5.32
372.155	1.9
372.365	-10.45
372.576	-12.98
372.787	-17.52
372.997	-35.99
373.208	-45.06
373.419	-3.06
373.629	-30.58
373.84	-40.05
374.05	-44.73
374.261	-26.66
374.472	-50.77
374.682	1.92
374.893	-1.41
375.103	33.97
375.314	24.83
375.524	21.3
375.735	19.28
375.945	34.55
376.156	5.03
376.366	13.09
376.577	19.67
376.787	7
376.997	7.58
377.208	7.65
377.418	-12.68
377.629	-2.93
377.839	5.74
378.049	1.16
378.26	14.44
378.47	19.39
378.68	4.69
378.89	-2.18
379.101	-4.25
379.311	-30.85
379.521	-48.84
379.732	-49.99
379.942	-52.73
380.152	-68.81
380.362	-34.77
380.572	-23.98
380.783	-9.05
380.993	0.03
381.203	18.36
381.413	15.93
381.623	18.12
381.833	17.81
382.043	9.42
382.253	-2.06
382.463	2.42
382.674	-7.91
382.884	-22.59
383.094	-26.24
383.304	-16.63
383.514	-9.99
383.724	3.88
383.934	-1.37
384.144	-5.86
384.353	-12.17
384.563	-20.6
384.773	-19.16
384.983	-22.52
385.193	-2.27
385.403	1.17
385.613	4.57
385.823	-5.56
386.033	6.76
386.242	-2.66
386.452	-8.66
386.662	-18.02
386.872	0.02
387.082	-10.56
387.291	-12.47
387.501	-9.4
387.711	0.68
387.921	-14.43
388.13	-12.25
388.34	-2.53
388.55	-6.57
388.759	-11.98
388.969	-4.14
389.179	-4.99
389.388	-7.02
389.598	-2.76
389.807	-8.37
390.017	-11.29
390.227	-6.96
390.436	-6.34
390.646	-3.35
390.855	2.13
391.065	1.97
391.274	2.6
391.484	0.66
391.693	1.16
391.903	3.25
392.112	9.43
392.322	11.29
392.531	14.08
392.74	15.83
392.95	11.29
393.159	7.88
393.369	6.14
393.578	4.78
393.787	2.13
393.997	4.01
394.206	2.22
394.415	2.69
394.625	2.67
394.834	1.83
395.043	3.02
395.252	5.64
395.462	6.59
395.671	7.6
395.88	8.25
396.089	9.01
396.298	7.34
396.508	7.08
396.717	5.88
396.926	6.78
397.135	6.6
397.344	6.49
397.553	6.78
397.762	9.17
397.971	8.76
398.181	8.77
398.39	8.93
398.599	8.88
398.808	8.44
399.017	8.98
399.226	10.13
399.435	10.62
399.644	10.88
399.853	9.68
400.062	9.66
400.27	8.93
400.479	8.81
400.688	7.83
400.897	8.2
401.106	8.04
401.315	7.64
401.524	7.7
401.733	8.63
401.941	9.03
402.15	9.24
402.359	9.13
402.568	9.59
402.777	9.55
402.985	9.2
403.194	8.97
403.403	8.98
403.612	8.48
403.82	8.12
404.029	8.3
404.238	8.26
404.446	8.8
404.655	8.74
404.864	8.69
405.072	8.49
405.281	8.77
405.489	8.43
405.698	8.39
405.906	8.45
406.115	8.46
406.324	8.27
406.532	8.34
406.741	8.58
406.949	8.56
407.158	8.54
407.366	8.57
407.574	8.49
407.783	8.4
407.991	8.3
408.2	8.46
408.408	8.3
408.617	8.24
408.825	8.16
409.033	8.27
409.242	8.21
409.45	8.42
409.658	8.33
409.867	8.43
410.075	8.23
410.283	8.09
410.491	7.89
410.7	7.96
410.908	7.82
411.116	8.14
411.324	8.14
411.533	8.02
411.741	8.13
411.949	8.12
412.157	7.74
412.365	7.59
412.573	7.72
412.781	7.62
412.99	7.56
413.198	7.81
413.406	7.97
413.614	8.02
413.822	7.87
414.03	7.87
414.238	7.62
414.446	7.68
414.654	7.4
414.862	7.46
415.07	7.54
415.278	7.78
415.486	7.52
415.694	7.6
415.902	7.6
416.109	7.41
416.317	7.3
416.525	7.26
416.733	7.29
416.941	7.29
417.149	7.15
417.357	7.14
417.564	7.23
417.772	7.43
417.98	7.36
418.188	7.36
418.395	7.45
418.603	7.58
418.811	7.25
419.019	7.16
419.226	7.5
419.434	7.57
419.642	7.29
419.849	7.4
420.057	7.52
420.265	7.36
420.472	7.06
420.68	7.12
420.887	7.01
421.095	7.09
421.302	7.05
421.51	7.3
421.717	7.51
421.925	7.57
422.132	7.3
422.34	7.02
422.547	6.91
422.755	6.74
422.962	6.78
423.17	6.81
423.377	7.08
423.585	7
423.792	7.04
423.999	6.98
424.207	6.92
424.414	7
424.621	7.06
424.829	6.93
425.036	6.88
425.243	7.01
425.451	6.78
425.658	6.58
425.865	6.73
426.072	6.81
426.28	7.12
426.487	7.23
426.694	7.3
426.901	7.12
427.108	7.07
427.315	6.86
427.523	7.1
427.73	7.19
427.937	7.18
428.144	6.97
428.351	6.84
428.558	6.82
428.765	6.61
428.972	6.58
429.179	6.82
429.386	7.2
429.593	7.05
429.8	7.09
430.007	7.21
430.214	7.36
430.421	7.15
430.628	7
430.835	6.94
431.042	7.12
431.249	7.12
431.456	7.09
431.662	7.28
431.869	7.56
432.076	7.5
432.283	7.58
432.49	7.54
432.697	7.52
432.903	7.36
433.11	7.39
433.317	7.44
433.524	7.73
433.73	7.74
433.937	8.07
434.144	7.97
434.35	7.93
434.557	7.76
434.764	7.78
434.97	7.52
435.177	7.71
435.384	7.6
435.59	7.7
435.797	7.96
436.003	8.21
436.21	8.25
436.416	8.36
436.623	8.43
436.829	8.39
437.036	8.42
437.242	8.44
437.449	8.37
437.655	8.31
437.862	8.14
438.068	8.01
438.275	8.05
438.481	8.35
438.687	8.33
438.894	8.38
439.1	8.49
439.307	8.62
439.513	8.41
439.719	8.51
439.926	8.6
440.132	8.51
440.338	8.29
440.544	8.5
440.751	8.44
440.957	8.46
441.163	8.51
441.369	8.63
441.575	8.36
441.782	8.39
441.988	8.34
442.194	8.42
442.4	8.45
442.606	8.81
442.812	8.84
443.018	8.92
443.224	8.88
443.431	9.03
443.637	8.82
443.843	8.75
444.049	8.77
444.255	8.72
444.461	8.71
444.667	8.73
444.873	8.92
445.079	8.86
445.284	8.97
445.49	8.72
445.696	8.6
445.902	8.46
446.108	8.49
446.314	8.45
446.52	8.59
446.726	8.93
446.931	9.03
447.137	9.08
447.343	9.13
447.549	9.13
447.755	8.94
447.96	9.01
448.166	9.05
448.372	9.14
448.578	9.2
448.783	9.17
448.989	9.26
449.195	9.3
449.4	9.25
449.606	9.21
449.812	9.27
450.017	9.32
450.223	9.31
450.428	9.27
450.634	9.47
450.84	9.58
451.045	9.52
451.251	9.44
451.456	9.69
451.662	9.73
451.867	9.71
452.073	9.61
452.278	9.69
452.483	9.71
452.689	9.53
452.894	9.64
453.1	9.66
453.305	9.75
453.51	9.64
453.716	9.62
453.921	9.62
454.127	9.67
454.332	9.66
454.537	9.62
454.742	9.74
454.948	9.76
455.153	9.85
455.358	9.91
455.563	10.1
455.769	10.18
455.974	10.2
456.179	10.08
456.384	10.07
456.589	10.07
456.795	10.01
457	10.07
457.205	10.42
457.41	10.48
457.615	10.44
457.82	10.47
458.025	10.44
458.23	10.26
458.435	10.33
458.64	10.28
458.845	10.48
459.05	10.51
459.255	10.51
459.46	10.5
459.665	10.58
459.87	10.56
460.075	10.54
460.28	10.6
460.485	10.64
460.69	10.63
460.895	10.39
461.099	10.41
