Data from Ofra_PS_T2_2A_2HS09_Reflection_2.txt Node
Date: Wed Jul 21 17:10:29 EDT 2021
User: Adam
Spectrometer: FLMT01687
Trigger mode: 0
Integration Time (sec): 1.100000E0
Scans to average: 2
Electric dark correction enabled: true
Nonlinearity correction enabled: false
Boxcar width: 2
XAxis mode: Wavelengths
Number of Pixels in Spectrum: 3648
>>>>>Begin Spectral Data<<<<<
179.494	355.8
179.716	422.82
179.937	441.08
180.158	459.94
180.38	786.09
180.601	451.24
180.823	181.27
181.044	60.07
181.265	223.35
181.486	86.26
181.708	38.28
181.929	215.82
182.15	-195.42
182.372	164.95
182.593	98
182.814	29.3
183.035	93.26
183.257	76.96
183.478	-17.39
183.699	21.15
183.92	4.68
184.141	6.89
184.363	-3.77
184.584	41.72
184.805	45.82
185.026	64.37
185.247	60.23
185.468	36.6
185.689	43.48
185.91	51.59
186.132	33.57
186.353	28.85
186.574	71.42
186.795	62.26
187.016	0.57
187.237	17.59
187.458	-6.61
187.679	-15
187.9	-20.87
188.121	-20.64
188.342	-9.43
188.563	50.12
188.784	111.36
189.005	105.61
189.226	216.3
189.447	155.63
189.667	154
189.888	-189.53
190.109	-819.16
190.33	-712.74
190.551	-1113.05
190.772	-242.07
190.993	-184.19
191.214	-118.07
191.434	-55.45
191.655	35.98
191.876	20.65
192.097	-42.09
192.318	-102.2
192.538	-164.74
192.759	-148.92
192.98	-61.11
193.201	-2.91
193.421	25.32
193.642	34.45
193.863	41.95
194.083	14.39
194.304	3.25
194.525	-3.51
194.745	-17.31
194.966	-48.17
195.187	-46.96
195.407	-75.54
195.628	-143.69
195.848	-142.06
196.069	-145.85
196.29	-84.95
196.51	-94.19
196.731	-75.23
196.951	-76.83
197.172	-64.27
197.392	-72.81
197.613	-42.41
197.833	-60.24
198.054	-68.39
198.274	-43.87
198.495	-75.24
198.715	-49.75
198.936	-60.73
199.156	-58.25
199.377	-124.49
199.597	-122.94
199.817	-142.32
200.038	-76.78
200.258	-132.81
200.479	-52.78
200.699	-14.97
200.919	40.5
201.14	-5.63
201.36	-1.81
201.58	11.31
201.801	26.92
202.021	-7.64
202.241	14.39
202.461	15.57
202.682	-74.64
202.902	-138.93
203.122	-80.41
203.342	-71.32
203.563	-40.85
203.783	20.91
204.003	-0.98
204.223	-1.36
204.443	34.46
204.663	18.51
204.884	17.12
205.104	70.7
205.324	89.61
205.544	96.22
205.764	94.47
205.984	79.33
206.204	67.13
206.424	60.65
206.644	45.7
206.864	51.69
207.084	26.59
207.304	37.94
207.525	-64.92
207.745	-56.99
207.964	-0.09
208.184	-31.89
208.404	-49.98
208.624	-44.21
208.844	-41.21
209.064	-327.13
209.284	-365.48
209.504	-230.35
209.724	-99.86
209.944	-75.66
210.164	-31.8
210.384	-4.85
210.604	-9.11
210.823	-25.41
211.043	-28.7
211.263	-4.82
211.483	-2.75
211.703	-50.11
211.922	-29.77
212.142	44.16
212.362	64.45
212.582	41.49
212.801	55.99
213.021	21.76
213.241	-26.49
213.461	-72.76
213.68	-82.77
213.9	-51.75
214.12	-37.63
214.339	-73.84
214.559	-19.76
214.779	32.86
214.998	20.14
215.218	25.77
215.438	35.05
215.657	3.26
215.877	-17.68
216.096	1.93
216.316	13.78
216.535	17.52
216.755	2.45
216.974	-61.5
217.194	-88.72
217.413	-111.05
217.633	-143.39
217.852	-182.68
218.072	-85.87
218.291	-35.99
218.511	13.42
218.73	0.16
218.95	-2.11
219.169	-7.06
219.389	-54.87
219.608	-55.48
219.827	-48.63
220.047	-43.97
220.266	-20.84
220.485	-2.62
220.705	2.35
220.924	-5.08
221.143	21.28
221.363	-4.55
221.582	2.17
221.801	-5.48
222.021	15.41
222.24	-38.23
222.459	17.43
222.678	-3.66
222.897	-39.04
223.117	-88.54
223.336	-64.2
223.555	-33.1
223.774	-7.21
223.993	30.1
224.213	80.07
224.432	57.86
224.651	74.71
224.87	67.16
225.089	59.96
225.308	46.57
225.527	60.17
225.746	49.43
225.965	9.6
226.184	-11.1
226.404	13.16
226.623	-3.49
226.842	13.82
227.061	50.81
227.28	39.61
227.499	22.67
227.718	28.59
227.936	21
228.155	17.27
228.374	23.32
228.593	29.75
228.812	21.31
229.031	9.98
229.25	-28.07
229.469	-4.92
229.688	9.24
229.907	33.53
230.125	55.75
230.344	56.34
230.563	39.9
230.782	51.27
231.001	-9.21
231.22	-8.22
231.438	10.62
231.657	23.65
231.876	-3.26
232.095	32.41
232.313	29.08
232.532	31.89
232.751	-15.57
232.969	-11.4
233.188	-56.22
233.407	-6.02
233.625	-13.87
233.844	-9.04
234.063	-6.02
234.281	10.97
234.5	-5.3
234.719	2.22
234.937	20.87
235.156	30.57
235.374	41.88
235.593	37.88
235.811	31.53
236.03	19.5
236.249	-35.93
236.467	-30.83
236.686	-6.43
236.904	11.6
237.123	-9.37
237.341	1.87
237.559	-8.98
237.778	-27.43
237.996	-59.42
238.215	-11.51
238.433	8.73
238.652	20.21
238.87	1.71
239.088	16.81
239.307	16.91
239.525	4.56
239.743	-6.78
239.962	4.59
240.18	-21.25
240.398	-62.45
240.617	-68.42
240.835	-71.57
241.053	-34.1
241.271	3.54
241.49	22.79
241.708	-1.63
241.926	-3.95
242.144	1.73
242.363	-37.07
242.581	-56.36
242.799	-16.57
243.017	-4.46
243.235	-28.47
243.453	-24.59
243.672	-26.07
243.89	-20.17
244.108	-19.82
244.326	-1.33
244.544	-6.36
244.762	-8.78
244.98	-10.74
245.198	-13.55
245.416	-32.44
245.634	-12.77
245.852	-9.9
246.07	-2.46
246.288	4.52
246.506	-35.43
246.724	-32.28
246.942	-29.27
247.16	-13.09
247.378	7.06
247.596	48.73
247.814	55.93
248.032	35.32
248.25	33.08
248.468	23.17
248.685	11.02
248.903	45.75
249.121	57.02
249.339	39.84
249.557	40.22
249.775	42.77
249.992	-35.72
250.21	-29.23
250.428	-15.36
250.646	-57.38
250.863	-76.85
251.081	-32.72
251.299	-35.87
251.517	-17.5
251.734	0.86
251.952	7.84
252.17	7.63
252.387	12.54
252.605	-0.58
252.823	5.93
253.04	14.64
253.258	30.11
253.475	43.53
253.693	60.11
253.911	67.31
254.128	81.25
254.346	71.89
254.563	33.19
254.781	4.95
254.998	-31.87
255.216	-45.13
255.433	-30.65
255.651	24.81
255.868	68.76
256.086	104.4
256.303	73.56
256.521	69.09
256.738	25.06
256.956	-14.58
257.173	-62.02
257.39	-56.56
257.608	-102.48
257.825	-3.24
258.043	45.78
258.26	49.88
258.477	73.68
258.695	78.36
258.912	6.17
259.129	-2.2
259.346	-18.91
259.564	-45.71
259.781	-62.67
259.998	-5.8
260.216	20.14
260.433	52.28
260.65	43.77
260.867	62.27
261.084	43.29
261.302	19.42
261.519	13.97
261.736	-15.56
261.953	-39.76
262.17	-22.58
262.387	-50.24
262.604	-98.6
262.822	-98.76
263.039	-90.09
263.256	-160.94
263.473	-125.89
263.69	-66.08
263.907	-15.02
264.124	4.22
264.341	19.36
264.558	17.63
264.775	23.21
264.992	16.63
265.209	8.75
265.426	40.34
265.643	52.7
265.86	70.07
266.077	70.32
266.294	81.58
266.51	38.77
266.727	23.39
266.944	3.75
267.161	-9.36
267.378	10.83
267.595	28.23
267.812	0.79
268.028	-0.81
268.245	30.19
268.462	-25.94
268.679	-34.05
268.896	23.63
269.112	31.54
269.329	13.26
269.546	19.01
269.763	9.62
269.979	-8.53
270.196	-17.26
270.413	-45.95
270.629	-48.19
270.846	-54.6
271.063	-53.37
271.279	-57.98
271.496	-29.78
271.712	-3.73
271.929	26.68
272.146	42.26
272.362	35.39
272.579	54.35
272.795	49.42
273.012	46.08
273.228	24.17
273.445	13.36
273.661	-10.84
273.878	-53.99
274.094	-45.06
274.311	-62.33
274.527	7.86
274.744	-3.47
274.96	2.14
275.177	3.59
275.393	21.72
275.609	9.27
275.826	31.72
276.042	39.36
276.259	10.55
276.475	24.73
276.691	22.42
276.908	0.12
277.124	10.47
277.34	23.39
277.557	2.81
277.773	-5.73
277.989	-1.73
278.205	-10.08
278.422	6.98
278.638	6.22
278.854	18.12
279.07	23.94
279.286	25.69
279.503	-7.22
279.719	-8.93
279.935	-40.44
280.151	-48.76
280.367	-25.59
280.583	-36.04
280.799	-28.45
281.016	-37.55
281.232	-2.89
281.448	-16.6
281.664	7.87
281.88	-23.19
282.096	1.59
282.312	15.08
282.528	33.96
282.744	47.14
282.96	51.75
283.176	44.2
283.392	29.9
283.608	15.09
283.824	15.05
284.04	29.67
284.256	22.5
284.471	13.73
284.687	7.49
284.903	8.1
285.119	27.44
285.335	17.54
285.551	16.24
285.767	-2.11
285.982	-10.99
286.198	-58.5
286.414	-3.29
286.63	6.95
286.846	41.93
287.061	26.7
287.277	45.11
287.493	10.36
287.709	27.91
287.924	2.46
288.14	43.52
288.356	42.66
288.571	61.73
288.787	34.88
289.003	41.38
289.218	4.85
289.434	-27.96
289.65	-31.89
289.865	-28.99
290.081	-20.9
290.296	8.32
290.512	22.89
290.727	-6.88
290.943	-21.82
291.159	-25.7
291.374	-29.85
291.59	-52.83
291.805	-47.13
292.021	-19.77
292.236	-26.17
292.451	-4.4
292.667	8.75
292.882	36.13
293.098	25.48
293.313	20.84
293.529	-20.82
293.744	-32.48
293.959	-48
294.175	-46.3
294.39	-7.45
294.605	11.84
294.821	33.47
295.036	42.94
295.251	51.01
295.467	37.7
295.682	25.2
295.897	-15.12
296.112	-48.77
296.328	-48.53
296.543	-78.46
296.758	-61.7
296.973	-8.06
297.188	31.41
297.404	12.97
297.619	3.48
297.834	-7.45
298.049	-25.33
298.264	-46.39
298.479	-3.8
298.694	11.17
298.909	21.72
299.125	26.04
299.34	38.83
299.555	20.63
299.77	27.24
299.985	-12.35
300.2	-69.66
300.415	-87.75
300.63	-55.28
300.845	-50.4
301.06	-42.1
301.275	0.13
301.49	10.55
301.704	-6.69
301.919	-29.22
302.134	-30.4
302.349	-36.24
302.564	-92.33
302.779	-60.24
302.994	-30.21
303.209	10.62
303.423	36.16
303.638	67.88
303.853	21.35
304.068	21.63
304.283	16.5
304.497	13.8
304.712	18.78
304.927	26.32
305.142	27.35
305.356	27.22
305.571	15.83
305.786	-9.02
306	-32.24
306.215	-34.01
306.43	-62.87
306.644	-26.14
306.859	10.36
307.074	21.19
307.288	-10.86
307.503	12.45
307.717	-32.52
307.932	-21.33
308.147	-15.46
308.361	14.04
308.576	11.02
308.79	-15.27
309.005	-17.53
309.219	-5.42
309.434	-27.47
309.648	-38.67
309.863	0.43
310.077	-12.38
310.292	-16.27
310.506	-12.14
310.72	-1.06
310.935	0.6
311.149	3.02
311.364	20.59
311.578	37.59
311.792	29.58
312.007	36.35
312.221	27.39
312.435	33.5
312.649	9.75
312.864	-4.41
313.078	1.3
313.292	62.63
313.507	-1.37
313.721	5.19
313.935	43.08
314.149	32.73
314.363	11.1
314.578	24.9
314.792	24.42
315.006	16.23
315.22	25.26
315.434	31.51
315.648	28.46
315.862	35.34
316.077	35.27
316.291	27.11
316.505	24.41
316.719	15.52
316.933	-9.22
317.147	0.48
317.361	-54.83
317.575	-75.43
317.789	-102.41
318.003	-166.34
318.217	-142.96
318.431	-46.95
318.645	3.83
318.859	5.53
319.073	33.36
319.287	30.71
319.5	3.51
319.714	-42.51
319.928	-56.14
320.142	-82.24
320.356	-30.23
320.57	0.19
320.784	-15
320.997	-35.16
321.211	-18.33
321.425	-87.71
321.639	-118.54
321.853	-33.9
322.066	3.45
322.28	-7.09
322.494	8.64
322.707	28.42
322.921	1.53
323.135	-4.44
323.349	12.14
323.562	-7.68
323.776	-15.19
323.989	-8.63
324.203	-29.97
324.417	-41.66
324.63	-50.19
324.844	-43.68
325.057	-45.06
325.271	-4.31
325.485	19.17
325.698	42.67
325.912	47.28
326.125	22.74
326.339	2.54
326.552	-30.03
326.766	-37.77
326.979	-21.15
327.193	34.78
327.406	29.39
327.619	26.91
327.833	49.48
328.046	21.27
328.26	-13.39
328.473	7.78
328.686	-14.07
328.9	-13.94
329.113	3.15
329.326	-34.09
329.54	-28.45
329.753	-18.32
329.966	-57.81
330.179	-40.59
330.393	-13.12
330.606	-14.76
330.819	8.61
331.032	25.04
331.246	20.58
331.459	47.58
331.672	42.02
331.885	25.18
332.098	1.18
332.311	-5.94
332.525	-57.08
332.738	-29.29
332.951	12.15
333.164	41.21
333.377	53.64
333.59	64.94
333.803	63.67
334.016	47.53
334.229	44.07
334.442	55.13
334.655	83.98
334.868	78.85
335.081	67.87
335.294	50.62
335.507	29.27
335.72	-0.22
335.933	-14.73
336.146	-22.5
336.359	-28.67
336.572	-55.37
336.785	-58.67
336.997	-49.29
337.21	-23.25
337.423	-16.43
337.636	4.53
337.849	9.48
338.062	-1.56
338.274	-0.04
338.487	-6.43
338.7	-10.12
338.913	-57.15
339.125	-68.85
339.338	-120.48
339.551	-87.16
339.763	-48.32
339.976	6.99
340.189	20.92
340.402	37.36
340.614	9.63
340.827	-11.07
341.039	-24.36
341.252	-14.85
341.465	-10.86
341.677	-9.53
341.89	-16.42
342.102	1.52
342.315	-10.52
342.527	-47.5
342.74	-34.56
342.952	-5.82
343.165	-4.77
343.377	21.21
343.59	35.96
343.802	54.59
344.015	54.59
344.227	60.03
344.44	37.66
344.652	30.25
344.864	7.01
345.077	21.25
345.289	14.58
345.502	23.48
345.714	23.52
345.926	34.38
346.139	28.19
346.351	42.72
346.563	46.79
346.775	45.76
346.988	30.96
347.2	15.13
347.412	-31.22
347.624	-56.12
347.837	-62.72
348.049	-34.05
348.261	0.77
348.473	14.67
348.685	19.23
348.897	14.8
349.11	-1.93
349.322	-22.66
349.534	-5.8
349.746	5.86
349.958	7.95
350.17	-4.17
350.382	13.46
350.594	7.07
350.806	-4.44
351.018	-0.9
351.23	-3.08
351.442	-29.45
351.654	-19.98
351.866	-5.37
352.078	4.47
352.29	24.88
352.502	20.25
352.714	28.79
352.926	20.79
353.138	12.64
353.35	-7.58
353.561	-5.85
353.773	-35.41
353.985	-23.53
354.197	-26.85
354.409	-17.81
354.621	-16.61
354.832	-1.02
355.044	-20.12
355.256	-24.05
355.468	-11.08
355.679	-15.46
355.891	-3.08
356.103	-8.39
356.314	-3.07
356.526	-4.94
356.738	4.11
356.949	-29.36
357.161	-2.35
357.373	-9.22
357.584	-27.13
357.796	-18.27
358.008	-7.74
358.219	9.43
358.431	8.6
358.642	15.02
358.854	11.24
359.065	3.6
359.277	-29.53
359.488	-28.53
359.7	-43.2
359.911	-63.36
360.123	-42.52
360.334	-56.77
360.546	-65.68
360.757	-59.48
360.969	-29.68
361.18	-32.56
361.391	-1.4
361.603	-7.05
361.814	7.85
362.025	-3.3
362.237	0.64
362.448	13.98
362.659	32.16
362.871	23.84
363.082	19.2
363.293	18.76
363.504	-8.3
363.716	-39.67
363.927	-35.53
364.138	-53.62
364.349	-71.05
364.56	-56.9
364.772	-50.06
364.983	-29.73
365.194	-18.9
365.405	0.42
365.616	16.88
365.827	20.33
366.038	-3.48
366.25	1.1
366.461	-24.76
366.672	-4.65
366.883	15.84
367.094	26.92
367.305	1.66
367.516	11.43
367.727	-19.47
367.938	-32.01
368.149	-39.82
368.36	-12.13
368.571	-6.27
368.781	-12.98
368.992	-20.96
369.203	-24.52
369.414	-48.06
369.625	-77.33
369.836	-64.88
370.047	-94.87
370.258	-71.94
370.468	-70.31
370.679	-75.67
370.89	-67.15
371.101	-42.07
371.312	-50.7
371.522	-34.89
371.733	-13.74
371.944	-10.21
372.155	12.24
372.365	4.5
372.576	7.2
372.787	2.94
372.997	-13.18
373.208	-23.38
373.419	2.78
373.629	-37.63
373.84	-41.09
374.05	-42.44
374.261	-30.97
374.472	-40.97
374.682	15.03
374.893	28.67
375.103	50.43
375.314	38.48
375.524	38.55
375.735	37.85
375.945	39.09
376.156	16.17
376.366	18.42
376.577	16.3
376.787	6.36
376.997	-0.28
377.208	5.05
377.418	-2.42
377.629	4.11
377.839	3.81
378.049	10.56
378.26	27.47
378.47	29.92
378.68	21.9
378.89	16.3
379.101	17.77
379.311	-12.99
379.521	-39.31
379.732	-43.6
379.942	-44.78
380.152	-72.19
380.362	-36.83
380.572	-32.26
380.783	-16.1
380.993	2.74
381.203	15.33
381.413	21.5
381.623	35.37
381.833	35.12
382.043	18.87
382.253	3.94
382.463	-3.35
382.674	-12.98
382.884	-42.24
383.094	-38.93
383.304	-24.79
383.514	-20.3
383.724	-6.71
383.934	-5.84
384.144	-16.78
384.353	-19.68
384.563	-15.33
384.773	-18.16
384.983	-16.54
385.193	-3.86
385.403	-3.63
385.613	-2.98
385.823	-12.51
386.033	-7.41
386.242	-6.92
386.452	-13.31
386.662	-22.28
386.872	-11.97
387.082	-11.53
387.291	-16.29
387.501	-11.38
387.711	-1.55
387.921	-8.55
388.13	-12.85
388.34	-4.46
388.55	-9.56
388.759	-11.85
388.969	-0.16
389.179	-0.41
389.388	0.09
389.598	8.55
389.807	-1.17
390.017	-8.46
390.227	-6.38
390.436	-10.32
390.646	-10.13
390.855	-1.05
391.065	0.32
391.274	-1.16
391.484	-0.97
391.693	1.21
391.903	-0.07
392.112	3.55
392.322	7.12
392.531	10.29
392.74	10.01
392.95	6.36
393.159	3.22
393.369	3.02
393.578	0.85
393.787	-2.23
393.997	0.48
394.206	-0.32
394.415	-0.63
394.625	-0.16
394.834	-0.58
395.043	-1.44
395.252	0.74
395.462	1.37
395.671	2.06
395.88	3.06
396.089	3.8
396.298	1.78
396.508	1.72
396.717	1.37
396.926	0.78
397.135	-0.19
397.344	-0.33
397.553	0.71
397.762	2.54
397.971	2.94
398.181	3.74
398.39	3.61
398.599	2.49
398.808	1.38
399.017	2.51
399.226	3.6
399.435	5.02
399.644	5.48
399.853	4.48
400.062	3.81
400.27	3.22
400.479	2.45
400.688	1.56
400.897	2.11
401.106	1.88
401.315	1.81
401.524	2.11
401.733	2.72
401.941	3.28
402.15	3.6
402.359	3.12
402.568	3.32
402.777	3.2
402.985	2.97
403.194	2.91
403.403	3.05
403.612	2.55
403.82	2.39
404.029	2.44
404.238	2.17
404.446	2.6
404.655	2.43
404.864	2.57
405.072	2.34
405.281	2.53
405.489	2.16
405.698	2.29
405.906	2.22
406.115	2.23
406.324	2.2
406.532	2.55
406.741	2.82
406.949	2.8
407.158	2.84
407.366	2.95
407.574	2.78
407.783	2.66
407.991	2.53
408.2	2.61
408.408	2.45
408.617	2.32
408.825	2.23
409.033	2.32
409.242	2.54
409.45	2.69
409.658	2.53
409.867	2.65
410.075	2.59
410.283	2.21
410.491	2.06
410.7	2.07
410.908	2.03
411.116	2.29
411.324	2.33
411.533	2.32
411.741	2.49
411.949	2.48
412.157	2.2
412.365	2.19
412.573	2.25
412.781	2.32
412.99	2.25
413.198	2.45
413.406	2.43
413.614	2.4
413.822	2.26
414.03	2.22
414.238	2.03
414.446	2.16
414.654	1.97
414.862	2.09
415.07	2.18
415.278	2.34
415.486	2.08
415.694	2.22
415.902	2.06
416.109	1.89
416.317	1.86
416.525	1.74
416.733	1.68
416.941	1.8
417.149	1.86
417.357	1.79
417.564	2.06
417.772	2.27
417.98	2.21
418.188	2.29
418.395	2.37
418.603	2.51
418.811	2.15
419.019	1.98
419.226	2.03
419.434	2.08
419.642	1.86
419.849	2.1
420.057	2.2
420.265	2.25
420.472	2.03
420.68	1.91
420.887	1.67
421.095	1.68
421.302	1.58
421.51	1.97
421.717	2.09
421.925	2.29
422.132	2.21
422.34	2.04
422.547	1.84
422.755	1.89
422.962	1.68
423.17	1.57
423.377	1.7
423.585	1.72
423.792	1.62
423.999	1.71
424.207	1.89
424.414	1.95
424.621	1.78
424.829	1.7
425.036	1.84
425.243	1.93
425.451	1.79
425.658	1.77
425.865	2.02
426.072	1.96
426.28	2.16
426.487	2.15
426.694	2.27
426.901	2.05
427.108	1.98
427.315	1.63
427.523	1.92
427.73	1.79
427.937	1.83
428.144	1.69
428.351	1.81
428.558	1.89
428.765	1.86
428.972	1.83
429.179	2.12
429.386	2.26
429.593	1.86
429.8	1.84
430.007	1.84
430.214	1.89
430.421	1.66
430.628	1.63
430.835	1.59
431.042	1.82
431.249	1.71
431.456	1.69
431.662	1.75
431.869	1.9
432.076	1.81
432.283	2
432.49	2
432.697	2.05
432.903	1.8
433.11	1.7
433.317	1.68
433.524	1.86
433.73	1.8
433.937	2.12
434.144	2.01
434.35	1.91
434.557	1.68
434.764	1.69
434.97	1.55
435.177	1.83
435.384	1.77
435.59	1.96
435.797	2.17
436.003	2.31
436.21	2.18
436.416	2.23
436.623	2.26
436.829	2.17
437.036	2.19
437.242	2.19
437.449	2.23
437.655	2.16
437.862	2.24
438.068	2.08
438.275	2.2
438.481	2.33
438.687	2.3
438.894	2.26
439.1	2.3
439.307	2.5
439.513	2.36
439.719	2.39
439.926	2.45
440.132	2.43
440.338	2.2
440.544	2.39
440.751	2.37
440.957	2.4
441.163	2.32
441.369	2.42
441.575	2.13
441.782	2.12
441.988	2
442.194	2.04
442.4	1.94
442.606	2.3
442.812	2.38
443.018	2.47
443.224	2.56
443.431	2.65
443.637	2.38
443.843	2.28
444.049	2.26
444.255	2.22
444.461	2.22
444.667	2.25
444.873	2.38
445.079	2.36
445.284	2.46
445.49	2.22
445.696	2.12
445.902	2.06
446.108	2
446.314	1.92
446.52	2.09
446.726	2.38
446.931	2.4
447.137	2.42
447.343	2.46
447.549	2.44
447.755	2.24
447.96	2.3
448.166	2.32
448.372	2.31
448.578	2.38
448.783	2.36
448.989	2.39
449.195	2.48
449.4	2.52
449.606	2.45
449.812	2.51
450.017	2.56
450.223	2.43
450.428	2.3
450.634	2.44
450.84	2.52
451.045	2.44
451.251	2.46
451.456	2.74
451.662	2.75
451.867	2.82
452.073	2.79
452.278	2.96
452.483	2.98
452.689	2.85
452.894	2.7
453.1	2.77
453.305	2.6
453.51	2.47
453.716	2.46
453.921	2.56
454.127	2.45
454.332	2.42
454.537	2.37
454.742	2.34
454.948	2.26
455.153	2.33
455.358	2.47
455.563	2.62
455.769	2.78
455.974	2.8
456.179	2.72
456.384	2.7
456.589	2.62
456.795	2.37
457	2.34
457.205	2.53
457.41	2.46
457.615	2.44
457.82	2.57
458.025	2.63
458.23	2.46
458.435	2.58
458.64	2.45
458.845	2.54
459.05	2.53
459.255	2.58
459.46	2.5
459.665	2.63
459.87	2.61
460.075	2.58
460.28	2.58
460.485	2.65
460.69	2.6
460.895	2.49
461.099	2.51
461.304	2.64
461.509	2.64
461.714	2.58
461.919	2.73
462.123	2.59
462.328	2.63
462.533	2.57
462.738	2.74
462.942	2.58
