Data from Ofra_2a_PS_2GT7_Reflection_1.txt Node
Date: Tue Jul 20 09:44:22 EDT 2021
User: Adam
Spectrometer: FLMT01687
Trigger mode: 0
Integration Time (sec): 9.450000E-1
Scans to average: 3
Electric dark correction enabled: true
Nonlinearity correction enabled: false
Boxcar width: 3
XAxis mode: Wavelengths
Number of Pixels in Spectrum: 3648
>>>>>Begin Spectral Data<<<<<
179.494	927.22
179.716	481.34
179.937	490.11
180.158	2120.31
180.38	-1117.44
180.601	-97.4
180.823	-20.82
181.044	12.75
181.265	-192.82
181.486	-28.27
181.708	-69.57
181.929	-8.84
182.15	-465.91
182.372	-45.13
182.593	-0.68
182.814	276.05
183.035	-5.37
183.257	16.3
183.478	64.09
183.699	68.05
183.92	50.26
184.141	53.56
184.363	43.95
184.584	50.74
184.805	63.8
185.026	63.21
185.247	47.12
185.468	46.93
185.689	37.95
185.91	40.82
186.132	54.59
186.353	13.58
186.574	13.24
186.795	2.94
187.016	-1.57
187.237	7.08
187.458	14.59
187.679	-19.53
187.9	18.32
188.121	42.85
188.342	55.79
188.563	68.45
188.784	71
189.005	85.38
189.226	90.05
189.447	79.61
189.667	66.33
189.888	71.97
190.109	74.54
190.33	59.18
190.551	31.9
190.772	26.25
190.993	40.81
191.214	49.3
191.434	48.27
191.655	44.29
191.876	52.82
192.097	56.6
192.318	56.38
192.538	57.81
192.759	54.23
192.98	45
193.201	56.16
193.421	52.18
193.642	45.86
193.863	64.16
194.083	49.04
194.304	36.8
194.525	50.72
194.745	28.94
194.966	37.52
195.187	41.35
195.407	36.05
195.628	32.87
195.848	36.14
196.069	19.08
196.29	24.01
196.51	7.22
196.731	18.53
196.951	26.64
197.172	31.5
197.392	30.15
197.613	26.42
197.833	26.01
198.054	36.45
198.274	23.28
198.495	19.44
198.715	10.38
198.936	12.72
199.156	22.31
199.377	9.36
199.597	-17.13
199.817	-11.67
200.038	3.02
200.258	11.95
200.479	10.21
200.699	13.89
200.919	6.35
201.14	14.91
201.36	30.93
201.58	13.67
201.801	15.22
202.021	18.78
202.241	14.23
202.461	32.72
202.682	44.28
202.902	42.1
203.122	51.96
203.342	64.6
203.563	71.91
203.783	79.45
204.003	72.82
204.223	69.55
204.443	63.08
204.663	51.43
204.884	41.86
205.104	38.64
205.324	35.03
205.544	38.4
205.764	41.79
205.984	36.97
206.204	39.25
206.424	37.92
206.644	31.04
206.864	31
207.084	43.16
207.304	31.05
207.525	28.37
207.745	33.46
207.964	27.96
208.184	38.37
208.404	35.35
208.624	6.98
208.844	14.27
209.064	21.04
209.284	29.15
209.504	31.02
209.724	-9.12
209.944	-15.83
210.164	-4.38
210.384	-3.75
210.604	-25.46
210.823	-32.84
211.043	-22.89
211.263	18.65
211.483	27.3
211.703	33.85
211.922	40.31
212.142	45.18
212.362	48.29
212.582	38.39
212.801	36.03
213.021	36.32
213.241	30.48
213.461	21.41
213.68	13.87
213.9	23.44
214.12	29.93
214.339	18.61
214.559	24.66
214.779	20.61
214.998	23.81
215.218	33.31
215.438	35.39
215.657	30.07
215.877	33.48
216.096	31.16
216.316	38.16
216.535	28.11
216.755	19.27
216.974	12.14
217.194	17.75
217.413	28.68
217.633	18.44
217.852	21.89
218.072	29.72
218.291	38.74
218.511	34.68
218.73	36.67
218.95	32.34
219.169	32.78
219.389	19.47
219.608	26.87
219.827	18.32
220.047	26.2
220.266	23.76
220.485	22.37
220.705	20.75
220.924	30.1
221.143	26.74
221.363	38.52
221.582	23.75
221.801	32.26
222.021	27.94
222.24	24.35
222.459	16.47
222.678	11.23
222.897	-6.18
223.117	7.15
223.336	0.08
223.555	6.79
223.774	14.56
223.993	27.72
224.213	24.87
224.432	33.58
224.651	40.38
224.87	45.18
225.089	49.48
225.308	49.02
225.527	50.5
225.746	50.6
225.965	39.95
226.184	21.4
226.404	6.11
226.623	9.52
226.842	7.33
227.061	-7.95
227.28	15.45
227.499	26.33
227.718	33.34
227.936	21.47
228.155	19.75
228.374	26.8
228.593	34.02
228.812	12.01
229.031	6.25
229.25	14.38
229.469	38.27
229.688	43.33
229.907	31.43
230.125	30.99
230.344	37.37
230.563	47.91
230.782	35.8
231.001	34.19
231.22	27.81
231.438	31.53
231.657	37.14
231.876	34.4
232.095	26.29
232.313	29.12
232.532	24.74
232.751	28.12
232.969	36.29
233.188	26.42
233.407	30.34
233.625	22.83
233.844	36.21
234.063	38.77
234.281	33.17
234.5	33.8
234.719	37.2
234.937	46.63
235.156	48.06
235.374	40.8
235.593	34.84
235.811	33.71
236.03	11.82
236.249	12.8
236.467	14.83
236.686	23.01
236.904	25.16
237.123	37.19
237.341	37.8
237.559	55.68
237.778	65.57
237.996	60.15
238.215	57.1
238.433	56.95
238.652	50.8
238.87	49
239.088	30.76
239.307	25.4
239.525	20.22
239.743	12.09
239.962	6.9
240.18	16.54
240.398	20.61
240.617	36.3
240.835	37.26
241.053	49.17
241.271	58.59
241.49	52.92
241.708	43.03
241.926	29.1
242.144	24.01
242.363	22.01
242.581	15.12
242.799	8.47
243.017	24.43
243.235	12.74
243.453	40.32
243.672	50.44
243.89	58.68
244.108	62.8
244.326	67.97
244.544	62.59
244.762	65.99
244.98	44.36
245.198	30.89
245.416	23.77
245.634	26.97
245.852	31.04
246.07	32.64
246.288	22.26
246.506	41.97
246.724	52.98
246.942	56.19
247.16	44.64
247.378	35.38
247.596	38.4
247.814	38.98
248.032	20.29
248.25	13.76
248.468	6.23
248.685	6.43
248.903	-3.31
249.121	-3.14
249.339	5.6
249.557	22.81
249.775	12.12
249.992	9.96
250.21	1.88
250.428	15.95
250.646	17.37
250.863	18.19
251.081	14.11
251.299	43.13
251.517	62.17
251.734	77.99
251.952	66.24
252.17	50.69
252.387	53.63
252.605	51.72
252.823	24.03
253.04	16.02
253.258	10.54
253.475	12.56
253.693	31.25
253.911	28.5
254.128	23.27
254.346	24.44
254.563	19.56
254.781	21.44
254.998	23.85
255.216	17.3
255.433	20.13
255.651	18.44
255.868	25.78
256.086	36.15
256.303	40.68
256.521	27.06
256.738	33.52
256.956	22.49
257.173	27.16
257.39	28.95
257.608	25.79
257.825	18.5
258.043	35.13
258.26	36.21
258.477	37.97
258.695	40.1
258.912	43.64
259.129	39.94
259.346	34.59
259.564	28.27
259.781	29.2
259.998	24.5
260.216	28.01
260.433	24.05
260.65	27.09
260.867	24.74
261.084	31.46
261.302	19.84
261.519	15.84
261.736	7.59
261.953	15.13
262.17	11.83
262.387	14.8
262.604	-9.03
262.822	7.64
263.039	20.36
263.256	17.15
263.473	10.09
263.69	15.88
263.907	20.5
264.124	29.01
264.341	16.76
264.558	10.56
264.775	15.16
264.992	17.35
265.209	26.82
265.426	24.02
265.643	26.4
265.86	34.46
266.077	39.72
266.294	41.74
266.51	40.53
266.727	25.27
266.944	23.67
267.161	30.02
267.378	30.65
267.595	22.89
267.812	25.98
268.028	35.25
268.245	42.21
268.462	50.76
268.679	38.48
268.896	28.82
269.112	42.62
269.329	43.48
269.546	38.89
269.763	34.5
269.979	36.88
270.196	39.83
270.413	46.26
270.629	38.67
270.846	38.19
271.063	42.46
271.279	42.71
271.496	28.21
271.712	27.54
271.929	34.17
272.146	36.66
272.362	16.81
272.579	7.22
272.795	6.83
273.012	14.95
273.228	11.33
273.445	0.63
273.661	-2.1
273.878	13.05
274.094	22.88
274.311	22.52
274.527	23.06
274.744	26.62
274.96	24.94
275.177	26.94
275.393	36.09
275.609	25.23
275.826	27.69
276.042	33.37
276.259	36.31
276.475	33.85
276.691	29.32
276.908	18.72
277.124	24.27
277.34	22.69
277.557	28.17
277.773	26.55
277.989	29.64
278.205	35.02
278.422	41.47
278.638	43.61
278.854	44.12
279.07	32.08
279.286	28.24
279.503	30.97
279.719	38.34
279.935	23.09
280.151	17.35
280.367	19.15
280.583	18.56
280.799	29.35
281.016	28.24
281.232	14.08
281.448	22.62
281.664	25.05
281.88	25.71
282.096	33.26
282.312	23.06
282.528	18.1
282.744	19.7
282.96	24.64
283.176	38.2
283.392	44.35
283.608	44.36
283.824	44.79
284.04	45.02
284.256	47.5
284.471	49.99
284.687	36.11
284.903	30.58
285.119	12.58
285.335	16.31
285.551	28.77
285.767	34.52
285.982	24.98
286.198	21.31
286.414	38.9
286.63	52.67
286.846	45.39
287.061	46.18
287.277	49.3
287.493	53.27
287.709	56.5
287.924	58.23
288.14	59.32
288.356	73.01
288.571	72.66
288.787	63.42
289.003	74.46
289.218	64.75
289.434	53.26
289.65	53.18
289.865	47.46
290.081	39.94
290.296	43.2
290.512	33.23
290.727	43.19
290.943	45.66
291.159	42.05
291.374	47.16
291.59	39.27
291.805	30.57
292.021	26.7
292.236	21.39
292.451	10.9
292.667	10.02
292.882	1.3
293.098	5.8
293.313	6.74
293.529	14.61
293.744	18.74
293.959	20.75
294.175	28.37
294.39	42.58
294.605	46.04
294.821	42.14
295.036	37.84
295.251	31.84
295.467	30.53
295.682	31.17
295.897	20.08
296.112	18.28
296.328	22.89
296.543	17.27
296.758	16.78
296.973	22.84
297.188	7.14
297.404	18.3
297.619	20.44
297.834	30.83
298.049	33.1
298.264	35.18
298.479	26.75
298.694	36.35
298.909	23.22
299.125	22.01
299.34	12.63
299.555	18.84
299.77	13.11
299.985	17.6
300.2	19.3
300.415	21.54
300.63	15.27
300.845	26.68
301.06	20.8
301.275	31.21
301.49	35.44
301.704	30.15
301.919	29.43
302.134	26.7
302.349	14.07
302.564	21.38
302.779	18.07
302.994	8.21
303.209	11.86
303.423	25.77
303.638	37.33
303.853	48.02
304.068	46.49
304.283	39.37
304.497	40.2
304.712	44.69
304.927	34.69
305.142	34.55
305.356	30.24
305.571	30.17
305.786	27.9
306	35.44
306.215	29.55
306.43	39.55
306.644	43.98
306.859	40.83
307.074	34.8
307.288	37.71
307.503	29.82
307.717	29.76
307.932	32.58
308.147	30.59
308.361	30.02
308.576	28.64
308.79	25.37
309.005	29.68
309.219	32.3
309.434	25.66
309.648	12.5
309.863	13.88
310.077	20.77
310.292	26.25
310.506	31.73
310.72	30.25
310.935	29.95
311.149	38.38
311.364	43.8
311.578	34.38
311.792	28.35
312.007	17.58
312.221	20.54
312.435	21.76
312.649	35.2
312.864	16.18
313.078	26.82
313.292	33.59
313.507	46.5
313.721	48.28
313.935	61.31
314.149	40.34
314.363	55.83
314.578	70.89
314.792	68.81
315.006	60.51
315.22	56.88
315.434	47.54
315.648	49.78
315.862	41.27
316.077	31.28
316.291	36.01
316.505	37.13
316.719	25.71
316.933	28.58
317.147	24.18
317.361	26.15
317.575	21.45
317.789	15.48
318.003	18.05
318.217	25.11
318.431	23.96
318.645	31.62
318.859	21.33
319.073	22.12
319.287	28.34
319.5	28.11
319.714	25.65
319.928	32.2
320.142	27.44
320.356	36.25
320.57	37.49
320.784	39.4
320.997	44.27
321.211	49.12
321.425	34.62
321.639	32.11
321.853	26.83
322.066	21.84
322.28	13.76
322.494	4.2
322.707	3.76
322.921	8.69
323.135	10.95
323.349	14.42
323.562	16.12
323.776	17.75
323.989	20.05
324.203	27.1
324.417	17.07
324.63	6.59
324.844	-2.69
325.057	7.51
325.271	-0.31
325.485	1.63
325.698	-6.48
325.912	3.73
326.125	19.76
326.339	25.6
326.552	20.87
326.766	36.46
326.979	41.69
327.193	44.43
327.406	48.61
327.619	33.18
327.833	33.18
328.046	25.32
328.26	14.26
328.473	11.53
328.686	12.61
328.9	12.18
329.113	21.82
329.326	31.62
329.54	41.56
329.753	44.12
329.966	40.14
330.179	39.69
330.393	44.88
330.606	43.77
330.819	43.21
331.032	41.87
331.246	42.18
331.459	40.03
331.672	37.22
331.885	31.85
332.098	37.33
332.311	27.83
332.525	28.14
332.738	26.63
332.951	24.85
333.164	26.91
333.377	22.38
333.59	14.44
333.803	22.41
334.016	9.45
334.229	9.55
334.442	27.73
334.655	44.2
334.868	47.81
335.081	61.1
335.294	58.71
335.507	66.59
335.72	50.24
335.933	45.61
336.146	31.51
336.359	25.29
336.572	20.66
336.785	25.03
336.997	18.21
337.21	38.98
337.423	37.05
337.636	42.53
337.849	47.9
338.062	47.55
338.274	47.72
338.487	39.32
338.7	34.47
338.913	28.79
339.125	24.18
339.338	28.32
339.551	28.96
339.763	27.68
339.976	25.57
340.189	25.52
340.402	26.64
340.614	27.02
340.827	14.72
341.039	14.55
341.252	13.16
341.465	10.73
341.677	6.71
341.89	13.11
342.102	22.19
342.315	33.53
342.527	29.19
342.74	28.22
342.952	33.89
343.165	43.39
343.377	42.24
343.59	35.34
343.802	29.41
344.015	33.07
344.227	28.93
344.44	24.17
344.652	21.76
344.864	26.56
345.077	23
345.289	26.21
345.502	27.42
345.714	26.75
345.926	38.24
346.139	36.75
346.351	19.37
346.563	25.97
346.775	16.69
346.988	12.1
347.2	20.34
347.412	18.03
347.624	17.73
347.837	22.03
348.049	19
348.261	23.26
348.473	22.92
348.685	25.8
348.897	22.63
349.11	18.66
349.322	17.93
349.534	14.12
349.746	24.51
349.958	25.19
350.17	22.91
350.382	25.21
350.594	25.65
350.806	34.52
351.018	47.56
351.23	39.95
351.442	34.32
351.654	36.09
351.866	36.31
352.078	42.32
352.29	36.44
352.502	24.37
352.714	20.9
352.926	26.56
353.138	19.03
353.35	14.69
353.561	7.33
353.773	9.94
353.985	10.34
354.197	7.33
354.409	7.25
354.621	11.13
354.832	8.03
355.044	18.24
355.256	15.11
355.468	14.05
355.679	14.17
355.891	12.15
356.103	16
356.314	20.3
356.526	10.26
356.738	2.15
356.949	-5.86
357.161	-0.81
357.373	4.81
357.584	10.22
357.796	8.66
358.008	15.6
358.219	25.73
358.431	32.72
358.642	27.91
358.854	22.43
359.065	16.68
359.277	10.57
359.488	5.4
359.7	13.4
359.911	12.73
360.123	16.93
360.334	16.34
360.546	5.74
360.757	18.67
360.969	29.87
361.18	15.2
361.391	20.59
361.603	21.59
361.814	22.25
362.025	30.19
362.237	24.45
362.448	21.53
362.659	22.42
362.871	30.23
363.082	30.51
363.293	37.33
363.504	43.5
363.716	45.03
363.927	40.14
364.138	48.64
364.349	44.81
364.56	39.55
364.772	34.85
364.983	21.65
365.194	19.26
365.405	24.25
365.616	15.46
365.827	14.96
366.038	32.13
366.25	31.4
366.461	39.02
366.672	37.26
366.883	36.53
367.094	33.95
367.305	29.95
367.516	31.75
367.727	28.26
367.938	27.21
368.149	29.27
368.36	26.45
368.571	29.34
368.781	30.15
368.992	18.86
369.203	19.91
369.414	15.89
369.625	17.77
369.836	21.1
370.047	21.67
370.258	19.49
370.468	25.39
370.679	25.11
370.89	31.31
371.101	27.55
371.312	23.26
371.522	23.3
371.733	17.41
371.944	15.48
372.155	5.15
372.365	-0.09
372.576	2.8
372.787	3.47
372.997	-1.44
373.208	11.46
373.419	12.8
373.629	28.73
373.84	27.85
374.05	26.2
374.261	25.11
374.472	19.22
374.682	8.99
374.893	6.41
375.103	9.22
375.314	9.85
375.524	9.8
375.735	12.89
375.945	22.9
376.156	29.06
376.366	31.24
376.577	28.18
376.787	31.37
376.997	34.18
377.208	29.62
377.418	30.23
377.629	25.58
377.839	26.82
378.049	29.18
378.26	32.76
378.47	32.86
378.68	31.8
378.89	25.83
379.101	18.07
379.311	9.66
379.521	2.81
379.732	-14.36
379.942	-12.17
380.152	-5.7
380.362	0.49
380.572	14.51
380.783	18.1
380.993	21.61
381.203	29.79
381.413	28.22
381.623	27.84
381.833	23.78
382.043	15.04
382.253	13.57
382.463	14.82
382.674	13.25
382.884	9.59
383.094	10.42
383.304	13.19
383.514	18.49
383.724	18.54
383.934	16.86
384.144	22.84
384.353	25.97
384.563	18.17
384.773	18.08
384.983	19.46
385.193	20.92
385.403	20.93
385.613	14.53
385.823	11.75
386.033	16.97
386.242	16.15
386.452	8.28
386.662	9.56
386.872	8.03
387.082	7.85
387.291	7.73
387.501	5.58
387.711	5.54
387.921	9.25
388.13	7.44
388.34	4.76
388.55	7.83
388.759	10.23
388.969	8.15
389.179	9.35
389.388	10.16
389.598	9.59
389.807	11.17
390.017	8.91
390.227	7.12
390.436	7.65
390.646	7.81
390.855	7.72
391.065	6.77
391.274	5.86
391.484	7.39
391.693	7.17
391.903	7.37
392.112	5.42
392.322	5.06
392.531	5.8
392.74	5.28
392.95	4.91
393.159	6.07
393.369	6.25
393.578	6.65
393.787	6.65
393.997	7.25
394.206	7.77
394.415	8.22
394.625	6.43
394.834	5.7
395.043	5.88
395.252	6.06
395.462	5.72
395.671	5.41
395.88	4.91
396.089	5.18
396.298	5.37
396.508	5.07
396.717	4.63
396.926	4.36
397.135	4.24
397.344	3.91
397.553	4.24
397.762	4.49
397.971	4.69
398.181	4.18
398.39	4.13
398.599	4.34
398.808	4.29
399.017	4.26
399.226	4.39
399.435	3.93
399.644	4.08
399.853	4.18
400.062	4.04
400.27	4.18
400.479	4.12
400.688	3.99
400.897	4.32
401.106	4.49
401.315	4.28
401.524	4.41
401.733	4.46
401.941	4.32
402.15	4.01
402.359	3.82
402.568	3.83
402.777	3.77
402.985	3.51
403.194	3.36
403.403	3.2
403.612	3.37
403.82	3.37
404.029	3.31
404.238	3.38
404.446	3.39
404.655	3.23
404.864	3.27
405.072	3.32
405.281	3.25
405.489	3.19
405.698	3.13
405.906	3.17
406.115	3.28
406.324	3.29
406.532	3.16
406.741	3.21
406.949	3.2
407.158	3.22
407.366	3.32
407.574	3.38
407.783	3.37
407.991	3.33
408.2	3.34
408.408	3.39
408.617	3.39
408.825	3.38
409.033	3.3
409.242	3.29
409.45	3.3
409.658	3.29
409.867	3.23
410.075	3.14
410.283	3.02
410.491	2.96
410.7	3
410.908	3.04
411.116	2.93
411.324	2.95
411.533	2.88
411.741	2.91
411.949	2.98
412.157	2.97
412.365	2.91
412.573	2.98
412.781	2.96
412.99	3.09
413.198	3.15
413.406	3.14
413.614	3.16
413.822	3.15
414.03	3.06
414.238	3.08
414.446	2.99
414.654	2.93
414.862	2.89
415.07	2.9
415.278	2.87
415.486	3.02
415.694	2.88
415.902	2.89
416.109	2.93
416.317	2.87
416.525	2.84
416.733	2.98
416.941	2.83
417.149	3.02
417.357	3.03
417.564	3.01
417.772	3.04
417.98	2.97
418.188	2.78
418.395	2.82
418.603	2.64
418.811	2.58
419.019	2.53
419.226	2.65
419.434	2.6
419.642	2.61
419.849	2.62
420.057	2.74
420.265	2.84
420.472	2.85
420.68	2.77
420.887	2.78
421.095	2.84
421.302	2.85
421.51	2.83
421.717	2.85
421.925	2.79
422.132	2.74
422.34	2.81
422.547	2.78
422.755	2.81
422.962	2.63
423.17	2.52
423.377	2.65
423.585	2.65
423.792	2.6
423.999	2.65
424.207	2.55
424.414	2.74
424.621	2.78
424.829	2.65
425.036	2.66
425.243	2.71
425.451	2.68
425.658	2.88
425.865	2.76
426.072	2.77
426.28	2.81
426.487	2.77
426.694	2.64
426.901	2.56
427.108	2.44
427.315	2.47
427.523	2.51
427.73	2.53
427.937	2.62
428.144	2.69
428.351	2.77
428.558	2.72
428.765	2.68
428.972	2.71
429.179	2.64
429.386	2.62
429.593	2.53
429.8	2.56
430.007	2.59
430.214	2.62
430.421	2.53
430.628	2.42
430.835	2.4
431.042	2.51
431.249	2.53
431.456	2.56
431.662	2.61
431.869	2.65
432.076	2.8
432.283	2.74
432.49	2.71
432.697	2.71
432.903	2.74
433.11	2.76
433.317	2.8
433.524	2.73
433.73	2.82
433.937	2.84
434.144	2.85
434.35	2.8
434.557	2.77
434.764	2.71
434.97	2.78
435.177	2.71
435.384	2.72
435.59	2.74
435.797	2.74
436.003	2.71
436.21	2.69
436.416	2.66
436.623	2.76
436.829	2.77
437.036	2.75
437.242	2.78
437.449	2.84
437.655	2.89
437.862	2.91
438.068	2.94
438.275	2.9
438.481	2.95
438.687	2.96
438.894	2.92
439.1	2.97
439.307	3.01
439.513	2.98
439.719	3.02
439.926	3.05
440.132	3.06
440.338	3.12
440.544	3.04
440.751	3.02
440.957	2.96
441.163	2.99
441.369	2.97
441.575	2.94
441.782	2.87
441.988	2.9
442.194	2.97
442.4	3.04
442.606	3.01
442.812	3.01
443.018	3.06
443.224	3.1
443.431	3.18
443.637	3.12
443.843	3.11
444.049	3.08
444.255	3.08
444.461	3.08
444.667	3.12
444.873	3.07
445.079	3.18
445.284	3.16
445.49	3.15
445.696	3.17
445.902	3.21
446.108	3.16
446.314	3.23
446.52	3.16
446.726	3.21
446.931	3.32
447.137	3.35
447.343	3.32
447.549	3.33
447.755	3.21
447.96	3.17
448.166	3.18
448.372	3.13
448.578	3.1
448.783	3.12
448.989	3.19
449.195	3.24
449.4	3.3
449.606	3.24
449.812	3.28
450.017	3.28
450.223	3.27
450.428	3.2
450.634	3.27
450.84	3.26
451.045	3.3
451.251	3.32
451.456	3.33
451.662	3.29
451.867	3.33
452.073	3.24
452.278	3.25
452.483	3.27
452.689	3.27
452.894	3.22
453.1	3.23
453.305	3.23
453.51	3.27
453.716	3.26
453.921	3.29
454.127	3.24
454.332	3.31
454.537	3.39
454.742	3.35
454.948	3.33
455.153	3.34
455.358	3.41
455.563	3.46
455.769	3.45
455.974	3.34
456.179	3.34
456.384	3.37
456.589	3.4
456.795	3.31
457	3.29
457.205	3.27
457.41	3.34
457.615	3.41
457.82	3.46
458.025	3.46
458.23	3.5
458.435	3.47
458.64	3.55
458.845	3.53
459.05	3.5
459.255	3.45
459.46	3.45
459.665	3.49
459.87	3.56
460.075	3.53
460.28	3.59
460.485	3.66
460.69	3.66
460.895	3.72
461.099	3.67
461.304	3.67
461.509	3.6
461.714	3.59
461.919	3.54
462.123	3.59
462.328	3.56
462.533	3.6
462.738	3.59
462.942	3.67
463.147	3.7
463.352	3.75
463.556	3.78
463.761	3.78
463.966	3.8
464.17	3.81
464.375	3.79
464.58	3.77
464.784	3.75
464.989	3.74
465.193	3.77
465.398	3.79
465.602	3.83
465.807	3.83
466.011	3.87
466.216	3.88
466.42	3.9
466.625	3.88
466.829	3.89
467.034	3.91
467.238	3.95
467.443	3.96
467.647	4.02
467.851	4.02
468.056	4.01
468.26	3.96
468.464	3.93
468.669	3.93
468.873	3.94
