Data from Ofra_PS_T2_2A_8HS21_Reflection_3.txt Node
Date: Wed Jul 21 17:19:43 EDT 2021
User: Adam
Spectrometer: FLMT01687
Trigger mode: 0
Integration Time (sec): 1.100000E0
Scans to average: 2
Electric dark correction enabled: true
Nonlinearity correction enabled: false
Boxcar width: 2
XAxis mode: Wavelengths
Number of Pixels in Spectrum: 3648
>>>>>Begin Spectral Data<<<<<
179.494	412.8
179.716	518.82
179.937	477.22
180.158	463.5
180.38	631.87
180.601	253.59
180.823	92.07
181.044	91
181.265	388.24
181.486	192.23
181.708	166.28
181.929	838.78
182.15	-173.24
182.372	112.5
182.593	136.93
182.814	77.97
183.035	136.7
183.257	118
183.478	146.17
183.699	110.55
183.92	70.97
184.141	61.32
184.363	41.16
184.584	62.15
184.805	60.68
185.026	99.27
185.247	104.66
185.468	88.06
185.689	118.42
185.91	126.16
186.132	117.46
186.353	96.76
186.574	132.46
186.795	78.1
187.016	23.73
187.237	8.97
187.458	-3.66
187.679	-20.24
187.9	10.87
188.121	31.42
188.342	110.68
188.563	114.79
188.784	172.11
189.005	166
189.226	224.05
189.447	151.44
189.667	133.98
189.888	-96.06
190.109	-853.25
190.33	-588.39
190.551	-929.2
190.772	-116.95
190.993	-79.47
191.214	-14.41
191.434	16.46
191.655	76.2
191.876	36.23
192.097	1.05
192.318	-62.7
192.538	-113.49
192.759	-107.38
192.98	-4.02
193.201	33.18
193.421	50.99
193.642	42.52
193.863	39.44
194.083	19.31
194.304	16.32
194.525	17.29
194.745	17.55
194.966	15.03
195.187	-3.02
195.407	-3.63
195.628	-35.01
195.848	-33.62
196.069	-29.4
196.29	33.78
196.51	-23.69
196.731	-9.32
196.951	-17.9
197.172	-48.41
197.392	-107.43
197.613	-74.81
197.833	-111.49
198.054	-73.37
198.274	-8.38
198.495	-21.24
198.715	9.16
198.936	3.58
199.156	-11.74
199.377	-91.78
199.597	-79.41
199.817	-105.98
200.038	-47.62
200.258	-72.72
200.479	-9.65
200.699	31.8
200.919	92.78
201.14	65.13
201.36	40.05
201.58	47.24
201.801	60.57
202.021	17.47
202.241	15.24
202.461	26.61
202.682	-35.86
202.902	-105.32
203.122	-34.52
203.342	-24.05
203.563	7.59
203.783	44.59
204.003	33.27
204.223	40.62
204.443	72.74
204.663	64.57
204.884	61
205.104	89.1
205.324	100.42
205.544	112.78
205.764	122.49
205.984	116.75
206.204	103.93
206.424	92.94
206.644	78.41
206.864	36.71
207.084	0.89
207.304	34.56
207.525	-116.25
207.745	-62.48
207.964	4.82
208.184	-42.41
208.404	-82
208.624	-71.42
208.844	-65.99
209.064	-338.71
209.284	-331.09
209.504	-131.14
209.724	5.85
209.944	6.96
210.164	35.49
210.384	40.14
210.604	5.82
210.823	-59.06
211.043	-80.07
211.263	-53.5
211.483	-43.31
211.703	-66.47
211.922	-21.17
212.142	53.76
212.362	88.64
212.582	51.69
212.801	56.54
213.021	21.17
213.241	-8.81
213.461	-57.76
213.68	-71.86
213.9	-51.96
214.12	-20.33
214.339	-60.46
214.559	-32.44
214.779	26.24
214.998	41.06
215.218	24.95
215.438	35.87
215.657	22.18
215.877	15.66
216.096	31.08
216.316	39.34
216.535	46.88
216.755	50.27
216.974	33.53
217.194	-21.19
217.413	-18.56
217.633	-1.22
217.852	-76.01
218.072	-38.73
218.291	0.45
218.511	37.71
218.73	-3.82
218.95	3.18
219.169	-2.23
219.389	-53.4
219.608	-47.84
219.827	-17.95
220.047	12.24
220.266	24.09
220.485	51.32
220.705	56.28
220.924	19.94
221.143	57.55
221.363	45.27
221.582	52.58
221.801	72.28
222.021	96.31
222.24	46.93
222.459	113.08
222.678	48.3
222.897	-32.75
223.117	-74.62
223.336	-51.74
223.555	-27.63
223.774	40.97
223.993	67.15
224.213	130.53
224.432	106.47
224.651	101.69
224.87	70.63
225.089	75.47
225.308	45.21
225.527	57.38
225.746	59.45
225.965	37.07
226.184	26.74
226.404	33.01
226.623	23.34
226.842	23.49
227.061	58.45
227.28	51.7
227.499	49.77
227.718	63.16
227.936	65.21
228.155	80.34
228.374	79.75
228.593	81.26
228.812	88.3
229.031	81.27
229.25	28.24
229.469	41.01
229.688	49.6
229.907	50.5
230.125	56.96
230.344	51.67
230.563	39.56
230.782	46.73
231.001	-12.02
231.22	-22.86
231.438	25.13
231.657	36.68
231.876	18.74
232.095	63.04
232.313	74.72
232.532	55.79
232.751	10.23
232.969	29.49
233.188	-60.1
233.407	10.81
233.625	24.23
233.844	31.95
234.063	53.85
234.281	69.45
234.5	58.71
234.719	59.58
234.937	82.6
235.156	59.86
235.374	65.88
235.593	64.59
235.811	73.07
236.03	55.43
236.249	30.68
236.467	8.12
236.686	12.95
236.904	17.23
237.123	-0.49
237.341	13.48
237.559	28.98
237.778	17.72
237.996	-1.99
238.215	39.91
238.433	45.32
238.652	43.87
238.87	25.75
239.088	40.97
239.307	34.84
239.525	35.13
239.743	-0.22
239.962	13.45
240.18	-8.77
240.398	-64.41
240.617	-80.48
240.835	-37.35
241.053	7.15
241.271	58.49
241.49	68.53
241.708	77.41
241.926	52.37
242.144	26.53
242.363	-31.26
242.581	-42.46
242.799	4.6
243.017	30.68
243.235	22.7
243.453	45.09
243.672	48.18
243.89	39.96
244.108	28.59
244.326	32.76
244.544	40.38
244.762	35.29
244.98	48.11
245.198	59.38
245.416	48.35
245.634	32.31
245.852	37.44
246.07	30.09
246.288	24.49
246.506	14.08
246.724	31.56
246.942	29.2
247.16	63.4
247.378	68.94
247.596	97.57
247.814	98.53
248.032	58.88
248.25	37.64
248.468	25.79
248.685	18.38
248.903	48.23
249.121	61.75
249.339	33.82
249.557	30.1
249.775	38.68
249.992	-30.48
250.21	-21.15
250.428	-10.72
250.646	-22.81
250.863	-59.45
251.081	-25.89
251.299	-32.93
251.517	-17.71
251.734	0.23
251.952	16.43
252.17	9.01
252.387	25.86
252.605	12.73
252.823	21.26
253.04	33.55
253.258	47.38
253.475	42.25
253.693	70.09
253.911	50.3
254.128	48.19
254.346	47.04
254.563	26.81
254.781	-6.05
254.998	-26.92
255.216	-21.22
255.433	-1.19
255.651	50.89
255.868	100.96
256.086	120.83
256.303	93.63
256.521	72.04
256.738	37.73
256.956	-1.89
257.173	-13.6
257.39	-10.14
257.608	-29.22
257.825	47.31
258.043	91.68
258.26	85.21
258.477	114.92
258.695	107.67
258.912	59.72
259.129	52.18
259.346	8.34
259.564	-31.24
259.781	-30.87
259.998	27.39
260.216	38.33
260.433	103.26
260.65	92.6
260.867	92.33
261.084	67.56
261.302	58.43
261.519	43.16
261.736	17.78
261.953	2.32
262.17	27.29
262.387	0.53
262.604	-44.48
262.822	-37.57
263.039	-17.8
263.256	-57.29
263.473	-5.87
263.69	3.51
263.907	33.81
264.124	53.14
264.341	56.26
264.558	37.61
264.775	69.27
264.992	60.61
265.209	51.21
265.426	66.65
265.643	73.84
265.86	74.02
266.077	88.11
266.294	83.32
266.51	55
266.727	40.61
266.944	30.5
267.161	11.78
267.378	12.74
267.595	6.22
267.812	-16.85
268.028	-45.45
268.245	-12.93
268.462	-22.81
268.679	-13.68
268.896	36.12
269.112	47.05
269.329	45
269.546	68.3
269.763	68.73
269.979	49.56
270.196	44.15
270.413	5.71
270.629	-33.78
270.846	-56.6
271.063	-30.55
271.279	-41.47
271.496	-27.16
271.712	17.77
271.929	55.19
272.146	35.14
272.362	42
272.579	78.37
272.795	68
273.012	74.51
273.228	86.04
273.445	64.99
273.661	51.79
273.878	10.51
274.094	-3.75
274.311	-28.99
274.527	28.92
274.744	27.96
274.96	20.89
275.177	23.28
275.393	41.37
275.609	31.3
275.826	48.76
276.042	45.4
276.259	21.98
276.475	31.81
276.691	43.02
276.908	15.63
277.124	38.68
277.34	58.89
277.557	51.46
277.773	29.87
277.989	44.04
278.205	39.82
278.422	50.32
278.638	49.59
278.854	73.16
279.07	72.56
279.286	47.03
279.503	20.84
279.719	21.15
279.935	-15.09
280.151	-27.41
280.367	18
280.583	6.91
280.799	0
281.016	-7.5
281.232	18.21
281.448	27.96
281.664	47.62
281.88	39.45
282.096	48.91
282.312	70.71
282.528	61.13
282.744	58.3
282.96	52.64
283.176	35.7
283.392	18.12
283.608	6.4
283.824	3.04
284.04	10.79
284.256	25.32
284.471	15.6
284.687	24.75
284.903	54.01
285.119	84.2
285.335	67.53
285.551	99.39
285.767	79.64
285.982	63.4
286.198	19.24
286.414	60.44
286.63	56.94
286.846	73.48
287.061	40.11
287.277	75.12
287.493	44.75
287.709	50.49
287.924	24.72
288.14	68.78
288.356	61.41
288.571	82.36
288.787	67.04
289.003	66.75
289.218	44.25
289.434	-5.27
289.65	-4.7
289.865	-10.39
290.081	11.68
290.296	31.14
290.512	44.05
290.727	12.87
290.943	19.18
291.159	4.64
291.374	-3.12
291.59	-17.23
291.805	-2.12
292.021	-3.16
292.236	0.86
292.451	18.83
292.667	23.81
292.882	52.73
293.098	57.45
293.313	48.99
293.529	23.79
293.744	38.06
293.959	-12.08
294.175	-3.2
294.39	31.73
294.605	44.5
294.821	72.12
295.036	87.29
295.251	90.51
295.467	72.22
295.682	84.1
295.897	26.09
296.112	20.94
296.328	12.07
296.543	-6.2
296.758	-17.58
296.973	21.11
297.188	41.05
297.404	26.51
297.619	30.02
297.834	13.73
298.049	-1.67
298.264	-23.27
298.479	18.2
298.694	26.29
298.909	44.94
299.125	50.02
299.34	56.5
299.555	35.92
299.77	43.55
299.985	3.03
300.2	-42.12
300.415	-55.72
300.63	-26.86
300.845	-42.32
301.06	-28.81
301.275	7.01
301.49	22.03
301.704	12.49
301.919	-2.75
302.134	-17.12
302.349	-23.42
302.564	-66.72
302.779	-68.95
302.994	6.58
303.209	55.42
303.423	95.63
303.638	102.43
303.853	56.11
304.068	43.17
304.283	33.9
304.497	20.83
304.712	10.51
304.927	25.78
305.142	22.29
305.356	36.86
305.571	34.32
305.786	18.12
306	3.88
306.215	5.33
306.43	-15.47
306.644	-5.92
306.859	80.14
307.074	89.46
307.288	54
307.503	51.57
307.717	28.67
307.932	3.37
308.147	-2.1
308.361	16.8
308.576	15.85
308.79	-5.63
309.005	-8.18
309.219	9.45
309.434	12.81
309.648	7.17
309.863	22.97
310.077	31.18
310.292	22.36
310.506	27.65
310.72	44.74
310.935	67.29
311.149	60.58
311.364	81.02
311.578	88.66
311.792	86.87
312.007	84.26
312.221	62.95
312.435	55.15
312.649	34.66
312.864	94.84
313.078	86.97
313.292	160.04
313.507	160.3
313.721	205.16
313.935	79.53
314.149	77.06
314.363	62.42
314.578	58.65
314.792	48.63
315.006	38.58
315.22	37.44
315.434	47.04
315.648	50.54
315.862	49.73
316.077	43.72
316.291	45.34
316.505	49.92
316.719	64.36
316.933	50.18
317.147	78.88
317.361	18.86
317.575	-17.3
317.789	-61.12
318.003	-88.66
318.217	-99.45
318.431	12.1
318.645	45.96
318.859	45.62
319.073	63.57
319.287	43.99
319.5	9.52
319.714	-22.42
319.928	-34.19
320.142	-52.98
320.356	24.82
320.57	56.93
320.784	29.53
320.997	39.84
321.211	65.11
321.425	-5.95
321.639	-42.56
321.853	29.87
322.066	30.61
322.28	10.83
322.494	17.19
322.707	44.37
322.921	17.29
323.135	9.28
323.349	35.55
323.562	22.61
323.776	14.18
323.989	27.9
324.203	21.2
324.417	12.38
324.63	5.85
324.844	0
325.057	-1.05
325.271	24.05
325.485	18.06
325.698	39.39
325.912	49.03
326.125	32.18
326.339	20.89
326.552	0
326.766	5.86
326.979	30
327.193	59.15
327.406	57.3
327.619	59.13
327.833	77.4
328.046	37.98
328.26	1.76
328.473	24.57
328.686	7.76
328.9	-3.27
329.113	18.01
329.326	11.92
329.54	29.77
329.753	41.15
329.966	29.3
330.179	21.49
330.393	34.92
330.606	16.1
330.819	28.4
331.032	33.67
331.246	45.04
331.459	66.65
331.672	63.78
331.885	68.15
332.098	53.22
332.311	48.32
332.525	-4.81
332.738	36.01
332.951	42.95
333.164	66
333.377	73.53
333.59	87.89
333.803	70.74
334.016	61.88
334.229	76.41
334.442	81.61
334.655	95.79
334.868	109.73
335.081	94.55
335.294	68.1
335.507	61.17
335.72	51.19
335.933	28.51
336.146	40.14
336.359	50.63
336.572	15.05
336.785	-19.26
336.997	-8.5
337.21	7.05
337.423	-3.66
337.636	16.18
337.849	40.42
338.062	25.68
338.274	22.96
338.487	7.88
338.7	-0.2
338.913	-46.79
339.125	-51.76
339.338	-102.13
339.551	-42.98
339.763	-20.35
339.976	27.31
340.189	43.94
340.402	58.86
340.614	24.71
340.827	27.01
341.039	2.26
341.252	12.37
341.465	28.23
341.677	45.72
341.89	22.87
342.102	62.19
342.315	35.54
342.527	-0.24
342.74	-7.35
342.952	27.64
343.165	7.61
343.377	39.71
343.59	35.57
343.802	44.05
344.015	50.17
344.227	60.07
344.44	50.42
344.652	52.59
344.864	45.2
345.077	49.23
345.289	49.1
345.502	53.76
345.714	48.55
345.926	50.74
346.139	41.23
346.351	50.65
346.563	45.77
346.775	54.25
346.988	45.11
347.2	37.78
347.412	-8.03
347.624	-11.26
347.837	-20.96
348.049	2.61
348.261	13.94
348.473	30.75
348.685	36.44
348.897	26.89
349.11	4.97
349.322	0
349.534	4.59
349.746	-5.04
349.958	19.57
350.17	47.07
350.382	53.84
350.594	50.12
350.806	56.8
351.018	42.08
351.23	28.85
351.442	-12.15
351.654	0.27
351.866	7.08
352.078	20.25
352.29	29.54
352.502	43.19
352.714	51.88
352.926	41.65
353.138	35.17
353.35	22.03
353.561	21.81
353.773	3.84
353.985	4.49
354.197	4.22
354.409	17.21
354.621	10.81
354.832	14.91
355.044	17.31
355.256	20.98
355.468	18.41
355.679	19.73
355.891	29.1
356.103	21.11
356.314	32.09
356.526	40.24
356.738	44.79
356.949	38.52
357.161	59
357.373	29.81
357.584	11.12
357.796	18.1
358.008	13.42
358.219	29.47
358.431	34.65
358.642	52.55
358.854	54.53
359.065	45.75
359.277	7.5
359.488	2.51
359.7	-15.47
359.911	-36.93
360.123	-8.09
360.334	-16.35
360.546	-12.56
360.757	-20.13
360.969	7.65
361.18	7.65
361.391	18.7
361.603	5.93
361.814	16.71
362.025	2.4
362.237	-8.86
362.448	11.29
362.659	23.72
362.871	24.15
363.082	27.22
363.293	42.68
363.504	20.88
363.716	-5.12
363.927	-1.24
364.138	-17.62
364.349	-37.71
364.56	-17.31
364.772	-9.73
364.983	5.47
365.194	9
365.405	25.37
365.616	39.02
365.827	51.61
366.038	36.8
366.25	33.03
366.461	-5.31
366.672	7.85
366.883	26.66
367.094	28.77
367.305	25.89
367.516	41.1
367.727	18.61
367.938	-2.37
368.149	-2.8
368.36	4.81
368.571	13.77
368.781	-0
368.992	-4.08
369.203	-13.84
369.414	-21.38
369.625	-26.18
369.836	-10.69
370.047	-19.26
370.258	-15.41
370.468	-19.21
370.679	-40.55
370.89	-36
371.101	-18.84
371.312	-17.55
371.522	-12.45
371.733	0.41
371.944	11.92
372.155	26.41
372.365	22.13
372.576	31.68
372.787	28.49
372.997	4.33
373.208	-5.07
373.419	19.45
373.629	-18.95
373.84	-15.71
374.05	-6.61
374.261	-4.06
374.472	-14.39
374.682	30.39
374.893	31.32
375.103	57.33
375.314	54.61
375.524	50.7
375.735	49.33
375.945	52.91
376.156	27.75
376.366	26.81
376.577	29.23
376.787	11.74
376.997	20.76
377.208	23.68
377.418	21.9
377.629	29.56
377.839	38.78
378.049	28.17
378.26	31.48
378.47	36.81
378.68	21.13
378.89	19.2
379.101	13.8
379.311	-1.7
379.521	-33.11
379.732	-15.94
379.942	-16.18
380.152	-31.65
380.362	-11.73
380.572	-7.56
380.783	7.22
380.993	13.61
381.203	35.75
381.413	52.46
381.623	61.56
381.833	44.51
382.043	37.8
382.253	28.58
382.463	16.9
382.674	5.72
382.884	-9.8
383.094	-10.27
383.304	-0.62
383.514	5.26
383.724	19.29
383.934	18.12
384.144	11.58
384.353	-5.46
384.563	-5.22
384.773	-0.08
384.983	-1.8
385.193	15.38
385.403	24.12
385.613	27.47
385.823	18.15
386.033	28.41
386.242	24.23
386.452	19.41
386.662	6.98
386.872	21.23
387.082	16.3
387.291	10.11
387.501	17.07
387.711	27.93
387.921	9.94
388.13	11.39
388.34	28.07
388.55	20.37
388.759	15.79
388.969	26.12
389.179	24.35
389.388	16.69
389.598	23.96
389.807	21.82
390.017	12.53
390.227	12.28
390.436	10.03
390.646	10.16
390.855	14.14
391.065	16.63
391.274	15.94
391.484	13.29
391.693	14.34
391.903	15.16
392.112	21.04
392.322	22.76
392.531	27.76
392.74	27.3
392.95	24.15
393.159	21.93
393.369	21.12
393.578	19.48
393.787	18.29
393.997	19.88
394.206	19.42
394.415	20.16
394.625	20.19
394.834	18.63
395.043	18.56
395.252	19.75
395.462	20.58
395.671	22.02
395.88	23.86
396.089	24.44
396.298	22.55
396.508	23.09
396.717	21.41
396.926	21.24
397.135	21.35
397.344	21.77
397.553	21.95
397.762	23.76
397.971	23.44
398.181	23.02
398.39	22.24
398.599	21.78
398.808	21.29
399.017	21.92
399.226	23.1
399.435	24.89
399.644	25.06
399.853	24.03
400.062	23.73
400.27	22.75
400.479	21.84
400.688	21.37
400.897	22.06
401.106	22.04
401.315	22.06
401.524	21.94
401.733	22.67
401.941	22.9
402.15	23.02
402.359	22.94
402.568	23.12
402.777	23
402.985	22.65
403.194	22.41
403.403	22.72
403.612	22.41
403.82	21.83
404.029	21.99
404.238	22
404.446	21.95
404.655	21.91
404.864	22
405.072	21.55
405.281	21.8
405.489	21.34
405.698	21.34
405.906	21.29
406.115	21.15
406.324	20.89
406.532	21.04
406.741	21.2
406.949	20.96
407.158	21.15
407.366	21.12
407.574	20.95
407.783	20.75
407.991	20.64
408.2	20.72
408.408	20.54
408.617	20.45
408.825	20.36
409.033	20.41
409.242	20.3
409.45	20.4
409.658	20.36
409.867	20.41
410.075	20.28
410.283	19.94
410.491	19.71
410.7	19.67
410.908	19.47
411.116	19.68
411.324	19.76
411.533	19.77
411.741	19.9
411.949	19.98
412.157	19.61
412.365	19.65
412.573	19.56
412.781	19.36
412.99	19.21
413.198	19.34
413.406	19.16
413.614	19.07
413.822	18.93
414.03	18.89
414.238	18.63
414.446	18.8
414.654	18.62
414.862	18.77
415.07	18.72
415.278	18.93
415.486	18.6
415.694	18.69
415.902	18.47
416.109	18.36
416.317	18.26
416.525	18.02
416.733	17.91
416.941	17.88
417.149	17.89
417.357	17.92
417.564	18.28
417.772	18.34
417.98	18.45
418.188	18.43
418.395	18.36
418.603	18.42
418.811	18.33
419.019	18.02
419.226	18.17
419.434	18.21
419.642	17.81
419.849	17.81
420.057	17.78
420.265	17.68
420.472	17.39
420.68	17.48
420.887	17.17
421.095	17.47
421.302	17.23
421.51	17.47
421.717	17.58
421.925	17.88
422.132	17.62
422.34	17.47
422.547	17.39
422.755	17.23
422.962	17.13
423.17	16.98
423.377	17.16
423.585	17.24
423.792	17.24
423.999	17.23
424.207	17.29
424.414	17.26
424.621	17.06
424.829	17.08
425.036	17.2
425.243	17.31
425.451	17.22
425.658	17.23
425.865	17.48
426.072	17.35
426.28	17.58
426.487	17.46
426.694	17.45
426.901	17.14
427.108	17.21
427.315	16.99
427.523	17.52
427.73	17.65
427.937	17.77
428.144	17.65
428.351	17.75
428.558	17.83
428.765	17.73
428.972	17.71
429.179	17.87
429.386	18.21
429.593	17.82
429.8	17.84
430.007	18.07
430.214	18.23
430.421	17.86
430.628	18
430.835	17.99
431.042	18.1
431.249	18.19
431.456	18.23
431.662	18.31
431.869	18.51
432.076	18.55
432.283	18.62
432.49	18.68
432.697	18.72
432.903	18.56
433.11	18.44
433.317	18.44
433.524	18.79
433.73	18.87
433.937	19.39
434.144	19.4
434.35	19.42
434.557	19.25
434.764	19.41
434.97	19.05
435.177	19.4
435.384	19.42
435.59	19.46
435.797	19.6
436.003	19.89
436.21	19.69
436.416	19.79
436.623	19.91
436.829	19.93
437.036	19.96
437.242	20.12
437.449	20.17
437.655	20.3
437.862	20.3
438.068	20.28
438.275	20.38
438.481	20.59
438.687	20.62
438.894	20.56
439.1	20.71
439.307	20.96
439.513	20.86
439.719	20.94
439.926	21.12
440.132	21.16
440.338	20.89
440.544	21.15
440.751	21.07
440.957	21.18
441.163	21.18
441.369	21.32
441.575	21.16
441.782	21.33
441.988	21.32
442.194	21.35
442.4	21.37
442.606	21.61
442.812	21.65
443.018	21.78
443.224	21.92
443.431	22.24
443.637	22.22
443.843	22.07
444.049	22.16
444.255	22.1
444.461	22.04
444.667	22.01
444.873	22.37
445.079	22.31
445.284	22.42
445.49	22.17
445.696	22.07
445.902	21.93
446.108	21.95
446.314	21.88
446.52	22.12
446.726	22.31
446.931	22.36
447.137	22.45
447.343	22.67
447.549	22.47
447.755	22.55
447.96	22.59
448.166	22.45
448.372	22.31
448.578	22.54
448.783	22.46
448.989	22.62
449.195	22.88
449.4	23.03
449.606	23.04
449.812	23.07
450.017	22.94
450.223	22.82
450.428	22.81
450.634	23.01
450.84	23.13
451.045	23.18
451.251	23.14
451.456	23.36
451.662	23.23
451.867	23.27
452.073	23.29
452.278	23.52
452.483	23.58
452.689	23.57
452.894	23.63
453.1	23.66
453.305	23.56
453.51	23.31
453.716	23.31
453.921	23.41
454.127	23.36
454.332	23.29
454.537	23.34
454.742	23.31
454.948	23.15
455.153	23.27
455.358	23.4
455.563	23.66
455.769	23.84
455.974	23.86
456.179	23.69
456.384	23.64
456.589	23.52
456.795	23.3
457	23.33
457.205	23.66
457.41	23.75
457.615	23.72
457.82	23.95
458.025	23.97
458.23	23.84
458.435	23.92
458.64	23.96
458.845	24.06
459.05	24.03
459.255	24.05
459.46	24.01
459.665	23.96
459.87	23.87
460.075	23.85
460.28	23.94
460.485	23.91
460.69	23.97
460.895	23.97
461.099	23.99
461.304	24.01
