Data from Ofra_PS_T2_1A_2HS09_Reflection_3.txt Node
Date: Wed Jul 21 18:04:07 EDT 2021
User: Adam
Spectrometer: FLMT01687
Trigger mode: 0
Integration Time (sec): 1.100000E0
Scans to average: 2
Electric dark correction enabled: true
Nonlinearity correction enabled: false
Boxcar width: 2
XAxis mode: Wavelengths
Number of Pixels in Spectrum: 3648
>>>>>Begin Spectral Data<<<<<
179.494	536.4
179.716	595.76
179.937	601.51
180.158	566.62
180.38	788.44
180.601	305.8
180.823	56.39
181.044	-209.72
181.265	-23.16
181.486	98.53
181.708	100.12
181.929	945.92
182.15	-809.15
182.372	20.78
182.593	-4.7
182.814	-19.36
183.035	19.04
183.257	19.38
183.478	-111.38
183.699	-47.49
183.92	-34.18
184.141	-28.91
184.363	-86.2
184.584	3.26
184.805	18.02
185.026	44.29
185.247	37.02
185.468	35.29
185.689	36.04
185.91	24.46
186.132	20.27
186.353	11.54
186.574	56.02
186.795	26.77
187.016	-32.67
187.237	-47.24
187.458	-75.51
187.679	-97.81
187.9	-71.48
188.121	-52.41
188.342	-50.47
188.563	11.23
188.784	41.47
189.005	26.24
189.226	86.35
189.447	106.15
189.667	-35.68
189.888	-303.69
190.109	-1217.53
190.33	-771.29
190.551	-1448.23
190.772	-299.64
190.993	-251.67
191.214	-159.5
191.434	-90.32
191.655	-27.79
191.876	-80.73
192.097	-135.58
192.318	-178.59
192.538	-259.09
192.759	-207.3
192.98	-86.42
193.201	-4.11
193.421	25.26
193.642	26.38
193.863	43.37
194.083	14.73
194.304	-10.78
194.525	-16.37
194.745	-48.92
194.966	-67.18
195.187	-55.26
195.407	-56.41
195.628	-149.56
195.848	-105.54
196.069	-85.87
196.29	-63.74
196.51	-88.6
196.731	-87.63
196.951	-103.96
197.172	-125.61
197.392	-135.38
197.613	-114.67
197.833	-113.51
198.054	-109.75
198.274	-38.43
198.495	-46.99
198.715	-5.84
198.936	-2.34
199.156	31.09
199.377	-60.49
199.597	-80.6
199.817	-119.97
200.038	-65.16
200.258	-159.14
200.479	-82.64
200.699	-87.19
200.919	-0.58
201.14	-20.27
201.36	-25.72
201.58	9.67
201.801	39.72
202.021	4.08
202.241	5.51
202.461	11.86
202.682	-70.47
202.902	-152.59
203.122	-88.02
203.342	-78.91
203.563	-33.08
203.783	2.98
204.003	-24.95
204.223	-45.9
204.443	10.08
204.663	-25.92
204.884	-12.89
205.104	39.33
205.324	55.11
205.544	40.71
205.764	54.92
205.984	46.76
206.204	40.89
206.424	38.45
206.644	19.13
206.864	17.56
207.084	-10.01
207.304	-23.29
207.525	-170.16
207.745	-97.65
207.964	-47.28
208.184	-104
208.404	-121.55
208.624	-116.54
208.844	-111.42
209.064	-419.93
209.284	-351.68
209.504	-174.77
209.724	-28.76
209.944	-16.2
210.164	20.83
210.384	19.11
210.604	8.3
210.823	-42.99
211.043	-67.27
211.263	-40.4
211.483	-36.69
211.703	-66.6
211.922	-33.13
212.142	42.47
212.362	61.66
212.582	56.12
212.801	45.11
213.021	21.92
213.241	-20.42
213.461	-63.86
213.68	-95.67
213.9	-56.47
214.12	-27.14
214.339	-51.06
214.559	-26.2
214.779	19.01
214.998	12.45
215.218	-25.4
215.438	-4.39
215.657	-21.77
215.877	-27.54
216.096	0.77
216.316	10.7
216.535	-16.29
216.755	-5.34
216.974	-78.16
217.194	-140.37
217.413	-132.02
217.633	-96.27
217.852	-250.77
218.072	-121.4
218.291	-74.94
218.511	-22.27
218.73	-50.04
218.95	-26.8
219.169	-21.78
219.389	-50.44
219.608	-41.46
219.827	-24.2
220.047	-5.35
220.266	4.95
220.485	-1.09
220.705	-11.06
220.924	-27.58
221.143	8.43
221.363	-18.46
221.582	-7.23
221.801	-9.71
222.021	3.03
222.24	-54.26
222.459	-29.17
222.678	-39.66
222.897	-70.97
223.117	-131.09
223.336	-113.69
223.555	-47.19
223.774	16.92
223.993	33.97
224.213	82.61
224.432	48.69
224.651	57.4
224.87	13.55
225.089	18.31
225.308	6.4
225.527	39.32
225.746	21.88
225.965	22.41
226.184	-6.75
226.404	16.68
226.623	-28.41
226.842	-20.7
227.061	5.29
227.28	20.44
227.499	6.33
227.718	22.8
227.936	6.64
228.155	7.75
228.374	-12.56
228.593	-3.3
228.812	-0.55
229.031	-3.66
229.25	-48.91
229.469	-55.98
229.688	-42.23
229.907	-18.62
230.125	5.42
230.344	15.48
230.563	34.62
230.782	33.08
231.001	-52.66
231.22	-59.14
231.438	-16.12
231.657	-2.35
231.876	-6.05
232.095	45.21
232.313	63.84
232.532	36.31
232.751	1.39
232.969	-9.98
233.188	-80.88
233.407	-25.64
233.625	-5.55
233.844	-27.33
234.063	-12.03
234.281	11.11
234.5	-9.78
234.719	-3.88
234.937	16.5
235.156	-0.26
235.374	-0.26
235.593	-1.33
235.811	-14.59
236.03	-14.92
236.249	-33.1
236.467	-43.09
236.686	-5.47
236.904	8.2
237.123	-19.24
237.341	-10.47
237.559	7.68
237.778	-17.63
237.996	-45.32
238.215	3.53
238.433	7.72
238.652	-3.24
238.87	-25.07
239.088	-14.77
239.307	-20.59
239.525	-17.91
239.743	-45.91
239.962	-8.92
240.18	-31.78
240.398	-82.83
240.617	-96.6
240.835	-93.24
241.053	-94.8
241.271	-34.82
241.49	-4.89
241.708	-24.4
241.926	-49.49
242.144	-26.08
242.363	-107.98
242.581	-106.5
242.799	-59.11
243.017	-8.52
243.235	-37.4
243.453	-15.31
243.672	-16.97
243.89	-16.24
244.108	-31.33
244.326	0.89
244.544	15.96
244.762	10.28
244.98	14.43
245.198	12.56
245.416	-10.68
245.634	-25.96
245.852	-50.28
246.07	-53.18
246.288	-61.38
246.506	-94.63
246.724	-63.28
246.942	-35
247.16	-13.14
247.378	7.23
247.596	42.63
247.814	34.94
248.032	7.95
248.25	-2.14
248.468	-3.01
248.685	-9.3
248.903	12.14
249.121	23.03
249.339	-0.09
249.557	-0.9
249.775	6.62
249.992	-46.15
250.21	-36.72
250.428	-33.27
250.646	-57.02
250.863	-82.19
251.081	-35.24
251.299	-28.88
251.517	1.83
251.734	7.21
251.952	8
252.17	-12.42
252.387	-14.91
252.605	-22.65
252.823	-14.93
253.04	-5.92
253.258	16.32
253.475	26.8
253.693	39.8
253.911	49.14
254.128	57.48
254.346	51.54
254.563	22.12
254.781	1.15
254.998	-40.25
255.216	-37.07
255.433	-30.24
255.651	9.93
255.868	35.13
256.086	63.99
256.303	39
256.521	31.56
256.738	-1.6
256.956	-23.88
257.173	-48.7
257.39	-55.32
257.608	-71.25
257.825	-5.8
258.043	21.72
258.26	30.85
258.477	77.21
258.695	71.49
258.912	29.63
259.129	22.86
259.346	-8.24
259.564	-65.54
259.781	-86.97
259.998	-27.28
260.216	5.85
260.433	39.65
260.65	53.67
260.867	69.08
261.084	43.02
261.302	17.8
261.519	11.52
261.736	-15.84
261.953	-29.61
262.17	2.92
262.387	-30.03
262.604	-54.96
262.822	-67.99
263.039	-52.24
263.256	-96.8
263.473	-42.92
263.69	-24.86
263.907	13.51
264.124	21.42
264.341	30.89
264.558	12.41
264.775	28.58
264.992	13.12
265.209	8.2
265.426	21.45
265.643	28.53
265.86	21.67
266.077	29
266.294	27.41
266.51	-0.91
266.727	-4.47
266.944	23.47
267.161	7.34
267.378	1.74
267.595	31.78
267.812	7.27
268.028	-39.86
268.245	-14.61
268.462	-27.43
268.679	-61.69
268.896	-4.06
269.112	9.1
269.329	-2.4
269.546	14.64
269.763	26.42
269.979	18.75
270.196	19.52
270.413	0.49
270.629	-20.16
270.846	-38.24
271.063	-40.91
271.279	-44.52
271.496	-34.96
271.712	-3.98
271.929	24.9
272.146	0.67
272.362	2.32
272.579	31.82
272.795	38.06
273.012	40.61
273.228	53.09
273.445	23.67
273.661	-2.47
273.878	-50.18
274.094	-52.62
274.311	-89.62
274.527	-20.15
274.744	-20.64
274.96	-31.33
275.177	-18.57
275.393	13.41
275.609	14.44
275.826	31.84
276.042	39.15
276.259	14.03
276.475	19.58
276.691	17.76
276.908	-3.99
277.124	6.78
277.34	13.42
277.557	4.29
277.773	-13.67
277.989	-11.9
278.205	-11.44
278.422	6.65
278.638	5.02
278.854	12.94
279.07	27.21
279.286	22.74
279.503	-7.27
279.719	-19.9
279.935	-30.51
280.151	-59.09
280.367	-54.95
280.583	-67.79
280.799	-58.38
281.016	-80.89
281.232	-34.75
281.448	-30.63
281.664	1.29
281.88	-6.21
282.096	6.86
282.312	29.93
282.528	60.02
282.744	63.84
282.96	53.36
283.176	40.14
283.392	18.83
283.608	-2.98
283.824	-0.9
284.04	7.91
284.256	14.13
284.471	7.22
284.687	14.97
284.903	10.33
285.119	31.97
285.335	11.87
285.551	27.89
285.767	-4.64
285.982	-19.14
286.198	-73.42
286.414	-9.4
286.63	-7.24
286.846	33.47
287.061	18.44
287.277	45.32
287.493	11.33
287.709	40.22
287.924	16.45
288.14	46.26
288.356	40.5
288.571	58.07
288.787	16.8
289.003	19.71
289.218	10.43
289.434	-16.37
289.65	-16.38
289.865	-4.79
290.081	10.19
290.296	13.64
290.512	12.69
290.727	-24.87
290.943	-32.92
291.159	-33.57
291.374	-35.67
291.59	-45.72
291.805	-22.41
292.021	-17.12
292.236	-20.54
292.451	-10.04
292.667	1.35
292.882	19.52
293.098	22.06
293.313	12.19
293.529	-16.21
293.744	-40.05
293.959	-55.41
294.175	-44.42
294.39	-4.93
294.605	16.91
294.821	49.84
295.036	61.57
295.251	64.91
295.467	25.83
295.682	14.94
295.897	-46.66
296.112	-62.71
296.328	-50.87
296.543	-57.07
296.758	-62.23
296.973	-18.27
297.188	19.41
297.404	-6.92
297.619	-6.18
297.834	-3.16
298.049	-5.12
298.264	-43.05
298.479	5.49
298.694	22.21
298.909	18.82
299.125	20.52
299.34	23.18
299.555	-8.32
299.77	-27.97
299.985	-60.2
300.2	-120.14
300.415	-126.26
300.63	-99.02
300.845	-91.94
301.06	-73.69
301.275	-37.63
301.49	-13.54
301.704	-19.86
301.919	-32.01
302.134	-47.21
302.349	-48.88
302.564	-117.94
302.779	-143.22
302.994	-125.78
303.209	-63.36
303.423	0.52
303.638	48.54
303.853	20.53
304.068	16.4
304.283	9.67
304.497	-1.24
304.712	-16.53
304.927	-7.79
305.142	-20.71
305.356	-10.76
305.571	-16.92
305.786	-31.99
306	-49.16
306.215	-31.84
306.43	-57.54
306.644	-48.72
306.859	-1.38
307.074	18.66
307.288	-15.32
307.503	-17.49
307.717	-31.04
307.932	-40.89
308.147	-62.65
308.361	-28.09
308.576	-32.61
308.79	-75.57
309.005	-54.96
309.219	-27.89
309.434	-39.13
309.648	-27.13
309.863	0.71
310.077	-4.14
310.292	-19.2
310.506	-22.38
310.72	-1.98
310.935	-2.65
311.149	11
311.364	45.17
311.578	50.5
311.792	28.84
312.007	38.45
312.221	18.35
312.435	20.72
312.649	12.17
312.864	41.75
313.078	55.23
313.292	124.15
313.507	65.5
313.721	114.99
313.935	76.82
314.149	50.51
314.363	26.74
314.578	36.93
314.792	23.41
315.006	1.66
315.22	21.6
315.434	19.11
315.648	26.88
315.862	21.68
316.077	16.15
316.291	0.92
316.505	17.57
316.719	23.56
316.933	13.72
317.147	37.67
317.361	-15.07
317.575	-53.5
317.789	-104.44
318.003	-158.79
318.217	-154.97
318.431	-65.42
318.645	-17.74
318.859	0.7
319.073	28.09
319.287	18.32
319.5	-9.44
319.714	-57.69
319.928	-86.74
320.142	-116.64
320.356	-64.72
320.57	-23.53
320.784	-10.1
320.997	-35.24
321.211	-33.01
321.425	-94.27
321.639	-127.8
321.853	-65.91
322.066	-27.55
322.28	-28.46
322.494	-10.22
322.707	5.75
322.921	-4.63
323.135	-15.81
323.349	-9.79
323.562	-22.84
323.776	-32.79
323.989	-44.17
324.203	-63.11
324.417	-59.37
324.63	-85.76
324.844	-90.16
325.057	-67.73
325.271	-39.46
325.485	-11.54
325.698	35.54
325.912	55.08
326.125	27.16
326.339	12.94
326.552	4.27
326.766	-11.04
326.979	2.23
327.193	48.58
327.406	41.29
327.619	22.94
327.833	24.76
328.046	-6.41
328.26	-50.99
328.473	-25.29
328.686	-54.24
328.9	-49.52
329.113	-7.71
329.326	-27.94
329.54	-16.83
329.753	-22.04
329.966	-58.75
330.179	-94.51
330.393	-49.25
330.606	-28.65
330.819	1.95
331.032	29.61
331.246	30.97
331.459	52.03
331.672	41.21
331.885	25.42
332.098	-4.03
332.311	11.13
332.525	-49.58
332.738	-33.09
332.951	-2.94
333.164	24.49
333.377	23.9
333.59	49.81
333.803	38.96
334.016	14.84
334.229	-10.98
334.442	-13.89
334.655	4.81
334.868	23.53
335.081	29.01
335.294	41.68
335.507	41.73
335.72	14.59
335.933	-10.67
336.146	-6.75
336.359	-13.91
336.572	-55.42
336.785	-79.45
336.997	-66.35
337.21	-47.62
337.423	-56.22
337.636	-47.74
337.849	-33.99
338.062	-41.06
338.274	-36.01
338.487	-39.14
338.7	-30.7
338.913	-52.95
339.125	-84.87
339.338	-157.4
339.551	-140.39
339.763	-95.47
339.976	-62.84
340.189	-26.07
340.402	7.12
340.614	4.93
340.827	-5.19
341.039	-17.43
341.252	-10.02
341.465	-1.8
341.677	2.16
341.89	-24.23
342.102	-0.09
342.315	-17.49
342.527	-42.6
342.74	-41.76
342.952	-13.21
343.165	-23.75
343.377	-8.76
343.59	-14.53
343.802	-2.81
344.015	-16.85
344.227	-3.29
344.44	1.96
344.652	8.51
344.864	-11.87
345.077	21.67
345.289	21.25
345.502	21.35
345.714	10.65
345.926	17.7
346.139	4.14
346.351	10.72
346.563	10.53
346.775	20.97
346.988	10.59
347.2	-8.61
347.412	-59.65
347.624	-82.57
347.837	-96.36
348.049	-50.28
348.261	4.41
348.473	13.14
348.685	5.3
348.897	-4.98
349.11	-22.36
349.322	-51.54
349.534	-47.63
349.746	-22.88
349.958	-13.01
350.17	-28.22
350.382	-8.4
350.594	-2.51
350.806	6.59
351.018	13.6
351.23	22.7
351.442	-28.54
351.654	-21.66
351.866	-23.38
352.078	-21.56
352.29	-10.62
352.502	17.32
352.714	26.71
352.926	10.28
353.138	19.7
353.35	9.43
353.561	8
353.773	-23.65
353.985	-12.81
354.197	-32.74
354.409	-29.87
354.621	-44.47
354.832	-14.48
355.044	-10.24
355.256	-5.45
355.468	-0.31
355.679	-1.71
355.891	-6.15
356.103	-27.49
356.314	-30.2
356.526	-32.72
356.738	-21.76
356.949	-39.04
357.161	-9.51
357.373	-7.49
357.584	-14.48
357.796	-1.17
358.008	4.98
358.219	13.45
358.431	19.08
358.642	30.73
358.854	19.09
359.065	8.47
359.277	-19.01
359.488	-37.63
359.7	-73.62
359.911	-87.15
360.123	-59.21
360.334	-76.1
360.546	-88.01
360.757	-63.48
360.969	-27.76
361.18	-25.81
361.391	12.82
361.603	12.84
361.814	2.48
362.025	-15.02
362.237	-25.48
362.448	-17.87
362.659	12.15
362.871	17.63
363.082	25.72
363.293	33.56
363.504	10.8
363.716	-22.04
363.927	-31.85
364.138	-62.38
364.349	-95
364.56	-74.72
364.772	-59.4
364.983	-31.78
365.194	-21.16
365.405	12.97
365.616	32.7
365.827	34.06
366.038	13.23
366.25	7.08
366.461	-35.64
366.672	-28.26
366.883	-16.55
367.094	-7.19
367.305	-14.21
367.516	-7.35
367.727	-38.39
367.938	-49.51
368.149	-50.02
368.36	-30.71
368.571	-22.67
368.781	-26.61
368.992	-35.08
369.203	-49.65
369.414	-68.25
369.625	-62.85
369.836	-62.82
370.047	-88.75
370.258	-72.81
370.468	-70.65
370.679	-95.09
370.89	-79.05
371.101	-43.61
371.312	-40.12
371.522	-38.2
371.733	-26.38
371.944	-13.86
372.155	-8.87
372.365	-18.44
372.576	-16.63
372.787	-16.94
372.997	-43.69
373.208	-46.04
373.419	-21.35
373.629	-37.97
373.84	-29.74
374.05	-33.49
374.261	-18.17
374.472	-24.88
374.682	9.88
374.893	7.18
375.103	38.71
375.314	17.95
375.524	7.85
375.735	5.98
375.945	17.62
376.156	-1.01
376.366	13.24
376.577	13.53
376.787	7.61
376.997	9.88
377.208	-0.29
377.418	-23.47
377.629	-11.53
377.839	-14.5
378.049	-19.07
378.26	-0.71
378.47	16.6
378.68	-0.66
378.89	-3.5
379.101	-3.06
379.311	-31.55
379.521	-71.17
379.732	-53.26
379.942	-45.94
380.152	-80.33
380.362	-42.72
380.572	-31.18
380.783	-16.78
380.993	-11.45
381.203	14.84
381.413	20.35
381.623	34.82
381.833	24.28
382.043	18.43
382.253	2.56
382.463	-5.31
382.674	-16.52
382.884	-34.83
383.094	-29.87
383.304	-20.4
383.514	-19.55
383.724	-9.9
383.934	-9.39
384.144	-21.01
384.353	-23.8
384.563	-18.14
384.773	-12.45
384.983	-18
385.193	-3.72
385.403	-1.81
385.613	-1.71
385.823	-17.88
386.033	-6.05
386.242	-14.69
386.452	-14.61
386.662	-21.79
386.872	-7.68
387.082	-13.62
387.291	-18.76
387.501	-23.32
387.711	-12.17
387.921	-19.63
388.13	-13.75
388.34	-1.65
388.55	-6.46
388.759	-11
388.969	-4.23
389.179	-6.56
389.388	-11.46
389.598	-2.7
389.807	-6.43
390.017	-11.28
390.227	-12.3
390.436	-11.11
390.646	-11.92
390.855	-9.19
391.065	-8.86
391.274	-10.7
391.484	-12.8
391.693	-11.33
391.903	-10.42
392.112	-2.04
392.322	1.1
392.531	3.92
392.74	4.74
392.95	1.07
393.159	-4.54
393.369	-2.74
393.578	-3.15
393.787	-4.97
393.997	-1.49
394.206	-2.06
394.415	-2.37
394.625	-2.77
394.834	-4.3
395.043	-4.85
395.252	-1.75
395.462	-0.37
395.671	1.69
395.88	2.96
396.089	3.72
396.298	1.76
396.508	2.12
396.717	0.83
396.926	1.79
397.135	1.11
397.344	0.96
397.553	0.62
397.762	2.06
397.971	2.08
398.181	2.8
398.39	2.5
398.599	1.92
398.808	1.51
399.017	1.87
399.226	2.89
399.435	3.74
399.644	4.22
399.853	3.51
400.062	2.71
400.27	2.07
400.479	1.87
400.688	0.99
400.897	0.96
401.106	0.89
401.315	0.58
401.524	0.49
401.733	1.53
401.941	1.86
402.15	2.18
402.359	2.13
402.568	2.59
402.777	2.48
402.985	2.55
403.194	2.41
403.403	2.63
403.612	2.23
403.82	1.82
404.029	1.97
404.238	1.92
404.446	1.95
404.655	1.78
404.864	1.78
405.072	1.67
405.281	1.74
405.489	1.55
405.698	1.54
405.906	1.56
406.115	1.49
406.324	1.5
406.532	1.72
406.741	2.14
406.949	2.09
407.158	2.06
407.366	2.11
407.574	1.99
407.783	1.85
407.991	1.79
408.2	2.02
408.408	1.97
408.617	1.86
408.825	1.67
409.033	1.79
409.242	1.6
409.45	1.61
409.658	1.56
409.867	1.69
410.075	1.64
410.283	1.63
410.491	1.74
410.7	1.78
410.908	1.86
411.116	2.2
411.324	2.23
411.533	2.12
411.741	2.28
411.949	2.18
412.157	1.71
412.365	1.64
412.573	1.67
412.781	1.74
412.99	1.61
413.198	1.93
413.406	1.89
413.614	1.96
413.822	1.69
414.03	1.74
414.238	1.46
414.446	1.58
414.654	1.27
414.862	1.46
415.07	1.56
415.278	1.86
415.486	1.63
415.694	1.85
415.902	1.65
416.109	1.47
416.317	1.26
416.525	1.19
416.733	1.15
416.941	1.26
417.149	1.22
417.357	1.34
417.564	1.62
417.772	1.83
417.98	1.84
418.188	1.83
418.395	1.86
418.603	1.98
418.811	1.57
419.019	1.49
419.226	1.8
419.434	1.8
419.642	1.5
419.849	1.79
420.057	1.86
420.265	1.77
420.472	1.5
420.68	1.63
420.887	1.38
421.095	1.42
421.302	1.31
421.51	1.58
421.717	1.68
421.925	1.85
422.132	1.77
422.34	1.55
422.547	1.55
422.755	1.29
422.962	1.21
423.17	1.12
423.377	1.25
423.585	1.19
423.792	1.2
423.999	1.27
424.207	1.32
424.414	1.47
424.621	1.38
424.829	1.48
425.036	1.54
425.243	1.57
425.451	1.47
425.658	1.36
425.865	1.56
426.072	1.61
426.28	1.93
426.487	1.81
426.694	1.96
426.901	1.73
427.108	1.52
427.315	1.31
427.523	1.7
427.73	1.75
427.937	1.71
428.144	1.69
428.351	1.63
428.558	1.61
428.765	1.43
428.972	1.44
429.179	1.63
429.386	1.81
429.593	1.46
429.8	1.4
430.007	1.49
430.214	1.39
430.421	1.19
430.628	1.18
430.835	1.15
431.042	1.3
431.249	1.33
431.456	1.39
431.662	1.57
431.869	1.75
432.076	1.7
432.283	1.85
432.49	1.79
432.697	1.73
432.903	1.55
433.11	1.45
433.317	1.55
433.524	1.73
433.73	1.7
433.937	1.98
434.144	1.9
434.35	1.79
434.557	1.6
434.764	1.67
434.97	1.45
435.177	1.61
435.384	1.43
435.59	1.49
435.797	1.66
436.003	1.87
436.21	1.88
436.416	2.07
436.623	2.13
436.829	2.17
437.036	2.22
437.242	2.26
437.449	2.11
437.655	2.14
437.862	1.96
438.068	1.89
438.275	1.98
438.481	2.19
438.687	2.12
438.894	2.17
439.1	2.17
439.307	2.26
439.513	2.12
439.719	2.1
439.926	2.19
440.132	2.15
440.338	1.89
440.544	2.04
440.751	1.95
440.957	1.91
441.163	1.83
441.369	1.96
441.575	1.73
441.782	1.87
441.988	1.85
442.194	1.94
442.4	1.9
442.606	2.22
442.812	2.23
443.018	2.31
443.224	2.33
443.431	2.46
443.637	2.22
443.843	2.15
444.049	2.07
444.255	2.01
444.461	1.96
444.667	1.92
444.873	2.15
445.079	2.21
445.284	2.23
445.49	2.08
445.696	2.02
445.902	1.84
446.108	1.8
446.314	1.86
446.52	1.96
446.726	2.21
446.931	2.16
447.137	2.22
447.343	2.22
447.549	2.08
447.755	1.92
447.96	2.02
448.166	1.94
448.372	1.88
448.578	2.01
448.783	2.08
448.989	2.23
449.195	2.46
449.4	2.44
449.606	2.44
449.812	2.35
450.017	2.28
450.223	2.09
450.428	2.06
450.634	2.16
450.84	2.29
451.045	2.16
451.251	2.13
451.456	2.4
451.662	2.47
451.867	2.56
452.073	2.6
452.278	2.72
452.483	2.76
452.689	2.61
452.894	2.54
453.1	2.62
453.305	2.51
453.51	2.32
453.716	2.3
453.921	2.27
454.127	2.22
454.332	2.25
454.537	2.21
454.742	2.23
454.948	2.24
455.153	2.31
455.358	2.35
455.563	2.55
455.769	2.68
455.974	2.62
456.179	2.45
456.384	2.43
456.589	2.32
456.795	2.15
457	2.17
457.205	2.48
457.41	2.47
457.615	2.41
457.82	2.49
458.025	2.55
458.23	2.3
458.435	2.31
458.64	2.32
458.845	2.46
459.05	2.43
459.255	2.49
459.46	2.54
459.665	2.58
459.87	2.49
460.075	2.54
460.28	2.64
460.485	2.66
