Data from Ofra_PS_T2_1A_2CX10_Reflection_1.txt Node
Date: Wed Jul 21 17:50:18 EDT 2021
User: Adam
Spectrometer: FLMT01687
Trigger mode: 0
Integration Time (sec): 1.100000E0
Scans to average: 2
Electric dark correction enabled: true
Nonlinearity correction enabled: false
Boxcar width: 2
XAxis mode: Wavelengths
Number of Pixels in Spectrum: 3648
>>>>>Begin Spectral Data<<<<<
179.494	668.6
179.716	759.76
179.937	707.01
180.158	674.94
180.38	1076.09
180.601	424.17
180.823	134.21
181.044	-17.18
181.265	154.23
181.486	24.87
181.708	63.68
181.929	666.84
182.15	-532.04
182.372	116.64
182.593	-7.23
182.814	23.8
183.035	89.26
183.257	53.59
183.478	-77.18
183.699	-26.43
183.92	-26.09
184.141	-1.52
184.363	-30.14
184.584	34.56
184.805	32.98
185.026	44.17
185.247	41.02
185.468	23.19
185.689	24.47
185.91	32.06
186.132	15.74
186.353	6.42
186.574	48.04
186.795	36.75
187.016	-31.18
187.237	-20.72
187.458	-59.8
187.679	-50.74
187.9	-67.46
188.121	-40.29
188.342	-68.07
188.563	13.61
188.784	36.57
189.005	68.52
189.226	116.3
189.447	118.41
189.667	72.94
189.888	-295.44
190.109	-1507.47
190.33	-894.03
190.551	-1481.19
190.772	-367.49
190.993	-280.61
191.214	-221.34
191.434	-128.47
191.655	-30.89
191.876	-76.69
192.097	-139.47
192.318	-173.31
192.538	-277.93
192.759	-220.51
192.98	-128.23
193.201	-52.15
193.421	-27.73
193.642	-12.62
193.863	-7.11
194.083	-29.63
194.304	-31.07
194.525	-30.69
194.745	-38
194.966	-77.83
195.187	-63.32
195.407	-113.51
195.628	-197.6
195.848	-202.83
196.069	-183.63
196.29	-119.81
196.51	-128.45
196.731	-107.29
196.951	-124.21
197.172	-132.37
197.392	-174.27
197.613	-152.99
197.833	-176.74
198.054	-136.91
198.274	-73.72
198.495	-67.84
198.715	-54.94
198.936	-62.29
199.156	-58.43
199.377	-161.16
199.597	-154.72
199.817	-116.66
200.038	-53.87
200.258	-97.32
200.479	-28.12
200.699	-85.29
200.919	-40.56
201.14	-57.13
201.36	-83.17
201.58	-16.53
201.801	37.59
202.021	-1.31
202.241	-11.01
202.461	3.1
202.682	-91.57
202.902	-203.82
203.122	-139.93
203.342	-96.47
203.563	-56.42
203.783	-7.17
204.003	-41.1
204.223	-31.32
204.443	18.32
204.663	-16.28
204.884	-15.23
205.104	20.89
205.324	59.71
205.544	51.66
205.764	66.36
205.984	67.15
206.204	63.5
206.424	48.14
206.644	7.25
206.864	13.49
207.084	-77.86
207.304	-60.06
207.525	-256.8
207.745	-127.72
207.964	-90.82
208.184	-108.5
208.404	-162.82
208.624	-156.87
208.844	-164.48
209.064	-502.48
209.284	-491.9
209.504	-238.04
209.724	-80.58
209.944	-59.02
210.164	-1.75
210.384	3.28
210.604	15.55
210.823	-16.7
211.043	-32.16
211.263	-56.08
211.483	-52.04
211.703	-129.58
211.922	-117.39
212.142	-38.62
212.362	-33.14
212.582	-32.66
212.801	-20.67
213.021	-40.82
213.241	-78.98
213.461	-100.56
213.68	-135.43
213.9	-105.54
214.12	-67.9
214.339	-137.1
214.559	-98.13
214.779	-19.11
214.998	-13
215.218	-50.47
215.438	3.28
215.657	1.96
215.877	-22.62
216.096	-9.68
216.316	10.61
216.535	-7.25
216.755	-16.13
216.974	-112.74
217.194	-162.72
217.413	-160.41
217.633	-167.27
217.852	-270.59
218.072	-107.82
218.291	-55.71
218.511	-13.04
218.73	-17.62
218.95	-16.05
219.169	-27.43
219.389	-53.99
219.608	-50.26
219.827	-48.02
220.047	-45.21
220.266	-19.41
220.485	-36.3
220.705	-36.77
220.924	-53.4
221.143	-6.82
221.363	-36.23
221.582	-9.52
221.801	2.32
222.021	14.64
222.24	-45.64
222.459	23.28
222.678	-15.47
222.897	-114.83
223.117	-131.3
223.336	-98.69
223.555	-58.1
223.774	-25.27
223.993	7.98
224.213	63.82
224.432	36.12
224.651	45.11
224.87	17.3
225.089	27.18
225.308	14.73
225.527	37.77
225.746	15.71
225.965	5.69
226.184	-19.11
226.404	-1.17
226.623	-34.61
226.842	-22.97
227.061	1.21
227.28	8.83
227.499	-3.45
227.718	19.79
227.936	18.47
228.155	33.44
228.374	28.64
228.593	20.16
228.812	-0.2
229.031	-16.7
229.25	-73.85
229.469	-76.87
229.688	-51.98
229.907	13.27
230.125	40.37
230.344	55.38
230.563	53.93
230.782	51.15
231.001	-41.01
231.22	-36.61
231.438	3.58
231.657	-4.69
231.876	-20.09
232.095	30.94
232.313	16.85
232.532	-32.22
232.751	-34.38
232.969	-59.86
233.188	-143.2
233.407	-12.88
233.625	-5.42
233.844	-25.86
234.063	3.59
234.281	22.98
234.5	-1.6
234.719	4.93
234.937	21.96
235.156	22.93
235.374	10.06
235.593	1.45
235.811	-4.8
236.03	2.03
236.249	-67.79
236.467	-59.45
236.686	-20.17
236.904	-11.76
237.123	-44.04
237.341	-17.57
237.559	-13.75
237.778	-51
237.996	-68.52
238.215	-25
238.433	-12.33
238.652	-15.65
238.87	-30.22
239.088	-23.91
239.307	-35.2
239.525	-60.07
239.743	-83.99
239.962	-61.27
240.18	-86.67
240.398	-154.04
240.617	-145.72
240.835	-117.87
241.053	-104.65
241.271	-36.16
241.49	25.91
241.708	8.42
241.926	-9.6
242.144	-1.48
242.363	-80.28
242.581	-96.98
242.799	-52.19
243.017	-20.24
243.235	-50.51
243.453	-17.49
243.672	-26.89
243.89	-24.54
244.108	-44.36
244.326	-14.19
244.544	-23.06
244.762	-16.9
244.98	-1.05
245.198	-1.85
245.416	-30.79
245.634	-30.63
245.852	-51.82
246.07	-60.75
246.288	-56.91
246.506	-75.05
246.724	-35.04
246.942	-28.28
247.16	-21.63
247.378	-13.1
247.596	21.07
247.814	7.51
248.032	-12.07
248.25	-23.87
248.468	0.87
248.685	2.94
248.903	29.35
249.121	44.95
249.339	34.7
249.557	24.93
249.775	31.3
249.992	-34.56
250.21	-56.58
250.428	-52.57
250.646	-87.52
250.863	-131.58
251.081	-103.54
251.299	-107.91
251.517	-100.91
251.734	-65.48
251.952	-54.39
252.17	-39.34
252.387	-11.72
252.605	-15.18
252.823	-19.79
253.04	0.91
253.258	8.3
253.475	-10.43
253.693	18.05
253.911	15.3
254.128	14.18
254.346	19.85
254.563	11.58
254.781	-15.2
254.998	-26.16
255.216	-33.52
255.433	-36.74
255.651	0.02
255.868	37.31
256.086	68.27
256.303	48.33
256.521	44.95
256.738	16.69
256.956	-21.13
257.173	-43.22
257.39	-71.8
257.608	-98
257.825	-42.74
258.043	15.38
258.26	4.14
258.477	54.18
258.695	44.68
258.912	-32.96
259.129	-42.66
259.346	-64.31
259.564	-109.58
259.781	-142.48
259.998	-41.51
260.216	-19.95
260.433	12.8
260.65	8.24
260.867	33.37
261.084	-8.69
261.302	-25.5
261.519	-41.28
261.736	-56.74
261.953	-78
262.17	-29.22
262.387	-51.76
262.604	-75.75
262.822	-72.87
263.039	-58.79
263.256	-114.24
263.473	-76.58
263.69	-49.09
263.907	3.87
264.124	27.74
264.341	25.83
264.558	12.65
264.775	21.47
264.992	5.1
265.209	-1.51
265.426	27.62
265.643	26.55
265.86	46.14
266.077	49.05
266.294	24.68
266.51	-21.61
266.727	-17.63
266.944	-23.33
267.161	-41.33
267.378	-32.88
267.595	1.22
267.812	-19.58
268.028	-21.09
268.245	9.07
268.462	-16.63
268.679	-31.41
268.896	16.09
269.112	15.16
269.329	1.1
269.546	6.21
269.763	0.48
269.979	-26.18
270.196	-34.42
270.413	-54.35
270.629	-68.81
270.846	-80.57
271.063	-71.34
271.279	-90.14
271.496	-71.4
271.712	-44.09
271.929	-32.85
272.146	-56.41
272.362	-56.98
272.579	-25.44
272.795	-2.24
273.012	2.18
273.228	13.38
273.445	-8.22
273.661	-46.82
273.878	-80.71
274.094	-69.59
274.311	-92.75
274.527	-14.25
274.744	0.21
274.96	-10.13
275.177	-0.65
275.393	11.35
275.609	-9.67
275.826	5.57
276.042	-0.16
276.259	-17.64
276.475	5.93
276.691	11.96
276.908	-20.15
277.124	-4.25
277.34	-6.66
277.557	-13.52
277.773	-16.74
277.989	-6.06
278.205	-12.49
278.422	3.89
278.638	-4.93
278.854	10.81
279.07	8.99
279.286	2.15
279.503	-22.77
279.719	-26.82
279.935	-66.77
280.151	-77.3
280.367	-39.76
280.583	-57.17
280.799	-54.94
281.016	-74.34
281.232	-41.62
281.448	-54.98
281.664	-4.11
281.88	-25.79
282.096	12.5
282.312	40.91
282.528	66.82
282.744	53.68
282.96	55.36
283.176	26.66
283.392	7.1
283.608	-5.22
283.824	-8.98
284.04	-1.47
284.256	3.31
284.471	1.84
284.687	4.86
284.903	13.66
285.119	36.48
285.335	14.79
285.551	31.01
285.767	0.02
285.982	-20.64
286.198	-89.1
286.414	-22.22
286.63	-19.63
286.846	10.32
287.061	-14.09
287.277	25.4
287.493	-8.65
287.709	-3.69
287.924	-19.2
288.14	33.09
288.356	34.78
288.571	58.74
288.787	41.38
289.003	42.71
289.218	1.94
289.434	-37.84
289.65	-35.09
289.865	-50.32
290.081	-16.93
290.296	13.76
290.512	16.26
290.727	-29.44
290.943	-18.99
291.159	-36.96
291.374	-39.79
291.59	-39.2
291.805	-20.68
292.021	-16.24
292.236	-19.93
292.451	-4.5
292.667	0.3
292.882	6.86
293.098	4.9
293.313	-22.97
293.529	-51.54
293.744	-83.14
293.959	-77.2
294.175	-63.54
294.39	-21.1
294.605	-7.47
294.821	19.67
295.036	20.83
295.251	18.5
295.467	-5.61
295.682	-13.91
295.897	-80.94
296.112	-94.1
296.328	-81.74
296.543	-103.16
296.758	-96.78
296.973	-20.9
297.188	22.97
297.404	-8.32
297.619	-6.26
297.834	-27.44
298.049	-60.99
298.264	-92.44
298.479	-31.43
298.694	-15.9
298.909	6.91
299.125	9.49
299.34	20.46
299.555	-2.26
299.77	-7.53
299.985	-51
300.2	-100.44
300.415	-129.28
300.63	-72.43
300.845	-67.89
301.06	-53.13
301.275	-11.84
301.49	-1.84
301.704	-27.72
301.919	-45.12
302.134	-57.16
302.349	-59.59
302.564	-114.02
302.779	-140.43
302.994	-116.58
303.209	-59.82
303.423	-16.54
303.638	32.8
303.853	-17.34
304.068	-26.48
304.283	-19.34
304.497	-30.28
304.712	-47.47
304.927	-11.64
305.142	-28.75
305.356	-26.63
305.571	-32.53
305.786	-48.02
306	-72.9
306.215	-48.8
306.43	-82.71
306.644	-82.31
306.859	-16.56
307.074	5.95
307.288	-19.38
307.503	-20.91
307.717	-29.79
307.932	-44.52
308.147	-63.07
308.361	-32.13
308.576	-37.14
308.79	-78.79
309.005	-64.89
309.219	-47.24
309.434	-69.63
309.648	-63.26
309.863	-29.88
310.077	-37.16
310.292	-23.42
310.506	-22.62
310.72	-4.83
310.935	-5.45
311.149	-12.08
311.364	-2.52
311.578	8.52
311.792	-4.81
312.007	14.86
312.221	-4.04
312.435	-12.74
312.649	-22.83
312.864	6.34
313.078	6.8
313.292	72.89
313.507	49.28
313.721	83.07
313.935	22.23
314.149	-4.78
314.363	-5.32
314.578	-3.75
314.792	5.85
315.006	-5.03
315.22	11.03
315.434	18.63
315.648	25.41
315.862	14.08
316.077	12.18
316.291	16.76
316.505	0.99
316.719	0.35
316.933	-27.43
317.147	-28.54
317.361	-95.87
317.575	-106.49
317.789	-151.1
318.003	-223.92
318.217	-188.59
318.431	-80.4
318.645	-15.69
318.859	2.64
319.073	39.88
319.287	36.21
319.5	0.98
319.714	-55.76
319.928	-85.47
320.142	-138.33
320.356	-102.74
320.57	-49.37
320.784	-38.83
320.997	-27.21
321.211	-23.71
321.425	-84.11
321.639	-132.38
321.853	-60.99
322.066	-55.61
322.28	-47.72
322.494	-37.08
322.707	-6.53
322.921	-30.19
323.135	-26.57
323.349	-12.49
323.562	-25.5
323.776	-39.46
323.989	-41.59
324.203	-64.18
324.417	-81.17
324.63	-91.07
324.844	-86.24
325.057	-97.96
325.271	-59.71
325.485	-20.91
325.698	6.05
325.912	11.56
326.125	-11.94
326.339	-17.39
326.552	-40.29
326.766	-50.8
326.979	-27.08
327.193	31.34
327.406	16.29
327.619	3.07
327.833	26.59
328.046	-5.85
328.26	-49.31
328.473	-21.85
328.686	-42.9
328.9	-50.22
329.113	-33.21
329.326	-58.34
329.54	-41.2
329.753	-44.05
329.966	-65.84
330.179	-46.76
330.393	-13.83
330.606	-13.83
330.819	7.22
331.032	21.33
331.246	18.65
331.459	50.26
331.672	34.22
331.885	17.19
332.098	-11.7
332.311	-27
332.525	-118.61
332.738	-95.62
332.951	-44.68
333.164	-14.91
333.377	7.32
333.59	39.42
333.803	35.31
334.016	16.86
334.229	5.84
334.442	0.79
334.655	13.49
334.868	30.22
335.081	44.34
335.294	36.7
335.507	20.54
335.72	-3.92
335.933	-36.87
336.146	-77.41
336.359	-62.22
336.572	-91.51
336.785	-114.29
336.997	-97.08
337.21	-52.15
337.423	-66.05
337.636	-48.52
337.849	-33.06
338.062	-34.35
338.274	-24.87
338.487	-30.77
338.7	-25.76
338.913	-58.64
339.125	-79.13
339.338	-154.04
339.551	-122.41
339.763	-77.11
339.976	-35.4
340.189	-6.57
340.402	18.62
340.614	-9.84
340.827	-21.56
341.039	-46.34
341.252	-38.02
341.465	-28.53
341.677	-26.73
341.89	-65.44
342.102	-20.48
342.315	-40.38
342.527	-73.15
342.74	-47.36
342.952	-18.35
343.165	-26.18
343.377	0.79
343.59	-5.8
343.802	14.01
344.015	23.76
344.227	28.02
344.44	13.21
344.652	22.01
344.864	-5.35
345.077	20.72
345.289	22.73
345.502	21.41
345.714	17.02
345.926	23.72
346.139	5
346.351	14.13
346.563	23.29
346.775	28.1
346.988	14.4
347.2	-7.1
347.412	-64.76
347.624	-92.07
347.837	-109.52
348.049	-68.92
348.261	-1.83
348.473	23.12
348.685	9.27
348.897	-17.8
349.11	-48.13
349.322	-97.98
349.534	-112.45
349.746	-87.57
349.958	-50.46
350.17	-39.05
350.382	-17.47
350.594	-11.43
350.806	-9.83
351.018	-15.38
351.23	-39.93
351.442	-108.32
351.654	-123.48
351.866	-118.26
352.078	-109.35
352.29	-48.17
352.502	-20.96
352.714	-8.7
352.926	-15.23
353.138	-12.04
353.35	-31.27
353.561	-22.46
353.773	-36.83
353.985	-20.54
354.197	-27.35
354.409	-24.62
354.621	-31.85
354.832	-24.14
355.044	-34.88
355.256	-35.87
355.468	-20.61
355.679	-33.13
355.891	-19.82
356.103	-34.81
356.314	-7.25
356.526	-9.23
356.738	7.6
356.949	-8.57
357.161	7.66
357.373	-13.2
357.584	-23.47
357.796	-12.15
358.008	-16.46
358.219	-5.53
358.431	-10.51
358.642	-10.66
358.854	-15.49
359.065	-32.76
359.277	-65.78
359.488	-69.04
359.7	-93.36
359.911	-112.3
360.123	-77.94
360.334	-88.76
360.546	-111.39
360.757	-93.65
360.969	-62.97
361.18	-56.29
361.391	-20.81
361.603	-27.65
361.814	-4.94
362.025	-20.07
362.237	-17.37
362.448	-10.59
362.659	8.78
362.871	-7.95
363.082	-8.4
363.293	-11.15
363.504	-26.09
363.716	-52.16
363.927	-63.32
364.138	-78.62
364.349	-91.4
364.56	-81.46
364.772	-72.8
364.983	-43.59
365.194	-43.53
365.405	-24.69
365.616	-5.31
365.827	-3.57
366.038	-33.96
366.25	-34.48
366.461	-97.4
366.672	-79.89
366.883	-44.77
367.094	-25.65
367.305	-28.9
367.516	-10.3
367.727	-44.06
367.938	-56.67
368.149	-53.18
368.36	-40.39
368.571	-23.25
368.781	-35.56
368.992	-56.59
369.203	-75.86
369.414	-92.51
369.625	-101.3
369.836	-73.76
370.047	-88.08
370.258	-73.7
370.468	-74.73
370.679	-92.64
370.89	-90.13
371.101	-57.31
371.312	-63.1
371.522	-45.73
371.733	-39.18
371.944	-20.61
372.155	-16.66
372.365	-23.16
372.576	-33.25
372.787	-24.43
372.997	-48.39
373.208	-59.58
373.419	-22.82
373.629	-53.5
373.84	-65.89
374.05	-77.49
374.261	-55.08
374.472	-78.19
374.682	-5.91
374.893	-7.38
375.103	29.5
375.314	16.46
375.524	6.44
375.735	-9.93
375.945	1.54
376.156	-25.12
376.366	-15
376.577	1.27
376.787	-8.36
376.997	5.04
377.208	3.94
377.418	-15.72
377.629	-3.42
377.839	-1.74
378.049	-6.16
378.26	10.53
378.47	16.47
378.68	1.06
378.89	-3.83
379.101	-16.23
379.311	-55.94
379.521	-84.56
379.732	-93.73
379.942	-83.71
380.152	-90.29
380.362	-45.15
380.572	-33.56
380.783	-15.95
380.993	-6.52
381.203	-1.71
381.413	-0.74
381.623	6.94
381.833	3.75
382.043	-7.3
382.253	-9.38
382.463	-8.49
382.674	-21.28
382.884	-39.29
383.094	-38.6
383.304	-36.39
383.514	-29.68
383.724	-15.16
383.934	-12.37
384.144	-21.67
384.353	-24.75
384.563	-31.69
384.773	-29.99
384.983	-35.1
385.193	-19.62
385.403	-16.51
385.613	-16.39
385.823	-29.54
386.033	-20.36
386.242	-28.17
386.452	-25.3
386.662	-36.29
386.872	-20.55
387.082	-29.24
387.291	-35.14
387.501	-35.27
387.711	-19.44
387.921	-32.14
388.13	-24.65
388.34	-7.33
388.55	-15.47
388.759	-19.07
388.969	-5.16
389.179	-9.5
389.388	-14.01
389.598	-4.59
389.807	-9.39
390.017	-16.11
390.227	-10.02
390.436	-11.79
390.646	-11.97
390.855	-4.71
391.065	-4.62
391.274	-9.49
391.484	-8.56
391.693	-7.37
391.903	-8.67
392.112	-2.25
392.322	0.98
392.531	2.2
392.74	2.84
392.95	-2.01
393.159	-6.3
393.369	-5.25
393.578	-5.28
393.787	-7.36
393.997	-4.56
394.206	-4.56
394.415	-4.9
394.625	-5.11
394.834	-6.37
395.043	-4.63
395.252	-2.68
395.462	-0.85
395.671	0.86
395.88	2.47
396.089	3.64
396.298	1.35
396.508	0.63
396.717	0.05
396.926	1.23
397.135	0.02
397.344	0
397.553	0.66
397.762	1.92
397.971	1.1
398.181	1.19
398.39	1.25
398.599	0.67
398.808	0.29
399.017	2.12
399.226	3.29
399.435	4.75
399.644	4.74
399.853	3.71
400.062	2.24
400.27	1.75
400.479	1.2
400.688	0.64
400.897	1.13
401.106	1.39
401.315	1.11
401.524	1.29
401.733	2.41
401.941	2.86
402.15	2.99
402.359	2.84
402.568	3.07
402.777	2.64
402.985	2.36
403.194	2.34
403.403	2.62
403.612	2.18
403.82	2.37
404.029	2.61
404.238	2.43
404.446	2.46
404.655	2.32
404.864	2.22
405.072	1.84
405.281	1.97
405.489	1.72
405.698	1.79
405.906	1.73
406.115	1.79
406.324	1.81
406.532	1.92
406.741	2.32
406.949	2.36
407.158	2.43
407.366	2.43
407.574	2.48
407.783	2.29
407.991	2.06
408.2	2.29
408.408	2.28
408.617	2.26
408.825	2.08
409.033	2.26
409.242	2.13
409.45	2.18
409.658	2.02
409.867	2.3
410.075	2.12
410.283	2.04
410.491	1.9
410.7	1.95
410.908	1.84
411.116	2.31
411.324	2.32
411.533	2.28
411.741	2.52
411.949	2.6
412.157	2.18
412.365	2.2
412.573	2.34
412.781	2.31
412.99	2.11
413.198	2.33
413.406	2.25
413.614	2.21
413.822	2.05
414.03	2.08
414.238	1.8
414.446	1.91
414.654	1.71
414.862	1.74
415.07	1.83
415.278	2.1
415.486	1.86
415.694	2.07
415.902	2.05
416.109	1.93
416.317	1.84
416.525	1.85
416.733	1.74
416.941	1.8
417.149	1.7
417.357	1.67
417.564	1.88
417.772	2.12
417.98	2.08
418.188	2.06
418.395	2.1
418.603	2.24
418.811	1.79
419.019	1.7
419.226	2.06
419.434	2.17
419.642	1.76
419.849	2.08
420.057	2.1
420.265	1.95
420.472	1.6
420.68	1.75
420.887	1.51
421.095	1.58
421.302	1.6
421.51	1.91
421.717	2.02
421.925	2.16
422.132	2.03
422.34	1.76
422.547	1.69
422.755	1.53
422.962	1.4
423.17	1.29
423.377	1.49
423.585	1.49
423.792	1.39
423.999	1.47
424.207	1.57
424.414	1.8
424.621	1.88
424.829	2.02
425.036	2.05
425.243	2.19
425.451	1.74
425.658	1.38
425.865	1.55
426.072	1.53
426.28	1.66
426.487	1.78
426.694	2.1
426.901	1.84
427.108	1.88
427.315	1.71
427.523	1.94
427.73	1.82
427.937	1.9
428.144	1.76
428.351	1.69
428.558	1.86
428.765	1.81
428.972	1.73
429.179	1.94
429.386	2.22
429.593	1.84
429.8	1.72
430.007	1.87
430.214	1.85
430.421	1.6
430.628	1.46
430.835	1.47
431.042	1.51
431.249	1.6
431.456	1.65
431.662	1.9
431.869	2.25
432.076	2.26
432.283	2.25
432.49	2.2
432.697	2.27
432.903	1.86
433.11	1.76
433.317	1.93
433.524	2.2
433.73	2.06
433.937	2.43
434.144	2.38
434.35	2.24
434.557	1.99
434.764	2.06
434.97	1.87
435.177	2.09
435.384	1.93
435.59	2.02
435.797	2.2
436.003	2.32
436.21	2.18
436.416	2.31
436.623	2.27
436.829	2.28
437.036	2.25
437.242	2.27
437.449	2.24
437.655	2.26
437.862	2.2
438.068	2.19
438.275	2.28
438.481	2.54
438.687	2.54
438.894	2.48
439.1	2.52
439.307	2.78
439.513	2.56
439.719	2.59
439.926	2.72
440.132	2.73
440.338	2.42
440.544	2.63
440.751	2.55
440.957	2.57
441.163	2.42
441.369	2.54
441.575	2.28
441.782	2.29
441.988	2.12
442.194	2.24
442.4	2.19
442.606	2.47
442.812	2.64
443.018	2.83
443.224	2.86
443.431	2.98
443.637	2.73
443.843	2.6
444.049	2.54
444.255	2.52
444.461	2.51
444.667	2.51
444.873	2.67
445.079	2.65
445.284	2.71
445.49	2.49
445.696	2.45
445.902	2.27
446.108	2.18
446.314	2.15
446.52	2.26
446.726	2.5
446.931	2.58
447.137	2.7
447.343	2.76
447.549	2.78
447.755	2.52
447.96	2.6
448.166	2.42
448.372	2.32
448.578	2.33
448.783	2.46
448.989	2.53
449.195	2.79
449.4	2.79
449.606	2.72
449.812	2.63
450.017	2.61
450.223	2.45
450.428	2.44
450.634	2.66
450.84	2.79
451.045	2.66
451.251	2.61
451.456	2.93
451.662	2.91
451.867	2.96
452.073	3.05
452.278	3.27
452.483	3.27
452.689	3.17
452.894	3.19
453.1	3.16
453.305	3.05
453.51	2.93
453.716	2.88
453.921	2.85
454.127	2.8
454.332	2.74
454.537	2.62
454.742	2.62
454.948	2.59
455.153	2.65
455.358	2.73
455.563	2.97
455.769	3.07
455.974	3.07
456.179	2.96
456.384	2.91
456.589	2.73
456.795	2.54
457	2.46
457.205	2.68
457.41	2.65
457.615	2.71
457.82	2.85
458.025	3.02
458.23	2.89
