Data from Ofra_1a_PS_1GT43_Reflection_1.txt Node
Date: Tue Jul 20 10:45:49 EDT 2021
User: Adam
Spectrometer: FLMT01687
Trigger mode: 0
Integration Time (sec): 1.004000E0
Scans to average: 2
Electric dark correction enabled: true
Nonlinearity correction enabled: false
Boxcar width: 2
XAxis mode: Wavelengths
Number of Pixels in Spectrum: 3648
>>>>>Begin Spectral Data<<<<<
179.494	189.34
179.716	119.85
179.937	6.35
180.158	87.26
180.38	86.84
180.601	-47.27
180.823	-83.32
181.044	-306.56
181.265	-470.88
181.486	212.64
181.708	-49.03
181.929	9554.55
182.15	-200.71
182.372	1043.84
182.593	473.26
182.814	-264.01
183.035	27.59
183.257	28.13
183.478	13.59
183.699	-13.4
183.92	-54.64
184.141	-80.75
184.363	-62.25
184.584	-86.01
184.805	-26.84
185.026	42.28
185.247	32.7
185.468	24.43
185.689	49.48
185.91	57.34
186.132	28
186.353	27.77
186.574	27.21
186.795	25.73
187.016	33.2
187.237	31.75
187.458	35.96
187.679	59.29
187.9	70.24
188.121	76.99
188.342	88.7
188.563	92.25
188.784	61.19
189.005	22.65
189.226	17.68
189.447	-0.84
189.667	-19.12
189.888	-26.85
190.109	-31.57
190.33	-2.72
190.551	6.09
190.772	21.09
190.993	12.82
191.214	23.63
191.434	6.33
191.655	-15.65
191.876	4.45
192.097	30.69
192.318	51.42
192.538	16.12
192.759	8.47
192.98	23.92
193.201	21.83
193.421	13.59
193.642	25.75
193.863	43.01
194.083	36.15
194.304	51.72
194.525	39.84
194.745	27.7
194.966	19.85
195.187	22.05
195.407	5.94
195.628	13.49
195.848	18.68
196.069	7.92
196.29	8.23
196.51	9.32
196.731	-1.47
196.951	5.07
197.172	13.65
197.392	7.84
197.613	23.3
197.833	5.11
198.054	2.98
198.274	-3.18
198.495	7.5
198.715	-5.69
198.936	32.56
199.156	39.87
199.377	49.06
199.597	35.66
199.817	46.34
200.038	34.4
200.258	26.13
200.479	25.59
200.699	21.86
200.919	8.16
201.14	-0.77
201.36	-17.42
201.58	-34.42
201.801	-50.33
202.021	-43.77
202.241	-36.28
202.461	-9.13
202.682	14.87
202.902	25.24
203.122	15.68
203.342	29.63
203.563	10
203.783	-5.74
204.003	-20.18
204.223	15.96
204.443	-4.68
204.663	-0.88
204.884	24.72
205.104	39.34
205.324	-20.21
205.544	3.99
205.764	39.94
205.984	32.49
206.204	27.48
206.424	32.04
206.644	10.51
206.864	-47.02
207.084	-37.32
207.304	-63.95
207.525	-40.87
207.745	-26.03
207.964	2.74
208.184	8.38
208.404	25.4
208.624	37.48
208.844	41.78
209.064	32.15
209.284	18.26
209.504	-6.94
209.724	-29.72
209.944	-27.34
210.164	-36.18
210.384	-34.46
210.604	-63.49
210.823	-78.88
211.043	-64.65
211.263	-107.79
211.483	-42.49
211.703	-8.33
211.922	9.47
212.142	29.52
212.362	63.32
212.582	46.61
212.801	47.87
213.021	62.36
213.241	27
213.461	-2.24
213.68	16.08
213.9	18.17
214.12	9.05
214.339	24.3
214.559	27.5
214.779	5.55
214.998	24.85
215.218	29.72
215.438	23.22
215.657	20.56
215.877	12.22
216.096	16.87
216.316	9.75
216.535	9.12
216.755	6.36
216.974	34.07
217.194	19.81
217.413	17.01
217.633	6.18
217.852	8.08
218.072	5.43
218.291	15.15
218.511	11.42
218.73	9.92
218.95	-3.59
219.169	-23.45
219.389	-18.89
219.608	-4.34
219.827	18.49
220.047	40.45
220.266	46.11
220.485	40.61
220.705	36.15
220.924	-5.05
221.143	16.64
221.363	30.5
221.582	19.95
221.801	6.51
222.021	27.06
222.24	23.87
222.459	23.21
222.678	30.63
222.897	26.39
223.117	32.17
223.336	22.02
223.555	28.03
223.774	42.62
223.993	63.35
224.213	79.08
224.432	70.84
224.651	53.07
224.87	53.57
225.089	56.84
225.308	53.14
225.527	27.92
225.746	23.74
225.965	2.13
226.184	-33.45
226.404	-38.76
226.623	-5.74
226.842	-1.44
227.061	9.23
227.28	44.17
227.499	44.27
227.718	38.78
227.936	41.83
228.155	37.72
228.374	32.6
228.593	30.29
228.812	27.93
229.031	41.95
229.25	31.34
229.469	25.26
229.688	18.19
229.907	31.25
230.125	23.94
230.344	25.93
230.563	28.82
230.782	28.92
231.001	28.77
231.22	12.89
231.438	21.9
231.657	15.21
231.876	12.5
232.095	9.99
232.313	32.3
232.532	15.64
232.751	10.85
232.969	22.88
233.188	19.46
233.407	9.78
233.625	20.74
233.844	31.49
234.063	23.6
234.281	21.93
234.5	24.52
234.719	24.71
234.937	5.47
235.156	-1.21
235.374	-3.67
235.593	8.39
235.811	17.22
236.03	39.94
236.249	44.02
236.467	56.35
236.686	44.03
236.904	42.68
237.123	36.6
237.341	40
237.559	33.42
237.778	55.14
237.996	49.09
238.215	29.35
238.433	-21.02
238.652	-20.98
238.87	-25.59
239.088	-29
239.307	-14.05
239.525	9.36
239.743	15.36
239.962	-20.08
240.18	-2.42
240.398	7.71
240.617	1.27
240.835	-6.78
241.053	28.68
241.271	19.63
241.49	15.35
241.708	18.69
241.926	10.52
242.144	-7.61
242.363	-21.25
242.581	-61.46
242.799	-85.63
243.017	-37.23
243.235	-24.18
243.453	-25.02
243.672	0.09
243.89	17.04
244.108	25.35
244.326	42.9
244.544	44.29
244.762	26.76
244.98	27.52
245.198	28.31
245.416	18.24
245.634	25.69
245.852	21.51
246.07	28.73
246.288	21.45
246.506	13.48
246.724	-1.59
246.942	14.87
247.16	7.42
247.378	-1.95
247.596	17.16
247.814	16.16
248.032	5.21
248.25	40.76
248.468	34
248.685	28.25
248.903	21.08
249.121	25.4
249.339	16.75
249.557	22.4
249.775	27.41
249.992	38.08
250.21	27.98
250.428	22.83
250.646	23.89
250.863	10.48
251.081	13.74
251.299	13.93
251.517	-0.49
251.734	-3.07
251.952	7.08
252.17	-7.12
252.387	-10.65
252.605	-6.79
252.823	-20.98
253.04	13.35
253.258	36.46
253.475	51.58
253.693	51
253.911	35.88
254.128	11.32
254.346	0.43
254.563	-6.44
254.781	-2.88
254.998	2.3
255.216	-13.43
255.433	-22.34
255.651	-0.15
255.868	3.55
256.086	17.15
256.303	25.15
256.521	38.55
256.738	26.8
256.956	18.81
257.173	1.11
257.39	4.37
257.608	-2.12
257.825	-1.84
258.043	18.62
258.26	22.96
258.477	19.83
258.695	20.8
258.912	14.98
259.129	-1.37
259.346	-6.03
259.564	15.78
259.781	4.43
259.998	25.14
260.216	22.41
260.433	19.97
260.65	-0.25
260.867	11.86
261.084	15.74
261.302	13.32
261.519	34.39
261.736	38.07
261.953	34.9
262.17	26.11
262.387	24.14
262.604	15.12
262.822	19.44
263.039	17.73
263.256	14.87
263.473	10.29
263.69	6.09
263.907	15.82
264.124	45.28
264.341	48.6
264.558	50.97
264.775	64.58
264.992	58.24
265.209	11.74
265.426	18.29
265.643	30.87
265.86	57.88
266.077	60.66
266.294	74.24
266.51	64.74
266.727	61.16
266.944	46.76
267.161	42.15
267.378	36.83
267.595	12.33
267.812	0.6
268.028	-16.58
268.245	-9.79
268.462	-0.11
268.679	34.53
268.896	55.8
269.112	53.86
269.329	44.81
269.546	52.45
269.763	29.4
269.979	17.84
270.196	40.19
270.413	37.29
270.629	23.72
270.846	29.52
271.063	31.98
271.279	9.59
271.496	9.7
271.712	19.93
271.929	16.35
272.146	0.08
272.362	17.33
272.579	5.57
272.795	-2.24
273.012	-6.5
273.228	18.74
273.445	8.99
273.661	15.88
273.878	13.06
274.094	21.14
274.311	10.32
274.527	-5.13
274.744	15.76
274.96	10.03
275.177	-0.6
275.393	8.75
275.609	24.18
275.826	20.3
276.042	22.41
276.259	26.23
276.475	15.62
276.691	-7.63
276.908	-18.74
277.124	-0.29
277.34	-9.15
277.557	-5.2
277.773	16.28
277.989	18.55
278.205	2.35
278.422	11.88
278.638	12.74
278.854	17.94
279.07	41.06
279.286	43.1
279.503	46.8
279.719	51.85
279.935	41.53
280.151	15.62
280.367	23.96
280.583	16.23
280.799	8.55
281.016	-16.18
281.232	5.62
281.448	-11.16
281.664	-9.71
281.88	4.59
282.096	18.99
282.312	24.74
282.528	30.22
282.744	30.66
282.96	10.5
283.176	-3.75
283.392	-41.14
283.608	-49.24
283.824	-36.21
284.04	-39.9
284.256	-28.2
284.471	-18
284.687	-15.68
284.903	-17.59
285.119	-12.75
285.335	-0.34
285.551	-5.57
285.767	3.43
285.982	-4.33
286.198	-13.12
286.414	-40.51
286.63	-8.4
286.846	-26.97
287.061	7.61
287.277	20.45
287.493	36.39
287.709	27.49
287.924	40.12
288.14	43.71
288.356	50.85
288.571	67.85
288.787	57.25
289.003	58.27
289.218	42.88
289.434	15.97
289.65	18.78
289.865	14.86
290.081	4.99
290.296	10.45
290.512	23.06
290.727	-5.53
290.943	6.58
291.159	9.62
291.374	6.72
291.59	12.22
291.805	15.2
292.021	1.96
292.236	12.48
292.451	11.55
292.667	-6.62
292.882	3.53
293.098	15.93
293.313	-3.11
293.529	0.24
293.744	5.84
293.959	17.86
294.175	17.34
294.39	18.22
294.605	36.94
294.821	36.37
295.036	40.56
295.251	47.71
295.467	53.62
295.682	35.36
295.897	27.5
296.112	10.26
296.328	12.7
296.543	2.36
296.758	2.65
296.973	15.35
297.188	24.43
297.404	-22.38
297.619	-18.83
297.834	-60.9
298.049	-66.3
298.264	-42.47
298.479	-22.77
298.694	14.11
298.909	33.04
299.125	43.69
299.34	26.22
299.555	24.56
299.77	28.96
299.985	33.34
300.2	26.4
300.415	26.84
300.63	28.79
300.845	6.23
301.06	-6.67
301.275	-5.43
301.49	13.62
301.704	14.18
301.919	13.22
302.134	24.19
302.349	23.26
302.564	12.28
302.779	9.91
302.994	20.35
303.209	12.27
303.423	8.9
303.638	17.25
303.853	4.96
304.068	-4.22
304.283	-3.85
304.497	-15.85
304.712	-7.14
304.927	0.34
305.142	15.27
305.356	37
305.571	34.92
305.786	32.48
306	53.61
306.215	32.89
306.43	-9.03
306.644	-9.13
306.859	-12.31
307.074	-4.77
307.288	20.07
307.503	42.85
307.717	52.34
307.932	43.51
308.147	37.01
308.361	30.07
308.576	17.19
308.79	3.15
309.005	5.91
309.219	11
309.434	5.02
309.648	-3.78
309.863	-1.07
310.077	-20.18
310.292	-2.14
310.506	-12.24
310.72	-8.4
310.935	21.98
311.149	34.94
311.364	19.96
311.578	42.46
311.792	55.03
312.007	31.74
312.221	24.2
312.435	34.37
312.649	20.24
312.864	26.45
313.078	32.43
313.292	32.46
313.507	38.89
313.721	31.35
313.935	34.02
314.149	41.95
314.363	54.58
314.578	52.15
314.792	54.29
315.006	26.1
315.22	21.82
315.434	23.11
315.648	-2.08
315.862	4.48
316.077	13.53
316.291	3.77
316.505	-23.32
316.719	-14.26
316.933	-4.02
317.147	-7.54
317.361	3.47
317.575	6.9
317.789	10.7
318.003	10.36
318.217	24.9
318.431	2.37
318.645	2.21
318.859	11.36
319.073	17.64
319.287	10.64
319.5	16.66
319.714	17.95
319.928	12
320.142	6.81
320.356	12.54
320.57	-5.31
320.784	0.07
320.997	-2.23
321.211	27.12
321.425	7.7
321.639	30.08
321.853	36.69
322.066	31.87
322.28	15.85
322.494	33.26
322.707	34.82
322.921	27.8
323.135	34.43
323.349	21.22
323.562	8.61
323.776	17.54
323.989	22.34
324.203	12.82
324.417	21.31
324.63	20.49
324.844	-5.52
325.057	-24.29
325.271	-8.33
325.485	-20.69
325.698	-1.12
325.912	10.53
326.125	3.7
326.339	15.11
326.552	10.94
326.766	-6.65
326.979	-8.03
327.193	6.63
327.406	-8.99
327.619	20.66
327.833	26.68
328.046	25.35
328.26	14.97
328.473	26.18
328.686	10.91
328.9	26.23
329.113	21.48
329.326	29.35
329.54	20.81
329.753	27.43
329.966	16.82
330.179	18.14
330.393	14.59
330.606	3.83
330.819	-17.4
331.032	-21.49
331.246	-6.88
331.459	3.98
331.672	5.79
331.885	10.55
332.098	30.91
332.311	15.34
332.525	7.57
332.738	17.59
332.951	20.19
333.164	14.43
333.377	18.58
333.59	13.45
333.803	5.83
334.016	10
334.229	0.84
334.442	-2.05
334.655	10.6
334.868	8.46
335.081	0.83
335.294	3.83
335.507	12.46
335.72	5.22
335.933	11.19
336.146	30.02
336.359	31.35
336.572	39.12
336.785	37.57
336.997	17.07
337.21	13.63
337.423	-18.8
337.636	-26.12
337.849	-25.2
338.062	3.88
338.274	0.39
338.487	3.54
338.7	-3.98
338.913	19.64
339.125	0.27
339.338	1.04
339.551	3.84
339.763	7.48
339.976	-7.36
340.189	-10.59
340.402	0.79
340.614	25.42
340.827	20.24
341.039	23.76
341.252	29.69
341.465	4.7
341.677	-12.14
341.89	-10.93
342.102	1.78
342.315	6.01
342.527	20
342.74	10.26
342.952	24.5
343.165	15.95
343.377	23.18
343.59	24.18
343.802	31.11
344.015	24.1
344.227	19.55
344.44	-5.7
344.652	-2.8
344.864	8.33
345.077	14.85
345.289	27.95
345.502	51.04
345.714	39.91
345.926	34.24
346.139	20.46
346.351	23.24
346.563	26.75
346.775	47.73
346.988	53.04
347.2	65.55
347.412	53.75
347.624	48.54
347.837	52.78
348.049	44.11
348.261	36.74
348.473	25.7
348.685	-0.75
348.897	-25.83
349.11	-23.5
349.322	-19.23
349.534	-17.6
349.746	-5.98
349.958	-7.73
350.17	-5.02
350.382	-13.14
350.594	7.54
350.806	32.04
351.018	37.55
351.23	41.68
351.442	65.55
351.654	56.63
351.866	50.11
352.078	57.37
352.29	59.72
352.502	33.03
352.714	40.11
352.926	18.14
353.138	14.54
353.35	6.89
353.561	16.46
353.773	3.22
353.985	27.7
354.197	27.27
354.409	23.05
354.621	18.29
354.832	31.77
355.044	13.63
355.256	14.57
355.468	8.52
355.679	7.96
355.891	6.11
356.103	1.12
356.314	-10.35
356.526	-17.72
356.738	-20.57
356.949	-18.65
357.161	11.77
357.373	18.01
357.584	26.32
357.796	26.23
358.008	25.9
358.219	11.88
358.431	7.18
358.642	14.44
358.854	12.01
359.065	-2.11
359.277	-0.18
359.488	1.39
359.7	-0.45
359.911	-2.59
360.123	8.76
360.334	4.33
360.546	1.24
360.757	-4.76
360.969	-5.92
361.18	-0.26
361.391	9.58
361.603	13.48
361.814	16.02
362.025	21.5
362.237	17.97
362.448	18.54
362.659	14.15
362.871	3.07
363.082	-2.86
363.293	-6.6
363.504	-22.38
363.716	-37.77
363.927	-5.13
364.138	-14.93
364.349	-21.75
364.56	-38.87
364.772	-14.01
364.983	-14.75
365.194	12.61
365.405	19.97
365.616	44.39
365.827	25.1
366.038	26.66
366.25	17.26
366.461	22.97
366.672	19.04
366.883	33.55
367.094	40.12
367.305	29.3
367.516	23.96
367.727	6.89
367.938	-4.66
368.149	-16.53
368.36	-11.29
368.571	-30.66
368.781	-16.89
368.992	-2.15
369.203	-4.19
369.414	-13.57
369.625	2.61
369.836	24.44
370.047	23.86
370.258	38.17
370.468	40.8
370.679	40.3
370.89	23.37
371.101	23.97
371.312	4.31
371.522	2.95
371.733	-3.56
371.944	-7.75
372.155	4.02
372.365	20.54
372.576	19.36
372.787	33.1
372.997	36.49
373.208	27.56
373.419	20.46
373.629	19.17
373.84	5.12
374.05	-6.04
374.261	-10.25
374.472	3.56
374.682	10.97
374.893	9.37
375.103	15.24
375.314	14.26
375.524	2.79
375.735	15.95
375.945	22.47
376.156	26.02
376.366	30.62
376.577	32.9
376.787	16.91
376.997	14.07
377.208	15.18
377.418	12.78
377.629	6.36
377.839	9.12
378.049	9.75
378.26	0.46
378.47	-2.17
378.68	4.16
378.89	6.34
379.101	11.78
379.311	20.09
379.521	14.25
379.732	24.43
379.942	19.84
380.152	18.38
380.362	13.05
380.572	22.45
380.783	33.01
380.993	34.26
381.203	27.26
381.413	35.1
381.623	29.34
381.833	20.56
382.043	13.04
382.253	13.53
382.463	17.04
382.674	25.01
382.884	25.38
383.094	28.46
383.304	29.2
383.514	23.16
383.724	14.57
383.934	2.42
384.144	6.74
384.353	8.07
384.563	11.46
384.773	14.84
384.983	14.31
385.193	12.14
385.403	9.25
385.613	7.33
385.823	3.35
386.033	8.63
386.242	6.23
386.452	5.68
386.662	-0.04
386.872	6.86
387.082	2.74
387.291	3.73
387.501	7.01
387.711	16.91
387.921	17.13
388.13	19.2
388.34	21.39
388.55	16.08
388.759	11.73
388.969	10.4
389.179	11.79
389.388	5.74
389.598	6.97
389.807	4.32
390.017	1.07
390.227	-0.41
390.436	3.93
390.646	2
390.855	2.03
391.065	1.53
391.274	2.44
391.484	1.29
391.693	4.28
391.903	5.61
392.112	6.99
392.322	5.23
392.531	4.77
392.74	4.57
392.95	4.67
393.159	4.82
393.369	5.65
393.578	5.85
393.787	5.86
393.997	4.98
394.206	4.14
394.415	4.28
394.625	3.1
394.834	2.67
395.043	2.92
395.252	5.95
395.462	7.03
395.671	8.67
395.88	9.48
396.089	9.64
396.298	7.56
396.508	6.79
396.717	5.79
396.926	4.35
397.135	4.5
397.344	4.38
397.553	4.88
397.762	5.98
397.971	6.57
398.181	6.65
398.39	6.77
398.599	6.93
398.808	6.29
399.017	7.02
399.226	7.09
399.435	7.13
399.644	6.91
399.853	7.17
400.062	6.49
400.27	6.15
400.479	6.09
400.688	5.99
400.897	5.71
401.106	5.89
401.315	5.86
401.524	5.95
401.733	5.52
401.941	5.82
402.15	5.64
402.359	5.79
402.568	5.79
402.777	6.04
402.985	5.62
403.194	5.58
403.403	5.7
403.612	5.49
403.82	5.17
404.029	5.4
404.238	5.61
404.446	5.41
404.655	5.58
404.864	5.88
405.072	5.86
405.281	5.8
405.489	5.78
405.698	5.73
405.906	5.75
406.115	5.67
406.324	5.66
406.532	5.9
406.741	5.81
406.949	5.89
407.158	5.94
407.366	5.82
407.574	5.79
407.783	5.96
407.991	5.92
408.2	5.89
408.408	5.93
408.617	5.82
408.825	5.52
409.033	5.44
409.242	5.48
409.45	5.42
409.658	5.38
409.867	5.43
410.075	5.44
410.283	5.32
410.491	5.31
410.7	5.21
410.908	5.32
411.116	5.41
411.324	5.45
411.533	5.44
411.741	5.44
411.949	5.38
412.157	5.21
412.365	5.23
412.573	5.2
412.781	5.15
412.99	5.23
413.198	5.24
413.406	5.29
413.614	5.38
413.822	5.51
414.03	5.46
414.238	5.56
414.446	5.58
414.654	5.52
414.862	5.4
415.07	5.27
415.278	5.17
415.486	4.99
415.694	4.89
415.902	4.86
416.109	4.91
416.317	5.01
416.525	4.97
416.733	5.05
416.941	5.07
417.149	4.94
417.357	4.83
417.564	4.8
417.772	4.81
417.98	4.8
418.188	4.81
418.395	4.48
418.603	4.45
418.811	4.39
419.019	4.46
419.226	4.67
419.434	4.85
419.642	4.73
419.849	4.75
420.057	4.73
420.265	4.49
420.472	4.58
420.68	4.74
420.887	4.69
421.095	4.69
421.302	4.79
421.51	4.74
421.717	4.7
421.925	4.67
422.132	4.71
422.34	4.72
422.547	4.75
422.755	4.91
422.962	5.02
423.17	4.89
423.377	4.88
423.585	5.06
423.792	4.91
423.999	4.72
424.207	4.73
424.414	4.57
424.621	4.54
424.829	4.56
425.036	4.65
425.243	4.73
425.451	4.82
425.658	4.66
425.865	4.68
426.072	4.77
426.28	4.78
426.487	4.76
426.694	4.74
426.901	4.78
427.108	4.68
427.315	4.68
427.523	4.69
427.73	4.68
427.937	4.51
428.144	4.45
428.351	4.37
428.558	4.34
428.765	4.33
428.972	4.34
429.179	4.26
429.386	4.3
429.593	4.18
429.8	4.2
430.007	4.35
430.214	4.48
430.421	4.58
430.628	4.82
430.835	4.85
431.042	4.77
431.249	4.9
431.456	4.85
431.662	4.95
431.869	5.15
432.076	5.17
432.283	5.17
432.49	5.14
432.697	5.06
432.903	4.94
433.11	5.14
433.317	5.14
433.524	5.17
433.73	5.1
433.937	5.13
434.144	4.81
434.35	4.65
434.557	4.69
434.764	4.82
434.97	4.74
435.177	4.88
435.384	5.09
435.59	5.05
435.797	5.06
436.003	5
436.21	4.96
436.416	4.99
436.623	5.07
436.829	5.03
437.036	5.04
437.242	5.25
437.449	5.08
437.655	5.08
437.862	5.01
438.068	5.13
438.275	5.05
438.481	5.18
438.687	5.18
438.894	5.44
439.1	5.44
439.307	5.42
439.513	5.49
439.719	5.5
439.926	5.38
440.132	5.43
440.338	5.43
440.544	5.37
440.751	5.35
440.957	5.44
441.163	5.34
441.369	5.33
441.575	5.3
441.782	5.4
441.988	5.39
442.194	5.41
442.4	5.45
442.606	5.68
442.812	5.73
443.018	5.75
443.224	5.94
443.431	5.98
443.637	5.83
443.843	5.8
444.049	5.75
444.255	5.68
444.461	5.57
444.667	5.56
444.873	5.56
445.079	5.58
445.284	5.62
445.49	5.76
445.696	5.74
445.902	5.83
446.108	5.89
446.314	5.82
446.52	5.9
446.726	6.02
446.931	5.89
447.137	5.82
447.343	5.87
447.549	5.84
447.755	5.75
447.96	5.88
448.166	5.88
448.372	5.93
448.578	5.83
448.783	5.87
448.989	5.82
449.195	5.84
449.4	5.79
449.606	5.94
449.812	5.86
450.017	5.95
450.223	5.92
450.428	5.96
450.634	5.93
450.84	6.05
451.045	5.92
451.251	5.98
451.456	5.96
451.662	5.96
451.867	5.94
452.073	6.04
452.278	6.06
452.483	6.12
452.689	6.14
452.894	6.14
453.1	6.04
453.305	6.04
453.51	5.99
453.716	5.98
453.921	6.01
454.127	6.06
454.332	6.05
454.537	6.03
454.742	6
454.948	5.95
455.153	5.98
455.358	6.05
455.563	6.03
455.769	6.04
455.974	6.08
456.179	6.04
456.384	5.92
456.589	5.97
456.795	5.94
457	5.88
457.205	5.85
457.41	5.94
457.615	5.99
457.82	6.09
458.025	6.17
458.23	6.28
458.435	6.31
458.64	6.36
458.845	6.36
459.05	6.24
459.255	6.1
459.46	5.96
459.665	5.91
459.87	5.83
460.075	5.97
460.28	6.06
460.485	6.28
460.69	6.26
460.895	6.41
461.099	6.32
461.304	6.31
461.509	6.2
461.714	6.27
461.919	6.14
462.123	6.18
462.328	6.11
462.533	6.05
462.738	6.01
462.942	6.09
463.147	6.16
463.352	6.24
463.556	6.33
463.761	6.3
463.966	6.23
464.17	6.33
464.375	6.38
464.58	6.35
464.784	6.47
464.989	6.55
465.193	6.44
465.398	6.52
465.602	6.69
465.807	6.7
466.011	6.65
466.216	6.63
466.42	6.56
466.625	6.5
466.829	6.38
467.034	6.53
467.238	6.73
467.443	6.86
467.647	6.86
467.851	6.95
468.056	6.87
468.26	6.84
468.464	6.83
468.669	6.83
