Data from OFra_PS_T2_2A_0CX04_Reflection_3.txt Node
Date: Wed Jul 21 16:49:02 EDT 2021
User: Adam
Spectrometer: FLMT01687
Trigger mode: 0
Integration Time (sec): 1.100000E0
Scans to average: 2
Electric dark correction enabled: true
Nonlinearity correction enabled: false
Boxcar width: 2
XAxis mode: Wavelengths
Number of Pixels in Spectrum: 3648
>>>>>Begin Spectral Data<<<<<
179.494	360.2
179.716	406.12
179.937	397.03
180.158	401.56
180.38	673.91
180.601	317.27
180.823	129.99
181.044	85.9
181.265	166.36
181.486	108.91
181.708	115.99
181.929	516.84
182.15	-318.66
182.372	83.7
182.593	144.86
182.814	48.32
183.035	70.22
183.257	66.44
183.478	-17.5
183.699	-23.57
183.92	13.75
184.141	-6.76
184.363	-45.01
184.584	-10.9
184.805	6.34
185.026	19.08
185.247	30.04
185.468	30.67
185.689	19.25
185.91	27.46
186.132	13.67
186.353	-11.79
186.574	15.86
186.795	27.05
187.016	3.76
187.237	4.93
187.458	38.5
187.679	35
187.9	23.53
188.121	6
188.342	26.99
188.563	20.4
188.784	-5.63
189.005	-3.88
189.226	18.92
189.447	-0.2
189.667	-163.71
189.888	-201.6
190.109	-457.47
190.33	-265.97
190.551	-648.89
190.772	-125.24
190.993	-142.06
191.214	-111.63
191.434	-76.11
191.655	14.94
191.876	-18.34
192.097	-24.87
192.318	-59.27
192.538	-27.64
192.759	-59.91
192.98	18.48
193.201	27.1
193.421	40.22
193.642	26.39
193.863	22.38
194.083	2.06
194.304	4.78
194.525	6.83
194.745	-19.31
194.966	-33.49
195.187	-20.68
195.407	-37.15
195.628	-101.66
195.848	-63.29
196.069	-33.42
196.29	-14.64
196.51	-11.15
196.731	-18.76
196.951	-37.79
197.172	-62.13
197.392	-75.79
197.613	-76.86
197.833	-55.53
198.054	-26.56
198.274	4.21
198.495	-15.24
198.715	3.8
198.936	-19.14
199.156	-27.34
199.377	-80.94
199.597	-65.98
199.817	-84.38
200.038	-25.5
200.258	-47.45
200.479	-25.9
200.699	-1.28
200.919	62.47
201.14	55.63
201.36	59.23
201.58	61.31
201.801	66.37
202.021	29.54
202.241	20.57
202.461	16.12
202.682	-23.58
202.902	-81.55
203.122	-23.67
203.342	-16.66
203.563	11.76
203.783	9.57
204.003	-10.41
204.223	-1.41
204.443	24.69
204.663	-24.27
204.884	-16.2
205.104	6.37
205.324	-14.66
205.544	-15.02
205.764	23.21
205.984	33.48
206.204	39.67
206.424	32.01
206.644	17.02
206.864	15.74
207.084	-25.56
207.304	-44.78
207.525	-116.64
207.745	-37.95
207.964	12.82
208.184	4.55
208.404	-14.13
208.624	1.57
208.844	-23.41
209.064	-210.43
209.284	-233.48
209.504	-113.93
209.724	-54.74
209.944	-39.46
210.164	-19.05
210.384	0.11
210.604	-25.54
210.823	-44.27
211.043	-43.94
211.263	-27.6
211.483	-25.9
211.703	-21.15
211.922	-13.59
212.142	36.44
212.362	32.44
212.582	-8.21
212.801	-9.24
213.021	-6.29
213.241	-43.08
213.461	-53.63
213.68	-43.46
213.9	-32.38
214.12	-42.82
214.339	-57.69
214.559	-52.24
214.779	-16.99
214.998	-8.17
215.218	-24.78
215.438	-0.61
215.657	19.02
215.877	42.94
216.096	24.38
216.316	38.38
216.535	11.39
216.755	24.01
216.974	-34.14
217.194	-45.47
217.413	-43.07
217.633	-11.16
217.852	-86.04
218.072	-23.66
218.291	3.77
218.511	3.44
218.73	-17.3
218.95	-16.77
219.169	-23.84
219.389	-62.45
219.608	-37.57
219.827	-36.15
220.047	-22.16
220.266	-2.8
220.485	25.77
220.705	33.41
220.924	29.15
221.143	32.69
221.363	16.13
221.582	1.12
221.801	-13.88
222.021	-6.15
222.24	-86.07
222.459	-133.95
222.678	-110.52
222.897	-107.48
223.117	-158.65
223.336	-123.62
223.555	-53.26
223.774	-3.71
223.993	6.99
224.213	57.12
224.432	42.04
224.651	61.56
224.87	32.98
225.089	28.47
225.308	12.19
225.527	33.83
225.746	36.66
225.965	34.73
226.184	11.18
226.404	29.05
226.623	15.8
226.842	1.62
227.061	13.06
227.28	18.71
227.499	9.29
227.718	8.35
227.936	4.59
228.155	13.41
228.374	23.07
228.593	18.21
228.812	27.38
229.031	10.57
229.25	-26.07
229.469	-13.06
229.688	-12.15
229.907	10.64
230.125	37.26
230.344	55.49
230.563	32.69
230.782	38.78
231.001	-23.11
231.22	-39.06
231.438	-43.9
231.657	-29.04
231.876	-58.13
232.095	-11.23
232.313	-3.11
232.532	-22.83
232.751	-21.82
232.969	-12.93
233.188	-47.79
233.407	-12.35
233.625	5.11
233.844	-26.78
234.063	-15.59
234.281	-3.06
234.5	-27.72
234.719	-22.78
234.937	8.57
235.156	20.28
235.374	23.53
235.593	29.44
235.811	28.11
236.03	9.43
236.249	-7.56
236.467	5.1
236.686	19.6
236.904	21.1
237.123	1.24
237.341	-4.6
237.559	-4.86
237.778	-23.17
237.996	-43.32
238.215	-1.03
238.433	8.38
238.652	1.17
238.87	-4.37
239.088	-6.42
239.307	-5.67
239.525	-9.11
239.743	-8.34
239.962	-6.31
240.18	0.87
240.398	-18.11
240.617	-33.64
240.835	-26.39
241.053	-20.42
241.271	-7.66
241.49	12.74
241.708	6.09
241.926	-32.51
242.144	-21.23
242.363	-51.46
242.581	-72.99
242.799	-37.17
243.017	-16.73
243.235	-10.94
243.453	1.44
243.672	1.51
243.89	2.83
244.108	5.25
244.326	7.84
244.544	10.92
244.762	12.3
244.98	10.39
245.198	24.83
245.416	6.2
245.634	-3.42
245.852	-6.58
246.07	-2.21
246.288	-22.47
246.506	-11.7
246.724	-11.93
246.942	-11.15
247.16	10.73
247.378	13.92
247.596	20.14
247.814	30.33
248.032	18.26
248.25	0.13
248.468	14.03
248.685	26.65
248.903	42.63
249.121	46.81
249.339	37.73
249.557	21.05
249.775	-4.54
249.992	-52.18
250.21	-59.61
250.428	-49.25
250.646	-79.2
250.863	-62.08
251.081	-41.39
251.299	-51.33
251.517	-32.73
251.734	-16.13
251.952	-14.6
252.17	-18.08
252.387	2.77
252.605	-1.56
252.823	12.9
253.04	4.73
253.258	13.85
253.475	-4.1
253.693	4.57
253.911	-7.89
254.128	4.34
254.346	-10.7
254.563	1.76
254.781	-15.72
254.998	-13.32
255.216	-27.1
255.433	8.44
255.651	18.62
255.868	22.83
256.086	28.27
256.303	32.34
256.521	22.67
256.738	1.61
256.956	-5.74
257.173	-12.57
257.39	-11.09
257.608	-30.88
257.825	12.64
258.043	42.38
258.26	47.58
258.477	53.9
258.695	52.19
258.912	26.19
259.129	21.98
259.346	-0.08
259.564	-12.55
259.781	-17.43
259.998	8.52
260.216	10.23
260.433	26.08
260.65	33.4
260.867	40.83
261.084	32.21
261.302	19.83
261.519	18.69
261.736	-1.69
261.953	-16.12
262.17	13.12
262.387	-14.79
262.604	-15.62
262.822	-23.67
263.039	-20.23
263.256	-42.63
263.473	9.11
263.69	2.6
263.907	21.86
264.124	28.72
264.341	16.13
264.558	13.49
264.775	30.88
264.992	26.36
265.209	16.66
265.426	25.47
265.643	25.51
265.86	24.66
266.077	28.22
266.294	24.8
266.51	1.19
266.727	-22.34
266.944	-26.31
267.161	-29.03
267.378	-10.52
267.595	-1.89
267.812	-18.84
268.028	-44.56
268.245	-30.88
268.462	-33.99
268.679	-21.69
268.896	18.07
269.112	15.08
269.329	17.41
269.546	6.91
269.763	-9.57
269.979	-14.4
270.196	0.44
270.413	-46.57
270.629	-35.13
270.846	-20.18
271.063	-28.79
271.279	-23.08
271.496	11.46
271.712	16.66
271.929	19.28
272.146	11.34
272.362	2.34
272.579	-0.85
272.795	9.39
273.012	12.04
273.228	22.09
273.445	27.22
273.661	35.96
273.878	32.24
274.094	30.37
274.311	15.02
274.527	23.25
274.744	22.94
274.96	6.68
275.177	12.64
275.393	24.45
275.609	25.45
275.826	27.89
276.042	28.71
276.259	36.02
276.475	36.69
276.691	33.55
276.908	28.54
277.124	39.07
277.34	33.77
277.557	19.17
277.773	14.95
277.989	6.17
278.205	-2.37
278.422	1.73
278.638	-2.24
278.854	4.38
279.07	15.91
279.286	26.63
279.503	11.41
279.719	20.83
279.935	6.56
280.151	-13.56
280.367	-15.37
280.583	-31.31
280.799	-12.33
281.016	-40.16
281.232	-1.97
281.448	-3.94
281.664	16.6
281.88	-10.57
282.096	15.26
282.312	8.04
282.528	5.81
282.744	-1.4
282.96	19.26
283.176	10.15
283.392	11.59
283.608	14.77
283.824	15.72
284.04	23.44
284.256	26.46
284.471	22.5
284.687	10.33
284.903	29.11
285.119	23
285.335	22.26
285.551	8.86
285.767	16.42
285.982	-5.55
286.198	-19.83
286.414	-0.08
286.63	17.41
286.846	14.75
287.061	18.01
287.277	38.39
287.493	25.64
287.709	29.12
287.924	24.15
288.14	39.4
288.356	31.87
288.571	39.52
288.787	34.12
289.003	49.61
289.218	27.76
289.434	5.05
289.65	8.43
289.865	2.97
290.081	-10.4
290.296	10.43
290.512	20.82
290.727	-0.47
290.943	-2.84
291.159	0.23
291.374	-3.5
291.59	-15.29
291.805	-1.86
292.021	10.98
292.236	-5.23
292.451	1.8
292.667	6.74
292.882	9.65
293.098	8.56
293.313	26.84
293.529	-11.76
293.744	-18.89
293.959	-19.15
294.175	-23.76
294.39	-2.61
294.605	21.43
294.821	36.94
295.036	40.5
295.251	34.85
295.467	23.77
295.682	4.19
295.897	-22.36
296.112	-17.73
296.328	-18.6
296.543	-28.93
296.758	-15.57
296.973	-6.14
297.188	8.15
297.404	2.27
297.619	7.57
297.834	5.34
298.049	-4.68
298.264	-21.88
298.479	-5.18
298.694	-3.52
298.909	7.24
299.125	17.41
299.34	36.46
299.555	31.12
299.77	20.05
299.985	-5.96
300.2	-29.55
300.415	-53.65
300.63	-37.34
300.845	-29.43
301.06	-32.4
301.275	-15.52
301.49	-9.82
301.704	-11.42
301.919	-16.2
302.134	-11.72
302.349	-16.4
302.564	-39.61
302.779	-32.43
302.994	-36.87
303.209	-17.89
303.423	-22.58
303.638	24.98
303.853	4.93
304.068	13.08
304.283	14.15
304.497	27.32
304.712	14.68
304.927	13.48
305.142	15.22
305.356	17.9
305.571	6.73
305.786	-7.55
306	-4.54
306.215	-2.53
306.43	-3.85
306.644	9.35
306.859	12.15
307.074	11.26
307.288	-22.35
307.503	-53.21
307.717	-36.53
307.932	-28.64
308.147	-28.64
308.361	-19.04
308.576	-17.57
308.79	-45.95
309.005	-37.09
309.219	-24.91
309.434	-24.9
309.648	-18.29
309.863	-4.63
310.077	13.49
310.292	-1.7
310.506	0.62
310.72	19.16
310.935	15.19
311.149	8.24
311.364	24.29
311.578	41.04
311.792	25.73
312.007	37.53
312.221	31.29
312.435	23.78
312.649	5.65
312.864	-12.95
313.078	-7.55
313.292	-5.34
313.507	-24.92
313.721	-48.2
313.935	30.54
314.149	22.92
314.363	26.59
314.578	28.95
314.792	35.65
315.006	12.61
315.22	12.59
315.434	3.35
315.648	16.71
315.862	7.33
316.077	14.96
316.291	9.31
316.505	36.97
316.719	27.82
316.933	48.96
317.147	41.77
317.361	8.01
317.575	-22.1
317.789	-21.71
318.003	-114.43
318.217	-86.33
318.431	-11.45
318.645	11.75
318.859	3.8
319.073	41.19
319.287	40.11
319.5	21.72
319.714	1.02
319.928	2.18
320.142	-39.1
320.356	-25.2
320.57	-17.27
320.784	-5.73
320.997	-42.37
321.211	-28.73
321.425	-53.13
321.639	-62.37
321.853	-41.66
322.066	-13.19
322.28	-14.17
322.494	-12.2
322.707	-8.56
322.921	-8.63
323.135	-7.3
323.349	3.88
323.562	3.76
323.776	-9.25
323.989	-15.59
324.203	-16.33
324.417	-29.72
324.63	-42.5
324.844	-14.09
325.057	-7.21
325.271	-3.57
325.485	25.02
325.698	41.59
325.912	38.14
326.125	29.25
326.339	26.73
326.552	4.09
326.766	-3.01
326.979	3.6
327.193	18.18
327.406	10.49
327.619	13.48
327.833	18.09
328.046	6.11
328.26	-1.48
328.473	6.8
328.686	5.09
328.9	-4.37
329.113	14.93
329.326	-12.77
329.54	-1.01
329.753	-8.38
329.966	-10.28
330.179	-13.98
330.393	5.38
330.606	2.7
330.819	4.41
331.032	24.29
331.246	28.55
331.459	43.43
331.672	44.95
331.885	53.78
332.098	33.69
332.311	25.79
332.525	11.58
332.738	-2.67
332.951	-9.47
333.164	8.35
333.377	7.24
333.59	3.16
333.803	9.51
334.016	18.87
334.229	9.12
334.442	25.37
334.655	45.24
334.868	44.5
335.081	45.2
335.294	53.86
335.507	53.47
335.72	50.94
335.933	42.1
336.146	37.21
336.359	16.53
336.572	-5.78
336.785	-31.7
336.997	-25
337.21	-14.19
337.423	-2.69
337.636	2.92
337.849	12.12
338.062	9.17
338.274	12.54
338.487	9.31
338.7	4.95
338.913	-22.03
339.125	-31.36
339.338	-57.28
339.551	-28.39
339.763	-20.21
339.976	15.06
340.189	28.08
340.402	18.72
340.614	0.27
340.827	4.41
341.039	-5.35
341.252	6.11
341.465	12.32
341.677	22.53
341.89	12.5
342.102	15.21
342.315	-6.62
342.527	-31.96
342.74	-27.86
342.952	-18.09
343.165	-18.15
343.377	-9.37
343.59	0.22
343.802	-8.43
344.015	-21.44
344.227	-27.4
344.44	-21.43
344.652	-10.01
344.864	1.93
345.077	33.22
345.289	33.74
345.502	32.74
345.714	27.33
345.926	22.78
346.139	12.94
346.351	11.98
346.563	14.46
346.775	16.24
346.988	11.57
347.2	-3.39
347.412	-23.23
347.624	-20.55
347.837	-39.76
348.049	-24.35
348.261	-0.29
348.473	12.59
348.685	17.66
348.897	3.77
349.11	-11.89
349.322	-39.3
349.534	-41.18
349.746	-39.95
349.958	-31.45
350.17	-23.86
350.382	-6.82
350.594	-13.95
350.806	-13.09
351.018	9.51
351.23	10.81
351.442	-9.82
351.654	4.46
351.866	-0.11
352.078	1.09
352.29	-0.82
352.502	17.74
352.714	23.77
352.926	15.6
353.138	12.62
353.35	12.36
353.561	12.5
353.773	1.67
353.985	0.9
354.197	-4
354.409	-6.91
354.621	-18.37
354.832	-7.07
355.044	-12.61
355.256	-7.92
355.468	6.82
355.679	10.7
355.891	6.6
356.103	7.5
356.314	8.56
356.526	-3.34
356.738	-2.42
356.949	4.73
357.161	21.79
357.373	18.46
357.584	7.29
357.796	18.87
358.008	14.56
358.219	17.25
358.431	6.82
358.642	13.08
358.854	5.3
359.065	-8.61
359.277	-17.63
359.488	-17.84
359.7	-31.78
359.911	-41.91
360.123	-14.54
360.334	-28.84
360.546	-32.7
360.757	-19.26
360.969	7.77
361.18	-13.26
361.391	5.9
361.603	4.6
361.814	10.02
362.025	3.02
362.237	3
362.448	7.11
362.659	16.47
362.871	3.37
363.082	3.36
363.293	14.35
363.504	4.58
363.716	-9.15
363.927	-1.67
364.138	-12.06
364.349	-22.88
364.56	-17.06
364.772	-10.2
364.983	5.65
365.194	8.46
365.405	20.05
365.616	38.26
365.827	40.54
366.038	27.65
366.25	13.27
366.461	-2.74
366.672	-18
366.883	2.33
367.094	13.55
367.305	14.1
367.516	19.06
367.727	1.04
367.938	-12.35
368.149	-17.3
368.36	-12.01
368.571	-17.33
368.781	-13.66
368.992	-13.88
369.203	-33.21
369.414	-33.89
369.625	-39.17
369.836	-30.56
370.047	-53.57
370.258	-34.86
370.468	-25.97
370.679	-16.64
370.89	-14.01
371.101	4.31
371.312	9.56
371.522	-0.06
371.733	-4.72
371.944	-1.66
372.155	4.61
372.365	-5.62
372.576	4.15
372.787	7.77
372.997	-6.4
373.208	-9.63
373.419	12.76
373.629	-13.1
373.84	-6.96
374.05	-15.16
374.261	-24.24
374.472	-37.88
374.682	2.5
374.893	1.97
375.103	25.12
375.314	36.68
375.524	42.98
375.735	34.68
375.945	27.29
376.156	18.53
376.366	15.08
376.577	2.92
376.787	3.09
376.997	12.41
377.208	16.82
377.418	14.42
377.629	17.92
377.839	11.6
378.049	6.23
378.26	12.38
378.47	16.25
378.68	11.23
378.89	17.91
379.101	15.61
379.311	-8.29
379.521	-32.6
379.732	-20.58
379.942	-22.99
380.152	-30.36
380.362	2.94
380.572	11.74
380.783	19.63
380.993	16.55
381.203	21.95
381.413	9.09
381.623	8.28
381.833	3.91
382.043	0.37
382.253	-4.32
382.463	8.46
382.674	-0.44
382.884	-10.92
383.094	-0.93
383.304	10.98
383.514	12.05
383.724	14.54
383.934	20.46
384.144	5.58
384.353	-7.41
384.563	-19.58
384.773	-11.09
384.983	-15.3
385.193	1.52
385.403	7.04
385.613	14.99
385.823	3.74
386.033	3.52
386.242	-5.88
386.452	-7.14
386.662	-13.49
386.872	5.84
387.082	6.12
387.291	8.59
387.501	9.31
387.711	11.01
387.921	1.45
388.13	6.33
388.34	15.74
388.55	12.69
388.759	9.51
388.969	9.95
389.179	5.47
389.388	-1.08
389.598	4.81
389.807	4.12
390.017	2.02
390.227	1
390.436	1.83
390.646	-2.98
390.855	1.66
391.065	-0.16
391.274	1.04
391.484	0.98
391.693	2.35
391.903	2.98
392.112	9.29
392.322	8.26
392.531	10.02
392.74	11.83
392.95	8.85
393.159	6.82
393.369	8.99
393.578	7.89
393.787	7.4
393.997	9.17
394.206	9.07
394.415	8.5
394.625	9.01
394.834	7.82
395.043	7.44
395.252	9.32
395.462	9.2
395.671	9.49
395.88	9.59
396.089	9.43
396.298	6.98
396.508	7.42
396.717	6.97
396.926	8.12
397.135	8.46
397.344	9.17
397.553	10.13
397.762	10.71
397.971	10.55
398.181	10.98
398.39	11.01
398.599	10.38
398.808	10.28
399.017	10.43
399.226	11.2
399.435	11.44
399.644	11.33
399.853	10.97
400.062	10.66
400.27	9.95
400.479	9.57
400.688	9.1
400.897	9.49
401.106	9.65
401.315	9.71
401.524	10.05
401.733	10.68
401.941	10.83
402.15	10.59
402.359	10.28
402.568	10.17
402.777	10.26
402.985	9.83
403.194	10.02
403.403	9.79
403.612	9.61
403.82	9.14
404.029	9.32
404.238	9.3
404.446	9.55
404.655	9.54
404.864	9.65
405.072	9.42
405.281	9.25
405.489	9.27
405.698	9.37
405.906	9.26
406.115	9.22
406.324	9.26
406.532	9.29
406.741	9.29
406.949	9.5
407.158	9.76
407.366	9.85
407.574	9.83
407.783	9.79
407.991	9.61
408.2	9.4
408.408	9.29
408.617	9.16
408.825	9.03
409.033	9.15
409.242	9.18
409.45	9.21
409.658	9.2
409.867	9.35
410.075	9.18
410.283	9.15
410.491	9.1
410.7	9.16
410.908	9.11
411.116	9.38
411.324	9.37
411.533	9.26
411.741	9.19
411.949	9.06
412.157	8.66
412.365	8.67
412.573	8.62
412.781	8.72
412.99	8.82
413.198	9
413.406	8.98
413.614	8.98
413.822	8.82
414.03	8.83
414.238	8.59
414.446	8.59
414.654	8.48
414.862	8.44
415.07	8.38
415.278	8.66
415.486	8.5
415.694	8.7
415.902	8.73
416.109	8.69
416.317	8.46
416.525	8.43
416.733	8.41
416.941	8.53
417.149	8.54
417.357	8.48
417.564	8.59
417.772	8.43
417.98	8.22
418.188	8.09
418.395	8.16
418.603	8.16
418.811	8.07
419.019	8.09
419.226	8.18
419.434	8.25
419.642	8.1
419.849	8.25
420.057	8.19
420.265	8.24
420.472	8.14
420.68	8.02
420.887	7.99
421.095	7.93
421.302	7.85
421.51	7.84
421.717	8.06
421.925	8
422.132	8
422.34	7.78
422.547	7.7
422.755	7.53
422.962	7.52
423.17	7.48
423.377	7.58
423.585	7.55
423.792	7.53
423.999	7.43
424.207	7.5
424.414	7.5
424.621	7.36
424.829	7.45
425.036	7.59
425.243	7.61
425.451	7.46
425.658	7.66
425.865	7.57
426.072	7.44
426.28	7.52
426.487	7.76
426.694	7.78
426.901	7.77
427.108	7.89
427.315	7.83
427.523	7.8
427.73	7.62
427.937	7.63
428.144	7.51
428.351	7.5
428.558	7.49
428.765	7.58
428.972	7.65
429.179	7.82
429.386	8.09
429.593	8.13
429.8	8.18
430.007	8.36
430.214	8.36
430.421	7.99
430.628	7.81
430.835	7.8
431.042	7.84
431.249	7.95
431.456	8.18
431.662	8.34
431.869	8.43
432.076	8.31
432.283	8.39
432.49	8.36
432.697	8.39
432.903	8.4
433.11	8.56
433.317	8.49
433.524	8.59
433.73	8.7
433.937	8.71
434.144	8.73
434.35	8.83
434.557	8.7
434.764	8.78
434.97	8.9
435.177	8.93
435.384	8.94
435.59	9.08
435.797	9.23
436.003	9.25
436.21	9.25
436.416	9.31
436.623	9.34
436.829	9.29
437.036	9.36
437.242	9.39
437.449	9.33
437.655	9.41
437.862	9.48
438.068	9.43
438.275	9.55
438.481	9.72
438.687	9.84
438.894	9.77
439.1	9.9
439.307	10.03
439.513	9.99
439.719	9.95
439.926	10.09
440.132	10.11
440.338	9.99
440.544	10.15
440.751	10.04
440.957	10.15
441.163	10.16
441.369	10.33
441.575	10.23
441.782	10.37
441.988	10.26
442.194	10.27
442.4	10.25
442.606	10.36
442.812	10.49
443.018	10.55
443.224	10.56
443.431	10.57
443.637	10.55
443.843	10.43
444.049	10.49
444.255	10.56
444.461	10.63
444.667	10.73
444.873	10.91
445.079	10.84
445.284	10.94
445.49	10.82
445.696	10.71
445.902	10.7
446.108	10.79
446.314	10.87
446.52	10.87
446.726	11.09
446.931	11.12
447.137	11.11
447.343	11.04
447.549	11.16
447.755	11.08
447.96	11.09
448.166	11.06
448.372	11.04
448.578	11.06
448.783	11.11
448.989	11.2
449.195	11.35
449.4	11.48
449.606	11.56
449.812	11.55
450.017	11.47
450.223	11.46
450.428	11.37
450.634	11.36
450.84	11.45
451.045	11.52
451.251	11.51
451.456	11.71
451.662	11.68
451.867	11.7
452.073	11.73
452.278	11.81
452.483	11.77
452.689	11.77
452.894	11.72
453.1	11.63
453.305	11.64
453.51	11.6
453.716	11.63
453.921	11.65
454.127	11.69
454.332	11.61
454.537	11.63
454.742	11.6
454.948	11.53
455.153	11.66
455.358	11.77
455.563	11.82
455.769	11.99
455.974	12.07
456.179	11.98
456.384	11.95
456.589	11.86
456.795	11.75
457	11.72
457.205	11.8
457.41	11.96
457.615	12.06
457.82	12.18
458.025	12.25
458.23	12.27
458.435	12.23
458.64	12.11
458.845	12.16
459.05	12.16
459.255	12.17
459.46	12.09
459.665	12.18
459.87	12.15
460.075	12.14
460.28	12.14
460.485	12.23
460.69	12.27
460.895	12.18
461.099	12.21
461.304	12.15
461.509	12.13
461.714	12.07
461.919	12.19
462.123	12.21
462.328	12.41
462.533	12.45
462.738	12.52
462.942	12.5
463.147	12.55
463.352	12.5
