Data from Ofra_2a_PS_6EV18_Reflection_2.txt Node
Date: Tue Jul 20 09:53:06 EDT 2021
User: Adam
Spectrometer: FLMT01687
Trigger mode: 0
Integration Time (sec): 9.450000E-1
Scans to average: 3
Electric dark correction enabled: true
Nonlinearity correction enabled: false
Boxcar width: 3
XAxis mode: Wavelengths
Number of Pixels in Spectrum: 3648
>>>>>Begin Spectral Data<<<<<
179.494	1165.68
179.716	770.16
179.937	729.12
180.158	3074.61
180.38	-1429.94
180.601	-192.84
180.823	-25.41
181.044	50.3
181.265	80.5
181.486	79.96
181.708	1175
181.929	-19.42
182.15	-933.52
182.372	215.43
182.593	52.31
182.814	240.87
183.035	126.55
183.257	62.11
183.478	64.2
183.699	68.58
183.92	53.21
184.141	52.33
184.363	50.67
184.584	33.1
184.805	40.66
185.026	29.33
185.247	15.99
185.468	30.21
185.689	17.91
185.91	12.14
186.132	20.09
186.353	6.97
186.574	13.18
186.795	-5.47
187.016	0.83
187.237	14.66
187.458	-3.73
187.679	-22.2
187.9	-5.37
188.121	-4.41
188.342	33.03
188.563	23.6
188.784	7.91
189.005	22.35
189.226	30.38
189.447	20.91
189.667	30
189.888	31.68
190.109	29.48
190.33	33.7
190.551	33.69
190.772	35.26
190.993	33.16
191.214	26.25
191.434	29.23
191.655	40.44
191.876	32.2
192.097	21.96
192.318	19.72
192.538	20.39
192.759	25.4
192.98	20.35
193.201	20.31
193.421	36.24
193.642	42.8
193.863	46.23
194.083	50.66
194.304	48.36
194.525	46.57
194.745	24.55
194.966	14.32
195.187	17.04
195.407	18.63
195.628	20.42
195.848	17.58
196.069	19.14
196.29	28.01
196.51	23.53
196.731	41.63
196.951	33.56
197.172	29.37
197.392	33.64
197.613	23.63
197.833	25.37
198.054	30.07
198.274	1.26
198.495	13.68
198.715	-1.8
198.936	-4.32
199.156	3.99
199.377	2.03
199.597	-6.58
199.817	14.73
200.038	14.34
200.258	37.1
200.479	35.28
200.699	48.57
200.919	42.89
201.14	46.55
201.36	53.02
201.58	58.77
201.801	46.59
202.021	40.62
202.241	38.55
202.461	39.57
202.682	41.15
202.902	30.92
203.122	21.33
203.342	25.69
203.563	36.79
203.783	29.88
204.003	34.65
204.223	35.52
204.443	39.16
204.663	43.06
204.884	37.4
205.104	33.25
205.324	42.27
205.544	48.32
205.764	43.15
205.984	42.67
206.204	39.18
206.424	39.77
206.644	28.71
206.864	21.9
207.084	21.02
207.304	21.62
207.525	14.71
207.745	15.64
207.964	14.09
208.184	11.79
208.404	2.73
208.624	-13.2
208.844	-26.34
209.064	-16.29
209.284	-13.77
209.504	-21.33
209.724	-29.79
209.944	-18.79
210.164	-5.35
210.384	9.02
210.604	-8.28
210.823	-7.7
211.043	-12.65
211.263	1.48
211.483	4.87
211.703	2.15
211.922	4.23
212.142	27.33
212.362	28.38
212.582	34.04
212.801	28.87
213.021	33.54
213.241	43.65
213.461	35.71
213.68	30.03
213.9	36.42
214.12	22.54
214.339	26.77
214.559	31.56
214.779	34.03
214.998	34.37
215.218	33.85
215.438	42.17
215.657	51.06
215.877	51.8
216.096	53.89
216.316	48.15
216.535	50.94
216.755	31.38
216.974	15.26
217.194	9.94
217.413	24.79
217.633	8.45
217.852	-5.89
218.072	1.24
218.291	31.77
218.511	32.9
218.73	25.04
218.95	11.44
219.169	15.97
219.389	13.29
219.608	14.36
219.827	-2.77
220.047	-4.04
220.266	8.42
220.485	13.71
220.705	9.11
220.924	10.41
221.143	-0.75
221.363	-3.54
221.582	-7.35
221.801	8.77
222.021	10.29
222.24	5.18
222.459	7.07
222.678	3.63
222.897	11.54
223.117	12.97
223.336	0.58
223.555	-13.04
223.774	-1.53
223.993	5.56
224.213	7.21
224.432	1.41
224.651	-0.37
224.87	-3.42
225.089	2.78
225.308	-2.76
225.527	-11.65
225.746	-6.3
225.965	-6.32
226.184	-11.86
226.404	-18.18
226.623	-14.92
226.842	-13.88
227.061	-5.34
227.28	-0.86
227.499	14.06
227.718	17.7
227.936	12.47
228.155	17.14
228.374	19.31
228.593	17.84
228.812	12.26
229.031	-0.45
229.25	8.6
229.469	23.99
229.688	25.91
229.907	19.03
230.125	18.72
230.344	19.08
230.563	26.09
230.782	12.77
231.001	13.63
231.22	13.26
231.438	27.41
231.657	35.82
231.876	33.7
232.095	30.51
232.313	40.48
232.532	36.51
232.751	32.78
232.969	40.34
233.188	38.03
233.407	41.88
233.625	49.5
233.844	45.63
234.063	46.71
234.281	34.22
234.5	28.12
234.719	26.94
234.937	29.79
235.156	18.82
235.374	16.21
235.593	10
235.811	7.97
236.03	-19.85
236.249	-4.19
236.467	11.52
236.686	16.76
236.904	12.83
237.123	17.16
237.341	20.66
237.559	27.6
237.778	13.73
237.996	10.13
238.215	8.74
238.433	11.01
238.652	6.16
238.87	5.04
239.088	3.08
239.307	12.72
239.525	-2.49
239.743	-9.76
239.962	-0.41
240.18	-0.17
240.398	11.27
240.617	20.4
240.835	21.76
241.053	40.4
241.271	50.37
241.49	33.85
241.708	38.15
241.926	23.98
242.144	14.75
242.363	4.9
242.581	-1.89
242.799	-18.34
243.017	-6.15
243.235	-13.14
243.453	3.17
243.672	13.74
243.89	16.06
244.108	30.54
244.326	32.34
244.544	35.04
244.762	35.56
244.98	31.55
245.198	13.67
245.416	15.97
245.634	10.37
245.852	26.84
246.07	27.3
246.288	30.26
246.506	35.72
246.724	51.25
246.942	52.17
247.16	43.29
247.378	32.22
247.596	33.84
247.814	19.14
248.032	19.65
248.25	5.26
248.468	8.49
248.685	14.1
248.903	4.44
249.121	6.44
249.339	20.38
249.557	16.84
249.775	5.26
249.992	-6.24
250.21	-12.61
250.428	-0.93
250.646	-3.12
250.863	-3.67
251.081	-7.11
251.299	21.75
251.517	37.34
251.734	41.71
251.952	43.41
252.17	29.47
252.387	29.53
252.605	35.67
252.823	27.2
253.04	24.1
253.258	18.28
253.475	17.43
253.693	38.94
253.911	44
254.128	31.9
254.346	28.6
254.563	16.58
254.781	14.84
254.998	9.79
255.216	4.21
255.433	1.72
255.651	10.12
255.868	14.72
256.086	32.62
256.303	38.47
256.521	47.75
256.738	43.1
256.956	36.77
257.173	24.79
257.39	33.05
257.608	31.05
257.825	27.44
258.043	29.52
258.26	33.09
258.477	39.67
258.695	43.7
258.912	43.68
259.129	29.26
259.346	34.96
259.564	39.98
259.781	50.39
259.998	44.98
260.216	57.44
260.433	53.3
260.65	65.98
260.867	53.5
261.084	45.26
261.302	29.91
261.519	15.11
261.736	3.93
261.953	8.6
262.17	9.14
262.387	11.61
262.604	4.56
262.822	6.23
263.039	20.3
263.256	13.89
263.473	3
263.69	16.21
263.907	32.57
264.124	26.36
264.341	18.49
264.558	23.7
264.775	34.72
264.992	36.3
265.209	29.15
265.426	16.48
265.643	21.55
265.86	26.38
266.077	26.26
266.294	19.49
266.51	25.18
266.727	20.77
266.944	15.58
267.161	6.19
267.378	14.15
267.595	5.37
267.812	4.72
268.028	3.96
268.245	2.8
268.462	20.49
268.679	26.68
268.896	20.39
269.112	31.77
269.329	38.08
269.546	31.01
269.763	41.92
269.979	31.57
270.196	35.53
270.413	35.12
270.629	23.36
270.846	22.8
271.063	31.7
271.279	20.64
271.496	13.49
271.712	1.77
271.929	1.79
272.146	6.59
272.362	-18.92
272.579	-22.77
272.795	-15.18
273.012	-1.8
273.228	-0.08
273.445	5.49
273.661	-2.7
273.878	18.22
274.094	17.7
274.311	13.59
274.527	11.58
274.744	14.5
274.96	10.55
275.177	18.02
275.393	13.07
275.609	20.85
275.826	19.8
276.042	30.51
276.259	25.06
276.475	25.92
276.691	30.89
276.908	28.01
277.124	21.69
277.34	15.82
277.557	9.86
277.773	12.2
277.989	9.37
278.205	-2.5
278.422	8.61
278.638	17.89
278.854	23.25
279.07	13.87
279.286	23.23
279.503	29.58
279.719	39.8
279.935	29.08
280.151	27
280.367	23.74
280.583	25.93
280.799	30.71
281.016	30.74
281.232	21.09
281.448	16.76
281.664	15.04
281.88	23.51
282.096	34.49
282.312	10.52
282.528	2.26
282.744	6.31
282.96	15.21
283.176	15.71
283.392	22.82
283.608	20.11
283.824	32.02
284.04	37.86
284.256	33.61
284.471	35.34
284.687	36.21
284.903	25.01
285.119	12.19
285.335	11.19
285.551	11.15
285.767	19.18
285.982	6.91
286.198	0.89
286.414	24.59
286.63	34.88
286.846	31.91
287.061	39.11
287.277	37.74
287.493	50.53
287.709	44.8
287.924	36.97
288.14	33.46
288.356	37.95
288.571	9.35
288.787	15.85
289.003	17.77
289.218	23.81
289.434	15.38
289.65	18.43
289.865	17.44
290.081	22.31
290.296	24.15
290.512	24.25
290.727	25.32
290.943	24.44
291.159	16.13
291.374	17.28
291.59	15.04
291.805	12.46
292.021	-5.4
292.236	-7.04
292.451	-4.37
292.667	0.89
292.882	0.26
293.098	4.6
293.313	-3.24
293.529	6.56
293.744	3.91
293.959	7.61
294.175	6.66
294.39	10.01
294.605	20.13
294.821	21.74
295.036	22.71
295.251	31.1
295.467	21.15
295.682	26.87
295.897	22.28
296.112	26.71
296.328	29.74
296.543	23.44
296.758	24.68
296.973	30.75
297.188	22.97
297.404	30.21
297.619	25.43
297.834	28.73
298.049	31.73
298.264	23.18
298.479	18.32
298.694	28.79
298.909	15.43
299.125	17.84
299.34	17.8
299.555	22.28
299.77	18.15
299.985	13.74
300.2	4.39
300.415	12.82
300.63	4.91
300.845	4.12
301.06	1.24
301.275	7.2
301.49	21.28
301.704	22.82
301.919	20.74
302.134	20.15
302.349	7.76
302.564	3.04
302.779	9.42
302.994	-4.73
303.209	-7.64
303.423	4.29
303.638	16.33
303.853	20.93
304.068	35.04
304.283	32.03
304.497	36.25
304.712	38.11
304.927	20.04
305.142	14.21
305.356	20.98
305.571	15.65
305.786	13.47
306	15.82
306.215	15.93
306.43	32.21
306.644	28.05
306.859	25.68
307.074	15.81
307.288	17.02
307.503	8.22
307.717	1.15
307.932	4.48
308.147	5.2
308.361	1.8
308.576	0.66
308.79	0.39
309.005	-0.51
309.219	13.31
309.434	5.17
309.648	6.84
309.863	11.52
310.077	11.37
310.292	9.6
310.506	28.29
310.72	17.4
310.935	20.78
311.149	24.81
311.364	32.68
311.578	34.55
311.792	28.25
312.007	17.4
312.221	23.63
312.435	21.02
312.649	19.99
312.864	0.81
313.078	10.33
313.292	24.8
313.507	30.92
313.721	31.95
313.935	48.92
314.149	40.59
314.363	54.52
314.578	75.94
314.792	69.55
315.006	71.8
315.22	74.19
315.434	60.72
315.648	51.63
315.862	37.26
316.077	25.56
316.291	33.07
316.505	35.24
316.719	9.99
316.933	14.92
317.147	20.85
317.361	30.19
317.575	30.62
317.789	27.1
318.003	21.87
318.217	37.07
318.431	32.46
318.645	37.96
318.859	24.36
319.073	21.34
319.287	18.36
319.5	17.34
319.714	12.55
319.928	18.65
320.142	15.82
320.356	33
320.57	27.66
320.784	32.71
320.997	35.76
321.211	32.02
321.425	22.92
321.639	21.98
321.853	10.9
322.066	17.02
322.28	15.03
322.494	12.69
322.707	12.78
322.921	17.29
323.135	19.95
323.349	20.25
323.562	17.83
323.776	24.83
323.989	20.82
324.203	26.28
324.417	21.12
324.63	12.8
324.844	10.4
325.057	12.59
325.271	-4.49
325.485	-2.96
325.698	-6.96
325.912	6.87
326.125	10.98
326.339	8.97
326.552	5.31
326.766	11.43
326.979	14.21
327.193	13.2
327.406	0.01
327.619	-10.52
327.833	-8.11
328.046	0.43
328.26	-0.84
328.473	-0.64
328.686	7.69
328.9	6.95
329.113	13.93
329.326	23.39
329.54	2
329.753	8.35
329.966	10.79
330.179	6.16
330.393	11.14
330.606	14.39
330.819	15.73
331.032	24.28
331.246	21
331.459	17.09
331.672	16.1
331.885	0.29
332.098	-3.64
332.311	-21.4
332.525	0.57
332.738	1.05
332.951	4.07
333.164	-2.05
333.377	4.54
333.59	16.04
333.803	29.35
334.016	14.77
334.229	19.97
334.442	22.96
334.655	41.86
334.868	53.95
335.081	44.52
335.294	33.38
335.507	38.36
335.72	22.74
335.933	30.48
336.146	23.55
336.359	16.52
336.572	12.06
336.785	17.78
336.997	20.04
337.21	25.52
337.423	16.76
337.636	12.15
337.849	12.15
338.062	21.95
338.274	23.03
338.487	15.19
338.7	25.11
338.913	12.12
339.125	14.14
339.338	17.82
339.551	15.99
339.763	14.94
339.976	15.3
340.189	10.13
340.402	17.43
340.614	20.22
340.827	9.09
341.039	8.36
341.252	9.36
341.465	8.62
341.677	-3.95
341.89	-1.47
342.102	0.98
342.315	17.91
342.527	11.37
342.74	14.47
342.952	19.94
343.165	42.5
343.377	45.37
343.59	37.04
343.802	29
344.015	28.01
344.227	19.86
344.44	10.73
344.652	6.66
344.864	8.82
345.077	10.85
345.289	14.17
345.502	13.1
345.714	14.56
345.926	20.01
346.139	13.81
346.351	4.13
346.563	5.45
346.775	1.85
346.988	5.59
347.2	10.15
347.412	14.48
347.624	21.4
347.837	24.44
348.049	22.61
348.261	17.45
348.473	12.63
348.685	17.51
348.897	10.89
349.11	9.66
349.322	-4.6
349.534	-7.75
349.746	5.43
349.958	12.81
350.17	10.73
350.382	6.69
350.594	6.47
350.806	18.96
351.018	24.32
351.23	24.54
351.442	28.17
351.654	28.77
351.866	39.5
352.078	32.98
352.29	35.18
352.502	35.63
352.714	29.72
352.926	23.91
353.138	18.77
353.35	7.72
353.561	8.93
353.773	8.86
353.985	14.03
354.197	14.21
354.409	18.2
354.621	19.18
354.832	16.83
355.044	27.39
355.256	21.04
355.468	10.24
355.679	17.24
355.891	16.45
356.103	20.24
356.314	20.78
356.526	12.16
356.738	6.79
356.949	15.75
357.161	8.92
357.373	9.6
357.584	10.84
357.796	15.28
358.008	19.31
358.219	33.41
358.431	26.79
358.642	23.58
358.854	18.23
359.065	15.51
359.277	12.87
359.488	1.65
359.7	1.35
359.911	-1.3
360.123	11.71
360.334	14.73
360.546	0.07
360.757	6.57
360.969	20.92
361.18	14.53
361.391	15.94
361.603	15.72
361.814	18.95
362.025	28.29
362.237	27.86
362.448	22.37
362.659	17.64
362.871	20.26
363.082	20.42
363.293	20.27
363.504	20.4
363.716	18.92
363.927	14.27
364.138	18.06
364.349	21.11
364.56	12.59
364.772	13.46
364.983	10.26
365.194	11.32
365.405	13.53
365.616	12.75
365.827	9.48
366.038	28.88
366.25	22.17
366.461	23.66
366.672	26.56
366.883	29.73
367.094	32.87
367.305	30.61
367.516	19.74
367.727	18.47
367.938	22.85
368.149	10.81
368.36	12.35
368.571	11.78
368.781	13.95
368.992	12.17
369.203	16
369.414	11.95
369.625	21.12
369.836	20.27
370.047	17.72
370.258	12.36
370.468	11.38
370.679	2.92
370.89	3.71
371.101	-4.48
371.312	-8.59
371.522	-3.43
371.733	-10.33
371.944	-3.52
372.155	-4.92
372.365	-1.02
372.576	-0.06
372.787	-3.18
372.997	-9.4
373.208	3.89
373.419	-0.7
373.629	8.09
373.84	2.13
374.05	11.29
374.261	9.08
374.472	8.1
374.682	0.78
374.893	-1.59
375.103	-2.21
375.314	-1.66
375.524	-7.2
375.735	0.97
375.945	7.07
376.156	19.45
376.366	22.24
376.577	22.12
376.787	22.79
376.997	28.9
377.208	22.73
377.418	15.6
377.629	4.05
377.839	6
378.049	6.08
378.26	7.91
378.47	9.74
378.68	13.51
378.89	11.13
379.101	2.84
379.311	1.78
379.521	-0.16
379.732	-6.94
379.942	-11.04
380.152	-2.47
380.362	6.53
380.572	17.39
380.783	15.37
380.993	21.47
381.203	19.77
381.413	16.38
381.623	9.05
381.833	3.39
382.043	-1.87
382.253	-2.1
382.463	-0.84
382.674	4.79
382.884	12.06
383.094	11.9
383.304	9.82
383.514	14.91
383.724	13.53
383.934	12.82
384.144	15.91
384.353	10.29
384.563	9.69
384.773	10.65
384.983	10.37
385.193	13.63
385.403	10.35
385.613	6.57
385.823	7.24
386.033	7.2
386.242	10.53
386.452	7.78
386.662	6.53
386.872	3.74
387.082	3.98
387.291	4.38
387.501	6.91
387.711	5.6
387.921	6.66
388.13	5.81
388.34	8.39
388.55	11.29
388.759	12.11
388.969	6.54
389.179	6.99
389.388	6.03
389.598	3.15
389.807	1.91
390.017	0.06
390.227	-2.53
390.436	-0.64
390.646	-0.19
390.855	-0.23
391.065	1.94
391.274	0.61
391.484	2.21
391.693	4.42
391.903	5.53
392.112	2.75
392.322	4.2
392.531	3.17
392.74	3.27
392.95	2.46
393.159	2.94
393.369	2.57
393.578	3.88
393.787	2.7
393.997	3.76
394.206	5.19
394.415	4.92
394.625	3.54
394.834	2.63
395.043	2.81
395.252	3.38
395.462	2.92
395.671	2.28
395.88	2.02
396.089	2.38
396.298	3.51
396.508	3.68
396.717	3.28
396.926	2.72
397.135	2.9
397.344	3.01
397.553	3.12
397.762	2.77
397.971	2.29
398.181	1.98
398.39	2.55
398.599	2.71
398.808	2.82
399.017	3.01
399.226	3.1
399.435	3.27
399.644	3.16
399.853	2.99
400.062	2.73
400.27	2.71
400.479	2.53
400.688	2.5
400.897	2.38
401.106	2.57
401.315	2.5
401.524	2.56
401.733	2.82
401.941	2.7
402.15	2.56
402.359	2.69
402.568	2.72
402.777	2.68
402.985	2.69
403.194	2.45
403.403	2.26
403.612	2.36
403.82	2.31
404.029	2.29
404.238	2.39
404.446	2.29
404.655	2.12
404.864	2.21
405.072	2.15
405.281	1.91
405.489	1.91
405.698	1.81
405.906	1.82
406.115	1.88
406.324	1.85
406.532	1.84
406.741	2.06
406.949	1.97
407.158	1.99
407.366	2.03
407.574	2.07
407.783	2.06
407.991	2.02
408.2	1.91
408.408	1.96
408.617	1.92
408.825	1.83
409.033	1.83
409.242	1.81
409.45	1.84
409.658	1.87
409.867	1.86
410.075	1.85
410.283	1.85
410.491	1.78
410.7	1.85
410.908	1.79
411.116	1.72
411.324	1.79
411.533	1.73
411.741	1.82
411.949	1.89
412.157	1.93
412.365	1.95
412.573	2.03
412.781	1.95
412.99	2.04
413.198	2.02
413.406	1.91
413.614	1.83
413.822	1.82
414.03	1.71
414.238	1.78
414.446	1.73
414.654	1.67
414.862	1.73
415.07	1.82
415.278	1.78
415.486	1.89
415.694	1.8
415.902	1.76
416.109	1.8
416.317	1.76
416.525	1.74
416.733	1.84
416.941	1.77
417.149	1.92
417.357	1.93
417.564	1.88
417.772	1.93
417.98	1.9
418.188	1.75
418.395	1.76
418.603	1.62
418.811	1.58
419.019	1.59
419.226	1.65
419.434	1.53
419.642	1.54
419.849	1.52
420.057	1.53
420.265	1.55
420.472	1.53
420.68	1.41
420.887	1.58
421.095	1.65
421.302	1.74
421.51	1.76
421.717	1.86
421.925	1.78
422.132	1.77
422.34	1.65
422.547	1.65
422.755	1.54
422.962	1.54
423.17	1.47
423.377	1.59
423.585	1.65
423.792	1.64
423.999	1.57
424.207	1.51
424.414	1.54
424.621	1.71
424.829	1.69
425.036	1.62
425.243	1.68
425.451	1.72
425.658	1.85
425.865	1.78
426.072	1.6
426.28	1.57
426.487	1.57
426.694	1.58
426.901	1.52
427.108	1.49
427.315	1.47
427.523	1.48
427.73	1.49
427.937	1.55
428.144	1.5
428.351	1.61
428.558	1.57
428.765	1.54
428.972	1.51
429.179	1.47
429.386	1.49
429.593	1.44
429.8	1.45
430.007	1.49
430.214	1.56
430.421	1.65
430.628	1.6
430.835	1.53
431.042	1.55
431.249	1.54
431.456	1.5
431.662	1.49
431.869	1.53
432.076	1.6
432.283	1.61
432.49	1.61
432.697	1.57
432.903	1.57
433.11	1.6
433.317	1.54
433.524	1.49
433.73	1.55
433.937	1.58
434.144	1.68
434.35	1.68
434.557	1.64
434.764	1.6
434.97	1.69
435.177	1.61
435.384	1.64
435.59	1.56
435.797	1.59
436.003	1.58
436.21	1.55
436.416	1.45
436.623	1.55
436.829	1.55
437.036	1.62
437.242	1.66
437.449	1.73
437.655	1.79
437.862	1.83
438.068	1.84
438.275	1.83
438.481	1.81
438.687	1.79
438.894	1.73
439.1	1.75
439.307	1.76
439.513	1.71
439.719	1.7
439.926	1.68
440.132	1.65
440.338	1.69
440.544	1.65
440.751	1.63
440.957	1.61
441.163	1.65
441.369	1.66
441.575	1.65
441.782	1.63
441.988	1.67
442.194	1.74
442.4	1.79
442.606	1.8
442.812	1.82
443.018	1.86
443.224	1.83
443.431	1.86
443.637	1.8
443.843	1.77
444.049	1.77
444.255	1.73
444.461	1.75
444.667	1.77
444.873	1.73
445.079	1.75
445.284	1.76
445.49	1.71
445.696	1.78
445.902	1.82
446.108	1.83
446.314	1.93
446.52	1.95
446.726	1.95
446.931	2.02
447.137	2
447.343	1.96
447.549	1.97
447.755	1.85
447.96	1.86
448.166	1.9
448.372	1.86
448.578	1.9
448.783	1.91
448.989	1.93
449.195	1.95
449.4	1.96
449.606	1.91
449.812	1.93
450.017	1.88
450.223	1.85
450.428	1.87
450.634	1.91
450.84	1.9
451.045	1.93
451.251	1.94
451.456	1.91
451.662	1.94
451.867	1.88
452.073	1.92
452.278	1.94
452.483	1.96
452.689	1.96
452.894	2
453.1	1.96
453.305	1.99
453.51	1.97
453.716	1.95
453.921	1.92
454.127	1.87
454.332	1.88
454.537	1.91
454.742	1.91
454.948	1.89
455.153	1.87
455.358	1.9
455.563	1.97
455.769	1.98
455.974	1.91
456.179	1.91
456.384	1.95
456.589	1.96
456.795	1.88
457	1.89
457.205	1.81
457.41	1.87
457.615	1.88
457.82	1.87
458.025	1.86
458.23	1.93
458.435	1.87
458.64	1.96
458.845	1.97
459.05	1.95
459.255	1.95
459.46	1.96
459.665	1.99
459.87	2.04
460.075	2.03
460.28	2.02
460.485	2.07
460.69	2
460.895	2.05
461.099	2.01
461.304	2.02
461.509	1.95
461.714	2.01
461.919	1.94
462.123	2
462.328	1.95
462.533	1.99
462.738	1.95
462.942	2.03
463.147	1.96
463.352	2.05
463.556	2.05
463.761	2.1
463.966	2.1
464.17	2.17
464.375	2.13
464.58	2.11
464.784	2.09
464.989	2.08
465.193	2.08
465.398	2.1
465.602	2.04
465.807	2.07
466.011	2.17
466.216	2.17
466.42	2.21
466.625	2.21
466.829	2.23
467.034	2.29
467.238	2.33
467.443	2.25
467.647	2.25
467.851	2.24
468.056	2.26
468.26	2.22
468.464	2.17
468.669	2.18
468.873	2.24
469.077	2.27
469.282	2.28
469.486	2.3
469.69	2.33
469.894	2.4
470.099	2.43
470.303	2.42
