Data from Ofra_2a_PS_1GT42_Reflection_3.txt Node
Date: Tue Jul 20 09:35:20 EDT 2021
User: Adam
Spectrometer: FLMT01687
Trigger mode: 0
Integration Time (sec): 9.450000E-1
Scans to average: 3
Electric dark correction enabled: true
Nonlinearity correction enabled: false
Boxcar width: 3
XAxis mode: Wavelengths
Number of Pixels in Spectrum: 3648
>>>>>Begin Spectral Data<<<<<
179.494	800.59
179.716	427.02
179.937	406.04
180.158	1194.14
180.38	-403.78
180.601	-42.1
180.823	60.21
181.044	79.18
181.265	-174.76
181.486	-69.22
181.708	-3153.26
181.929	-277.33
182.15	-952.84
182.372	123.19
182.593	42.89
182.814	336.38
183.035	249.48
183.257	137.89
183.478	108.81
183.699	92.14
183.92	71.54
184.141	67.12
184.363	58.22
184.584	50.82
184.805	42.9
185.026	15.41
185.247	19.87
185.468	-4.96
185.689	24.68
185.91	22.05
186.132	31.84
186.353	29.69
186.574	33.05
186.795	28.61
187.016	37.37
187.237	27.09
187.458	29
187.679	-2.31
187.9	20.47
188.121	38.15
188.342	55.87
188.563	72.3
188.784	68.36
189.005	75.58
189.226	82.72
189.447	78.29
189.667	58.41
189.888	57.8
190.109	39.8
190.33	32.82
190.551	18.05
190.772	16.78
190.993	20.15
191.214	29.71
191.434	23.48
191.655	41.16
191.876	49.71
192.097	50.12
192.318	47.11
192.538	49.28
192.759	55.02
192.98	34.69
193.201	41.8
193.421	46.97
193.642	50.85
193.863	65.62
194.083	41.49
194.304	22.61
194.525	49.88
194.745	21.07
194.966	14.7
195.187	18.12
195.407	19.99
195.628	29.14
195.848	39.5
196.069	36.07
196.29	37.44
196.51	29.82
196.731	41.38
196.951	40.74
197.172	36.49
197.392	24.17
197.613	13.74
197.833	10.8
198.054	11.8
198.274	-10.57
198.495	-17.85
198.715	-19.16
198.936	-31.93
199.156	-18.35
199.377	-7.53
199.597	-18.72
199.817	-1.29
200.038	10.81
200.258	13.77
200.479	19.66
200.699	24.71
200.919	5.48
201.14	16.53
201.36	13.68
201.58	13.21
201.801	11.96
202.021	19.56
202.241	16.56
202.461	36.42
202.682	41.27
202.902	39.87
203.122	41.31
203.342	48.98
203.563	45.12
203.783	44.33
204.003	41.33
204.223	41.88
204.443	47.68
204.663	43.15
204.884	39.04
205.104	38.49
205.324	50.5
205.544	52.81
205.764	65.13
205.984	50.73
206.204	55.59
206.424	51.08
206.644	54.3
206.864	48.66
207.084	45.01
207.304	33.97
207.525	32.89
207.745	35.31
207.964	43.17
208.184	23.36
208.404	26.34
208.624	16.62
208.844	0.17
209.064	8.9
209.284	10.55
209.504	6.55
209.724	0.61
209.944	2.91
210.164	6.54
210.384	20.44
210.604	6.26
210.823	-11.17
211.043	-29
211.263	-2.29
211.483	-5.24
211.703	-4.76
211.922	2.32
212.142	16.69
212.362	31.78
212.582	42.65
212.801	35.32
213.021	43.57
213.241	50.47
213.461	57.06
213.68	49.87
213.9	59.35
214.12	56.3
214.339	59.26
214.559	57.54
214.779	61.09
214.998	54.63
215.218	55.5
215.438	48.92
215.657	39.47
215.877	35.95
216.096	29.76
216.316	24.7
216.535	25.44
216.755	16.81
216.974	8.07
217.194	31.1
217.413	33.84
217.633	38.01
217.852	43.38
218.072	40.86
218.291	46.23
218.511	42.75
218.73	27.25
218.95	23.89
219.169	27.5
219.389	26.95
219.608	27.23
219.827	17.55
220.047	15.79
220.266	25.6
220.485	25.51
220.705	11.98
220.924	11.02
221.143	-0.17
221.363	3.68
221.582	7.57
221.801	11.23
222.021	13.96
222.24	16.21
222.459	11.11
222.678	24.04
222.897	4.17
223.117	0.03
223.336	-0.43
223.555	-13.89
223.774	-7.14
223.993	14.44
224.213	20.53
224.432	37.27
224.651	39.45
224.87	36.23
225.089	51.77
225.308	54.63
225.527	53.99
225.746	45.22
225.965	40.02
226.184	35.03
226.404	27.04
226.623	31.07
226.842	26.58
227.061	17.83
227.28	35.38
227.499	38.78
227.718	34.76
227.936	34.58
228.155	27.92
228.374	33.66
228.593	29.77
228.812	13.52
229.031	8.4
229.25	25.25
229.469	36.19
229.688	36.99
229.907	34.91
230.125	35.53
230.344	43.42
230.563	43.74
230.782	35.37
231.001	32.88
231.22	31.02
231.438	32.54
231.657	30.17
231.876	30.38
232.095	27.14
232.313	36.66
232.532	29.77
232.751	34.17
232.969	33.92
233.188	39.37
233.407	39.21
233.625	37.52
233.844	31.96
234.063	33.12
234.281	26.6
234.5	24.4
234.719	20.85
234.937	26.58
235.156	19.65
235.374	16.22
235.593	18.58
235.811	20.4
236.03	13.18
236.249	27.45
236.467	25.18
236.686	50.52
236.904	37.5
237.123	32.98
237.341	32.82
237.559	39.53
237.778	46.58
237.996	44.26
238.215	30.37
238.433	40.09
238.652	35.86
238.87	36.15
239.088	23.64
239.307	13.34
239.525	5.55
239.743	4.94
239.962	-6.58
240.18	2.3
240.398	9.76
240.617	24.03
240.835	31.09
241.053	44.09
241.271	48.19
241.49	52.8
241.708	49.16
241.926	34.13
242.144	39.8
242.363	28.45
242.581	27.78
242.799	15.3
243.017	15.07
243.235	2.94
243.453	2.81
243.672	-13.9
243.89	-5.87
244.108	-4.37
244.326	-5.13
244.544	-4.39
244.762	11.27
244.98	13.89
245.198	8.96
245.416	4.03
245.634	12.38
245.852	19.94
246.07	12.8
246.288	1.04
246.506	11.02
246.724	25.82
246.942	28.25
247.16	16.66
247.378	9.53
247.596	26.82
247.814	22.67
248.032	15.48
248.25	8.67
248.468	23.35
248.685	21.64
248.903	19.13
249.121	22
249.339	26.22
249.557	35.57
249.775	24.83
249.992	11.22
250.21	7.94
250.428	9.33
250.646	3.32
250.863	5.82
251.081	0.24
251.299	20.12
251.517	28.03
251.734	38.8
251.952	46.35
252.17	25.34
252.387	35.88
252.605	40.91
252.823	27.47
253.04	21.57
253.258	14.9
253.475	24.13
253.693	33.36
253.911	28.64
254.128	27.1
254.346	23.5
254.563	20.23
254.781	23.74
254.998	21.33
255.216	24.08
255.433	17.92
255.651	19.32
255.868	25.24
256.086	38.77
256.303	34.8
256.521	17.18
256.738	14.49
256.956	2.38
257.173	-2.47
257.39	9.13
257.608	1.96
257.825	6.44
258.043	14.6
258.26	18.26
258.477	33.29
258.695	44.48
258.912	46.49
259.129	43.48
259.346	48.32
259.564	58.56
259.781	54.94
259.998	51.75
260.216	49.95
260.433	41.36
260.65	42.16
260.867	20.76
261.084	20.05
261.302	11.14
261.519	10.58
261.736	-2.78
261.953	2.15
262.17	5.86
262.387	13.72
262.604	12.43
262.822	13.93
263.039	11.39
263.256	12.75
263.473	2.66
263.69	10.31
263.907	5.72
264.124	5.06
264.341	5.96
264.558	13.64
264.775	19.7
264.992	26.65
265.209	22.4
265.426	20.61
265.643	18.04
265.86	12.87
266.077	9.79
266.294	10.37
266.51	13.01
266.727	4.48
266.944	-39.75
267.161	-35.78
267.378	-33.44
267.595	-33.39
267.812	-48.08
268.028	-43.8
268.245	-24.45
268.462	18.14
268.679	15.27
268.896	16.87
269.112	32.89
269.329	43.85
269.546	38.21
269.763	39.42
269.979	39.16
270.196	42.9
270.413	45.23
270.629	24.45
270.846	23.15
271.063	26.41
271.279	24.85
271.496	16.12
271.712	16.58
271.929	16.01
272.146	26.75
272.362	11.19
272.579	0.21
272.795	-8.3
273.012	10.78
273.228	2.97
273.445	10.41
273.661	11.25
273.878	21.1
274.094	23.91
274.311	27.99
274.527	18.02
274.744	23.31
274.96	21.03
275.177	30.46
275.393	31.41
275.609	41.53
275.826	45.53
276.042	57.07
276.259	54.88
276.475	46.85
276.691	35.67
276.908	27.38
277.124	25.26
277.34	16.69
277.557	12.93
277.773	7.89
277.989	0.81
278.205	-1.23
278.422	13.57
278.638	23.04
278.854	28.98
279.07	24.7
279.286	28.04
279.503	40.64
279.719	44.13
279.935	38.36
280.151	37.02
280.367	36.29
280.583	38.98
280.799	46.7
281.016	46.45
281.232	41.44
281.448	36.9
281.664	19.75
281.88	16.98
282.096	12.72
282.312	-10.49
282.528	-35.46
282.744	-30.62
282.96	-12.26
283.176	3.65
283.392	9.57
283.608	8.03
283.824	13.66
284.04	23.34
284.256	22.4
284.471	26.95
284.687	20.71
284.903	18.08
285.119	9.73
285.335	11.36
285.551	22.58
285.767	37.26
285.982	35.61
286.198	47.34
286.414	45.64
286.63	54.52
286.846	59.54
287.061	60.56
287.277	60.02
287.493	56.65
287.709	51.69
287.924	47.09
288.14	50.9
288.356	48.12
288.571	37.19
288.787	30.46
289.003	33.34
289.218	29.96
289.434	29.55
289.65	26.71
289.865	32.36
290.081	33.96
290.296	28.49
290.512	30.82
290.727	41.56
290.943	34.3
291.159	28.83
291.374	38.62
291.59	33.08
291.805	44.45
292.021	29.31
292.236	17.07
292.451	24.8
292.667	36.17
292.882	15.34
293.098	16.28
293.313	6.26
293.529	13.3
293.744	11.99
293.959	16.35
294.175	5.5
294.39	17.95
294.605	24.66
294.821	26.87
295.036	28.96
295.251	39.65
295.467	28.47
295.682	32.64
295.897	29.16
296.112	32.45
296.328	36.17
296.543	37.23
296.758	33.06
296.973	41.73
297.188	37.06
297.404	38.51
297.619	35.05
297.834	39.26
298.049	38.32
298.264	39.09
298.479	24.18
298.694	24.47
298.909	12.64
299.125	17.33
299.34	11.63
299.555	16.94
299.77	10.88
299.985	17.85
300.2	15.29
300.415	30.5
300.63	29.81
300.845	28.55
301.06	19.72
301.275	27.12
301.49	33.48
301.704	41.87
301.919	31.33
302.134	14.88
302.349	8.51
302.564	4.36
302.779	-1.43
302.994	-10.4
303.209	-24.82
303.423	-11.23
303.638	9.34
303.853	27.68
304.068	26.69
304.283	28.8
304.497	37.97
304.712	40.15
304.927	35.61
305.142	32.58
305.356	30.35
305.571	40.83
305.786	36.89
306	31.03
306.215	31.22
306.43	40.6
306.644	43.29
306.859	43.94
307.074	38.14
307.288	40.81
307.503	37.87
307.717	33.92
307.932	27.19
308.147	21.8
308.361	18.09
308.576	19.86
308.79	16.13
309.005	14.7
309.219	17.06
309.434	15.23
309.648	12.39
309.863	13.33
310.077	8.27
310.292	7.89
310.506	31.69
310.72	27.2
310.935	32.3
311.149	27.29
311.364	33.93
311.578	30.27
311.792	30.82
312.007	11.8
312.221	23.64
312.435	20.11
312.649	-2.39
312.864	-21.56
313.078	-8.08
313.292	-2.31
313.507	8.25
313.721	-4.18
313.935	12.68
314.149	35.37
314.363	34.53
314.578	39.04
314.792	36.71
315.006	27.47
315.22	29.85
315.434	16.07
315.648	19.73
315.862	20.2
316.077	20.62
316.291	17.62
316.505	18.47
316.719	8.63
316.933	18.31
317.147	20.38
317.361	18.44
317.575	9.33
317.789	15.19
318.003	26.44
318.217	34.76
318.431	29.74
318.645	28.83
318.859	31.33
319.073	24.94
319.287	29.96
319.5	30.42
319.714	28.69
319.928	36.8
320.142	45.76
320.356	48.1
320.57	53.56
320.784	46.57
320.997	46.61
321.211	48.22
321.425	41.4
321.639	31.96
321.853	33.62
322.066	38.83
322.28	42.41
322.494	29.47
322.707	26.04
322.921	31.11
323.135	32.93
323.349	29.71
323.562	25.24
323.776	21.71
323.989	25.99
324.203	26.51
324.417	16.17
324.63	6.41
324.844	-0.15
325.057	11.08
325.271	3.79
325.485	9.18
325.698	6.73
325.912	18.57
326.125	25.3
326.339	31.77
326.552	24.83
326.766	33.83
326.979	27.1
327.193	26.57
327.406	15.15
327.619	-4.28
327.833	-5.13
328.046	-12.95
328.26	-20.13
328.473	-2.31
328.686	-1.96
328.9	-8.32
329.113	16.69
329.326	20.24
329.54	29.42
329.753	31.97
329.966	18.4
330.179	32.77
330.393	40.17
330.606	38.18
330.819	38.86
331.032	43.27
331.246	39.98
331.459	52.08
331.672	40.19
331.885	34.34
332.098	36.52
332.311	20.28
332.525	18.91
332.738	25.42
332.951	29.16
333.164	24.53
333.377	12.84
333.59	5.06
333.803	16.23
334.016	4.77
334.229	0.03
334.442	-1.18
334.655	15.9
334.868	37.08
335.081	40.54
335.294	39.35
335.507	44.65
335.72	35.47
335.933	26.15
336.146	21.69
336.359	17.42
336.572	16.73
336.785	24.94
336.997	21.86
337.21	26.7
337.423	23.82
337.636	20.46
337.849	20.21
338.062	14.94
338.274	5.43
338.487	12.94
338.7	17.47
338.913	20.02
339.125	14.8
339.338	15.22
339.551	29.39
339.763	28.86
339.976	22.05
340.189	11.72
340.402	13.41
340.614	16.67
340.827	12.23
341.039	8.91
341.252	7.05
341.465	2.36
341.677	8.92
341.89	8.8
342.102	16.01
342.315	20.38
342.527	12.18
342.74	18.8
342.952	25.62
343.165	34.11
343.377	34.98
343.59	31.54
343.802	32.09
344.015	30.23
344.227	21.59
344.44	26.68
344.652	26.07
344.864	32.85
345.077	26.13
345.289	26.92
345.502	31.56
345.714	30.2
345.926	29.46
346.139	20.44
346.351	6.43
346.563	14.6
346.775	7.72
346.988	11.91
347.2	11.25
347.412	13.71
347.624	19.59
347.837	19.37
348.049	24.92
348.261	26.55
348.473	24.68
348.685	38.88
348.897	31.71
349.11	25.37
349.322	26.24
349.534	15.61
349.746	10.95
349.958	10.66
350.17	3.54
350.382	-1.48
350.594	-5.1
350.806	-0.69
351.018	4.46
351.23	17.33
351.442	18.15
351.654	24.48
351.866	30.25
352.078	33.9
352.29	38.36
352.502	38.7
352.714	41.16
352.926	30.15
353.138	21.49
353.35	19.12
353.561	17.01
353.773	13.03
353.985	16.65
354.197	9.78
354.409	17.68
354.621	16
354.832	13.92
355.044	19.46
355.256	16.4
355.468	13.11
355.679	13.71
355.891	14.95
356.103	17.59
356.314	18.29
356.526	11.97
356.738	12.02
356.949	18.43
357.161	21.21
357.373	23.69
357.584	21.39
357.796	20.61
358.008	27.44
358.219	36.35
358.431	29.2
358.642	18.28
358.854	16.92
359.065	20.4
359.277	22.24
359.488	11.94
359.7	12.16
359.911	5.67
360.123	20.45
360.334	17.94
360.546	3.66
360.757	5.51
360.969	18.74
361.18	13.9
361.391	21.82
361.603	17.21
361.814	20.07
362.025	27.66
362.237	32.25
362.448	30.9
362.659	24.8
362.871	29.74
363.082	30.36
363.293	33.71
363.504	37.85
363.716	32.76
363.927	23.04
364.138	28.12
364.349	28.16
364.56	24.77
364.772	20.61
364.983	12.73
365.194	13.31
365.405	19.86
365.616	17.85
365.827	5.85
366.038	9.99
366.25	12.85
366.461	18.86
366.672	12.23
366.883	15.28
367.094	12.52
367.305	14.05
367.516	11.52
367.727	10.17
367.938	13.44
368.149	16.65
368.36	11.55
368.571	15.97
368.781	19.13
368.992	21.02
369.203	19.65
369.414	15.74
369.625	13.81
369.836	19.48
370.047	18.98
370.258	17.06
370.468	14.25
370.679	12.61
370.89	17.78
371.101	20.38
371.312	15.51
371.522	13.82
371.733	6.13
371.944	9.73
372.155	5.44
372.365	0.66
372.576	2.47
372.787	1.3
372.997	2.12
373.208	20.74
373.419	16.76
373.629	22.95
373.84	20.37
374.05	25.6
374.261	20.67
374.472	25.73
374.682	15.14
374.893	17.02
375.103	11.6
375.314	16.31
375.524	14.88
375.735	17.47
375.945	9.33
376.156	8.7
376.366	11.27
376.577	19.61
376.787	23.71
376.997	22.4
377.208	24.71
377.418	26.72
377.629	26.3
377.839	26.74
378.049	25.98
378.26	23.88
378.47	25.62
378.68	26.14
378.89	27.4
379.101	24.45
379.311	20.74
379.521	21.23
379.732	14.41
379.942	8.62
380.152	9.8
380.362	12.19
380.572	16.5
380.783	18.66
380.993	16.11
381.203	16.57
381.413	22.11
381.623	21.99
381.833	21.57
382.043	13.93
382.253	13.29
382.463	18.43
382.674	19.77
382.884	13.59
383.094	14.72
383.304	15.28
383.514	26.15
383.724	22.8
383.934	19.64
384.144	24.07
384.353	28.58
384.563	22.59
384.773	19.68
384.983	16.84
385.193	19.68
385.403	16.79
385.613	9.03
385.823	6.26
386.033	10.17
386.242	8.72
386.452	8.26
386.662	8.21
386.872	10.91
387.082	12.11
387.291	9.76
387.501	9.65
387.711	11.76
387.921	10.84
388.13	7.92
388.34	5.78
388.55	7.42
388.759	10.03
388.969	6.38
389.179	8.23
389.388	7.74
389.598	8.74
389.807	7.01
390.017	4.49
390.227	3.66
390.436	4.71
390.646	3.11
390.855	4.45
391.065	3.77
391.274	4.33
391.484	6.92
391.693	6.68
391.903	6.41
392.112	6.01
392.322	6.73
392.531	7.11
392.74	5.92
392.95	5.13
393.159	6.33
393.369	6.52
393.578	6.16
393.787	5.48
393.997	6.49
394.206	7.82
394.415	7.79
394.625	5.86
394.834	4.89
395.043	6.07
395.252	6.81
395.462	5.81
395.671	6.42
395.88	6.01
396.089	6.76
396.298	7.16
396.508	6.44
396.717	5.51
396.926	5.31
397.135	4.22
397.344	4.24
397.553	4.37
397.762	4.69
397.971	4.61
398.181	4.11
398.39	4.14
398.599	4.77
398.808	5.18
399.017	5.19
399.226	5.18
399.435	4.9
399.644	5.07
399.853	5.32
400.062	4.93
400.27	4.5
400.479	4.49
400.688	4.38
400.897	4.72
401.106	4.77
401.315	4.57
401.524	4.82
401.733	5.11
401.941	5.08
402.15	4.92
402.359	4.82
402.568	4.74
402.777	4.84
402.985	4.65
403.194	4.54
403.403	4.3
403.612	4.36
403.82	4.31
404.029	4.37
404.238	4.39
404.446	4.32
404.655	4.13
404.864	4.22
405.072	4.23
405.281	4.15
405.489	4.19
405.698	4.03
405.906	4.04
406.115	4.21
406.324	4.16
406.532	4.24
406.741	4.31
406.949	4.18
407.158	4.21
407.366	4.2
407.574	4.2
407.783	4.14
407.991	4.01
408.2	3.96
408.408	4.03
408.617	4
408.825	3.96
409.033	3.85
409.242	3.83
409.45	3.8
409.658	3.75
409.867	3.69
410.075	3.69
410.283	3.63
410.491	3.68
410.7	3.75
410.908	3.77
411.116	3.77
411.324	3.84
411.533	3.72
411.741	3.76
411.949	3.77
412.157	3.78
412.365	3.75
412.573	3.79
412.781	3.71
412.99	3.93
413.198	3.97
413.406	3.9
413.614	3.89
413.822	3.9
414.03	3.86
414.238	3.93
414.446	3.75
414.654	3.74
414.862	3.73
415.07	3.76
415.278	3.74
415.486	3.84
415.694	3.73
415.902	3.7
416.109	3.75
416.317	3.69
416.525	3.74
416.733	3.73
416.941	3.59
417.149	3.61
417.357	3.72
417.564	3.68
417.772	3.73
417.98	3.59
418.188	3.49
418.395	3.52
418.603	3.44
418.811	3.34
419.019	3.26
419.226	3.26
419.434	3.19
419.642	3.26
419.849	3.24
420.057	3.25
420.265	3.25
420.472	3.25
420.68	3.19
420.887	3.26
421.095	3.22
421.302	3.28
421.51	3.35
421.717	3.42
421.925	3.35
422.132	3.32
422.34	3.3
422.547	3.3
422.755	3.22
422.962	3.12
423.17	3.03
423.377	3.14
423.585	3.23
423.792	3.16
423.999	3.13
424.207	3.08
424.414	3.16
424.621	3.22
424.829	3.11
425.036	3.06
425.243	3.13
425.451	3.15
425.658	3.26
425.865	3.23
426.072	3.23
426.28	3.24
426.487	3.24
426.694	3.14
426.901	3.1
427.108	3.07
427.315	3
427.523	3.01
427.73	3.13
427.937	3.21
428.144	3.23
428.351	3.36
428.558	3.35
428.765	3.41
428.972	3.31
429.179	3.2
429.386	3.22
429.593	3.29
429.8	3.32
430.007	3.36
430.214	3.35
430.421	3.44
430.628	3.34
430.835	3.27
431.042	3.28
431.249	3.22
431.456	3.19
431.662	3.25
431.869	3.31
432.076	3.46
432.283	3.43
432.49	3.42
432.697	3.42
432.903	3.48
433.11	3.54
433.317	3.48
433.524	3.42
433.73	3.48
433.937	3.49
434.144	3.56
434.35	3.49
434.557	3.44
434.764	3.45
434.97	3.51
435.177	3.48
435.384	3.49
435.59	3.5
435.797	3.52
436.003	3.51
436.21	3.5
436.416	3.51
436.623	3.61
436.829	3.58
437.036	3.54
437.242	3.6
437.449	3.68
437.655	3.66
437.862	3.65
438.068	3.65
438.275	3.65
438.481	3.73
438.687	3.73
438.894	3.7
439.1	3.75
439.307	3.75
439.513	3.74
439.719	3.83
439.926	3.81
440.132	3.77
440.338	3.77
440.544	3.73
440.751	3.74
440.957	3.7
441.163	3.68
441.369	3.72
441.575	3.75
441.782	3.73
441.988	3.78
442.194	3.81
442.4	3.89
442.606	3.92
442.812	3.93
443.018	3.97
443.224	3.99
443.431	3.99
443.637	3.99
443.843	3.97
444.049	3.97
444.255	3.93
444.461	3.94
444.667	3.97
444.873	3.96
445.079	3.99
445.284	3.98
445.49	3.98
445.696	3.99
445.902	4.03
446.108	4.04
446.314	4.14
446.52	4.15
446.726	4.21
446.931	4.25
447.137	4.26
447.343	4.23
447.549	4.22
447.755	4.13
447.96	4.11
448.166	4.15
448.372	4.14
448.578	4.12
448.783	4.09
448.989	4.11
449.195	4.2
449.4	4.24
449.606	4.15
449.812	4.17
450.017	4.21
450.223	4.27
450.428	4.27
450.634	4.24
450.84	4.24
451.045	4.27
451.251	4.3
451.456	4.32
451.662	4.27
451.867	4.27
452.073	4.25
452.278	4.28
452.483	4.34
452.689	4.32
452.894	4.27
453.1	4.27
453.305	4.26
453.51	4.3
453.716	4.27
453.921	4.22
454.127	4.25
454.332	4.31
454.537	4.4
454.742	4.39
454.948	4.41
455.153	4.46
455.358	4.52
455.563	4.52
455.769	4.51
455.974	4.46
456.179	4.47
456.384	4.45
456.589	4.44
456.795	4.38
457	4.4
457.205	4.42
457.41	4.42
457.615	4.56
457.82	4.65
458.025	4.63
458.23	4.69
458.435	4.61
458.64	4.64
458.845	4.65
459.05	4.56
459.255	4.49
459.46	4.52
459.665	4.58
459.87	4.66
460.075	4.66
460.28	4.66
460.485	4.67
460.69	4.6
460.895	4.63
461.099	4.64
461.304	4.63
461.509	4.58
461.714	4.61
461.919	4.6
462.123	4.74
462.328	4.7
462.533	4.65
462.738	4.7
462.942	4.79
463.147	4.75
463.352	4.83
463.556	4.82
463.761	4.87
463.966	4.9
464.17	4.87
464.375	4.85
464.58	4.87
464.784	4.85
464.989	4.81
465.193	4.84
465.398	4.89
465.602	4.89
465.807	4.9
466.011	4.96
466.216	4.91
466.42	5
466.625	5.03
466.829	5.04
467.034	5.1
467.238	5.1
467.443	5.1
467.647	5.18
467.851	5.12
468.056	5.07
468.26	5.03
468.464	4.99
468.669	5.08
468.873	5.06
469.077	5.09
