Data from Ofra_2a_PS_2H59_Reflection_2.txt Node
Date: Tue Jul 20 09:48:29 EDT 2021
User: Adam
Spectrometer: FLMT01687
Trigger mode: 0
Integration Time (sec): 9.450000E-1
Scans to average: 3
Electric dark correction enabled: true
Nonlinearity correction enabled: false
Boxcar width: 3
XAxis mode: Wavelengths
Number of Pixels in Spectrum: 3648
>>>>>Begin Spectral Data<<<<<
179.494	1073.96
179.716	621.13
179.937	662.64
180.158	2545.31
180.38	-1350
180.601	-181.78
180.823	-22.19
181.044	95.62
181.265	14.35
181.486	49.07
181.708	-182.61
181.929	61.4
182.15	218.18
182.372	48.74
182.593	153.08
182.814	12.57
183.035	107.85
183.257	142.48
183.478	87.61
183.699	81.43
183.92	73.95
184.141	86.43
184.363	76.21
184.584	54.48
184.805	33.97
185.026	38.61
185.247	24.24
185.468	12.33
185.689	6.16
185.91	13.71
186.132	24.95
186.353	19.3
186.574	16.25
186.795	1.31
187.016	17.96
187.237	20.59
187.458	7.16
187.679	13.37
187.9	8.73
188.121	26.36
188.342	48.52
188.563	35
188.784	36.89
189.005	53.61
189.226	41.98
189.447	46.86
189.667	43.02
189.888	43.41
190.109	42.08
190.33	37.06
190.551	31.57
190.772	25.24
190.993	38.28
191.214	32.09
191.434	37
191.655	43.33
191.876	51.18
192.097	42.89
192.318	46.01
192.538	35.58
192.759	44.21
192.98	32.98
193.201	38.93
193.421	42.56
193.642	41.62
193.863	52.01
194.083	51.9
194.304	38.74
194.525	42.26
194.745	23.6
194.966	28.86
195.187	38.9
195.407	29.13
195.628	33.34
195.848	29.45
196.069	37.52
196.29	37.88
196.51	21.52
196.731	30.91
196.951	29.97
197.172	39.65
197.392	41.29
197.613	28.63
197.833	31.15
198.054	27.82
198.274	13.97
198.495	27.63
198.715	12.54
198.936	8.87
199.156	21.2
199.377	28.42
199.597	27.55
199.817	36.05
200.038	23.63
200.258	24.48
200.479	33.26
200.699	38.88
200.919	27.63
201.14	30.43
201.36	31.69
201.58	38.05
201.801	32.12
202.021	26.63
202.241	21.91
202.461	31.45
202.682	42.73
202.902	47.42
203.122	39.55
203.342	49.63
203.563	55.99
203.783	52.8
204.003	50.55
204.223	46.04
204.443	41.71
204.663	45.93
204.884	37.2
205.104	35.33
205.324	42.49
205.544	46.2
205.764	39.24
205.984	29.54
206.204	30.74
206.424	37.14
206.644	34.39
206.864	21.61
207.084	38.07
207.304	40.93
207.525	42.44
207.745	47.24
207.964	56.62
208.184	39.83
208.404	55.01
208.624	39.48
208.844	22.2
209.064	25.51
209.284	29.51
209.504	18.49
209.724	13.68
209.944	9.88
210.164	11.36
210.384	35.38
210.604	27.82
210.823	10.93
211.043	21.33
211.263	32.74
211.483	30.88
211.703	46.91
211.922	42.36
212.142	53.42
212.362	56.1
212.582	56.24
212.801	49.31
213.021	48.11
213.241	32.07
213.461	28.03
213.68	23.53
213.9	35.61
214.12	31.26
214.339	40.8
214.559	54.47
214.779	53.99
214.998	51.27
215.218	47.34
215.438	47.82
215.657	47
215.877	50.23
216.096	39.59
216.316	42.04
216.535	47.08
216.755	44.64
216.974	37.84
217.194	42.93
217.413	55.23
217.633	50.65
217.852	45.15
218.072	56.47
218.291	71.98
218.511	63.23
218.73	64.43
218.95	46.94
219.169	54.01
219.389	44.08
219.608	46.03
219.827	26.58
220.047	43.8
220.266	37.65
220.485	51.5
220.705	39.81
220.924	55.86
221.143	35.92
221.363	34.39
221.582	29.25
221.801	33.31
222.021	20.66
222.24	27.76
222.459	14.66
222.678	21.11
222.897	16.05
223.117	15.2
223.336	22.04
223.555	24.23
223.774	45.09
223.993	52.2
224.213	36.41
224.432	48.79
224.651	48.7
224.87	32.89
225.089	36.75
225.308	25.81
225.527	20.58
225.746	34.92
225.965	27.34
226.184	28.95
226.404	33.86
226.623	43.34
226.842	37.98
227.061	48.39
227.28	66.57
227.499	61.97
227.718	52.1
227.936	42.03
228.155	35.15
228.374	33.32
228.593	25.94
228.812	15.61
229.031	8.56
229.25	24.96
229.469	42.67
229.688	44.17
229.907	47.7
230.125	47.31
230.344	51.86
230.563	61.21
230.782	45.81
231.001	37.12
231.22	29.28
231.438	31.56
231.657	34.22
231.876	32.31
232.095	19.83
232.313	33.88
232.532	37.71
232.751	43.89
232.969	44.5
233.188	42.38
233.407	41.78
233.625	35.23
233.844	38.31
234.063	33.47
234.281	31.36
234.5	32.76
234.719	26.21
234.937	25.37
235.156	30.51
235.374	19.54
235.593	27.33
235.811	26.76
236.03	13.43
236.249	32.11
236.467	29.51
236.686	41.7
236.904	41.6
237.123	39.35
237.341	34.27
237.559	34.42
237.778	35.41
237.996	42.72
238.215	29.27
238.433	38.83
238.652	38.1
238.87	39.74
239.088	39.19
239.307	36.46
239.525	27.74
239.743	29.23
239.962	19.7
240.18	22.94
240.398	25.05
240.617	27.77
240.835	22.09
241.053	27.98
241.271	37.32
241.49	25.97
241.708	22.82
241.926	17.06
242.144	9
242.363	7.68
242.581	4.45
242.799	-10.76
243.017	6.33
243.235	3.57
243.453	18.69
243.672	25.03
243.89	27.17
244.108	45.28
244.326	47.19
244.544	51.63
244.762	48.7
244.98	43.29
245.198	37.75
245.416	46.78
245.634	38.36
245.852	50.34
246.07	47.64
246.288	48.73
246.506	52.19
246.724	67.69
246.942	57.32
247.16	52.49
247.378	34.83
247.596	36.28
247.814	27.55
248.032	32.47
248.25	24.19
248.468	33.05
248.685	28.51
248.903	35.67
249.121	37.11
249.339	41.53
249.557	29.01
249.775	19.3
249.992	9.34
250.21	5.48
250.428	1.2
250.646	2.5
250.863	11.96
251.081	14.35
251.299	31.83
251.517	30.36
251.734	40.11
251.952	52.82
252.17	33.87
252.387	24.69
252.605	29.47
252.823	11.48
253.04	16.95
253.258	13.36
253.475	17.09
253.693	38.16
253.911	43.25
254.128	38.89
254.346	43.81
254.563	43.72
254.781	45.26
254.998	37.2
255.216	30.66
255.433	29.58
255.651	21.89
255.868	23.54
256.086	29.86
256.303	24.36
256.521	20.75
256.738	20.01
256.956	8.4
257.173	19.7
257.39	24.1
257.608	21.1
257.825	23.26
258.043	35.08
258.26	36.55
258.477	45.62
258.695	41.83
258.912	43.2
259.129	38.69
259.346	40.55
259.564	31.96
259.781	39.21
259.998	42.5
260.216	49.29
260.433	40.28
260.65	46.17
260.867	37.21
261.084	42.52
261.302	26.26
261.519	7.33
261.736	1.57
261.953	8.48
262.17	12.14
262.387	27.29
262.604	19.58
262.822	38.4
263.039	43.22
263.256	40.31
263.473	32.9
263.69	29.2
263.907	18.01
264.124	14.64
264.341	-2.63
264.558	7.33
264.775	4.96
264.992	10.31
265.209	20.58
265.426	20.99
265.643	27.4
265.86	33.26
266.077	36.02
266.294	38.29
266.51	42.53
266.727	29.76
266.944	28.72
267.161	14.76
267.378	18
267.595	-1.6
267.812	-13.91
268.028	-12.07
268.245	-0.47
268.462	8.01
268.679	13.38
268.896	11.75
269.112	26.88
269.329	39.49
269.546	34.63
269.763	40.97
269.979	32.5
270.196	34.76
270.413	31.07
270.629	24
270.846	24.41
271.063	21.17
271.279	12.59
271.496	5.79
271.712	4.96
271.929	18.03
272.146	21.88
272.362	13.72
272.579	15.53
272.795	22.73
273.012	26.34
273.228	25.49
273.445	19.47
273.661	6.93
273.878	11.46
274.094	16.41
274.311	11.2
274.527	16.16
274.744	16.98
274.96	11.24
275.177	27.99
275.393	25.95
275.609	22.71
275.826	27.05
276.042	36.57
276.259	37.11
276.475	37.66
276.691	30.5
276.908	30.01
277.124	30.54
277.34	31.48
277.557	19.18
277.773	16.05
277.989	25.3
278.205	19.65
278.422	23
278.638	32.09
278.854	32.56
279.07	28.64
279.286	28.1
279.503	21.73
279.719	36.39
279.935	31.97
280.151	25.71
280.367	22.45
280.583	32.82
280.799	42.13
281.016	49.03
281.232	47.35
281.448	41.59
281.664	44.44
281.88	48.9
282.096	51.82
282.312	34.59
282.528	15.55
282.744	13.02
282.96	26.67
283.176	21.32
283.392	29.78
283.608	24.39
283.824	35.26
284.04	34.79
284.256	32.66
284.471	33.84
284.687	34.82
284.903	19.41
285.119	6.9
285.335	4.12
285.551	15.96
285.767	14.36
285.982	1.43
286.198	-2.75
286.414	20.15
286.63	36.84
286.846	39.6
287.061	37.22
287.277	33.77
287.493	44.43
287.709	44.31
287.924	36.13
288.14	33.12
288.356	37.59
288.571	19.06
288.787	32.39
289.003	31.26
289.218	32.35
289.434	34.42
289.65	35.82
289.865	40.78
290.081	41.77
290.296	41.3
290.512	44.18
290.727	51.14
290.943	41.91
291.159	34.1
291.374	30.25
291.59	33.49
291.805	24.52
292.021	11.46
292.236	15.79
292.451	30.25
292.667	33.58
292.882	29.73
293.098	28.54
293.313	30.68
293.529	41.71
293.744	30.31
293.959	23.85
294.175	18.06
294.39	21.99
294.605	28.77
294.821	26.56
295.036	20.56
295.251	24.42
295.467	12.59
295.682	17.6
295.897	12.15
296.112	8.79
296.328	14.32
296.543	6.3
296.758	4.47
296.973	9.08
297.188	6.81
297.404	12.13
297.619	17.56
297.834	20.52
298.049	23.01
298.264	25.9
298.479	20.39
298.694	27.42
298.909	23.49
299.125	19.71
299.34	17.79
299.555	25.49
299.77	23.03
299.985	29.1
300.2	29.36
300.415	36
300.63	36.06
300.845	43.59
301.06	45.65
301.275	49.32
301.49	47.28
301.704	40.55
301.919	28.1
302.134	25.49
302.349	12.4
302.564	-2.43
302.779	-3.26
302.994	3.6
303.209	-1.7
303.423	19.53
303.638	34.3
303.853	44.22
304.068	45.97
304.283	36.77
304.497	36.81
304.712	37.84
304.927	29.98
305.142	25.79
305.356	26.77
305.571	32.26
305.786	30.86
306	32.47
306.215	39.33
306.43	46.09
306.644	43.86
306.859	41.76
307.074	35.63
307.288	40.15
307.503	34.01
307.717	30.59
307.932	31.3
308.147	35.38
308.361	29.25
308.576	33.95
308.79	36.15
309.005	40.62
309.219	38.5
309.434	30.57
309.648	20.82
309.863	21.31
310.077	9.01
310.292	14.35
310.506	23.67
310.72	38.72
310.935	34.9
311.149	39.98
311.364	38.25
311.578	38.9
311.792	28.85
312.007	18.04
312.221	11.23
312.435	19.03
312.649	21.25
312.864	23.64
313.078	25.27
313.292	38.74
313.507	40.49
313.721	37.51
313.935	48.49
314.149	37.43
314.363	39.04
314.578	67.16
314.792	66.16
315.006	68.51
315.22	80.21
315.434	69.33
315.648	71.25
315.862	67.16
316.077	47.9
316.291	48.45
316.505	51.85
316.719	28.76
316.933	34.33
317.147	27.09
317.361	23.71
317.575	22.59
317.789	20.34
318.003	18.31
318.217	26.32
318.431	23.3
318.645	24.79
318.859	22.65
319.073	19.97
319.287	22.36
319.5	19.43
319.714	21.74
319.928	28.22
320.142	39.39
320.356	45.9
320.57	48.79
320.784	54.83
320.997	57.11
321.211	55.89
321.425	43.2
321.639	43.89
321.853	37.62
322.066	39.48
322.28	29.92
322.494	29.45
322.707	27.03
322.921	28.51
323.135	28.92
323.349	34.08
323.562	27.85
323.776	25.95
323.989	28.35
324.203	37.16
324.417	31.78
324.63	13.68
324.844	4.32
325.057	12.5
325.271	10.84
325.485	9.33
325.698	1.48
325.912	15.61
326.125	28.76
326.339	41.01
326.552	39.41
326.766	44.43
326.979	44.74
327.193	48.01
327.406	47.3
327.619	36.57
327.833	23.1
328.046	17.85
328.26	9.09
328.473	4.75
328.686	-7.27
328.9	-10.63
329.113	-3.72
329.326	6.25
329.54	10.63
329.753	12.12
329.966	17.15
330.179	30.97
330.393	35.33
330.606	41.43
330.819	43.36
331.032	44.43
331.246	47.64
331.459	40.28
331.672	38.2
331.885	34.6
332.098	27.96
332.311	14.24
332.525	18.33
332.738	21.59
332.951	27.07
333.164	20.25
333.377	7.41
333.59	16.86
333.803	24.61
334.016	10.75
334.229	-0.1
334.442	6.76
334.655	16.61
334.868	34.23
335.081	36.83
335.294	29.46
335.507	39.68
335.72	39.95
335.933	45.34
336.146	41.61
336.359	25.87
336.572	16.44
336.785	29.05
336.997	16.59
337.21	15.46
337.423	8.6
337.636	10.26
337.849	15.22
338.062	17.51
338.274	10.5
338.487	13.07
338.7	17.52
338.913	14.93
339.125	9.57
339.338	18.52
339.551	17.16
339.763	15.41
339.976	24.57
340.189	23.02
340.402	26.66
340.614	33.24
340.827	25.11
341.039	26.51
341.252	27.19
341.465	19.09
341.677	16.03
341.89	11.73
342.102	13.97
342.315	24.05
342.527	18.29
342.74	3.79
342.952	16.63
343.165	28.23
343.377	31.13
343.59	28.25
343.802	29.88
344.015	41.07
344.227	48.05
344.44	42.18
344.652	34.54
344.864	29.5
345.077	19.94
345.289	11.83
345.502	-0
345.714	-3.49
345.926	0.61
346.139	3.75
346.351	0.46
346.563	16.95
346.775	13.13
346.988	15.53
347.2	24.04
347.412	23.69
347.624	24.39
347.837	23.9
348.049	18.78
348.261	23.9
348.473	19.03
348.685	20.63
348.897	14.73
349.11	19.07
349.322	22.01
349.534	22.75
349.746	26.26
349.958	29.77
350.17	34.1
350.382	29.5
350.594	24.17
350.806	29.45
351.018	34.87
351.23	30.43
351.442	37.76
351.654	42.13
351.866	47.62
352.078	44.66
352.29	44.09
352.502	40.41
352.714	45.79
352.926	42.44
353.138	38.67
353.35	30.28
353.561	25.99
353.773	23.28
353.985	21.54
354.197	16.62
354.409	17.53
354.621	18.42
354.832	15.2
355.044	29.36
355.256	29.5
355.468	31.54
355.679	27.67
355.891	29.62
356.103	23.94
356.314	35.97
356.526	31.18
356.738	30.45
356.949	31.56
357.161	35.39
357.373	29.3
357.584	34.36
357.796	29.27
358.008	32.98
358.219	38.82
358.431	32.88
358.642	32.5
358.854	36.18
359.065	34.01
359.277	27.72
359.488	19.42
359.7	20.57
359.911	24.68
360.123	24.93
360.334	21.06
360.546	11.25
360.757	18.45
360.969	20.68
361.18	13.63
361.391	15.31
361.603	18.36
361.814	19.74
362.025	27.18
362.237	24.34
362.448	30.01
362.659	29.78
362.871	35.34
363.082	30.34
363.293	30.39
363.504	36.86
363.716	39.36
363.927	37.06
364.138	35.96
364.349	32.62
364.56	32.58
364.772	38.7
364.983	26.03
365.194	22.7
365.405	22.75
365.616	19.79
365.827	13.69
366.038	17.34
366.25	11.66
366.461	16.75
366.672	16.77
366.883	24.3
367.094	20.88
367.305	24.26
367.516	25.79
367.727	25.25
367.938	30.67
368.149	35
368.36	31.28
368.571	36.43
368.781	31.78
368.992	32.08
369.203	32.56
369.414	25.07
369.625	21.06
369.836	16.95
370.047	13.87
370.258	11.19
370.468	7.08
370.679	7.57
370.89	19.04
371.101	16.24
371.312	20.35
371.522	28.1
371.733	26.98
371.944	30.6
372.155	25.93
372.365	20.62
372.576	18.06
372.787	14.31
372.997	6.87
373.208	21.33
373.419	20.67
373.629	28.75
373.84	24.74
374.05	30.26
374.261	32.56
374.472	36.08
374.682	26.39
374.893	20.18
375.103	24.18
375.314	23.85
375.524	26.38
375.735	23.94
375.945	25.76
376.156	31.1
376.366	27.02
376.577	24.31
376.787	30.99
376.997	25.76
377.208	20.81
377.418	13.71
377.629	6.3
377.839	13.28
378.049	13.69
378.26	7.42
378.47	12.53
378.68	16.03
378.89	15.9
379.101	13.53
379.311	7.85
379.521	11.83
379.732	1.9
379.942	-0.35
380.152	2.64
380.362	5.6
380.572	14.22
380.783	21.4
380.993	17.29
381.203	28.25
381.413	32.54
381.623	31.26
381.833	31.16
382.043	26.71
382.253	25.48
382.463	28.23
382.674	31.32
382.884	21.53
383.094	22.48
383.304	21.26
383.514	17.26
383.724	11.53
383.934	8.2
384.144	8.27
384.353	11.84
384.563	11.33
384.773	14.66
384.983	19.19
385.193	22.29
385.403	23.68
385.613	18.81
385.823	16.56
386.033	16.81
386.242	16.57
386.452	13.36
386.662	15.65
386.872	14.03
387.082	10.93
387.291	11.84
387.501	11.01
387.711	8.4
387.921	7.3
388.13	4.22
388.34	4.32
388.55	7.84
388.759	7.66
388.969	7.35
389.179	9.41
389.388	8.8
389.598	7.91
389.807	5.29
390.017	2.75
390.227	1.42
390.436	0.59
390.646	0.21
390.855	-0.07
391.065	1.32
391.274	1.22
391.484	3.31
391.693	4.88
391.903	4.72
392.112	4.91
392.322	7.55
392.531	6.85
392.74	5.78
392.95	6.05
393.159	4.89
393.369	4.53
393.578	4.4
393.787	2.8
393.997	3.72
394.206	5.24
394.415	4.8
394.625	3.99
394.834	3.55
395.043	3.34
395.252	3.67
395.462	3.26
395.671	3.16
395.88	3.39
396.089	4.49
396.298	4.89
396.508	4.76
396.717	4.58
396.926	3.89
397.135	3.34
397.344	2.95
397.553	2.67
397.762	2.76
397.971	2.53
398.181	1.88
398.39	2.34
398.599	2.79
398.808	2.84
399.017	3.26
399.226	3.29
399.435	3.36
399.644	3.6
399.853	3.52
400.062	3.26
400.27	3.27
400.479	2.99
400.688	2.81
400.897	3.02
401.106	3.14
401.315	2.95
401.524	3.14
401.733	3.26
401.941	3.15
402.15	3.04
402.359	2.87
402.568	2.94
402.777	3
402.985	2.84
403.194	2.79
403.403	2.71
403.612	2.71
403.82	2.76
404.029	2.66
404.238	2.73
404.446	2.7
404.655	2.5
404.864	2.52
405.072	2.64
405.281	2.52
405.489	2.63
405.698	2.59
405.906	2.59
406.115	2.7
406.324	2.57
406.532	2.52
406.741	2.59
406.949	2.45
407.158	2.53
407.366	2.63
407.574	2.6
407.783	2.59
407.991	2.45
408.2	2.36
408.408	2.34
408.617	2.18
408.825	2.13
409.033	2.12
409.242	2.17
409.45	2.26
409.658	2.23
409.867	2.22
410.075	2.22
410.283	2.18
410.491	2.12
410.7	2.17
410.908	2.23
411.116	2.28
411.324	2.31
411.533	2.23
411.741	2.15
411.949	2.24
412.157	2.23
412.365	2.19
412.573	2.16
412.781	2.22
412.99	2.44
413.198	2.51
413.406	2.39
413.614	2.43
413.822	2.43
414.03	2.38
414.238	2.34
414.446	2.19
414.654	2.18
414.862	2.21
415.07	2.21
415.278	2.11
415.486	2.25
415.694	2.17
415.902	2.06
416.109	2.04
416.317	2.03
416.525	2.06
416.733	2.12
416.941	2.04
417.149	2.19
417.357	2.3
417.564	2.32
417.772	2.35
417.98	2.24
418.188	2.1
418.395	2.13
418.603	1.97
418.811	1.89
419.019	1.87
419.226	1.86
419.434	1.85
419.642	1.97
419.849	1.9
420.057	1.93
420.265	1.97
420.472	1.93
420.68	1.9
420.887	1.99
421.095	1.97
421.302	2.06
421.51	2.21
421.717	2.18
421.925	2.09
422.132	2.11
422.34	2.07
422.547	2.06
422.755	2.01
422.962	1.84
423.17	1.92
423.377	2.09
423.585	1.97
423.792	1.97
423.999	1.94
424.207	1.85
424.414	1.95
424.621	1.92
424.829	1.87
425.036	1.89
425.243	1.91
425.451	1.9
425.658	1.96
425.865	1.87
426.072	1.87
426.28	1.89
426.487	1.93
426.694	1.9
426.901	1.9
427.108	1.95
427.315	1.97
427.523	1.96
427.73	1.99
427.937	1.93
428.144	1.96
428.351	2.03
428.558	1.93
428.765	1.95
428.972	1.93
429.179	1.78
429.386	1.85
429.593	1.77
429.8	1.82
430.007	1.93
430.214	1.89
430.421	1.92
430.628	1.97
430.835	1.98
431.042	2.06
431.249	1.96
431.456	1.91
431.662	1.9
431.869	1.96
432.076	2.01
432.283	1.92
432.49	1.89
432.697	1.92
432.903	1.96
433.11	1.98
433.317	1.94
433.524	1.89
433.73	2
433.937	2
434.144	2.07
434.35	2.03
434.557	2
434.764	1.95
434.97	2.12
435.177	2.09
435.384	2.16
435.59	2.14
435.797	2.18
436.003	2.24
436.21	2.28
436.416	2.14
436.623	2.21
436.829	2.16
437.036	2.16
437.242	2.15
437.449	2.14
437.655	2.14
437.862	2.21
438.068	2.23
438.275	2.23
438.481	2.28
438.687	2.33
438.894	2.31
439.1	2.37
439.307	2.31
439.513	2.23
439.719	2.25
439.926	2.24
440.132	2.19
440.338	2.29
440.544	2.26
440.751	2.3
440.957	2.32
441.163	2.38
441.369	2.36
441.575	2.38
441.782	2.33
441.988	2.32
442.194	2.41
442.4	2.43
442.606	2.4
442.812	2.41
443.018	2.39
443.224	2.44
443.431	2.46
443.637	2.39
443.843	2.44
444.049	2.42
444.255	2.38
444.461	2.41
444.667	2.34
444.873	2.36
445.079	2.39
445.284	2.33
445.49	2.25
445.696	2.32
445.902	2.38
446.108	2.42
446.314	2.43
446.52	2.44
446.726	2.47
446.931	2.57
447.137	2.55
447.343	2.5
447.549	2.46
447.755	2.46
447.96	2.39
448.166	2.44
448.372	2.41
448.578	2.47
448.783	2.46
448.989	2.54
449.195	2.54
449.4	2.6
449.606	2.59
449.812	2.65
450.017	2.64
450.223	2.65
450.428	2.63
450.634	2.68
450.84	2.66
451.045	2.68
451.251	2.67
451.456	2.64
451.662	2.66
451.867	2.63
452.073	2.6
452.278	2.61
452.483	2.58
452.689	2.6
452.894	2.61
453.1	2.55
453.305	2.63
453.51	2.65
453.716	2.69
453.921	2.73
454.127	2.7
454.332	2.73
454.537	2.84
454.742	2.79
454.948	2.78
455.153	2.82
455.358	2.85
455.563	2.86
455.769	2.78
455.974	2.69
456.179	2.62
456.384	2.62
456.589	2.62
456.795	2.54
457	2.57
457.205	2.64
457.41	2.72
457.615	2.83
457.82	2.84
458.025	2.81
458.23	2.85
458.435	2.8
458.64	2.83
458.845	2.79
459.05	2.76
459.255	2.75
459.46	2.74
459.665	2.8
459.87	2.84
460.075	2.85
460.28	2.91
460.485	2.96
460.69	2.93
460.895	3
461.099	3.02
461.304	3.04
461.509	2.97
461.714	2.96
461.919	2.91
462.123	2.97
462.328	2.93
462.533	2.87
462.738	2.87
462.942	2.94
463.147	2.96
463.352	3
463.556	3.03
463.761	3.07
463.966	3.1
464.17	3.12
464.375	3.08
464.58	3.04
464.784	3.07
464.989	3.06
465.193	3.05
465.398	3.02
465.602	3.03
465.807	3.09
466.011	3.14
466.216	3.11
466.42	3.14
466.625	3.16
466.829	3.24
467.034	3.25
467.238	3.24
467.443	3.26
467.647	3.27
467.851	3.25
468.056	3.25
468.26	3.23
468.464	3.19
468.669	3.21
468.873	3.19
469.077	3.22
469.282	3.27
