Data from Ofra_PS_T2_1A_1GT43_Reflection_3.txt Node
Date: Wed Jul 21 17:49:49 EDT 2021
User: Adam
Spectrometer: FLMT01687
Trigger mode: 0
Integration Time (sec): 1.100000E0
Scans to average: 2
Electric dark correction enabled: true
Nonlinearity correction enabled: false
Boxcar width: 2
XAxis mode: Wavelengths
Number of Pixels in Spectrum: 3648
>>>>>Begin Spectral Data<<<<<
179.494	558.4
179.716	632.24
179.937	638.91
180.158	647.5
180.38	1088.12
180.601	456.35
180.823	207.42
181.044	-60.66
181.265	93.38
181.486	16.35
181.708	101.39
181.929	277.55
182.15	-538.03
182.372	117.23
182.593	10.1
182.814	60.24
183.035	111.48
183.257	81.28
183.478	-58.3
183.699	38.75
183.92	9
184.141	6.47
184.363	-24.85
184.584	42.46
184.805	33.16
185.026	58.32
185.247	64.31
185.468	53.23
185.689	70.71
185.91	50.58
186.132	21.42
186.353	25.76
186.574	69.35
186.795	73.36
187.016	29.79
187.237	29.35
187.458	-5.02
187.679	-28.17
187.9	-64.39
188.121	-49.58
188.342	-28.11
188.563	22.64
188.784	57.25
189.005	80.65
189.226	160.25
189.447	134.5
189.667	81.07
189.888	-92.12
190.109	-846.75
190.33	-604.52
190.551	-1216.81
190.772	-237.05
190.993	-243.68
191.214	-153.49
191.434	-103.96
191.655	-17.42
191.876	-82.24
192.097	-106.12
192.318	-160.66
192.538	-176.25
192.759	-144.14
192.98	-22.41
193.201	18.9
193.421	18.89
193.642	27.26
193.863	42.12
194.083	3.25
194.304	-17.75
194.525	-15.12
194.745	-50.49
194.966	-105.61
195.187	-89.21
195.407	-109.31
195.628	-161.45
195.848	-148.44
196.069	-124.15
196.29	-40.35
196.51	-50.17
196.731	-61.72
196.951	-81.97
197.172	-83.37
197.392	-156.15
197.613	-143.7
197.833	-136.92
198.054	-121.88
198.274	-71.43
198.495	-80.15
198.715	-41.53
198.936	-52.48
199.156	-32.12
199.377	-101.01
199.597	-109.05
199.817	-149.6
200.038	-102.76
200.258	-192.05
200.479	-115.15
200.699	-102.47
200.919	-31.44
201.14	-8.78
201.36	4.72
201.58	36.01
201.801	63.53
202.021	37.15
202.241	23.4
202.461	22.88
202.682	-79.29
202.902	-163.7
203.122	-107.74
203.342	-83.67
203.563	-27.59
203.783	12.88
204.003	-22.18
204.223	-12.26
204.443	48.57
204.663	-18.37
204.884	-7.02
205.104	42.48
205.324	70.63
205.544	54.38
205.764	79.59
205.984	62.42
206.204	57.27
206.424	43.11
206.644	-11.6
206.864	-4.58
207.084	-20.18
207.304	-23.71
207.525	-176.56
207.745	-46.34
207.964	0.25
208.184	-33.16
208.404	-67.51
208.624	-61.67
208.844	-70.24
209.064	-329.95
209.284	-393.52
209.504	-193.81
209.724	-23.51
209.944	-2
210.164	32.33
210.384	48.34
210.604	28.61
210.823	-34.84
211.043	-63.68
211.263	-46.64
211.483	-54.38
211.703	-87.34
211.922	-57.01
212.142	11.79
212.362	21.01
212.582	8.53
212.801	10.75
213.021	-22.1
213.241	-40.12
213.461	-91.95
213.68	-117.3
213.9	-86.24
214.12	-54.12
214.339	-110.9
214.559	-71.07
214.779	-16.75
214.998	-15.33
215.218	-34.26
215.438	-1.09
215.657	-10.35
215.877	-18.55
216.096	-4.26
216.316	-9.15
216.535	-9.45
216.755	-18.95
216.974	-112.48
217.194	-160.51
217.413	-151.68
217.633	-176.39
217.852	-242.03
218.072	-87.39
218.291	-22.59
218.511	29.56
218.73	10.98
218.95	-9.92
219.169	-10.74
219.389	-66.1
219.608	-61.8
219.827	-50.82
220.047	-24.54
220.266	-10.95
220.485	-1.25
220.705	13.94
220.924	-19.03
221.143	20.85
221.363	-11.92
221.582	5.9
221.801	12.67
222.021	41.71
222.24	-19.41
222.459	47.33
222.678	-0.15
222.897	-49.53
223.117	-106.98
223.336	-119.78
223.555	-64
223.774	-21.5
223.993	2.65
224.213	62.38
224.432	49.34
224.651	49.16
224.87	21.91
225.089	28.65
225.308	14.14
225.527	37.86
225.746	35.2
225.965	23.96
226.184	-1.06
226.404	17.55
226.623	-14.22
226.842	-10.87
227.061	25.6
227.28	25.06
227.499	2.2
227.718	25.48
227.936	13.74
228.155	15.44
228.374	17.19
228.593	35.16
228.812	29.14
229.031	26.67
229.25	-34.41
229.469	-44.33
229.688	-52.1
229.907	-3.5
230.125	23.9
230.344	43.61
230.563	66.06
230.782	81.12
231.001	-0.09
231.22	-10.34
231.438	17.27
231.657	-3.26
231.876	-30.01
232.095	38.65
232.313	33.98
232.532	5.51
232.751	-40.7
232.969	-45.68
233.188	-135.89
233.407	-47.91
233.625	-22.72
233.844	-32.31
234.063	-31.29
234.281	-12.2
234.5	-25.49
234.719	-22.38
234.937	3.23
235.156	6.96
235.374	9.63
235.593	-3.76
235.811	-28.05
236.03	-39.72
236.249	-70.51
236.467	-71.47
236.686	-26.96
236.904	-12.1
237.123	-36.74
237.341	-33.15
237.559	-18.08
237.778	-46.24
237.996	-64.16
238.215	-18.59
238.433	2.54
238.652	-12.6
238.87	-26.01
239.088	-10.21
239.307	-15.16
239.525	-31.97
239.743	-49.78
239.962	-19.22
240.18	-51.7
240.398	-97.58
240.617	-86.24
240.835	-77.14
241.053	-63.87
241.271	11.06
241.49	42.78
241.708	24.46
241.926	21.05
242.144	23.12
242.363	-63.77
242.581	-79.86
242.799	-36.07
243.017	4.14
243.235	-33.82
243.453	-2.92
243.672	-12.54
243.89	-18.51
244.108	-29.64
244.326	12.21
244.544	17.97
244.762	16.68
244.98	26.66
245.198	15.71
245.416	-35.38
245.634	-62.4
245.852	-68.72
246.07	-103.18
246.288	-76.02
246.506	-75.5
246.724	-23.38
246.942	-10.53
247.16	28.65
247.378	40.62
247.596	41.83
247.814	39.16
248.032	14.48
248.25	1.95
248.468	-4.36
248.685	18.94
248.903	35.14
249.121	41.33
249.339	22.49
249.557	-3.85
249.775	0.29
249.992	-54.32
250.21	-58.03
250.428	-43.79
250.646	-64.38
250.863	-90.62
251.081	-67.88
251.299	-68.55
251.517	-51.27
251.734	-39.01
251.952	-44.03
252.17	-35.58
252.387	-12.34
252.605	-22.63
252.823	1.84
253.04	24.36
253.258	46.99
253.475	34.84
253.693	65.16
253.911	51.13
254.128	52.54
254.346	46.04
254.563	33.17
254.781	-8.41
254.998	-27.49
255.216	-39.39
255.433	-41.11
255.651	-3.73
255.868	37.76
256.086	57.57
256.303	48.47
256.521	47.06
256.738	23.02
256.956	-11.01
257.173	-35.74
257.39	-59.17
257.608	-74.83
257.825	-3.94
258.043	30.16
258.26	26.96
258.477	82.7
258.695	68.01
258.912	-17.6
259.129	-3.47
259.346	-25.48
259.564	-88.2
259.781	-84.04
259.998	-15.54
260.216	-6.04
260.433	38.68
260.65	52.17
260.867	48.74
261.084	21.81
261.302	9.33
261.519	-6.97
261.736	-34.73
261.953	-43.27
262.17	-8.3
262.387	-58.27
262.604	-86.47
262.822	-94.58
263.039	-80.31
263.256	-153.1
263.473	-75.02
263.69	-54.54
263.907	-2.52
264.124	9.54
264.341	22.73
264.558	8.02
264.775	12.55
264.992	-13.08
265.209	3.32
265.426	30.83
265.643	30.47
265.86	43.46
266.077	45.78
266.294	18.36
266.51	-29.28
266.727	-24.5
266.944	-15.09
267.161	-26.33
267.378	-19.77
267.595	14.37
267.812	-16.92
268.028	-39.57
268.245	-8.88
268.462	-37.05
268.679	-57.59
268.896	-6.45
269.112	-1.5
269.329	-6.86
269.546	5.83
269.763	1.97
269.979	-16.65
270.196	-31.42
270.413	-76.1
270.629	-94.86
270.846	-81.07
271.063	-72.45
271.279	-78.74
271.496	-53.1
271.712	-21.51
271.929	-9.4
272.146	-14.2
272.362	5.36
272.579	30.37
272.795	30.87
273.012	36.1
273.228	37.74
273.445	9.58
273.661	-15.23
273.878	-67.56
274.094	-85.39
274.311	-125.13
274.527	-30.72
274.744	-32.21
274.96	-20.56
275.177	-2.04
275.393	23.24
275.609	7.39
275.826	31.07
276.042	26.16
276.259	20.34
276.475	35.27
276.691	36.91
276.908	12.14
277.124	21.27
277.34	22.89
277.557	8.89
277.773	-12.38
277.989	-16.25
278.205	-20.63
278.422	-21.25
278.638	-18.37
278.854	12.28
279.07	26.27
279.286	11.94
279.503	-3.11
279.719	-18.73
279.935	-64.42
280.151	-92.58
280.367	-51.15
280.583	-63.7
280.799	-29.39
281.016	-44
281.232	-11.13
281.448	-18.09
281.664	19.37
281.88	-19.56
282.096	3.62
282.312	22.52
282.528	50.45
282.744	44.28
282.96	45.49
283.176	34.97
283.392	23.11
283.608	4.9
283.824	-6.41
284.04	-1.38
284.256	9.13
284.471	8.9
284.687	12.31
284.903	37.65
285.119	82.91
285.335	56.92
285.551	83.7
285.767	62.65
285.982	28.7
286.198	-20.78
286.414	25.61
286.63	20.09
286.846	35.82
287.061	26.4
287.277	54.74
287.493	28.1
287.709	33.3
287.924	14.14
288.14	56.6
288.356	34.53
288.571	54.47
288.787	42.35
289.003	51.47
289.218	17.56
289.434	-28.13
289.65	-19.42
289.865	-31.45
290.081	-10.15
290.296	1
290.512	24.7
290.727	-22.11
290.943	-29.95
291.159	-40.65
291.374	-40.01
291.59	-61.09
291.805	-42.42
292.021	-20.25
292.236	-20.52
292.451	1.35
292.667	14.12
292.882	20.66
293.098	9.51
293.313	-9.83
293.529	-53.73
293.744	-91.93
293.959	-83.89
294.175	-64.89
294.39	-15.91
294.605	9.22
294.821	39.51
295.036	47.9
295.251	55.26
295.467	15.34
295.682	-5.45
295.897	-52.47
296.112	-76.34
296.328	-93.9
296.543	-90.87
296.758	-82.81
296.973	-19.41
297.188	29.45
297.404	4.11
297.619	-10.66
297.834	-20.83
298.049	-52.92
298.264	-91.26
298.479	-17.65
298.694	-9.87
298.909	13.5
299.125	13.43
299.34	19.15
299.555	-6.72
299.77	4.97
299.985	-34.66
300.2	-83.32
300.415	-110.53
300.63	-73.64
300.845	-81.9
301.06	-75.79
301.275	-29.34
301.49	0.28
301.704	-25.51
301.919	-33.7
302.134	-45.76
302.349	-44.77
302.564	-117.9
302.779	-116.38
302.994	-53.76
303.209	-48.52
303.423	-23.25
303.638	53.07
303.853	16.9
304.068	-8.03
304.283	-4.52
304.497	-4.56
304.712	-31.94
304.927	-15.78
305.142	-17.94
305.356	-4.39
305.571	-14.79
305.786	-11.52
306	-20.43
306.215	-31.14
306.43	-44.84
306.644	-26.75
306.859	41.04
307.074	43.41
307.288	25.28
307.503	33.87
307.717	8.48
307.932	-19.93
308.147	-30.37
308.361	4.09
308.576	-19.87
308.79	-70.74
309.005	-66.27
309.219	-38.23
309.434	-52.5
309.648	-44.21
309.863	-0.68
310.077	9.98
310.292	5.71
310.506	9.62
310.72	14.62
310.935	22.43
311.149	12.62
311.364	19.65
311.578	32.43
311.792	21.49
312.007	20.82
312.221	4.14
312.435	4.11
312.649	-7.11
312.864	17.59
313.078	17.32
313.292	68.93
313.507	37.55
313.721	29.99
313.935	17.3
314.149	8.37
314.363	-1.46
314.578	-0.84
314.792	12.46
315.006	3.26
315.22	17.61
315.434	22.97
315.648	38.25
315.862	28.66
316.077	30.75
316.291	15.45
316.505	18.34
316.719	-3.03
316.933	-30.04
317.147	-22.12
317.361	-89.96
317.575	-114.25
317.789	-149.81
318.003	-208.03
318.217	-157.57
318.431	-35.38
318.645	14.48
318.859	16.34
319.073	49.82
319.287	31.88
319.5	-6.02
319.714	-40.34
319.928	-67.33
320.142	-111.69
320.356	-75.62
320.57	-11.01
320.784	-26.84
320.997	-29.4
321.211	-33.27
321.425	-81.51
321.639	-124.34
321.853	-54.39
322.066	-33.12
322.28	-19.57
322.494	-10.92
322.707	23.63
322.921	0.99
323.135	-0.21
323.349	9.16
323.562	-6.77
323.776	-38.24
323.989	-37.2
324.203	-53.96
324.417	-80.45
324.63	-90.95
324.844	-76.32
325.057	-74.81
325.271	-34.2
325.485	5.69
325.698	23.79
325.912	34.44
326.125	27.67
326.339	17.51
326.552	-7.21
326.766	9.12
326.979	16.77
327.193	42.07
327.406	35.95
327.619	26.46
327.833	40.61
328.046	14
328.26	-20.95
328.473	-12.98
328.686	-31.56
328.9	-46.02
329.113	-33.29
329.326	-65.89
329.54	-43.59
329.753	-44.4
329.966	-53.48
330.179	-43.61
330.393	-14.89
330.606	-15.81
330.819	6.73
331.032	15.34
331.246	21.61
331.459	55.95
331.672	48.05
331.885	31.85
332.098	9.68
332.311	11.73
332.525	-52.29
332.738	-19.25
332.951	5.6
333.164	26.62
333.377	16.78
333.59	39.22
333.803	21.49
334.016	16.95
334.229	9.7
334.442	26.17
334.655	40.56
334.868	49.04
335.081	43.88
335.294	30.81
335.507	17.52
335.72	-17.6
335.933	-32.33
336.146	-50.67
336.359	-36.49
336.572	-72.07
336.785	-64.34
336.997	-44.96
337.21	-1.73
337.423	-10.69
337.636	-3.75
337.849	4.79
338.062	-8.18
338.274	-20.74
338.487	-29.54
338.7	-18.39
338.913	-60.52
339.125	-79.44
339.338	-121.66
339.551	-103.02
339.763	-48.11
339.976	-22.05
340.189	11.92
340.402	24.62
340.614	22.06
340.827	1.7
341.039	-8.17
341.252	-10.56
341.465	4.03
341.677	-4.2
341.89	-40.77
342.102	-4.4
342.315	-16.71
342.527	-39.02
342.74	-24.37
342.952	11.84
343.165	3.15
343.377	17.17
343.59	-1.32
343.802	10.93
344.015	20.29
344.227	29.47
344.44	29.79
344.652	37.77
344.864	12.97
345.077	19.65
345.289	16.2
345.502	15.35
345.714	11.45
345.926	21.03
346.139	21.23
346.351	34.82
346.563	48.47
346.775	52.54
346.988	36.49
347.2	13.54
347.412	-45.05
347.624	-81.92
347.837	-88.66
348.049	-49.29
348.261	6.08
348.473	17.45
348.685	24.04
348.897	7.1
349.11	-13.59
349.322	-37.66
349.534	-6.73
349.746	-5.99
349.958	11.49
350.17	11.81
350.382	3.58
350.594	-6.65
350.806	-9.38
351.018	-16.31
351.23	-24.48
351.442	-55.22
351.654	-54.71
351.866	-35.97
352.078	-7.7
352.29	18.22
352.502	33.07
352.714	29.8
352.926	12.61
353.138	3.19
353.35	-8.19
353.561	-22.78
353.773	-37.41
353.985	-22.13
354.197	-21.42
354.409	-30.69
354.621	-31.48
354.832	-22.46
355.044	-35.07
355.256	-38.27
355.468	-13.54
355.679	-18.89
355.891	-18
356.103	-34.56
356.314	-41.07
356.526	-61.69
356.738	-41.6
356.949	-30.43
357.161	-2.73
357.373	3.17
357.584	-1.46
357.796	-7.65
358.008	-19.57
358.219	7.53
358.431	4.4
358.642	7.48
358.854	8.41
359.065	7.55
359.277	-42.33
359.488	-46.31
359.7	-89.24
359.911	-105.21
360.123	-79.25
360.334	-87.85
360.546	-102.16
360.757	-83.57
360.969	-65.4
361.18	-45.33
361.391	-15.49
361.603	-14.25
361.814	12.79
362.025	17.62
362.237	-5
362.448	1.48
362.659	12.03
362.871	9.56
363.082	6.94
363.293	7.72
363.504	-9.47
363.716	-34.4
363.927	-27.03
364.138	-50.36
364.349	-62.23
364.56	-47.22
364.772	-45.9
364.983	-34.85
365.194	-30.26
365.405	-11.04
365.616	8.83
365.827	6.83
366.038	-19.94
366.25	-16.81
366.461	-46.63
366.672	-32.16
366.883	-2
367.094	15.25
367.305	4.07
367.516	16.63
367.727	-22.08
367.938	-40.9
368.149	-37.48
368.36	-17.36
368.571	-19.27
368.781	-16.65
368.992	-21.24
369.203	-44.15
369.414	-73.66
369.625	-78.24
369.836	-76.64
370.047	-103.12
370.258	-90.67
370.468	-84.02
370.679	-99.21
370.89	-86.7
371.101	-46.31
371.312	-45.9
371.522	-38.49
371.733	-21.01
371.944	-9.02
372.155	-12.32
372.365	-21.53
372.576	-13.32
372.787	-13.41
372.997	-41.19
373.208	-40.79
373.419	4.74
373.629	-26.12
373.84	-25.87
374.05	-20.41
374.261	-17.97
374.472	-53.82
374.682	9.91
374.893	1.11
375.103	40.38
375.314	38.12
375.524	39.16
375.735	24.12
375.945	32.13
376.156	-5.64
376.366	-8.17
376.577	-7.8
376.787	-24.21
376.997	-17.91
377.208	-11.24
377.418	-28.73
377.629	-6.31
377.839	-0.16
378.049	-1.68
378.26	11.82
378.47	29.29
378.68	9.92
378.89	3.14
379.101	-1.78
379.311	-38.19
379.521	-68.99
379.732	-61.13
379.942	-50.56
380.152	-61.55
380.362	-17.88
380.572	-13.38
380.783	0.51
380.993	9.48
381.203	24.48
381.413	28.76
381.623	36.13
381.833	20.76
382.043	8.21
382.253	-8.38
382.463	-2.89
382.674	-19.42
382.884	-41.28
383.094	-37.06
383.304	-25.59
383.514	-22.55
383.724	-1.23
383.934	0.05
384.144	-7.84
384.353	-13.32
384.563	-14.53
384.773	-19.44
384.983	-21.67
385.193	-2.48
385.403	-3.25
385.613	-11.86
385.823	-26.03
386.033	-10.9
386.242	-22.07
386.452	-20.85
386.662	-26.65
386.872	-5.96
387.082	-16.33
387.291	-20.76
387.501	-21.93
387.711	-13.84
387.921	-21.59
388.13	-20.34
388.34	-10.07
388.55	-15.74
388.759	-18.01
388.969	-16.77
389.179	-13.92
389.388	-13.78
389.598	-3.46
389.807	-9.07
390.017	-13.41
390.227	-14.63
390.436	-15.85
390.646	-15.07
390.855	-7.59
391.065	-3.83
391.274	-3.34
391.484	-4.84
391.693	-4.42
391.903	-4.93
392.112	1.38
392.322	4.23
392.531	9.51
392.74	9.6
392.95	5.53
393.159	2.44
393.369	2.95
393.578	0.6
393.787	-0.37
393.997	1.83
394.206	-0.42
394.415	-0.61
394.625	0.03
394.834	-2.18
395.043	-1
395.252	1.47
395.462	2.64
395.671	3.74
395.88	5.1
396.089	5.52
396.298	3.54
396.508	2.81
396.717	1.35
396.926	2.27
397.135	1.72
397.344	1.64
397.553	2.76
397.762	4.97
397.971	4.55
398.181	5.07
398.39	4.61
398.599	3.37
398.808	2.32
399.017	3.15
399.226	3.93
399.435	5.22
399.644	5.91
399.853	5.28
400.062	4.47
400.27	3.68
400.479	3.28
400.688	2.47
400.897	2.55
401.106	2.8
401.315	2.71
401.524	3.11
401.733	3.72
401.941	4.38
402.15	4.26
402.359	4.18
402.568	4.34
402.777	4.42
402.985	4.05
403.194	4.13
403.403	4.32
403.612	3.85
403.82	3.73
404.029	3.93
404.238	3.59
404.446	3.73
404.655	3.57
404.864	3.35
405.072	2.95
405.281	3.33
405.489	2.98
405.698	3.05
405.906	3.06
406.115	3.13
406.324	2.96
406.532	3.17
406.741	3.46
406.949	3.47
407.158	3.65
407.366	3.77
407.574	3.64
407.783	3.63
407.991	3.59
408.2	3.75
408.408	3.65
408.617	3.59
408.825	3.33
409.033	3.42
409.242	3.34
409.45	3.44
409.658	3.35
409.867	3.51
410.075	3.43
410.283	3.24
410.491	3.11
410.7	3.06
410.908	3.02
411.116	3.27
411.324	3.22
411.533	3.17
411.741	3.49
411.949	3.41
412.157	3.08
412.365	3.11
412.573	3.22
412.781	3.28
412.99	3.15
413.198	3.42
413.406	3.44
413.614	3.33
413.822	3
414.03	3.02
414.238	2.78
414.446	2.83
414.654	2.65
414.862	2.64
415.07	2.71
415.278	2.88
415.486	2.77
415.694	2.97
415.902	2.99
416.109	2.86
416.317	2.72
416.525	2.48
416.733	2.4
416.941	2.57
417.149	2.6
417.357	2.66
417.564	2.95
417.772	3.24
417.98	3.12
418.188	3.17
418.395	3.24
418.603	3.33
418.811	2.97
419.019	2.91
419.226	3.11
419.434	3.17
419.642	2.95
419.849	3.07
420.057	3.18
420.265	3.13
420.472	2.78
420.68	2.87
420.887	2.76
421.095	2.73
421.302	2.64
421.51	2.96
421.717	2.93
421.925	3.1
422.132	3.08
422.34	2.86
422.547	2.86
422.755	2.78
422.962	2.53
423.17	2.41
423.377	2.51
423.585	2.41
423.792	2.34
423.999	2.48
424.207	2.49
424.414	2.53
424.621	2.53
424.829	2.45
425.036	2.6
425.243	2.75
425.451	2.72
425.658	2.58
425.865	2.83
426.072	2.71
426.28	2.88
426.487	2.84
426.694	2.87
426.901	2.71
427.108	2.65
427.315	2.39
427.523	2.79
427.73	2.79
427.937	2.77
428.144	2.7
428.351	2.83
428.558	2.78
428.765	2.74
428.972	2.74
429.179	2.82
429.386	3
429.593	2.57
429.8	2.43
430.007	2.65
430.214	2.74
430.421	2.5
430.628	2.56
430.835	2.58
431.042	2.63
431.249	2.63
431.456	2.62
431.662	2.67
431.869	2.95
432.076	2.95
432.283	3.04
432.49	3.09
432.697	3.21
432.903	2.91
433.11	2.79
433.317	2.84
433.524	3.05
433.73	2.93
433.937	3.32
434.144	3.24
434.35	3.18
434.557	2.91
434.764	2.95
434.97	2.68
435.177	2.79
435.384	2.66
435.59	2.86
435.797	3.11
436.003	3.24
436.21	3.22
436.416	3.34
436.623	3.2
436.829	3.2
437.036	3.32
437.242	3.41
437.449	3.32
437.655	3.37
437.862	3.31
438.068	3.14
438.275	3.24
438.481	3.48
438.687	3.47
438.894	3.47
439.1	3.51
439.307	3.6
439.513	3.42
439.719	3.43
439.926	3.52
440.132	3.55
440.338	3.38
440.544	3.53
440.751	3.47
440.957	3.45
441.163	3.41
441.369	3.53
441.575	3.3
441.782	3.38
441.988	3.26
442.194	3.2
442.4	3.07
442.606	3.43
442.812	3.48
443.018	3.67
443.224	3.88
443.431	4.12
443.637	3.86
443.843	3.76
444.049	3.65
444.255	3.61
444.461	3.51
444.667	3.43
444.873	3.65
445.079	3.67
445.284	3.68
445.49	3.5
445.696	3.51
445.902	3.32
446.108	3.27
446.314	3.19
446.52	3.32
446.726	3.54
446.931	3.54
447.137	3.69
447.343	3.81
447.549	3.75
447.755	3.56
447.96	3.7
448.166	3.57
448.372	3.51
448.578	3.54
448.783	3.63
448.989	3.69
449.195	3.9
449.4	3.88
449.606	3.83
449.812	3.8
450.017	3.74
450.223	3.57
450.428	3.54
450.634	3.78
450.84	3.88
451.045	3.82
451.251	3.73
451.456	4.02
451.662	4
451.867	4.03
452.073	4.05
452.278	4.29
452.483	4.25
452.689	4.09
452.894	4.09
453.1	4.14
453.305	3.97
453.51	3.86
453.716	3.87
453.921	3.92
454.127	3.84
454.332	3.84
454.537	3.82
454.742	3.91
454.948	3.84
455.153	3.94
455.358	4
455.563	4.18
455.769	4.23
455.974	4.22
456.179	4.08
456.384	4.11
456.589	4
456.795	3.82
457	3.78
457.205	4.05
457.41	3.96
457.615	3.89
457.82	4.06
458.025	4.09
458.23	3.91
458.435	4.03
458.64	3.95
458.845	4
459.05	4.05
459.255	4.19
459.46	4.15
459.665	4.17
459.87	4.16
460.075	4.06
460.28	3.97
460.485	4.04
460.69	4.11
