Data from Ofra_1a_PS_8HS23_Reflection_3.txt Node
Date: Tue Jul 20 11:03:05 EDT 2021
User: Adam
Spectrometer: FLMT01687
Trigger mode: 0
Integration Time (sec): 1.004000E0
Scans to average: 2
Electric dark correction enabled: true
Nonlinearity correction enabled: false
Boxcar width: 2
XAxis mode: Wavelengths
Number of Pixels in Spectrum: 3648
>>>>>Begin Spectral Data<<<<<
179.494	-664.47
179.716	-905.34
179.937	1863.88
180.158	-2380.25
180.38	270.31
180.601	128.86
180.823	195.25
181.044	213.56
181.265	493.79
181.486	-53.55
181.708	-69.05
181.929	-1154.55
182.15	85.61
182.372	-505.91
182.593	-306.13
182.814	186.59
183.035	74.03
183.257	57.01
183.478	18.73
183.699	-10.71
183.92	-58.35
184.141	-66.21
184.363	-40.11
184.584	-25.89
184.805	3.93
185.026	50.42
185.247	45.69
185.468	12.59
185.689	17.58
185.91	-21.35
186.132	-23.49
186.353	-19.63
186.574	-0.83
186.795	7.18
187.016	15.7
187.237	12.31
187.458	27.61
187.679	24.86
187.9	22.53
188.121	33.52
188.342	43.46
188.563	34.61
188.784	52.25
189.005	35.04
189.226	33.43
189.447	18.12
189.667	0.68
189.888	-16.2
190.109	-43.99
190.33	-27.39
190.551	-22.9
190.772	-3.99
190.993	-32.94
191.214	-18.65
191.434	-44.07
191.655	-51.19
191.876	-27.52
192.097	29.29
192.318	42.51
192.538	8.16
192.759	2.93
192.98	19.71
193.201	4.42
193.421	-2.96
193.642	16.45
193.863	34.3
194.083	7.35
194.304	19.88
194.525	-2.13
194.745	8.95
194.966	-19.67
195.187	-6.68
195.407	-21.42
195.628	3.15
195.848	-2.08
196.069	-10.61
196.29	-12.66
196.51	-31.16
196.731	-38.95
196.951	-58.78
197.172	-22.27
197.392	-32.83
197.613	2.1
197.833	-15.98
198.054	-23.84
198.274	-43.44
198.495	-39.73
198.715	-26.04
198.936	-1.59
199.156	14.2
199.377	42.69
199.597	60.34
199.817	35.27
200.038	4.45
200.258	22.88
200.479	-11.37
200.699	-40.42
200.919	-53.75
201.14	-23.1
201.36	-63.64
201.58	-72
201.801	-91.64
202.021	-86.65
202.241	-97.55
202.461	-70.33
202.682	-20.83
202.902	-4.28
203.122	0.12
203.342	9.76
203.563	-2.51
203.783	-26.99
204.003	-39.25
204.223	-10.67
204.443	-12.78
204.663	9.35
204.884	19.46
205.104	15.87
205.324	-31.09
205.544	-69.87
205.764	-22.03
205.984	-15.78
206.204	-21.25
206.424	-19.16
206.644	-29.04
206.864	-75.48
207.084	-45.24
207.304	-32.01
207.525	-13.76
207.745	21.75
207.964	35.01
208.184	44.15
208.404	11.55
208.624	9.59
208.844	-7.14
209.064	-27.51
209.284	-46.47
209.504	-58.3
209.724	-63.29
209.944	-76.63
210.164	-60.73
210.384	-63.13
210.604	-116.14
210.823	-95.87
211.043	-77.09
211.263	-206.15
211.483	-119.83
211.703	-70.68
211.922	-126.77
212.142	-102.98
212.362	-45.68
212.582	-70.12
212.801	-66.08
213.021	-45.39
213.241	-44.22
213.461	-36.77
213.68	-7.7
213.9	-23.76
214.12	-17.66
214.339	-16.74
214.559	-4
214.779	-13.71
214.998	5.89
215.218	-5.21
215.438	10.11
215.657	-5.48
215.877	-3.58
216.096	15.89
216.316	24.54
216.535	0.31
216.755	10.7
216.974	11.16
217.194	-8.65
217.413	-10.72
217.633	-9.44
217.852	-6.78
218.072	-8.35
218.291	-8.69
218.511	-11.62
218.73	-19.53
218.95	-59.25
219.169	-71.75
219.389	-39.35
219.608	-42.25
219.827	-9.71
220.047	7.66
220.266	0.95
220.485	-30.49
220.705	-8.23
220.924	-49.95
221.143	-4.11
221.363	12.82
221.582	1.5
221.801	-1.59
222.021	7.84
222.24	3.24
222.459	16.37
222.678	12.55
222.897	-8.85
223.117	7.16
223.336	-7.83
223.555	-18.17
223.774	20.36
223.993	53.43
224.213	41.92
224.432	39.52
224.651	25.89
224.87	6.93
225.089	-5.75
225.308	5.16
225.527	-13.45
225.746	-5.68
225.965	-4.79
226.184	-12.74
226.404	-23.6
226.623	5.92
226.842	5.18
227.061	15.42
227.28	31.99
227.499	28.31
227.718	27.6
227.936	17.94
228.155	14.49
228.374	5.94
228.593	6.14
228.812	-0.43
229.031	8.04
229.25	-3.79
229.469	-15.52
229.688	-10.87
229.907	-13.32
230.125	-10.25
230.344	-2.59
230.563	12.83
230.782	23.79
231.001	29.9
231.22	23.55
231.438	40.31
231.657	30.04
231.876	19.99
232.095	16.68
232.313	7.47
232.532	-5.82
232.751	-9.69
232.969	-12.17
233.188	-19.46
233.407	-7.1
233.625	-11.98
233.844	-5.28
234.063	-3.6
234.281	11.86
234.5	6.24
234.719	10.17
234.937	-14.78
235.156	-16.14
235.374	-33.5
235.593	-30.08
235.811	-27.9
236.03	-4.58
236.249	-4.88
236.467	2.32
236.686	-2.38
236.904	9.23
237.123	0.89
237.341	-0.28
237.559	-17.58
237.778	17.12
237.996	-24.02
238.215	-43.08
238.433	-98.27
238.652	-24.49
238.87	-49.54
239.088	-28.95
239.307	-20.28
239.525	-1.93
239.743	-18.17
239.962	-42.28
240.18	-20.66
240.398	-18.47
240.617	-29.6
240.835	-15.06
241.053	4.65
241.271	19.46
241.49	29.44
241.708	18.89
241.926	27.72
242.144	39.65
242.363	-9.97
242.581	-74.46
242.799	-35.79
243.017	-35.22
243.235	-38.88
243.453	-41.14
243.672	-7.44
243.89	-12.31
244.108	-15.02
244.326	16.81
244.544	22.86
244.762	4.38
244.98	6.74
245.198	10.05
245.416	-6.8
245.634	-12.33
245.852	-18.52
246.07	0.44
246.288	-0.07
246.506	-15.29
246.724	8.81
246.942	18.34
247.16	14.8
247.378	-6.29
247.596	15.22
247.814	-31.1
248.032	-34.59
248.25	-36.42
248.468	-1.89
248.685	1.48
248.903	-6.25
249.121	6.13
249.339	4.25
249.557	-6.4
249.775	-1.52
249.992	11.01
250.21	-5.74
250.428	3.36
250.646	3.91
250.863	-11.39
251.081	-12.01
251.299	-0.96
251.517	3.55
251.734	8.83
251.952	9.14
252.17	20.63
252.387	7.27
252.605	-18.02
252.823	-29.27
253.04	-7.44
253.258	-12.98
253.475	0.12
253.693	4
253.911	-4.51
254.128	-5.79
254.346	-2.21
254.563	1.23
254.781	-3.59
254.998	-4.52
255.216	-45.41
255.433	-69.02
255.651	-55.23
255.868	-38.39
256.086	-23.86
256.303	-4.89
256.521	7.16
256.738	-2.26
256.956	-15.75
257.173	-18.35
257.39	-17.77
257.608	-26.62
257.825	-23.01
258.043	-5.18
258.26	-1.29
258.477	2.73
258.695	4.2
258.912	1.77
259.129	-19.71
259.346	-35.14
259.564	-40.85
259.781	-46.09
259.998	-11.52
260.216	14.64
260.433	-0.66
260.65	-6.16
260.867	3.91
261.084	-9.73
261.302	-20.97
261.519	20.31
261.736	22.91
261.953	18.36
262.17	18.46
262.387	4.49
262.604	-4.3
262.822	8.31
263.039	12.74
263.256	5.61
263.473	9.34
263.69	6.95
263.907	-5.66
264.124	-7.13
264.341	8.99
264.558	8.86
264.775	8.35
264.992	23.12
265.209	-7.73
265.426	-40.6
265.643	-27.89
265.86	-61.75
266.077	-83.39
266.294	-42.32
266.51	-8.23
266.727	-23.23
266.944	3.16
267.161	-5.36
267.378	-0.32
267.595	-25.38
267.812	-35.16
268.028	-57.58
268.245	-43.08
268.462	-51.74
268.679	-24.43
268.896	-2.19
269.112	-18
269.329	-29.63
269.546	9.4
269.763	-3.35
269.979	-15.35
270.196	9.24
270.413	6.48
270.629	-20.46
270.846	-25.63
271.063	-1.57
271.279	-16.87
271.496	-29.12
271.712	-11.47
271.929	-7.23
272.146	-23.74
272.362	-4.81
272.579	14.01
272.795	-6.27
273.012	8.7
273.228	20.8
273.445	2.24
273.661	-4.68
273.878	-5.15
274.094	-23.19
274.311	-30.39
274.527	-36.51
274.744	-18.99
274.96	4.91
275.177	10.58
275.393	12.14
275.609	19.88
275.826	-0.56
276.042	-10.07
276.259	-18.83
276.475	-39.53
276.691	-43.56
276.908	-19.9
277.124	-1.74
277.34	9.78
277.557	28.16
277.773	28.08
277.989	26.72
278.205	0.87
278.422	5.42
278.638	-3.2
278.854	-5.44
279.07	6.49
279.286	-1.49
279.503	4.43
279.719	12.41
279.935	13.35
280.151	-10.19
280.367	3.9
280.583	-2.6
280.799	-8.55
281.016	-25.78
281.232	1.96
281.448	5.03
281.664	13.03
281.88	14.84
282.096	22.5
282.312	20.79
282.528	8.27
282.744	-2.16
282.96	-16.68
283.176	-40.72
283.392	-107.28
283.608	-73.09
283.824	-76.21
284.04	-98.98
284.256	-50.9
284.471	-15.78
284.687	-14.84
284.903	-7.12
285.119	21.24
285.335	26.82
285.551	28.23
285.767	27.48
285.982	25.54
286.198	-18.42
286.414	-35.21
286.63	-33.23
286.846	-27.93
287.061	-43.63
287.277	-24.47
287.493	-20.84
287.709	-34.27
287.924	-23.32
288.14	2.93
288.356	18.13
288.571	11.79
288.787	3.73
289.003	12.02
289.218	-13.67
289.434	-28.76
289.65	7.13
289.865	14.6
290.081	10.78
290.296	18.67
290.512	8.94
290.727	-9.89
290.943	-6.46
291.159	-6.22
291.374	-18.79
291.59	-0.81
291.805	-32.63
292.021	-32.66
292.236	-49.33
292.451	-34.51
292.667	-54.11
292.882	-15.97
293.098	-23.66
293.313	-21.33
293.529	-22.14
293.744	-22.99
293.959	-27.48
294.175	-28.22
294.39	-44.28
294.605	-17.04
294.821	-7.23
295.036	-7.32
295.251	1.95
295.467	13.54
295.682	12.77
295.897	-4.13
296.112	-14.47
296.328	-13.68
296.543	-17.93
296.758	-24.93
296.973	-13.19
297.188	-0.69
297.404	-24.33
297.619	-46.1
297.834	-102.42
298.049	-59.8
298.264	-63.32
298.479	-60.43
298.694	-2.3
298.909	20.87
299.125	20.73
299.34	22.51
299.555	35.16
299.77	29.85
299.985	13.84
300.2	0.89
300.415	6.89
300.63	-1.7
300.845	-25.32
301.06	-20.85
301.275	-9.4
301.49	-2.3
301.704	2.29
301.919	0.25
302.134	4.86
302.349	7
302.564	-13.73
302.779	-35.91
302.994	-9.08
303.209	-7.29
303.423	-18.4
303.638	1.07
303.853	10.08
304.068	-16.91
304.283	-10.25
304.497	-23.79
304.712	-5.63
304.927	14.38
305.142	20.24
305.356	20.91
305.571	34.37
305.786	20.99
306	16.98
306.215	27.26
306.43	18.5
306.644	5.08
306.859	3.72
307.074	19.36
307.288	12.58
307.503	28.46
307.717	25.85
307.932	20.17
308.147	3.44
308.361	2.19
308.576	-25.08
308.79	-20.16
309.005	-20.36
309.219	8.48
309.434	18.17
309.648	14.48
309.863	20.8
310.077	7.77
310.292	-4.14
310.506	-34.87
310.72	-29.47
310.935	-27.41
311.149	-18.46
311.364	-19.78
311.578	-0.07
311.792	9.48
312.007	20.91
312.221	10.66
312.435	-17.8
312.649	-17.5
312.864	-57.68
313.078	-61.06
313.292	-56.62
313.507	-40.12
313.721	-30.19
313.935	10.13
314.149	21.81
314.363	38.26
314.578	18.37
314.792	-13.98
315.006	-16.41
315.22	-28.04
315.434	-20.66
315.648	-12.66
315.862	7.39
316.077	3.71
316.291	-1.83
316.505	-37.94
316.719	-22.24
316.933	-16.83
317.147	-20.37
317.361	-16.35
317.575	-2.61
317.789	-8.64
318.003	-7.71
318.217	-0.41
318.431	7.36
318.645	-0.4
318.859	2.05
319.073	-7.71
319.287	-10.41
319.5	-9.99
319.714	-19.95
319.928	-19.8
320.142	-14.23
320.356	-1.66
320.57	-23.6
320.784	-11.57
320.997	-47.34
321.211	-20.49
321.425	-45.27
321.639	-10.7
321.853	3.99
322.066	15.35
322.28	-9.37
322.494	4.54
322.707	-2
322.921	-25.02
323.135	-10.98
323.349	-5.31
323.562	-10.09
323.776	-6.99
323.989	21.55
324.203	7.66
324.417	6.33
324.63	-10.69
324.844	-22.43
325.057	-60.41
325.271	-46.97
325.485	-67.04
325.698	-34.65
325.912	-17.41
326.125	-17.21
326.339	-10.48
326.552	5.16
326.766	-0.42
326.979	-2.29
327.193	7.76
327.406	-6.88
327.619	-8.96
327.833	-8.5
328.046	2.12
328.26	-10.18
328.473	-23.32
328.686	-25.32
328.9	-12.44
329.113	-35.96
329.326	-30.1
329.54	-0.76
329.753	14.72
329.966	14.3
330.179	30.92
330.393	40.52
330.606	30.32
330.819	4.86
331.032	-3.58
331.246	-4.55
331.459	-11.52
331.672	-13.54
331.885	-15.36
332.098	1.04
332.311	-17.52
332.525	-2.96
332.738	6.15
332.951	12.21
333.164	-0.3
333.377	14.27
333.59	9.63
333.803	-2.27
334.016	13.6
334.229	8.66
334.442	-10.15
334.655	-2.62
334.868	-7.78
335.081	-13.15
335.294	-8.84
335.507	11.98
335.72	2.06
335.933	14.77
336.146	9.55
336.359	14.98
336.572	8.12
336.785	2.31
336.997	-20.56
337.21	-22.58
337.423	-59.94
337.636	-57.42
337.849	-44.52
338.062	-20.17
338.274	-11.99
338.487	-20.45
338.7	-28.1
338.913	-15.34
339.125	-25.12
339.338	-28.38
339.551	-5.48
339.763	3.88
339.976	0.77
340.189	-1.09
340.402	14.08
340.614	19.5
340.827	32.64
341.039	23.61
341.252	15.39
341.465	2.25
341.677	-8.48
341.89	-34.38
342.102	-19.75
342.315	-19.04
342.527	-14.15
342.74	-18.98
342.952	-4.54
343.165	-2.45
343.377	13.9
343.59	10.54
343.802	12.72
344.015	18.51
344.227	10.55
344.44	-3.1
344.652	3.08
344.864	5.95
345.077	7.86
345.289	13.38
345.502	20.6
345.714	17.68
345.926	13.52
346.139	-8.08
346.351	-1.58
346.563	4.59
346.775	-13.38
346.988	-6.21
347.2	-5.71
347.412	-7.92
347.624	-6.51
347.837	6.75
348.049	6.89
348.261	-1.01
348.473	-18.5
348.685	-28.1
348.897	-48.62
349.11	-41.46
349.322	-24.8
349.534	-16.11
349.746	-14.33
349.958	-15.2
350.17	-18.12
350.382	-20.92
350.594	-3.64
350.806	12.4
351.018	29.83
351.23	32.32
351.442	34.12
351.654	28.04
351.866	21.42
352.078	16.97
352.29	4.64
352.502	10.2
352.714	-7.86
352.926	-7.88
353.138	-4.74
353.35	-4.38
353.561	-17.75
353.773	-12.86
353.985	-8.27
354.197	-6.91
354.409	-7.9
354.621	-27.99
354.832	-19.64
355.044	-36.01
355.256	-56.21
355.468	-61.6
355.679	-9.8
355.891	-5.61
356.103	-3.6
356.314	-0.18
356.526	-16.68
356.738	-26.62
356.949	-28.61
357.161	-10.67
357.373	-0.72
357.584	23.56
357.796	20.82
358.008	26.48
358.219	20.6
358.431	12.12
358.642	12.85
358.854	20.44
359.065	-1.55
359.277	0.62
359.488	3.1
359.7	-14.25
359.911	-26.38
360.123	0.97
360.334	-11.55
360.546	-15.91
360.757	-7.27
360.969	-11.88
361.18	-33.18
361.391	-13.68
361.603	-5.86
361.814	6.11
362.025	13.52
362.237	16.07
362.448	16.51
362.659	14.29
362.871	-18.25
363.082	-23.29
363.293	-29.31
363.504	-36.16
363.716	-44.64
363.927	8.84
364.138	0.3
364.349	-13.12
364.56	-28.56
364.772	-18.97
364.983	-19.61
365.194	-12.47
365.405	7.67
365.616	12.13
365.827	6.61
366.038	-4.11
366.25	2.23
366.461	-5.47
366.672	-0.65
366.883	-1.95
367.094	-7.33
367.305	-16.7
367.516	-16.1
367.727	-29.11
367.938	-31.18
368.149	-34.75
368.36	-36.75
368.571	-42.66
368.781	-34.92
368.992	-31.18
369.203	-29.69
369.414	-27.02
369.625	-26.9
369.836	-4.65
370.047	-10.06
370.258	-3.16
370.468	-7.65
370.679	-18.58
370.89	-35.11
371.101	-6.63
371.312	-11.33
371.522	-5.53
371.733	0.78
371.944	-4.98
372.155	-14.15
372.365	-15.3
372.576	-19.36
372.787	0.8
372.997	1.27
373.208	8.68
373.419	8.48
373.629	-1.16
373.84	-18.96
374.05	-25.12
374.261	-48.29
374.472	-40.09
374.682	-19.3
374.893	-29.08
375.103	-8.71
375.314	-4.08
375.524	-4.09
375.735	-1.29
375.945	13.54
376.156	1.33
376.366	4.46
376.577	3.16
376.787	6.28
376.997	9.59
377.208	9.67
377.418	3.67
377.629	7.57
377.839	4.59
378.049	0.62
378.26	-3.66
378.47	4.89
378.68	-2.94
378.89	-4.13
379.101	-3.92
379.311	-1.32
379.521	-11.84
379.732	-8.95
379.942	-4.48
380.152	-6.49
380.362	-9.75
380.572	4.79
380.783	18.15
380.993	17.67
381.203	14.15
381.413	21.97
381.623	16.11
381.833	7.83
382.043	-2.29
382.253	4.93
382.463	9.52
382.674	11
382.884	9.51
383.094	12.23
383.304	9.56
383.514	3.86
383.724	0.6
383.934	-10.09
384.144	-5.85
384.353	-2.46
384.563	-5.74
384.773	0.12
384.983	5.66
385.193	1.32
385.403	-1.21
385.613	7.63
385.823	5.5
386.033	5.51
386.242	4.71
386.452	-3.36
386.662	-9.79
386.872	-10.66
387.082	-13.13
387.291	-14.45
387.501	-6.41
387.711	-0.86
387.921	0.82
388.13	4.95
388.34	5.8
388.55	-0.58
388.759	-9.37
388.969	-12.14
389.179	-11.38
389.388	-8.73
389.598	-9.73
389.807	-9.46
390.017	-8.72
390.227	-11.88
390.436	-9.5
390.646	-4.6
390.855	-1.6
391.065	2.2
391.274	4.34
391.484	3.62
391.693	2.75
391.903	0.31
392.112	-1.32
392.322	-1.6
392.531	-2.51
392.74	-3.03
392.95	0.19
393.159	-0.68
393.369	-0.69
393.578	-1.01
393.787	-1.51
393.997	-0.3
394.206	0.68
394.415	2.22
394.625	1.96
394.834	1.82
395.043	0.76
395.252	2.78
395.462	3.1
395.671	3.94
395.88	6
396.089	5.94
396.298	5.47
396.508	5.63
396.717	6.04
396.926	5.18
397.135	5.56
397.344	4.95
397.553	4.42
397.762	4.41
397.971	4.26
398.181	3.45
398.39	2.91
398.599	3.01
398.808	3.09
399.017	3.98
399.226	4.04
399.435	4.2
399.644	3.97
399.853	3.64
400.062	3.12
400.27	3.07
400.479	3.33
400.688	3.35
400.897	3.47
401.106	3.58
401.315	3.75
401.524	3.8
401.733	3.81
401.941	3.96
402.15	3.88
402.359	3.86
402.568	4.03
402.777	4.14
402.985	3.81
403.194	4.02
403.403	4.1
403.612	3.74
403.82	3.47
404.029	3.85
404.238	3.57
404.446	3.62
404.655	3.61
404.864	3.88
405.072	3.56
405.281	3.66
405.489	3.66
405.698	3.89
405.906	3.87
406.115	3.88
406.324	3.89
406.532	3.9
406.741	3.8
406.949	3.71
407.158	3.94
407.366	3.85
407.574	3.79
407.783	3.76
407.991	3.65
408.2	3.65
408.408	3.65
408.617	3.51
408.825	3.29
409.033	3.4
409.242	3.34
409.45	3.29
409.658	3.33
409.867	3.49
410.075	3.58
410.283	3.42
410.491	3.25
410.7	3.21
410.908	3.34
411.116	3.28
411.324	3.28
411.533	3.35
411.741	3.4
411.949	3.41
412.157	3.26
412.365	3.27
412.573	3.33
412.781	3.32
412.99	3.18
413.198	3.29
413.406	3.3
413.614	3.37
413.822	3.45
414.03	3.49
414.238	3.48
414.446	3.62
414.654	3.45
414.862	3.43
415.07	3.27
415.278	3.24
415.486	2.97
415.694	3.09
415.902	2.94
416.109	2.8
416.317	2.82
416.525	2.93
416.733	2.92
416.941	2.94
417.149	3.11
417.357	3.14
417.564	3.12
417.772	3.2
417.98	3.14
418.188	3.13
418.395	2.88
418.603	2.78
418.811	2.57
419.019	2.64
419.226	2.59
419.434	2.76
419.642	2.7
419.849	2.69
420.057	2.64
420.265	2.71
420.472	2.64
420.68	2.92
420.887	2.95
421.095	2.97
421.302	3.06
421.51	3.06
421.717	2.83
421.925	2.97
422.132	3.04
422.34	2.69
422.547	2.62
422.755	2.7
422.962	2.63
423.17	2.42
423.377	2.65
423.585	2.89
423.792	2.85
423.999	2.89
424.207	2.94
424.414	3.01
424.621	2.82
424.829	2.93
425.036	2.9
425.243	2.89
425.451	2.74
425.658	2.64
425.865	2.52
426.072	2.53
426.28	2.8
426.487	2.83
426.694	2.81
426.901	2.85
427.108	2.71
427.315	2.44
427.523	2.48
427.73	2.54
427.937	2.41
428.144	2.46
428.351	2.57
428.558	2.6
428.765	2.68
428.972	2.94
429.179	2.81
429.386	2.87
429.593	2.85
429.8	2.69
430.007	2.63
430.214	2.83
430.421	2.89
430.628	2.91
430.835	3.1
431.042	3.04
431.249	3.03
431.456	2.91
431.662	2.97
431.869	3.02
432.076	3.03
432.283	3.09
432.49	3.09
432.697	3
432.903	2.96
433.11	3.02
433.317	3.09
433.524	3.12
433.73	3.16
433.937	3.3
434.144	3.19
434.35	3.05
434.557	3.18
434.764	3.22
434.97	3.13
435.177	3.27
435.384	3.41
435.59	3.34
435.797	3.5
436.003	3.57
436.21	3.59
436.416	3.52
436.623	3.6
436.829	3.48
437.036	3.46
437.242	3.44
437.449	3.59
437.655	3.56
437.862	3.65
438.068	3.65
438.275	3.77
438.481	3.75
438.687	3.7
438.894	3.71
439.1	3.69
439.307	3.7
439.513	3.7
439.719	3.78
439.926	3.81
440.132	3.86
440.338	3.85
440.544	3.8
440.751	3.79
440.957	3.72
441.163	3.62
441.369	3.67
441.575	3.66
441.782	3.82
441.988	3.93
442.194	3.98
442.4	3.97
442.606	4.17
442.812	4.04
443.018	4.02
443.224	4.17
443.431	4.06
443.637	3.89
443.843	3.94
444.049	4.05
444.255	4.05
444.461	4.09
444.667	4.14
444.873	4.1
445.079	3.99
445.284	3.94
445.49	4
445.696	3.98
445.902	4
446.108	4.08
446.314	4.07
446.52	4.17
446.726	4.26
446.931	4.29
447.137	4.26
447.343	4.38
447.549	4.34
447.755	4.34
447.96	4.43
448.166	4.47
448.372	4.39
448.578	4.35
448.783	4.32
448.989	4.33
449.195	4.32
449.4	4.38
449.606	4.36
449.812	4.36
450.017	4.4
450.223	4.37
450.428	4.36
450.634	4.43
450.84	4.42
451.045	4.41
451.251	4.48
451.456	4.51
451.662	4.5
451.867	4.56
452.073	4.53
452.278	4.51
452.483	4.52
452.689	4.51
452.894	4.54
453.1	4.58
453.305	4.5
453.51	4.48
453.716	4.51
453.921	4.56
454.127	4.5
454.332	4.54
454.537	4.56
454.742	4.62
454.948	4.62
455.153	4.66
455.358	4.68
455.563	4.73
455.769	4.73
455.974	4.65
456.179	4.6
456.384	4.56
456.589	4.46
456.795	4.31
457	4.31
457.205	4.33
457.41	4.41
457.615	4.45
457.82	4.57
458.025	4.61
458.23	4.6
458.435	4.61
458.64	4.67
458.845	4.67
459.05	4.64
459.255	4.63
459.46	4.59
459.665	4.54
459.87	4.59
460.075	4.72
460.28	4.78
460.485	4.94
460.69	5.01
460.895	5.03
461.099	4.8
461.304	4.79
461.509	4.73
461.714	4.7
461.919	4.6
462.123	4.73
462.328	4.69
462.533	4.55
462.738	4.57
462.942	4.59
463.147	4.59
463.352	4.7
463.556	4.84
463.761	4.83
463.966	4.85
464.17	4.99
464.375	5.06
