Data from Ofra_PS_T2_2A_2GT10_Reflection_2.txt Node
Date: Wed Jul 21 17:01:21 EDT 2021
User: Adam
Spectrometer: FLMT01687
Trigger mode: 0
Integration Time (sec): 1.100000E0
Scans to average: 2
Electric dark correction enabled: true
Nonlinearity correction enabled: false
Boxcar width: 2
XAxis mode: Wavelengths
Number of Pixels in Spectrum: 3648
>>>>>Begin Spectral Data<<<<<
179.494	283.2
179.716	392.47
179.937	397.98
180.158	427.5
180.38	778.12
180.601	371.27
180.823	100.51
181.044	39.81
181.265	138.97
181.486	57.1
181.708	89.38
181.929	391.84
182.15	-21.13
182.372	89.19
182.593	66.9
182.814	46.47
183.035	49.04
183.257	41.8
183.478	15.32
183.699	14.53
183.92	-15.24
184.141	-3.49
184.363	-45.73
184.584	-18.8
184.805	-4.62
185.026	8.5
185.247	13.5
185.468	8.85
185.689	9.68
185.91	17.63
186.132	23.44
186.353	21.13
186.574	75.94
186.795	69.57
187.016	34.45
187.237	37.29
187.458	54.55
187.679	25.21
187.9	33.9
188.121	39.48
188.342	55.95
188.563	65.43
188.784	79.29
189.005	45.04
189.226	79.77
189.447	71.88
189.667	8.74
189.888	-229.06
190.109	-845.45
190.33	-590.32
190.551	-1133.63
190.772	-292.74
190.993	-215.51
191.214	-187.34
191.434	-123.48
191.655	-58.16
191.876	-93.78
192.097	-110.14
192.318	-101.43
192.538	-157.48
192.759	-112.2
192.98	-65.04
193.201	-28.64
193.421	-20.87
193.642	10.42
193.863	-0.18
194.083	-7.41
194.304	-21.18
194.525	-27.86
194.745	-57.53
194.966	-58.02
195.187	-66.64
195.407	-84.89
195.628	-116.1
195.848	-130.76
196.069	-104.4
196.29	-43.83
196.51	-75.08
196.731	-74.55
196.951	-87.7
197.172	-107.46
197.392	-142.14
197.613	-124.31
197.833	-139.73
198.054	-115.25
198.274	-47.17
198.495	-73.96
198.715	-18.32
198.936	-41.91
199.156	-23.49
199.377	-113.78
199.597	-62.1
199.817	-116.69
200.038	-34.22
200.258	-101.32
200.479	-43.03
200.699	-87.46
200.919	-22.81
201.14	-27.37
201.36	-31.42
201.58	6.98
201.801	29.65
202.021	3.04
202.241	-13.84
202.461	-15.62
202.682	-126.39
202.902	-168.75
203.122	-116.74
203.342	-95.59
203.563	-55.49
203.783	-7.19
204.003	-43.25
204.223	-24.31
204.443	11.35
204.663	-10.43
204.884	-14.97
205.104	-18.61
205.324	-2.21
205.544	12.99
205.764	35.06
205.984	19.42
206.204	39.74
206.424	19.51
206.644	-35.86
206.864	-34.07
207.084	-81.9
207.304	-115.19
207.525	-260.63
207.745	-119.32
207.964	-37.45
208.184	-62.37
208.404	-80.25
208.624	-56.51
208.844	-64.08
209.064	-300
209.284	-331.09
209.504	-164.92
209.724	-63.71
209.944	-35.28
210.164	-2.87
210.384	7.11
210.604	6.47
210.823	-37.37
211.043	-59.04
211.263	-61.52
211.483	-43.98
211.703	-94.7
211.922	-79.74
212.142	-6.05
212.362	19.6
212.582	-4.56
212.801	6.5
213.021	-4.7
213.241	-27.49
213.461	-50.29
213.68	-48.76
213.9	-37.47
214.12	-16.72
214.339	-57.28
214.559	-59.33
214.779	-34.47
214.998	-16.16
215.218	-63.86
215.438	-39.38
215.657	-34.94
215.877	-23.49
216.096	-15.43
216.316	1.51
216.535	-7.5
216.755	-17.29
216.974	-81.86
217.194	-127.13
217.413	-137.63
217.633	-123.34
217.852	-202.11
218.072	-89.08
218.291	-33.43
218.511	10.98
218.73	-22.95
218.95	-5.25
219.169	-9.73
219.389	-51.56
219.608	-41.7
219.827	-27.92
220.047	-33.43
220.266	-32.25
220.485	-24.08
220.705	-27.37
220.924	-35.81
221.143	2.37
221.363	-17.37
221.582	-24.84
221.801	-24.44
222.021	-5.43
222.24	-99.72
222.459	-38.73
222.678	10.19
222.897	-9.02
223.117	-52.13
223.336	3.8
223.555	-7.54
223.774	23.52
223.993	9.54
224.213	54.63
224.432	41.56
224.651	56.37
224.87	21.34
225.089	35.76
225.308	30.14
225.527	31.52
225.746	18.28
225.965	7
226.184	-33.12
226.404	-22.18
226.623	-33.67
226.842	-28.06
227.061	12.52
227.28	26.35
227.499	26.88
227.718	23.76
227.936	21.56
228.155	11.07
228.374	-20.98
228.593	-7.45
228.812	0.87
229.031	-4.18
229.25	-36.37
229.469	-18.08
229.688	-9.32
229.907	2.97
230.125	10.84
230.344	16.81
230.563	18.42
230.782	21.44
231.001	-71.34
231.22	-52.72
231.438	-31.8
231.657	-26.9
231.876	-48.21
232.095	18.59
232.313	31.59
232.532	13.18
232.751	-0.31
232.969	-3.57
233.188	-78.63
233.407	-52.67
233.625	-24.68
233.844	-62.32
234.063	-63.15
234.281	-29.31
234.5	-48.62
234.719	-49.94
234.937	-9.33
235.156	6.33
235.374	2.47
235.593	-11.48
235.811	-29.66
236.03	-41.89
236.249	-90.42
236.467	-77.18
236.686	-12.28
236.904	16.95
237.123	2.95
237.341	5.86
237.559	7.35
237.778	-22.37
237.996	-55.63
238.215	-8.02
238.433	0.16
238.652	-1.88
238.87	-9.75
239.088	2.9
239.307	-9.13
239.525	-10.86
239.743	-25.83
239.962	-5.17
240.18	-31.17
240.398	-73.69
240.617	-79.97
240.835	-54.57
241.053	-34.32
241.271	29.25
241.49	43.51
241.708	34.51
241.926	3.85
242.144	-5.13
242.363	-108.99
242.581	-149.48
242.799	-76.83
243.017	-26.27
243.235	-48.55
243.453	-10.08
243.672	-8.79
243.89	-23.95
244.108	-48.86
244.326	-20.17
244.544	-20.01
244.762	-10.01
244.98	16.04
245.198	43.81
245.416	30.58
245.634	-0.21
245.852	-12.48
246.07	-61.07
246.288	-97.65
246.506	-150.47
246.724	-99.79
246.942	-65.84
247.16	-13.92
247.378	9.12
247.596	23.56
247.814	18.74
248.032	-15.9
248.25	-31.33
248.468	-31.12
248.685	-10.65
248.903	17.76
249.121	21.17
249.339	2.08
249.557	-5.38
249.775	-9.97
249.992	-76.08
250.21	-63.64
250.428	-45.26
250.646	-73.36
250.863	-94.57
251.081	-57.95
251.299	-55.14
251.517	-25.87
251.734	-10.53
251.952	-3.84
252.17	-4.34
252.387	-4.8
252.605	-17.52
252.823	-3.2
253.04	16.48
253.258	31.14
253.475	36.92
253.693	63.2
253.911	62.2
254.128	46.9
254.346	36.43
254.563	13.77
254.781	-11.26
254.998	-23.98
255.216	-23.06
255.433	-13.52
255.651	31.87
255.868	22.94
256.086	23.52
256.303	17.71
256.521	13.83
256.738	-1.85
256.956	-14.73
257.173	-31.2
257.39	-50.47
257.608	-77.07
257.825	-53.68
258.043	-39.84
258.26	-15.68
258.477	37.99
258.695	37.45
258.912	8.53
259.129	20.44
259.346	-16.48
259.564	-70.55
259.781	-83.08
259.998	-24.52
260.216	-11.25
260.433	30.36
260.65	27.55
260.867	39.15
261.084	8.29
261.302	0.9
261.519	-11.39
261.736	-29.41
261.953	-39.01
262.17	9.31
262.387	-36.3
262.604	-82.76
262.822	-79.63
263.039	-47.46
263.256	-125.92
263.473	-42.5
263.69	2.68
263.907	32.73
264.124	25.41
264.341	23.86
264.558	3.35
264.775	-0.98
264.992	-25.63
265.209	-18.25
265.426	14.1
265.643	20.46
265.86	19.16
266.077	31.5
266.294	1.92
266.51	-43.27
266.727	-58.02
266.944	-50.99
267.161	-60.58
267.378	-45.41
267.595	-6.62
267.812	-32.87
268.028	-50.17
268.245	-43.45
268.462	-53.63
268.679	-54.31
268.896	3.97
269.112	-6.93
269.329	5.26
269.546	14.71
269.763	-2.49
269.979	-30.53
270.196	-23.01
270.413	-63.82
270.629	-76.21
270.846	-78.54
271.063	-65.62
271.279	-63.79
271.496	-47.04
271.712	-4.08
271.929	19.38
272.146	-3.73
272.362	17.73
272.579	45.17
272.795	13.1
273.012	27.08
273.228	36
273.445	14.13
273.661	-27.64
273.878	-51.98
274.094	-87.19
274.311	-101.34
274.527	-40.68
274.744	-19.02
274.96	-25.07
275.177	8.59
275.393	17.01
275.609	0.37
275.826	8.58
276.042	12.68
276.259	-22.96
276.475	-4.48
276.691	-1.91
276.908	-20.01
277.124	-1.98
277.34	7.81
277.557	-12.58
277.773	-12.01
277.989	-19.91
278.205	-34.56
278.422	-11.65
278.638	4.51
278.854	17.48
279.07	36.09
279.286	60.19
279.503	33.43
279.719	11.83
279.935	8.65
280.151	9.54
280.367	18.84
280.583	4.77
280.799	2.78
281.016	-45.21
281.232	-27.23
281.448	-51.5
281.664	-16.68
281.88	-31.41
282.096	9.82
282.312	37.5
282.528	46.59
282.744	43.85
282.96	30.37
283.176	20.78
283.392	5.83
283.608	9.6
283.824	1.52
284.04	2.07
284.256	-0.69
284.471	-11.45
284.687	-29.77
284.903	0.57
285.119	25.72
285.335	23.04
285.551	46.37
285.767	52.2
285.982	23.09
286.198	0.24
286.414	27.49
286.63	17.81
286.846	21.49
287.061	1.32
287.277	34.56
287.493	-5.49
287.709	6.18
287.924	-8.52
288.14	26.69
288.356	11.29
288.571	41.61
288.787	12.18
289.003	10.25
289.218	-15.39
289.434	-53.67
289.65	-52.65
289.865	-43.82
290.081	-19.01
290.296	-17.39
290.512	6.7
290.727	-33.36
290.943	-19.18
291.159	-21.6
291.374	-8.9
291.59	-16.68
291.805	11.57
292.021	3
292.236	-6.19
292.451	2.33
292.667	10.63
292.882	15.14
293.098	12.77
293.313	-3.25
293.529	-14.46
293.744	-41.82
293.959	-50.41
294.175	-46.58
294.39	-7.29
294.605	5.81
294.821	24.54
295.036	25.51
295.251	40.49
295.467	39.37
295.682	13.37
295.897	-37.33
296.112	-49.82
296.328	-49.93
296.543	-97.22
296.758	-74.53
296.973	-13.88
297.188	15.03
297.404	-5.67
297.619	-19.42
297.834	-13.18
298.049	-34.47
298.264	-48.87
298.479	-11.43
298.694	8.72
298.909	26.18
299.125	23.58
299.34	18.42
299.555	-1.75
299.77	-3.29
299.985	-54.4
300.2	-97.5
300.415	-101.24
300.63	-79.45
300.845	-72.5
301.06	-63.08
301.275	-20.84
301.49	4.71
301.704	-4.05
301.919	-17.85
302.134	-34.59
302.349	-31.58
302.564	-98.19
302.779	-130.93
302.994	-150.47
303.209	-96.43
303.423	-87
303.638	-3.43
303.853	-15.23
304.068	-15.01
304.283	-6.12
304.497	-9.61
304.712	-27.64
304.927	-16.46
305.142	-16.1
305.356	-16.26
305.571	-18.62
305.786	-23.27
306	-39.17
306.215	-34.62
306.43	-49.45
306.644	-43.24
306.859	-19.04
307.074	-7.66
307.288	-39.9
307.503	-45.7
307.717	-48.23
307.932	-54.64
308.147	-56.25
308.361	-16.62
308.576	-14.86
308.79	-37.32
309.005	-22.13
309.219	-6.49
309.434	-34.42
309.648	-26.49
309.863	-5.19
310.077	-4.93
310.292	1.8
310.506	10.2
310.72	13.06
310.935	13.97
311.149	14.42
311.364	17.56
311.578	32.35
311.792	28.91
312.007	25.81
312.221	5.09
312.435	12.06
312.649	-6.93
312.864	-6.1
313.078	10.39
313.292	73.69
313.507	27.04
313.721	21.57
313.935	30.8
314.149	18.21
314.363	6.43
314.578	9.1
314.792	19.45
315.006	-5.47
315.22	14.27
315.434	10.66
315.648	24.62
315.862	18.85
316.077	18.78
316.291	2.25
316.505	1.7
316.719	-32.83
316.933	-34.66
317.147	-23.66
317.361	-66.55
317.575	-90.2
317.789	-103.46
318.003	-141.78
318.217	-115.36
318.431	-35.55
318.645	26.96
318.859	20.88
319.073	31.09
319.287	28.4
319.5	-0.81
319.714	-54.5
319.928	-76.14
320.142	-105.23
320.356	-75
320.57	-36.4
320.784	-39.17
320.997	-51.76
321.211	-30.73
321.425	-87.11
321.639	-91.42
321.853	-43.87
322.066	-18.37
322.28	-20.67
322.494	-11.94
322.707	-10.08
322.921	-14.14
323.135	-23.6
323.349	-20.74
323.562	-18.18
323.776	-36.57
323.989	-37.97
324.203	-49.93
324.417	-59.88
324.63	-82.1
324.844	-56.84
325.057	-54.85
325.271	-31.03
325.485	9.6
325.698	32.75
325.912	32.35
326.125	9.88
326.339	9.38
326.552	-22.04
326.766	-18.18
326.979	0.77
327.193	31.32
327.406	27.7
327.619	21.7
327.833	29.33
328.046	5.71
328.26	-24.22
328.473	-12.29
328.686	-40.55
328.9	-50.44
329.113	-35.22
329.326	-43.96
329.54	-36.64
329.753	-23.13
329.966	-44.39
330.179	-32.37
330.393	-14.63
330.606	-6.75
330.819	22.63
331.032	38.15
331.246	31.03
331.459	56.1
331.672	56.32
331.885	32.85
332.098	6.23
332.311	3.99
332.525	-60.92
332.738	-69.91
332.951	-38.59
333.164	-0.53
333.377	16.36
333.59	39.54
333.803	40.53
334.016	22.81
334.229	23.47
334.442	16.9
334.655	19.67
334.868	21.99
335.081	26.25
335.294	5.45
335.507	1.17
335.72	6.8
335.933	-3.24
336.146	-0.76
336.359	-1
336.572	-38.44
336.785	-67.83
336.997	-49.24
337.21	-29.15
337.423	-24.06
337.636	-2.46
337.849	4.84
338.062	-9.82
338.274	-11.57
338.487	-30.04
338.7	-51.14
338.913	-90.45
339.125	-105.68
339.338	-191.2
339.551	-162.87
339.763	-102.92
339.976	-58.89
340.189	-28.96
340.402	-17.47
340.614	-14.34
340.827	-15.34
341.039	-23.18
341.252	-22.86
341.465	4.08
341.677	5.87
341.89	-27.27
342.102	-12.85
342.315	-28.24
342.527	-65.15
342.74	-58
342.952	-31.49
343.165	-35.32
343.377	-12.41
343.59	-1.7
343.802	5.49
344.015	7.87
344.227	13.5
344.44	8.01
344.652	11.9
344.864	1.69
345.077	20.48
345.289	18.77
345.502	13.6
345.714	2.14
345.926	8.49
346.139	4.99
346.351	26.71
346.563	34
346.775	36.94
346.988	24.49
347.2	5.69
347.412	-51.9
347.624	-75.92
347.837	-83.17
348.049	-73.22
348.261	-28.3
348.473	-5.03
348.685	6.36
348.897	-7.68
349.11	-18.68
349.322	-43.35
349.534	-41.55
349.746	-36.35
349.958	-15.12
350.17	-8.68
350.382	2.77
350.594	7.63
350.806	11.78
351.018	7.53
351.23	11.9
351.442	-17
351.654	-26.91
351.866	-20.72
352.078	-8.1
352.29	-8.49
352.502	13.11
352.714	14.86
352.926	-0.14
353.138	-1.99
353.35	-12.29
353.561	-21.94
353.773	-27.83
353.985	-10.75
354.197	-18.65
354.409	-16.09
354.621	-31.43
354.832	-16.14
355.044	-30.66
355.256	-30.36
355.468	-2.09
355.679	-0.51
355.891	1.88
356.103	-4.25
356.314	1.82
356.526	-8.88
356.738	3.61
356.949	-26.8
357.161	-11.2
357.373	-31.58
357.584	-49.32
357.796	-37.45
358.008	-33.08
358.219	-17.98
358.431	3.24
358.642	13.41
358.854	12.82
359.065	0.16
359.277	-34.26
359.488	-54.97
359.7	-82.69
359.911	-97.61
360.123	-59.13
360.334	-69.65
360.546	-73.53
360.757	-45.89
360.969	-28.25
361.18	-30.59
361.391	-17.93
361.603	-33.77
361.814	-37.45
362.025	-30.89
362.237	-28.13
362.448	9.92
362.659	24.87
362.871	23.6
363.082	15.53
363.293	2.68
363.504	-29.58
363.716	-47.39
363.927	-56.95
364.138	-75
364.349	-79.09
364.56	-57.01
364.772	-44.74
364.983	-25.78
365.194	-15.67
365.405	-2.25
365.616	0.47
365.827	-8.39
366.038	-23.33
366.25	-38.07
366.461	-43.7
366.672	-20.66
366.883	1.05
367.094	8.29
367.305	3.51
367.516	0.81
367.727	-22.86
367.938	-30.49
368.149	-33.6
368.36	-15.12
368.571	-11.95
368.781	-16.09
368.992	-29.88
369.203	-39.84
369.414	-70.62
369.625	-76.21
369.836	-65.54
370.047	-84.16
370.258	-68.75
370.468	-51.51
370.679	-66.75
370.89	-70.05
371.101	-46
371.312	-49.25
371.522	-46.84
371.733	-35.91
371.944	-17.41
372.155	-15.21
372.365	-21.61
372.576	-24.32
372.787	-24.71
372.997	-54.9
373.208	-46.4
373.419	-27.2
373.629	-54.72
373.84	-59.33
374.05	-59.02
374.261	-53.41
374.472	-67.98
374.682	-13.31
374.893	-6.38
375.103	22.12
375.314	19.67
375.524	15.7
375.735	11.7
375.945	15.67
376.156	-6.07
376.366	-8.59
376.577	2.28
376.787	-11.5
376.997	-10.7
377.208	-7.97
377.418	-22.53
377.629	-16.79
377.839	-19.45
378.049	-16.24
378.26	1.71
378.47	14.79
378.68	2.91
378.89	1.63
379.101	0.58
379.311	-30.16
379.521	-63.07
379.732	-58.71
379.942	-46.72
380.152	-68.85
380.362	-27.57
380.572	-21.79
380.783	-9.84
380.993	-0.89
381.203	9.28
381.413	7.51
381.623	25.14
381.833	23.81
382.043	11.9
382.253	11.79
382.463	7.02
382.674	-4.12
382.884	-23.47
383.094	-18.66
383.304	-17.19
383.514	-7.34
383.724	4.11
383.934	2.62
384.144	-11.49
384.353	-19.84
384.563	-28.72
384.773	-29.36
384.983	-37.08
385.193	-19.14
385.403	-14.83
385.613	-9.18
385.823	-15.95
386.033	-5.94
386.242	-5.07
386.452	-2.99
386.662	-15.13
386.872	0.75
387.082	-5.36
387.291	-14.05
387.501	-17.32
387.711	-13.38
387.921	-26.5
388.13	-21.33
388.34	-10.22
388.55	-12.3
388.759	-9.64
388.969	-4.66
389.179	-5.79
389.388	-8.09
389.598	1.58
389.807	-2.17
390.017	-8.26
390.227	-8.41
390.436	-9.92
390.646	-11.82
390.855	-9.62
391.065	-4.91
391.274	-3.5
391.484	-5.17
391.693	-5.43
391.903	-3.06
392.112	1.5
392.322	1.49
392.531	6.07
392.74	5.57
392.95	2.97
393.159	0.22
393.369	0.56
393.578	-0.72
393.787	-0.4
393.997	1.65
394.206	-0.8
394.415	-0.82
394.625	0.03
394.834	-0.79
395.043	-1.31
395.252	2.37
395.462	4.61
395.671	5.06
395.88	5.53
396.089	6.39
396.298	4.24
396.508	3.91
396.717	2.38
396.926	3.1
397.135	2.22
397.344	2.05
397.553	2.35
397.762	4.27
397.971	3.38
398.181	4.09
398.39	4.05
398.599	3.56
398.808	3.31
399.017	4.12
399.226	4.88
399.435	5.94
399.644	5.65
399.853	4.78
400.062	4.73
400.27	3.94
400.479	3.27
400.688	2.96
400.897	3.18
401.106	3.35
401.315	3.37
401.524	3.49
401.733	3.71
401.941	4.05
402.15	4.14
402.359	3.88
402.568	4.05
402.777	4.32
402.985	4.04
403.194	3.81
403.403	4.07
403.612	3.85
403.82	3.69
404.029	4.09
404.238	3.99
404.446	4.03
404.655	3.76
404.864	3.91
405.072	3.62
405.281	3.61
405.489	3.42
405.698	3.52
405.906	3.27
406.115	3.07
406.324	3.22
406.532	3.35
406.741	3.66
406.949	3.82
407.158	3.91
407.366	3.82
407.574	3.72
407.783	3.65
407.991	3.4
408.2	3.41
408.408	3.44
408.617	3.38
408.825	3.15
409.033	3.26
409.242	3.4
409.45	3.45
409.658	3.32
409.867	3.55
410.075	3.55
410.283	3.42
410.491	3.38
410.7	3.52
410.908	3.29
411.116	3.51
411.324	3.63
411.533	3.62
411.741	3.69
411.949	3.84
412.157	3.48
412.365	3.33
412.573	3.24
412.781	3.28
412.99	3.21
413.198	3.52
413.406	3.54
413.614	3.57
413.822	3.43
414.03	3.37
414.238	3.12
414.446	3.15
414.654	2.94
414.862	3.06
415.07	3.09
415.278	3.28
415.486	3.14
415.694	3.32
415.902	3.09
416.109	3.08
416.317	3.11
416.525	3.13
416.733	3.04
416.941	3.26
417.149	3.2
417.357	3.11
417.564	3.23
417.772	3.53
417.98	3.35
418.188	3.27
418.395	3.22
418.603	3.3
418.811	2.83
419.019	2.85
419.226	3.13
419.434	3.18
419.642	2.91
419.849	3.17
420.057	3.21
420.265	3.12
420.472	2.94
420.68	3.03
420.887	2.9
421.095	2.95
421.302	2.91
421.51	3.06
421.717	3.19
421.925	3.28
422.132	3.14
422.34	3.05
422.547	3.1
422.755	2.84
422.962	2.74
423.17	2.63
423.377	2.59
423.585	2.51
423.792	2.5
423.999	2.55
424.207	2.64
424.414	2.8
424.621	2.75
424.829	2.81
425.036	2.76
425.243	2.85
425.451	2.62
425.658	2.52
425.865	2.62
426.072	2.6
426.28	2.68
426.487	2.72
426.694	2.7
426.901	2.56
427.108	2.61
427.315	2.6
427.523	2.8
427.73	2.9
427.937	2.95
428.144	2.8
428.351	2.63
428.558	2.69
428.765	2.64
428.972	2.56
429.179	2.78
429.386	3.04
429.593	2.79
429.8	2.74
430.007	2.89
430.214	3.05
430.421	2.81
430.628	2.82
430.835	2.74
431.042	2.79
431.249	2.75
431.456	2.86
431.662	2.86
431.869	3.05
432.076	3.02
432.283	2.93
432.49	2.83
432.697	2.92
432.903	2.79
433.11	2.79
433.317	2.96
433.524	3.23
433.73	3.16
433.937	3.34
434.144	3.21
434.35	2.96
434.557	2.79
434.764	2.84
434.97	2.6
435.177	2.8
435.384	2.88
435.59	2.89
435.797	3.17
436.003	3.39
436.21	3.35
436.416	3.37
436.623	3.47
436.829	3.34
437.036	3.34
437.242	3.41
437.449	3.3
437.655	3.23
437.862	3.22
438.068	3.17
438.275	3.17
438.481	3.51
438.687	3.57
438.894	3.57
439.1	3.65
439.307	3.82
439.513	3.74
439.719	3.69
439.926	3.79
440.132	3.72
440.338	3.49
440.544	3.57
440.751	3.56
440.957	3.52
441.163	3.51
441.369	3.56
441.575	3.38
441.782	3.4
441.988	3.35
442.194	3.34
442.4	3.35
442.606	3.63
442.812	3.74
443.018	3.79
443.224	3.85
443.431	3.97
443.637	3.77
443.843	3.7
444.049	3.73
444.255	3.7
444.461	3.76
444.667	3.74
444.873	3.79
445.079	3.76
445.284	3.87
445.49	3.64
445.696	3.51
445.902	3.46
446.108	3.5
446.314	3.47
446.52	3.62
446.726	3.94
446.931	4.04
447.137	4.01
447.343	4.06
447.549	3.97
447.755	3.74
447.96	3.65
448.166	3.63
448.372	3.54
448.578	3.6
448.783	3.66
448.989	3.77
449.195	3.93
449.4	4.02
449.606	4.02
449.812	3.95
450.017	3.91
450.223	3.85
450.428	3.76
450.634	3.84
450.84	4.13
451.045	4.08
451.251	3.96
451.456	4.2
451.662	4.24
451.867	4.2
452.073	4.28
452.278	4.41
452.483	4.37
452.689	4.29
452.894	4.27
453.1	4.24
453.305	4.19
453.51	4.2
453.716	4.15
453.921	4.08
454.127	4.05
454.332	4.01
454.537	3.87
454.742	3.97
454.948	3.94
455.153	4.02
455.358	4.09
455.563	4.25
455.769	4.19
455.974	4.22
456.179	4.09
456.384	4.08
456.589	4.02
456.795	3.94
457	3.95
457.205	4.08
457.41	4.07
457.615	4
457.82	4.07
458.025	4.06
458.23	3.95
458.435	3.99
458.64	3.98
458.845	4.08
459.05	4.16
459.255	4.25
459.46	4.31
459.665	4.41
459.87	4.38
460.075	4.31
460.28	4.31
460.485	4.32
460.69	4.28
460.895	4.2
461.099	4.2
