Data from Ofra_2a_PS_2GT7_Reflection_2.txt Node
Date: Tue Jul 20 09:44:33 EDT 2021
User: Adam
Spectrometer: FLMT01687
Trigger mode: 0
Integration Time (sec): 9.450000E-1
Scans to average: 3
Electric dark correction enabled: true
Nonlinearity correction enabled: false
Boxcar width: 3
XAxis mode: Wavelengths
Number of Pixels in Spectrum: 3648
>>>>>Begin Spectral Data<<<<<
179.494	756.21
179.716	469.28
179.937	543.41
180.158	2220.7
180.38	-1094.48
180.601	-132.43
180.823	-74.59
181.044	30.18
181.265	-84.33
181.486	43.63
181.708	303.26
181.929	51.98
182.15	-502.84
182.372	-33.84
182.593	43.92
182.814	372.31
183.035	199.9
183.257	101.68
183.478	70.61
183.699	89.26
183.92	64.48
184.141	62.24
184.363	41.05
184.584	37.2
184.805	45.71
185.026	38.86
185.247	13.26
185.468	17.56
185.689	27.32
185.91	28.11
186.132	27.6
186.353	13.94
186.574	23.71
186.795	20.16
187.016	22.93
187.237	18.64
187.458	7.69
187.679	-6.24
187.9	-10.54
188.121	-22.66
188.342	14.82
188.563	18.97
188.784	10.94
189.005	31.44
189.226	44.44
189.447	52.46
189.667	65.05
189.888	53.58
190.109	53.99
190.33	47.07
190.551	41.17
190.772	32.6
190.993	36.13
191.214	37.13
191.434	34.55
191.655	33.07
191.876	41.15
192.097	33
192.318	47.44
192.538	43.11
192.759	45.61
192.98	37.35
193.201	45.14
193.421	53.79
193.642	53.41
193.863	36.64
194.083	26.69
194.304	7.17
194.525	41.95
194.745	19.04
194.966	10.76
195.187	31.37
195.407	26.65
195.628	26.94
195.848	31.23
196.069	13.64
196.29	11.65
196.51	17.14
196.731	21.18
196.951	28.81
197.172	45.77
197.392	40.45
197.613	32.36
197.833	40.32
198.054	36.3
198.274	7.27
198.495	14
198.715	2.91
198.936	3.35
199.156	19.42
199.377	5.93
199.597	2.58
199.817	31.23
200.038	38.48
200.258	38.75
200.479	38.67
200.699	32.67
200.919	30.25
201.14	34.97
201.36	40.54
201.58	25.58
201.801	24.58
202.021	32.92
202.241	44.26
202.461	49.57
202.682	51.78
202.902	38.05
203.122	33.79
203.342	54.37
203.563	47.51
203.783	41.04
204.003	43.73
204.223	47.5
204.443	57.67
204.663	61.64
204.884	52.62
205.104	54.38
205.324	69.49
205.544	65.27
205.764	58.37
205.984	55.14
206.204	53.06
206.424	51.26
206.644	48.9
206.864	38.09
207.084	55.6
207.304	48.99
207.525	43.14
207.745	52.36
207.964	53.4
208.184	40.56
208.404	37.34
208.624	17.74
208.844	19.29
209.064	32.52
209.284	26.5
209.504	30.02
209.724	10.69
209.944	27.6
210.164	28.23
210.384	38.73
210.604	3.85
210.823	2
211.043	-3.27
211.263	33.13
211.483	29.18
211.703	31.67
211.922	21.57
212.142	37.82
212.362	40.66
212.582	41.93
212.801	39.11
213.021	38.34
213.241	40.09
213.461	46.94
213.68	52.77
213.9	55.95
214.12	53.6
214.339	54.15
214.559	55.67
214.779	54.5
214.998	52.29
215.218	46.37
215.438	51.75
215.657	37.39
215.877	28.12
216.096	33.82
216.316	26.95
216.535	26.75
216.755	12.2
216.974	-3.99
217.194	4.42
217.413	21.33
217.633	5.85
217.852	2.73
218.072	-1.96
218.291	23.44
218.511	23.89
218.73	15.98
218.95	4.62
219.169	-3.89
219.389	5.44
219.608	10.98
219.827	-6.25
220.047	-2.96
220.266	3.46
220.485	9.58
220.705	12.62
220.924	0.91
221.143	-2.83
221.363	-9.71
221.582	-9.41
221.801	-5.68
222.021	-14.11
222.24	-25.15
222.459	-23.22
222.678	-38.71
222.897	-22.03
223.117	-22.95
223.336	-21.44
223.555	-13.14
223.774	5.54
223.993	23.53
224.213	28.93
224.432	41.82
224.651	46.1
224.87	44.91
225.089	42.66
225.308	44.93
225.527	48.73
225.746	42.5
225.965	20.2
226.184	31.28
226.404	33.62
226.623	47.83
226.842	33.71
227.061	34.58
227.28	56.11
227.499	58.85
227.718	51.72
227.936	45.7
228.155	30.11
228.374	33.1
228.593	25.39
228.812	9.65
229.031	0.39
229.25	6.46
229.469	22.61
229.688	32.14
229.907	30
230.125	29.87
230.344	36.35
230.563	50.82
230.782	36.88
231.001	34.16
231.22	31.87
231.438	37.33
231.657	44.61
231.876	42.02
232.095	34.25
232.313	46.83
232.532	35.64
232.751	36.85
232.969	41.43
233.188	50.75
233.407	52.53
233.625	53.3
233.844	46.51
234.063	58.86
234.281	50.83
234.5	39.79
234.719	20.6
234.937	28.44
235.156	14.09
235.374	0.22
235.593	-12.92
235.811	-23.59
236.03	-34.41
236.249	-5.77
236.467	-1.65
236.686	12.27
236.904	23.38
237.123	13.5
237.341	18.93
237.559	24.9
237.778	36.67
237.996	34.14
238.215	33.36
238.433	41.03
238.652	51.34
238.87	57.47
239.088	44.25
239.307	32.77
239.525	26.27
239.743	19.85
239.962	12.8
240.18	28.33
240.398	21.38
240.617	41.36
240.835	38.86
241.053	47.68
241.271	60.21
241.49	53.39
241.708	33.59
241.926	35.89
242.144	26.54
242.363	28.75
242.581	24.65
242.799	9.66
243.017	21.66
243.235	24.82
243.453	26.43
243.672	29.4
243.89	27.67
244.108	26.35
244.326	28.82
244.544	33.23
244.762	28.77
244.98	24.46
245.198	9.48
245.416	13.24
245.634	28.52
245.852	32.2
246.07	22.47
246.288	30.05
246.506	32.19
246.724	58.94
246.942	54.05
247.16	36.67
247.378	26.41
247.596	29.26
247.814	19.9
248.032	19.76
248.25	7.13
248.468	15.25
248.685	14.23
248.903	17.23
249.121	29.78
249.339	38.06
249.557	39.43
249.775	21.99
249.992	13.25
250.21	9.33
250.428	10.1
250.646	5.02
250.863	1.31
251.081	3.69
251.299	38.66
251.517	51.42
251.734	61.55
251.952	67.99
252.17	71.53
252.387	65.93
252.605	53.74
252.823	21.24
253.04	21.06
253.258	25.23
253.475	19.75
253.693	25.37
253.911	26.89
254.128	23.56
254.346	37.59
254.563	29.05
254.781	24.22
254.998	25.84
255.216	20.6
255.433	11.38
255.651	17.74
255.868	6.91
256.086	9.37
256.303	8.47
256.521	-8.76
256.738	-4.49
256.956	3.81
257.173	5.91
257.39	12.36
257.608	19.17
257.825	26.33
258.043	28.4
258.26	25.52
258.477	29
258.695	30.99
258.912	37.35
259.129	25.88
259.346	19.04
259.564	27.22
259.781	36.97
259.998	38.63
260.216	51.48
260.433	44.9
260.65	51.17
260.867	38.69
261.084	38.92
261.302	28.55
261.519	13.46
261.736	-4.01
261.953	1.81
262.17	7.55
262.387	27.6
262.604	1.96
262.822	5.53
263.039	14.43
263.256	15.86
263.473	8.2
263.69	5.85
263.907	0.96
264.124	10.1
264.341	1.29
264.558	1.06
264.775	6.45
264.992	3.59
265.209	9.59
265.426	11.04
265.643	18.69
265.86	25.29
266.077	30.06
266.294	29.79
266.51	35.94
266.727	25.49
266.944	20.11
267.161	16.63
267.378	16.7
267.595	-0.2
267.812	-15.11
268.028	-7.05
268.245	-3.23
268.462	5.57
268.679	11.01
268.896	9.23
269.112	21.14
269.329	27.06
269.546	18.43
269.763	26.91
269.979	25.01
270.196	26.04
270.413	26.75
270.629	26.89
270.846	31.06
271.063	31.85
271.279	31.49
271.496	20.17
271.712	11.12
271.929	17.37
272.146	15.98
272.362	7.88
272.579	10.53
272.795	10.9
273.012	25.5
273.228	30.9
273.445	30.12
273.661	26.3
273.878	32.18
274.094	37.14
274.311	36.37
274.527	34.11
274.744	35.23
274.96	27.08
275.177	32.57
275.393	25.45
275.609	28.26
275.826	20.23
276.042	28.68
276.259	23.29
276.475	27.38
276.691	34.21
276.908	31.4
277.124	29.76
277.34	34.29
277.557	24.62
277.773	27.13
277.989	17.87
278.205	15.24
278.422	20.56
278.638	28.42
278.854	26.63
279.07	25.77
279.286	30.64
279.503	45.63
279.719	48.37
279.935	42.95
280.151	44.95
280.367	48.12
280.583	50.22
280.799	52.1
281.016	47.1
281.232	37.46
281.448	39.09
281.664	28.42
281.88	27.48
282.096	29.02
282.312	20.66
282.528	18.17
282.744	11.99
282.96	18.5
283.176	20.56
283.392	30.38
283.608	36.7
283.824	29.16
284.04	28.85
284.256	30.3
284.471	23.89
284.687	19.11
284.903	13.9
285.119	-13.1
285.335	0.34
285.551	8.85
285.767	19.1
285.982	12.93
286.198	10.25
286.414	13.24
286.63	32.4
286.846	15.18
287.061	10.81
287.277	9.7
287.493	25.28
287.709	30.75
287.924	35.32
288.14	34.46
288.356	49.99
288.571	49.8
288.787	45.94
289.003	43.16
289.218	36.6
289.434	34.44
289.65	37.54
289.865	43.8
290.081	42.48
290.296	41.45
290.512	39.56
290.727	44.61
290.943	33.48
291.159	17.57
291.374	9.46
291.59	11.98
291.805	5.32
292.021	-8.14
292.236	-8.1
292.451	-2.53
292.667	9.34
292.882	15.01
293.098	2.85
293.313	6.17
293.529	19.09
293.744	27.28
293.959	29.05
294.175	34.8
294.39	34
294.605	44.68
294.821	41.26
295.036	31.57
295.251	22.09
295.467	12.61
295.682	7.11
295.897	4.72
296.112	5.18
296.328	6.45
296.543	1.36
296.758	3.17
296.973	20.75
297.188	26.62
297.404	24.64
297.619	20.88
297.834	26.44
298.049	29.53
298.264	31.97
298.479	12.48
298.694	15.51
298.909	9.61
299.125	13.97
299.34	12.18
299.555	11.22
299.77	6.48
299.985	8.83
300.2	7.46
300.415	14.69
300.63	5.18
300.845	5.2
301.06	7.37
301.275	14.91
301.49	16.08
301.704	10.15
301.919	1.88
302.134	3.1
302.349	-5.15
302.564	-3.88
302.779	-11.2
302.994	-2.06
303.209	-9.74
303.423	8.79
303.638	11.31
303.853	22.29
304.068	22.64
304.283	24.33
304.497	23.5
304.712	28.82
304.927	17.95
305.142	21.32
305.356	18.96
305.571	24.35
305.786	26.44
306	30.73
306.215	29.6
306.43	44.25
306.644	46.86
306.859	46.95
307.074	36.38
307.288	33.62
307.503	32.48
307.717	28.99
307.932	23.82
308.147	15.89
308.361	17.94
308.576	21.95
308.79	22.25
309.005	23.74
309.219	37.84
309.434	37.43
309.648	32.82
309.863	36.35
310.077	42.04
310.292	50.94
310.506	48.98
310.72	42.51
310.935	40.75
311.149	43.16
311.364	47.48
311.578	40.3
311.792	28.59
312.007	17.98
312.221	22.08
312.435	26.83
312.649	40.94
312.864	25.38
313.078	23.61
313.292	24.82
313.507	37.4
313.721	34.13
313.935	38.19
314.149	28.84
314.363	30.29
314.578	54.35
314.792	58.79
315.006	55.31
315.22	54.68
315.434	49.81
315.648	50.32
315.862	45.63
316.077	35.62
316.291	29.5
316.505	21.31
316.719	11.47
316.933	15.54
317.147	18.78
317.361	16.56
317.575	9.7
317.789	20.53
318.003	33.16
318.217	33.99
318.431	34.25
318.645	42.34
318.859	35.22
319.073	28.91
319.287	32.9
319.5	27.62
319.714	30.37
319.928	30.71
320.142	25.08
320.356	47.14
320.57	43.98
320.784	27.84
320.997	32.61
321.211	34.79
321.425	27.18
321.639	23.84
321.853	10.01
322.066	16.97
322.28	22.28
322.494	14.42
322.707	13.13
322.921	16.35
323.135	23.1
323.349	23.77
323.562	24.3
323.776	25.04
323.989	29.18
324.203	28.7
324.417	19.75
324.63	10.13
324.844	0.77
325.057	5.63
325.271	2.78
325.485	7.87
325.698	5.69
325.912	15.14
326.125	24.91
326.339	32.89
326.552	31.21
326.766	40.77
326.979	37.79
327.193	39.69
327.406	37.54
327.619	15.91
327.833	6.71
328.046	5.66
328.26	1.92
328.473	7.39
328.686	7.04
328.9	6.52
329.113	25.35
329.326	35.45
329.54	35.3
329.753	29.06
329.966	29.62
330.179	37.36
330.393	44
330.606	41.86
330.819	40.43
331.032	48.69
331.246	49.82
331.459	52.16
331.672	45.68
331.885	41.97
332.098	41.65
332.311	31.68
332.525	23.97
332.738	19.11
332.951	13.31
333.164	5.6
333.377	-5.47
333.59	-6.34
333.803	6.25
334.016	4.77
334.229	7.18
334.442	16.22
334.655	24.71
334.868	32.65
335.081	43.23
335.294	48.38
335.507	45.7
335.72	35.97
335.933	33.36
336.146	33.01
336.359	26.64
336.572	19.66
336.785	14.57
336.997	2.92
337.21	18.9
337.423	19.45
337.636	16.75
337.849	15.09
338.062	16.34
338.274	13.84
338.487	18.52
338.7	14.43
338.913	7.7
339.125	4.44
339.338	10.55
339.551	9.18
339.763	8.65
339.976	12.54
340.189	14.11
340.402	15.3
340.614	21.49
340.827	12.54
341.039	17.51
341.252	23.75
341.465	16.84
341.677	7.6
341.89	7.88
342.102	9.87
342.315	21.74
342.527	8.61
342.74	6.23
342.952	8.05
343.165	16.6
343.377	19.57
343.59	12.92
343.802	13.05
344.015	19.38
344.227	9.32
344.44	1.99
344.652	-1.75
344.864	0.43
345.077	-0.06
345.289	-8.39
345.502	-8.91
345.714	-6.46
345.926	2.9
346.139	11.43
346.351	-3.36
346.563	-2.17
346.775	0.9
346.988	9.56
347.2	12.61
347.412	10.56
347.624	13.48
347.837	17.46
348.049	21.44
348.261	19.23
348.473	14.11
348.685	20.58
348.897	28.23
349.11	25.52
349.322	22.11
349.534	13.31
349.746	19.82
349.958	12.05
350.17	6.7
350.382	-3.66
350.594	-1.74
350.806	6.83
351.018	13.21
351.23	17.52
351.442	25.44
351.654	37.73
351.866	41.66
352.078	38.04
352.29	41.01
352.502	37.9
352.714	32.5
352.926	27.25
353.138	14.31
353.35	12.61
353.561	9.2
353.773	5.39
353.985	15.99
354.197	13.98
354.409	21.85
354.621	21.39
354.832	20.99
355.044	28.19
355.256	32.09
355.468	21.39
355.679	32.39
355.891	22.54
356.103	28.95
356.314	24.06
356.526	19.85
356.738	18.46
356.949	19.13
357.161	13.22
357.373	20.44
357.584	18.79
357.796	22.03
358.008	30.18
358.219	32.85
358.431	39.75
358.642	33.74
358.854	29.53
359.065	29.48
359.277	27.81
359.488	27.29
359.7	26.73
359.911	18.08
360.123	29.5
360.334	28.03
360.546	18.29
360.757	24.68
360.969	25.24
361.18	26.33
361.391	29.67
361.603	24.02
361.814	28.65
362.025	38.27
362.237	34.96
362.448	29.85
362.659	22.9
362.871	24.91
363.082	27.8
363.293	27.11
363.504	23.37
363.716	27.01
363.927	31.98
364.138	36.92
364.349	36.3
364.56	31.7
364.772	29.08
364.983	18.56
365.194	16.14
365.405	8.76
365.616	-6.94
365.827	-10.51
366.038	0.24
366.25	3.59
366.461	14.26
366.672	11.64
366.883	13.88
367.094	21.75
367.305	16.08
367.516	8.93
367.727	7.2
367.938	7.97
368.149	9.66
368.36	6.56
368.571	8.77
368.781	13.46
368.992	11.75
369.203	8.78
369.414	9.79
369.625	9.39
369.836	11.99
370.047	9.26
370.258	6
370.468	-0.89
370.679	-1.72
370.89	1.4
371.101	-3.35
371.312	-3.96
371.522	-0.54
371.733	-4.45
371.944	12.51
372.155	4.51
372.365	1.04
372.576	6.68
372.787	10.11
372.997	7.07
373.208	17.58
373.419	9.16
373.629	29.12
373.84	24.19
374.05	25.47
374.261	19.35
374.472	16.08
374.682	6
374.893	6.26
375.103	0.14
375.314	5.66
375.524	5.8
375.735	4.79
375.945	9.33
376.156	15.2
376.366	21.91
376.577	22.84
376.787	19.32
376.997	16.18
377.208	17.92
377.418	15.67
377.629	15.9
377.839	15.98
378.049	16.12
378.26	20.22
378.47	24.19
378.68	23.47
378.89	17.55
379.101	11.87
379.311	6.21
379.521	7.57
379.732	-2.62
379.942	-4
380.152	0.75
380.362	14.02
380.572	21.17
380.783	21.75
380.993	18.9
381.203	25.21
381.413	27.23
381.623	28.5
381.833	22.91
382.043	16.1
382.253	13.96
382.463	15.84
382.674	16.12
382.884	9.57
383.094	6.81
383.304	5.86
383.514	15.54
383.724	16.29
383.934	13.81
384.144	20.48
384.353	23.73
384.563	20.09
384.773	21.8
384.983	17.41
385.193	17.8
385.403	19.72
385.613	15.18
385.823	11.67
386.033	13.79
386.242	10.22
386.452	5.83
386.662	5.31
386.872	2.94
387.082	-2.09
387.291	-2.19
387.501	1.21
387.711	3.25
387.921	6.86
388.13	5.42
388.34	5.43
388.55	8.75
388.759	10.1
388.969	5.27
389.179	6.88
389.388	7.32
389.598	4.93
389.807	4.64
390.017	3.7
390.227	4.63
390.436	5.89
390.646	4.32
390.855	2.79
391.065	3.95
391.274	3.72
391.484	5.54
391.693	4.88
391.903	4.75
392.112	4.78
392.322	7.05
392.531	7.56
392.74	7.8
392.95	6.63
393.159	6.3
393.369	5.98
393.578	5.93
393.787	4.53
393.997	4.7
394.206	4.15
394.415	4.24
394.625	3.14
394.834	2.66
395.043	2.14
395.252	2.32
395.462	2.26
395.671	2.56
395.88	3.15
396.089	3.91
396.298	4.19
396.508	4.33
396.717	3.83
396.926	3.83
397.135	3.84
397.344	3.01
397.553	2.74
397.762	2.41
397.971	2.55
398.181	2.52
398.39	2.67
398.599	2.87
398.808	3.26
399.017	3.62
399.226	4.02
399.435	3.84
399.644	3.96
399.853	3.79
400.062	3.59
400.27	3.43
400.479	3.36
400.688	3.24
400.897	3.46
401.106	3.49
401.315	3.52
401.524	3.7
401.733	3.87
401.941	3.74
402.15	3.65
402.359	3.49
402.568	3.54
402.777	3.41
402.985	3.12
403.194	3.06
403.403	3
403.612	3.09
403.82	3.15
404.029	3.08
404.238	3.11
404.446	3.18
404.655	3.07
404.864	3.06
405.072	3.01
405.281	2.83
405.489	2.87
405.698	2.9
405.906	2.95
406.115	2.99
406.324	2.99
406.532	3.07
406.741	3.18
406.949	3.07
407.158	3.03
407.366	3
407.574	2.96
407.783	2.97
407.991	2.87
408.2	2.74
408.408	2.83
408.617	2.82
408.825	2.8
409.033	2.81
409.242	2.78
409.45	2.75
409.658	2.83
409.867	2.81
410.075	2.74
410.283	2.63
410.491	2.58
410.7	2.59
410.908	2.7
411.116	2.67
411.324	2.73
411.533	2.7
411.741	2.74
411.949	2.78
412.157	2.85
412.365	2.84
412.573	2.86
412.781	2.77
412.99	2.88
413.198	2.9
413.406	2.85
413.614	2.84
413.822	2.74
414.03	2.63
414.238	2.73
414.446	2.66
414.654	2.65
414.862	2.66
415.07	2.63
415.278	2.57
415.486	2.72
415.694	2.54
415.902	2.58
416.109	2.69
416.317	2.66
416.525	2.69
416.733	2.75
416.941	2.67
417.149	2.86
417.357	2.88
417.564	2.74
417.772	2.8
417.98	2.69
418.188	2.61
418.395	2.64
418.603	2.44
418.811	2.3
419.019	2.41
419.226	2.45
419.434	2.4
419.642	2.42
419.849	2.41
420.057	2.44
420.265	2.46
420.472	2.34
420.68	2.24
420.887	2.35
421.095	2.36
421.302	2.42
421.51	2.46
421.717	2.55
421.925	2.52
422.132	2.5
422.34	2.41
422.547	2.38
422.755	2.3
422.962	2.23
423.17	2.17
423.377	2.27
423.585	2.3
423.792	2.28
423.999	2.29
424.207	2.2
424.414	2.3
424.621	2.33
424.829	2.3
425.036	2.22
425.243	2.3
425.451	2.4
425.658	2.48
425.865	2.4
426.072	2.49
426.28	2.43
426.487	2.47
426.694	2.43
426.901	2.31
427.108	2.27
427.315	2.24
427.523	2.14
427.73	2.25
427.937	2.32
428.144	2.37
428.351	2.42
428.558	2.4
428.765	2.44
428.972	2.47
429.179	2.39
429.386	2.39
429.593	2.33
429.8	2.34
430.007	2.4
430.214	2.41
430.421	2.38
430.628	2.26
430.835	2.18
431.042	2.24
431.249	2.28
431.456	2.37
431.662	2.39
431.869	2.51
432.076	2.61
432.283	2.61
432.49	2.62
432.697	2.57
432.903	2.49
433.11	2.48
433.317	2.43
433.524	2.39
433.73	2.47
433.937	2.45
434.144	2.52
434.35	2.55
434.557	2.51
434.764	2.45
434.97	2.57
435.177	2.5
435.384	2.57
435.59	2.52
435.797	2.52
436.003	2.54
436.21	2.49
436.416	2.38
436.623	2.44
436.829	2.4
437.036	2.46
437.242	2.43
437.449	2.48
437.655	2.51
437.862	2.6
438.068	2.63
438.275	2.64
438.481	2.65
438.687	2.74
438.894	2.78
439.1	2.78
439.307	2.75
439.513	2.7
439.719	2.7
439.926	2.7
440.132	2.65
440.338	2.68
440.544	2.69
440.751	2.65
440.957	2.63
441.163	2.66
441.369	2.61
441.575	2.6
441.782	2.56
441.988	2.6
442.194	2.73
442.4	2.83
442.606	2.83
442.812	2.83
443.018	2.84
443.224	2.83
443.431	2.86
443.637	2.78
443.843	2.77
444.049	2.77
444.255	2.78
444.461	2.78
444.667	2.8
444.873	2.78
445.079	2.83
445.284	2.78
445.49	2.75
445.696	2.78
445.902	2.86
446.108	2.85
446.314	2.92
446.52	2.95
446.726	2.98
446.931	2.99
447.137	2.99
447.343	2.96
447.549	2.95
447.755	2.86
447.96	2.81
448.166	2.79
448.372	2.75
448.578	2.74
448.783	2.75
448.989	2.77
449.195	2.8
449.4	2.81
449.606	2.84
449.812	2.96
450.017	2.99
450.223	2.96
450.428	2.93
450.634	2.97
450.84	2.98
451.045	2.98
451.251	2.99
451.456	2.96
451.662	2.98
451.867	3
452.073	2.96
452.278	2.97
452.483	2.94
452.689	2.91
452.894	2.97
453.1	2.93
453.305	2.96
453.51	2.98
453.716	3
453.921	3.04
454.127	3.02
454.332	2.99
454.537	3.06
454.742	3.08
454.948	3.07
455.153	3.03
455.358	3.09
455.563	3.13
455.769	3.14
455.974	3.08
456.179	3.02
456.384	3.08
456.589	3.14
456.795	3.07
457	3.05
457.205	3.04
457.41	3.07
457.615	3.11
457.82	3.14
458.025	3.11
458.23	3.1
458.435	3.07
458.64	3.16
458.845	3.15
459.05	3.16
459.255	3.1
459.46	3.12
459.665	3.2
459.87	3.22
460.075	3.16
460.28	3.17
460.485	3.22
460.69	3.19
460.895	3.21
461.099	3.14
461.304	3.15
461.509	3.11
461.714	3.15
461.919	3.12
462.123	3.2
462.328	3.17
462.533	3.2
462.738	3.22
462.942	3.28
463.147	3.29
463.352	3.35
463.556	3.38
463.761	3.42
463.966	3.43
464.17	3.46
464.375	3.44
464.58	3.44
464.784	3.41
464.989	3.37
465.193	3.41
465.398	3.43
465.602	3.42
465.807	3.46
466.011	3.47
466.216	3.53
466.42	3.59
466.625	3.52
466.829	3.59
467.034	3.64
467.238	3.65
467.443	3.67
467.647	3.62
467.851	3.57
468.056	3.59
468.26	3.51
468.464	3.48
468.669	3.5
468.873	3.49
469.077	3.53
469.282	3.58
469.486	3.61
469.69	3.63
469.894	3.7
470.099	3.71
470.303	3.69
470.507	3.71
