Data from Ofra_PS_T2_2A_0CX05_Reflection_3.txt Node
Date: Wed Jul 21 16:50:06 EDT 2021
User: Adam
Spectrometer: FLMT01687
Trigger mode: 0
Integration Time (sec): 1.100000E0
Scans to average: 2
Electric dark correction enabled: true
Nonlinearity correction enabled: false
Boxcar width: 2
XAxis mode: Wavelengths
Number of Pixels in Spectrum: 3648
>>>>>Begin Spectral Data<<<<<
179.494	369.6
179.716	381.88
179.937	395.56
180.158	403.5
180.38	667.5
180.601	291.71
180.823	88.24
181.044	-5.69
181.265	-44.12
181.486	-24.13
181.708	26.33
181.929	208.16
182.15	-228.17
182.372	32.43
182.593	-20.91
182.814	17.56
183.035	21.91
183.257	29.61
183.478	-22.34
183.699	-22.32
183.92	-35.7
184.141	-29.5
184.363	-45.27
184.584	-39.9
184.805	-18.48
185.026	6.31
185.247	13.02
185.468	10.96
185.689	10.7
185.91	33.77
186.132	27.02
186.353	16.96
186.574	53.12
186.795	76.55
187.016	44.85
187.237	24.67
187.458	38.26
187.679	10.65
187.9	-15.99
188.121	-9.45
188.342	1.22
188.563	41.31
188.784	32.89
189.005	48.76
189.226	104.38
189.447	115.02
189.667	90.29
189.888	127.09
190.109	194.81
190.33	-34.84
190.551	-347.79
190.772	-55.21
190.993	-65.87
191.214	-50.44
191.434	-46.65
191.655	17.67
191.876	-0.53
192.097	-31.47
192.318	-73.77
192.538	-93.26
192.759	-86.68
192.98	-51.89
193.201	-3.12
193.421	27.75
193.642	30.05
193.863	23.74
194.083	16.19
194.304	12.44
194.525	9.56
194.745	-7.8
194.966	1.8
195.187	21.94
195.407	-4.72
195.628	-62.04
195.848	-67.25
196.069	-57.95
196.29	-37
196.51	-30.03
196.731	-19.84
196.951	-5.85
197.172	-8.8
197.392	-49.33
197.613	-50.63
197.833	-107.09
198.054	-92.38
198.274	-62.49
198.495	-56.14
198.715	-12.6
198.936	9.93
199.156	19.75
199.377	-4.17
199.597	-24.1
199.817	-34.52
200.038	-8.27
200.258	-27.42
200.479	15.28
200.699	48.76
200.919	39.05
201.14	21.48
201.36	22.78
201.58	37.48
201.801	49.79
202.021	30.76
202.241	30.68
202.461	13.11
202.682	-61.78
202.902	-132.45
203.122	-54.92
203.342	-46.89
203.563	-4.27
203.783	12.12
204.003	4.84
204.223	-11.51
204.443	26.64
204.663	-9.78
204.884	12.2
205.104	27.63
205.324	24
205.544	37.7
205.764	55.92
205.984	43.07
206.204	52.4
206.424	38.2
206.644	23.55
206.864	25.88
207.084	43.18
207.304	-4.01
207.525	-28.12
207.745	-8.44
207.964	5.56
208.184	-34.3
208.404	-16.93
208.624	-25.87
208.844	-21.04
209.064	-164.52
209.284	-170.98
209.504	-127.2
209.724	-19.5
209.944	-33.84
210.164	7.05
210.384	25.93
210.604	20.27
210.823	-13.07
211.043	4.81
211.263	-16.25
211.483	-29.62
211.703	-33.36
211.922	-2.75
212.142	32.58
212.362	53.07
212.582	49.16
212.801	29.59
213.021	11.97
213.241	-8.27
213.461	-27.14
213.68	-31.37
213.9	-7.66
214.12	-6.17
214.339	-35.29
214.559	-32.72
214.779	-1.56
214.998	-11.22
215.218	-31.19
215.438	-14.8
215.657	-18.3
215.877	-15.1
216.096	19.18
216.316	29.83
216.535	22.27
216.755	25.25
216.974	-48.77
217.194	-128.09
217.413	-98.97
217.633	-93.22
217.852	-146.26
218.072	-54.52
218.291	17.74
218.511	29.01
218.73	23.16
218.95	21.16
219.169	30.96
219.389	-8.15
219.608	3.07
219.827	-6.89
220.047	2.4
220.266	3.5
220.485	13.42
220.705	22.99
220.924	22.06
221.143	44.03
221.363	26.56
221.582	28.59
221.801	11.7
222.021	20.26
222.24	-50.7
222.459	-13.94
222.678	-21.27
222.897	-31.8
223.117	-33.22
223.336	-28.48
223.555	5.74
223.774	34.56
223.993	55.63
224.213	67.07
224.432	55.81
224.651	49.23
224.87	27.95
225.089	21.49
225.308	14.37
225.527	29.14
225.746	26.58
225.965	15.89
226.184	0
226.404	16.25
226.623	-9.95
226.842	-4.73
227.061	16.25
227.28	20.75
227.499	0.87
227.718	13.58
227.936	-0.35
228.155	6.85
228.374	21.19
228.593	36.91
228.812	44.48
229.031	54.53
229.25	27.79
229.469	9.17
229.688	16.23
229.907	45.93
230.125	54.88
230.344	51.47
230.563	64.19
230.782	66.71
231.001	22.47
231.22	-1.4
231.438	16.46
231.657	10.53
231.876	-9.37
232.095	25.52
232.313	30.08
232.532	12.62
232.751	-7.13
232.969	1.49
233.188	-50.58
233.407	12.56
233.625	24.45
233.844	17.43
234.063	2.14
234.281	8.59
234.5	-1.41
234.719	1.89
234.937	11.75
235.156	27.88
235.374	43.69
235.593	30.76
235.811	28.22
236.03	27.34
236.249	10.98
236.467	6.38
236.686	20.68
236.904	37.69
237.123	25.71
237.341	27.54
237.559	20.04
237.778	22.2
237.996	-1.99
238.215	33.04
238.433	12.18
238.652	3.13
238.87	-15.8
239.088	-16.68
239.307	-16.96
239.525	-13.64
239.743	-16.93
239.962	6.72
240.18	-3.9
240.398	-34.24
240.617	-19.6
240.835	1.46
241.053	-0.57
241.271	40.7
241.49	47.86
241.708	36.99
241.926	20.41
242.144	8.14
242.363	-41.59
242.581	-65.94
242.799	-37.87
243.017	-19.45
243.235	-15.2
243.453	2.09
243.672	1.06
243.89	4.12
244.108	12.63
244.326	30.98
244.544	37.86
244.762	43.12
244.98	51.1
245.198	32.8
245.416	11.24
245.634	-0.21
245.852	-27.36
246.07	-43.2
246.288	-16.84
246.506	-47.86
246.724	-31.88
246.942	-0.89
247.16	39.76
247.378	39.14
247.596	60.25
247.814	70.54
248.032	61.79
248.25	38.99
248.468	29.05
248.685	33.01
248.903	34.38
249.121	35.24
249.339	18.9
249.557	19.34
249.775	30.09
249.992	-6.48
250.21	-11.95
250.428	18.72
250.646	-20.55
250.863	-47.18
251.081	-24.66
251.299	-21.69
251.517	-50.33
251.734	-15.57
251.952	-2.35
252.17	0.33
252.387	10.74
252.605	4.11
252.823	13.98
253.04	17.97
253.258	27
253.475	19.57
253.693	51.45
253.911	54.56
254.128	45.06
254.346	57.65
254.563	51.22
254.781	23.56
254.998	6.36
255.216	19.65
255.433	21.34
255.651	45.29
255.868	57.93
256.086	57.88
256.303	59.36
256.521	48.39
256.738	18.53
256.956	-2.08
257.173	-24.52
257.39	-51.98
257.608	-92.07
257.825	-56.86
258.043	-40.56
258.26	-17.33
258.477	2.63
258.695	-3.51
258.912	-29.75
259.129	-1.08
259.346	-10.32
259.564	-17.09
259.781	-1.73
259.998	54.79
260.216	63.12
260.433	83.49
260.65	64.86
260.867	56.35
261.084	9.77
261.302	-11.19
261.519	-31.51
261.736	-31.69
261.953	-47.37
262.17	-19.28
262.387	-32.3
262.604	-42.41
262.822	-40.93
263.039	-13.41
263.256	-17
263.473	8.67
263.69	6.4
263.907	29.64
264.124	22.75
264.341	4.81
264.558	-1.83
264.775	0.66
264.992	-12.81
265.209	9.8
265.426	26.27
265.643	23.02
265.86	26.78
266.077	40.07
266.294	23.94
266.51	7.56
266.727	28.04
266.944	27.64
267.161	9.1
267.378	9.73
267.595	37.9
267.812	2.32
268.028	-7.45
268.245	-1.81
268.462	3.08
268.679	-15.4
268.896	25.06
269.112	21.27
269.329	16.08
269.546	12.39
269.763	11.22
269.979	-8.29
270.196	-3.58
270.413	-17.53
270.629	-26.18
270.846	-28.71
271.063	-25.84
271.279	-30.43
271.496	-22.88
271.712	4.9
271.929	8.09
272.146	-7.45
272.362	10.64
272.579	17.22
272.795	7.68
273.012	19.93
273.228	23.55
273.445	17.9
273.661	23.86
273.878	21.84
274.094	31.41
274.311	34.03
274.527	47.81
274.744	50.22
274.96	37.2
275.177	20.31
275.393	19
275.609	-2.8
275.826	11.28
276.042	12.51
276.259	-3.34
276.475	14.06
276.691	21.35
276.908	-3.6
277.124	2.28
277.34	13.02
277.557	-3.43
277.773	2.05
277.989	14
278.205	26.66
278.422	23.59
278.638	26.61
278.854	26.38
279.07	8
279.286	-14.9
279.503	-42.55
279.719	-39.12
279.935	-37.06
280.151	-25.94
280.367	-11.3
280.583	-3.81
280.799	-4.64
281.016	-34.71
281.232	-7.44
281.448	-0.92
281.664	16.16
281.88	-0.73
282.096	16.78
282.312	28.69
282.528	19.23
282.744	17.28
282.96	23.72
283.176	14.92
283.392	6.3
283.608	-1.45
283.824	0.69
284.04	5.62
284.256	8.32
284.471	7.8
284.687	23.31
284.903	29.94
285.119	33.47
285.335	33.94
285.551	25.02
285.767	14.44
285.982	7.09
286.198	-6.82
286.414	27.9
286.63	39.62
286.846	52.71
287.061	44.81
287.277	58.66
287.493	35.66
287.709	40.92
287.924	17.54
288.14	29.64
288.356	11.29
288.571	44.08
288.787	32.57
289.003	31.02
289.218	28.71
289.434	23.27
289.65	14.84
289.865	4.69
290.081	37.79
290.296	30.71
290.512	26.79
290.727	-0
290.943	0.86
291.159	-6.09
291.374	-7.02
291.59	-10.45
291.805	-6.03
292.021	12.47
292.236	20.29
292.451	18.67
292.667	22.39
292.882	34.09
293.098	18.96
293.313	-2.09
293.529	0.7
293.744	-5.17
293.959	-16.24
294.175	-20.49
294.39	3.33
294.605	16.97
294.821	20.12
295.036	25.11
295.251	40.05
295.467	40.4
295.682	32.3
295.897	17.99
296.112	9.04
296.328	-4.58
296.543	-29.31
296.758	-42.19
296.973	-10.36
297.188	16.84
297.404	0.5
297.619	-8.63
297.834	-7.41
298.049	-22.35
298.264	-42.1
298.479	-5.57
298.694	1.8
298.909	17.85
299.125	24.45
299.34	34.5
299.555	32.42
299.77	28.45
299.985	0.36
300.2	-36.39
300.415	-50.03
300.63	-33.1
300.845	-32.48
301.06	-34.26
301.275	-1.26
301.49	16.98
301.704	6.97
301.919	6.86
302.134	4.06
302.349	-1.6
302.564	-47.32
302.779	-55.01
302.994	-88.87
303.209	-52.46
303.423	-39.36
303.638	9
303.853	-12.53
304.068	18.53
304.283	25.47
304.497	35.39
304.712	36.12
304.927	40.34
305.142	27.52
305.356	31.44
305.571	22.34
305.786	19.78
306	17.45
306.215	31.29
306.43	17.58
306.644	22.8
306.859	44.83
307.074	50.91
307.288	15.87
307.503	19.66
307.717	8.73
307.932	11.71
308.147	-0.7
308.361	16.07
308.576	7.43
308.79	-13.34
309.005	-24.18
309.219	-5.93
309.434	-14.21
309.648	-13.06
309.863	10.23
310.077	24.66
310.292	17.49
310.506	13.65
310.72	30.95
310.935	29.07
311.149	5.83
311.364	10.78
311.578	21.21
311.792	10.63
312.007	11.9
312.221	17.89
312.435	9.7
312.649	-2.99
312.864	-31.18
313.078	-19.65
313.292	0.27
313.507	-5.79
313.721	36.23
313.935	28.56
314.149	14.38
314.363	7.06
314.578	18.35
314.792	14.59
315.006	14.68
315.22	20.78
315.434	28.56
315.648	33
315.862	32.91
316.077	48.37
316.291	62.49
316.505	62.76
316.719	52
316.933	24.95
317.147	-9.52
317.361	-51.62
317.575	-97.36
317.789	-128.69
318.003	-199.11
318.217	-135.58
318.431	-58.99
318.645	-5.04
318.859	13.45
319.073	38.48
319.287	29.72
319.5	6.13
319.714	-11.85
319.928	-28.04
320.142	-48.08
320.356	-14.95
320.57	19.5
320.784	33.89
320.997	15.66
321.211	-13.39
321.425	-38.95
321.639	-66.2
321.853	-33.43
322.066	-13.47
322.28	-10.17
322.494	-7.6
322.707	-5.3
322.921	-11.7
323.135	-2.05
323.349	-1.48
323.562	-14.97
323.776	-9.02
323.989	-14.2
324.203	-48.15
324.417	-40.8
324.63	-41.99
324.844	-38.43
325.057	-40.82
325.271	-1.55
325.485	22.79
325.698	36.52
325.912	41.19
326.125	32.02
326.339	24.52
326.552	-5.16
326.766	-2.54
326.979	22.06
327.193	43.18
327.406	37.22
327.619	43.54
327.833	40.8
328.046	10.04
328.26	-14.92
328.473	-6.54
328.686	-25.66
328.9	-32.47
329.113	1
329.326	-2.73
329.54	2.06
329.753	7.79
329.966	22.34
330.179	-1.36
330.393	15.8
330.606	24.06
330.819	26.24
331.032	36.82
331.246	42.96
331.459	52.31
331.672	45.52
331.885	43.34
332.098	29.19
332.311	21.5
332.525	-12.6
332.738	10.29
332.951	30.52
333.164	35.46
333.377	26.68
333.59	35.77
333.803	28.41
334.016	20.87
334.229	-1.13
334.442	20.01
334.655	44.9
334.868	34.93
335.081	26.06
335.294	22.88
335.507	-3.32
335.72	-9.84
335.933	-9.22
336.146	-17.5
336.359	-20.41
336.572	-29.08
336.785	-73.27
336.997	-75.35
337.21	-41.77
337.423	-22.66
337.636	-9.67
337.849	18.54
338.062	23.41
338.274	18.22
338.487	12.77
338.7	8.46
338.913	-6.27
339.125	-7.55
339.338	-26.69
339.551	-28.84
339.763	-13.72
339.976	8.96
340.189	14.18
340.402	-1.14
340.614	4.49
340.827	6.23
341.039	-27.7
341.252	-17.43
341.465	4.08
341.677	4.31
341.89	-27.27
342.102	10.08
342.315	-14.59
342.527	-41.07
342.74	-17.15
342.952	0.87
343.165	-0.85
343.377	36.3
343.59	38.26
343.802	35.82
344.015	23.16
344.227	26.32
344.44	4.24
344.652	5.12
344.864	0.77
345.077	35.08
345.289	32.26
345.502	22.77
345.714	21.52
345.926	23.93
346.139	15.36
346.351	14.11
346.563	30.21
346.775	23.6
346.988	6.23
347.2	1.26
347.412	-29.5
347.624	-46.45
347.837	-47.56
348.049	-11.41
348.261	-6.77
348.473	7.83
348.685	24.29
348.897	14.32
349.11	-10.28
349.322	-33.21
349.534	-27.77
349.746	-46.2
349.958	-46.26
350.17	-49.12
350.382	-16.79
350.594	-13.01
350.806	-10.73
351.018	15.91
351.23	15.74
351.442	-3.64
351.654	8.88
351.866	24.52
352.078	16.2
352.29	22.89
352.502	28.84
352.714	31
352.926	23.41
353.138	18.27
353.35	9.98
353.561	11.76
353.773	-6.1
353.985	-0.47
354.197	-11.3
354.409	-4.62
354.621	-18.16
354.832	-7.89
355.044	-15.33
355.256	-13.11
355.468	0.74
355.679	3.29
355.891	13.75
356.103	15.44
356.314	34.21
356.526	31.36
356.738	44.25
356.949	34.54
357.161	44.79
357.373	14.18
357.584	14.09
357.796	6.36
358.008	3.99
358.219	4.46
358.431	11.19
358.642	16.7
358.854	11.27
359.065	10.92
359.277	1.02
359.488	4.53
359.7	-16.23
359.911	-20.16
360.123	-12.14
360.334	-21.58
360.546	-48.62
360.757	-39.87
360.969	-13.73
361.18	-34.42
361.391	-25.26
361.603	-25.33
361.814	-34.7
362.025	-36.21
362.237	-25.74
362.448	-15.74
362.659	8.91
362.871	6.72
363.082	-9.83
363.293	-7.35
363.504	-14.93
363.716	-37.31
363.927	-28.74
364.138	-32.14
364.349	-36.42
364.56	-41.45
364.772	-26.26
364.983	-8.44
365.194	0.86
365.405	12.35
365.616	30.98
365.827	40.46
366.038	13.62
366.25	3.74
366.461	-12.05
366.672	-4.1
366.883	-1.5
367.094	18.01
367.305	20.2
367.516	14.13
367.727	3.15
367.938	-5.62
368.149	-1.18
368.36	15.25
368.571	14.55
368.781	-2.62
368.992	-5
369.203	-28.43
369.414	-57.48
369.625	-47.16
369.836	-30.84
370.047	-52.56
370.258	-35.62
370.468	-22.48
370.679	-28.56
370.89	-21.63
371.101	-1.5
371.312	-2.69
371.522	-15.72
371.733	-2.74
371.944	4.15
372.155	2.4
372.365	-0.26
372.576	11.44
372.787	2.7
372.997	-21.34
373.208	-17.11
373.419	-1.13
373.629	-17.13
373.84	-12.99
374.05	-4.41
374.261	1.52
374.472	-8.5
374.682	23.26
374.893	16.53
375.103	35.47
375.314	28.14
375.524	30.17
375.735	18.37
375.945	28.28
376.156	16.91
376.366	16.62
376.577	12.56
376.787	1.28
376.997	3.52
377.208	4.62
377.418	20.13
377.629	26.49
377.839	39.95
378.049	35.78
378.26	38.4
378.47	31.08
378.68	21.49
378.89	19.58
379.101	13.61
379.311	-2.79
379.521	-15.62
379.732	-14.2
379.942	-16.46
380.152	-33.3
380.362	-12.85
380.572	-14.23
380.783	4.81
380.993	6.53
381.203	25.44
381.413	25.67
381.623	34.76
381.833	33.69
382.043	26.42
382.253	18.36
382.463	14.5
382.674	8.44
382.884	-6.14
383.094	0
383.304	3.35
383.514	5.09
383.724	9.17
383.934	8.44
384.144	-6.23
384.353	-10.56
384.563	-12.42
384.773	-7.24
384.983	-16.61
385.193	1.72
385.403	5.53
385.613	11.69
385.823	1.26
386.033	4.13
386.242	-1.83
386.452	-11.66
386.662	-18.62
386.872	-4.03
387.082	-7.51
387.291	-12.56
387.501	-7.01
387.711	-2.27
387.921	-8.74
388.13	-2.89
388.34	5.6
388.55	0.66
388.759	-2.97
388.969	-0.86
389.179	-3.02
389.388	-4.76
389.598	4.16
389.807	4
390.017	1.68
390.227	2.93
390.436	5.29
390.646	5.42
390.855	5.42
391.065	3.79
391.274	3.61
391.484	0.31
391.693	-0.43
391.903	2.11
392.112	6.99
392.322	7.79
392.531	9.39
392.74	8.51
392.95	5.59
393.159	3.08
393.369	4.11
393.578	4.89
393.787	4.17
393.997	6.06
394.206	5.06
394.415	4.19
394.625	3.33
394.834	1.81
395.043	1.86
395.252	3.17
395.462	4.74
395.671	4.83
395.88	6.29
396.089	6.12
396.298	5.28
396.508	4.34
396.717	3.67
396.926	4.36
397.135	3.5
397.344	4.16
397.553	4.66
397.762	5.61
397.971	5.39
398.181	5.78
398.39	4.75
398.599	4.12
398.808	4.05
399.017	4.18
399.226	5.11
399.435	6.06
399.644	6.09
399.853	5.31
400.062	5.3
400.27	4.48
400.479	4.07
400.688	3.86
400.897	4.41
401.106	4.28
401.315	4.27
401.524	4.44
401.733	4.93
401.941	5.15
402.15	5.52
402.359	5.53
402.568	5.75
402.777	5.94
402.985	5.6
403.194	5.35
403.403	5.27
403.612	5.01
403.82	4.6
404.029	4.81
404.238	4.7
404.446	4.96
404.655	4.8
404.864	4.74
405.072	4.51
405.281	4.35
405.489	4.34
405.698	4.46
405.906	4.58
406.115	4.71
406.324	4.92
406.532	4.88
406.741	4.93
406.949	4.9
407.158	4.81
407.366	4.89
407.574	4.97
407.783	5.01
407.991	4.78
408.2	4.86
408.408	4.71
408.617	4.38
408.825	4.25
409.033	4.41
409.242	4.36
409.45	4.56
409.658	4.67
409.867	4.69
410.075	4.59
410.283	4.51
410.491	4.31
410.7	4.29
410.908	4.2
411.116	4.44
411.324	4.39
411.533	4.28
411.741	4.43
411.949	4.46
412.157	4.28
412.365	4.2
412.573	4.18
412.781	4.13
412.99	4.1
413.198	4.21
413.406	4.36
413.614	4.41
413.822	4.31
414.03	4.3
414.238	4.13
414.446	4.13
414.654	4.08
414.862	3.96
415.07	4
415.278	4.2
415.486	4.14
415.694	4.22
415.902	4.22
416.109	4.11
416.317	3.96
416.525	3.8
416.733	3.75
416.941	3.94
417.149	3.93
417.357	3.95
417.564	3.9
417.772	4.1
417.98	4.02
418.188	4.06
418.395	4.16
418.603	4.51
418.811	4.13
419.019	4
419.226	4.02
419.434	3.96
419.642	3.77
419.849	3.97
420.057	3.99
420.265	3.95
420.472	3.75
420.68	3.67
420.887	3.54
421.095	3.68
421.302	3.8
421.51	3.91
421.717	4.05
421.925	4.13
422.132	3.97
422.34	3.7
422.547	3.71
422.755	3.69
422.962	3.62
423.17	3.62
423.377	3.76
423.585	3.84
423.792	3.65
423.999	3.61
424.207	3.54
424.414	3.55
424.621	3.33
424.829	3.44
425.036	3.53
425.243	3.67
425.451	3.55
425.658	3.51
425.865	3.54
426.072	3.45
426.28	3.6
426.487	3.6
426.694	3.69
426.901	3.63
427.108	3.69
427.315	3.57
427.523	3.83
427.73	3.76
427.937	3.85
428.144	3.76
428.351	3.76
428.558	3.71
428.765	3.62
428.972	3.46
429.179	3.46
429.386	3.62
429.593	3.4
429.8	3.43
430.007	3.62
430.214	3.75
430.421	3.64
430.628	3.61
430.835	3.69
431.042	3.75
431.249	3.78
431.456	3.72
431.662	3.88
431.869	3.98
432.076	3.91
432.283	4
432.49	4.01
432.697	3.94
432.903	3.7
433.11	3.75
433.317	3.67
433.524	3.77
433.73	3.86
433.937	4.14
434.144	4.1
434.35	4.13
434.557	4
434.764	4.04
434.97	4
435.177	4.19
435.384	4.2
435.59	4.25
435.797	4.39
436.003	4.33
436.21	4.2
436.416	4.19
436.623	4.27
436.829	4.25
437.036	4.42
437.242	4.39
437.449	4.38
437.655	4.45
437.862	4.42
438.068	4.3
438.275	4.49
438.481	4.7
438.687	4.67
438.894	4.61
439.1	4.66
439.307	4.7
439.513	4.54
439.719	4.42
439.926	4.53
440.132	4.52
440.338	4.47
440.544	4.56
440.751	4.64
440.957	4.73
441.163	4.82
441.369	4.92
441.575	4.81
441.782	4.88
441.988	4.65
442.194	4.63
442.4	4.5
442.606	4.73
442.812	4.8
443.018	4.96
443.224	4.91
443.431	4.98
443.637	4.79
443.843	4.73
444.049	4.74
444.255	4.67
444.461	4.73
444.667	4.81
444.873	4.88
445.079	4.84
445.284	4.97
445.49	4.74
445.696	4.72
445.902	4.57
446.108	4.6
446.314	4.54
446.52	4.67
446.726	4.81
446.931	4.91
447.137	4.97
447.343	5.12
447.549	5.12
447.755	5.02
447.96	5.1
448.166	5.04
448.372	4.92
448.578	5
448.783	4.99
448.989	5.09
449.195	5.16
449.4	5.25
449.606	5.22
449.812	5.15
450.017	5.06
450.223	5.02
450.428	5.02
450.634	5.06
450.84	5.19
451.045	5.21
451.251	5.21
451.456	5.32
451.662	5.34
451.867	5.37
452.073	5.38
452.278	5.43
452.483	5.44
452.689	5.39
452.894	5.39
453.1	5.33
453.305	5.33
453.51	5.3
453.716	5.29
453.921	5.32
454.127	5.32
454.332	5.29
454.537	5.15
454.742	5.16
454.948	5.03
455.153	5.07
455.358	5.13
455.563	5.33
455.769	5.35
455.974	5.42
456.179	5.38
456.384	5.28
456.589	5.27
456.795	5.24
457	5.17
457.205	5.3
457.41	5.34
457.615	5.21
457.82	5.26
458.025	5.26
458.23	5.1
458.435	5.22
458.64	5.25
458.845	5.39
459.05	5.47
459.255	5.56
459.46	5.5
459.665	5.54
459.87	5.47
460.075	5.47
460.28	5.5
460.485	5.48
460.69	5.47
460.895	5.42
461.099	5.37
461.304	5.4
461.509	5.44
461.714	5.38
461.919	5.41
462.123	5.43
462.328	5.44
462.533	5.43
462.738	5.54
462.942	5.54
463.147	5.59
463.352	5.6
463.556	5.68
463.761	5.62
463.966	5.56
464.17	5.57
464.375	5.58
464.58	5.52
464.784	5.5
464.989	5.55
465.193	5.62
465.398	5.65
465.602	5.69
465.807	5.82
466.011	5.92
466.216	5.9
466.42	5.91
466.625	5.99
