Data from Ofra_2a_PS_1GT36B_Reflection_2.txt Node
Date: Tue Jul 20 09:31:56 EDT 2021
User: Adam
Spectrometer: FLMT01687
Trigger mode: 0
Integration Time (sec): 9.450000E-1
Scans to average: 3
Electric dark correction enabled: true
Nonlinearity correction enabled: false
Boxcar width: 3
XAxis mode: Wavelengths
Number of Pixels in Spectrum: 3648
>>>>>Begin Spectral Data<<<<<
179.494	760.36
179.716	464.7
179.937	532.42
180.158	2048.83
180.38	-903.78
180.601	-220.91
180.823	-46.92
181.044	-87.35
181.265	-173.8
181.486	-46.32
181.708	-1344.57
181.929	-67.09
182.15	-116.48
182.372	-16.16
182.593	-35.87
182.814	353.74
183.035	275.1
183.257	114.69
183.478	47.86
183.699	62.56
183.92	34.59
184.141	34.25
184.363	30.64
184.584	23.79
184.805	30.21
185.026	34.15
185.247	19.81
185.468	38.58
185.689	40.48
185.91	17.92
186.132	29.55
186.353	3.54
186.574	9.97
186.795	0.82
187.016	1.75
187.237	-6.35
187.458	-3.76
187.679	-12.21
187.9	10.19
188.121	1.33
188.342	15.92
188.563	20.12
188.784	28.7
189.005	51.3
189.226	35.72
189.447	24.68
189.667	30.35
189.888	39.76
190.109	23.39
190.33	12.17
190.551	-12.56
190.772	-9.08
190.993	9.56
191.214	1.14
191.434	-15.8
191.655	-3.2
191.876	3.71
192.097	8.81
192.318	16.49
192.538	12.42
192.759	24.38
192.98	29.42
193.201	41.67
193.421	44.89
193.642	56.8
193.863	62.52
194.083	52.35
194.304	40.91
194.525	50.97
194.745	20.35
194.966	22.65
195.187	24.94
195.407	22.76
195.628	22.78
195.848	19.73
196.069	-2.71
196.29	-3.73
196.51	-13.84
196.731	-3.4
196.951	-9.26
197.172	-13.85
197.392	-2.7
197.613	-4.04
197.833	6.47
198.054	11.12
198.274	-20.97
198.495	-7.72
198.715	-2.28
198.936	-8.48
199.156	6.94
199.377	15.12
199.597	3.87
199.817	24.26
200.038	17.74
200.258	20.35
200.479	26.88
200.699	32.63
200.919	12.51
201.14	17.91
201.36	14.48
201.58	20.29
201.801	17.89
202.021	11.2
202.241	8.05
202.461	23.04
202.682	25.57
202.902	29.26
203.122	27.29
203.342	45.68
203.563	59.9
203.783	62.75
204.003	61.38
204.223	60.33
204.443	52.53
204.663	50.33
204.884	33.18
205.104	30.72
205.324	27.87
205.544	25.73
205.764	25.58
205.984	36.43
206.204	38.32
206.424	38.22
206.644	34.95
206.864	35.3
207.084	53.78
207.304	51.54
207.525	48.45
207.745	43.2
207.964	48.9
208.184	41.35
208.404	24.49
208.624	-11.81
208.844	-24.62
209.064	-3.34
209.284	1.4
209.504	1.18
209.724	-21.61
209.944	-7.66
210.164	12.11
210.384	21.46
210.604	3.61
210.823	-10.38
211.043	-19.42
211.263	3.17
211.483	1.92
211.703	5.59
211.922	12.65
212.142	14.66
212.362	21.96
212.582	26.14
212.801	24.5
213.021	31.99
213.241	18.95
213.461	9.01
213.68	7.99
213.9	10.2
214.12	2.47
214.339	2.8
214.559	16.26
214.779	24.9
214.998	32.29
215.218	33.73
215.438	43.42
215.657	44.63
215.877	44.79
216.096	38.9
216.316	24.48
216.535	21.66
216.755	12.71
216.974	7.44
217.194	17.91
217.413	23.15
217.633	12.88
217.852	15.38
218.072	5.36
218.291	33.51
218.511	38.71
218.73	36.39
218.95	32.37
219.169	49.81
219.389	55.48
219.608	58.38
219.827	48.92
220.047	46.19
220.266	43.79
220.485	53.73
220.705	30.42
220.924	18.45
221.143	8.19
221.363	5.98
221.582	-1.23
221.801	-0.82
222.021	-18.89
222.24	-16.42
222.459	-8.92
222.678	-20.11
222.897	-26.96
223.117	-22.87
223.336	-12.23
223.555	-6.72
223.774	-1.04
223.993	14.16
224.213	17.9
224.432	33.49
224.651	35.64
224.87	23.52
225.089	31.52
225.308	29.32
225.527	22.06
225.746	36.64
225.965	24.1
226.184	6.05
226.404	-6.59
226.623	-0.01
226.842	-6.4
227.061	-5.24
227.28	-0.01
227.499	21.64
227.718	33.2
227.936	26.27
228.155	22.69
228.374	25.38
228.593	25.93
228.812	9.26
229.031	1.18
229.25	7.78
229.469	27.32
229.688	29.59
229.907	16.97
230.125	18.7
230.344	31.97
230.563	30.9
230.782	19.73
231.001	9.78
231.22	4.86
231.438	17.57
231.657	20.89
231.876	14.81
232.095	13.51
232.313	19.43
232.532	25.08
232.751	26.76
232.969	38.9
233.188	42.09
233.407	48.67
233.625	51.85
233.844	51.64
234.063	47.34
234.281	44.01
234.5	31.84
234.719	23.15
234.937	19.76
235.156	10.13
235.374	7.35
235.593	2.44
235.811	-1.94
236.03	-6.16
236.249	0.11
236.467	-6.6
236.686	-5.12
236.904	-1.53
237.123	17.83
237.341	15.26
237.559	23.12
237.778	23.19
237.996	22.38
238.215	25.27
238.433	28.62
238.652	19.08
238.87	26.56
239.088	17.4
239.307	19.23
239.525	15.99
239.743	12.33
239.962	4.17
240.18	8.46
240.398	-1.54
240.617	12.55
240.835	10.87
241.053	20.79
241.271	23.8
241.49	15.58
241.708	16.57
241.926	14.65
242.144	12.56
242.363	1.99
242.581	4.73
242.799	4.91
243.017	20.93
243.235	14.36
243.453	18.21
243.672	8.17
243.89	19.28
244.108	17.37
244.326	19.8
244.544	10.12
244.762	15.59
244.98	14.2
245.198	5.86
245.416	13.85
245.634	18.22
245.852	18.98
246.07	18.7
246.288	20.6
246.506	25.86
246.724	40.23
246.942	40.29
247.16	38.92
247.378	27.45
247.596	35.1
247.814	22.18
248.032	21.09
248.25	9.25
248.468	-3.19
248.685	-4.25
248.903	2.52
249.121	5.69
249.339	9.4
249.557	15.4
249.775	16.88
249.992	18.59
250.21	12.52
250.428	7.42
250.646	6.15
250.863	24.93
251.081	12.46
251.299	24.72
251.517	33.96
251.734	37.05
251.952	56.85
252.17	46.05
252.387	28.11
252.605	34.89
252.823	14.46
253.04	11.84
253.258	12.46
253.475	1.63
253.693	8.41
253.911	-2.95
254.128	-1.05
254.346	7.84
254.563	3.42
254.781	-0.55
254.998	3.33
255.216	6.15
255.433	19.3
255.651	17.96
255.868	11.76
256.086	19.5
256.303	20.3
256.521	9.73
256.738	9.33
256.956	-9.84
257.173	-5.8
257.39	5.46
257.608	6.65
257.825	5.53
258.043	15.49
258.26	13.97
258.477	25.49
258.695	25.7
258.912	22.76
259.129	12.65
259.346	16.26
259.564	-5.18
259.781	3.62
259.998	-7.04
260.216	-7.97
260.433	-7.71
260.65	1.4
260.867	0.92
261.084	18.6
261.302	4.52
261.519	2.43
261.736	6.72
261.953	13.71
262.17	2.53
262.387	-9.8
262.604	-28.23
262.822	-15.57
263.039	0.4
263.256	0.7
263.473	-7.84
263.69	-0.88
263.907	12.03
264.124	10.89
264.341	8.05
264.558	7.4
264.775	16.5
264.992	21.51
265.209	21.65
265.426	26.76
265.643	27.65
265.86	23.87
266.077	20.4
266.294	20.37
266.51	18.16
266.727	7.98
266.944	-55.75
267.161	-55.45
267.378	-44.83
267.595	-43.24
267.812	-49.69
268.028	-38.94
268.245	-28.02
268.462	25.39
268.679	20.53
268.896	10.27
269.112	11.97
269.329	15.36
269.546	14.12
269.763	17.77
269.979	17.69
270.196	27.53
270.413	26.58
270.629	22.56
270.846	25.02
271.063	28.73
271.279	24.69
271.496	15.06
271.712	9.07
271.929	22.45
272.146	22.86
272.362	8.13
272.579	-8.93
272.795	-5
273.012	1.71
273.228	4.37
273.445	0.24
273.661	2.22
273.878	11.23
274.094	23.43
274.311	17.34
274.527	21.45
274.744	15.73
274.96	11.39
275.177	17.58
275.393	21.21
275.609	22.11
275.826	31.22
276.042	33.57
276.259	28.01
276.475	30.89
276.691	28.34
276.908	13.06
277.124	9.42
277.34	3.1
277.557	-1.15
277.773	-0.16
277.989	-12.06
278.205	-21.58
278.422	-4.1
278.638	0.39
278.854	-6.97
279.07	-8.76
279.286	-12.21
279.503	-1.97
279.719	11.72
279.935	2.57
280.151	7.68
280.367	15.25
280.583	18.73
280.799	30.7
281.016	30.34
281.232	27.91
281.448	27.36
281.664	26.36
281.88	36.32
282.096	35.77
282.312	32.12
282.528	22.52
282.744	19.1
282.96	13.01
283.176	9.14
283.392	9.82
283.608	7.71
283.824	3.15
284.04	15.9
284.256	16.52
284.471	27.55
284.687	29.94
284.903	20.35
285.119	2.38
285.335	7.29
285.551	12.3
285.767	9.35
285.982	1.96
286.198	-9.35
286.414	6.76
286.63	30.64
286.846	30.02
287.061	23.17
287.277	23.78
287.493	29.22
287.709	35.73
287.924	33.47
288.14	15.36
288.356	12.28
288.571	5.38
288.787	14.85
289.003	18.79
289.218	22.97
289.434	17.38
289.65	34.87
289.865	42.35
290.081	41.76
290.296	33.47
290.512	22.45
290.727	20.65
290.943	17.69
291.159	-1.94
291.374	-7.93
291.59	-7.27
291.805	-14.62
292.021	-7.01
292.236	-0.63
292.451	4.64
292.667	9.96
292.882	16.06
293.098	20.49
293.313	25.66
293.529	23.32
293.744	16.98
293.959	18.83
294.175	20.84
294.39	15.52
294.605	15.41
294.821	17.64
295.036	22.42
295.251	24.71
295.467	15.66
295.682	20.27
295.897	20.1
296.112	14.19
296.328	18.57
296.543	9.06
296.758	-0.67
296.973	3.42
297.188	7.44
297.404	6.63
297.619	5.72
297.834	3.33
298.049	17.09
298.264	17.11
298.479	3.69
298.694	0.83
298.909	4.47
299.125	5.49
299.34	3.26
299.555	0.25
299.77	6.59
299.985	15.03
300.2	13.21
300.415	18.08
300.63	18.81
300.845	23.97
301.06	24.27
301.275	27.03
301.49	29.82
301.704	29.17
301.919	20.44
302.134	21.09
302.349	16.01
302.564	11.69
302.779	15.92
302.994	21.31
303.209	29.19
303.423	31.58
303.638	34.83
303.853	31.37
304.068	31.25
304.283	14.38
304.497	4.3
304.712	7.48
304.927	-0.89
305.142	-2.28
305.356	-3.08
305.571	-0.56
305.786	4.79
306	11.66
306.215	9.34
306.43	20.71
306.644	22.58
306.859	25.45
307.074	28.02
307.288	34.66
307.503	24.24
307.717	25.25
307.932	19.39
308.147	21.99
308.361	22.87
308.576	24.67
308.79	16.43
309.005	21.44
309.219	23.76
309.434	26.45
309.648	17.28
309.863	18.91
310.077	9.51
310.292	3.88
310.506	12.03
310.72	9.36
310.935	14.36
311.149	17.99
311.364	16.92
311.578	12.52
311.792	18.19
312.007	15.16
312.221	11.02
312.435	7.7
312.649	-33.56
312.864	-41.46
313.078	-28.33
313.292	-24.49
313.507	-25.41
313.721	-23.77
313.935	-4.86
314.149	34.41
314.363	36.81
314.578	40.59
314.792	45.72
315.006	49.73
315.22	57.05
315.434	45.99
315.648	44.03
315.862	40.71
316.077	41.05
316.291	40.06
316.505	40.24
316.719	17.67
316.933	19.67
317.147	17.07
317.361	10.57
317.575	13.36
317.789	7.33
318.003	8.26
318.217	17.05
318.431	18.44
318.645	20.55
318.859	15.14
319.073	13.76
319.287	14.88
319.5	12.37
319.714	12.08
319.928	10.97
320.142	6.56
320.356	25.93
320.57	16.78
320.784	17.84
320.997	26.02
321.211	29.68
321.425	23.79
321.639	28.36
321.853	18.74
322.066	19.03
322.28	21.92
322.494	19.55
322.707	20.47
322.921	27.62
323.135	29.2
323.349	35.7
323.562	41.9
323.776	42.85
323.989	41.56
324.203	45.2
324.417	37.62
324.63	32.27
324.844	14.38
325.057	12.58
325.271	-2.76
325.485	-7.33
325.698	-13.08
325.912	1.79
326.125	3.55
326.339	15.46
326.552	13.51
326.766	20.57
326.979	21.45
327.193	15.12
327.406	7.18
327.619	-2.11
327.833	-0.68
328.046	-2.36
328.26	-7.86
328.473	-4.3
328.686	-0.34
328.9	-10.28
329.113	2.18
329.326	3.93
329.54	9.07
329.753	20.93
329.966	16.79
330.179	20.96
330.393	37.24
330.606	35.72
330.819	40.61
331.032	43.64
331.246	41.57
331.459	51.31
331.672	48.87
331.885	35.72
332.098	37.43
332.311	27.68
332.525	24.09
332.738	24.7
332.951	19.9
333.164	17.97
333.377	6.97
333.59	14.21
333.803	19.73
334.016	24.76
334.229	21.37
334.442	25.07
334.655	29.08
334.868	44.47
335.081	45.28
335.294	43.41
335.507	43.63
335.72	34.72
335.933	33.11
336.146	35.56
336.359	30.47
336.572	26.88
336.785	34.39
336.997	27
337.21	28.06
337.423	23.28
337.636	19.64
337.849	18.43
338.062	22.75
338.274	23.67
338.487	26.7
338.7	37.04
338.913	36.48
339.125	31.16
339.338	35.06
339.551	25.21
339.763	16.67
339.976	14.39
340.189	3.83
340.402	5.15
340.614	9.99
340.827	0.67
341.039	3.71
341.252	5.14
341.465	-1.52
341.677	0.52
341.89	4.98
342.102	9.91
342.315	14.67
342.527	8.95
342.74	6.96
342.952	17.85
343.165	21.59
343.377	18.51
343.59	16.8
343.802	23.87
344.015	26.32
344.227	22.19
344.44	11.99
344.652	15.4
344.864	18.11
345.077	13.05
345.289	5.74
345.502	4
345.714	0.49
345.926	9.43
346.139	2.63
346.351	-16.94
346.563	-2.73
346.775	-1.23
346.988	2.99
347.2	11.84
347.412	14.17
347.624	19.63
347.837	28.14
348.049	23.13
348.261	23.33
348.473	20.76
348.685	23.42
348.897	21.54
349.11	11.64
349.322	7.94
349.534	3.66
349.746	8.17
349.958	13.57
350.17	10.63
350.382	-6.78
350.594	4.78
350.806	16.52
351.018	18.96
351.23	16.25
351.442	15.14
351.654	13.96
351.866	28.73
352.078	24.33
352.29	20.88
352.502	21.33
352.714	21.26
352.926	24.33
353.138	21.53
353.35	10.39
353.561	6.49
353.773	3.91
353.985	-0.24
354.197	-6.43
354.409	-5.1
354.621	0.87
354.832	-2.34
355.044	3.41
355.256	2.15
355.468	3
355.679	9.99
355.891	8.91
356.103	8.69
356.314	18.14
356.526	11.75
356.738	1.15
356.949	7.42
357.161	7.78
357.373	2.81
357.584	8.38
357.796	7.93
358.008	16.22
358.219	35.25
358.431	35.41
358.642	30.18
358.854	28.19
359.065	20.11
359.277	14.03
359.488	8.56
359.7	8.29
359.911	6.41
360.123	8.47
360.334	6.76
360.546	3.64
360.757	18.15
360.969	26.52
361.18	16.81
361.391	16.9
361.603	22.96
361.814	25.79
362.025	24.26
362.237	18.48
362.448	15.99
362.659	11.19
362.871	11.75
363.082	11.67
363.293	13.6
363.504	24.68
363.716	20.49
363.927	25.37
364.138	34.75
364.349	34.88
364.56	32.74
364.772	35.04
364.983	23.14
365.194	25
365.405	23.3
365.616	12.74
365.827	14.98
366.038	23.88
366.25	25
366.461	27.32
366.672	21.4
366.883	13.38
367.094	14.66
367.305	10.22
367.516	-1.64
367.727	-8.64
367.938	-3.57
368.149	-2.09
368.36	0.8
368.571	4.06
368.781	5.83
368.992	5.12
369.203	6.6
369.414	1.67
369.625	1.14
369.836	3.25
370.047	8.05
370.258	2.73
370.468	1.75
370.679	0.06
370.89	9.29
371.101	8.2
371.312	4.09
371.522	1.53
371.733	1.83
371.944	2.54
372.155	0.73
372.365	-2.64
372.576	-4.74
372.787	-5.76
372.997	-13.99
373.208	-6.45
373.419	-0.59
373.629	7.36
373.84	2.5
374.05	14.61
374.261	13.66
374.472	15.22
374.682	9.46
374.893	1.08
375.103	3.67
375.314	1.48
375.524	-4.88
375.735	-2.96
375.945	2.72
376.156	14.06
376.366	22.01
376.577	21.89
376.787	26.25
376.997	25.15
377.208	25.62
377.418	21.85
377.629	12.19
377.839	14.06
378.049	8.49
378.26	10.34
378.47	16.12
378.68	13.11
378.89	8.72
379.101	5.28
379.311	-0.65
379.521	7.88
379.732	0.05
379.942	-4.42
380.152	4.1
380.362	10.7
380.572	14.47
380.783	14.25
380.993	9.75
381.203	16.5
381.413	17.23
381.623	17.99
381.833	12.69
382.043	8.8
382.253	10.45
382.463	10.55
382.674	13.12
382.884	11.64
383.094	12.18
383.304	14.04
383.514	20.45
383.724	17.52
383.934	17.11
384.144	20.97
384.353	24.47
384.563	19.19
384.773	18.74
384.983	16.33
385.193	19.15
385.403	19.99
385.613	9.54
385.823	5.51
386.033	5.96
386.242	9.87
386.452	7.31
386.662	7.69
386.872	2.42
387.082	7.4
387.291	10.03
387.501	10.27
387.711	5.57
387.921	6.18
388.13	3.62
388.34	4.29
388.55	4.99
388.759	3.47
388.969	0.5
389.179	4.67
389.388	4.71
389.598	2.85
389.807	4.15
390.017	2.98
390.227	2.38
390.436	4.31
390.646	3.42
390.855	1.66
391.065	3.31
391.274	4.35
391.484	4.06
391.693	5.2
391.903	3.71
392.112	3.92
392.322	6.37
392.531	6.47
392.74	5.2
392.95	5.23
393.159	4.73
393.369	6.02
393.578	5.75
393.787	5.08
393.997	6.03
394.206	6.62
394.415	6.81
394.625	6.41
394.834	5.34
395.043	4.89
395.252	5.58
395.462	4.3
395.671	3.96
395.88	4.19
396.089	4.76
396.298	5.18
396.508	4.88
396.717	3.5
396.926	3.29
397.135	3.18
397.344	3.04
397.553	2.97
397.762	2.62
397.971	2.84
398.181	3.13
398.39	3.44
398.599	3.84
398.808	3.58
399.017	3.72
399.226	4.31
399.435	4.38
399.644	4.36
399.853	4.46
400.062	4.15
400.27	4.2
400.479	4.11
400.688	3.86
400.897	4.08
401.106	4.18
401.315	3.91
401.524	4.06
401.733	4.28
401.941	4.21
402.15	4
402.359	3.79
402.568	3.69
402.777	3.79
402.985	3.57
403.194	3.39
403.403	3.33
403.612	3.5
403.82	3.44
404.029	3.47
404.238	3.54
404.446	3.58
404.655	3.57
404.864	3.6
405.072	3.54
405.281	3.47
405.489	3.53
405.698	3.38
405.906	3.38
406.115	3.42
406.324	3.37
406.532	3.35
406.741	3.46
406.949	3.29
407.158	3.36
407.366	3.44
407.574	3.4
407.783	3.31
407.991	3.25
408.2	3.16
408.408	3.26
408.617	3.21
408.825	3.09
409.033	3.04
409.242	3.03
409.45	3
409.658	3
409.867	2.99
410.075	3.05
410.283	3.01
410.491	2.95
410.7	2.98
410.908	3.02
411.116	2.98
411.324	2.89
411.533	2.75
411.741	2.8
411.949	2.89
412.157	2.93
412.365	2.87
412.573	2.81
412.781	2.83
412.99	2.94
413.198	2.94
413.406	2.83
413.614	2.81
413.822	2.82
414.03	2.82
414.238	2.85
414.446	2.74
414.654	2.67
414.862	2.65
415.07	2.71
415.278	2.7
415.486	2.8
415.694	2.71
415.902	2.67
416.109	2.7
416.317	2.79
416.525	2.75
416.733	2.84
416.941	2.77
417.149	2.84
417.357	2.88
417.564	2.92
417.772	2.88
417.98	2.81
418.188	2.58
418.395	2.65
418.603	2.6
418.811	2.56
419.019	2.55
419.226	2.54
419.434	2.5
419.642	2.65
419.849	2.58
420.057	2.55
420.265	2.63
420.472	2.55
420.68	2.56
420.887	2.65
421.095	2.65
421.302	2.63
421.51	2.69
421.717	2.71
421.925	2.64
422.132	2.52
422.34	2.54
422.547	2.44
422.755	2.43
422.962	2.35
423.17	2.25
423.377	2.41
423.585	2.46
423.792	2.39
423.999	2.43
424.207	2.32
424.414	2.48
424.621	2.6
424.829	2.44
425.036	2.43
425.243	2.43
425.451	2.51
425.658	2.62
425.865	2.44
426.072	2.39
426.28	2.46
426.487	2.45
426.694	2.36
426.901	2.27
427.108	2.33
427.315	2.37
427.523	2.37
427.73	2.42
427.937	2.5
428.144	2.58
428.351	2.67
428.558	2.62
428.765	2.57
428.972	2.51
429.179	2.43
429.386	2.41
429.593	2.42
429.8	2.45
430.007	2.49
430.214	2.58
430.421	2.62
430.628	2.55
430.835	2.51
431.042	2.5
431.249	2.46
431.456	2.54
431.662	2.51
431.869	2.53
432.076	2.67
432.283	2.72
432.49	2.7
432.697	2.71
432.903	2.67
433.11	2.74
433.317	2.8
433.524	2.67
433.73	2.67
433.937	2.65
434.144	2.75
434.35	2.71
434.557	2.66
434.764	2.61
434.97	2.8
435.177	2.83
435.384	2.95
435.59	2.93
435.797	2.97
436.003	3.03
436.21	3.1
436.416	3.02
436.623	3.05
436.829	3
437.036	3
437.242	3.02
437.449	3.04
437.655	3
437.862	3
438.068	3.04
438.275	3.11
438.481	3.21
438.687	3.3
438.894	3.28
439.1	3.32
439.307	3.36
439.513	3.36
439.719	3.35
439.926	3.32
440.132	3.29
440.338	3.3
440.544	3.25
440.751	3.33
440.957	3.3
441.163	3.35
441.369	3.34
441.575	3.36
441.782	3.39
441.988	3.45
442.194	3.47
442.4	3.48
442.606	3.51
442.812	3.53
443.018	3.52
443.224	3.58
443.431	3.6
443.637	3.56
443.843	3.64
444.049	3.57
444.255	3.57
444.461	3.58
444.667	3.51
444.873	3.5
445.079	3.59
445.284	3.55
445.49	3.57
445.696	3.61
445.902	3.66
446.108	3.7
446.314	3.75
446.52	3.72
446.726	3.72
446.931	3.78
447.137	3.73
447.343	3.73
447.549	3.72
447.755	3.72
447.96	3.72
448.166	3.77
448.372	3.76
448.578	3.78
448.783	3.82
448.989	3.9
449.195	3.92
449.4	3.89
449.606	3.89
449.812	3.9
450.017	3.92
450.223	3.88
450.428	3.83
450.634	3.87
450.84	3.88
451.045	3.88
451.251	3.91
451.456	3.91
451.662	3.89
451.867	3.92
452.073	3.83
452.278	3.87
452.483	3.9
452.689	3.9
452.894	3.92
453.1	3.95
453.305	3.96
453.51	4.01
453.716	4.02
453.921	4.03
454.127	4
454.332	4.03
454.537	4.06
454.742	4.04
454.948	4.08
455.153	4.11
455.358	4.18
455.563	4.25
455.769	4.2
455.974	4.19
456.179	4.17
456.384	4.17
456.589	4.16
456.795	4.06
457	4.01
457.205	3.99
457.41	4.03
457.615	4.11
457.82	4.17
458.025	4.17
458.23	4.22
458.435	4.21
458.64	4.3
458.845	4.26
459.05	4.26
459.255	4.2
459.46	4.22
459.665	4.26
459.87	4.31
460.075	4.3
460.28	4.32
460.485	4.34
460.69	4.32
460.895	4.42
461.099	4.41
461.304	4.4
461.509	4.37
461.714	4.42
461.919	4.41
462.123	4.51
462.328	4.44
462.533	4.52
462.738	4.53
462.942	4.55
463.147	4.5
463.352	4.58
463.556	4.55
463.761	4.55
463.966	4.53
464.17	4.6
464.375	4.65
464.58	4.71
464.784	4.66
464.989	4.64
465.193	4.67
465.398	4.69
465.602	4.69
465.807	4.68
466.011	4.73
466.216	4.72
466.42	4.81
466.625	4.82
466.829	4.84
467.034	4.82
467.238	4.92
467.443	4.92
467.647	5
467.851	4.96
468.056	4.97
468.26	4.95
468.464	4.97
468.669	4.97
468.873	4.95
469.077	4.97
469.282	5.03
469.486	5.05
469.69	5.09
469.894	5.17
470.099	5.15
470.303	5.19
470.507	5.2
470.711	5.15
