Data from Ofra_PS_T2_2A_2GT07_Reflection_1.txt Node
Date: Wed Jul 21 17:05:54 EDT 2021
User: Adam
Spectrometer: FLMT01687
Trigger mode: 0
Integration Time (sec): 1.100000E0
Scans to average: 2
Electric dark correction enabled: true
Nonlinearity correction enabled: false
Boxcar width: 2
XAxis mode: Wavelengths
Number of Pixels in Spectrum: 3648
>>>>>Begin Spectral Data<<<<<
179.494	504.8
179.716	551.53
179.937	521.77
180.158	527
180.38	938.75
180.601	382.32
180.823	160.1
181.044	89.1
181.265	102.94
181.486	31.1
181.708	77.37
181.929	151.02
182.15	-53.52
182.372	134.12
182.593	101.74
182.814	38.38
183.035	73.74
183.257	73.29
183.478	-7.45
183.699	78.03
183.92	88.53
184.141	68.05
184.363	9.3
184.584	59.97
184.805	55.85
185.026	55.48
185.247	65.19
185.468	49.79
185.689	49.24
185.91	30.38
186.132	29.32
186.353	15.11
186.574	99.89
186.795	74.57
187.016	48.86
187.237	30.37
187.458	21.3
187.679	-25.8
187.9	-3.41
188.121	-15.2
188.342	11.49
188.563	44.18
188.784	86.72
189.005	87.59
189.226	141.02
189.447	121.41
189.667	149.03
189.888	-37.93
190.109	-505.19
190.33	-210.32
190.551	-458.41
190.772	-31.72
190.993	5.97
191.214	15.28
191.434	18.9
191.655	69.33
191.876	21.49
192.097	-54.9
192.318	-42.83
192.538	-150.15
192.759	-128.41
192.98	-28.75
193.201	13.42
193.421	-3.24
193.642	21.23
193.863	26.9
194.083	4.94
194.304	-9.26
194.525	6.37
194.745	-10.29
194.966	-36.87
195.187	-22.67
195.407	-29.99
195.628	-79.62
195.848	-62.27
196.069	-16.9
196.29	17.43
196.51	2.78
196.731	-15.83
196.951	-13.76
197.172	-38.02
197.392	-107.67
197.613	-93.58
197.833	-113.2
198.054	-114.55
198.274	-59.06
198.495	-56.31
198.715	-36.56
198.936	-42.65
199.156	-32.47
199.377	-105.31
199.597	-64.03
199.817	-78.25
200.038	-24.43
200.258	-56.69
200.479	-28.42
200.699	-36.93
200.919	50
201.14	51.73
201.36	57.77
201.58	68.04
201.801	68.08
202.021	32.34
202.241	25.33
202.461	22.04
202.682	-31.48
202.902	-98.4
203.122	-24.69
203.342	-22.14
203.563	10.04
203.783	30.48
204.003	5.24
204.223	-1.81
204.443	55.68
204.663	35
204.884	45.56
205.104	96.52
205.324	106.21
205.544	76.14
205.764	69.75
205.984	61.72
206.204	60.73
206.424	45.7
206.644	20.43
206.864	33.63
207.084	-2.08
207.304	-8.35
207.525	-47.5
207.745	19.89
207.964	38.32
208.184	-3.95
208.404	-42.22
208.624	-62.61
208.844	-63.34
209.064	-370.28
209.284	-400.78
209.504	-166.42
209.724	-16.79
209.944	4.88
210.164	51.87
210.384	52.69
210.604	43.64
210.823	-6.18
211.043	-33.61
211.263	-20.72
211.483	-8.9
211.703	-52.27
211.922	-12.83
212.142	42.67
212.362	53.17
212.582	31
212.801	33.76
213.021	-1.21
213.241	-29.8
213.461	-43.24
213.68	-35.27
213.9	6.93
214.12	34.31
214.339	1.54
214.559	1.2
214.779	30.32
214.998	9.27
215.218	-33.17
215.438	-0.42
215.657	-11.83
215.877	-24.23
216.096	17.71
216.316	34.65
216.535	3.59
216.755	13.95
216.974	-67.34
217.194	-141.41
217.413	-121.65
217.633	-66.21
217.852	-98.85
218.072	4.27
218.291	13.27
218.511	41.09
218.73	24.5
218.95	6.57
219.169	-6.49
219.389	-35.6
219.608	-19.5
219.827	-23.5
220.047	-9.1
220.266	-7.71
220.485	11.91
220.705	21.31
220.924	7.03
221.143	30.84
221.363	33.13
221.582	35.62
221.801	20.33
222.021	33.7
222.24	10.2
222.459	49.74
222.678	32.05
222.897	-4.11
223.117	-23.85
223.336	-6.49
223.555	-4.55
223.774	36.82
223.993	52.98
224.213	75.35
224.432	55.92
224.651	73.01
224.87	35.7
225.089	50.43
225.308	40.36
225.527	53.42
225.746	39.2
225.965	41.87
226.184	24.86
226.404	36.79
226.623	9.63
226.842	15.77
227.061	34.19
227.28	34.22
227.499	32.49
227.718	48.89
227.936	42.67
228.155	54.83
228.374	45.08
228.593	26.13
228.812	10.32
229.031	2.37
229.25	-56.63
229.469	-65.2
229.688	-72.34
229.907	-36.25
230.125	-7.07
230.344	20.98
230.563	42.15
230.782	62.92
231.001	2.7
231.22	-13.22
231.438	19.42
231.657	23.39
231.876	1.9
232.095	64.79
232.313	71.56
232.532	51.68
232.751	7.54
232.969	23.04
233.188	-20.37
233.407	14.42
233.625	20.23
233.844	-1.76
234.063	1.75
234.281	10.33
234.5	7.33
234.719	2.33
234.937	37.56
235.156	53.25
235.374	50.09
235.593	41.49
235.811	38.18
236.03	9.11
236.249	-45.1
236.467	-38.78
236.686	-17.6
236.904	4.81
237.123	0.71
237.341	14.4
237.559	12.47
237.778	17.78
237.996	-2.15
238.215	27.75
238.433	17.6
238.652	25.14
238.87	-1.11
239.088	10.21
239.307	2.48
239.525	20.18
239.743	-12.95
239.962	13.79
240.18	12.26
240.398	-28.05
240.617	-49.18
240.835	-25
241.053	-20.5
241.271	-9.55
241.49	21.17
241.708	-15.44
241.926	-2.18
242.144	21.51
242.363	-14.53
242.581	-20.94
242.799	30.12
243.017	24.53
243.235	-1.71
243.453	11.67
243.672	-0.82
243.89	-3
244.108	-2.11
244.326	17
244.544	32.87
244.762	41.54
244.98	58.45
245.198	70.87
245.416	58.1
245.634	36.34
245.852	42.56
246.07	45.08
246.288	-11.22
246.506	-59.96
246.724	-48.35
246.942	-45.18
247.16	-29.31
247.378	12.75
247.596	51.36
247.814	42.62
248.032	41.27
248.25	60.48
248.468	48.02
248.685	60.45
248.903	76.32
249.121	66.97
249.339	26.76
249.557	-0.13
249.775	3.5
249.992	-53.75
250.21	-44.97
250.428	-24.28
250.646	-32.4
250.863	-39.07
251.081	0.68
251.299	3.48
251.517	24.55
251.734	38.32
251.952	10.53
252.17	3.89
252.387	12.76
252.605	2.51
252.823	5.73
253.04	28.21
253.258	41.14
253.475	32.32
253.693	58.81
253.911	46.09
254.128	55.79
254.346	72.25
254.563	62.85
254.781	46.14
254.998	45.35
255.216	19.74
255.433	17.87
255.651	52.38
255.868	87.86
256.086	87.93
256.303	87.96
256.521	54.28
256.738	30.38
256.956	-9
257.173	-10.85
257.39	-23.44
257.608	-11.29
257.825	50.11
258.043	86
258.26	88.79
258.477	129.84
258.695	120.42
258.912	61.88
259.129	44.35
259.346	6.22
259.564	-43.37
259.781	-51.83
259.998	13.99
260.216	56.08
260.433	85.95
260.65	80.61
260.867	91.69
261.084	61.47
261.302	37.69
261.519	6.71
261.736	-3.12
261.953	-21.98
262.17	14.58
262.387	-27.14
262.604	-41.55
262.822	-48.41
263.039	-61.31
263.256	-104.41
263.473	-34.3
263.69	-13.14
263.907	26.45
264.124	46.62
264.341	48.84
264.558	37.36
264.775	54.42
264.992	34.64
265.209	21.35
265.426	38.35
265.643	37.45
265.86	48.61
266.077	56.48
266.294	58.74
266.51	37.36
266.727	19.66
266.944	-0.87
267.161	-14.82
267.378	-5.02
267.595	18.11
267.812	-10.04
268.028	-19.04
268.245	21.29
268.462	-13.9
268.679	-21.53
268.896	41.36
269.112	30.99
269.329	23.56
269.546	37.22
269.763	30.91
269.979	10.8
270.196	31.08
270.413	-5.84
270.629	-11.12
270.846	-22.69
271.063	-7.93
271.279	-23.37
271.496	7.77
271.712	27.23
271.929	47.91
272.146	16.86
272.362	24.64
272.579	37.52
272.795	53.16
273.012	63.75
273.228	77.06
273.445	48.59
273.661	10.28
273.878	-22.03
274.094	-18.91
274.311	-41.01
274.527	17.42
274.744	29.17
274.96	16.38
275.177	8.97
275.393	16.6
275.609	18.14
275.826	50.71
276.042	49.91
276.259	37.15
276.475	52.48
276.691	53.11
276.908	21.47
277.124	28.53
277.34	33.41
277.557	19.89
277.773	0.37
277.989	-19.18
278.205	-18.54
278.422	1.69
278.638	10.52
278.854	29.35
279.07	58.58
279.286	64.32
279.503	46.96
279.719	33.51
279.935	-4.36
280.151	-24.63
280.367	-6.42
280.583	-36.85
280.799	-19.43
281.016	-25.64
281.232	19.84
281.448	25.81
281.664	55.76
281.88	33.44
282.096	43.04
282.312	42.77
282.528	45.69
282.744	50.39
282.96	47.71
283.176	25.03
283.392	17.38
283.608	14.3
283.824	12.64
284.04	34.63
284.256	52.6
284.471	47.68
284.687	38.08
284.903	53.32
285.119	61.01
285.335	31.18
285.551	19.82
285.767	25.86
285.982	12.63
286.198	-40.1
286.414	29.18
286.63	34.02
286.846	44.19
287.061	28.99
287.277	67.28
287.493	38.88
287.709	66.75
287.924	44.49
288.14	66.05
288.356	48.94
288.571	68.2
288.787	38.78
289.003	46.02
289.218	33.2
289.434	5.95
289.65	1.15
289.865	3.53
290.081	9.01
290.296	12.74
290.512	16.1
290.727	4.94
290.943	-11.87
291.159	-15.76
291.374	-11.5
291.59	-22.85
291.805	-17.06
292.021	5.1
292.236	13.64
292.451	25.41
292.667	33.49
292.882	45.3
293.098	45.68
293.313	20.51
293.529	-14.62
293.744	-28.58
293.959	-36.94
294.175	-33.88
294.39	11.43
294.605	31.96
294.821	51.34
295.036	64.37
295.251	68.7
295.467	49.19
295.682	47.96
295.897	4.57
296.112	-13.37
296.328	-5.76
296.543	-36.62
296.758	-38.36
296.973	5.15
297.188	34.55
297.404	2.72
297.619	3.01
297.834	-14.03
298.049	-27.09
298.264	-52.19
298.479	-4.01
298.694	2.54
298.909	30.13
299.125	37.84
299.34	39.23
299.555	22.66
299.77	29.87
299.985	-27.23
300.2	-76.86
300.415	-78.22
300.63	-55.17
300.845	-54.24
301.06	-42.76
301.275	-6.05
301.49	12.67
301.704	15.95
301.919	5.89
302.134	2.88
302.349	-3.31
302.564	-55.76
302.779	-73.23
302.994	-42.16
303.209	-16.5
303.423	12.54
303.638	57.5
303.853	31.3
304.068	34.34
304.283	30.82
304.497	18.54
304.712	6.5
304.927	16.07
305.142	7.06
305.356	14.46
305.571	29.2
305.786	14.85
306	1.23
306.215	19.16
306.43	4.77
306.644	-19.45
306.859	46.47
307.074	63.1
307.288	19.47
307.503	12.85
307.717	1.01
307.932	-10.05
308.147	-21.67
308.361	1.14
308.576	0.55
308.79	-19.74
309.005	-26.35
309.219	-11.61
309.434	-21.35
309.648	-20.54
309.863	12.64
310.077	12.57
310.292	11.96
310.506	16.3
310.72	24.84
310.935	39.24
311.149	36.89
311.364	51.66
311.578	61.74
311.792	59.99
312.007	39.9
312.221	19.76
312.435	19.45
312.649	-1.72
312.864	37.14
313.078	54.52
313.292	165.08
313.507	153
313.721	194.71
313.935	72.12
314.149	70.22
314.363	35.81
314.578	26.24
314.792	24.22
315.006	11.85
315.22	21.08
315.434	14.26
315.648	27.89
315.862	34.12
316.077	41.66
316.291	30.91
316.505	47.09
316.719	26.76
316.933	8.41
317.147	9.61
317.361	-46.29
317.575	-52.06
317.789	-52.9
318.003	-108.79
318.217	-79.78
318.431	24.54
318.645	31.48
318.859	15.05
319.073	42.53
319.287	31.39
319.5	-0.27
319.714	-25.46
319.928	-10.64
320.142	-22
320.356	51.87
320.57	74.7
320.784	79.38
320.997	81.5
321.211	97.16
321.425	3.61
321.639	-12.26
321.853	31.62
322.066	39.42
322.28	26.79
322.494	44.57
322.707	50.27
322.921	33.59
323.135	16.41
323.349	13.06
323.562	-1.48
323.776	-1.07
323.989	-7.04
324.203	-19.95
324.417	-18.61
324.63	-26.67
324.844	-35.56
325.057	-20.45
325.271	-1.49
325.485	23.41
325.698	43.06
325.912	43.66
326.125	31.92
326.339	32.74
326.552	2.05
326.766	4.76
326.979	34.9
327.193	58.29
327.406	50.43
327.619	43.59
327.833	47.1
328.046	16.57
328.26	-17.5
328.473	-2.34
328.686	-5.1
328.9	12.53
329.113	27.48
329.326	19.21
329.54	30.53
329.753	3
329.966	-31.82
330.179	-5.08
330.393	11.96
330.606	10.79
330.819	43.15
331.032	53.21
331.246	46.82
331.459	63.82
331.672	56.11
331.885	43.53
332.098	21.19
332.311	10.53
332.525	-32.21
332.738	-14.89
332.951	5.52
333.164	27.27
333.377	36.42
333.59	49.09
333.803	50
334.016	43.44
334.229	42.49
334.442	48.45
334.655	61.44
334.868	54.32
335.081	36.4
335.294	26.21
335.507	20.39
335.72	6.5
335.933	0.74
336.146	1.01
336.359	-0.53
336.572	-27.8
336.785	-46.62
336.997	-38.1
337.21	-8.48
337.423	-15.11
337.636	-5.92
337.849	17.76
338.062	19.89
338.274	24.24
338.487	27.28
338.7	29.46
338.913	4.78
339.125	-13.95
339.338	-57.35
339.551	-49.1
339.763	-11.75
339.976	8.39
340.189	29.63
340.402	43.92
340.614	45.33
340.827	18.75
341.039	17.21
341.252	26.86
341.465	32.04
341.677	29.38
341.89	28.39
342.102	47.31
342.315	23.07
342.527	4.33
342.74	4.97
342.952	18.95
343.165	-6.54
343.377	13.86
343.59	6.99
343.802	24.2
344.015	29.44
344.227	40.38
344.44	35.39
344.652	43.9
344.864	30.08
345.077	45.42
345.289	43.56
345.502	44.62
345.714	41.04
345.926	45.81
346.139	29.32
346.351	38.38
346.563	35.09
346.775	43.14
346.988	29.52
347.2	31.82
347.412	-7.78
347.624	-2.18
347.837	-16.83
348.049	20.76
348.261	42.93
348.473	58.76
348.685	60.03
348.897	55.94
349.11	28.33
349.322	26.59
349.534	30.15
349.746	32.04
349.958	38.77
350.17	51.03
350.382	36.24
350.594	30.92
350.806	22.22
351.018	10.49
351.23	0.67
351.442	-37.09
351.654	-32.74
351.866	-26.96
352.078	1.51
352.29	26.65
352.502	37.58
352.714	36.55
352.926	31.9
353.138	21.91
353.35	3.94
353.561	5.46
353.773	-4.99
353.985	6.42
354.197	1.54
354.409	6.9
354.621	5.38
354.832	22.71
355.044	16.56
355.256	18.54
355.468	27.91
355.679	31.91
355.891	40.44
356.103	26.05
356.314	33.2
356.526	38.85
356.738	35.64
356.949	19.33
357.161	34.72
357.373	25.03
357.584	14.14
357.796	29.06
358.008	25.69
358.219	35.87
358.431	45.08
358.642	42.2
358.854	27.67
359.065	20.47
359.277	-0.8
359.488	-24.92
359.7	-24.38
359.911	-39.7
360.123	-20.02
360.334	-25.29
360.546	-14.72
360.757	-23.26
360.969	-0.92
361.18	-3.97
361.391	13.95
361.603	-4.43
361.814	17.14
362.025	12.41
362.237	14.03
362.448	25.2
362.659	41.16
362.871	27.9
363.082	18
363.293	26.75
363.504	0.77
363.716	-20.25
363.927	-26.37
364.138	-44.07
364.349	-66.71
364.56	-50.45
364.772	-29.69
364.983	-11.72
365.194	6.95
365.405	27.32
365.616	61.29
365.827	67.2
366.038	61.74
366.25	51.14
366.461	22.94
366.672	16.45
366.883	21.17
367.094	24.41
367.305	14.8
367.516	21.92
367.727	-10.22
367.938	-29.7
368.149	-25.29
368.36	1.56
368.571	0.56
368.781	0.04
368.992	-1.27
369.203	-21.08
369.414	-47.08
369.625	-39.39
369.836	-37.09
370.047	-57.36
370.258	-31.92
370.468	-27.34
370.679	-39.17
370.89	-37.35
371.101	2.23
371.312	-9.01
371.522	5.5
371.733	12.11
371.944	22.54
372.155	8.85
372.365	10.53
372.576	13.85
372.787	17.73
372.997	-0.88
373.208	-0.97
373.419	31.89
373.629	-1.01
373.84	-6.84
374.05	-6.9
374.261	18.65
374.472	-14.34
374.682	27.21
374.893	32.38
375.103	63.09
375.314	44.16
375.524	33.31
375.735	20.68
375.945	30.32
376.156	15.88
376.366	16.54
376.577	28.59
376.787	28.51
376.997	25.84
377.208	15.4
377.418	12
377.629	26.41
377.839	19.84
378.049	18.23
378.26	28.38
378.47	37.01
378.68	26.89
378.89	26.43
379.101	19.28
379.311	0.16
379.521	-32.78
379.732	-28.2
379.942	-14.59
380.152	-27.85
380.362	-3.95
380.572	4.15
380.783	12.28
380.993	18.63
381.203	35.91
381.413	45.37
381.623	58.66
381.833	43.4
382.043	34.28
382.253	26.11
382.463	22.66
382.674	8.87
382.884	5.2
383.094	5.76
383.304	11.13
383.514	11.08
383.724	19.23
383.934	10.36
384.144	-2.08
384.353	-11.35
384.563	-9.96
384.773	-3.4
384.983	-4.19
385.193	16.47
385.403	18.62
385.613	17.94
385.823	9.61
386.033	18.43
386.242	3.47
386.452	4.43
386.662	0.17
386.872	10.33
387.082	3.74
387.291	3.29
387.501	2.44
387.711	4.48
387.921	-0.26
388.13	4.55
388.34	17
388.55	15.23
388.759	13.65
388.969	17.68
389.179	13.92
389.388	12.11
389.598	16.85
389.807	16.78
390.017	11.5
390.227	13.82
390.436	11.81
390.646	11.4
390.855	11.63
391.065	11
391.274	10.59
391.484	9.06
391.693	11.33
391.903	15.77
392.112	21.48
392.322	22.31
392.531	25.47
392.74	26.03
392.95	19.02
393.159	16.63
393.369	18.33
393.578	16.39
393.787	14.11
393.997	17.04
394.206	16.47
394.415	15.92
394.625	14.92
394.834	14.9
395.043	15.37
395.252	18.47
395.462	19.09
395.671	21.32
395.88	22.97
396.089	23.97
396.298	20.95
396.508	20.3
396.717	19.63
396.926	19.04
397.135	18.15
397.344	18.75
397.553	19.88
397.762	21.63
397.971	20.89
398.181	21.03
398.39	20.88
398.599	20.42
398.808	19.1
399.017	20.65
399.226	21.76
399.435	22.57
399.644	22.55
399.853	22.36
400.062	21.36
400.27	20.81
400.479	20.5
400.688	19.88
400.897	20.17
401.106	20.11
401.315	19.97
401.524	19.85
401.733	20.28
401.941	20.69
402.15	21.11
402.359	21.09
402.568	21.19
402.777	21.27
402.985	20.83
403.194	20.53
403.403	20.33
403.612	19.93
403.82	19.71
404.029	19.84
404.238	19.71
404.446	20.2
404.655	20.27
404.864	20.52
405.072	20.15
405.281	20.36
405.489	19.83
405.698	19.92
405.906	19.75
406.115	19.82
406.324	19.63
406.532	19.68
406.741	19.65
406.949	19.47
407.158	19.36
407.366	19.44
407.574	19.49
407.783	19.55
407.991	19.34
408.2	19.54
408.408	19.46
408.617	19.29
408.825	19.07
409.033	19.1
409.242	18.99
409.45	19.05
409.658	18.9
409.867	18.89
410.075	18.8
410.283	18.54
410.491	18.28
410.7	18.32
410.908	18.37
411.116	18.68
411.324	18.75
411.533	18.63
411.741	18.77
411.949	18.64
412.157	18.27
412.365	18.32
412.573	18.4
412.781	18.31
412.99	18.35
413.198	18.56
413.406	18.44
413.614	18.4
413.822	18.22
414.03	17.95
414.238	17.7
414.446	17.72
414.654	17.6
414.862	17.58
415.07	17.75
415.278	17.84
415.486	17.56
415.694	17.4
415.902	17.28
416.109	17.03
416.317	16.9
416.525	16.89
416.733	17.08
416.941	17.18
417.149	17.11
417.357	17.16
417.564	17.18
417.772	17.23
417.98	17.22
418.188	17.33
418.395	17.43
418.603	17.47
418.811	17.16
419.019	16.98
419.226	17.06
419.434	16.88
419.642	16.85
419.849	16.88
420.057	17
420.265	16.92
420.472	16.64
420.68	16.5
420.887	16.47
421.095	16.36
421.302	16.32
421.51	16.54
421.717	16.65
421.925	16.63
422.132	16.41
422.34	16.07
422.547	16.19
422.755	16.11
422.962	16.11
423.17	16.04
423.377	16.34
423.585	16.2
423.792	16.05
423.999	16.08
424.207	16.26
424.414	16.31
424.621	16.38
424.829	16.42
425.036	16.45
425.243	16.54
425.451	16.38
425.658	16.24
425.865	16.5
426.072	16.48
426.28	16.58
426.487	16.56
426.694	16.48
426.901	16.23
427.108	16.25
427.315	16.09
427.523	16.39
427.73	16.52
427.937	16.65
428.144	16.5
428.351	16.53
428.558	16.57
428.765	16.52
428.972	16.51
429.179	16.67
429.386	17.03
429.593	16.83
429.8	16.92
430.007	17.1
430.214	17.32
430.421	17.2
430.628	17.33
430.835	17.37
431.042	17.5
431.249	17.56
431.456	17.63
431.662	17.68
431.869	17.94
432.076	18.02
432.283	18.25
432.49	18.22
432.697	18.33
432.903	18.15
433.11	18.03
433.317	18.12
433.524	18.35
433.73	18.34
433.937	18.65
434.144	18.72
434.35	18.61
434.557	18.42
434.764	18.46
434.97	18.4
435.177	18.7
435.384	18.64
435.59	18.98
435.797	19.36
436.003	19.44
436.21	19.28
436.416	19.44
436.623	19.45
436.829	19.44
437.036	19.49
437.242	19.6
437.449	19.68
437.655	19.56
437.862	19.62
438.068	19.78
438.275	19.94
438.481	20.09
438.687	20.32
438.894	20.28
439.1	20.26
439.307	20.4
439.513	20.42
439.719	20.37
439.926	20.44
440.132	20.48
440.338	20.32
440.544	20.48
440.751	20.5
440.957	20.68
441.163	20.69
441.369	20.89
441.575	20.76
441.782	20.82
441.988	20.78
442.194	20.86
442.4	20.95
442.606	21.24
442.812	21.34
443.018	21.28
443.224	21.36
443.431	21.41
443.637	21.34
443.843	21.41
444.049	21.66
444.255	21.57
444.461	21.7
444.667	21.57
444.873	21.58
445.079	21.48
445.284	21.58
445.49	21.3
445.696	21.34
445.902	21.31
446.108	21.35
446.314	21.41
446.52	21.72
446.726	22.01
446.931	22.27
447.137	22.33
447.343	22.38
447.549	22.16
447.755	22.14
447.96	22.09
448.166	22.07
448.372	22.13
448.578	22.37
448.783	22.35
448.989	22.46
449.195	22.64
449.4	22.59
449.606	22.5
449.812	22.36
450.017	22.27
450.223	22.22
450.428	22.25
450.634	22.41
450.84	22.55
451.045	22.55
451.251	22.58
451.456	22.78
451.662	22.82
451.867	22.89
452.073	23.01
452.278	23.04
452.483	23.13
452.689	23.05
452.894	23.13
453.1	23.15
453.305	23.25
453.51	23.17
453.716	23.16
453.921	23.12
454.127	23.02
454.332	22.84
454.537	22.93
454.742	22.92
454.948	23.04
455.153	23.1
455.358	23.38
455.563	23.45
455.769	23.71
455.974	23.69
456.179	23.57
456.384	23.38
456.589	23.24
456.795	23.05
457	23.13
457.205	23.42
457.41	23.65
457.615	23.75
457.82	23.82
458.025	23.7
458.23	23.64
458.435	23.52
458.64	23.36
458.845	23.52
459.05	23.64
459.255	23.67
459.46	23.66
459.665	23.76
459.87	23.75
460.075	23.66
460.28	23.78
460.485	23.97
460.69	24.03
460.895	23.86
461.099	23.92
461.304	24.04
