Data from Ofra_1a_PS_8HS24_Reflection_1.txt Node
Date: Tue Jul 20 11:03:26 EDT 2021
User: Adam
Spectrometer: FLMT01687
Trigger mode: 0
Integration Time (sec): 1.004000E0
Scans to average: 2
Electric dark correction enabled: true
Nonlinearity correction enabled: false
Boxcar width: 2
XAxis mode: Wavelengths
Number of Pixels in Spectrum: 3648
>>>>>Begin Spectral Data<<<<<
179.494	-362.44
179.716	-581.68
179.937	1282.27
180.158	-1410.19
180.38	198.78
180.601	81.21
180.823	-36.05
181.044	-177.94
181.265	-213.37
181.486	194.24
181.708	136.75
181.929	-818.18
182.15	-121.02
182.372	659.11
182.593	472.98
182.814	-483.87
183.035	-103.02
183.257	-20.12
183.478	-32.48
183.699	-38.96
183.92	-82.68
184.141	-70.47
184.363	-86.99
184.584	-68.45
184.805	-40.56
185.026	13.82
185.247	-10.69
185.468	-17.43
185.689	-4.3
185.91	2
186.132	22.67
186.353	33.6
186.574	58.7
186.795	46.1
187.016	49.88
187.237	36.01
187.458	40.75
187.679	4.59
187.9	17.28
188.121	26.01
188.342	46.57
188.563	56.33
188.784	77.87
189.005	40.67
189.226	27.94
189.447	10.02
189.667	-5.8
189.888	-29.69
190.109	-33.63
190.33	-22.47
190.551	-13.71
190.772	-6.09
190.993	4.18
191.214	15.12
191.434	12.49
191.655	-53.79
191.876	4.06
192.097	-11.09
192.318	17.55
192.538	-28.71
192.759	-8.25
192.98	1.11
193.201	19.95
193.421	0.27
193.642	19.34
193.863	40.24
194.083	17.18
194.304	10.94
194.525	24.43
194.745	22.62
194.966	6.62
195.187	17.44
195.407	9.73
195.628	13.33
195.848	10.3
196.069	-5.26
196.29	10.96
196.51	-23.66
196.731	-41.07
196.951	-59.08
197.172	-41.49
197.392	-71.51
197.613	-5.53
197.833	-6.8
198.054	-1.8
198.274	2.5
198.495	5.12
198.715	-14.73
198.936	0.11
199.156	4.18
199.377	8.35
199.597	14.81
199.817	26.41
200.038	17
200.258	37.08
200.479	39.82
200.699	61.66
200.919	29.84
201.14	42.68
201.36	29.78
201.58	-3.22
201.801	-27.74
202.021	-0.8
202.241	-16.13
202.461	-8.52
202.682	32.25
202.902	27.77
203.122	24.03
203.342	14.67
203.563	5.57
203.783	-29.25
204.003	-33.21
204.223	-32.25
204.443	-20.45
204.663	-31.01
204.884	36.37
205.104	48.19
205.324	88.46
205.544	44.24
205.764	51.19
205.984	18.12
206.204	11.24
206.424	-37.11
206.644	-28.79
206.864	-63.89
207.084	-40.75
207.304	-56.96
207.525	-17.68
207.745	4.39
207.964	8.26
208.184	21.46
208.404	14.16
208.624	14.87
208.844	6.53
209.064	0.53
209.284	-14.87
209.504	-27.34
209.724	-29.06
209.944	-48.33
210.164	-42.1
210.384	-33.37
210.604	-43.54
210.823	-65.68
211.043	-35.35
211.263	-81.12
211.483	-59.66
211.703	-48.2
211.922	-44.15
212.142	-36.25
212.362	-15.32
212.582	-8.91
212.801	-7.31
213.021	-27.08
213.241	-35.89
213.461	-34.22
213.68	-25.23
213.9	-20.39
214.12	-11.26
214.339	-6.1
214.559	-5.26
214.779	10.52
214.998	17.37
215.218	20.57
215.438	23.24
215.657	26.4
215.877	12.03
216.096	18.9
216.316	13.5
216.535	0.69
216.755	7.09
216.974	-7.47
217.194	-25.05
217.413	-22.01
217.633	-10.98
217.852	-10.71
218.072	6.06
218.291	12.3
218.511	22.02
218.73	13.14
218.95	0.43
219.169	-6.12
219.389	-0.12
219.608	-11.91
219.827	-3.87
220.047	8.39
220.266	-9.71
220.485	-35.73
220.705	-27.47
220.924	-35.53
221.143	22.64
221.363	30.52
221.582	34.58
221.801	29.22
222.021	22.17
222.24	3.44
222.459	7.19
222.678	13.04
222.897	14.33
223.117	37.86
223.336	37.95
223.555	32.51
223.774	46.32
223.993	51.7
224.213	44.45
224.432	28.18
224.651	17.42
224.87	20.57
225.089	24.45
225.308	23.55
225.527	27.57
225.746	62.89
225.965	57.35
226.184	30.69
226.404	11.96
226.623	17.72
226.842	7.27
227.061	-8.01
227.28	12.84
227.499	17.56
227.718	5.6
227.936	2.74
228.155	2.64
228.374	5.61
228.593	9.23
228.812	9.91
229.031	8.03
229.25	6.56
229.469	-16.27
229.688	-14.37
229.907	-4.88
230.125	-6.26
230.344	4.15
230.563	15.4
230.782	25.7
231.001	29.15
231.22	21.33
231.438	16.06
231.657	18.55
231.876	13.14
232.095	20.08
232.313	15.74
232.532	18.02
232.751	13.75
232.969	3.41
233.188	-16.37
233.407	-1.09
233.625	4.47
233.844	10.67
234.063	21.59
234.281	36.16
234.5	38.07
234.719	29.84
234.937	13.97
235.156	-0.76
235.374	-16.58
235.593	-22.87
235.811	-2.32
236.03	6.72
236.249	22.99
236.467	39
236.686	40.41
236.904	38.71
237.123	40.78
237.341	37.64
237.559	15.03
237.778	40.98
237.996	30.75
238.215	9.65
238.433	-30.88
238.652	24.79
238.87	-3
239.088	19.06
239.307	27.17
239.525	24.07
239.743	-4.66
239.962	-18.4
240.18	-13.7
240.398	-17.32
240.617	-20.49
240.835	-13.07
241.053	-7.92
241.271	-15.53
241.49	-5.99
241.708	-18.2
241.926	-29.01
242.144	-28.31
242.363	-43.14
242.581	-70.77
242.799	-58.56
243.017	-25.13
243.235	-8.19
243.453	-16.54
243.672	-8.57
243.89	-0.89
244.108	14.11
244.326	24.44
244.544	41.08
244.762	34.87
244.98	43.66
245.198	33.31
245.416	23.12
245.634	-1.97
245.852	-20.65
246.07	-7.67
246.288	-10.61
246.506	-23.09
246.724	-8.05
246.942	17.81
247.16	13.93
247.378	15.59
247.596	49.28
247.814	64.93
248.032	42.05
248.25	43.09
248.468	52.89
248.685	50.41
248.903	42.52
249.121	40.16
249.339	31.92
249.557	6.92
249.775	0.08
249.992	6.36
250.21	-0.87
250.428	15.85
250.646	25.6
250.863	12.79
251.081	9.2
251.299	16.43
251.517	1.62
251.734	3.23
251.952	12.4
252.17	11.66
252.387	-3.88
252.605	-14.98
252.823	-26.95
253.04	-15.35
253.258	2.4
253.475	22.03
253.693	24.02
253.911	15.16
254.128	7.23
254.346	7.21
254.563	4.31
254.781	5.82
254.998	1.92
255.216	3.78
255.433	-21.27
255.651	-1.63
255.868	-18.07
256.086	7.42
256.303	8.22
256.521	21.93
256.738	5.36
256.956	19.55
257.173	-1.64
257.39	-1.83
257.608	-6.48
257.825	3.14
258.043	13.92
258.26	24.89
258.477	21.52
258.695	19.67
258.912	-2.76
259.129	-9.71
259.346	-33.88
259.564	-41.73
259.781	-49.56
259.998	-9.12
260.216	-5.05
260.433	7.5
260.65	15.7
260.867	11.87
261.084	1.18
261.302	-3.6
261.519	6.61
261.736	-0.92
261.953	9.03
262.17	34.3
262.387	25.03
262.604	19.52
262.822	25.92
263.039	33.76
263.256	16.08
263.473	18.11
263.69	12.86
263.907	2.58
264.124	-5.15
264.341	13.35
264.558	10.99
264.775	14.6
264.992	31.37
265.209	9.46
265.426	-0.96
265.643	4.34
265.86	-20.94
266.077	-33.27
266.294	-13.32
266.51	11.5
266.727	8.66
266.944	34.33
267.161	35.42
267.378	40.2
267.595	17.75
267.812	13.95
268.028	-6.14
268.245	1.95
268.462	5.79
268.679	6.04
268.896	11.9
269.112	18.7
269.329	-11.44
269.546	-5.67
269.763	5.19
269.979	-6.39
270.196	-11.31
270.413	-3.19
270.629	-12.15
270.846	-23.98
271.063	-5.5
271.279	-6.81
271.496	-26.89
271.712	-22.15
271.929	-5.13
272.146	-12.42
272.362	-16.12
272.579	7.2
272.795	-9.77
273.012	6.48
273.228	13.08
273.445	7.93
273.661	3.5
273.878	10
274.094	-11.14
274.311	-25.68
274.527	-36.78
274.744	-32.14
274.96	-17.69
275.177	-10.73
275.393	2.31
275.609	17.23
275.826	21.2
276.042	20.1
276.259	8.89
276.475	0.25
276.691	-23.37
276.908	-31.27
277.124	-22.82
277.34	-3.26
277.557	-14.94
277.773	3.55
277.989	-12.2
278.205	-9.94
278.422	-17.55
278.638	-1.13
278.854	-10.84
279.07	11.05
279.286	-5.14
279.503	-0.65
279.719	-1.59
279.935	3
280.151	-7.27
280.367	4.03
280.583	-2.77
280.799	-4.77
281.016	-30.22
281.232	-20.8
281.448	-18.1
281.664	-9.04
281.88	-8.46
282.096	5.09
282.312	12.1
282.528	20.87
282.744	18.44
282.96	0.29
283.176	-4.5
283.392	-26.78
283.608	-65.05
283.824	-81.29
284.04	-73.83
284.256	-47.21
284.471	-22.21
284.687	-17.45
284.903	-11.09
285.119	2.09
285.335	13.9
285.551	21.7
285.767	38.26
285.982	35.54
286.198	25.77
286.414	24.42
286.63	-21.98
286.846	-36.43
287.061	-14.84
287.277	-14.7
287.493	-30.73
287.709	-31.53
287.924	-5.7
288.14	10.16
288.356	25.23
288.571	36.29
288.787	20.74
289.003	15.97
289.218	-12.47
289.434	-29.36
289.65	-13.52
289.865	1.52
290.081	8.98
290.296	23.68
290.512	33.09
290.727	18.02
290.943	18.47
291.159	6.23
291.374	-10.6
291.59	-11.79
291.805	-12.42
292.021	-5.75
292.236	1.39
292.451	14.06
292.667	4.49
292.882	13.31
293.098	8.58
293.313	-2.46
293.529	-13.5
293.744	-22.49
293.959	-30.76
294.175	-24.95
294.39	-33.68
294.605	6.25
294.821	8.42
295.036	9.01
295.251	15.69
295.467	18.91
295.682	2.28
295.897	8.52
296.112	3.96
296.328	1.19
296.543	-8.61
296.758	-8.56
296.973	-21.18
297.188	-10.36
297.404	-33.18
297.619	-42.59
297.834	-78.03
298.049	-38.22
298.264	-49.06
298.479	-59.23
298.694	-5.31
298.909	-3.09
299.125	-8.12
299.34	5.75
299.555	25.25
299.77	31.72
299.985	37.98
300.2	47.47
300.415	46.58
300.63	49.88
300.845	39.17
301.06	37.55
301.275	37.91
301.49	31.5
301.704	14.19
301.919	11.01
302.134	8.89
302.349	4.53
302.564	-1.69
302.779	-16.86
302.994	7.97
303.209	17.44
303.423	12.48
303.638	21.66
303.853	28.55
304.068	1.93
304.283	9.44
304.497	4.36
304.712	12.5
304.927	13.54
305.142	26.9
305.356	23.4
305.571	26.04
305.786	6.14
306	25.5
306.215	15.52
306.43	13.93
306.644	16.66
306.859	36.15
307.074	24.41
307.288	24.68
307.503	20.23
307.717	2.51
307.932	3.93
308.147	-7.32
308.361	-9.19
308.576	-33.17
308.79	-12.07
309.005	-29.21
309.219	-16.85
309.434	-1.24
309.648	8.11
309.863	15.42
310.077	37.13
310.292	34.71
310.506	9.44
310.72	-0.3
310.935	17.87
311.149	7.76
311.364	8.12
311.578	19.23
311.792	31.52
312.007	11.23
312.221	2.44
312.435	3.76
312.649	7.95
312.864	9.34
313.078	9.57
313.292	18.36
313.507	20.72
313.721	11.43
313.935	7.14
314.149	7.95
314.363	5.73
314.578	2.44
314.792	-14.53
315.006	-19.26
315.22	-10.97
315.434	-12.65
315.648	-26.52
315.862	-10.93
316.077	-13.05
316.291	-4.49
316.505	-22.42
316.719	8.54
316.933	4
317.147	9.56
317.361	-11.72
317.575	4.85
317.789	12.62
318.003	8.97
318.217	30.65
318.431	23.76
318.645	25.61
318.859	14.53
319.073	24.76
319.287	14.46
319.5	24.31
319.714	16.78
319.928	12.01
320.142	6.03
320.356	6.17
320.57	-5.29
320.784	-12.41
320.997	-21.41
321.211	13.7
321.425	2.8
321.639	13.63
321.853	18.54
322.066	22.04
322.28	-4.07
322.494	5.3
322.707	7.69
322.921	15.95
323.135	22.07
323.349	25.92
323.562	19.1
323.776	26.85
323.989	23.15
324.203	0.06
324.417	0.62
324.63	-1.72
324.844	-23.4
325.057	-41.63
325.271	-17.93
325.485	-3.83
325.698	21.21
325.912	37.89
326.125	41.19
326.339	49.42
326.552	30.69
326.766	25.94
326.979	21.82
327.193	28.5
327.406	1.8
327.619	17.54
327.833	10.99
328.046	10.97
328.26	-4.99
328.473	22.24
328.686	13.15
328.9	19.6
329.113	16.66
329.326	31.48
329.54	20.12
329.753	23.01
329.966	12.48
330.179	11.34
330.393	4.11
330.606	-2.8
330.819	-25.44
331.032	-16.89
331.246	-8.28
331.459	10.96
331.672	11.03
331.885	29.46
332.098	30.93
332.311	18.54
332.525	12.73
332.738	12.92
332.951	9.13
333.164	9.94
333.377	19.38
333.59	-6.54
333.803	3.3
334.016	4.58
334.229	9.11
334.442	7.89
334.655	9.11
334.868	-6.71
335.081	-9.27
335.294	-22.65
335.507	-19.27
335.72	0.23
335.933	7.02
336.146	10.78
336.359	16.33
336.572	17.84
336.785	14.06
336.997	-1.05
337.21	11.68
337.423	-5.31
337.636	-27.44
337.849	-29.98
338.062	-15.08
338.274	-16.42
338.487	-24.09
338.7	-36.22
338.913	-17.88
339.125	-16.92
339.338	-25.64
339.551	-11.72
339.763	5.76
339.976	-0.76
340.189	-4.99
340.402	10.66
340.614	3.58
340.827	14.32
341.039	6.78
341.252	7.97
341.465	-4.87
341.677	6.52
341.89	-4.02
342.102	8.98
342.315	9.56
342.527	16.22
342.74	-12.74
342.952	-8.62
343.165	-9.94
343.377	-0.4
343.59	4.58
343.802	27.93
344.015	31.44
344.227	30.7
344.44	17.52
344.652	23.5
344.864	22.76
345.077	21.26
345.289	26.8
345.502	41.1
345.714	20.22
345.926	7.07
346.139	-27.71
346.351	-28.15
346.563	-17.07
346.775	0.72
346.988	16.45
347.2	20.92
347.412	24.6
347.624	17.37
347.837	18.73
348.049	22.89
348.261	21.13
348.473	-1.12
348.685	-7.46
348.897	-36.32
349.11	-33.36
349.322	-20.98
349.534	-8.83
349.746	-3.33
349.958	2.06
350.17	-7.74
350.382	10.32
350.594	16.38
350.806	26.5
351.018	29.96
351.23	38.44
351.442	35.95
351.654	28.24
351.866	10.1
352.078	9.57
352.29	-6.56
352.502	-8.94
352.714	-10.15
352.926	-5.62
353.138	5.96
353.35	-2.3
353.561	-2.78
353.773	-6.29
353.985	-2.68
354.197	-5.57
354.409	2.45
354.621	-14.4
354.832	-15.25
355.044	-20.99
355.256	-22.47
355.468	-18.41
355.679	-0.07
355.891	16.6
356.103	16.29
356.314	6.83
356.526	-9.55
356.738	-12.82
356.949	-18.64
357.161	5.3
357.373	16.29
357.584	23.32
357.796	32.96
358.008	33.5
358.219	24.82
358.431	24.28
358.642	33.13
358.854	30.02
359.065	13.07
359.277	6.4
359.488	3.58
359.7	-4.54
359.911	-18.45
360.123	-11.59
360.334	-15.24
360.546	-15.26
360.757	-5.89
360.969	1.02
361.18	6.15
361.391	17.93
361.603	17.15
361.814	21.91
362.025	27.09
362.237	27.9
362.448	28.22
362.659	19.44
362.871	5.23
363.082	-3.61
363.293	-6.59
363.504	-23.19
363.716	-15.16
363.927	5.56
364.138	-10.22
364.349	-17.93
364.56	-33.62
364.772	-6.68
364.983	-5.94
365.194	-1.82
365.405	2.92
365.616	21.16
365.827	1.14
366.038	-11.9
366.25	2.35
366.461	9.13
366.672	10.04
366.883	11.82
367.094	11.79
367.305	-5.21
367.516	-9.15
367.727	-19.28
367.938	-19.1
368.149	-15.76
368.36	-6.57
368.571	-28.05
368.781	-35.3
368.992	-32.73
369.203	-27.12
369.414	-39.89
369.625	-26.91
369.836	5.3
370.047	15.56
370.258	26.36
370.468	24.93
370.679	29.17
370.89	17.6
371.101	30.14
371.312	16.76
371.522	31.94
371.733	18.03
371.944	3.69
372.155	1.34
372.365	6.27
372.576	-8.5
372.787	2.07
372.997	11.72
373.208	-7.09
373.419	-14.25
373.629	-12.72
373.84	-10.49
374.05	-18.07
374.261	-22.5
374.472	-9.06
374.682	0.23
374.893	-20.42
375.103	-7.97
375.314	-3.28
375.524	-3.32
375.735	2.67
375.945	11.95
376.156	7.64
376.366	11.75
376.577	11.23
376.787	15.37
376.997	18.25
377.208	15.48
377.418	6.62
377.629	7.05
377.839	6.04
378.049	8.81
378.26	-0.16
378.47	0.68
378.68	0.06
378.89	-0.5
379.101	-3.07
379.311	3.25
379.521	0.45
379.732	0.84
379.942	-0.57
380.152	-10.21
380.362	-11.03
380.572	1.79
380.783	6.86
380.993	11.33
381.203	13.96
381.413	14.47
381.623	13.64
381.833	15.23
382.043	2.92
382.253	10.8
382.463	24.32
382.674	27.83
382.884	18.64
383.094	16.86
383.304	17.12
383.514	12.73
383.724	5.44
383.934	4.66
384.144	10.55
384.353	9.29
384.563	9.12
384.773	16.11
384.983	9.73
385.193	13.11
385.403	10.66
385.613	11.17
385.823	8.3
386.033	15.67
386.242	7.77
386.452	5.39
386.662	1.03
386.872	3.48
387.082	1.82
387.291	0.97
387.501	8.15
387.711	9.97
387.921	7.12
388.13	8.08
388.34	14.39
388.55	4.97
388.759	-1.44
388.969	-2.08
389.179	-1.71
389.388	-6
389.598	-3.08
389.807	-4.09
390.017	-2.17
390.227	-5.76
390.436	-3.14
390.646	-3.65
390.855	0.45
391.065	-0.4
391.274	2.37
391.484	0.62
391.693	1.03
391.903	-0.31
392.112	0.18
392.322	-0.51
392.531	-0.49
392.74	0.04
392.95	1.99
393.159	1.12
393.369	3.7
393.578	1.62
393.787	1.38
393.997	0.86
394.206	0.9
394.415	-0.16
394.625	0.88
394.834	0.94
395.043	1.74
395.252	3.47
395.462	3.39
395.671	4.04
395.88	5.51
396.089	5.07
396.298	3.53
396.508	4.65
396.717	4.9
396.926	3.79
397.135	4.28
397.344	4.42
397.553	2.92
397.762	3.38
397.971	3.75
398.181	3.53
398.39	3.73
398.599	4.2
398.808	3.92
399.017	4.4
399.226	4.41
399.435	4.06
399.644	4.7
399.853	4.5
400.062	4.31
400.27	3.75
400.479	4.27
400.688	3.92
400.897	3.93
401.106	3.81
401.315	4.06
401.524	3.85
401.733	3.6
401.941	3.77
402.15	3.69
402.359	3.68
402.568	3.78
402.777	3.93
402.985	3.6
403.194	3.54
403.403	3.74
403.612	3.6
403.82	3.41
404.029	3.74
404.238	3.85
404.446	3.83
404.655	3.88
404.864	3.86
405.072	3.77
405.281	3.58
405.489	3.39
405.698	3.35
405.906	3.43
406.115	3.32
406.324	3.53
406.532	3.75
406.741	3.7
406.949	3.66
407.158	3.84
407.366	3.71
407.574	3.71
407.783	3.82
407.991	3.8
408.2	3.77
408.408	3.8
408.617	3.68
408.825	3.54
409.033	3.55
409.242	3.66
409.45	3.71
409.658	3.73
409.867	3.79
410.075	3.81
410.283	3.51
410.491	3.29
410.7	3.12
410.908	3.31
411.116	3.35
411.324	3.47
411.533	3.54
411.741	3.7
411.949	3.53
412.157	3.41
412.365	3.45
412.573	3.45
412.781	3.31
412.99	3.28
413.198	3.39
413.406	3.46
413.614	3.5
413.822	3.61
414.03	3.59
414.238	3.57
414.446	3.46
414.654	3.47
414.862	3.39
415.07	3.31
415.278	3.34
415.486	3.19
415.694	3.22
415.902	3.17
416.109	3.08
416.317	3.11
416.525	2.99
416.733	2.97
416.941	3
417.149	3.13
417.357	3.04
417.564	3.17
417.772	3.28
417.98	3.41
418.188	3.28
418.395	2.97
418.603	2.91
418.811	2.62
419.019	2.42
419.226	2.65
419.434	2.98
419.642	2.85
419.849	3.01
420.057	3.03
420.265	2.8
420.472	2.71
420.68	2.9
420.887	2.78
421.095	2.99
421.302	3.01
421.51	2.89
421.717	3.07
421.925	3.06
422.132	2.93
422.34	2.85
422.547	2.81
422.755	2.7
422.962	2.66
423.17	2.55
423.377	2.62
423.585	3
423.792	2.94
423.999	3.09
424.207	3.09
424.414	3.21
424.621	2.99
424.829	2.99
425.036	2.98
425.243	2.99
425.451	2.94
425.658	2.82
425.865	2.92
426.072	2.81
426.28	3.03
426.487	3.12
426.694	3.06
426.901	2.99
427.108	2.98
427.315	2.79
427.523	2.67
427.73	2.89
427.937	2.73
428.144	2.88
428.351	2.9
428.558	2.98
428.765	3
428.972	3.14
429.179	2.95
429.386	3.05
429.593	2.88
429.8	2.77
430.007	2.77
430.214	2.89
430.421	2.96
430.628	3.12
430.835	3.16
431.042	3.06
431.249	3.03
431.456	2.8
431.662	2.78
431.869	2.82
432.076	2.91
432.283	3.03
432.49	3.15
432.697	3.12
432.903	3.15
433.11	3.25
433.317	3.26
433.524	3.36
433.73	3.31
433.937	3.51
434.144	3.3
434.35	3.18
434.557	3.14
434.764	3.19
434.97	2.91
435.177	3.16
435.384	3.23
435.59	3.26
435.797	3.35
436.003	3.49
436.21	3.41
436.416	3.34
436.623	3.32
436.829	3.33
437.036	3.26
437.242	3.29
437.449	3.29
437.655	3.33
437.862	3.33
438.068	3.32
438.275	3.33
438.481	3.46
438.687	3.34
438.894	3.49
439.1	3.53
439.307	3.58
439.513	3.64
439.719	3.72
439.926	3.72
440.132	3.71
440.338	3.58
440.544	3.43
440.751	3.36
440.957	3.28
441.163	3.21
441.369	3.3
441.575	3.32
441.782	3.45
441.988	3.5
442.194	3.62
442.4	3.6
442.606	3.76
442.812	3.8
443.018	3.75
443.224	3.84
443.431	3.87
443.637	3.73
443.843	3.7
444.049	3.77
444.255	3.73
444.461	3.73
444.667	3.74
444.873	3.63
445.079	3.63
445.284	3.63
445.49	3.65
445.696	3.74
445.902	3.8
446.108	3.83
446.314	3.8
446.52	3.88
446.726	3.96
446.931	3.94
447.137	3.91
447.343	4.01
447.549	3.94
447.755	3.79
447.96	3.92
448.166	3.9
448.372	3.92
448.578	3.92
448.783	3.95
448.989	3.93
449.195	3.93
449.4	3.92
449.606	3.89
449.812	3.86
450.017	3.84
450.223	3.79
450.428	3.78
450.634	3.8
450.84	3.91
451.045	3.93
451.251	4.03
451.456	4.03
451.662	4.07
451.867	4.05
452.073	4.04
452.278	3.99
452.483	3.98
452.689	4
452.894	4.07
453.1	4.03
453.305	4.13
453.51	4.24
453.716	4.2
453.921	4.13
454.127	4.22
454.332	4.1
454.537	4.06
454.742	4.02
454.948	4.11
455.153	4.03
455.358	4.15
455.563	4.19
455.769	4.31
455.974	4.27
456.179	4.24
456.384	4.19
456.589	4.03
456.795	3.98
457	3.91
457.205	3.98
457.41	3.94
457.615	4.01
457.82	4.03
458.025	4.06
458.23	4.02
458.435	4.18
458.64	4.15
458.845	4.15
459.05	4.26
459.255	4.29
459.46	4.25
459.665	4.29
459.87	4.29
460.075	4.3
460.28	4.36
460.485	4.37
460.69	4.3
460.895	4.36
461.099	4.18
461.304	4.14
461.509	4.01
461.714	4.12
461.919	4.03
462.123	4.08
462.328	3.97
462.533	3.99
462.738	3.96
462.942	3.94
463.147	3.97
463.352	4.11
463.556	4.19
463.761	4.23
463.966	4.24
464.17	4.38
464.375	4.5
464.58	4.37
464.784	4.4
464.989	4.41
465.193	4.34
465.398	4.21
465.602	4.41
465.807	4.42
466.011	4.44
466.216	4.34
466.42	4.43
466.625	4.42
466.829	4.36
467.034	4.4
467.238	4.52
467.443	4.48
