Data from Ofra_PS_T2_2A_9CX06_Reflection_1.txt Node
Date: Wed Jul 21 17:26:15 EDT 2021
User: Adam
Spectrometer: FLMT01687
Trigger mode: 0
Integration Time (sec): 1.100000E0
Scans to average: 2
Electric dark correction enabled: true
Nonlinearity correction enabled: false
Boxcar width: 2
XAxis mode: Wavelengths
Number of Pixels in Spectrum: 3648
>>>>>Begin Spectral Data<<<<<
179.494	510.4
179.716	614.59
179.937	586.29
180.158	619
180.38	979.37
180.601	423.2
180.823	130.69
181.044	-40.76
181.265	-74.26
181.486	59.79
181.708	111.09
181.929	559.18
182.15	-538.03
182.372	29.05
182.593	55.05
182.814	44.75
183.035	97.91
183.257	91.73
183.478	-2.77
183.699	21.63
183.92	-3.63
184.141	-27.3
184.363	-67.84
184.584	38.62
184.805	43.63
185.026	66.27
185.247	78.3
185.468	42.7
185.689	19.78
185.91	13.08
186.132	11.76
186.353	-1.2
186.574	66.29
186.795	66.38
187.016	31.42
187.237	4.11
187.458	-10.72
187.679	-37.75
187.9	-19.62
188.121	-8.99
188.342	48.11
188.563	47.6
188.784	101.83
189.005	92.18
189.226	130.55
189.447	100
189.667	121.84
189.888	-98.03
190.109	-1022.08
190.33	-652.9
190.551	-1200.88
190.772	-261.74
190.993	-240.81
191.214	-163.97
191.434	-106.25
191.655	-38.4
191.876	-111.55
192.097	-163.81
192.318	-212.3
192.538	-296.77
192.759	-210.11
192.98	-44.7
193.201	-6.05
193.421	1.58
193.642	21.97
193.863	38.47
194.083	-6.7
194.304	-13.67
194.525	-9.42
194.745	-27.41
194.966	-69.54
195.187	-58.5
195.407	-84.28
195.628	-135.75
195.848	-135.74
196.069	-107.53
196.29	-55.63
196.51	-68.85
196.731	-51.5
196.951	-53.47
197.172	-87.78
197.392	-121.44
197.613	-111.21
197.833	-142.79
198.054	-122.48
198.274	-54.91
198.495	-71.11
198.715	-37.63
198.936	-59.37
199.156	-47.86
199.377	-161.31
199.597	-161.65
199.817	-194.48
200.038	-109.32
200.258	-213.91
200.479	-113.94
200.699	-106.18
200.919	-23.32
201.14	-58.31
201.36	-36.36
201.58	8.5
201.801	44.03
202.021	20.25
202.241	37.43
202.461	33.1
202.682	-58.34
202.902	-166.09
203.122	-105.86
203.342	-113.13
203.563	-76.92
203.783	-28.01
204.003	-72.68
204.223	-85.5
204.443	8.03
204.663	-7.93
204.884	2.13
205.104	68.7
205.324	112.95
205.544	96.52
205.764	92.68
205.984	90.92
206.204	80.3
206.424	55.02
206.644	20.25
206.864	34.24
207.084	18.55
207.304	3.84
207.525	-93.12
207.745	-54.78
207.964	-30.16
208.184	-83.06
208.404	-102.24
208.624	-93.72
208.844	-54.3
209.064	-303.69
209.284	-257.51
209.504	-140.9
209.724	2.82
209.944	-11.84
210.164	34.75
210.384	36.24
210.604	32.28
210.823	-17.07
211.043	-43.16
211.263	-48.81
211.483	-46.97
211.703	-98.37
211.922	-66.91
212.142	3.18
212.362	27.94
212.582	3.21
212.801	9.3
213.021	-19.1
213.241	-39.86
213.461	-75.27
213.68	-81.65
213.9	-27.71
214.12	-8.32
214.339	-78.21
214.559	-58.87
214.779	-16.53
214.998	-50.79
215.218	-107.03
215.438	-67.06
215.657	-90.2
215.877	-87.6
216.096	-36
216.316	-17.8
216.535	-18.12
216.755	-4.17
216.974	-112.05
217.194	-161
217.413	-155.54
217.633	-154.41
217.852	-280.04
218.072	-112.71
218.291	-63.53
218.511	-26.38
218.73	-44.26
218.95	-29
219.169	-26.86
219.389	-57.74
219.608	-44.67
219.827	-31.96
220.047	-14.93
220.266	-12.31
220.485	-16.45
220.705	-4.23
220.924	-22.52
221.143	14.86
221.363	-1.06
221.582	12.02
221.801	21.03
222.021	38.58
222.24	-14.39
222.459	43.2
222.678	5.17
222.897	-67.56
223.117	-123.85
223.336	-131.65
223.555	-94.86
223.774	-31.83
223.993	-34.7
224.213	17.23
224.432	4.75
224.651	24.77
224.87	-11.81
225.089	13.52
225.308	9.23
225.527	36.97
225.746	37.05
225.965	33.61
226.184	1.64
226.404	14.33
226.623	-17.67
226.842	-9.69
227.061	9.34
227.28	24.19
227.499	14.68
227.718	30.94
227.936	22.02
228.155	41.21
228.374	27.9
228.593	19.41
228.812	7.78
229.031	-6.13
229.25	-60.39
229.469	-51.08
229.688	-32.57
229.907	7.92
230.125	37.51
230.344	44.22
230.563	49.58
230.782	63.9
231.001	-2.18
231.22	0.39
231.438	22.16
231.657	16.11
231.876	2.21
232.095	50.14
232.313	37.39
232.532	39.44
232.751	0.21
232.969	-19.76
233.188	-101.34
233.407	-13.02
233.625	-26.11
233.844	-47.89
234.063	-41.54
234.281	-22.65
234.5	-36.99
234.719	-30.33
234.937	16.19
235.156	22.52
235.374	23.72
235.593	12.65
235.811	18.73
236.03	-10.12
236.249	-30.79
236.467	-23.89
236.686	-3.42
236.904	1.21
237.123	-16.1
237.341	-27.15
237.559	-21.15
237.778	-53.76
237.996	-74.83
238.215	-32.53
238.433	-1.52
238.652	-0.7
238.87	-21.33
239.088	-2.96
239.307	-16.46
239.525	-29.66
239.743	-58.47
239.962	-30.34
240.18	-40.26
240.398	-74.37
240.617	-87.79
240.835	-55.25
241.053	-36.99
241.271	-29.05
241.49	0.8
241.708	-8.19
241.926	-26.32
242.144	-10.05
242.363	-63.48
242.581	-89.87
242.799	-66.64
243.017	-31.75
243.235	-57.11
243.453	-34.31
243.672	-24.5
243.89	-12.71
244.108	-32.8
244.326	-1.83
244.544	-7.45
244.762	-12.61
244.98	-10.12
245.198	-7.75
245.416	-53.37
245.634	-33.43
245.852	-33.92
246.07	-48.36
246.288	-30.41
246.506	-47.34
246.724	-51.75
246.942	-46.87
247.16	-0.74
247.378	11.05
247.596	51.42
247.814	54.37
248.032	18.51
248.25	17.96
248.468	10.43
248.685	3.27
248.903	18.36
249.121	36.48
249.339	-10.12
249.557	-32.76
249.775	-20.34
249.992	-79.61
250.21	-80.35
250.428	-54.34
250.646	-76.51
250.863	-106.49
251.081	-67.67
251.299	-56.01
251.517	-39.46
251.734	-25.27
251.952	-29.52
252.17	-24.74
252.387	-20.4
252.605	-34.81
252.823	-20.29
253.04	1
253.258	18.17
253.475	3.26
253.693	31.74
253.911	23.58
254.128	24.22
254.346	8.92
254.563	-5.94
254.781	-25.92
254.998	-52.45
255.216	-45.41
255.433	-38.02
255.651	12.49
255.868	23.42
256.086	53.42
256.303	33.74
256.521	28.87
256.738	-3.76
256.956	-33.67
257.173	-57.13
257.39	-85.05
257.608	-106.9
257.825	-33.06
258.043	15.28
258.26	30.06
258.477	77.81
258.695	66.45
258.912	29.21
259.129	13.21
259.346	-18.13
259.564	-49.39
259.781	-63.27
259.998	-4.71
260.216	21.04
260.433	52.46
260.65	29.21
260.867	43.48
261.084	6.3
261.302	-14.18
261.519	-34.51
261.736	-44.98
261.953	-66.25
262.17	-46.86
262.387	-93.77
262.604	-137.41
262.822	-125.14
263.039	-97.85
263.256	-121.93
263.473	-82.01
263.69	-33.7
263.907	-3.14
264.124	4.56
264.341	0.47
264.558	2.84
264.775	15.34
264.992	1.56
265.209	3.32
265.426	32.9
265.643	39.26
265.86	42.53
266.077	58.54
266.294	43.97
266.51	-15.99
266.727	-20.87
266.944	-16.76
267.161	-48.04
267.378	-24.17
267.595	26
267.812	7.09
268.028	-19.45
268.245	14.66
268.462	-16.1
268.679	-41.77
268.896	0.12
269.112	11.22
269.329	5.98
269.546	9.55
269.763	-0.83
269.979	-10.8
270.196	-16.42
270.413	-43.4
270.629	-66.57
270.846	-74.3
271.063	-68.97
271.279	-85.27
271.496	-74.06
271.712	-27.84
271.929	4.58
272.146	-10.2
272.362	1.55
272.579	32.36
272.795	37.88
273.012	25.27
273.228	19.85
273.445	-6.91
273.661	-30.36
273.878	-75.85
274.094	-61.02
274.311	-77.48
274.527	6.3
274.744	9.45
274.96	13.86
275.177	33.46
275.393	37.64
275.609	29.01
275.826	41.87
276.042	36.78
276.259	15.24
276.475	30.63
276.691	29.42
276.908	7.76
277.124	18.83
277.34	17.35
277.557	9.85
277.773	-9.69
277.989	-1.41
278.205	2.08
278.422	22.5
278.638	24.67
278.854	50.14
279.07	45.38
279.286	21.42
279.503	-12.23
279.719	-39.88
279.935	-66.2
280.151	-98.45
280.367	-59.94
280.583	-89.91
280.799	-58.17
281.016	-77.64
281.232	-24.43
281.448	-19.56
281.664	7.16
281.88	-21.51
282.096	2.39
282.312	22.06
282.528	32.21
282.744	33.71
282.96	41.33
283.176	25.08
283.392	9.09
283.608	-8.48
283.824	-14.99
284.04	1.58
284.256	14.34
284.471	11.89
284.687	12.67
284.903	44.28
285.119	61.42
285.335	27.2
285.551	38.71
285.767	20.56
285.982	8.24
286.198	-53.9
286.414	5.59
286.63	1.94
286.846	37.12
287.061	9.94
287.277	49.92
287.493	32.44
287.709	39.63
287.924	7.13
288.14	47.6
288.356	36.12
288.571	40.55
288.787	28.26
289.003	36.81
289.218	15.34
289.434	-21.15
289.65	-2.41
289.865	-5.98
290.081	8.63
290.296	11.31
290.512	20.43
290.727	-29.71
290.943	-37.04
291.159	-46.45
291.374	-62.33
291.59	-81.61
291.805	-55.78
292.021	-38.72
292.236	-35.64
292.451	-17.95
292.667	-1.18
292.882	7.91
293.098	3.69
293.313	-21.67
293.529	-28.54
293.744	-43.3
293.959	-57.84
294.175	-43.76
294.39	7.38
294.605	25.24
294.821	38.58
295.036	55.01
295.251	54.52
295.467	17.12
295.682	8.29
295.897	-51.12
296.112	-68.63
296.328	-61.03
296.543	-72.99
296.758	-83.52
296.973	-7.49
297.188	24.86
297.404	3.78
297.619	4.45
297.834	9.51
298.049	-15.32
298.264	-45.77
298.479	-1.86
298.694	6.73
298.909	19.63
299.125	28.4
299.34	37.25
299.555	7.48
299.77	1.87
299.985	-40.19
300.2	-93.8
300.415	-104.64
300.63	-63.05
300.845	-62.55
301.06	-61.19
301.275	-30.78
301.49	-22.76
301.704	-30.38
301.919	-45.54
302.134	-45.41
302.349	-34.65
302.564	-97.56
302.779	-136.55
302.994	-116.3
303.209	-92.86
303.423	-78.83
303.638	11.71
303.853	-2.38
304.068	4.76
304.283	7.88
304.497	-2.09
304.712	-18.71
304.927	-9.22
305.142	-24.4
305.356	-13.06
305.571	-7.99
305.786	-12.19
306	-27.6
306.215	-17.83
306.43	-54.22
306.644	-64.07
306.859	-32.65
307.074	-16.39
307.288	-43.5
307.503	-36.6
307.717	-35.38
307.932	-42.81
308.147	-37.56
308.361	-13.06
308.576	-31.92
308.79	-73.45
309.005	-47.12
309.219	-36.01
309.434	-37.29
309.648	-33.72
309.863	-1.78
310.077	-2.17
310.292	-22.42
310.506	-16.99
310.72	2.89
310.935	10.06
311.149	4.61
311.364	28.69
311.578	23.2
311.792	5.2
312.007	0.89
312.221	-19.24
312.435	-9.47
312.649	-17.99
312.864	17.15
313.078	35.17
313.292	106.05
313.507	62.98
313.721	101.22
313.935	49.78
314.149	35.97
314.363	12.18
314.578	21.75
314.792	25.8
315.006	4.41
315.22	22.62
315.434	34.06
315.648	28.96
315.862	31.27
316.077	28.49
316.291	-7.22
316.505	-14.86
316.719	-32.94
316.933	-64.14
317.147	-38.98
317.361	-82.62
317.575	-100.91
317.789	-116.17
318.003	-170.57
318.217	-155.58
318.431	-47.73
318.645	8.27
318.859	-1.29
319.073	25.35
319.287	7.01
319.5	-19.74
319.714	-70.96
319.928	-91.26
320.142	-109.98
320.356	-36.92
320.57	-5.55
320.784	-24.97
320.997	-20.54
321.211	-36.92
321.425	-98.29
321.639	-129.86
321.853	-46.45
322.066	-29.8
322.28	-24.49
322.494	-13.63
322.707	13.91
322.921	-13.85
323.135	-12.79
323.349	-0.88
323.562	-19.76
323.776	-39.37
323.989	-31.59
324.203	-52.38
324.417	-68.67
324.63	-70.68
324.844	-60.11
325.057	-72.3
325.271	-40.59
325.485	-3.49
325.698	18.66
325.912	27.32
326.125	13.17
326.339	23.86
326.552	6.49
326.766	-7.69
326.979	3.23
327.193	42.07
327.406	17.08
327.619	6.36
327.833	26.96
328.046	-5.61
328.26	-46.75
328.473	-21.91
328.686	-50.11
328.9	-47.65
329.113	-9.27
329.326	-16.23
329.54	-16.56
329.753	-24.19
329.966	-49.13
330.179	-40.34
330.393	-0.26
330.606	-8.89
330.819	25.18
331.032	39.44
331.246	35.28
331.459	52.73
331.672	52.55
331.885	34.85
332.098	7.25
332.311	6.98
332.525	-59.39
332.738	-47.08
332.951	-3.12
333.164	26.1
333.377	31.07
333.59	48.72
333.803	58.72
334.016	40.06
334.229	42.93
334.442	38.99
334.655	58.09
334.868	55.82
335.081	44.45
335.294	22.09
335.507	15.37
335.72	-2.74
335.933	-23.28
336.146	-22.7
336.359	-6.27
336.572	-23.05
336.785	-51.57
336.997	-34.08
337.21	-19.18
337.423	-34.4
337.636	-37.16
337.849	0.28
338.062	-17.24
338.274	-13.55
338.487	-25.59
338.7	-28.05
338.913	-86.94
339.125	-92.81
339.338	-134.43
339.551	-105.56
339.763	-54.26
339.976	-23.97
340.189	-6.26
340.402	-1.77
340.614	-3.17
340.827	-18.27
341.039	-33.23
341.252	-44.1
341.465	-11.19
341.677	-9.2
341.89	-34.06
342.102	15.4
342.315	13.97
342.527	-28.17
342.74	-33.15
342.952	-1.81
343.165	-20.34
343.377	10.5
343.59	5.2
343.802	29.87
344.015	22.81
344.227	37.23
344.44	13.3
344.652	22.7
344.864	2.4
345.077	28.03
345.289	20.46
345.502	28.11
345.714	25.31
345.926	28.53
346.139	8.75
346.351	27.49
346.563	36.7
346.775	44.85
346.988	30.4
347.2	23.81
347.412	-15.56
347.624	-43.66
347.837	-71.53
348.049	-43.82
348.261	-15.86
348.473	-17.58
348.685	-33.61
348.897	-23.46
349.11	-35.87
349.322	-50.58
349.534	-32.9
349.746	-19.56
349.958	-32.32
350.17	-24.07
350.382	-7.5
350.594	-1.62
350.806	12.25
351.018	23.89
351.23	4.77
351.442	-37.73
351.654	-64.39
351.866	-54.17
352.078	-44.16
352.29	-17.6
352.502	10.72
352.714	26.73
352.926	6.76
353.138	-2.9
353.35	-7.1
353.561	-10.75
353.773	-35.69
353.985	-18.11
354.197	-27.4
354.409	-32.23
354.621	-37.24
354.832	-25.67
355.044	-35.46
355.256	-28.75
355.468	-14.16
355.679	-20.66
355.891	-14.96
356.103	-17.86
356.314	-2.02
356.526	-1.15
356.738	6.08
356.949	5.37
357.161	7.41
357.373	-2.63
357.584	-9.92
357.796	-0.18
358.008	-8.95
358.219	16.31
358.431	13.71
358.642	18.98
358.854	15.17
359.065	8.65
359.277	-44.89
359.488	-57.54
359.7	-90.2
359.911	-101.82
360.123	-68.05
360.334	-60.05
360.546	-74.41
360.757	-71.91
360.969	-54.61
361.18	-51.7
361.391	-32.65
361.603	-29.7
361.814	-4.83
362.025	-8.98
362.237	-12.16
362.448	-4.68
362.659	26.55
362.871	21.64
363.082	20.33
363.293	17.19
363.504	3.87
363.716	-33.57
363.927	-43.35
364.138	-69.98
364.349	-66.46
364.56	-59.29
364.772	-44.23
364.983	-23.45
365.194	-13.98
365.405	-7.11
365.616	13.32
365.827	13.44
366.038	-18.68
366.25	-7.7
366.461	-40.71
366.672	-19.35
366.883	0.85
367.094	22.12
367.305	-2.82
367.516	11.89
367.727	-20.85
367.938	-39.86
368.149	-39.98
368.36	-19.29
368.571	-20.83
368.781	-26.2
368.992	-37.17
369.203	-54.64
369.414	-75.58
369.625	-83.62
369.836	-75.41
370.047	-92.27
370.258	-67.64
370.468	-51.41
370.679	-65.17
370.89	-60.33
371.101	-30.21
371.312	-37.12
371.522	-45.02
371.733	-31.29
371.944	-19.6
372.155	-28.46
372.365	-33.3
372.576	-36.06
372.787	-47.3
372.997	-73.66
373.208	-63.41
373.419	-33.16
373.629	-48.86
373.84	-35.17
374.05	-29.73
374.261	-27.1
374.472	-51.91
374.682	-0.31
374.893	-2.08
375.103	27.03
375.314	29.41
375.524	33.84
375.735	24.37
375.945	32.95
376.156	3.89
376.366	5.58
376.577	-10.32
376.787	-17.23
376.997	-23.83
377.208	-21.06
377.418	-40.94
377.629	-17.9
377.839	-22.75
378.049	-13.71
378.26	5.66
378.47	26.56
378.68	13.53
378.89	16.48
379.101	7.36
379.311	-23.9
379.521	-64.55
379.732	-57.5
379.942	-46.34
380.152	-61.55
380.362	-24.62
380.572	-23.27
380.783	-10.42
380.993	-7.45
381.203	7.98
381.413	12.85
381.623	17.91
381.833	20.76
382.043	4.04
382.253	-3.16
382.463	-12.68
382.674	-19.12
382.884	-42.14
383.094	-38.45
383.304	-24.44
383.514	-14.01
383.724	4.77
383.934	1.04
384.144	-5.64
384.353	-18.05
384.563	-20.2
384.773	-24.22
384.983	-24.72
385.193	-2.15
385.403	1.9
385.613	-1.24
385.823	-6.71
386.033	-0.89
386.242	-8.97
386.452	-11.54
386.662	-17.63
386.872	-4.12
387.082	-6.39
387.291	-14.52
387.501	-6.87
387.711	-3.53
387.921	-15.74
388.13	-13.29
388.34	-2.16
388.55	-11.76
388.759	-11.19
388.969	-5.79
389.179	-8.18
389.388	-7.71
389.598	3.86
389.807	-1.65
390.017	-7.23
390.227	-4.99
390.436	-9.93
390.646	-13.73
390.855	-7.62
391.065	-5.8
391.274	-5.76
391.484	-4.64
391.693	-1.23
391.903	-0.42
392.112	6.43
392.322	7.64
392.531	10.74
392.74	11.96
392.95	7.67
393.159	5.59
393.369	5.25
393.578	3.51
393.787	2.16
393.997	4.89
394.206	2.47
394.415	3.84
394.625	2.73
394.834	0.25
395.043	0.68
395.252	3.67
395.462	4.46
395.671	6.95
395.88	7.73
396.089	8.54
396.298	5.49
396.508	5.34
396.717	4.78
396.926	4.9
397.135	3.51
397.344	4.46
397.553	3.83
397.762	4.94
397.971	5.41
398.181	6.17
398.39	5.56
398.599	5.69
398.808	5.61
399.017	6.55
399.226	7.57
399.435	8.67
399.644	9.03
399.853	7.93
400.062	6.82
400.27	6.21
400.479	5.67
400.688	4.82
400.897	5.04
401.106	5.58
401.315	5.46
401.524	5.58
401.733	6.49
401.941	7.07
402.15	6.89
402.359	6.65
402.568	7
402.777	7.05
402.985	6.7
403.194	6.63
403.403	6.75
403.612	6.12
403.82	5.65
404.029	5.88
404.238	5.64
404.446	5.99
404.655	6.02
404.864	6.18
405.072	5.78
405.281	6.17
405.489	5.73
405.698	5.89
405.906	5.78
406.115	6.01
406.324	5.78
406.532	5.96
406.741	6.14
406.949	6.18
407.158	6.11
407.366	6
407.574	5.84
407.783	5.64
407.991	5.39
408.2	5.35
408.408	5.4
408.617	5.38
408.825	5.34
409.033	5.55
409.242	5.72
409.45	5.96
409.658	5.8
409.867	5.92
410.075	5.73
410.283	5.46
410.491	5.23
410.7	5.23
410.908	5.22
411.116	5.55
411.324	5.57
411.533	5.46
411.741	5.74
411.949	5.64
412.157	5.3
412.365	5.42
412.573	5.51
412.781	5.54
412.99	5.42
413.198	5.56
413.406	5.49
413.614	5.48
413.822	5.18
414.03	5.18
414.238	4.9
414.446	4.98
414.654	4.76
414.862	4.93
415.07	4.97
415.278	5.26
415.486	4.99
415.694	5.29
415.902	5.14
416.109	4.96
416.317	4.86
416.525	4.72
416.733	4.49
416.941	4.61
417.149	4.63
417.357	4.63
417.564	4.87
417.772	5.1
417.98	4.88
418.188	4.89
418.395	4.96
418.603	4.95
418.811	4.57
419.019	4.55
419.226	4.75
419.434	4.73
419.642	4.48
419.849	4.6
420.057	4.65
420.265	4.6
420.472	4.28
420.68	4.35
420.887	4.21
421.095	4.27
421.302	4.2
421.51	4.52
421.717	4.76
421.925	4.96
422.132	4.88
422.34	4.64
422.547	4.72
422.755	4.49
422.962	4.35
423.17	4.34
423.377	4.51
423.585	4.45
423.792	4.38
423.999	4.46
424.207	4.46
424.414	4.61
424.621	4.45
424.829	4.51
425.036	4.48
425.243	4.42
425.451	4.18
425.658	4.05
425.865	4.22
426.072	4.17
426.28	4.49
426.487	4.51
426.694	4.57
426.901	4.39
427.108	4.4
427.315	4.23
427.523	4.54
427.73	4.51
427.937	4.5
428.144	4.39
428.351	4.29
428.558	4.34
428.765	4.39
428.972	4.4
429.179	4.62
429.386	4.91
429.593	4.65
429.8	4.43
430.007	4.49
430.214	4.5
430.421	4.24
430.628	4.09
430.835	4.12
431.042	4.35
431.249	4.41
431.456	4.43
431.662	4.64
431.869	4.89
432.076	4.83
432.283	4.92
432.49	4.93
432.697	4.91
432.903	4.72
433.11	4.55
433.317	4.65
433.524	4.91
433.73	4.91
433.937	5.12
434.144	5.15
434.35	5.03
434.557	4.81
434.764	4.82
434.97	4.69
435.177	4.89
435.384	4.73
435.59	4.88
435.797	5.1
436.003	5.16
436.21	5.1
436.416	5.19
436.623	5.14
436.829	5.16
437.036	5.28
437.242	5.33
437.449	5.39
437.655	5.45
437.862	5.47
438.068	5.36
438.275	5.43
438.481	5.53
438.687	5.53
438.894	5.48
439.1	5.63
439.307	5.9
439.513	5.87
439.719	5.86
439.926	5.92
440.132	5.79
440.338	5.49
440.544	5.57
440.751	5.54
440.957	5.57
441.163	5.54
441.369	5.61
441.575	5.46
441.782	5.49
441.988	5.4
442.194	5.54
442.4	5.58
442.606	5.88
442.812	5.93
443.018	6
443.224	6
443.431	6.13
443.637	5.92
443.843	5.82
444.049	5.77
444.255	5.73
444.461	5.72
444.667	5.7
444.873	5.97
445.079	5.98
445.284	6.09
445.49	5.89
445.696	5.8
445.902	5.62
446.108	5.58
446.314	5.52
446.52	5.56
446.726	5.77
446.931	5.78
447.137	5.84
447.343	5.88
447.549	5.9
447.755	5.77
447.96	5.74
448.166	5.71
448.372	5.65
448.578	5.7
448.783	5.79
448.989	6.02
449.195	6.26
449.4	6.28
449.606	6.22
449.812	6.13
450.017	6.05
450.223	5.87
450.428	5.76
450.634	5.91
450.84	6.15
451.045	6.13
451.251	6.03
451.456	6.37
451.662	6.31
451.867	6.16
452.073	6.1
452.278	6.32
452.483	6.27
452.689	6.27
452.894	6.4
453.1	6.51
453.305	6.39
453.51	6.28
453.716	6.21
453.921	6.12
454.127	5.97
454.332	5.86
454.537	5.81
454.742	5.87
454.948	5.93
455.153	6
455.358	6.11
455.563	6.36
455.769	6.49
455.974	6.39
456.179	6.27
456.384	6.28
456.589	6.15
456.795	5.9
457	5.87
457.205	6.17
457.41	6.12
457.615	6.07
457.82	6.18
458.025	6.3
458.23	6.12
458.435	6.18
458.64	6.09
458.845	6.27
459.05	6.22
459.255	6.23
459.46	6.27
459.665	6.35
459.87	6.22
460.075	6.2
460.28	6.2
460.485	6.3
460.69	6.33
460.895	6.17
