Data from Ofra_PS_T2_1A_4HS15_Reflection_3.txt Node
Date: Wed Jul 21 18:07:19 EDT 2021
User: Adam
Spectrometer: FLMT01687
Trigger mode: 0
Integration Time (sec): 1.100000E0
Scans to average: 2
Electric dark correction enabled: true
Nonlinearity correction enabled: false
Boxcar width: 2
XAxis mode: Wavelengths
Number of Pixels in Spectrum: 3648
>>>>>Begin Spectral Data<<<<<
179.494	631
179.716	704.94
179.937	620.92
180.158	583.94
180.38	769.84
180.601	262.85
180.823	48.02
181.044	-78.79
181.265	93.93
181.486	121.11
181.708	83.55
181.929	383.16
182.15	-471.48
182.372	89.61
182.593	63.15
182.814	15.19
183.035	48.74
183.257	60.7
183.478	-35.48
183.699	6.44
183.92	-22.02
184.141	-51.07
184.363	-112.77
184.584	-21.32
184.805	-7.88
185.026	34.67
185.247	64.01
185.468	44.96
185.689	27.61
185.91	32.64
186.132	25.21
186.353	9.29
186.574	73.35
186.795	72.26
187.016	28.74
187.237	14.7
187.458	-3.09
187.679	-35.36
187.9	-23.53
188.121	-11.56
188.342	35.03
188.563	71.65
188.784	134.26
189.005	127.82
189.226	164.82
189.447	141.09
189.667	80.7
189.888	-256.53
190.109	-886.69
190.33	-463.71
190.551	-1058.19
190.772	-160.23
190.993	-132.16
191.214	-166.1
191.434	-109.11
191.655	-9.05
191.876	-77.58
192.097	-114.12
192.318	-128.84
192.538	-188.78
192.759	-190.97
192.98	-116.41
193.201	-35.33
193.421	-21.96
193.642	-5.05
193.863	9.57
194.083	5.35
194.304	-15.46
194.525	-11.51
194.745	-28.79
194.966	-57.89
195.187	-52.54
195.407	-68.05
195.628	-130.1
195.848	-130.6
196.069	-116.58
196.29	-80.66
196.51	-114.99
196.731	-84.94
196.951	-111.66
197.172	-120.14
197.392	-133.59
197.613	-88.26
197.833	-118.67
198.054	-90.47
198.274	-36.05
198.495	-67.76
198.715	-31.05
198.936	-39.87
199.156	-35.39
199.377	-158.38
199.597	-147.48
199.817	-185.59
200.038	-107.11
200.258	-149.24
200.479	-41.66
200.699	6.05
200.919	75.55
201.14	28.55
201.36	1.52
201.58	25.2
201.801	33.05
202.021	4.26
202.241	16.93
202.461	23.41
202.682	-63.4
202.902	-93.98
203.122	-64.51
203.342	-58.49
203.563	-28.83
203.783	16.32
204.003	-11.97
204.223	-21.93
204.443	49.9
204.663	49.05
204.884	49.19
205.104	95.98
205.324	129.29
205.544	102.77
205.764	96.84
205.984	80.95
206.204	57.4
206.424	43.4
206.644	0.91
206.864	-4.91
207.084	-62.57
207.304	-22.83
207.525	-117.73
207.745	-41.98
207.964	12.76
208.184	-23.88
208.404	-73.13
208.624	-70.17
208.844	-62.99
209.064	-385.43
209.284	-378.17
209.504	-188.32
209.724	-51.54
209.944	-46.94
210.164	11.11
210.384	17.75
210.604	8.5
210.823	-25.24
211.043	-46.77
211.263	-46.48
211.483	-35.58
211.703	-79.96
211.922	-68.08
212.142	4.75
212.362	28.47
212.582	13.53
212.801	12.85
213.021	2.23
213.241	-20.97
213.461	-60.39
213.68	-80.3
213.9	-44.19
214.12	-28.71
214.339	-76.25
214.559	-50.9
214.779	3.65
214.998	-1.7
215.218	-39.68
215.438	0.61
215.657	-1.55
215.877	-33.99
216.096	-2.77
216.316	9.38
216.535	8.54
216.755	30.57
216.974	-8.53
217.194	-52.29
217.413	-67.11
217.633	-84.5
217.852	-258.3
218.072	-97.29
218.291	-61.09
218.511	-24.98
218.73	-35.18
218.95	-22.84
219.169	-26.26
219.389	-49.44
219.608	-40.5
219.827	-33.82
220.047	-4.5
220.266	1.05
220.485	-13.93
220.705	4.69
220.924	-11.53
221.143	10.37
221.363	-5.78
221.582	5.86
221.801	10.95
222.021	21.81
222.24	-28.74
222.459	33.78
222.678	28.1
222.897	-41.57
223.117	-96.89
223.336	-61.04
223.555	-61.57
223.774	-18.38
223.993	-10.56
224.213	66.22
224.432	35.31
224.651	45.42
224.87	7.13
225.089	24.66
225.308	5.86
225.527	26.38
225.746	31.83
225.965	48.5
226.184	26.35
226.404	28.01
226.623	-1.26
226.842	2.1
227.061	4.83
227.28	24.16
227.499	13.25
227.718	38.43
227.936	11.8
228.155	28.47
228.374	-7.56
228.593	6.33
228.812	-20.62
229.031	-8.48
229.25	-50.28
229.469	-41.7
229.688	-38.35
229.907	4.21
230.125	2.63
230.344	1.93
230.563	18.31
230.782	16.2
231.001	-67.57
231.22	-32.56
231.438	6.32
231.657	-5.94
231.876	-1.73
232.095	45.7
232.313	32.42
232.532	18.34
232.751	-4.52
232.969	-15.37
233.188	-79.92
233.407	-13.81
233.625	-12.81
233.844	-29.2
234.063	-21.58
234.281	-13.92
234.5	-34.62
234.719	-24.51
234.937	0.59
235.156	4.52
235.374	18.22
235.593	15.67
235.811	-6.41
236.03	-23.72
236.249	-52.5
236.467	-44.56
236.686	-4.13
236.904	15.61
237.123	8.91
237.341	4.46
237.559	13.95
237.778	0.43
237.996	-20.26
238.215	5.04
238.433	14.04
238.652	1.34
238.87	-14.35
239.088	14.76
239.307	12.38
239.525	19.51
239.743	-12.72
239.962	10.71
240.18	-30.58
240.398	-64.29
240.617	-63.87
240.835	-31.1
241.053	-11.32
241.271	47.16
241.49	54.7
241.708	40.85
241.926	-0.22
242.144	-12.54
242.363	-66.99
242.581	-65.1
242.799	-52.64
243.017	-19.37
243.235	-43.54
243.453	-28.27
243.672	-38.44
243.89	-22.81
244.108	-25.03
244.326	10.23
244.544	6.39
244.762	3.35
244.98	11.85
245.198	17.94
245.416	-32.29
245.634	-26.6
245.852	-43.34
246.07	-65.71
246.288	-52.22
246.506	-55.55
246.724	-41.95
246.942	-12.98
247.16	28.37
247.378	27
247.596	40.95
247.814	29.63
248.032	-1.03
248.25	-33.04
248.468	-15.57
248.685	-6.18
248.903	28.26
249.121	31.59
249.339	14.29
249.557	-9.49
249.775	0.93
249.992	-57.4
250.21	-49.46
250.428	-25.45
250.646	-43.48
250.863	-66.34
251.081	-29.5
251.299	-1.46
251.517	0.12
251.734	3.3
251.952	-7.38
252.17	-13.94
252.387	-5.73
252.605	-7.74
252.823	6.61
253.04	33.01
253.258	47.45
253.475	36.56
253.693	51.74
253.911	51.79
254.128	43.67
254.346	46.21
254.563	28.9
254.781	1.55
254.998	-25.84
255.216	-32.38
255.433	-37.13
255.651	5.71
255.868	27.94
256.086	57.05
256.303	49.56
256.521	36.64
256.738	4.11
256.956	-22.01
257.173	-49.83
257.39	-51.02
257.608	-77.48
257.825	-21.29
258.043	13.54
258.26	26.91
258.477	44.09
258.695	48.07
258.912	19.47
259.129	13.34
259.346	-34.27
259.564	-72.88
259.781	-94.78
259.998	-52.04
260.216	-17.58
260.433	35.44
260.65	42.17
260.867	65.9
261.084	31.53
261.302	-5.95
261.519	-36.43
261.736	-67.61
261.953	-85.35
262.17	-31.97
262.387	-71.42
262.604	-105.15
262.822	-100.26
263.039	-101.78
263.256	-156.95
263.473	-96.9
263.69	-35.2
263.907	7.63
264.124	18.56
264.341	13.25
264.558	6.76
264.775	14.81
264.992	1.1
265.209	7.68
265.426	32.27
265.643	36.03
265.86	37.65
266.077	39.55
266.294	25
266.51	-9.27
266.727	-20.21
266.944	-22.54
267.161	-19.76
267.378	-10.1
267.595	0.69
267.812	-21.4
268.028	-46.83
268.245	-25.24
268.462	-44.91
268.679	-18.09
268.896	37.74
269.112	43.25
269.329	29.45
269.546	43.28
269.763	29.36
269.979	12.52
270.196	10.3
270.413	-15.87
270.629	-32.85
270.846	-44.21
271.063	-40.11
271.279	-52.42
271.496	-25.36
271.712	11.52
271.929	30.27
272.146	11.02
272.362	28.2
272.579	53.76
272.795	53.41
273.012	52.94
273.228	67.11
273.445	54.96
273.661	27.18
273.878	-17.58
274.094	-22.4
274.311	-49.81
274.527	-0.5
274.744	-1.25
274.96	-4.29
275.177	8.32
275.393	30.55
275.609	17.41
275.826	30.88
276.042	25.77
276.259	2.04
276.475	11.73
276.691	28.27
276.908	12.73
277.124	33.87
277.34	53.59
277.557	24.48
277.773	2.28
277.989	0.75
278.205	-6.18
278.422	-1.43
278.638	17.95
278.854	35.37
279.07	39.09
279.286	25.24
279.503	14.42
279.719	8.06
279.935	-17.22
280.151	-24.61
280.367	9.72
280.583	-28.73
280.799	-23.31
281.016	-48.77
281.232	-18.93
281.448	-31.19
281.664	5.92
281.88	-24.74
282.096	-11.58
282.312	19.52
282.528	35.35
282.744	47.57
282.96	46.9
283.176	40.46
283.392	16.14
283.608	2.24
283.824	-8.11
284.04	2.43
284.256	16.89
284.471	4.05
284.687	-9.43
284.903	9.93
285.119	33.9
285.335	11.68
285.551	40.03
285.767	25.05
285.982	-3.56
286.198	-36.18
286.414	4.33
286.63	0.9
286.846	38.11
287.061	14.9
287.277	36.73
287.493	15.65
287.709	17.67
287.924	0.57
288.14	44.77
288.356	42.96
288.571	52.69
288.787	37.47
289.003	35.21
289.218	17.23
289.434	-12.03
289.65	14.55
289.865	21.89
290.081	36.28
290.296	35.09
290.512	22.01
290.727	-43.42
290.943	-53.5
291.159	-59.24
291.374	-57.38
291.59	-69.93
291.805	-50.29
292.021	-35.6
292.236	-35.52
292.451	-25.77
292.667	-10.43
292.882	18.55
293.098	3.83
293.313	-7.57
293.529	-34.2
293.744	-53.7
293.959	-52.78
294.175	-27.47
294.39	4.91
294.605	18.32
294.821	41.81
295.036	36.58
295.251	29.69
295.467	-9.11
295.682	-13.29
295.897	-69.62
296.112	-71.33
296.328	-59.21
296.543	-68.76
296.758	-71.39
296.973	-18.68
297.188	14.81
297.404	-12.77
297.619	-11.69
297.834	-13.83
298.049	-48.8
298.264	-73.54
298.479	-6.56
298.694	6.42
298.909	24.02
299.125	30.99
299.34	33
299.555	-5.53
299.77	17.69
299.985	-33.99
300.2	-63.99
300.415	-62.9
300.63	-30.38
300.845	-55.54
301.06	-51.7
301.275	-17.53
301.49	-13.72
301.704	-21.01
301.919	-27.73
302.134	-33.99
302.349	-38.78
302.564	-107.79
302.779	-153.15
302.994	-136.64
303.209	-67.83
303.423	-50.6
303.638	27.73
303.853	19.94
304.068	14.16
304.283	-0.76
304.497	-0.81
304.712	-13.67
304.927	-1.54
305.142	-6.96
305.356	7.96
305.571	-3.49
305.786	-14.22
306	-58.1
306.215	-56.71
306.43	-74.2
306.644	-64.14
306.859	-20.14
307.074	23.83
307.288	3.4
307.503	3.68
307.717	-14.92
307.932	-27.07
308.147	-25.16
308.361	-13.11
308.576	-15.12
308.79	-40.36
309.005	-40.28
309.219	-33.65
309.434	-26.33
309.648	-31.38
309.863	-11.58
310.077	-3.63
310.292	-1.73
310.506	-2.69
310.72	14.73
310.935	19.82
311.149	14.62
311.364	25.6
311.578	27.73
311.792	12.81
312.007	22.39
312.221	11.16
312.435	12.53
312.649	5.09
312.864	42.61
313.078	49.12
313.292	84.81
313.507	51.96
313.721	86.87
313.935	44.32
314.149	34.39
314.363	36.29
314.578	44.13
314.792	25.07
315.006	-3.97
315.22	17.96
315.434	12
315.648	15.52
315.862	18.48
316.077	30.56
316.291	-3.8
316.505	9.55
316.719	-0.51
316.933	-5.71
317.147	-10.49
317.361	-54.13
317.575	-74.28
317.789	-108.11
318.003	-187.1
318.217	-138.76
318.431	-28.38
318.645	12.49
318.859	19.7
319.073	57.48
319.287	42.29
319.5	14.91
319.714	-21.8
319.928	-43.45
320.142	-79.13
320.356	-30.05
320.57	0.37
320.784	-17.9
320.997	-19.61
321.211	-8.09
321.425	-51.28
321.639	-94.2
321.853	-45.25
322.066	-26.87
322.28	-30.6
322.494	-32.13
322.707	3.26
322.921	-1.15
323.135	3.84
323.349	16.03
323.562	-2.53
323.776	-24.91
323.989	-14.46
324.203	-32.02
324.417	-50.25
324.63	-56.11
324.844	-61.56
325.057	-61.46
325.271	-35.41
325.485	4.36
325.698	29.94
325.912	54.07
326.125	33.05
326.339	18.23
326.552	-6.07
326.766	-1.68
326.979	-3.98
327.193	34.12
327.406	26.9
327.619	21.47
327.833	39.12
328.046	5.62
328.26	-22.92
328.473	13.15
328.686	-18.89
328.9	-25.24
329.113	19.7
329.326	-5.86
329.54	-11.58
329.753	-1.6
329.966	-30.34
330.179	-37.15
330.393	-3.23
330.606	-1.49
330.819	22.84
331.032	33.6
331.246	22.86
331.459	47.66
331.672	30.66
331.885	19.96
332.098	-6.47
332.311	8.26
332.525	-48.45
332.738	3.37
332.951	18.62
333.164	52.38
333.377	49.46
333.59	61.82
333.803	49.86
334.016	37.19
334.229	22.61
334.442	28.45
334.655	29.6
334.868	38.1
335.081	44.4
335.294	29.68
335.507	15.72
335.72	9.2
335.933	-12.39
336.146	-36.83
336.359	-39.94
336.572	-65
336.785	-93.49
336.997	-88.51
337.21	-40.58
337.423	-35.49
337.636	-22.26
337.849	6.25
338.062	10.27
338.274	3.58
338.487	8.71
338.7	3.1
338.913	-35.95
339.125	-63.75
339.338	-111.87
339.551	-115.25
339.763	-65.2
339.976	-31.92
340.189	-14.3
340.402	-4.67
340.614	-13.93
340.827	-17.04
341.039	-36.86
341.252	-13.79
341.465	2.89
341.677	9.91
341.89	-19.21
342.102	8.41
342.315	-10.02
342.527	-48.29
342.74	-34.02
342.952	3.57
343.165	-2.63
343.377	11.54
343.59	15.36
343.802	21.05
344.015	10.16
344.227	12.89
344.44	5.56
344.652	13.47
344.864	12.47
345.077	37.62
345.289	39.2
345.502	47.27
345.714	42.18
345.926	39.31
346.139	18.17
346.351	33.54
346.563	38.63
346.775	51.23
346.988	43.78
347.2	45.27
347.412	-7.39
347.624	-28.77
347.837	-55.35
348.049	-39.36
348.261	-9.55
348.473	20.2
348.685	17.63
348.897	17.36
349.11	6.07
349.322	-13.28
349.534	-22.4
349.746	-26.62
349.958	-33.71
350.17	-22.75
350.382	2.67
350.594	-1.84
350.806	18.19
351.018	33.77
351.23	18.64
351.442	-35.36
351.654	-36.21
351.866	-45.89
352.078	-52.8
352.29	-26.88
352.502	-8.08
352.714	8.64
352.926	-2.26
353.138	-3.06
353.35	-10.66
353.561	-7.74
353.773	-29.63
353.985	-12.47
354.197	-19.27
354.409	-19.81
354.621	-21.71
354.832	-14.12
355.044	-17.92
355.256	-14.29
355.468	3.49
355.679	-0.07
355.891	3.54
356.103	-12.54
356.314	1.73
356.526	3.88
356.738	19.4
356.949	20.18
357.161	39.53
357.373	21.66
357.584	9.77
357.796	13.19
358.008	4.84
358.219	15.87
358.431	17.58
358.642	20.72
358.854	19.5
359.065	15.74
359.277	-34.36
359.488	-39.48
359.7	-65.42
359.911	-88.11
360.123	-53.46
360.334	-53.88
360.546	-66.56
360.757	-55.03
360.969	-34.25
361.18	-24.98
361.391	7.02
361.603	3.31
361.814	23.94
362.025	18.26
362.237	4.67
362.448	15.46
362.659	24.35
362.871	18.17
363.082	14.88
363.293	3.17
363.504	-15.02
363.716	-40.88
363.927	-57.41
364.138	-73.11
364.349	-68.9
364.56	-65.52
364.772	-51.22
364.983	-26.09
365.194	-19.93
365.405	0.72
365.616	28.67
365.827	36.94
366.038	19.17
366.25	27.07
366.461	7.64
366.672	14.93
366.883	23.73
367.094	36.47
367.305	21.34
367.516	21.12
367.727	-0.9
367.938	-16.51
368.149	-34.27
368.36	-29.76
368.571	-21.64
368.781	-37.35
368.992	-48.65
369.203	-56.5
369.414	-65.99
369.625	-89.23
369.836	-85.79
370.047	-109.15
370.258	-85.91
370.468	-76.61
370.679	-78.53
370.89	-68.73
371.101	-31.88
371.312	-39
371.522	-28.1
371.733	-11.32
371.944	9.43
372.155	4.19
372.365	-0.08
372.576	0.45
372.787	-12.64
372.997	-48.65
373.208	-35.9
373.419	-6.14
373.629	-36.93
373.84	-25.27
374.05	-19.26
374.261	-17.68
374.472	-42.41
374.682	4.09
374.893	15.14
375.103	40.22
375.314	32.96
375.524	36.53
375.735	35.29
375.945	25.27
376.156	1.36
376.366	2.57
376.577	0.39
376.787	-10.99
376.997	-2.34
377.208	-1.11
377.418	-16.56
377.629	-8.11
377.839	-14.63
378.049	-13.22
378.26	2.88
378.47	17.03
378.68	15.62
378.89	14.06
379.101	12.48
379.311	-18.96
379.521	-43.51
379.732	-48.22
379.942	-39.76
380.152	-53.94
380.362	-17.29
380.572	-17.63
380.783	-7.5
380.993	-3.16
381.203	5.55
381.413	10.69
381.623	22.88
381.833	17.72
382.043	12.16
382.253	0.57
382.463	0.13
382.674	-7.19
382.884	-29.03
383.094	-24.84
383.304	-17.85
383.514	-19.21
383.724	-5.28
383.934	-3.49
384.144	-13.74
384.353	-14.98
384.563	-15.72
384.773	-15.96
384.983	-17.74
385.193	-0.7
385.403	1.11
385.613	-0.65
385.823	-19.3
386.033	-8.74
386.242	-13.07
386.452	-16.11
386.662	-25.72
386.872	-5.3
387.082	-8.55
387.291	-18.62
387.501	-15.11
387.711	-1.87
387.921	-11.81
388.13	-11.93
388.34	2.39
388.55	-1.97
388.759	-4.03
388.969	4.48
389.179	3.14
389.388	-0.54
389.598	4.04
389.807	-1.38
390.017	-8.79
390.227	-5.34
390.436	-6.41
390.646	-8.44
390.855	-4.59
391.065	-4.21
391.274	-5.87
391.484	-7.35
391.693	-1.89
391.903	0.64
392.112	5.94
392.322	8.17
392.531	13.38
392.74	12.97
392.95	7.16
393.159	5.49
393.369	5.11
393.578	3.89
393.787	1.65
393.997	4.36
394.206	2.59
394.415	2.07
394.625	0.17
394.834	0.35
395.043	2.18
395.252	4.09
395.462	6.32
395.671	8.45
395.88	8.34
396.089	8.45
396.298	7.45
396.508	6.34
396.717	5.35
396.926	6.11
397.135	5.06
397.344	4.79
397.553	5.42
397.762	6.79
397.971	6.62
398.181	6.72
398.39	6.5
398.599	6.01
398.808	5.05
399.017	5.82
399.226	6.88
399.435	7.86
399.644	8.15
399.853	7.8
400.062	6.8
400.27	6.46
400.479	5.88
400.688	5.24
400.897	5.49
401.106	5.9
401.315	5.54
401.524	5.68
401.733	6.18
401.941	6.72
402.15	6.42
402.359	6.29
402.568	6.7
402.777	6.69
402.985	6.31
403.194	6.27
403.403	6.42
403.612	5.83
403.82	5.7
404.029	5.81
404.238	5.68
404.446	5.86
404.655	5.79
404.864	5.78
405.072	5.53
405.281	5.85
405.489	5.61
405.698	5.64
405.906	5.64
406.115	5.65
406.324	5.57
406.532	5.75
406.741	6.06
406.949	6.02
407.158	5.99
407.366	5.84
407.574	5.71
407.783	5.6
407.991	5.41
408.2	5.55
408.408	5.59
408.617	5.46
408.825	5.25
409.033	5.39
409.242	5.44
409.45	5.39
409.658	5.47
409.867	5.63
410.075	5.55
410.283	5.29
410.491	5.24
410.7	5.21
410.908	5.22
411.116	5.58
411.324	5.65
411.533	5.7
411.741	5.82
411.949	5.74
412.157	5.29
412.365	5.4
412.573	5.44
412.781	5.44
412.99	5.34
413.198	5.55
413.406	5.5
413.614	5.57
413.822	5.3
414.03	5.37
414.238	5.17
414.446	5.13
414.654	4.69
414.862	4.88
415.07	4.92
415.278	5.04
415.486	4.98
415.694	5.24
415.902	5.07
416.109	4.8
416.317	4.73
416.525	4.47
416.733	4.46
416.941	4.69
417.149	4.7
417.357	4.75
417.564	5.05
417.772	5.25
417.98	4.95
418.188	5.12
418.395	5.2
418.603	5.37
418.811	4.86
419.019	4.87
419.226	4.99
419.434	4.99
419.642	4.7
419.849	5
420.057	4.98
420.265	4.79
420.472	4.46
420.68	4.58
420.887	4.43
421.095	4.55
421.302	4.61
421.51	4.9
421.717	4.95
421.925	5.03
422.132	4.97
422.34	4.72
422.547	4.7
422.755	4.46
422.962	4.39
423.17	4.31
423.377	4.48
423.585	4.5
423.792	4.4
423.999	4.5
424.207	4.53
424.414	4.65
424.621	4.6
424.829	4.6
425.036	4.58
425.243	4.64
425.451	4.46
425.658	4.21
425.865	4.49
426.072	4.54
426.28	4.77
426.487	4.75
426.694	5
426.901	4.81
427.108	4.71
427.315	4.59
427.523	4.87
427.73	4.77
427.937	4.72
428.144	4.64
428.351	4.49
428.558	4.53
428.765	4.47
428.972	4.46
429.179	4.59
429.386	5.03
429.593	4.77
429.8	4.71
430.007	4.81
430.214	4.89
430.421	4.6
430.628	4.44
430.835	4.53
431.042	4.81
431.249	4.86
431.456	4.76
431.662	4.97
431.869	5.12
432.076	5.01
432.283	5.14
432.49	5.29
432.697	5.34
432.903	5.12
433.11	5.19
433.317	5.17
433.524	5.31
433.73	5.19
433.937	5.43
434.144	5.32
434.35	5.32
434.557	5.13
434.764	5.21
434.97	5.09
435.177	5.23
435.384	5.12
435.59	5.26
435.797	5.45
436.003	5.62
436.21	5.5
436.416	5.59
436.623	5.41
436.829	5.33
437.036	5.36
437.242	5.44
437.449	5.44
437.655	5.57
437.862	5.6
438.068	5.54
438.275	5.56
438.481	5.86
438.687	5.84
438.894	5.89
439.1	5.9
439.307	6.06
439.513	5.87
439.719	5.82
439.926	5.84
440.132	5.9
440.338	5.68
440.544	5.76
440.751	5.81
440.957	5.89
441.163	5.81
441.369	6.01
441.575	5.85
441.782	5.84
441.988	5.6
442.194	5.64
442.4	5.6
442.606	5.91
442.812	6.03
443.018	6.16
443.224	6.19
443.431	6.18
443.637	5.89
443.843	5.79
444.049	5.81
444.255	5.78
444.461	5.87
444.667	5.81
444.873	5.91
445.079	5.87
445.284	6.02
445.49	5.79
445.696	5.75
445.902	5.71
446.108	5.72
446.314	5.54
446.52	5.74
446.726	5.99
446.931	6
447.137	6.15
447.343	6.2
447.549	6.09
447.755	6
447.96	6.02
448.166	5.86
448.372	5.88
448.578	5.97
448.783	5.89
448.989	5.97
449.195	6.3
449.4	6.41
449.606	6.4
449.812	6.45
450.017	6.44
450.223	6.22
450.428	6.08
450.634	6.15
450.84	6.29
451.045	6.27
451.251	6.21
451.456	6.53
451.662	6.52
451.867	6.54
452.073	6.56
452.278	6.73
452.483	6.67
452.689	6.57
452.894	6.57
453.1	6.48
453.305	6.43
453.51	6.36
453.716	6.43
453.921	6.38
454.127	6.41
454.332	6.39
454.537	6.35
454.742	6.37
454.948	6.51
455.153	6.58
455.358	6.69
455.563	6.86
455.769	6.99
455.974	6.87
456.179	6.84
456.384	6.76
456.589	6.62
456.795	6.42
457	6.41
457.205	6.6
457.41	6.56
457.615	6.62
457.82	6.77
458.025	6.78
458.23	6.68
458.435	6.77
458.64	6.76
458.845	6.92
459.05	6.95
459.255	6.91
459.46	6.93
459.665	6.98
459.87	6.89
460.075	6.91
460.28	6.99
460.485	7.03
460.69	7.01
460.895	6.83
461.099	6.82
461.304	6.93
461.509	6.94
461.714	6.89
461.919	7.05
462.123	6.9
462.328	6.99
462.533	6.9
