Data from Ofra_1a_PS_OGT14_Reflection_3.txt Node
Date: Tue Jul 20 10:41:42 EDT 2021
User: Adam
Spectrometer: FLMT01687
Trigger mode: 0
Integration Time (sec): 1.004000E0
Scans to average: 2
Electric dark correction enabled: true
Nonlinearity correction enabled: false
Boxcar width: 2
XAxis mode: Wavelengths
Number of Pixels in Spectrum: 3648
>>>>>Begin Spectral Data<<<<<
179.494	-178.68
179.716	-188.55
179.937	568.56
180.158	-563.06
180.38	145.68
180.601	33.61
180.823	85.74
181.044	53.06
181.265	190.93
181.486	74.41
181.708	-41.04
181.929	4872.73
182.15	-40.06
182.372	-303.45
182.593	-51.25
182.814	14.94
183.035	52.68
183.257	38.69
183.478	-20.85
183.699	-62.24
183.92	-106.7
184.141	-150.72
184.363	-136.28
184.584	-110.66
184.805	-10.96
185.026	31.46
185.247	33.76
185.468	36.03
185.689	16.54
185.91	-40.5
186.132	-53.98
186.353	-35.5
186.574	-31.87
186.795	-18.25
187.016	20.03
187.237	15.06
187.458	13.26
187.679	1.37
187.9	-0.91
188.121	-11.11
188.342	35.98
188.563	41.48
188.784	63.31
189.005	48.22
189.226	39.71
189.447	9.25
189.667	-10.01
189.888	-36.46
190.109	-76.78
190.33	-72.14
190.551	-60.51
190.772	-34.36
190.993	-40.75
191.214	-8.06
191.434	-28.9
191.655	-30.34
191.876	-18.23
192.097	18.3
192.318	21.14
192.538	2.38
192.759	-7.83
192.98	-0.94
193.201	-4.6
193.421	-5.7
193.642	4.64
193.863	15.49
194.083	0.56
194.304	0.36
194.525	-18.14
194.745	-11.99
194.966	3.87
195.187	20.71
195.407	6.14
195.628	25.82
195.848	27.26
196.069	-8.96
196.29	-47.94
196.51	-43.84
196.731	-64.2
196.951	-102.36
197.172	-53.11
197.392	-36.5
197.613	-9.56
197.833	-27.75
198.054	-12.87
198.274	-25.41
198.495	-39.57
198.715	-75.22
198.936	-26.38
199.156	-19.52
199.377	-24.63
199.597	-4.9
199.817	13.45
200.038	-21.61
200.258	8.82
200.479	13.8
200.699	-2.03
200.919	-6.72
201.14	-1.65
201.36	-18.61
201.58	-54.28
201.801	-27.47
202.021	-48.6
202.241	-59.3
202.461	-49.02
202.682	-14.94
202.902	-13.55
203.122	-12.53
203.342	-1.21
203.563	-6
203.783	-16.29
204.003	-19.27
204.223	5.55
204.443	-0.64
204.663	-33.1
204.884	-14.84
205.104	-39.1
205.324	-54.2
205.544	-75.33
205.764	-11.67
205.984	-13.54
206.204	-22.94
206.424	-43.31
206.644	-42.31
206.864	-93.17
207.084	-60.13
207.304	-72.01
207.525	-42.59
207.745	-12.99
207.964	2.11
208.184	10.49
208.404	21.07
208.624	23.96
208.844	-9.89
209.064	-12.8
209.284	-11.49
209.504	-36.53
209.724	-43.47
209.944	0.52
210.164	0.68
210.384	-3.37
210.604	-4.95
210.823	-8.4
211.043	-14.69
211.263	-90.25
211.483	-86.23
211.703	-44.15
211.922	-58.54
212.142	-84.54
212.362	-33.98
212.582	-21.36
212.801	-43.47
213.021	-43.3
213.241	-27.32
213.461	-26.55
213.68	-2.22
213.9	-0.28
214.12	-8.91
214.339	-13.69
214.559	-7.35
214.779	-33.08
214.998	-27.41
215.218	1.35
215.438	6.73
215.657	-14.58
215.877	-19.48
216.096	1.06
216.316	-5.38
216.535	-14.67
216.755	2.39
216.974	-1.44
217.194	-18.68
217.413	-20.31
217.633	-27.31
217.852	-25.82
218.072	-9.61
218.291	-10.17
218.511	-15.7
218.73	-23.43
218.95	-50.18
219.169	-65.56
219.389	-50.16
219.608	-68.48
219.827	-51.8
220.047	-34.46
220.266	-64.52
220.485	-89.75
220.705	-43.73
220.924	-31.58
221.143	-6.46
221.363	27.42
221.582	14.69
221.801	10.78
222.021	19.12
222.24	13.85
222.459	21.32
222.678	34.44
222.897	21.11
223.117	16.5
223.336	29.74
223.555	16.51
223.774	32.51
223.993	53.93
224.213	56.9
224.432	36.63
224.651	21.3
224.87	23.86
225.089	22.77
225.308	26.41
225.527	4.76
225.746	2.87
225.965	-7.91
226.184	-28.62
226.404	-48.59
226.623	-23.57
226.842	-18.09
227.061	-31.1
227.28	-2.65
227.499	6.52
227.718	-0.92
227.936	2.16
228.155	16.88
228.374	1.79
228.593	5.77
228.812	18.63
229.031	31.34
229.25	21.44
229.469	14.58
229.688	17.83
229.907	22.49
230.125	10.4
230.344	16.92
230.563	25.28
230.782	19.19
231.001	6.09
231.22	9.58
231.438	-3.16
231.657	1.05
231.876	-3.06
232.095	11.43
232.313	-4.91
232.532	1.24
232.751	-10.13
232.969	6.69
233.188	-20.67
233.407	-5.14
233.625	-8.52
233.844	2.91
234.063	1.06
234.281	6.78
234.5	1.28
234.719	-10.95
234.937	-27.26
235.156	-24
235.374	-13.8
235.593	4.96
235.811	27.08
236.03	23.38
236.249	18.14
236.467	17.69
236.686	11.13
236.904	11.4
237.123	7.1
237.341	9.95
237.559	0.08
237.778	12.62
237.996	-34.59
238.215	-68.93
238.433	-118.66
238.652	-49.49
238.87	-73.6
239.088	-50.94
239.307	-19.73
239.525	-7.04
239.743	-11.36
239.962	-26.95
240.18	-9.41
240.398	-19.89
240.617	-42.54
240.835	-58.8
241.053	-31
241.271	-24
241.49	-7.41
241.708	-7.83
241.926	-10.57
242.144	-5.7
242.363	-44.28
242.581	-104.01
242.799	-79.66
243.017	-35.85
243.235	-34.99
243.453	-39.46
243.672	-7.05
243.89	-4.47
244.108	-2.89
244.326	22.5
244.544	40.79
244.762	25.74
244.98	22.71
245.198	25.25
245.416	11.18
245.634	-8.59
245.852	-19.97
246.07	-9.39
246.288	-17.87
246.506	-28.38
246.724	-35.3
246.942	-17.15
247.16	-29
247.378	-70.26
247.596	-21.78
247.814	-23.72
248.032	-28.6
248.25	30.26
248.468	41.6
248.685	27.11
248.903	22.95
249.121	20.22
249.339	10.89
249.557	8.72
249.775	6.85
249.992	9.48
250.21	4.63
250.428	7.79
250.646	5.86
250.863	-8.22
251.081	4.93
251.299	5.39
251.517	-3
251.734	-4.83
251.952	-3.69
252.17	-19.41
252.387	-33.33
252.605	-26.27
252.823	-48.08
253.04	-6.1
253.258	-6.73
253.475	1.88
253.693	-9.54
253.911	-6.32
254.128	-24.94
254.346	-13.64
254.563	6.07
254.781	9.3
254.998	5.31
255.216	-35.58
255.433	-37.76
255.651	-26.98
255.868	-39.75
256.086	-29.6
256.303	1.22
256.521	16.19
256.738	-10.3
256.956	-3.9
257.173	-16.66
257.39	-11.27
257.608	-23.85
257.825	-17.93
258.043	-11.31
258.26	0.18
258.477	-4.41
258.695	-8.19
258.912	-19.04
259.129	-43.14
259.346	-53.61
259.564	-44.62
259.781	-64.83
259.998	-19.92
260.216	12.47
260.433	7.92
260.65	-4.01
260.867	-4.79
261.084	-6.13
261.302	-25.67
261.519	-16.07
261.736	-11.84
261.953	7.88
262.17	12.24
262.387	19.14
262.604	29.72
262.822	37.05
263.039	39.74
263.256	28.71
263.473	31.14
263.69	27.82
263.907	23.9
264.124	23.75
264.341	31.44
264.558	3.69
264.775	-2.45
264.992	-3.46
265.209	-26.7
265.426	-53.34
265.643	-18.03
265.86	-67.47
266.077	-49.37
266.294	-18.64
266.51	21.62
266.727	22.24
266.944	32.26
267.161	24.26
267.378	30.91
267.595	2.92
267.812	-11.87
268.028	-19.93
268.245	-18.77
268.462	-21.93
268.679	-8.05
268.896	2.35
269.112	3.68
269.329	-23.21
269.546	-18.9
269.763	-15.06
269.979	-17.38
270.196	-15.51
270.413	-4.31
270.629	-14.14
270.846	-17.9
271.063	-24
271.279	-20.08
271.496	-16.08
271.712	1.9
271.929	11.29
272.146	29.29
272.362	29.84
272.579	17.85
272.795	-5.54
273.012	-12.45
273.228	-12.3
273.445	-18.48
273.661	-31.93
273.878	-27.61
274.094	-32.03
274.311	-36.54
274.527	-61
274.744	-25.49
274.96	-14.56
275.177	-7.93
275.393	9.44
275.609	29.69
275.826	19.53
276.042	15.43
276.259	25.51
276.475	13.43
276.691	8.62
276.908	27.68
277.124	52.92
277.34	33.68
277.557	25.06
277.773	31.2
277.989	13.7
278.205	-1.45
278.422	-3.6
278.638	-4.11
278.854	-3.11
279.07	0.51
279.286	-4.38
279.503	9.74
279.719	20.68
279.935	6.47
280.151	-19.48
280.367	-9.57
280.583	-26.09
280.799	-31.76
281.016	-60.36
281.232	-16.12
281.448	-38.17
281.664	-14.37
281.88	-18.53
282.096	5.58
282.312	9.35
282.528	13.83
282.744	-5.58
282.96	-6.88
283.176	-39.49
283.392	-86.89
283.608	-65.41
283.824	-63.17
284.04	-109.38
284.256	-37.5
284.471	-23.08
284.687	-24.78
284.903	-17.61
285.119	2.58
285.335	0.57
285.551	-6.76
285.767	-31.96
285.982	-43.04
286.198	-74.25
286.414	-82.16
286.63	-63.27
286.846	-29.37
287.061	14.79
287.277	26.71
287.493	39.33
287.709	29.73
287.924	27.24
288.14	6.95
288.356	20.3
288.571	-3.63
288.787	-14.98
289.003	-4.09
289.218	-22.24
289.434	-33.46
289.65	-11.47
289.865	-6.63
290.081	-13.12
290.296	-0.2
290.512	-11.14
290.727	-24.16
290.943	-18.37
291.159	-16.33
291.374	-44.68
291.59	-22.77
291.805	-29.05
292.021	-34.93
292.236	-45.3
292.451	-21.57
292.667	-35.85
292.882	-20.26
293.098	-16.73
293.313	-17.25
293.529	-11.32
293.744	-22.52
293.959	-20.26
294.175	-18.07
294.39	-3.99
294.605	4.53
294.821	21.13
295.036	27
295.251	31.55
295.467	23.06
295.682	16.32
295.897	4.27
296.112	-5.12
296.328	-5.57
296.543	-21.91
296.758	-29.77
296.973	-16.55
297.188	-30.11
297.404	-71.4
297.619	-77.36
297.834	-88.97
298.049	-81.81
298.264	-53.6
298.479	-42.98
298.694	2.74
298.909	9.84
299.125	-0.98
299.34	-1.44
299.555	-2.63
299.77	7.71
299.985	11.3
300.2	20.98
300.415	15.39
300.63	7.93
300.845	-7.47
301.06	-20.89
301.275	-21.11
301.49	-11.27
301.704	6.96
301.919	4.97
302.134	14.85
302.349	0.67
302.564	-0.11
302.779	-16.12
302.994	-13.63
303.209	-18.15
303.423	-30.33
303.638	-42.11
303.853	-59.07
304.068	-68.32
304.283	-46.81
304.497	-45.54
304.712	-28.27
304.927	-4.81
305.142	1.38
305.356	1.16
305.571	13.1
305.786	13.99
306	15.85
306.215	11.39
306.43	2.79
306.644	-21.48
306.859	-38.1
307.074	-5.43
307.288	12.35
307.503	6.41
307.717	15.9
307.932	29.34
308.147	12.41
308.361	-3.18
308.576	-1.86
308.79	8.32
309.005	-4.75
309.219	-7.41
309.434	2.15
309.648	3.07
309.863	-7.98
310.077	-10.16
310.292	3.62
310.506	-19.61
310.72	-27.94
310.935	5.33
311.149	16.05
311.364	18.85
311.578	33.04
311.792	39.39
312.007	3.7
312.221	-19.4
312.435	-32.11
312.649	-18.4
312.864	-9.65
313.078	-7.15
313.292	-8.19
313.507	-10.42
313.721	-12.18
313.935	-20.71
314.149	-19.26
314.363	-24.18
314.578	-13.32
314.792	-53.83
315.006	-42.94
315.22	-19.74
315.434	-4.3
315.648	-18.64
315.862	-11.47
316.077	-18.66
316.291	-26.35
316.505	-54.4
316.719	-25.45
316.933	-17.44
317.147	-18.22
317.361	-24.98
317.575	-19.82
317.789	-24.07
318.003	-30.52
318.217	-21.39
318.431	-32.56
318.645	-23.99
318.859	-14.71
319.073	7.56
319.287	1.83
319.5	10.31
319.714	12.05
319.928	8.7
320.142	-4.99
320.356	-3
320.57	-23.97
320.784	-25.94
320.997	-47.81
321.211	-26.81
321.425	-46.9
321.639	-7.66
321.853	4.85
322.066	4.9
322.28	-7.58
322.494	4
322.707	-2.59
322.921	-8.11
323.135	-0.92
323.349	-2.94
323.562	-3.2
323.776	-1.21
323.989	1.39
324.203	-9.69
324.417	3.52
324.63	3.16
324.844	-11.93
325.057	-22.24
325.271	-0.53
325.485	-15.02
325.698	-7.27
325.912	5.68
326.125	-5.56
326.339	-8.78
326.552	-12.58
326.766	-28.04
326.979	-31.98
327.193	-17.42
327.406	-23
327.619	0.71
327.833	-2.59
328.046	5.72
328.26	1.73
328.473	4.53
328.686	-1.44
328.9	7.45
329.113	-12.32
329.326	-5.72
329.54	-0.93
329.753	4.58
329.966	7.4
330.179	12.31
330.393	4.85
330.606	-0.22
330.819	-21.89
331.032	-20.28
331.246	0.56
331.459	26.9
331.672	25.31
331.885	41.29
332.098	44.17
332.311	14.32
332.525	-11.43
332.738	5.89
332.951	-2.49
333.164	-5.46
333.377	0.31
333.59	3.59
333.803	-6.72
334.016	5.18
334.229	0.67
334.442	10.3
334.655	14.51
334.868	10.21
335.081	-1.64
335.294	0.99
335.507	-1.47
335.72	-10.57
335.933	-26.56
336.146	-20.08
336.359	-1.04
336.572	-3.48
336.785	-7.29
336.997	8.91
337.21	8.37
337.423	-42.13
337.636	-29.03
337.849	-17.94
338.062	-11.42
338.274	-11.22
338.487	-14.6
338.7	-25.87
338.913	-12.12
339.125	-18.29
339.338	-16.45
339.551	6.28
339.763	9.04
339.976	5.63
340.189	-5.19
340.402	-2.09
340.614	-4.49
340.827	-0.79
341.039	-10.61
341.252	6.33
341.465	-10.46
341.677	-11
341.89	-18.99
342.102	-11.2
342.315	-12.48
342.527	-7.7
342.74	-24.45
342.952	-12.92
343.165	-17.82
343.377	-7.65
343.59	10.66
343.802	25.92
344.015	16.03
344.227	21.93
344.44	4.6
344.652	-8.24
344.864	-5.03
345.077	10.11
345.289	3.23
345.502	22.82
345.714	22.3
345.926	19.02
346.139	-1.08
346.351	17.95
346.563	-3.3
346.775	6.41
346.988	7.12
347.2	2.69
347.412	-7
347.624	-2.98
347.837	7.67
348.049	-2.89
348.261	-10.55
348.473	-15.39
348.685	-28.47
348.897	-43.41
349.11	-23.67
349.322	-20.27
349.534	-33
349.746	-15.61
349.958	-23.34
350.17	-49.73
350.382	-32.99
350.594	-9.96
350.806	13.86
351.018	16.62
351.23	32.17
351.442	27.58
351.654	24.55
351.866	10.59
352.078	10.05
352.29	-3.13
352.502	-7.88
352.714	-24.41
352.926	-18.02
353.138	-20.16
353.35	-27.7
353.561	-16.62
353.773	-13.24
353.985	-8.66
354.197	-1.2
354.409	10.83
354.621	-2.27
354.832	-1.62
355.044	-19.71
355.256	-23.6
355.468	-39.64
355.679	0.83
355.891	9.01
356.103	7.74
356.314	-5.55
356.526	-12.92
356.738	-35.91
356.949	-33.33
357.161	-24.79
357.373	-7.14
357.584	-0.54
357.796	5.46
358.008	4.69
358.219	5.23
358.431	-9.8
358.642	1.79
358.854	-8.5
359.065	-14.18
359.277	-4.42
359.488	7.44
359.7	-4.32
359.911	-6.08
360.123	3.76
360.334	-18.21
360.546	-25.45
360.757	-17.04
360.969	-15.44
361.18	-24.04
361.391	-7.71
361.603	-5.74
361.814	1.41
362.025	5.13
362.237	3.87
362.448	9.28
362.659	10.59
362.871	5.35
363.082	9.74
363.293	-9.51
363.504	-40.13
363.716	-57.66
363.927	-33.18
364.138	-57.9
364.349	-47.38
364.56	-52.83
364.772	-14.38
364.983	-13.62
365.194	-4.04
365.405	-6.11
365.616	8.51
365.827	-24.68
366.038	-12.54
366.25	-6.27
366.461	2.18
366.672	-5.01
366.883	8.51
367.094	-7.66
367.305	-25.92
367.516	-28.39
367.727	-17.72
367.938	-18.83
368.149	-29.96
368.36	-23.64
368.571	-38.82
368.781	-52.67
368.992	-44.38
369.203	-25.78
369.414	-30.19
369.625	-18.84
369.836	6.68
370.047	7.23
370.258	3.59
370.468	10.54
370.679	22.47
370.89	-7.05
371.101	19.21
371.312	9.42
371.522	11.73
371.733	-1.07
371.944	-2.27
372.155	-21.46
372.365	-13.12
372.576	-13.73
372.787	1.19
372.997	14.65
373.208	6.49
373.419	3.38
373.629	1.01
373.84	-17.36
374.05	-22.53
374.261	-42.68
374.472	-45.76
374.682	-38.28
374.893	-28.81
375.103	-25.89
375.314	-7.6
375.524	-1.78
375.735	-8.4
375.945	-4.49
376.156	1.53
376.366	-5.32
376.577	4.13
376.787	14.02
376.997	10.53
377.208	8.28
377.418	10.31
377.629	9.69
377.839	11.66
378.049	11.72
378.26	6.55
378.47	-0.58
378.68	1.71
378.89	-2.73
379.101	4.88
379.311	5.9
379.521	11.22
379.732	6.16
379.942	1.79
380.152	-5.64
380.362	-4.87
380.572	-0.16
380.783	13.84
380.993	18.65
381.203	18.35
381.413	18.84
381.623	13.36
381.833	5.91
382.043	2.29
382.253	0.64
382.463	11.07
382.674	14.33
382.884	16.9
383.094	10.75
383.304	15
383.514	6.65
383.724	9.95
383.934	-1.04
384.144	4.57
384.353	5.1
384.563	4.96
384.773	-1.91
384.983	-1.6
385.193	-2.52
385.403	-10.96
385.613	-2.95
385.823	-1.82
386.033	0.38
386.242	-2.83
386.452	1.04
386.662	2.09
386.872	3.06
387.082	-0.64
387.291	-0.29
387.501	2.77
387.711	-4.11
387.921	-3.86
388.13	2.23
388.34	5.17
388.55	-0.9
388.759	-2.45
388.969	0.18
389.179	-1.66
389.388	-4.24
389.598	-0.48
389.807	-1.76
390.017	-6.4
390.227	-6.66
390.436	-2.59
390.646	-4
390.855	-3.88
391.065	-1.89
391.274	-1.46
391.484	-6.3
391.693	-6.11
391.903	-4.92
392.112	-1.86
392.322	-2.62
392.531	-3.06
392.74	-2.45
392.95	-2.67
393.159	-4.95
393.369	-5.05
393.578	-3.6
393.787	-2.96
393.997	-1.33
394.206	-0.06
394.415	-0.16
394.625	-0.52
394.834	-1.21
395.043	-0.48
395.252	1.56
395.462	2.52
395.671	2.6
395.88	3.59
396.089	2.58
396.298	0.95
396.508	0.94
396.717	0.96
396.926	0.38
397.135	1.09
397.344	0.96
397.553	0.68
397.762	2.21
397.971	2
398.181	1.3
398.39	1.18
398.599	1.26
398.808	0.31
399.017	1.15
399.226	1.49
399.435	1.36
399.644	1.45
399.853	1.47
400.062	1.29
400.27	0.56
400.479	1.05
400.688	0.89
400.897	1.18
401.106	0.97
401.315	1.52
401.524	1.42
401.733	1.45
401.941	1.57
402.15	1.57
402.359	1.66
402.568	1.6
402.777	1.95
402.985	1.68
403.194	1.7
403.403	1.85
403.612	1.81
403.82	1.39
404.029	1.53
404.238	1.58
404.446	1.54
404.655	1.73
404.864	2
405.072	1.95
405.281	1.75
405.489	1.64
405.698	1.59
405.906	1.55
406.115	1.48
406.324	1.75
406.532	1.83
406.741	1.8
406.949	1.81
407.158	1.89
407.366	1.69
407.574	1.64
407.783	1.63
407.991	1.53
408.2	1.54
408.408	1.58
408.617	1.56
408.825	1.47
409.033	1.45
409.242	1.49
409.45	1.5
409.658	1.43
409.867	1.5
410.075	1.61
410.283	1.51
410.491	1.4
410.7	1.37
410.908	1.32
411.116	1.31
411.324	1.32
411.533	1.41
411.741	1.39
411.949	1.47
412.157	1.36
412.365	1.47
412.573	1.45
412.781	1.49
412.99	1.51
413.198	1.65
413.406	1.71
413.614	1.73
413.822	1.86
414.03	1.84
414.238	1.89
414.446	1.81
414.654	1.82
414.862	1.74
415.07	1.64
415.278	1.58
415.486	1.49
415.694	1.53
415.902	1.62
416.109	1.53
416.317	1.58
416.525	1.55
416.733	1.44
416.941	1.33
417.149	1.36
417.357	1.26
417.564	1.2
417.772	1.3
417.98	1.25
418.188	1.27
418.395	1.06
418.603	1.08
418.811	1.09
419.019	1.24
419.226	1.36
419.434	1.5
419.642	1.45
419.849	1.33
420.057	1.23
420.265	1.16
420.472	1.1
420.68	1.22
420.887	1.21
421.095	1.22
421.302	1.27
421.51	1.25
421.717	1.22
421.925	1.29
422.132	1.3
422.34	1.11
422.547	1.09
422.755	1.22
422.962	1.17
423.17	0.98
423.377	1.1
423.585	1.3
423.792	1.14
423.999	1.19
424.207	1.12
424.414	1.13
424.621	1.19
424.829	1.13
425.036	1.27
425.243	1.49
425.451	1.48
425.658	1.3
425.865	1.4
426.072	1.34
426.28	1.46
426.487	1.48
426.694	1.41
426.901	1.35
427.108	1.17
427.315	0.95
427.523	0.8
427.73	0.82
427.937	0.79
428.144	0.85
428.351	0.95
428.558	0.95
428.765	1.01
428.972	1.08
429.179	0.95
429.386	0.98
429.593	1.09
429.8	0.99
430.007	1.09
430.214	1.23
430.421	1.28
430.628	1.22
430.835	1.31
431.042	1.22
431.249	1.21
431.456	1.14
431.662	1.3
431.869	1.44
432.076	1.39
432.283	1.52
432.49	1.46
432.697	1.43
432.903	1.36
433.11	1.47
433.317	1.37
433.524	1.45
433.73	1.41
433.937	1.53
434.144	1.43
434.35	1.36
434.557	1.38
434.764	1.39
434.97	1.18
435.177	1.33
435.384	1.46
435.59	1.48
435.797	1.47
436.003	1.59
436.21	1.48
436.416	1.4
436.623	1.41
436.829	1.42
437.036	1.44
437.242	1.53
437.449	1.52
437.655	1.46
437.862	1.51
438.068	1.49
438.275	1.48
438.481	1.55
438.687	1.61
438.894	1.8
439.1	1.81
439.307	1.86
439.513	1.96
439.719	2.06
439.926	1.87
440.132	1.94
440.338	1.88
440.544	1.77
440.751	1.55
440.957	1.63
441.163	1.56
441.369	1.66
441.575	1.67
441.782	1.82
441.988	1.82
442.194	1.74
442.4	1.72
442.606	1.85
442.812	1.86
443.018	1.81
443.224	2.04
443.431	2
443.637	1.91
443.843	1.9
444.049	1.95
444.255	2
444.461	1.97
444.667	1.95
444.873	1.98
445.079	2.04
445.284	1.9
445.49	1.92
445.696	1.96
445.902	1.97
446.108	2
446.314	2.02
446.52	2.14
446.726	2.19
446.931	2.09
447.137	1.99
447.343	2.08
447.549	2.09
447.755	2.07
447.96	2.21
448.166	2.33
448.372	2.26
448.578	2.11
448.783	2.16
448.989	2.13
449.195	2.01
449.4	2
449.606	2.1
449.812	1.99
450.017	2.06
450.223	2.14
450.428	2.15
450.634	2.06
450.84	2.15
451.045	2.07
451.251	2.06
451.456	2.09
451.662	2.3
451.867	2.28
452.073	2.37
452.278	2.38
452.483	2.37
452.689	2.31
452.894	2.38
453.1	2.39
453.305	2.39
453.51	2.45
453.716	2.37
453.921	2.34
454.127	2.23
454.332	2.19
454.537	2.16
454.742	2.13
454.948	2.12
455.153	2.18
455.358	2.23
455.563	2.31
455.769	2.35
455.974	2.33
456.179	2.29
456.384	2.18
456.589	2.08
456.795	2.09
457	2.09
457.205	2.08
457.41	2.11
457.615	2.15
457.82	2.2
458.025	2.21
458.23	2.28
458.435	2.34
458.64	2.38
458.845	2.37
459.05	2.44
459.255	2.44
459.46	2.44
459.665	2.36
459.87	2.32
460.075	2.31
460.28	2.35
460.485	2.43
460.69	2.49
460.895	2.55
461.099	2.47
461.304	2.33
461.509	2.27
461.714	2.27
461.919	2.24
462.123	2.29
462.328	2.26
462.533	2.23
462.738	2.1
462.942	2.07
463.147	2.09
463.352	2.26
463.556	2.3
463.761	2.45
463.966	2.54
464.17	2.55
464.375	2.59
464.58	2.49
464.784	2.5
