Data from Ofra_1a_PS_2GT38_Reflection_1.txt Node
Date: Tue Jul 20 10:49:58 EDT 2021
User: Adam
Spectrometer: FLMT01687
Trigger mode: 0
Integration Time (sec): 1.004000E0
Scans to average: 2
Electric dark correction enabled: true
Nonlinearity correction enabled: false
Boxcar width: 2
XAxis mode: Wavelengths
Number of Pixels in Spectrum: 3648
>>>>>Begin Spectral Data<<<<<
179.494	-144.67
179.716	-215.27
179.937	444.48
180.158	-540.76
180.38	69.55
180.601	39.06
180.823	-35.78
181.044	-97.02
181.265	-224.11
181.486	206.27
181.708	132.46
181.929	-3409.09
182.15	29.2
182.372	376.85
182.593	517.27
182.814	-213.41
183.035	-47.88
183.257	-18.53
183.478	-22.97
183.699	-17.86
183.92	-49.22
184.141	-44.42
184.363	-32.45
184.584	-4.01
184.805	7.07
185.026	38.51
185.247	47.99
185.468	38.98
185.689	37.89
185.91	2.54
186.132	9.36
186.353	3.31
186.574	5.14
186.795	-9.73
187.016	28.12
187.237	21.25
187.458	19.67
187.679	32.35
187.9	52.79
188.121	58.23
188.342	63.87
188.563	73.47
188.784	69.27
189.005	56.23
189.226	50.98
189.447	42.87
189.667	37.68
189.888	26.58
190.109	10.71
190.33	21.7
190.551	7.2
190.772	7.32
190.993	-31.18
191.214	-10.58
191.434	-70.76
191.655	-108.06
191.876	-56.28
192.097	8.09
192.318	34.19
192.538	23.49
192.759	38.89
192.98	45.9
193.201	40.8
193.421	31.57
193.642	32.91
193.863	32.57
194.083	18.09
194.304	9.52
194.525	5.38
194.745	15.83
194.966	6.94
195.187	14.58
195.407	14.07
195.628	15.61
195.848	13.05
196.069	19.37
196.29	7.2
196.51	-6.49
196.731	-15.68
196.951	-28.3
197.172	-23.33
197.392	-30.86
197.613	6.76
197.833	-0.78
198.054	-10.49
198.274	10.51
198.495	10.07
198.715	-9.76
198.936	14.24
199.156	24.13
199.377	-7.72
199.597	13.37
199.817	7.08
200.038	-36.78
200.258	1.15
200.479	19.91
200.699	12.53
200.919	11.65
201.14	14.67
201.36	-2.74
201.58	-6.89
201.801	-6.82
202.021	-7.61
202.241	6.47
202.461	-6.86
202.682	1.36
202.902	2.15
203.122	4.54
203.342	-11.94
203.563	-10.68
203.783	-31.78
204.003	-47.48
204.223	-29.95
204.443	-9.75
204.663	-28.72
204.884	-9.55
205.104	9.88
205.324	22.73
205.544	-6.8
205.764	32.95
205.984	29.11
206.204	34.48
206.424	38.44
206.644	30.96
206.864	-9.06
207.084	5.43
207.304	-6.37
207.525	-17.25
207.745	-4.85
207.964	8.42
208.184	-0.73
208.404	7.74
208.624	10.81
208.844	4.62
209.064	0.47
209.284	-22.49
209.504	-45.24
209.724	-58.71
209.944	-53.7
210.164	-44.41
210.384	-36.36
210.604	-77.61
210.823	-66.94
211.043	-39.71
211.263	-132.48
211.483	-61.9
211.703	-23.2
211.922	-5.25
212.142	0.72
212.362	36.57
212.582	28.74
212.801	25.44
213.021	4.38
213.241	-17.95
213.461	-13.49
213.68	4.81
213.9	1.9
214.12	-1.05
214.339	13.81
214.559	13.66
214.779	12.44
214.998	19.06
215.218	23.72
215.438	24.49
215.657	12.12
215.877	-6.53
216.096	17.01
216.316	19.39
216.535	15.37
216.755	22.3
216.974	27.54
217.194	-6.12
217.413	-7.97
217.633	-14.07
217.852	-17.64
218.072	-19.28
218.291	-38.19
218.511	-44.37
218.73	-44.38
218.95	-68.48
219.169	-67.37
219.389	-16.68
219.608	-10.93
219.827	-18.56
220.047	-0.9
220.266	-5.25
220.485	-20.16
220.705	-8.63
220.924	-5.92
221.143	-7.33
221.363	16.68
221.582	9.87
221.801	7.12
222.021	18.53
222.24	11.83
222.459	17.55
222.678	27.78
222.897	19.73
223.117	18.44
223.336	52.95
223.555	43.24
223.774	82.32
223.993	85.24
224.213	88.97
224.432	40.15
224.651	25
224.87	1.89
225.089	9.93
225.308	-4.47
225.527	-1.4
225.746	15.75
225.965	15.18
226.184	6.17
226.404	21.32
226.623	40.22
226.842	23.42
227.061	23.63
227.28	26.27
227.499	18.9
227.718	8.61
227.936	13.25
228.155	23
228.374	27.05
228.593	42.36
228.812	37.36
229.031	48.88
229.25	35.21
229.469	22.84
229.688	21.47
229.907	31.81
230.125	28.75
230.344	24.5
230.563	24.59
230.782	16.97
231.001	15.22
231.22	26.23
231.438	31.76
231.657	34.81
231.876	27.41
232.095	28.98
232.313	-1.98
232.532	-1.99
232.751	-10.14
232.969	1.22
233.188	-12.16
233.407	3.56
233.625	-9.76
233.844	-5
234.063	-16.09
234.281	-8.68
234.5	-9.19
234.719	-0.12
234.937	-23.13
235.156	-5.37
235.374	7.82
235.593	16.86
235.811	34.92
236.03	42.46
236.249	35.95
236.467	25.8
236.686	7.48
236.904	16.11
237.123	13.5
237.341	11.11
237.559	9.61
237.778	38.3
237.996	6.78
238.215	-13.62
238.433	-64.01
238.652	3.08
238.87	-16.21
239.088	-0.23
239.307	4.9
239.525	17.1
239.743	-4.35
239.962	-33
240.18	-9.59
240.398	-0.93
240.617	0.06
240.835	15.3
241.053	28.24
241.271	35.23
241.49	39.1
241.708	30.07
241.926	28.77
242.144	58.6
242.363	24.72
242.581	-5.96
242.799	-37.22
243.017	-32.23
243.235	-38.32
243.453	-43.21
243.672	-23.33
243.89	3.01
244.108	24.58
244.326	45.58
244.544	44
244.762	25.73
244.98	30.56
245.198	27.18
245.416	10.23
245.634	3.03
245.852	0.4
246.07	16.06
246.288	7.61
246.506	1.49
246.724	9.86
246.942	20.35
247.16	21.41
247.378	35.37
247.596	67.1
247.814	65.19
248.032	72.36
248.25	61.69
248.468	37.48
248.685	34.81
248.903	28.74
249.121	32.94
249.339	15.75
249.557	11.71
249.775	11.85
249.992	27.28
250.21	18.96
250.428	35.15
250.646	44.29
250.863	34.95
251.081	28.18
251.299	40.18
251.517	34.08
251.734	21.33
251.952	25.78
252.17	34.78
252.387	22.31
252.605	21.8
252.823	33.65
253.04	40.34
253.258	42.23
253.475	52.76
253.693	29.9
253.911	21.5
254.128	14.51
254.346	5.92
254.563	10.45
254.781	19.45
254.998	10.13
255.216	-31.96
255.433	-54.75
255.651	-68.59
255.868	-56
256.086	-31.65
256.303	7.35
256.521	28.11
256.738	15.5
256.956	31.39
257.173	14.87
257.39	16.15
257.608	13.94
257.825	22.11
258.043	11.81
258.26	11.97
258.477	11.04
258.695	-3.94
258.912	-8.16
259.129	-17.27
259.346	-21.16
259.564	-15.31
259.781	17.02
259.998	46.86
260.216	45.6
260.433	36.29
260.65	23.16
260.867	12.52
261.084	-9.06
261.302	-20.82
261.519	-3.31
261.736	6.21
261.953	6.19
262.17	12.73
262.387	9.87
262.604	8.95
262.822	14.73
263.039	24.72
263.256	21.23
263.473	25.52
263.69	25.39
263.907	21.83
264.124	20.84
264.341	28.03
264.558	36.07
264.775	37.32
264.992	46.61
265.209	27
265.426	5.85
265.643	-3.16
265.86	-11.88
266.077	-16.63
266.294	-3.36
266.51	31.92
266.727	26.31
266.944	27.71
267.161	24.51
267.378	39.22
267.595	24.56
267.812	20.22
268.028	16.09
268.245	20.97
268.462	18.91
268.679	21.04
268.896	37.43
269.112	29.52
269.329	24.34
269.546	36.13
269.763	38.29
269.979	25.12
270.196	38.08
270.413	36.79
270.629	17.17
270.846	4.68
271.063	-5.18
271.279	0.42
271.496	1.48
271.712	2.99
271.929	13.56
272.146	12.57
272.362	7.24
272.579	-1.58
272.795	-0.92
273.012	7.31
273.228	22.16
273.445	24.46
273.661	30.24
273.878	13.46
274.094	4.96
274.311	8.51
274.527	-7.67
274.744	0.29
274.96	6.35
275.177	4.7
275.393	9.85
275.609	22.84
275.826	21.55
276.042	29.21
276.259	27.34
276.475	22.78
276.691	8.43
276.908	9.53
277.124	3.93
277.34	1.94
277.557	8.59
277.773	-0.92
277.989	3.35
278.205	0.05
278.422	-4.95
278.638	0.74
278.854	3.68
279.07	13.15
279.286	11.43
279.503	23.33
279.719	18.73
279.935	12.18
280.151	-3.93
280.367	6.82
280.583	-1.54
280.799	-1.02
281.016	-12
281.232	-9.78
281.448	-16.71
281.664	-10.24
281.88	-13.86
282.096	-3.06
282.312	1.77
282.528	4.58
282.744	-11.87
282.96	-25.04
283.176	-28.21
283.392	-48.02
283.608	-37.49
283.824	-34.92
284.04	-70.87
284.256	-40.77
284.471	-30.53
284.687	-34.53
284.903	-18.04
285.119	1.93
285.335	-0.36
285.551	18.11
285.767	11.96
285.982	20.57
286.198	4.29
286.414	19.09
286.63	-7.29
286.846	8.22
287.061	-12.03
287.277	-6.47
287.493	-0.93
287.709	-8.48
287.924	3.58
288.14	6.93
288.356	13.8
288.571	-2.52
288.787	-7.07
289.003	2.98
289.218	-2.99
289.434	-0.92
289.65	16.04
289.865	22.09
290.081	13.48
290.296	24.02
290.512	26.38
290.727	22.77
290.943	23.9
291.159	23.2
291.374	-1.04
291.59	-4.92
291.805	-17.06
292.021	-16.25
292.236	-9.21
292.451	18.01
292.667	28.38
292.882	43.97
293.098	47.4
293.313	24.64
293.529	28.22
293.744	8.87
293.959	7.49
294.175	12.13
294.39	20.32
294.605	22.41
294.821	20.68
295.036	19.59
295.251	14.58
295.467	5.82
295.682	2.65
295.897	6.37
296.112	-3.52
296.328	2.84
296.543	7.58
296.758	5.57
296.973	-6.77
297.188	-1.56
297.404	-18.16
297.619	-44.6
297.834	-66.9
298.049	-7.01
298.264	-6.02
298.479	1.28
298.694	40.99
298.909	51.54
299.125	39.42
299.34	46.37
299.555	50.2
299.77	47
299.985	36.57
300.2	45.67
300.415	43.02
300.63	38.89
300.845	26.35
301.06	30.63
301.275	18.87
301.49	7.69
301.704	10.18
301.919	4.79
302.134	3.92
302.349	-3.03
302.564	-0.76
302.779	-1.11
302.994	7.77
303.209	7.95
303.423	17.36
303.638	29.24
303.853	-1.98
304.068	-4.49
304.283	-2.64
304.497	-21.38
304.712	-10.32
304.927	7.39
305.142	8.84
305.356	20.59
305.571	28.87
305.786	19.13
306	29.26
306.215	30.71
306.43	7.69
306.644	-1.61
306.859	-5.19
307.074	18.02
307.288	18.94
307.503	27.94
307.717	33.27
307.932	39.37
308.147	19.39
308.361	10.27
308.576	-13.41
308.79	-11.3
309.005	-38.1
309.219	-11.25
309.434	3.09
309.648	5.73
309.863	5.79
310.077	3.33
310.292	9.89
310.506	-7.5
310.72	12.87
310.935	23.43
311.149	42.91
311.364	36.17
311.578	37.47
311.792	22.65
312.007	18.9
312.221	-4.55
312.435	-9.78
312.649	9.96
312.864	25.42
313.078	18.31
313.292	21.68
313.507	29.31
313.721	11.24
313.935	-11.08
314.149	2.09
314.363	3.43
314.578	-5.02
314.792	-8.83
315.006	-0.41
315.22	12.86
315.434	17.67
315.648	22.7
315.862	11.57
316.077	3.49
316.291	-9.99
316.505	-43.04
316.719	-41.29
316.933	-20.99
317.147	-11.8
317.361	-18.91
317.575	-1.55
317.789	-0.28
318.003	-4.17
318.217	-0.3
318.431	1.19
318.645	-2.43
318.859	3.65
319.073	19.23
319.287	18.12
319.5	19.7
319.714	16.28
319.928	15.39
320.142	-6.99
320.356	-0.83
320.57	-14.41
320.784	-7.96
320.997	-33.49
321.211	4.75
321.425	-5.98
321.639	3.82
321.853	15.8
322.066	17.15
322.28	8.18
322.494	7.44
322.707	18.18
322.921	5.89
323.135	21.86
323.349	17.93
323.562	34.55
323.776	25.08
323.989	43.65
324.203	22.03
324.417	23.5
324.63	3.64
324.844	-4.91
325.057	-44.98
325.271	-16.38
325.485	-18.1
325.698	5.66
325.912	16.44
326.125	13.54
326.339	23.33
326.552	12.23
326.766	-13.23
326.979	-7.87
327.193	9.33
327.406	-27.36
327.619	-3.09
327.833	10.95
328.046	11.81
328.26	10.44
328.473	24.38
328.686	16.23
328.9	22.51
329.113	13.31
329.326	11.11
329.54	28.78
329.753	34.68
329.966	29.7
330.179	30.26
330.393	28.73
330.606	19.72
330.819	11.08
331.032	11.05
331.246	23.26
331.459	35.45
331.672	33.37
331.885	41.1
332.098	44.15
332.311	29.9
332.525	29.45
332.738	30.67
332.951	17.76
333.164	18.15
333.377	20
333.59	-1.19
333.803	-6.91
334.016	-4.31
334.229	-4.17
334.442	-2.07
334.655	2.6
334.868	5.86
335.081	7.81
335.294	10.23
335.507	15.66
335.72	18.4
335.933	8.1
336.146	14.3
336.359	27.67
336.572	23.73
336.785	37.54
336.997	35.4
337.21	52.45
337.423	21.3
337.636	22.05
337.849	-12.59
338.062	-5.35
338.274	-5.02
338.487	-17.18
338.7	-33.99
338.913	-8.12
339.125	-8.75
339.338	-18.89
339.551	-12.42
339.763	-12.1
339.976	-25.63
340.189	-21.44
340.402	-4.08
340.614	22.59
340.827	37.33
341.039	47.6
341.252	28.38
341.465	2.2
341.677	-5.9
341.89	-15.72
342.102	-5.59
342.315	5.34
342.527	21.87
342.74	9.91
342.952	15.94
343.165	5.15
343.377	14.81
343.59	19.01
343.802	25.3
344.015	20.42
344.227	30.4
344.44	23.86
344.652	14.18
344.864	17.25
345.077	26.86
345.289	22.43
345.502	29.14
345.714	28.61
345.926	23.83
346.139	7.28
346.351	3.62
346.563	20.57
346.775	31.13
346.988	33.31
347.2	54.07
347.412	59.01
347.624	34.51
347.837	27.55
348.049	20.32
348.261	-11.65
348.473	-32.04
348.685	-29.95
348.897	-31.29
349.11	-11.9
349.322	14.17
349.534	20.46
349.746	19.42
349.958	-2.1
350.17	-18.38
350.382	-15.58
350.594	3.44
350.806	20.01
351.018	37.67
351.23	42.5
351.442	48.18
351.654	32.91
351.866	14.52
352.078	18.05
352.29	10.25
352.502	0.97
352.714	0.81
352.926	9.65
353.138	15.42
353.35	9.38
353.561	9.2
353.773	6.26
353.985	4.2
354.197	-5.71
354.409	-0.19
354.621	-19.93
354.832	-7.55
355.044	-15.48
355.256	-16.1
355.468	-21.14
355.679	10.7
355.891	10.01
356.103	9.63
356.314	12.38
356.526	5.43
356.738	-21.81
356.949	-20.86
357.161	-9.14
357.373	-6.35
357.584	6.86
357.796	19.37
358.008	23.04
358.219	25.39
358.431	13.11
358.642	12.94
358.854	11.6
359.065	-4.17
359.277	2.59
359.488	8.89
359.7	4.14
359.911	3.93
360.123	12.96
360.334	-7.33
360.546	-8.02
360.757	-6.8
360.969	-9.2
361.18	-19.96
361.391	0.18
361.603	10.25
361.814	14.95
362.025	19.66
362.237	24.49
362.448	26.26
362.659	18.72
362.871	5.34
363.082	-2.27
363.293	-6.63
363.504	-26.34
363.716	-27.98
363.927	3.75
364.138	0.23
364.349	-5.58
364.56	-13.71
364.772	10.03
364.983	-0.77
365.194	-5.36
365.405	-3.91
365.616	18.11
365.827	0.49
366.038	5.79
366.25	17.37
366.461	28.37
366.672	27.55
366.883	24.55
367.094	14.13
367.305	0.82
367.516	-6.62
367.727	-19.16
367.938	-17.96
368.149	-10.97
368.36	-5.97
368.571	-24.02
368.781	-24.22
368.992	-13.97
369.203	-17.59
369.414	-19.86
369.625	-17.2
369.836	5.14
370.047	-3.2
370.258	0.48
370.468	-3.56
370.679	11.18
370.89	-20.62
371.101	1.43
371.312	-4.94
371.522	1.1
371.733	-11.66
371.944	-3.44
372.155	-0.28
372.365	6.39
372.576	-2.26
372.787	21.54
372.997	19.21
373.208	8.06
373.419	2.35
373.629	7.05
373.84	-8.89
374.05	-9.66
374.261	-20.12
374.472	-8.18
374.682	-3.3
374.893	-16.36
375.103	-7.24
375.314	4.99
375.524	-7.26
375.735	8.73
375.945	23.13
376.156	17.96
376.366	24.14
376.577	37.19
376.787	27.22
376.997	26.36
377.208	28.86
377.418	17.04
377.629	14.55
377.839	15.37
378.049	15.39
378.26	4.27
378.47	4.23
378.68	5.14
378.89	9.75
379.101	10.79
379.311	22.2
379.521	15.25
379.732	17.4
379.942	4.25
380.152	-8.49
380.362	-2.96
380.572	13.84
380.783	9.75
380.993	19.84
381.203	23.99
381.413	18.19
381.623	15.55
381.833	12.59
382.043	1.46
382.253	5.1
382.463	17.02
382.674	12.15
382.884	10.97
383.094	12.45
383.304	8.52
383.514	-2.86
383.724	-6.49
383.934	-5.42
384.144	1.29
384.353	1.69
384.563	6.67
384.773	14.97
384.983	15.4
385.193	12.45
385.403	13.59
385.613	11.36
385.823	6.58
386.033	9.9
386.242	7.4
386.452	4.43
386.662	4.93
386.872	7.61
387.082	2.47
387.291	-1.11
387.501	3.9
387.711	8.22
387.921	4.8
388.13	7.9
388.34	11.7
388.55	6.79
388.759	-1.25
388.969	-3.15
389.179	-5.13
389.388	-4.24
389.598	-7.28
389.807	-6.49
390.017	-6.01
390.227	-6.03
390.436	-5.01
390.646	-1.25
390.855	0.8
391.065	3.53
391.274	3.94
391.484	2.75
391.693	0.75
391.903	-0.43
392.112	-3.26
392.322	-3.66
392.531	-3.8
392.74	-1.88
392.95	0.41
393.159	2.57
393.369	3.51
393.578	4.65
393.787	4.14
393.997	3.32
394.206	0.67
394.415	0.96
394.625	1.38
394.834	1.98
395.043	2
395.252	5.4
395.462	5.61
395.671	4.55
395.88	4.52
396.089	4.85
396.298	4.04
396.508	3.44
396.717	3.48
396.926	3.14
397.135	3.39
397.344	3.41
397.553	3.64
397.762	4.51
397.971	4.45
398.181	4.05
398.39	3.72
398.599	3.91
398.808	3.57
399.017	4.57
399.226	4.69
399.435	4.69
399.644	4.81
399.853	4.81
400.062	4.42
400.27	4.55
400.479	4.79
400.688	4.89
400.897	4.86
401.106	4.86
401.315	4.62
401.524	4.66
401.733	4.38
401.941	4.94
402.15	4.98
402.359	5.17
402.568	5.35
402.777	5.36
402.985	4.88
403.194	4.64
403.403	4.58
403.612	4.16
403.82	4.13
404.029	4.26
404.238	4.36
404.446	4.59
404.655	4.65
404.864	4.74
405.072	4.64
405.281	4.73
405.489	4.46
405.698	4.4
405.906	4.49
406.115	4.46
406.324	4.4
406.532	4.54
406.741	4.55
406.949	4.44
407.158	4.55
407.366	4.38
407.574	4.32
407.783	4.45
407.991	4.48
408.2	4.46
408.408	4.5
408.617	4.49
408.825	4.36
409.033	4.36
409.242	4.29
409.45	4.38
409.658	4.39
409.867	4.48
410.075	4.43
410.283	4.36
410.491	4.23
410.7	4.14
410.908	4.2
411.116	4.32
411.324	4.31
411.533	4.41
411.741	4.45
411.949	4.43
412.157	4.34
412.365	4.41
412.573	4.39
412.781	4.32
412.99	4.16
413.198	4.06
413.406	4.06
413.614	4.02
413.822	4.11
414.03	4.2
414.238	4.34
414.446	4.35
414.654	4.34
414.862	4.19
415.07	4.09
415.278	3.94
415.486	3.77
415.694	3.74
415.902	3.77
416.109	3.82
416.317	3.94
416.525	3.93
416.733	3.88
416.941	3.93
417.149	3.85
417.357	3.76
417.564	3.84
417.772	3.98
417.98	4.07
418.188	4.07
418.395	3.92
418.603	3.85
418.811	3.67
419.019	3.6
419.226	3.64
419.434	3.79
419.642	3.78
419.849	3.81
420.057	3.69
420.265	3.7
420.472	3.63
420.68	3.71
420.887	3.75
421.095	3.87
421.302	4.02
421.51	3.93
421.717	3.85
421.925	3.83
422.132	3.73
422.34	3.39
422.547	3.51
422.755	3.57
422.962	3.59
423.17	3.55
423.377	3.82
423.585	3.94
423.792	3.86
423.999	3.86
424.207	3.72
424.414	3.5
424.621	3.39
424.829	3.48
425.036	3.55
425.243	3.88
425.451	3.92
425.658	3.88
425.865	3.74
426.072	3.64
426.28	3.57
426.487	3.66
426.694	3.66
426.901	3.73
427.108	3.78
427.315	3.64
427.523	3.51
427.73	3.59
427.937	3.34
428.144	3.28
428.351	3.3
428.558	3.34
428.765	3.23
428.972	3.4
429.179	3.32
429.386	3.29
429.593	3.24
429.8	3.16
430.007	3.37
430.214	3.37
430.421	3.49
430.628	3.6
430.835	3.67
431.042	3.45
431.249	3.49
431.456	3.42
431.662	3.45
431.869	3.63
432.076	3.7
432.283	3.92
432.49	3.95
432.697	3.88
432.903	3.81
433.11	3.98
433.317	3.97
433.524	4.06
433.73	4.06
433.937	4.2
434.144	4.01
434.35	3.88
434.557	3.81
434.764	3.83
434.97	3.62
435.177	3.73
435.384	3.87
435.59	3.97
435.797	4.14
436.003	4.23
436.21	4.15
436.416	4.1
436.623	3.97
436.829	3.82
437.036	3.82
437.242	3.95
437.449	3.83
437.655	3.99
437.862	4.19
438.068	4.18
438.275	4.21
438.481	4.24
438.687	4.17
438.894	4.18
439.1	4.14
439.307	4.25
439.513	4.38
439.719	4.47
439.926	4.36
440.132	4.53
440.338	4.46
440.544	4.34
440.751	4.25
440.957	4.36
441.163	4.23
441.369	4.12
441.575	4.15
441.782	4.23
441.988	4.21
442.194	4.16
442.4	4.27
442.606	4.44
442.812	4.48
443.018	4.43
443.224	4.6
443.431	4.55
443.637	4.35
443.843	4.34
444.049	4.38
444.255	4.33
444.461	4.27
444.667	4.38
444.873	4.32
445.079	4.29
445.284	4.29
445.49	4.3
445.696	4.31
445.902	4.33
446.108	4.44
446.314	4.52
446.52	4.61
446.726	4.66
446.931	4.63
447.137	4.61
447.343	4.65
447.549	4.64
447.755	4.58
447.96	4.68
448.166	4.7
448.372	4.66
448.578	4.63
448.783	4.66
448.989	4.72
449.195	4.68
449.4	4.74
449.606	4.76
449.812	4.69
450.017	4.6
450.223	4.57
450.428	4.51
450.634	4.48
450.84	4.56
451.045	4.66
451.251	4.7
451.456	4.84
451.662	4.97
451.867	4.98
452.073	4.99
452.278	5.01
452.483	4.88
452.689	4.8
452.894	4.92
453.1	4.84
453.305	4.9
453.51	4.97
453.716	4.94
453.921	4.8
454.127	4.86
454.332	4.74
454.537	4.72
454.742	4.76
454.948	4.77
455.153	4.75
455.358	4.68
455.563	4.62
455.769	4.58
455.974	4.51
456.179	4.49
456.384	4.51
456.589	4.43
456.795	4.44
457	4.49
457.205	4.43
457.41	4.49
457.615	4.59
457.82	4.7
458.025	4.74
458.23	4.81
458.435	4.88
458.64	4.84
458.845	4.83
459.05	4.87
459.255	4.94
459.46	4.78
459.665	4.78
459.87	4.73
460.075	4.76
460.28	4.76
460.485	4.95
460.69	4.98
460.895	5.02
461.099	4.96
461.304	4.85
461.509	4.86
461.714	4.95
461.919	4.9
462.123	4.92
462.328	4.92
462.533	4.87
462.738	4.8
462.942	4.84
463.147	4.87
463.352	4.92
463.556	4.93
463.761	4.94
463.966	4.94
464.17	4.97
464.375	5
464.58	5
464.784	5.06
464.989	5.01
465.193	4.93
465.398	4.97
465.602	5.09
465.807	5.07
466.011	5.11
466.216	5.07
466.42	5.04
466.625	5.03
466.829	5.05
467.034	5.17
467.238	5.45
467.443	5.45
467.647	5.38
467.851	5.42
468.056	5.42
468.26	5.34
468.464	5.42
