Data from Ofra_PS_T2_2A_2HS17_Reflection_2.txt Node
Date: Wed Jul 21 17:07:26 EDT 2021
User: Adam
Spectrometer: FLMT01687
Trigger mode: 0
Integration Time (sec): 1.100000E0
Scans to average: 2
Electric dark correction enabled: true
Nonlinearity correction enabled: false
Boxcar width: 2
XAxis mode: Wavelengths
Number of Pixels in Spectrum: 3648
>>>>>Begin Spectral Data<<<<<
179.494	652.4
179.716	730.12
179.937	687.2
180.158	705.12
180.38	1110.31
180.601	557.18
180.823	160.49
181.044	92.65
181.265	165.81
181.486	57.24
181.708	53.46
181.929	129.59
182.15	180.99
182.372	168.07
182.593	74.04
182.814	67.56
183.035	87.57
183.257	62.19
183.478	-1.38
183.699	53.37
183.92	27.79
184.141	29.82
184.363	-0.08
184.584	56.71
184.805	45.84
185.026	68.78
185.247	70.62
185.468	48.84
185.689	59.8
185.91	47.89
186.132	36.63
186.353	49.44
186.574	117.08
186.795	84.78
187.016	66.25
187.237	42.85
187.458	13.77
187.679	2.07
187.9	-8.37
188.121	-2.83
188.342	13.31
188.563	34.06
188.784	39.04
189.005	62.1
189.226	92.01
189.447	82.35
189.667	-46.84
189.888	-341.63
190.109	-1383.77
190.33	-795.81
190.551	-1359.73
190.772	-267.43
190.993	-158.35
191.214	-83.3
191.434	-43.52
191.655	10.61
191.876	-71.49
192.097	-154.81
192.318	-188.22
192.538	-297.51
192.759	-198.96
192.98	-51.95
193.201	-3.73
193.421	-17.35
193.642	12.44
193.863	16.04
194.083	-14.47
194.304	-17.33
194.525	-3.08
194.745	-17.61
194.966	-21.99
195.187	-35.97
195.407	-54.11
195.628	-113.07
195.848	-117.37
196.069	-121.52
196.29	-39.88
196.51	-57.45
196.731	-43.04
196.951	-54.14
197.172	-73.04
197.392	-106.76
197.613	-86.96
197.833	-113.75
198.054	-75.79
198.274	-26.86
198.495	-48.13
198.715	-6.22
198.936	-16.31
199.156	-19.8
199.377	-114.98
199.597	-110.01
199.817	-142.29
200.038	-78.18
200.258	-153.84
200.479	-66.02
200.699	-55.74
200.919	-7.02
201.14	-9.76
201.36	-4.2
201.58	11.53
201.801	32.8
202.021	-0.98
202.241	0.17
202.461	-8.13
202.682	-85.62
202.902	-140.89
203.122	-65.95
203.342	-64.08
203.563	-2.89
203.783	20.31
204.003	-7.61
204.223	-16.04
204.443	32.63
204.663	-6.58
204.884	10.77
205.104	52.11
205.324	63.74
205.544	56.65
205.764	68.97
205.984	81.03
206.204	67.67
206.424	63.48
206.644	52.68
206.864	59.9
207.084	37.76
207.304	60.52
207.525	-77.03
207.745	-38.37
207.964	-6.74
208.184	-57.43
208.404	-80.3
208.624	-40.82
208.844	-54.25
209.064	-309.79
209.284	-293.91
209.504	-143.62
209.724	-24.43
209.944	25.88
210.164	44.93
210.384	47.22
210.604	52.59
210.823	2.57
211.043	-39.57
211.263	-30.58
211.483	-27.64
211.703	-92.43
211.922	-87.21
212.142	-26.57
212.362	-19.05
212.582	-27.66
212.801	-14.23
213.021	-18
213.241	-42.48
213.461	-74.98
213.68	-73.05
213.9	-26.57
214.12	13.08
214.339	-42.57
214.559	-13.63
214.779	13.31
214.998	-7.89
215.218	-80.54
215.438	-24.12
215.657	-37.75
215.877	-53.17
216.096	-26.71
216.316	6.23
216.535	-25.35
216.755	-24.6
216.974	-113.72
217.194	-131.54
217.413	-154.7
217.633	-145.39
217.852	-247.12
218.072	-98.36
218.291	-60.08
218.511	-12.47
218.73	-20.86
218.95	0.93
219.169	-9.12
219.389	-35.09
219.608	-28.31
219.827	-25.41
220.047	-24.95
220.266	10.07
220.485	11.61
220.705	17.26
220.924	16.81
221.143	41.92
221.363	8.32
221.582	19.54
221.801	29.21
222.021	25.66
222.24	-62.92
222.459	-15.58
222.678	-31.98
222.897	-94.07
223.117	-139.61
223.336	-93.59
223.555	-65.37
223.774	-18.59
223.993	-21.92
224.213	37.24
224.432	20.88
224.651	46.66
224.87	3.38
225.089	33.15
225.308	19.07
225.527	25.99
225.746	23.05
225.965	20.78
226.184	-0.29
226.404	23.34
226.623	4.75
226.842	0.14
227.061	28.16
227.28	19.37
227.499	1.18
227.718	20.04
227.936	13.94
228.155	15.87
228.374	14.38
228.593	34.68
228.812	42.7
229.031	39.24
229.25	-4.33
229.469	4.27
229.688	-7.26
229.907	10.47
230.125	39.62
230.344	58.41
230.563	63.57
230.782	74.92
231.001	13.02
231.22	-25.93
231.438	2.41
231.657	-12.07
231.876	-32.71
232.095	21.1
232.313	30.61
232.532	6.4
232.751	-12.76
232.969	-44.74
233.188	-122.29
233.407	-34.24
233.625	-37.85
233.844	-39.13
234.063	-20.06
234.281	7.06
234.5	-8.1
234.719	-4
234.937	15.18
235.156	20.67
235.374	19
235.593	5.91
235.811	19.98
236.03	15.26
236.249	-21.37
236.467	-33.12
236.686	-11.13
236.904	0.82
237.123	-32.78
237.341	-18.48
237.559	-9.91
237.778	-37.98
237.996	-90.19
238.215	-27.34
238.433	-20.33
238.652	-36.39
238.87	-31.24
239.088	-5.65
239.307	-18.29
239.525	-3.97
239.743	-17.84
239.962	-16.85
240.18	-49.96
240.398	-82.74
240.617	-110.45
240.835	-89.06
241.053	-47.24
241.271	6.88
241.49	23.68
241.708	29.17
241.926	-3.15
242.144	-12.11
242.363	-56.84
242.581	-67.03
242.799	-15.46
243.017	6.99
243.235	-3.78
243.453	3.58
243.672	-1.61
243.89	-13.75
244.108	-19.97
244.326	-1.48
244.544	1.23
244.762	3.79
244.98	4.67
245.198	35.47
245.416	11.88
245.634	-2.54
245.852	-16.36
246.07	-18.82
246.288	-50.26
246.506	-61.68
246.724	-25.24
246.942	-12.86
247.16	3.5
247.378	13.75
247.596	33.11
247.814	16.05
248.032	-12.8
248.25	-3.19
248.468	-7.25
248.685	-6.93
248.903	36.96
249.121	50.73
249.339	17.83
249.557	0.17
249.775	5.99
249.992	-67.9
250.21	-53.3
250.428	-27.25
250.646	-31.06
250.863	-52.08
251.081	-8.25
251.299	-10.76
251.517	-5.11
251.734	2.94
251.952	5.3
252.17	-3.2
252.387	7.61
252.605	0.39
252.823	6.24
253.04	30.08
253.258	55.47
253.475	72.46
253.693	97.4
253.911	82.79
254.128	66.92
254.346	63.14
254.563	29.9
254.781	2.68
254.998	-30.14
255.216	-18.12
255.433	-14.98
255.651	18.41
255.868	36.66
256.086	71.45
256.303	46.43
256.521	27.44
256.738	0.65
256.956	-26.27
257.173	-37.7
257.39	-60.42
257.608	-100.91
257.825	-8.45
258.043	15.32
258.26	10.9
258.477	61.66
258.695	89.5
258.912	12.41
259.129	15.93
259.346	-1.82
259.564	-36.9
259.781	-46.49
259.998	32.22
260.216	38.98
260.433	72.47
260.65	67.12
260.867	71.06
261.084	16.54
261.302	16.31
261.519	-17.52
261.736	-47.23
261.953	-77.59
262.17	-18.66
262.387	-44.08
262.604	-71.42
262.822	-59.49
263.039	-43.64
263.256	-117.47
263.473	-80.29
263.69	-28.3
263.907	1.36
264.124	15.61
264.341	36.82
264.558	22.21
264.775	13.56
264.992	17.25
265.209	13.83
265.426	31.89
265.643	43.29
265.86	57.07
266.077	47.41
266.294	34.68
266.51	-16.99
266.727	-45.73
266.944	-30.06
267.161	-33.94
267.378	-24.59
267.595	9.19
267.812	-4.67
268.028	-34.56
268.245	-22.03
268.462	-29.62
268.679	-40.66
268.896	1.18
269.112	14.15
269.329	17.14
269.546	11.59
269.763	9.32
269.979	-3.8
270.196	-16.73
270.413	-55.19
270.629	-67.8
270.846	-79.39
271.063	-69.75
271.279	-71.26
271.496	-55.84
271.712	-12.49
271.929	24.24
272.146	20.45
272.362	7.05
272.579	40.39
272.795	31.36
273.012	26.17
273.228	16.26
273.445	7.26
273.661	-36.13
273.878	-61.43
274.094	-61.68
274.311	-76.68
274.527	-6.2
274.744	-3.65
274.96	-2.22
275.177	8.23
275.393	20.35
275.609	15.06
275.826	43.81
276.042	35.09
276.259	25.47
276.475	42.97
276.691	33.59
276.908	11.23
277.124	26.62
277.34	23.24
277.557	8.35
277.773	-1.13
277.989	-5.09
278.205	-12.53
278.422	1.92
278.638	-0.61
278.854	16.08
279.07	16.35
279.286	33.26
279.503	-7.85
279.719	-6.18
279.935	-32.43
280.151	-38.21
280.367	-45.67
280.583	-44.36
280.799	-42.36
281.016	-68.39
281.232	-27.73
281.448	-34.61
281.664	-19.28
281.88	-46.31
282.096	-13.54
282.312	-6.36
282.528	7.85
282.744	35.81
282.96	24.1
283.176	23.77
283.392	28.65
283.608	31.97
283.824	13.4
284.04	40.76
284.256	52.69
284.471	29.67
284.687	19.7
284.903	45.83
285.119	55.81
285.335	29.87
285.551	47.25
285.767	28.65
285.982	10.7
286.198	-40.46
286.414	14.72
286.63	21.78
286.846	46.15
287.061	29.65
287.277	65.11
287.493	41.41
287.709	52.78
287.924	34.72
288.14	65.64
288.356	55.03
288.571	63.05
288.787	42.22
289.003	47.22
289.218	28.1
289.434	-11.81
289.65	-4.73
289.865	-4.11
290.081	11.41
290.296	33.46
290.512	50.71
290.727	13.82
290.943	2.04
291.159	-16.26
291.374	-31.56
291.59	-55.01
291.805	-29.85
292.021	-25.12
292.236	-39.74
292.451	-18.08
292.667	-9.94
292.882	-5.12
293.098	-5.66
293.313	9.02
293.529	-19.87
293.744	-23.53
293.959	-35.34
294.175	-33.64
294.39	-4.37
294.605	15.64
294.821	43.25
295.036	46.44
295.251	60.42
295.467	39.49
295.682	29.3
295.897	-18.48
296.112	-10.84
296.328	-16.68
296.543	-32.68
296.758	-17.15
296.973	20.1
297.188	31.28
297.404	5.81
297.619	-4.94
297.834	-10.51
298.049	-38.27
298.264	-53.14
298.479	1.48
298.694	14.64
298.909	28.25
299.125	37.65
299.34	47.89
299.555	16.79
299.77	39.45
299.985	-3.6
300.2	-56.39
300.415	-75.38
300.63	-54.13
300.845	-70.89
301.06	-69.34
301.275	-31.83
301.49	-18.53
301.704	-13.16
301.919	-26.46
302.134	-33.91
302.349	-46.87
302.564	-102.48
302.779	-143.83
302.994	-151.49
303.209	-102.03
303.423	-23.19
303.638	32.11
303.853	8.45
304.068	7.57
304.283	5.43
304.497	-9.93
304.712	-25.98
304.927	-3.96
305.142	-4.7
305.356	14.53
305.571	19.24
305.786	8.28
306	-22.72
306.215	-21.78
306.43	-60.74
306.644	-69.05
306.859	-37.51
307.074	-24.51
307.288	-34.64
307.503	-25.06
307.717	-38.77
307.932	-28.24
308.147	-10.72
308.361	9.72
308.576	-11.25
308.79	-32.56
309.005	-38.16
309.219	-21.53
309.434	-29.25
309.648	-23.94
309.863	-1.91
310.077	10.72
310.292	2.85
310.506	2.74
310.72	11.86
310.935	8.49
311.149	-7.45
311.364	4.24
311.578	11.48
311.792	1.68
312.007	20.58
312.221	15.13
312.435	18.13
312.649	3.24
312.864	8.47
313.078	0.41
313.292	33.23
313.507	18.29
313.721	47.56
313.935	52.24
314.149	53.26
314.363	47.8
314.578	36.36
314.792	29.3
315.006	6.6
315.22	11.25
315.434	19.3
315.648	26.15
315.862	38.11
316.077	37.08
316.291	25.49
316.505	9.89
316.719	-3.95
316.933	-46.07
317.147	-23.16
317.361	-62.93
317.575	-72.45
317.789	-101.26
318.003	-147.96
318.217	-128.67
318.431	-35.08
318.645	9.86
318.859	11.57
319.073	37.22
319.287	25.87
319.5	0.13
319.714	-35.21
319.928	-43.81
320.142	-72.89
320.356	-14.72
320.57	13.73
320.784	-10.93
320.997	-21.85
321.211	-0.66
321.425	-47.93
321.639	-74.39
321.853	-17.17
322.066	-2.83
322.28	-6.42
322.494	0.69
322.707	20.3
322.921	3.29
323.135	-0.97
323.349	7.87
323.562	-14.54
323.776	-30.8
323.989	-20.67
324.203	-38.08
324.417	-61.94
324.63	-64.38
324.844	-55.67
325.057	-64.1
325.271	-23.88
325.485	2.56
325.698	24.87
325.912	38.03
326.125	22.6
326.339	-2.9
326.552	-15.92
326.766	-17.82
326.979	-14.74
327.193	19.44
327.406	16.76
327.619	10.46
327.833	15.08
328.046	-11.61
328.26	-48.83
328.473	-24.44
328.686	-38.64
328.9	-27.6
329.113	-4.04
329.326	-24.13
329.54	-2.33
329.753	-11.97
329.966	-28.77
330.179	-15.28
330.393	13.82
330.606	13.82
330.819	28.23
331.032	38.25
331.246	34.37
331.459	62.5
331.672	48.71
331.885	32.14
332.098	1.8
332.311	-11.83
332.525	-93.93
332.738	-78.6
332.951	-37.97
333.164	-7.23
333.377	1.88
333.59	28.34
333.803	33.03
334.016	23.53
334.229	16.3
334.442	23.87
334.655	45.3
334.868	32.43
335.081	28.12
335.294	27.75
335.507	22.25
335.72	7.67
335.933	9.7
336.146	10.81
336.359	10.17
336.572	-21.39
336.785	-51.74
336.997	-37.01
337.21	-19.71
337.423	-19.9
337.636	-0.38
337.849	9.16
338.062	-8.72
338.274	3.65
338.487	-10.92
338.7	-15.74
338.913	-47.5
339.125	-78.11
339.338	-144.54
339.551	-115.13
339.763	-85.45
339.976	-27.99
340.189	10.75
340.402	22.94
340.614	13.45
340.827	3.65
341.039	-20.38
341.252	-23.64
341.465	-0.97
341.677	-5.2
341.89	-35.91
342.102	-2.29
342.315	-14.43
342.527	-55.51
342.74	-35.57
342.952	-9.65
343.165	-12.7
343.377	3.39
343.59	-3.85
343.802	13.43
344.015	22.84
344.227	17.35
344.44	6.41
344.652	10.37
344.864	-11.21
345.077	18.99
345.289	20.78
345.502	23.28
345.714	22.62
345.926	30.2
346.139	19.02
346.351	29.31
346.563	34.11
346.775	42.95
346.988	30
347.2	18.94
347.412	-30.09
347.624	-45.87
347.837	-74.87
348.049	-45.68
348.261	-11.52
348.473	12.83
348.685	11.15
348.897	18.83
349.11	-6.37
349.322	-32.09
349.534	-21.61
349.746	-10.33
349.958	-28.5
350.17	-19.69
350.382	6.38
350.594	-0.2
350.806	10.52
351.018	24.09
351.23	13.89
351.442	-56.88
351.654	-74.57
351.866	-86.23
352.078	-75.34
352.29	-30.49
352.502	11.29
352.714	25.21
352.926	15.49
353.138	13.03
353.35	-6.11
353.561	-8.22
353.773	-24.4
353.985	2.46
354.197	-10.64
354.409	-11.78
354.621	-26.12
354.832	-11.85
355.044	-29.89
355.256	-20.31
355.468	-3.95
355.679	-5.59
355.891	-5.24
356.103	-14.52
356.314	-9.11
356.526	2.51
356.738	20.92
356.949	3.31
357.161	12.59
357.373	4
357.584	-31.5
357.796	-15.91
358.008	-12.64
358.219	1.06
358.431	-0.97
358.642	13.8
358.854	-4.53
359.065	-18.07
359.277	-49.12
359.488	-51.31
359.7	-66.1
359.911	-69.76
360.123	-30.52
360.334	-34.36
360.546	-45.21
360.757	-32.01
360.969	-12.98
361.18	-24.26
361.391	-15.84
361.603	-5.06
361.814	-3.15
362.025	-11.53
362.237	-14.18
362.448	3.73
362.659	13.2
362.871	15.21
363.082	5.68
363.293	0.54
363.504	-15.68
363.716	-33.21
363.927	-44.91
364.138	-55.96
364.349	-57.05
364.56	-38.14
364.772	-38.65
364.983	-18.08
365.194	-13.47
365.405	2.9
365.616	14.88
365.827	22.41
366.038	2.17
366.25	-3.28
366.461	-31.69
366.672	-11.13
366.883	17.2
367.094	24.47
367.305	18.97
367.516	28.46
367.727	-1.94
367.938	-27.26
368.149	-33.47
368.36	-9.51
368.571	-9.51
368.781	-19.9
368.992	-35.7
369.203	-46.4
369.414	-63.11
369.625	-65.66
369.836	-39.46
370.047	-61.75
370.258	-42.1
370.468	-47.37
370.679	-57.15
370.89	-60.58
371.101	-28.96
371.312	-37.52
371.522	-41.26
371.733	-30.45
371.944	-9.93
372.155	-4.42
372.365	-8.95
372.576	-6.2
372.787	-7.99
372.997	-35.75
373.208	-40.48
373.419	-13.97
373.629	-42.47
373.84	-44.28
374.05	-45.14
374.261	-26.23
374.472	-55.17
374.682	2.4
374.893	12.16
375.103	37.99
375.314	28.6
375.524	38.31
375.735	36.72
375.945	35.45
376.156	16.77
376.366	29.77
376.577	26.59
376.787	11.83
376.997	15.96
377.208	14.42
377.418	-8.83
377.629	5.42
377.839	14.89
378.049	12.94
378.26	25.11
378.47	44.63
378.68	28.43
378.89	16.78
379.101	8.73
379.311	-21.58
379.521	-58.36
379.732	-63.31
379.942	-54.34
380.152	-65.42
380.362	-29.83
380.572	-20.8
380.783	-2.97
380.993	5.07
381.203	15.57
381.413	14.13
381.623	4.47
381.833	13.5
382.043	9.38
382.253	0.09
382.463	-5.65
382.674	-10.06
382.884	-29.63
383.094	-32.7
383.304	-23.72
383.514	-11.75
383.724	-0.1
383.934	-1.24
384.144	-5.98
384.353	-11.21
384.563	-17.12
384.773	-13.62
384.983	-18.87
385.193	-0.42
385.403	1.14
385.613	0.37
385.823	-13.29
386.033	-9
386.242	-19.1
386.452	-19.06
386.662	-20.89
386.872	-5.47
387.082	-6.23
387.291	-11.75
387.501	-11.45
387.711	-7.91
387.921	-14.74
388.13	-10.01
388.34	2.3
388.55	-0.83
388.759	1.73
388.969	4.55
389.179	0.54
389.388	1.36
389.598	3.48
389.807	-2.37
390.017	-5.27
390.227	-2.09
390.436	-7.14
390.646	-3.84
390.855	-1.42
391.065	-0.55
391.274	-3.68
391.484	-5.11
391.693	-2.28
391.903	0.59
392.112	6.12
392.322	9.01
392.531	13.82
392.74	11.83
392.95	7.35
393.159	3.7
393.369	3.81
393.578	1.83
393.787	0.14
393.997	1.7
394.206	0.95
394.415	1.07
394.625	0.52
394.834	-0.29
395.043	0.9
395.252	2.82
395.462	4.18
395.671	5.46
395.88	6.44
396.089	6.67
396.298	4.7
396.508	4.11
396.717	3.62
396.926	4.1
397.135	3.37
397.344	3.78
397.553	3.77
397.762	5.11
397.971	5.16
398.181	5.86
398.39	5.59
398.599	5.77
398.808	5.34
399.017	6.07
399.226	6.9
399.435	8.19
399.644	8.23
399.853	7.29
400.062	6.1
400.27	5.2
400.479	4.52
400.688	3.91
400.897	4.15
401.106	4.8
401.315	4.88
401.524	4.82
401.733	5.35
401.941	5.82
402.15	5.87
402.359	5.78
402.568	6.2
402.777	6.19
402.985	5.93
403.194	5.54
403.403	5.36
403.612	4.84
403.82	4.77
404.029	5.01
404.238	5
404.446	5.32
404.655	5.28
404.864	5.25
405.072	4.88
405.281	5.07
405.489	4.67
405.698	4.59
405.906	4.62
406.115	4.71
406.324	4.78
406.532	5.12
406.741	5.54
406.949	5.5
407.158	5.55
407.366	5.36
407.574	5.33
407.783	5.16
407.991	4.96
408.2	5.06
408.408	5.09
408.617	4.98
408.825	4.79
409.033	4.9
409.242	4.78
409.45	4.85
409.658	4.67
409.867	4.89
410.075	4.76
410.283	4.64
410.491	4.51
410.7	4.43
410.908	4.39
411.116	4.65
411.324	4.67
411.533	4.59
411.741	4.82
411.949	4.75
412.157	4.45
412.365	4.47
412.573	4.51
412.781	4.54
412.99	4.48
413.198	4.71
413.406	4.79
413.614	4.88
413.822	4.69
414.03	4.52
414.238	4.25
414.446	4.36
414.654	3.99
414.862	4.05
415.07	4.27
415.278	4.51
415.486	4.17
415.694	4.53
415.902	4.46
416.109	4.32
416.317	4.24
416.525	4.19
416.733	4
416.941	4.13
417.149	4.14
417.357	4.16
417.564	4.29
417.772	4.44
417.98	4.25
418.188	4.19
418.395	4.24
418.603	4.41
418.811	4.09
419.019	4.03
419.226	4.19
419.434	4.13
419.642	3.97
419.849	4.16
420.057	4.38
420.265	4.38
420.472	4.1
420.68	4.18
420.887	4.01
421.095	3.98
421.302	3.91
421.51	4.28
421.717	4.25
421.925	4.43
422.132	4.22
422.34	3.97
422.547	3.84
422.755	3.62
422.962	3.45
423.17	3.37
423.377	3.54
423.585	3.49
423.792	3.5
423.999	3.52
424.207	3.74
424.414	3.88
424.621	3.85
424.829	4.05
425.036	4.09
425.243	4.07
425.451	3.73
425.658	3.66
425.865	3.71
426.072	3.74
426.28	3.99
426.487	4.11
426.694	4.16
426.901	3.84
427.108	3.81
427.315	3.57
427.523	3.89
427.73	3.96
427.937	4.1
428.144	4.02
428.351	3.93
428.558	3.89
428.765	3.7
428.972	3.57
429.179	3.74
429.386	4.01
429.593	3.73
429.8	3.83
430.007	4.04
430.214	4.27
430.421	3.97
430.628	3.84
430.835	3.64
431.042	3.69
431.249	3.58
431.456	3.7
431.662	3.91
431.869	4.22
432.076	4.21
432.283	4.22
432.49	4.23
432.697	4.33
432.903	4.15
433.11	4.06
433.317	4.14
433.524	4.31
433.73	4.19
433.937	4.33
434.144	4.27
434.35	4.16
434.557	4.02
434.764	4.08
434.97	4
435.177	4.1
435.384	3.99
435.59	4.08
435.797	4.25
436.003	4.34
436.21	4.38
436.416	4.48
436.623	4.44
436.829	4.47
437.036	4.57
437.242	4.62
437.449	4.55
437.655	4.57
437.862	4.47
438.068	4.28
438.275	4.41
438.481	4.66
438.687	4.64
438.894	4.72
439.1	4.88
439.307	4.97
439.513	4.87
439.719	4.89
439.926	4.84
440.132	4.81
440.338	4.59
440.544	4.64
440.751	4.64
440.957	4.75
441.163	4.72
441.369	4.84
441.575	4.7
441.782	4.68
441.988	4.46
442.194	4.41
442.4	4.43
442.606	4.63
442.812	4.75
443.018	4.88
443.224	5
443.431	4.98
443.637	4.77
443.843	4.63
444.049	4.65
444.255	4.52
444.461	4.59
444.667	4.7
444.873	4.97
445.079	5.02
445.284	5.17
445.49	4.9
445.696	4.78
445.902	4.61
446.108	4.51
446.314	4.49
446.52	4.69
446.726	4.93
446.931	4.91
447.137	4.99
447.343	5.01
447.549	4.96
447.755	4.81
447.96	4.89
448.166	4.82
448.372	4.79
448.578	4.79
448.783	4.84
448.989	4.91
449.195	5.16
449.4	5.16
449.606	5.19
449.812	5.1
450.017	5.1
450.223	4.85
450.428	4.81
450.634	4.88
450.84	4.97
451.045	4.87
451.251	4.81
451.456	5.04
451.662	5.12
451.867	5.11
452.073	5.09
452.278	5.24
452.483	5.22
452.689	5.02
452.894	5.08
453.1	5.03
453.305	5
453.51	4.93
453.716	4.99
453.921	5.09
454.127	5.15
454.332	5.09
454.537	5
454.742	5
454.948	4.87
455.153	4.9
455.358	4.98
455.563	5.25
455.769	5.34
455.974	5.32
456.179	5.14
456.384	5.05
456.589	4.86
456.795	4.61
457	4.66
457.205	5.05
457.41	5.12
457.615	5.09
457.82	5.22
458.025	5.2
458.23	4.93
458.435	4.88
458.64	4.84
458.845	4.94
459.05	4.94
459.255	5
459.46	5.1
459.665	5.11
459.87	5.16
460.075	5.09
460.28	5.1
460.485	5.13
460.69	5.18
460.895	4.97
461.099	4.98
461.304	5.1
461.509	5.08
461.714	5.04
461.919	5.29
462.123	5.23
462.328	5.27
462.533	5.21
