Data from Ofra_1a_PS_2GT10_Reflection_2.txt Node
Date: Tue Jul 20 10:48:26 EDT 2021
User: Adam
Spectrometer: FLMT01687
Trigger mode: 0
Integration Time (sec): 1.004000E0
Scans to average: 2
Electric dark correction enabled: true
Nonlinearity correction enabled: false
Boxcar width: 2
XAxis mode: Wavelengths
Number of Pixels in Spectrum: 3648
>>>>>Begin Spectral Data<<<<<
179.494	61.42
179.716	-63.36
179.937	363.55
180.158	-233.76
180.38	152.03
180.601	87.43
180.823	-51.03
181.044	-213.56
181.265	-293.32
181.486	236.07
181.708	104.37
181.929	-45.45
182.15	-73.77
182.372	600.49
182.593	456.55
182.814	-105.09
183.035	-7.58
183.257	26.01
183.478	36.34
183.699	30.41
183.92	-26.56
184.141	-34.12
184.363	-30.91
184.584	-72.58
184.805	-31.69
185.026	13.6
185.247	9.59
185.468	-24.48
185.689	1.33
185.91	-38.02
186.132	-11.99
186.353	-6.18
186.574	30.85
186.795	14.93
187.016	51.4
187.237	22.15
187.458	7.4
187.679	-39.41
187.9	-11.09
188.121	-34.2
188.342	-7.86
188.563	23.68
188.784	54.35
189.005	56.26
189.226	52.71
189.447	50.44
189.667	33.15
189.888	11.1
190.109	-33.65
190.33	-24.84
190.551	-13.04
190.772	-25.53
190.993	-31.75
191.214	3.35
191.434	2.25
191.655	-18.2
191.876	12.99
192.097	27.05
192.318	38.83
192.538	-2.74
192.759	3.35
192.98	15.44
193.201	22.18
193.421	17.73
193.642	37.06
193.863	39.85
194.083	35.91
194.304	30.65
194.525	34.02
194.745	32.8
194.966	20.58
195.187	19.41
195.407	24.77
195.628	22.25
195.848	4.08
196.069	-7.96
196.29	8.97
196.51	-7.91
196.731	-16.68
196.951	-0.16
197.172	17.83
197.392	8.61
197.613	20.94
197.833	9.5
198.054	5.13
198.274	10.33
198.495	16.43
198.715	1.36
198.936	25.03
199.156	33.55
199.377	15.88
199.597	-1.31
199.817	7.58
200.038	-19.88
200.258	-14.35
200.479	9.9
200.699	27.69
200.919	17.23
201.14	22.67
201.36	30.47
201.58	-6.08
201.801	-19.3
202.021	-28.06
202.241	-26.06
202.461	-21.55
202.682	7.88
202.902	29.22
203.122	42.6
203.342	36.27
203.563	16.07
203.783	12.2
204.003	-19.48
204.223	-4.82
204.443	1.53
204.663	4.21
204.884	14.09
205.104	17.12
205.324	40.9
205.544	31.18
205.764	38.34
205.984	30.43
206.204	39.94
206.424	15.52
206.644	-2.69
206.864	-16.4
207.084	-15.61
207.304	-26.16
207.525	-39.16
207.745	-5.22
207.964	-11.95
208.184	-11.09
208.404	1.77
208.624	16.13
208.844	-4.06
209.064	6.2
209.284	-10.71
209.504	-11.87
209.724	-9.64
209.944	-17.38
210.164	-21.02
210.384	-20.63
210.604	-76.37
210.823	-92.44
211.043	-56.1
211.263	-104.77
211.483	-80.47
211.703	-43.62
211.922	-42.18
212.142	-3.38
212.362	4.27
212.582	18.71
212.801	22.21
213.021	-0.43
213.241	-29.65
213.461	-26.53
213.68	-14.58
213.9	-1.11
214.12	-1.75
214.339	-6.89
214.559	7.92
214.779	1.84
214.998	-10.64
215.218	5.84
215.438	18.22
215.657	4.61
215.877	-1.56
216.096	7.8
216.316	18.23
216.535	8.14
216.755	4.56
216.974	9.83
217.194	-7.26
217.413	-24.2
217.633	-32.95
217.852	-18.54
218.072	-3.16
218.291	5.64
218.511	-6.46
218.73	-11.87
218.95	-22.45
219.169	-52.4
219.389	-51.39
219.608	-34.44
219.827	-17.9
220.047	-11.24
220.266	-27.01
220.485	-24.1
220.705	-31.1
220.924	-7.46
221.143	21.48
221.363	29.85
221.582	13.79
221.801	26.42
222.021	10.45
222.24	-4.8
222.459	11.75
222.678	29.3
222.897	13.33
223.117	25.52
223.336	40.3
223.555	40
223.774	53.02
223.993	64.21
224.213	44.71
224.432	22.26
224.651	23.79
224.87	14.65
225.089	9.05
225.308	22.82
225.527	21.23
225.746	8.26
225.965	3.56
226.184	-15.31
226.404	-30.99
226.623	-28.83
226.842	-11.33
227.061	-12.07
227.28	25.02
227.499	26.23
227.718	24.54
227.936	13.14
228.155	19.17
228.374	12.54
228.593	11.18
228.812	20.61
229.031	37.81
229.25	9.14
229.469	-7.09
229.688	7.21
229.907	7.93
230.125	-7.28
230.344	9.48
230.563	18.51
230.782	19.2
231.001	14.88
231.22	23.7
231.438	43.11
231.657	32.68
231.876	23.39
232.095	28.36
232.313	17.94
232.532	3.28
232.751	-7.23
232.969	-4.4
233.188	-26.85
233.407	-4.62
233.625	-3.08
233.844	4.78
234.063	3.6
234.281	17.95
234.5	0.99
234.719	-5.98
234.937	-20.2
235.156	-24.42
235.374	-24.13
235.593	-12.04
235.811	13.19
236.03	30.89
236.249	42.68
236.467	41.23
236.686	41.39
236.904	34.57
237.123	25.7
237.341	19.84
237.559	24.57
237.778	33.07
237.996	6.24
238.215	-38.86
238.433	-119.57
238.652	-41.52
238.87	-50.73
239.088	-34.7
239.307	-13.45
239.525	22.53
239.743	1.48
239.962	-8.64
240.18	-6.41
240.398	0.86
240.617	-27.3
240.835	-19.99
241.053	1.73
241.271	14.49
241.49	23.16
241.708	22.72
241.926	8.1
242.144	3.71
242.363	8.33
242.581	-41.85
242.799	-65.03
243.017	-39.48
243.235	-23.56
243.453	-54.11
243.672	-24.85
243.89	-0.51
244.108	22.95
244.326	33.5
244.544	44.15
244.762	33.97
244.98	33.25
245.198	28.72
245.416	19.81
245.634	13.9
245.852	7.28
246.07	22.33
246.288	20.46
246.506	11.31
246.724	10.45
246.942	18.14
247.16	6.22
247.378	-4.53
247.596	38.18
247.814	10.82
248.032	-1.55
248.25	14.17
248.468	29.89
248.685	16.33
248.903	18.52
249.121	19.34
249.339	9.65
249.557	-3.76
249.775	-2.2
249.992	-3.38
250.21	-5.45
250.428	13.45
250.646	15.52
250.863	-0.09
251.081	24.12
251.299	24.58
251.517	19.77
251.734	11.94
251.952	23.62
252.17	17.79
252.387	15.19
252.605	-14.23
252.823	-20.2
253.04	11.95
253.258	-4.19
253.475	5.31
253.693	24.83
253.911	30.57
254.128	16.14
254.346	39.39
254.563	40.06
254.781	37.59
254.998	25.68
255.216	-17.34
255.433	-43.48
255.651	-38.23
255.868	-41.46
256.086	-19.83
256.303	4.89
256.521	1.08
256.738	-1.74
256.956	17.55
257.173	5.76
257.39	12.66
257.608	9.44
257.825	12.49
258.043	3.8
258.26	-1.45
258.477	-2.73
258.695	-1.93
258.912	-7.13
259.129	-13.06
259.346	-23.16
259.564	-14.12
259.781	-1.89
259.998	4.49
260.216	8.76
260.433	13.88
260.65	-2.75
260.867	-3.74
261.084	-7.76
261.302	-17.77
261.519	-8.65
261.736	12.2
261.953	5.66
262.17	11.09
262.387	6.82
262.604	16.58
262.822	21.72
263.039	24.52
263.256	21.49
263.473	23.95
263.69	16.59
263.907	10.96
264.124	23.94
264.341	24.34
264.558	33.62
264.775	31.25
264.992	26.78
265.209	4.09
265.426	-12.83
265.643	-14.78
265.86	-33.29
266.077	-25.94
266.294	8.02
266.51	31.05
266.727	25.37
266.944	31.68
267.161	25.96
267.378	23.14
267.595	2.61
267.812	-1.15
268.028	-7.41
268.245	4.69
268.462	-3.06
268.679	8.99
268.896	5.54
269.112	12.83
269.329	-10.04
269.546	6.48
269.763	13.01
269.979	20.17
270.196	16.76
270.413	18.91
270.629	-0.42
270.846	-8.44
271.063	2.5
271.279	-6.82
271.496	-0.12
271.712	2.83
271.929	8.54
272.146	-9.26
272.362	-4.23
272.579	-8.67
272.795	-5.91
273.012	-1.89
273.228	5.76
273.445	-0.64
273.661	-11.51
273.878	-19.47
274.094	-30.99
274.311	-43.81
274.527	-53.25
274.744	-20.18
274.96	-5.25
275.177	6.56
275.393	25.44
275.609	35.46
275.826	35.11
276.042	18.49
276.259	12.86
276.475	11.61
276.691	-6.09
276.908	-9.59
277.124	8.02
277.34	15
277.557	3.13
277.773	7.7
277.989	-1.89
278.205	-3.71
278.422	1.07
278.638	17.43
278.854	14.15
279.07	27.8
279.286	32.66
279.503	28.57
279.719	20.83
279.935	21.01
280.151	20.32
280.367	16.18
280.583	10.05
280.799	8.7
281.016	-22.8
281.232	-23.07
281.448	-26.9
281.664	-14.85
281.88	-18.52
282.096	5.21
282.312	-0.82
282.528	7.99
282.744	7.31
282.96	5.48
283.176	-5.03
283.392	-38.75
283.608	-32.16
283.824	-44.63
284.04	-76.53
284.256	-27.51
284.471	-0.1
284.687	-3.99
284.903	-13.22
285.119	18.18
285.335	22.98
285.551	17.84
285.767	10.69
285.982	32.03
286.198	-12.84
286.414	-10.68
286.63	-22.01
286.846	-5.62
287.061	-1.61
287.277	26.48
287.493	19.36
287.709	34.77
287.924	40.74
288.14	26.92
288.356	26.49
288.571	31.79
288.787	26.84
289.003	28.39
289.218	19.35
289.434	-0.11
289.65	0.71
289.865	2.53
290.081	-15.03
290.296	8.01
290.512	17.66
290.727	12.82
290.943	14.18
291.159	19.07
291.374	-4.73
291.59	-7.14
291.805	-24.6
292.021	-17.94
292.236	-12.51
292.451	7.22
292.667	13.45
292.882	34.86
293.098	44.98
293.313	31.65
293.529	32.15
293.744	22.82
293.959	17.5
294.175	7.32
294.39	9.54
294.605	19.66
294.821	13.24
295.036	22.68
295.251	32.76
295.467	26.84
295.682	12.33
295.897	6.07
296.112	-0.26
296.328	4.27
296.543	-3.21
296.758	9.1
296.973	20.83
297.188	4.91
297.404	-48.3
297.619	-46.16
297.834	-67.17
298.049	-66.94
298.264	-56.76
298.479	-40.52
298.694	4.25
298.909	14.82
299.125	7.67
299.34	17.4
299.555	20.37
299.77	19.13
299.985	13.94
300.2	16.75
300.415	3.22
300.63	7.47
300.845	0.66
301.06	4.16
301.275	6.07
301.49	32.28
301.704	24.47
301.919	12.27
302.134	5.35
302.349	-2.09
302.564	-32.24
302.779	-48.66
302.994	-30.52
303.209	-36.01
303.423	-19.79
303.638	3.51
303.853	-2.76
304.068	-8.77
304.283	-0.74
304.497	-11.12
304.712	-9.92
304.927	2.84
305.142	3.66
305.356	-1.19
305.571	0.49
305.786	2.03
306	-2.46
306.215	-5.97
306.43	-8.48
306.644	-17.97
306.859	-30.68
307.074	-3.93
307.288	7.6
307.503	20.53
307.717	21.55
307.932	18.69
308.147	9.6
308.361	8.33
308.576	-9.34
308.79	-10.79
309.005	-8.95
309.219	-14.49
309.434	-10.95
309.648	-3.78
309.863	19.04
310.077	32.55
310.292	53.37
310.506	48.38
310.72	50.57
310.935	46.68
311.149	30.94
311.364	14.12
311.578	29.3
311.792	34.45
312.007	14.11
312.221	-0.92
312.435	29.17
312.649	25.37
312.864	13.75
313.078	13.73
313.292	22.96
313.507	5.46
313.721	-0.67
313.935	22.34
314.149	29.13
314.363	45.75
314.578	42.75
314.792	16.6
315.006	-3.68
315.22	-8.27
315.434	-16.5
315.648	-21.86
315.862	-9.93
316.077	-11.42
316.291	-13.13
316.505	-47.82
316.719	-20.58
316.933	-12.96
317.147	-18.37
317.361	-7.97
317.575	1.18
317.789	-4.22
318.003	4.9
318.217	8.85
318.431	-15.76
318.645	-10.64
318.859	2.47
319.073	12.27
319.287	8.98
319.5	21.46
319.714	16.3
319.928	1.76
320.142	-10.94
320.356	-5.31
320.57	-35.05
320.784	-20.93
320.997	-25.65
321.211	-4.29
321.425	-13.1
321.639	17.22
321.853	5.02
322.066	4.62
322.28	-8.24
322.494	-0.59
322.707	7.4
322.921	10.85
323.135	3.81
323.349	10.43
323.562	7.58
323.776	-3.56
323.989	9.85
324.203	13.83
324.417	9.5
324.63	12.48
324.844	-15.59
325.057	-40.4
325.271	-34.78
325.485	-41.91
325.698	-30.25
325.912	-1.97
326.125	5.83
326.339	10.33
326.552	16.46
326.766	10.42
326.979	21.62
327.193	25.39
327.406	5.75
327.619	-2.4
327.833	-6.71
328.046	-5.32
328.26	-14.57
328.473	-1.17
328.686	4.37
328.9	13.72
329.113	7.3
329.326	5.22
329.54	5.67
329.753	15.16
329.966	13.2
330.179	16.78
330.393	19.65
330.606	14.39
330.819	5.58
331.032	2.82
331.246	12.5
331.459	15.01
331.672	9.66
331.885	2.65
332.098	14.84
332.311	0.24
332.525	15.75
332.738	25.31
332.951	33.65
333.164	29.92
333.377	28.04
333.59	12.37
333.803	7.87
334.016	-2.11
334.229	3.18
334.442	0.72
334.655	1.27
334.868	1.95
335.081	11.6
335.294	-2.44
335.507	13.82
335.72	34.05
335.933	37.16
336.146	47.66
336.359	42.87
336.572	37.43
336.785	32.24
336.997	31.49
337.21	16.9
337.423	3.22
337.636	0.09
337.849	-10.84
338.062	-2.77
338.274	7.09
338.487	0.37
338.7	-7.71
338.913	5.55
339.125	-5.85
339.338	-25.33
339.551	-16.81
339.763	-14.44
339.976	-21.38
340.189	-21.25
340.402	-2.79
340.614	5.49
340.827	11.76
341.039	-1.55
341.252	-1.54
341.465	-3.49
341.677	-0.59
341.89	-11.26
342.102	13.19
342.315	19.36
342.527	7.5
342.74	-0.1
342.952	15.19
343.165	0.81
343.377	3.12
343.59	15.98
343.802	21.37
344.015	24.22
344.227	28.04
344.44	25.55
344.652	8.77
344.864	20.88
345.077	20.95
345.289	28.24
345.502	40.78
345.714	60.51
345.926	49.8
346.139	28.46
346.351	17.4
346.563	13.88
346.775	13.17
346.988	14.39
347.2	25.03
347.412	31.15
347.624	30.96
347.837	27.57
348.049	29.56
348.261	24.51
348.473	19.4
348.685	9.9
348.897	0.62
349.11	0.54
349.322	9.49
349.534	9.47
349.746	4.41
349.958	-8.96
350.17	-15.01
350.382	-27.57
350.594	-19.96
350.806	14.17
351.018	30.08
351.23	33.14
351.442	41.04
351.654	38.24
351.866	7.42
352.078	8.94
352.29	4.34
352.502	-18.28
352.714	-27.62
352.926	-3.19
353.138	-0.54
353.35	-17.79
353.561	-3.82
353.773	-9
353.985	-0.31
354.197	-9.85
354.409	1.57
354.621	-16.44
354.832	-23.3
355.044	-41.92
355.256	-34.41
355.468	-52.99
355.679	-4.95
355.891	12.43
356.103	15.33
356.314	10.72
356.526	9.1
356.738	-17.23
356.949	-28.32
357.161	5.29
357.373	2.45
357.584	15.56
357.796	31.3
358.008	33.94
358.219	10.8
358.431	9.12
358.642	0.06
358.854	-10.33
359.065	-17.29
359.277	-16.88
359.488	-14.63
359.7	-8.66
359.911	-22.64
360.123	1.97
360.334	-1.12
360.546	-10.91
360.757	-2.23
360.969	10.79
361.18	-8.95
361.391	0.65
361.603	7.23
361.814	7.89
362.025	16.9
362.237	26.54
362.448	35.2
362.659	33.76
362.871	22.12
363.082	21.29
363.293	2.6
363.504	-26.51
363.716	-17.27
363.927	7.33
364.138	-19.24
364.349	-10.67
364.56	-15.42
364.772	-5.81
364.983	-5.63
365.194	5.46
365.405	-4.36
365.616	19
365.827	8.1
366.038	2.09
366.25	17.93
366.461	39.09
366.672	30.58
366.883	26.22
367.094	28.84
367.305	11.57
367.516	-3.57
367.727	-10.73
367.938	-3.33
368.149	-13.51
368.36	-6.75
368.571	-18.07
368.781	-25.29
368.992	-27.79
369.203	-17.26
369.414	-17.96
369.625	-16.88
369.836	8.99
370.047	9.35
370.258	18.67
370.468	11.8
370.679	7.86
370.89	-13.15
371.101	-1.62
371.312	-26
371.522	-24.36
371.733	-25.98
371.944	-35.39
372.155	-45.5
372.365	-24.22
372.576	-25.05
372.787	-5.78
372.997	9.35
373.208	20.97
373.419	14.82
373.629	4.73
373.84	-0.09
374.05	-6.73
374.261	-13.96
374.472	-10.13
374.682	1.58
374.893	-3.4
375.103	7.35
375.314	1.26
375.524	-0.34
375.735	9.49
375.945	11.94
376.156	2.35
376.366	6.38
376.577	11.33
376.787	7.37
376.997	11.5
377.208	21.01
377.418	16.97
377.629	19.27
377.839	20.84
378.049	23.22
378.26	8.11
378.47	-2.17
378.68	-12.19
378.89	-16.97
379.101	-15.35
379.311	-6.14
379.521	-3.79
379.732	4.95
379.942	7.67
380.152	-7.16
380.362	-5.18
380.572	13.47
380.783	10.74
380.993	10.04
381.203	10.61
381.413	11.27
381.623	7.27
381.833	2.84
382.043	-5.79
382.253	5.01
382.463	18.26
382.674	16.96
382.884	24.39
383.094	30.9
383.304	30.37
383.514	16.46
383.724	12.11
383.934	0.45
384.144	0.25
384.353	-2.55
384.563	0.89
384.773	1.59
384.983	-1.74
385.193	-6.5
385.403	-8.74
385.613	-9.4
385.823	-5.43
386.033	2.87
386.242	3.37
386.452	0.46
386.662	0.24
386.872	0.3
387.082	-6.06
387.291	-7.94
387.501	-1.65
387.711	2.24
387.921	-2.96
388.13	3.59
388.34	8.11
388.55	3.23
388.759	-6.01
388.969	-4.67
389.179	-5.53
389.388	-6.21
389.598	-5.25
389.807	-4.47
390.017	-3.01
390.227	-5.76
390.436	-4.76
390.646	-5.64
390.855	-3.37
391.065	-3.19
391.274	-1.62
391.484	-3.14
391.693	-3.21
391.903	-4.45
392.112	-2.92
392.322	-2.56
392.531	-3.11
392.74	-1.54
392.95	1.5
393.159	0.37
393.369	0.81
393.578	2.19
393.787	1.97
393.997	0.96
394.206	0.76
394.415	1.66
394.625	0.21
394.834	0.22
395.043	0.06
395.252	1.42
395.462	1.17
395.671	1.8
395.88	3.5
396.089	3.09
396.298	2.2
396.508	2.03
396.717	1.67
396.926	0.42
397.135	1.02
397.344	0.85
397.553	0.36
397.762	1.53
397.971	1.21
398.181	1.76
398.39	1.62
398.599	1.81
398.808	1.54
399.017	2.58
399.226	2.33
399.435	2.58
399.644	3.16
399.853	3.44
400.062	2.86
400.27	2.32
400.479	2.26
400.688	1.62
400.897	1.01
401.106	1.17
401.315	1.24
401.524	1.39
401.733	1.41
401.941	1.54
402.15	1.3
402.359	1.5
402.568	1.5
402.777	1.69
402.985	1.63
403.194	1.7
403.403	1.69
403.612	1.3
403.82	0.92
404.029	0.94
404.238	0.79
404.446	0.93
404.655	1.16
404.864	1.45
405.072	1.41
405.281	1.5
405.489	1.22
405.698	1.37
405.906	1.2
406.115	1.35
406.324	1.45
406.532	1.61
406.741	1.57
406.949	1.66
407.158	1.63
407.366	1.54
407.574	1.44
407.783	1.26
407.991	1.24
408.2	1.31
408.408	1.27
408.617	1.27
408.825	1.32
409.033	1.34
409.242	1.34
409.45	1.33
409.658	1.39
409.867	1.48
410.075	1.59
410.283	1.45
410.491	1.38
410.7	1.27
410.908	1.21
411.116	1.29
411.324	1.3
411.533	1.36
411.741	1.35
411.949	1.45
412.157	1.32
412.365	1.49
412.573	1.48
412.781	1.53
412.99	1.42
413.198	1.5
413.406	1.49
413.614	1.5
413.822	1.64
414.03	1.66
414.238	1.61
414.446	1.55
414.654	1.57
414.862	1.51
415.07	1.47
415.278	1.59
415.486	1.52
415.694	1.59
415.902	1.55
416.109	1.39
416.317	1.42
416.525	1.42
416.733	1.35
416.941	1.4
417.149	1.55
417.357	1.35
417.564	1.13
417.772	1.25
417.98	1.28
418.188	1.21
418.395	1.04
418.603	1.19
418.811	0.89
419.019	0.68
419.226	0.84
419.434	0.96
419.642	0.86
419.849	0.97
420.057	1.01
420.265	0.9
420.472	0.87
420.68	1.02
420.887	1.04
421.095	1.1
421.302	1.16
421.51	1.19
421.717	1.15
421.925	1.17
422.132	1.16
422.34	0.91
422.547	0.83
422.755	0.84
422.962	0.94
423.17	0.85
423.377	1.05
423.585	1.25
423.792	1.19
423.999	1.08
424.207	1.1
424.414	1.05
424.621	1.02
424.829	1.18
425.036	1.15
425.243	1.3
425.451	1.28
425.658	1.14
425.865	1.03
426.072	1.25
426.28	1.14
426.487	1.26
426.694	1.08
426.901	1.11
427.108	0.92
427.315	0.99
427.523	0.83
427.73	1.05
427.937	0.92
428.144	0.91
428.351	0.91
428.558	1.24
428.765	1.29
428.972	1.43
429.179	1.34
429.386	1.25
429.593	0.89
429.8	0.82
430.007	0.76
430.214	0.84
430.421	0.94
430.628	1.03
430.835	1.02
431.042	0.93
431.249	1.03
431.456	0.9
431.662	0.97
431.869	1.05
432.076	1.14
432.283	1.12
432.49	1.17
432.697	1.13
432.903	1.12
433.11	1.25
433.317	1.29
433.524	1.34
433.73	1.29
433.937	1.34
434.144	1.15
434.35	1.04
434.557	1.05
434.764	1.12
434.97	1.01
435.177	1.16
435.384	1.3
435.59	1.26
435.797	1.31
436.003	1.36
436.21	1.3
436.416	1.31
436.623	1.35
436.829	1.19
437.036	1.19
437.242	1.26
437.449	1.22
437.655	1.33
437.862	1.5
438.068	1.45
438.275	1.46
438.481	1.47
438.687	1.41
438.894	1.51
439.1	1.55
439.307	1.57
439.513	1.65
439.719	1.67
439.926	1.54
440.132	1.54
440.338	1.57
440.544	1.45
440.751	1.35
440.957	1.33
441.163	1.26
441.369	1.21
441.575	1.26
441.782	1.39
441.988	1.43
442.194	1.44
442.4	1.42
442.606	1.56
442.812	1.51
443.018	1.44
443.224	1.55
443.431	1.63
443.637	1.48
443.843	1.47
444.049	1.61
444.255	1.73
444.461	1.64
444.667	1.64
444.873	1.63
445.079	1.5
445.284	1.44
445.49	1.46
445.696	1.39
445.902	1.43
446.108	1.6
446.314	1.56
446.52	1.72
446.726	1.81
446.931	1.74
447.137	1.67
447.343	1.71
447.549	1.6
447.755	1.62
447.96	1.66
448.166	1.64
448.372	1.61
448.578	1.49
448.783	1.43
448.989	1.53
449.195	1.52
449.4	1.56
449.606	1.63
449.812	1.65
450.017	1.64
450.223	1.61
450.428	1.61
450.634	1.6
450.84	1.68
451.045	1.64
451.251	1.67
451.456	1.66
451.662	1.75
451.867	1.74
452.073	1.79
452.278	1.81
452.483	1.77
452.689	1.76
452.894	1.83
453.1	1.74
453.305	1.75
453.51	1.78
453.716	1.77
453.921	1.73
454.127	1.73
454.332	1.67
454.537	1.69
454.742	1.74
454.948	1.68
455.153	1.72
455.358	1.8
455.563	1.87
455.769	1.87
455.974	1.85
456.179	1.77
456.384	1.74
456.589	1.59
456.795	1.52
457	1.57
457.205	1.58
457.41	1.54
457.615	1.59
457.82	1.68
458.025	1.64
458.23	1.66
458.435	1.7
458.64	1.76
458.845	1.83
459.05	1.87
459.255	1.88
459.46	1.88
459.665	1.83
459.87	1.69
460.075	1.73
460.28	1.86
460.485	1.93
460.69	1.95
460.895	2.11
461.099	1.92
461.304	1.79
461.509	1.78
461.714	1.78
461.919	1.68
462.123	1.8
462.328	1.71
462.533	1.59
462.738	1.56
462.942	1.49
463.147	1.45
463.352	1.61
463.556	1.66
463.761	1.68
463.966	1.67
464.17	1.83
464.375	1.84
464.58	1.76
464.784	1.76
464.989	1.86
465.193	1.75
465.398	1.76
465.602	2.02
465.807	2.06
466.011	2.03
466.216	1.93
466.42	2.01
466.625	1.97
466.829	1.93
467.034	1.99
467.238	2.15
