Data from Ofra_2a_PS_OGT5C_Reflection_1.txt Node
Date: Tue Jul 20 09:30:31 EDT 2021
User: Adam
Spectrometer: FLMT01687
Trigger mode: 0
Integration Time (sec): 9.450000E-1
Scans to average: 3
Electric dark correction enabled: true
Nonlinearity correction enabled: false
Boxcar width: 3
XAxis mode: Wavelengths
Number of Pixels in Spectrum: 3648
>>>>>Begin Spectral Data<<<<<
179.494	700
179.716	382.83
179.937	417.03
180.158	1638.67
180.38	-699.71
180.601	-111.06
180.823	-18.56
181.044	55.48
181.265	29.31
181.486	53.56
181.708	788.04
181.929	61.98
182.15	-392.61
182.372	-28.61
182.593	-0.43
182.814	261.23
183.035	93.49
183.257	64.15
183.478	46.2
183.699	47.8
183.92	11.3
184.141	4.5
184.363	-18.39
184.584	-10.77
184.805	-14.95
185.026	-40.55
185.247	-22.32
185.468	-1.18
185.689	-2.43
185.91	4.54
186.132	8.04
186.353	-10.02
186.574	-8.03
186.795	-22.34
187.016	-23.43
187.237	-29.51
187.458	-44.51
187.679	-55.95
187.9	-9.39
188.121	10.47
188.342	19.58
188.563	35.22
188.784	43.98
189.005	58.54
189.226	63.73
189.447	47.29
189.667	47.37
189.888	53.94
190.109	43.58
190.33	42.43
190.551	22.42
190.772	12.15
190.993	23.62
191.214	12.17
191.434	14.66
191.655	28.59
191.876	33.44
192.097	31.23
192.318	39.12
192.538	36.24
192.759	35.94
192.98	20.78
193.201	36.43
193.421	28.97
193.642	48.83
193.863	36.97
194.083	17.05
194.304	15.35
194.525	38.23
194.745	-8.57
194.966	6.49
195.187	1.47
195.407	11.33
195.628	19.13
195.848	27.33
196.069	4.46
196.29	5.39
196.51	-4.64
196.731	0.46
196.951	-10.67
197.172	-14.44
197.392	-0.6
197.613	-0.06
197.833	3.06
198.054	5.61
198.274	-14.17
198.495	-12.74
198.715	-19.43
198.936	-49.02
199.156	-17.99
199.377	-9.18
199.597	-24.44
199.817	-10.97
200.038	-1.3
200.258	11.92
200.479	12.68
200.699	8.02
200.919	0.74
201.14	7.14
201.36	9.3
201.58	4.49
201.801	-8.44
202.021	6.31
202.241	16.68
202.461	22.71
202.682	28.79
202.902	23.75
203.122	26.76
203.342	41.78
203.563	36.44
203.783	36.4
204.003	37.08
204.223	45.83
204.443	50.34
204.663	51.41
204.884	47.28
205.104	51.47
205.324	49.95
205.544	54.71
205.764	54.62
205.984	38.52
206.204	33.44
206.424	42.33
206.644	42.19
206.864	40.59
207.084	45.11
207.304	25
207.525	26.89
207.745	40.66
207.964	21.41
208.184	11.6
208.404	9.23
208.624	-16.1
208.844	-13.72
209.064	-10.27
209.284	-19.81
209.504	-22.12
209.724	-50.61
209.944	-69.24
210.164	-38.99
210.384	-37.44
210.604	-41.75
210.823	-45.34
211.043	-34.62
211.263	-3.13
211.483	8.65
211.703	10.32
211.922	14.34
212.142	17.49
212.362	20.26
212.582	14.63
212.801	10.35
213.021	7.99
213.241	-7.1
213.461	4.56
213.68	8.74
213.9	19.1
214.12	16.43
214.339	18.08
214.559	20.52
214.779	23.5
214.998	13.62
215.218	12.84
215.438	16.73
215.657	17.97
215.877	18.94
216.096	21.28
216.316	23.78
216.535	26.27
216.755	12.77
216.974	-3.85
217.194	0.05
217.413	-1.46
217.633	-4.17
217.852	-14.31
218.072	-30.47
218.291	-3.26
218.511	15.53
218.73	9.42
218.95	14.5
219.169	21.63
219.389	30.03
219.608	32.92
219.827	25.3
220.047	17.76
220.266	30.48
220.485	25.21
220.705	11.44
220.924	15.65
221.143	17.28
221.363	12.42
221.582	12.31
221.801	9.41
222.021	4.49
222.24	2.63
222.459	-7.12
222.678	-20.47
222.897	-10.73
223.117	-9.02
223.336	-8.86
223.555	-1.32
223.774	9.92
223.993	12.45
224.213	12.15
224.432	29.82
224.651	29.42
224.87	29.4
225.089	27.25
225.308	24.15
225.527	27.03
225.746	28.78
225.965	11.27
226.184	18.7
226.404	-0.08
226.623	6.73
226.842	10.99
227.061	9.94
227.28	22.78
227.499	27.88
227.718	19.09
227.936	21.16
228.155	16.29
228.374	15.33
228.593	13.17
228.812	2.15
229.031	-4.88
229.25	1.65
229.469	10.17
229.688	17.67
229.907	8.02
230.125	6.85
230.344	19.35
230.563	26.34
230.782	20.32
231.001	22.34
231.22	15.39
231.438	33.35
231.657	43.67
231.876	37.96
232.095	27.51
232.313	33.56
232.532	28.5
232.751	29.81
232.969	29.17
233.188	20.9
233.407	30.41
233.625	36.41
233.844	28.01
234.063	27.44
234.281	26.53
234.5	22.73
234.719	26.57
234.937	18.62
235.156	7.31
235.374	5.64
235.593	-1.59
235.811	-6.34
236.03	-30.53
236.249	-20.33
236.467	-8.78
236.686	17.04
236.904	16.34
237.123	21.07
237.341	26.76
237.559	37
237.778	33.59
237.996	37.65
238.215	31.13
238.433	32.81
238.652	34.31
238.87	32.4
239.088	21.6
239.307	22.83
239.525	17.58
239.743	7.74
239.962	7.47
240.18	6.5
240.398	6.62
240.617	27.33
240.835	26.19
241.053	31.95
241.271	38.22
241.49	30.61
241.708	30.6
241.926	21.43
242.144	18.74
242.363	10.01
242.581	7.05
242.799	4.14
243.017	13.23
243.235	7.46
243.453	14.08
243.672	0.75
243.89	12.86
244.108	16.53
244.326	14.49
244.544	7.81
244.762	14.19
244.98	11.79
245.198	4.42
245.416	4.69
245.634	0.64
245.852	9.81
246.07	18.29
246.288	17.3
246.506	33.24
246.724	52.07
246.942	45.07
247.16	31.04
247.378	20.03
247.596	14.02
247.814	7.99
248.032	-5.89
248.25	-22.08
248.468	-24.53
248.685	-19.45
248.903	-30.45
249.121	-27.74
249.339	-16.36
249.557	2.9
249.775	-4.27
249.992	-0.94
250.21	-5.1
250.428	3.54
250.646	8.78
250.863	1.97
251.081	-16.93
251.299	3.96
251.517	5.03
251.734	9.35
251.952	28.2
252.17	14.85
252.387	22.05
252.605	19.94
252.823	7.16
253.04	-4.28
253.258	2.19
253.475	-4.23
253.693	11.72
253.911	10.25
254.128	10.72
254.346	13
254.563	21.85
254.781	15.55
254.998	23.56
255.216	24.02
255.433	19.18
255.651	22.76
255.868	21.64
256.086	22.76
256.303	26.91
256.521	2.8
256.738	1.17
256.956	-2.82
257.173	-3.97
257.39	10.63
257.608	2.8
257.825	4.12
258.043	17.64
258.26	9.82
258.477	20.37
258.695	30.75
258.912	25.79
259.129	28.19
259.346	19.97
259.564	4.51
259.781	14.02
259.998	14.78
260.216	12.25
260.433	2.6
260.65	3.6
260.867	6.26
261.084	13.18
261.302	13.52
261.519	4.82
261.736	-8.36
261.953	-1.85
262.17	7.29
262.387	-1.01
262.604	-1.55
262.822	-2.24
263.039	1.77
263.256	5.82
263.473	1.27
263.69	8.77
263.907	19.91
264.124	15.89
264.341	11.22
264.558	13.88
264.775	14.75
264.992	18.3
265.209	16.51
265.426	8.73
265.643	8.94
265.86	8.43
266.077	5.68
266.294	11.27
266.51	13.91
266.727	-5.18
266.944	-41.54
267.161	-43.57
267.378	-47.19
267.595	-60.07
267.812	-71.73
268.028	-66.26
268.245	-55.61
268.462	-7.15
268.679	-11.55
268.896	-8.43
269.112	9.96
269.329	21.47
269.546	15.45
269.763	21.97
269.979	13.61
270.196	29.42
270.413	27.19
270.629	15.29
270.846	11.93
271.063	21.48
271.279	18.77
271.496	18.36
271.712	3.48
271.929	7.35
272.146	19.53
272.362	7.52
272.579	-4.98
272.795	0.43
273.012	-2.46
273.228	3.32
273.445	-2.83
273.661	-5.14
273.878	5.69
274.094	12.73
274.311	13.62
274.527	12.24
274.744	17.02
274.96	23.76
275.177	22.44
275.393	26.42
275.609	29.04
275.826	24.92
276.042	38.62
276.259	27.46
276.475	24.9
276.691	26
276.908	27.32
277.124	21.07
277.34	19.11
277.557	15.09
277.773	15.02
277.989	14.07
278.205	4.63
278.422	2.08
278.638	8.7
278.854	-3.18
279.07	-9.29
279.286	-13.76
279.503	-7.62
279.719	7.14
279.935	0.52
280.151	2.84
280.367	14.97
280.583	21.09
280.799	26.38
281.016	25.42
281.232	22.92
281.448	16.45
281.664	16.17
281.88	25.26
282.096	26.63
282.312	27.65
282.528	21
282.744	20.3
282.96	28.8
283.176	28.52
283.392	28.39
283.608	20.43
283.824	22.03
284.04	17.47
284.256	16.88
284.471	11.26
284.687	4.4
284.903	-7.3
285.119	-17.26
285.335	-14.96
285.551	-7.36
285.767	-7.09
285.982	-2.65
286.198	-7.53
286.414	11.4
286.63	23.74
286.846	19.42
287.061	18.3
287.277	15.05
287.493	13.1
287.709	15.64
287.924	14.62
288.14	17.79
288.356	20.88
288.571	20.55
288.787	33.77
289.003	37.02
289.218	36.36
289.434	32.71
289.65	33.98
289.865	41.37
290.081	29.33
290.296	22.26
290.512	25.6
290.727	36.04
290.943	31.27
291.159	17.5
291.374	16.38
291.59	21.22
291.805	13.67
292.021	2.48
292.236	-4.07
292.451	4.5
292.667	15.7
292.882	8.23
293.098	5.25
293.313	-1.11
293.529	1.99
293.744	6.23
293.959	1.25
294.175	-10.48
294.39	-11.11
294.605	8.5
294.821	20.94
295.036	20.14
295.251	20.64
295.467	22.14
295.682	26.9
295.897	23.75
296.112	22.86
296.328	21.86
296.543	15.74
296.758	12.7
296.973	12.88
297.188	7.48
297.404	3.7
297.619	-5.88
297.834	-0.99
298.049	4.47
298.264	3.06
298.479	-7.51
298.694	0.03
298.909	3.39
299.125	7.13
299.34	2.88
299.555	12.51
299.77	10.41
299.985	12.6
300.2	10.45
300.415	10.69
300.63	3.82
300.845	9.07
301.06	1.76
301.275	9.35
301.49	16.51
301.704	12.02
301.919	7.97
302.134	3.93
302.349	-10.53
302.564	-13.83
302.779	-24.4
302.994	-29.61
303.209	-30.96
303.423	-9.92
303.638	5.96
303.853	23.24
304.068	24.22
304.283	29.34
304.497	28.88
304.712	28.69
304.927	15.8
305.142	8.54
305.356	14.43
305.571	14.92
305.786	5.18
306	2.41
306.215	-1.18
306.43	14.47
306.644	19.99
306.859	13.81
307.074	18.98
307.288	23.74
307.503	19.22
307.717	16.78
307.932	8.28
308.147	7.58
308.361	2.11
308.576	0.94
308.79	1.12
309.005	5.62
309.219	7.02
309.434	5.19
309.648	-1.27
309.863	6.76
310.077	-0.55
310.292	-2.3
310.506	6.58
310.72	15.67
310.935	12.93
311.149	17.07
311.364	14.68
311.578	5.57
311.792	8.45
312.007	5.28
312.221	3.84
312.435	4.06
312.649	5.2
312.864	-8.06
313.078	19.1
313.292	20.9
313.507	20.97
313.721	9.94
313.935	29.45
314.149	20.46
314.363	35.65
314.578	34.92
314.792	32.33
315.006	32.88
315.22	38.86
315.434	23.37
315.648	20.98
315.862	14.37
316.077	14.59
316.291	10.93
316.505	14.98
316.719	8.65
316.933	17.89
317.147	21.83
317.361	21.7
317.575	19.86
317.789	27.88
318.003	18.34
318.217	18.14
318.431	17.66
318.645	16.08
318.859	6.44
319.073	6.23
319.287	7.2
319.5	9.83
319.714	14.77
319.928	19.43
320.142	21.98
320.356	36.62
320.57	29.93
320.784	27.58
320.997	33.74
321.211	31.1
321.425	19.57
321.639	18.95
321.853	12.29
322.066	15.36
322.28	13.47
322.494	4.19
322.707	5.37
322.921	9.49
323.135	12.85
323.349	16.9
323.562	18.86
323.776	24.38
323.989	20.71
324.203	19.67
324.417	14.86
324.63	3.9
324.844	-8.36
325.057	-6.14
325.271	-23.11
325.485	-13.83
325.698	-26.19
325.912	-15.82
326.125	-0.28
326.339	8.7
326.552	13.63
326.766	25.02
326.979	29.01
327.193	34.69
327.406	31.71
327.619	14.59
327.833	17.6
328.046	10.56
328.26	11.3
328.473	7.31
328.686	15.32
328.9	13.21
329.113	25.04
329.326	23.26
329.54	21.56
329.753	27.26
329.966	27.24
330.179	27.59
330.393	28.97
330.606	34.64
330.819	32.84
331.032	39.63
331.246	34.28
331.459	28.23
331.672	27.1
331.885	30.99
332.098	25.43
332.311	15.96
332.525	9.51
332.738	7.11
332.951	9.6
333.164	4.29
333.377	-4.32
333.59	-0.87
333.803	12.71
334.016	8.06
334.229	3.77
334.442	11.79
334.655	13.71
334.868	16.77
335.081	22.79
335.294	6.34
335.507	19.5
335.72	13.47
335.933	8.49
336.146	11.49
336.359	8.9
336.572	-0.88
336.785	18.25
336.997	10.99
337.21	15.41
337.423	18.79
337.636	21.34
337.849	19.71
338.062	21.16
338.274	12.8
338.487	14.09
338.7	18.79
338.913	16.51
339.125	11.48
339.338	14.24
339.551	17.05
339.763	14.36
339.976	14.06
340.189	3.17
340.402	-0.03
340.614	10.07
340.827	6.17
341.039	7.58
341.252	7.31
341.465	4.99
341.677	5.64
341.89	12.67
342.102	7.85
342.315	19.49
342.527	8.92
342.74	3.44
342.952	1.54
343.165	10.67
343.377	13.46
343.59	5.61
343.802	-6.34
344.015	5.05
344.227	5.68
344.44	7.72
344.652	7.36
344.864	1.83
345.077	12.85
345.289	13.36
345.502	17.22
345.714	22.24
345.926	29.48
346.139	31.46
346.351	27.77
346.563	24.45
346.775	30.14
346.988	19.28
347.2	19.91
347.412	13.78
347.624	15.11
347.837	18.79
348.049	15.51
348.261	12.66
348.473	8.8
348.685	12.61
348.897	18.98
349.11	21.78
349.322	19.18
349.534	13.84
349.746	21.81
349.958	28.41
350.17	26.05
350.382	15.49
350.594	8.01
350.806	12.25
351.018	18.64
351.23	19.42
351.442	16.1
351.654	19.54
351.866	28.7
352.078	27.22
352.29	31.06
352.502	34.99
352.714	32.31
352.926	29.65
353.138	24.27
353.35	12.48
353.561	8.1
353.773	9.37
353.985	6.77
354.197	0.03
354.409	3.93
354.621	4.22
354.832	7.95
355.044	19.47
355.256	14.12
355.468	3.95
355.679	5.17
355.891	6.55
356.103	7.81
356.314	5.99
356.526	-0.97
356.738	-5.06
356.949	11.77
357.161	13.5
357.373	13.38
357.584	19.25
357.796	21.82
358.008	20.41
358.219	35.6
358.431	32.09
358.642	37.23
358.854	36.14
359.065	32.77
359.277	37.11
359.488	31.44
359.7	29.5
359.911	23.33
360.123	18.37
360.334	18.51
360.546	5.65
360.757	2.17
360.969	10.3
361.18	2.38
361.391	7.37
361.603	12.31
361.814	13.05
362.025	18.92
362.237	17.4
362.448	21.57
362.659	10.96
362.871	11.46
363.082	6.58
363.293	8.04
363.504	10.17
363.716	14.88
363.927	13.83
364.138	22.57
364.349	24.3
364.56	27.47
364.772	26.6
364.983	21.02
365.194	17.2
365.405	11.27
365.616	5.43
365.827	4.57
366.038	7.25
366.25	15.63
366.461	21.6
366.672	28.2
366.883	33.9
367.094	34.98
367.305	34.89
367.516	28.95
367.727	20.86
367.938	23
368.149	21.52
368.36	16.38
368.571	18.88
368.781	17.14
368.992	19.28
369.203	22
369.414	21.26
369.625	17.27
369.836	24.46
370.047	15.79
370.258	13.36
370.468	11.92
370.679	9.64
370.89	21.67
371.101	26.71
371.312	17.22
371.522	24.94
371.733	15.69
371.944	16.45
372.155	7.97
372.365	-3.44
372.576	-7.9
372.787	-7.13
372.997	-4.99
373.208	9.75
373.419	6.21
373.629	16.08
373.84	13.12
374.05	18.04
374.261	19.05
374.472	17.65
374.682	10
374.893	10.21
375.103	8.32
375.314	9.12
375.524	12.5
375.735	13.16
375.945	12.01
376.156	18.01
376.366	19.97
376.577	21.26
376.787	21.16
376.997	15.71
377.208	12.99
377.418	15.74
377.629	11.41
377.839	12.91
378.049	20.02
378.26	23.83
378.47	20.91
378.68	21.75
378.89	18.9
379.101	10.77
379.311	10.18
379.521	6.8
379.732	4.34
379.942	11.19
380.152	20.95
380.362	21.01
380.572	27.97
380.783	25.97
380.993	20.2
381.203	18.08
381.413	18.78
381.623	11.98
381.833	5.9
382.043	0.96
382.253	-2.7
382.463	6.09
382.674	7.93
382.884	4.08
383.094	2.79
383.304	9.15
383.514	13.91
383.724	19.89
383.934	18.27
384.144	22.48
384.353	23.22
384.563	19.47
384.773	18.15
384.983	21.7
385.193	22.1
385.403	18.91
385.613	12.91
385.823	13.23
386.033	16.38
386.242	16.24
386.452	10.2
386.662	8.05
386.872	4.89
387.082	4.67
387.291	2.95
387.501	2.95
387.711	1.87
387.921	1.59
388.13	0.14
388.34	2.08
388.55	4.74
388.759	3.1
388.969	-0.23
389.179	1.99
389.388	6.97
389.598	6.5
389.807	6.29
390.017	4.89
390.227	5.19
390.436	6.93
390.646	5.71
390.855	2.66
391.065	3.17
391.274	2.97
391.484	2.78
391.693	4.51
391.903	4.63
392.112	4.78
392.322	6.61
392.531	5.51
392.74	3.78
392.95	3.74
393.159	3.33
393.369	3.88
393.578	3.39
393.787	1.75
393.997	4.41
394.206	6.11
394.415	7.21
394.625	6.11
394.834	5.1
395.043	5.32
395.252	6.32
395.462	4.87
395.671	4.53
395.88	3.7
396.089	4.49
396.298	4.97
396.508	4.62
396.717	3.97
396.926	4.09
397.135	3.91
397.344	3.77
397.553	3.79
397.762	3.57
397.971	3.26
398.181	2.99
398.39	3.07
398.599	3.02
398.808	3.35
399.017	3.34
399.226	3.61
399.435	3.94
399.644	4.24
399.853	4.21
400.062	4.29
400.27	4.17
400.479	4.07
400.688	3.89
400.897	4.02
401.106	4.1
401.315	4.03
401.524	4.01
401.733	3.9
401.941	4.02
402.15	3.83
402.359	3.67
402.568	3.66
402.777	3.58
402.985	3.66
403.194	3.71
403.403	3.36
403.612	3.52
403.82	3.54
404.029	3.38
404.238	3.43
404.446	3.36
404.655	3.2
404.864	3.36
405.072	3.34
405.281	3.25
405.489	3.3
405.698	3.21
405.906	3.18
406.115	3.31
406.324	3.16
406.532	3.2
406.741	3.27
406.949	3.14
407.158	3.25
407.366	3.31
407.574	3.33
407.783	3.41
407.991	3.32
408.2	3.27
408.408	3.35
408.617	3.29
408.825	3.3
409.033	3.17
409.242	3.1
409.45	3.08
409.658	3.06
409.867	3.05
410.075	3
410.283	2.85
410.491	2.89
410.7	2.96
410.908	2.98
411.116	2.89
411.324	2.94
411.533	2.85
411.741	2.91
411.949	2.97
412.157	2.98
412.365	3.04
412.573	3.07
412.781	3.05
412.99	3.19
413.198	3.23
413.406	3.13
413.614	3.13
413.822	3.03
414.03	3.01
414.238	3.04
414.446	2.95
414.654	2.85
414.862	2.89
415.07	2.9
415.278	2.9
415.486	3.07
415.694	2.91
415.902	2.91
416.109	2.97
416.317	2.97
416.525	2.97
416.733	3.04
416.941	2.85
417.149	2.95
417.357	3.02
417.564	2.94
417.772	2.87
417.98	2.75
418.188	2.59
418.395	2.63
418.603	2.54
418.811	2.42
419.019	2.47
419.226	2.57
419.434	2.52
419.642	2.59
419.849	2.67
420.057	2.73
420.265	2.79
420.472	2.77
420.68	2.75
420.887	2.8
421.095	2.84
421.302	2.76
421.51	2.81
421.717	2.81
421.925	2.76
422.132	2.71
422.34	2.68
422.547	2.63
422.755	2.67
422.962	2.53
423.17	2.55
423.377	2.71
423.585	2.72
423.792	2.69
423.999	2.68
424.207	2.55
424.414	2.64
424.621	2.65
424.829	2.55
425.036	2.47
425.243	2.56
425.451	2.6
425.658	2.71
425.865	2.63
426.072	2.67
426.28	2.63
426.487	2.69
426.694	2.67
426.901	2.55
427.108	2.51
427.315	2.54
427.523	2.5
427.73	2.53
427.937	2.53
428.144	2.51
428.351	2.62
428.558	2.68
428.765	2.63
428.972	2.63
429.179	2.59
429.386	2.62
429.593	2.53
429.8	2.59
430.007	2.57
430.214	2.64
430.421	2.63
430.628	2.51
430.835	2.48
431.042	2.63
431.249	2.56
431.456	2.58
431.662	2.57
431.869	2.68
432.076	2.81
432.283	2.82
432.49	2.79
432.697	2.77
432.903	2.78
433.11	2.85
433.317	2.81
433.524	2.71
433.73	2.7
433.937	2.67
434.144	2.76
434.35	2.76
434.557	2.67
434.764	2.58
434.97	2.69
435.177	2.72
435.384	2.76
435.59	2.68
435.797	2.72
436.003	2.76
436.21	2.81
436.416	2.79
436.623	2.8
436.829	2.82
437.036	2.82
437.242	2.78
437.449	2.78
437.655	2.75
437.862	2.74
438.068	2.75
438.275	2.69
438.481	2.75
438.687	2.79
438.894	2.75
439.1	2.78
439.307	2.8
439.513	2.77
439.719	2.82
439.926	2.87
440.132	2.88
440.338	2.94
440.544	2.95
440.751	2.94
440.957	2.98
441.163	3.02
441.369	3
441.575	2.97
441.782	2.97
441.988	2.94
442.194	3.01
442.4	3.01
442.606	3.03
442.812	3.04
443.018	3.06
443.224	3.06
443.431	3.11
443.637	3.08
443.843	3.13
444.049	3.05
444.255	2.98
444.461	2.95
444.667	2.97
444.873	2.95
445.079	2.95
445.284	2.89
445.49	2.89
445.696	2.97
445.902	3.02
446.108	3.01
446.314	3.07
446.52	3.09
446.726	3.15
446.931	3.19
447.137	3.17
447.343	3.18
447.549	3.17
447.755	3.14
447.96	3.08
448.166	3.11
448.372	3.11
448.578	3.13
448.783	3.1
448.989	3.13
449.195	3.12
449.4	3.19
449.606	3.11
449.812	3.1
450.017	3.08
450.223	3.09
450.428	3.11
450.634	3.09
450.84	3.09
451.045	3.15
451.251	3.23
451.456	3.25
451.662	3.28
451.867	3.26
452.073	3.28
452.278	3.25
452.483	3.26
452.689	3.21
452.894	3.23
453.1	3.16
453.305	3.15
453.51	3.17
453.716	3.23
453.921	3.19
454.127	3.19
454.332	3.18
454.537	3.29
454.742	3.3
454.948	3.3
455.153	3.3
455.358	3.35
455.563	3.42
455.769	3.39
455.974	3.36
456.179	3.32
456.384	3.33
456.589	3.31
456.795	3.27
457	3.22
457.205	3.19
457.41	3.2
457.615	3.26
457.82	3.32
458.025	3.33
458.23	3.34
458.435	3.32
458.64	3.4
458.845	3.36
459.05	3.36
459.255	3.34
459.46	3.35
459.665	3.44
459.87	3.48
460.075	3.46
460.28	3.49
460.485	3.5
460.69	3.45
460.895	3.45
461.099	3.4
461.304	3.38
461.509	3.36
461.714	3.37
461.919	3.33
462.123	3.41
462.328	3.42
462.533	3.39
462.738	3.39
462.942	3.42
463.147	3.45
463.352	3.54
463.556	3.55
463.761	3.53
463.966	3.62
464.17	3.65
464.375	3.66
464.58	3.61
464.784	3.57
464.989	3.56
465.193	3.59
465.398	3.59
465.602	3.64
465.807	3.67
466.011	3.73
466.216	3.72
466.42	3.82
466.625	3.81
466.829	3.8
467.034	3.79
467.238	3.81
467.443	3.85
467.647	3.91
467.851	3.86
468.056	3.87
468.26	3.83
468.464	3.86
468.669	3.93
468.873	3.87
469.077	3.87
469.282	3.87
469.486	3.93
469.69	4.01
469.894	4.08
470.099	4.07
470.303	4.13
