Data from Ofra_PS_T2_1A_0GT03_Reflection_1.txt Node
Date: Wed Jul 21 17:45:32 EDT 2021
User: Adam
Spectrometer: FLMT01687
Trigger mode: 0
Integration Time (sec): 1.100000E0
Scans to average: 2
Electric dark correction enabled: true
Nonlinearity correction enabled: false
Boxcar width: 2
XAxis mode: Wavelengths
Number of Pixels in Spectrum: 3648
>>>>>Begin Spectral Data<<<<<
179.494	554.6
179.716	676.47
179.937	612.35
180.158	571.06
180.38	861.41
180.601	332.18
180.823	74.74
181.044	3.44
181.265	230.33
181.486	141.09
181.708	142.32
181.929	620.92
182.15	-398.94
182.372	114.1
182.593	88.41
182.814	19.41
183.035	36.83
183.257	46.41
183.478	-108.14
183.699	-18.38
183.92	6.79
184.141	16.14
184.363	-52.32
184.584	34.37
184.805	30.98
185.026	60.21
185.247	57.54
185.468	49.84
185.689	48.79
185.91	55.77
186.132	42.35
186.353	39.37
186.574	95.54
186.795	70.5
187.016	15.14
187.237	-1.8
187.458	-12.38
187.679	-20.74
187.9	3.07
188.121	-4.01
188.342	46.45
188.563	61.44
188.784	79.87
189.005	95.5
189.226	157.25
189.447	109.07
189.667	41.63
189.888	-115.89
190.109	-1088.64
190.33	-689.84
190.551	-1254.2
190.772	-270.52
190.993	-251.61
191.214	-182.37
191.434	-115.43
191.655	-9.36
191.876	-28.46
192.097	-75.22
192.318	-110.3
192.538	-159.6
192.759	-165.85
192.98	-76.16
193.201	-14.01
193.421	-9.11
193.642	11.37
193.863	33.89
194.083	12.21
194.304	-11.16
194.525	0.73
194.745	-24.51
194.966	-68.36
195.187	-73.33
195.407	-68.35
195.628	-145.09
195.848	-122.32
196.069	-128.87
196.29	-41.99
196.51	-60.87
196.731	-40.11
196.951	-62.64
197.172	-52.23
197.392	-128.78
197.613	-149.4
197.833	-190.5
198.054	-152.8
198.274	-94.43
198.495	-96.52
198.715	-46.58
198.936	-47.82
199.156	-42.28
199.377	-124.56
199.597	-116.2
199.817	-137.54
200.038	-79.68
200.258	-117.38
200.479	-46.01
200.699	-32.02
200.919	17.62
201.14	-24.05
201.36	-45.37
201.58	-7.06
201.801	16.9
202.021	-24
202.241	-19.54
202.461	-14.35
202.682	-109.14
202.902	-178.89
203.122	-93.33
203.342	-49.42
203.563	-30.69
203.783	13.68
204.003	-1.64
204.223	-16.44
204.443	36.74
204.663	38.34
204.884	20.68
205.104	35.69
205.324	80.08
205.544	47.7
205.764	55.16
205.984	52.48
206.204	62.71
206.424	37.14
206.644	12.2
206.864	15.47
207.084	-33.12
207.304	-43.78
207.525	-196.33
207.745	-126.88
207.964	-63.57
208.184	-82.15
208.404	-111.89
208.624	-101.34
208.844	-87.81
209.064	-379.09
209.284	-399.81
209.504	-161.77
209.724	-18.99
209.944	-14.02
210.164	32.09
210.384	45.63
210.604	44.77
210.823	2.77
211.043	-24.94
211.263	-17.42
211.483	-22.31
211.703	-98.14
211.922	-69.68
212.142	22.01
212.362	30.63
212.582	23.97
212.801	54.27
213.021	11.03
213.241	-22.53
213.461	-65.08
213.68	-81.11
213.9	-74.77
214.12	-37.16
214.339	-108.9
214.559	-81.63
214.779	-31.67
214.998	-23.65
215.218	-75.57
215.438	-23.68
215.657	-39.76
215.877	-52.68
216.096	-11.99
216.316	13.74
216.535	6.46
216.755	16.96
216.974	-38.5
217.194	-140.81
217.413	-152.48
217.633	-162.58
217.852	-270.87
218.072	-120.18
218.291	-61.28
218.511	5.3
218.73	1.4
218.95	-1.82
219.169	-5.81
219.389	-37.79
219.608	-43.06
219.827	-44.12
220.047	-17.13
220.266	-7.85
220.485	-5.61
220.705	-11.92
220.924	-21.37
221.143	19.59
221.363	-7.75
221.582	11.67
221.801	24.98
222.021	33.76
222.24	-64.28
222.459	38.51
222.678	6.91
222.897	-53.84
223.117	-99.36
223.336	-60.01
223.555	-34.6
223.774	11.25
223.993	11.75
224.213	92.78
224.432	48.1
224.651	45.23
224.87	7.38
225.089	32.59
225.308	3.96
225.527	36.81
225.746	28.35
225.965	23.94
226.184	-1.57
226.404	16.35
226.623	-15.19
226.842	-6.15
227.061	8.88
227.28	14.99
227.499	-4.93
227.718	17.94
227.936	1.48
228.155	16.02
228.374	-3.37
228.593	11.1
228.812	-6.2
229.031	4.51
229.25	-47.31
229.469	-32.22
229.688	-17.26
229.907	20.7
230.125	36.8
230.344	42.36
230.563	44.91
230.782	36.21
231.001	-47.15
231.22	-46.52
231.438	-11.66
231.657	-5.34
231.876	-11.75
232.095	40.15
232.313	34.35
232.532	13.34
232.751	-24.92
232.969	-35.28
233.188	-87.85
233.407	-9.56
233.625	0.81
233.844	12.3
234.063	33.98
234.281	28.11
234.5	21.1
234.719	20.73
234.937	36.39
235.156	31.4
235.374	26.17
235.593	11.81
235.811	6.41
236.03	-12.9
236.249	-58.26
236.467	-32.04
236.686	-9.15
236.904	2.18
237.123	-27.25
237.341	-14.86
237.559	-7.27
237.778	-20.12
237.996	-51.01
238.215	-1.03
238.433	14.55
238.652	-14.29
238.87	-45.72
239.088	-10.41
239.307	-13.49
239.525	-27.6
239.743	-40.47
239.962	6.36
240.18	-37.84
240.398	-90.35
240.617	-92.71
240.835	-57.9
241.053	-48.74
241.271	15.25
241.49	37.55
241.708	31.58
241.926	30.65
242.144	10.43
242.363	-58.05
242.581	-67.81
242.799	-39.07
243.017	-0.69
243.235	-16.27
243.453	-4.45
243.672	-15.02
243.89	-10.59
244.108	-37.63
244.326	-20.88
244.544	-26.94
244.762	-24.27
244.98	-21.04
245.198	-11.09
245.416	-32.93
245.634	-15.72
245.852	-26.74
246.07	-35.87
246.288	-10.84
246.506	-31.41
246.724	-34.25
246.942	-20.38
247.16	15.81
247.378	6.58
247.596	49.74
247.814	40.25
248.032	7.97
248.25	0.13
248.468	-5.23
248.685	-13.25
248.903	25.19
249.121	37.43
249.339	-8.74
249.557	-14.24
249.775	-15.72
249.992	-96.49
250.21	-100.15
250.428	-55.03
250.646	-87.21
250.863	-107.14
251.081	-50.22
251.299	-29.12
251.517	-47.07
251.734	-25.06
251.952	-23.99
252.17	-30.25
252.387	-21.68
252.605	-25.65
252.823	-18.41
253.04	9.22
253.258	36.21
253.475	41.05
253.693	66.76
253.911	51.47
254.128	40.57
254.346	24.35
254.563	-2.46
254.781	-35.11
254.998	-45.62
255.216	-55.13
255.433	-27.61
255.651	38.75
255.868	83.34
256.086	92.37
256.303	92.16
256.521	56.87
256.738	26.71
256.956	-12.16
257.173	-36.2
257.39	-56.81
257.608	-80.02
257.825	-35.8
258.043	0.86
258.26	24.05
258.477	63.87
258.695	61.36
258.912	25.27
259.129	13.91
259.346	-27.68
259.564	-73.58
259.781	-90.7
259.998	-31.68
260.216	0.36
260.433	59.24
260.65	62.87
260.867	76.29
261.084	52.6
261.302	33.49
261.519	3.6
261.736	-29.96
261.953	-41.66
262.17	-3.99
262.387	-42.55
262.604	-82.61
262.822	-104.7
263.039	-94.52
263.256	-142.1
263.473	-102.17
263.69	-58.89
263.907	3.95
264.124	23.74
264.341	30.73
264.558	33.74
264.775	51.02
264.992	42.02
265.209	35.25
265.426	51.6
265.643	56.99
265.86	72.64
266.077	65.9
266.294	41.32
266.51	-1.41
266.727	-1.31
266.944	-12.49
267.161	-16.63
267.378	-18.63
267.595	12.15
267.812	-21.37
268.028	-38.85
268.245	-29.59
268.462	-32.35
268.679	-58.46
268.896	1.83
269.112	10.57
269.329	8.9
269.546	10.47
269.763	17.39
269.979	-6.3
270.196	-13.03
270.413	-39.48
270.629	-56.25
270.846	-62.63
271.063	-46.43
271.279	-78.53
271.496	-72.79
271.712	-17.85
271.929	7.5
272.146	-22.2
272.362	17.61
272.579	57.05
272.795	53.67
273.012	34.35
273.228	32.51
273.445	-1.75
273.661	-52.79
273.878	-92.74
274.094	-81.89
274.311	-106.74
274.527	-18.97
274.744	1.25
274.96	6.28
275.177	24.04
275.393	39.31
275.609	24.33
275.826	39.96
276.042	27.68
276.259	6.79
276.475	23.11
276.691	19.85
276.908	-3.66
277.124	5.42
277.34	4.81
277.557	-4.84
277.773	-3.23
277.989	-9.35
278.205	-15.7
278.422	-5.14
278.638	2.7
278.854	14.66
279.07	31.52
279.286	29.92
279.503	15.1
279.719	-16.7
279.935	-48.02
280.151	-62.26
280.367	-16.21
280.583	-36.32
280.799	-19.94
281.016	-39.95
281.232	-12.57
281.448	-30.06
281.664	5.77
281.88	-22.26
282.096	5.85
282.312	23.4
282.528	35.89
282.744	14.6
282.96	9.07
283.176	2.28
283.392	-9.2
283.608	-19.69
283.824	-9.47
284.04	10.87
284.256	21.43
284.471	8.73
284.687	13.02
284.903	26.83
285.119	62.29
285.335	38.97
285.551	57.98
285.767	43.86
285.982	16.32
286.198	-59.52
286.414	6.79
286.63	15.58
286.846	43.21
287.061	28.73
287.277	61.9
287.493	27.66
287.709	40.39
287.924	3.94
288.14	42.34
288.356	44.22
288.571	56.78
288.787	31.92
289.003	46.48
289.218	27.32
289.434	-11.08
289.65	-1.16
289.865	-0.29
290.081	11.58
290.296	10.86
290.512	10.27
290.727	-12.37
290.943	-12.34
291.159	-31.81
291.374	-13.96
291.59	-34.16
291.805	-28.1
292.021	-17.9
292.236	-4.54
292.451	1.49
292.667	16.52
292.882	33.87
293.098	26.39
293.313	13.84
293.529	-44.65
293.744	-62.12
293.959	-60.31
294.175	-51.77
294.39	-5.3
294.605	20.12
294.821	51.6
295.036	48.69
295.251	60.38
295.467	9.11
295.682	-17.53
295.897	-95.9
296.112	-116.48
296.328	-109.73
296.543	-116.62
296.758	-84
296.973	-10.64
297.188	33.06
297.404	10.94
297.619	13.46
297.834	-2.78
298.049	-29.13
298.264	-59.33
298.479	-5.93
298.694	8.38
298.909	33.81
299.125	37
299.34	52.22
299.555	21.13
299.77	12.69
299.985	-50.37
300.2	-102.52
300.415	-126.24
300.63	-68.93
300.845	-63.38
301.06	-44.66
301.275	8.73
301.49	30.2
301.704	2.36
301.919	-24.27
302.134	-32.19
302.349	-55.6
302.564	-131.41
302.779	-189.03
302.994	-112.58
303.209	-72.57
303.423	0.55
303.638	59.05
303.853	39.25
304.068	13.63
304.283	11.01
304.497	-15.06
304.712	-35.51
304.927	-20.59
305.142	-21.94
305.356	-14.31
305.571	-7.51
305.786	-21.34
306	-45.65
306.215	-44.47
306.43	-69.94
306.644	-68.24
306.859	-13.64
307.074	2.37
307.288	-11.11
307.503	-24.36
307.717	-38.43
307.932	-41.41
308.147	-44.76
308.361	-23.01
308.576	-15.59
308.79	-47.2
309.005	-37.83
309.219	-11.01
309.434	-23.1
309.648	-15.16
309.863	4.65
310.077	1.86
310.292	-3.5
310.506	-2.32
310.72	-7.25
310.935	16.31
311.149	2.85
311.364	15.24
311.578	31.58
311.792	25.17
312.007	19.47
312.221	6.35
312.435	18.79
312.649	-1.28
312.864	2.53
313.078	10.07
313.292	93.65
313.507	14.99
313.721	29.14
313.935	41.55
314.149	16.98
314.363	-4.3
314.578	1.35
314.792	10.22
315.006	-3.95
315.22	8.59
315.434	10.74
315.648	15.8
315.862	5.59
316.077	10.15
316.291	5.22
316.505	2.32
316.719	2.79
316.933	-27.01
317.147	-15.89
317.361	-75.83
317.575	-75.97
317.789	-86.75
318.003	-108.69
318.217	-121.8
318.431	-23.05
318.645	6.9
318.859	1.17
319.073	29.03
319.287	15.83
319.5	-10.88
319.714	-53.3
319.928	-79.88
320.142	-100.67
320.356	-17.19
320.57	-5.31
320.784	-23.13
320.997	-25
321.211	-50.33
321.425	-109.67
321.639	-111.76
321.853	-28.92
322.066	-9.87
322.28	-5.97
322.494	16.03
322.707	30.86
322.921	-5.66
323.135	-10.45
323.349	8.49
323.562	-24.35
323.776	-33.9
323.989	-22.85
324.203	-30.8
324.417	-57.12
324.63	-67.78
324.844	-81.54
325.057	-71.69
325.271	-65.63
325.485	-20.7
325.698	9.14
325.912	28.02
326.125	3.92
326.339	15.68
326.552	-12.19
326.766	-22.56
326.979	-0.66
327.193	36.28
327.406	27.11
327.619	24.99
327.833	48
328.046	6.88
328.26	-33.25
328.473	-4.22
328.686	-32.01
328.9	-32.76
329.113	1.72
329.326	3.87
329.54	4.03
329.753	4.04
329.966	-27.39
330.179	-31.94
330.393	-18.22
330.606	-10.98
330.819	20.56
331.032	33.74
331.246	39.09
331.459	70.85
331.672	59.74
331.885	47.1
332.098	29.13
332.311	29.03
332.525	-42.69
332.738	-25.82
332.951	-0.31
333.164	14.85
333.377	20.42
333.59	49.83
333.803	50.34
334.016	48.55
334.229	52.11
334.442	65.2
334.655	87.58
334.868	75.74
335.081	51.28
335.294	26.62
335.507	-0.08
335.72	-28.36
335.933	-32.34
336.146	-31.85
336.359	-27.7
336.572	-43.2
336.785	-66.66
336.997	-53.48
337.21	-42.78
337.423	-39.82
337.636	-34.89
337.849	-9.59
338.062	-15.37
338.274	-10.59
338.487	-15.85
338.7	-13.17
338.913	-53.15
339.125	-82.26
339.338	-133.58
339.551	-113.5
339.763	-81.49
339.976	-64.31
340.189	-35.04
340.402	-12.23
340.614	-10.1
340.827	-20.36
341.039	-27.21
341.252	-31.75
341.465	-23.43
341.677	-34.92
341.89	-62.6
342.102	-15.36
342.315	-27.01
342.527	-56.51
342.74	-41.54
342.952	5.87
343.165	-19.17
343.377	15.76
343.59	10
343.802	37.96
344.015	26.81
344.227	49.87
344.44	24.91
344.652	29.92
344.864	8.82
345.077	24.85
345.289	16.09
345.502	21.04
345.714	17.08
345.926	16.17
346.139	4.67
346.351	13.78
346.563	21.52
346.775	35.73
346.988	26.79
347.2	19.38
347.412	-28.64
347.624	-57.38
347.837	-78.53
348.049	-61.67
348.261	-22.85
348.473	0.67
348.685	10.91
348.897	-3.39
349.11	-14.46
349.322	-27.31
349.534	-3.31
349.746	-7.32
349.958	0.8
350.17	13.16
350.382	12.74
350.594	-7.7
350.806	-2.18
351.018	6.09
351.23	-12.59
351.442	-65.45
351.654	-63.61
351.866	-49.14
352.078	-46.8
352.29	-25.18
352.502	6.7
352.714	21.72
352.926	4.44
353.138	6.41
353.35	-1.27
353.561	-7.98
353.773	-33.45
353.985	-11.74
354.197	-24.69
354.409	-37.98
354.621	-45.04
354.832	-23.71
355.044	-41.95
355.256	-33.73
355.468	-7.91
355.679	-5.36
355.891	-0.64
356.103	-3.69
356.314	-7.93
356.526	-2.98
356.738	5.89
356.949	1.59
357.161	20.01
357.373	23.46
357.584	-0.85
357.796	-9.32
358.008	-11.22
358.219	-3.17
358.431	-3.02
358.642	4.73
358.854	10.79
359.065	-1.17
359.277	-36.72
359.488	-43.81
359.7	-58.13
359.911	-69.05
360.123	-45.5
360.334	-42.08
360.546	-63.28
360.757	-62.71
360.969	-39.72
361.18	-44.28
361.391	-29.77
361.603	-38.52
361.814	-12.74
362.025	-31.48
362.237	-36.72
362.448	-22.65
362.659	10.58
362.871	-11.04
363.082	3.5
363.293	13.65
363.504	-11.08
363.716	-37.88
363.927	-34.49
364.138	-73.44
364.349	-88.92
364.56	-66.61
364.772	-60.22
364.983	-28.92
365.194	-11.65
365.405	-2.85
365.616	18.52
365.827	28.84
366.038	-0.22
366.25	-16.01
366.461	-48.08
366.672	-39.51
366.883	-32.26
367.094	-16.77
367.305	-24.36
367.516	-13.13
367.727	-50.83
367.938	-58.23
368.149	-55.46
368.36	-27.27
368.571	-7.98
368.781	-21.24
368.992	-32.44
369.203	-51.61
369.414	-64.38
369.625	-91.89
369.836	-66.14
370.047	-84.62
370.258	-66.33
370.468	-70.63
370.679	-74.36
370.89	-62.71
371.101	-35.41
371.312	-27.23
371.522	-21.38
371.733	-14.86
371.944	-5.68
372.155	-6.46
372.365	-23.35
372.576	-24.51
372.787	-27.46
372.997	-63.31
373.208	-53.71
373.419	-18.38
373.629	-44.63
373.84	-46.25
374.05	-41.96
374.261	-39.96
374.472	-73.25
374.682	-11.49
374.893	-7.89
375.103	32.36
375.314	23.8
375.524	26.29
375.735	19.2
375.945	28.23
376.156	-0.53
376.366	11.53
376.577	19.37
376.787	13.08
376.997	20.84
377.208	20.98
377.418	-2.7
377.629	0.31
377.839	-11.23
378.049	-13.72
378.26	-4.88
378.47	6.48
378.68	-9.11
378.89	-3.69
379.101	-12.29
379.311	-34.69
379.521	-66.28
379.732	-50.72
379.942	-57.05
380.152	-70.41
380.362	-40.97
380.572	-19.61
380.783	-3
380.993	11.68
381.203	27.45
381.413	45.15
381.623	42.14
381.833	30.74
382.043	19.17
382.253	6.11
382.463	-0.78
382.674	-5.87
382.884	-19.43
383.094	-20.78
383.304	-8.32
383.514	-5.13
383.724	6.31
383.934	-0.44
384.144	-15.3
384.353	-30.53
384.563	-30.56
384.773	-24.3
384.983	-28.14
385.193	-0.44
385.403	10.57
385.613	7.56
385.823	-9.93
386.033	-0.18
386.242	-10.67
386.452	-17.52
386.662	-27.6
386.872	-7.95
387.082	-14.19
387.291	-20.84
387.501	-18.15
387.711	-9.39
387.921	-18.22
388.13	-16.95
388.34	-1.87
388.55	-7.73
388.759	-8.89
388.969	-0.98
389.179	-2.89
389.388	-7.36
389.598	2.85
389.807	-3.1
390.017	-13.77
390.227	-8.81
390.436	-13.07
390.646	-15.67
390.855	-9.11
391.065	-5.84
391.274	-9.16
391.484	-11.01
391.693	-10.74
391.903	-11.58
392.112	-6.28
392.322	-3.96
392.531	2.18
392.74	5
392.95	2.91
393.159	1.81
393.369	2.83
393.578	1.28
393.787	-1.93
393.997	-2.03
394.206	-4.42
394.415	-6.02
394.625	-7.21
394.834	-7.99
395.043	-6.9
395.252	-4.43
395.462	-1.71
395.671	0.61
395.88	1.46
396.089	3.11
396.298	1.16
396.508	-0.03
396.717	-1.4
396.926	0.07
397.135	-1.37
397.344	-1.23
397.553	-0.59
397.762	1.49
397.971	0.82
398.181	1.46
398.39	1.15
398.599	0.78
398.808	-0.04
399.017	0.71
399.226	2.17
399.435	3.55
399.644	4.12
399.853	3.43
400.062	2.79
400.27	2
400.479	1.26
400.688	0.13
400.897	0.56
401.106	0.76
401.315	0.2
401.524	0.13
401.733	1.01
401.941	1.02
402.15	1.12
402.359	1.3
402.568	2.03
402.777	1.94
402.985	2.12
403.194	1.94
403.403	1.97
403.612	1.21
403.82	0.94
404.029	1.19
404.238	0.93
404.446	1.11
404.655	1.03
404.864	1
405.072	0.41
405.281	0.86
405.489	0.56
405.698	0.79
405.906	0.86
406.115	0.97
406.324	0.86
406.532	1.12
406.741	1.3
406.949	1.38
407.158	1.37
407.366	1.33
407.574	1.2
407.783	1.06
407.991	0.88
408.2	0.99
408.408	1.01
408.617	0.89
408.825	0.78
409.033	0.94
409.242	1.04
409.45	1.14
409.658	1.09
409.867	1.3
410.075	1.11
410.283	0.95
410.491	0.85
410.7	0.85
410.908	0.95
411.116	1.48
411.324	1.4
411.533	1.28
411.741	1.55
411.949	1.42
412.157	0.88
412.365	0.96
412.573	1.08
412.781	1.1
412.99	0.98
413.198	1.32
413.406	1.36
413.614	1.34
413.822	1.04
414.03	1.04
414.238	0.79
414.446	0.84
414.654	0.65
414.862	0.83
415.07	0.87
415.278	1.01
415.486	0.87
415.694	1.12
415.902	1.01
416.109	0.96
416.317	0.98
416.525	0.87
416.733	0.83
416.941	0.91
417.149	0.87
417.357	0.78
417.564	0.97
417.772	1.1
417.98	1.09
418.188	1.09
418.395	1.2
418.603	1.27
418.811	0.88
419.019	0.82
419.226	1.02
419.434	1.06
419.642	0.97
419.849	1.11
420.057	1.14
420.265	1.16
420.472	1.03
420.68	1.04
420.887	0.99
421.095	1.16
421.302	1.04
421.51	1.19
421.717	1.23
421.925	1.44
422.132	1.21
422.34	1.08
422.547	1.13
422.755	1.03
422.962	0.79
423.17	0.76
423.377	0.8
423.585	0.8
423.792	0.72
423.999	0.87
424.207	0.95
424.414	1.19
424.621	1.08
424.829	1.12
425.036	1.09
425.243	1.07
425.451	0.85
425.658	0.61
425.865	0.81
426.072	0.91
426.28	1.34
426.487	1.32
426.694	1.58
426.901	1.4
427.108	1.26
427.315	0.9
427.523	1.12
427.73	0.98
427.937	0.92
428.144	0.83
428.351	0.79
428.558	0.93
428.765	0.99
428.972	0.97
429.179	1.2
429.386	1.51
429.593	1.17
429.8	1.05
430.007	1.2
430.214	1.19
430.421	0.93
430.628	0.84
430.835	0.86
431.042	1.07
431.249	1.13
431.456	1.16
431.662	1.24
431.869	1.45
432.076	1.37
432.283	1.35
432.49	1.33
432.697	1.33
432.903	1.06
433.11	1.04
433.317	1.09
433.524	1.34
433.73	1.31
433.937	1.56
434.144	1.4
434.35	1.33
434.557	1.07
434.764	1.09
434.97	0.96
435.177	1.05
435.384	1
435.59	1.06
435.797	1.31
436.003	1.35
436.21	1.43
436.416	1.43
436.623	1.48
436.829	1.38
437.036	1.45
437.242	1.42
437.449	1.42
437.655	1.37
437.862	1.49
438.068	1.44
438.275	1.47
438.481	1.67
438.687	1.63
438.894	1.47
439.1	1.57
439.307	1.82
439.513	1.65
439.719	1.75
439.926	1.9
440.132	1.81
440.338	1.41
440.544	1.6
440.751	1.57
440.957	1.57
441.163	1.49
441.369	1.74
441.575	1.39
441.782	1.32
441.988	1.2
442.194	1.27
442.4	1.15
442.606	1.53
442.812	1.64
443.018	1.73
443.224	1.72
443.431	1.92
443.637	1.71
443.843	1.6
444.049	1.58
444.255	1.52
444.461	1.5
444.667	1.41
444.873	1.58
445.079	1.58
445.284	1.65
445.49	1.37
445.696	1.26
445.902	1.17
446.108	1.05
446.314	1.01
446.52	1.14
446.726	1.45
446.931	1.45
447.137	1.57
447.343	1.64
447.549	1.59
447.755	1.41
447.96	1.46
448.166	1.36
448.372	1.27
448.578	1.31
448.783	1.36
448.989	1.41
449.195	1.65
449.4	1.7
449.606	1.7
449.812	1.63
450.017	1.59
450.223	1.41
450.428	1.3
450.634	1.44
450.84	1.61
451.045	1.52
451.251	1.45
451.456	1.76
451.662	1.78
451.867	1.8
452.073	1.81
452.278	1.98
452.483	2.04
452.689	1.95
452.894	1.85
453.1	1.89
453.305	1.7
453.51	1.48
453.716	1.32
453.921	1.39
454.127	1.37
454.332	1.44
454.537	1.4
454.742	1.48
454.948	1.46
455.153	1.51
455.358	1.59
455.563	1.79
455.769	1.98
455.974	1.96
456.179	1.87
456.384	1.84
456.589	1.73
456.795	1.52
457	1.49
457.205	1.73
457.41	1.65
457.615	1.65
457.82	1.76
458.025	1.81
458.23	1.57
458.435	1.74
458.64	1.6
458.845	1.71
459.05	1.74
459.255	1.77
459.46	1.7
459.665	1.82
459.87	1.78
460.075	1.75
460.28	1.81
460.485	1.89
460.69	1.9
460.895	1.73
