Data from Ofra_PS_T2_1A_8HS23_Reflection_2.txt Node
Date: Wed Jul 21 18:16:07 EDT 2021
User: Adam
Spectrometer: FLMT01687
Trigger mode: 0
Integration Time (sec): 1.100000E0
Scans to average: 2
Electric dark correction enabled: true
Nonlinearity correction enabled: false
Boxcar width: 2
XAxis mode: Wavelengths
Number of Pixels in Spectrum: 3648
>>>>>Begin Spectral Data<<<<<
179.494	565.2
179.716	646.59
179.937	577.32
180.158	547.12
180.38	741.56
180.601	188.12
180.823	43.35
181.044	-111.61
181.265	-100.37
181.486	51.07
181.708	68.24
181.929	217.35
182.15	-293.66
182.372	8.61
182.593	-25.61
182.814	-14.72
183.035	-26.87
183.257	-15.89
183.478	-86.49
183.699	-50.61
183.92	-70.75
184.141	17.66
184.363	-0.69
184.584	15.15
184.805	32.8
185.026	80.48
185.247	45.94
185.468	11.69
185.689	23.3
185.91	18
186.132	-5.1
186.353	2.64
186.574	52.95
186.795	45.91
187.016	20.96
187.237	8.83
187.458	-14.04
187.679	-49.88
187.9	-36.3
188.121	-19.32
188.342	-5.88
188.563	43.95
188.784	117.84
189.005	119.67
189.226	129.21
189.447	91.29
189.667	2.18
189.888	-331.77
190.109	-1233.12
190.33	-662.9
190.551	-1145.58
190.772	-293.1
190.993	-217.3
191.214	-179.15
191.434	-96.27
191.655	0.18
191.876	27.44
192.097	-33.3
192.318	-91.91
192.538	-139.44
192.759	-120.63
192.98	-68.15
193.201	-24.24
193.421	-1.78
193.642	12.04
193.863	3.38
194.083	-28.77
194.304	-20.89
194.525	-20.64
194.745	-56.72
194.966	-78.31
195.187	-55.26
195.407	-90.87
195.628	-170.38
195.848	-147.38
196.069	-105.47
196.29	-70.98
196.51	-87.26
196.731	-66.88
196.951	-90.8
197.172	-131.11
197.392	-145.98
197.613	-118.83
197.833	-122.68
198.054	-112.43
198.274	-56.15
198.495	-93.37
198.715	-65.38
198.936	-81.48
199.156	-53.25
199.377	-127.24
199.597	-96.55
199.817	-110.64
200.038	-53.47
200.258	-126.16
200.479	-55.29
200.699	-42.67
200.919	-6.38
201.14	-26.85
201.36	-11.91
201.58	19.44
201.801	46.06
202.021	14.15
202.241	9.93
202.461	8.58
202.682	-83.25
202.902	-156.58
203.122	-77.04
203.342	-43.74
203.563	-11.03
203.783	22.09
204.003	-13.46
204.223	-20.31
204.443	17.49
204.663	-7.34
204.884	-20.93
205.104	10.01
205.324	33.32
205.544	28.35
205.764	43.82
205.984	54.57
206.204	65.5
206.424	46.39
206.644	11.37
206.864	-2.77
207.084	-49.63
207.304	-60.85
207.525	-152.34
207.745	-45.87
207.964	15.02
208.184	-12.01
208.404	-36.62
208.624	-40.07
208.844	-53.08
209.064	-257.49
209.284	-277.85
209.504	-165.2
209.724	-53.14
209.944	-24.84
210.164	-1.65
210.384	6.43
210.604	4.42
210.823	-37.24
211.043	-43.2
211.263	-38.66
211.483	-27.26
211.703	-64.29
211.922	-48.81
212.142	-1.28
212.362	12.81
212.582	-11.02
212.801	-6.13
213.021	-17
213.241	-42.04
213.461	-68.34
213.68	-75.71
213.9	-41.7
214.12	-5.27
214.339	-67.84
214.559	-55.59
214.779	-11.01
214.998	-22.77
215.218	-80.35
215.438	-34.49
215.657	-37.29
215.877	-42.36
216.096	-5.84
216.316	16.75
216.535	4.8
216.755	16.26
216.974	-33.74
217.194	-119.66
217.413	-112.69
217.633	-122.73
217.852	-248.46
218.072	-124.98
218.291	-52.88
218.511	-21.44
218.73	-35.8
218.95	-23.46
219.169	-23.38
219.389	-79.38
219.608	-56.33
219.827	-43.23
220.047	-17.37
220.266	4.37
220.485	29.9
220.705	36.68
220.924	24.68
221.143	34.9
221.363	12.11
221.582	2.47
221.801	7
222.021	19.12
222.24	-32.89
222.459	62.22
222.678	41.43
222.897	-9.26
223.117	-43.19
223.336	4.03
223.555	-16.69
223.774	48.99
223.993	45.1
224.213	78.35
224.432	38.07
224.651	42.45
224.87	8.21
225.089	17.45
225.308	23.22
225.527	40.36
225.746	41.63
225.965	35.84
226.184	28.82
226.404	26.33
226.623	6.79
226.842	14.45
227.061	39.89
227.28	41.69
227.499	30.95
227.718	35.05
227.936	13.02
228.155	9.16
228.374	3.82
228.593	9.9
228.812	-5.78
229.031	-2.82
229.25	-46.42
229.469	-69.2
229.688	-69.89
229.907	-22.73
230.125	-7.72
230.344	5.64
230.563	29.19
230.782	42.06
231.001	-28.09
231.22	-19.95
231.438	15.23
231.657	25.3
231.876	2.4
232.095	47.07
232.313	43.03
232.532	21.45
232.751	-15.34
232.969	5.81
233.188	-39.82
233.407	27.03
233.625	33.62
233.844	19.41
234.063	11.56
234.281	32.95
234.5	25.32
234.719	1.61
234.937	14.78
235.156	30.19
235.374	17.35
235.593	-6.25
235.811	7.6
236.03	7.15
236.249	-42.14
236.467	-42.21
236.686	-1.26
236.904	3.71
237.123	-25.3
237.341	-17.21
237.559	-8.48
237.778	-23.18
237.996	-51.03
238.215	10.98
238.433	10.96
238.652	11.18
238.87	-25.46
239.088	-14.05
239.307	-35.68
239.525	-35.02
239.743	-48.73
239.962	-15.13
240.18	-18.38
240.398	-20.16
240.617	-18.7
240.835	16.49
241.053	26.45
241.271	72.21
241.49	52.76
241.708	60.16
241.926	31.39
242.144	17.64
242.363	-30.26
242.581	-49.88
242.799	-32.33
243.017	-0.5
243.235	-14.7
243.453	-9.61
243.672	-5.19
243.89	-14.72
244.108	-36.98
244.326	-23.32
244.544	-13.79
244.762	-15.01
244.98	-5.45
245.198	14.43
245.416	21.7
245.634	4.69
245.852	5.4
246.07	-18.92
246.288	-24.34
246.506	-77.11
246.724	-45.11
246.942	-33.22
247.16	5.19
247.378	12.12
247.596	34.71
247.814	33.39
248.032	-0.34
248.25	-5.97
248.468	-1.81
248.685	16.4
248.903	28.11
249.121	30.63
249.339	19.16
249.557	12.86
249.775	9.89
249.992	-44.42
250.21	-31.04
250.428	-22.04
250.646	-47.77
250.863	-84.94
251.081	-50.45
251.299	-40.37
251.517	-33.6
251.734	-4.01
251.952	2.67
252.17	1.42
252.387	11.94
252.605	1.71
252.823	-2.26
253.04	20
253.258	30.23
253.475	21.91
253.693	43.65
253.911	44.52
254.128	48.28
254.346	39.32
254.563	21.02
254.781	-1.98
254.998	-21.66
255.216	-37.34
255.433	-19.57
255.651	-0.14
255.868	24.24
256.086	43.01
256.303	25.42
256.521	35.39
256.738	9.01
256.956	-24.83
257.173	-23.96
257.39	-25.34
257.608	-72.8
257.825	19.45
258.043	57.24
258.26	46.32
258.477	73.45
258.695	85.14
258.912	25.94
259.129	26.81
259.346	-3.47
259.564	-39.91
259.781	-67.64
259.998	-30.6
260.216	-22.15
260.433	11.28
260.65	7.94
260.867	31.16
261.084	-0.11
261.302	-20.49
261.519	-18.14
261.736	-30.89
261.953	-59.79
262.17	-14.84
262.387	-50.58
262.604	-60.65
262.822	-57.62
263.039	-38.56
263.256	-75.71
263.473	-11.6
263.69	-14.75
263.907	22.77
264.124	37.41
264.341	38.19
264.558	21.7
264.775	28.41
264.992	11.29
265.209	7.01
265.426	35.4
265.643	35.24
265.86	51.61
266.077	50.93
266.294	36.03
266.51	-15.25
266.727	-25.99
266.944	-28
267.161	-18.92
267.378	0.35
267.595	30.38
267.812	33.39
268.028	10.06
268.245	13.58
268.462	-13.46
268.679	-36.67
268.896	4.23
269.112	6.53
269.329	3.32
269.546	10.45
269.763	16.44
269.979	3.67
270.196	-6.9
270.413	-25.31
270.629	-40.43
270.846	-37.83
271.063	-28.61
271.279	-35.5
271.496	-39.02
271.712	-10.11
271.929	5.27
272.146	-21.43
272.362	-5.05
272.579	35.57
272.795	30.61
273.012	11.59
273.228	24.11
273.445	-5.53
273.661	-44.67
273.878	-63.46
274.094	-58.71
274.311	-95.92
274.527	-27.86
274.744	-17.03
274.96	-32.92
275.177	-18.08
275.393	-2.22
275.609	-1.77
275.826	16.75
276.042	30.24
276.259	6.77
276.475	17.34
276.691	13.62
276.908	-18.06
277.124	-1.29
277.34	15.54
277.557	13.06
277.773	-1.19
277.989	1.43
278.205	-11.27
278.422	4.41
278.638	3.56
278.854	26.64
279.07	42.82
279.286	34.74
279.503	-5.32
279.719	-26.95
279.935	-28.07
280.151	-52.49
280.367	-27.11
280.583	-27.76
280.799	-11.6
281.016	-47.89
281.232	-9.58
281.448	-5.24
281.664	24.15
281.88	2.8
282.096	20.57
282.312	30.38
282.528	35.37
282.744	12.77
282.96	31.1
283.176	13.66
283.392	6.7
283.608	-2.54
283.824	2.84
284.04	8.2
284.256	24.02
284.471	9.71
284.687	7.62
284.903	7.3
285.119	18.23
285.335	-0.97
285.551	18.02
285.767	10.83
285.982	11.85
286.198	-20.33
286.414	15.87
286.63	14.4
286.846	30.71
287.061	7.42
287.277	31.56
287.493	7.44
287.709	12.89
287.924	-8.27
288.14	24.48
288.356	20.03
288.571	29.8
288.787	8.44
289.003	18.86
289.218	0.96
289.434	-37.31
289.65	-20.9
289.865	-31.9
290.081	-25.99
290.296	-22.23
290.512	1.52
290.727	-32.67
290.943	-18.58
291.159	-28.64
291.374	-25.52
291.59	-48.84
291.805	-30.88
292.021	-25.17
292.236	-21.58
292.451	-4.75
292.667	12.82
292.882	22.38
293.098	16.24
293.313	-4.76
293.529	-25.08
293.744	-30.66
293.959	-37.48
294.175	-19.45
294.39	21.04
294.605	36.02
294.821	46.01
295.036	54.59
295.251	56.99
295.467	15.47
295.682	-13.64
295.897	-45.09
296.112	-73.51
296.328	-70.01
296.543	-63.74
296.758	-42.54
296.973	-9.09
297.188	27.76
297.404	4.42
297.619	-7.75
297.834	-26.46
298.049	-58.6
298.264	-71.83
298.479	-15.42
298.694	-1.87
298.909	21.69
299.125	29.88
299.34	34.73
299.555	6.57
299.77	3.19
299.985	-45.39
300.2	-90.28
300.415	-105.85
300.63	-65.54
300.845	-56.34
301.06	-42.93
301.275	3.5
301.49	3.45
301.704	-12.24
301.919	-29.26
302.134	-40.15
302.349	-56.51
302.564	-91.21
302.779	-102.14
302.994	-59.01
303.209	-13.12
303.423	37.11
303.638	51.96
303.853	13.59
304.068	9.36
304.283	4.55
304.497	-5.9
304.712	-17.04
304.927	-8.08
305.142	-23.05
305.356	-9.83
305.571	-13.68
305.786	-19.7
306	-43.34
306.215	-37.61
306.43	-70.43
306.644	-94.03
306.859	-55.73
307.074	-7.04
307.288	-24.36
307.503	-32.3
307.717	-11.11
307.932	-18.01
308.147	-30.75
308.361	-11.11
308.576	-6.19
308.79	-55.98
309.005	-41.38
309.219	-17.51
309.434	-25.72
309.648	-18.12
309.863	14.71
310.077	11.89
310.292	6.4
310.506	18.58
310.72	18.56
310.935	25.62
311.149	27.45
311.364	38.38
311.578	38.88
311.792	34.93
312.007	33.64
312.221	9.6
312.435	3.12
312.649	-14.2
312.864	3.38
313.078	16.15
313.292	96.38
313.507	89.97
313.721	183.79
313.935	76.45
314.149	51.47
314.363	25.8
314.578	21.41
314.792	4.24
315.006	-5.11
315.22	14.09
315.434	15.85
315.648	23.53
315.862	24.29
316.077	23.21
316.291	15.83
316.505	10.3
316.719	-1.46
316.933	-1.8
317.147	-2.04
317.361	-63.8
317.575	-69.07
317.789	-92.66
318.003	-178.28
318.217	-162.93
318.431	-65.92
318.645	-16.39
318.859	-0.08
319.073	23.32
319.287	19.64
319.5	-1.86
319.714	-47.3
319.928	-70.1
320.142	-92.85
320.356	-29.23
320.57	14.43
320.784	6.68
320.997	-40.35
321.211	-19.02
321.425	-76.96
321.639	-101.8
321.853	-45.44
322.066	-16.53
322.28	-33.87
322.494	-21.44
322.707	-11.4
322.921	-17.03
323.135	-14.24
323.349	2.39
323.562	-14.43
323.776	-22.64
323.989	-27.66
324.203	-28.24
324.417	-28.11
324.63	-49.41
324.844	-43.33
325.057	-44.28
325.271	-35
325.485	-7.38
325.698	22.26
325.912	28.29
326.125	10.59
326.339	10.22
326.552	-12.01
326.766	-22.18
326.979	-7.84
327.193	35.5
327.406	22.94
327.619	12.16
327.833	24.76
328.046	-11.19
328.26	-52.4
328.473	-35.98
328.686	-51.22
328.9	-51.36
329.113	-11.91
329.326	-37.87
329.54	-20.04
329.753	-34.21
329.966	-50.34
330.179	-69.22
330.393	-26.24
330.606	-13.24
330.819	8.72
331.032	21.86
331.246	27.96
331.459	49.85
331.672	33.5
331.885	16.7
332.098	-7.22
332.311	-23.87
332.525	-70.65
332.738	-71.67
332.951	-33.47
333.164	-6.58
333.377	2.14
333.59	16.98
333.803	31.78
334.016	27.36
334.229	31.26
334.442	39.93
334.655	53.78
334.868	50.03
335.081	43.85
335.294	30.42
335.507	23.75
335.72	15.3
335.933	7.6
336.146	-12.46
336.359	-19.91
336.572	-54.61
336.785	-89.92
336.997	-77.42
337.21	-32.02
337.423	-25.54
337.636	-14.33
337.849	10.94
338.062	-2.93
338.274	-5.34
338.487	-21.31
338.7	-21.64
338.913	-59.22
339.125	-74.73
339.338	-115.33
339.551	-96.84
339.763	-55.01
339.976	-18.67
340.189	15.28
340.402	11.68
340.614	14.43
340.827	10.79
341.039	8.57
341.252	-2.72
341.465	12
341.677	5.95
341.89	-26.33
342.102	-15.03
342.315	-31.7
342.527	-50.87
342.74	-34.82
342.952	-13.03
343.165	-25.77
343.377	-0.85
343.59	-11.55
343.802	-4.46
344.015	-12.69
344.227	6.5
344.44	9.5
344.652	26.59
344.864	13.1
345.077	38.76
345.289	32.82
345.502	25.46
345.714	4.11
345.926	17.7
346.139	4.66
346.351	-0.07
346.563	11.18
346.775	21.23
346.988	8.65
347.2	-0.87
347.412	-28.28
347.624	-37.76
347.837	-54.21
348.049	-36.25
348.261	8.1
348.473	4.57
348.685	1.25
348.897	4.98
349.11	-15.16
349.322	-42.77
349.534	-19.85
349.746	-24.42
349.958	-20.57
350.17	-7.65
350.382	-11.68
350.594	-16.73
350.806	-12.92
351.018	-4.19
351.23	-33.19
351.442	-53.32
351.654	-45.34
351.866	-16.81
352.078	-12.03
352.29	18
352.502	22.29
352.714	23.25
352.926	3.33
353.138	8.89
353.35	-1.03
353.561	0.99
353.773	-15.17
353.985	-4.9
354.197	-15.86
354.409	-12.66
354.621	-13.33
354.832	0.43
355.044	-3.11
355.256	-1.31
355.468	8.41
355.679	-2.85
355.891	-8.33
356.103	-24.5
356.314	-18.09
356.526	-29.27
356.738	-22.13
356.949	-27.53
357.161	-0.98
357.373	-5.72
357.584	-7.59
357.796	7.81
358.008	5.12
358.219	20.48
358.431	20.56
358.642	34.69
358.854	22.33
359.065	14.96
359.277	-23.61
359.488	-32.09
359.7	-60.44
359.911	-60.02
360.123	-35.87
360.334	-41.93
360.546	-51.76
360.757	-51.07
360.969	-45.23
361.18	-32.19
361.391	-12.05
361.603	-14.64
361.814	-12.39
362.025	-11.41
362.237	-17.13
362.448	-5.73
362.659	4.1
362.871	0.89
363.082	-4.49
363.293	-10.24
363.504	-18.05
363.716	-36.57
363.927	-23.33
364.138	-35.5
364.349	-47.18
364.56	-40.58
364.772	-32.86
364.983	-13.49
365.194	4.38
365.405	22.62
365.616	38.85
365.827	39.43
366.038	12.76
366.25	-12.12
366.461	-48.09
366.672	-40.55
366.883	-17.75
367.094	-12.38
367.305	-15.3
367.516	-9.78
367.727	-30.04
367.938	-40.92
368.149	-43.39
368.36	-19.72
368.571	-14.36
368.781	-24.91
368.992	-24.81
369.203	-29.42
369.414	-44.6
369.625	-53.53
369.836	-40.04
370.047	-65.74
370.258	-52.93
370.468	-54.27
370.679	-58.83
370.89	-51.7
371.101	-40.33
371.312	-43.09
371.522	-44.11
371.733	-29.81
371.944	-28.19
372.155	-18.07
372.365	-27.89
372.576	-23.6
372.787	-27.48
372.997	-46.01
373.208	-41.69
373.419	-11.77
373.629	-43.73
373.84	-44.98
374.05	-51.81
374.261	-37.77
374.472	-52.46
374.682	8
374.893	14.43
375.103	39.98
375.314	34.16
375.524	29.86
375.735	27.62
375.945	29.16
376.156	11.61
376.366	8.08
376.577	15.82
376.787	-1.57
376.997	3.84
377.208	1.79
377.418	-7.49
377.629	-2.07
377.839	1.69
378.049	-2.42
378.26	8.68
378.47	18.27
378.68	6.91
378.89	5.52
379.101	2.97
379.311	-18.23
379.521	-42.21
379.732	-33.85
379.942	-41.44
380.152	-55.43
380.362	-25.01
380.572	-18.51
380.783	-20.72
380.993	-8.24
381.203	3.84
381.413	8.2
381.623	4.94
381.833	12.63
382.043	2.56
382.253	-6.42
382.463	-12.98
382.674	-19.64
382.884	-35.37
383.094	-35.01
383.304	-26.92
383.514	-19.63
383.724	-6.56
383.934	-5.45
384.144	-12.77
384.353	-17.7
384.563	-13.28
384.773	-13.73
384.983	-13.42
385.193	0.2
385.403	-0.73
385.613	-11.8
385.823	-21.8
386.033	-19.9
386.242	-22.15
386.452	-23.85
386.662	-20.99
386.872	-4.88
387.082	-2.82
387.291	-4.87
387.501	-2.94
387.711	1.35
387.921	-9.55
388.13	-10.47
388.34	-2.51
388.55	-7.48
388.759	-11.77
388.969	-5.95
389.179	-9.92
389.388	-14.19
389.598	-5
389.807	-9.03
390.017	-13.55
390.227	-8.48
390.436	-10.25
390.646	-9.43
390.855	-6.26
391.065	-3.4
391.274	-5.17
391.484	-6.53
391.693	-5.25
391.903	-3.55
392.112	0.1
392.322	2.42
392.531	6.54
392.74	6.81
392.95	2.88
393.159	1.73
393.369	1.34
393.578	-0.03
393.787	-2.26
393.997	-0.76
394.206	-2.87
394.415	-2.73
394.625	-2.3
394.834	-2.72
395.043	-0.85
395.252	1.24
395.462	2.81
395.671	4.64
395.88	5.79
396.089	6.52
396.298	4.55
396.508	4.46
396.717	2.98
396.926	3.18
397.135	2.12
397.344	2.62
397.553	2.26
397.762	3.51
397.971	2.72
398.181	2.83
398.39	2.52
398.599	2.7
398.808	2.59
399.017	3.64
399.226	4.5
399.435	5.69
399.644	5.64
399.853	4.79
400.062	4.29
400.27	4.12
400.479	3.6
400.688	2.91
400.897	3.25
401.106	3.42
401.315	3.37
401.524	3.38
401.733	4.11
401.941	4.73
402.15	5.03
402.359	4.67
402.568	5.09
402.777	5.1
402.985	4.74
403.194	4.2
403.403	4.28
403.612	3.75
403.82	3.54
404.029	3.71
404.238	3.71
404.446	3.96
404.655	3.95
404.864	3.99
405.072	3.73
405.281	4.05
405.489	3.86
405.698	3.9
405.906	3.8
406.115	3.77
406.324	3.52
406.532	3.58
406.741	3.79
406.949	3.81
407.158	3.84
407.366	3.98
407.574	4.01
407.783	3.86
407.991	3.77
408.2	3.9
408.408	3.88
408.617	3.73
408.825	3.7
409.033	3.79
409.242	3.81
409.45	3.66
409.658	3.57
409.867	3.55
410.075	3.49
410.283	3.17
410.491	3.2
410.7	3.28
410.908	3.31
411.116	3.46
411.324	3.65
411.533	3.62
411.741	3.72
411.949	3.66
412.157	3.34
412.365	3.28
412.573	3.31
412.781	3.27
412.99	3.27
413.198	3.56
413.406	3.66
413.614	3.77
413.822	3.61
414.03	3.55
414.238	3.36
414.446	3.38
414.654	3.06
414.862	3.28
415.07	3.37
415.278	3.57
415.486	3.22
415.694	3.4
415.902	3.15
416.109	2.92
416.317	2.88
416.525	2.86
416.733	2.86
416.941	2.96
417.149	3.1
417.357	2.97
417.564	3.23
417.772	3.38
417.98	3.37
418.188	3.4
418.395	3.47
418.603	3.6
418.811	3.3
419.019	3.27
419.226	3.39
419.434	3.53
419.642	3.33
419.849	3.44
420.057	3.46
420.265	3.37
420.472	3.13
420.68	3.09
420.887	3.02
421.095	2.97
421.302	2.94
421.51	3.08
421.717	3.15
421.925	3.19
422.132	3
422.34	2.75
422.547	2.77
422.755	2.64
422.962	2.6
423.17	2.72
423.377	2.95
423.585	2.95
423.792	2.86
423.999	2.87
424.207	2.85
424.414	2.98
424.621	2.91
424.829	2.98
425.036	3.05
425.243	3.07
425.451	2.65
425.658	2.48
425.865	2.7
426.072	2.72
426.28	2.98
426.487	3.14
426.694	3.24
426.901	2.99
427.108	2.99
427.315	2.83
427.523	3.09
427.73	3.05
427.937	3.19
428.144	3.02
428.351	2.83
428.558	2.96
428.765	2.88
428.972	2.7
429.179	2.89
429.386	3.2
429.593	2.86
429.8	2.93
430.007	3.21
430.214	3.32
430.421	3.21
430.628	3.18
430.835	3.01
431.042	3.08
431.249	3.02
431.456	3.06
431.662	3.19
431.869	3.48
432.076	3.41
432.283	3.54
432.49	3.47
432.697	3.5
432.903	3.3
433.11	3.27
433.317	3.21
433.524	3.41
433.73	3.39
433.937	3.58
434.144	3.38
434.35	3.37
434.557	3.17
434.764	3.18
434.97	3.1
435.177	3.42
435.384	3.4
435.59	3.51
435.797	3.73
436.003	3.81
436.21	3.77
436.416	3.88
436.623	3.92
436.829	3.94
437.036	4.05
437.242	4.02
437.449	3.88
437.655	4.02
437.862	3.94
438.068	3.92
438.275	4.06
438.481	4.27
438.687	4.17
438.894	4.07
439.1	4.04
439.307	4.14
439.513	4.05
439.719	4.04
439.926	4.25
440.132	4.3
440.338	4.14
440.544	4.26
440.751	4.24
440.957	4.21
441.163	4.1
441.369	4.26
441.575	4.03
441.782	4.06
441.988	3.98
442.194	4.14
442.4	4.09
442.606	4.38
442.812	4.49
443.018	4.59
443.224	4.57
443.431	4.61
443.637	4.42
443.843	4.36
444.049	4.35
444.255	4.3
444.461	4.4
444.667	4.34
444.873	4.46
445.079	4.48
445.284	4.58
445.49	4.28
445.696	4.29
445.902	4.23
446.108	4.17
446.314	4.04
446.52	4.15
446.726	4.36
446.931	4.33
447.137	4.44
447.343	4.55
447.549	4.54
447.755	4.4
447.96	4.53
448.166	4.38
448.372	4.36
448.578	4.42
448.783	4.5
448.989	4.55
449.195	4.73
449.4	4.73
449.606	4.73
449.812	4.7
450.017	4.7
450.223	4.66
450.428	4.57
450.634	4.73
450.84	4.86
451.045	4.78
451.251	4.66
451.456	4.97
451.662	5.01
451.867	4.98
452.073	4.95
452.278	5.1
452.483	5.16
452.689	4.98
452.894	5
453.1	5
453.305	4.93
453.51	4.75
453.716	4.75
453.921	4.72
454.127	4.69
454.332	4.7
454.537	4.72
454.742	4.79
454.948	4.75
455.153	4.86
455.358	4.92
455.563	4.96
455.769	5.05
455.974	5.08
456.179	4.94
456.384	4.92
456.589	4.94
456.795	4.74
457	4.76
457.205	5.06
457.41	5.03
457.615	4.96
457.82	5.09
458.025	5.02
458.23	4.78
458.435	4.86
458.64	4.84
458.845	4.88
459.05	4.91
459.255	5
459.46	5.05
459.665	5.05
459.87	5.15
460.075	5.16
460.28	5.19
460.485	5.13
460.69	5.13
460.895	4.94
461.099	4.94
461.304	5.01
461.509	5.04
461.714	4.99
461.919	5.14
462.123	5.03
