Data from Ofra_PS_T2_1A_4HS13_Reflection_2.txt Node
Date: Wed Jul 21 18:06:22 EDT 2021
User: Adam
Spectrometer: FLMT01687
Trigger mode: 0
Integration Time (sec): 1.100000E0
Scans to average: 2
Electric dark correction enabled: true
Nonlinearity correction enabled: false
Boxcar width: 2
XAxis mode: Wavelengths
Number of Pixels in Spectrum: 3648
>>>>>Begin Spectral Data<<<<<
179.494	568.6
179.716	632.94
179.937	615.47
180.158	562.19
180.38	893.59
180.601	271.13
180.823	67.2
181.044	-148.46
181.265	52.02
181.486	-1.14
181.708	80.08
181.929	628.06
182.15	-234.86
182.372	51.1
182.593	-71.69
182.814	-5.98
183.035	30.48
183.257	-9.4
183.478	-96.12
183.699	-25.22
183.92	-60.78
184.141	-81.73
184.363	-145.69
184.584	-78.87
184.805	-66.09
185.026	-21.82
185.247	6.37
185.468	-2.65
185.689	3.42
185.91	4.82
186.132	-4.3
186.353	-24.07
186.574	45.09
186.795	31.92
187.016	-19.69
187.237	-17.83
187.458	-24.25
187.679	-58.08
187.9	-50.4
188.121	-50.21
188.342	-58.61
188.563	-10.7
188.784	6
189.005	-11.76
189.226	59.58
189.447	-18.97
189.667	-273.18
189.888	-538.79
190.109	-1587.99
190.33	-970.81
190.551	-1509.51
190.772	-402.85
190.993	-349.82
191.214	-269.6
191.434	-158.5
191.655	-31.13
191.876	-45.6
192.097	-109.92
192.318	-204.46
192.538	-317.23
192.759	-250.2
192.98	-140.53
193.201	-60.85
193.421	-43.77
193.642	-15.47
193.863	-1.93
194.083	-18.45
194.304	-34.89
194.525	-24.32
194.745	-50.89
194.966	-85.25
195.187	-85.99
195.407	-133.34
195.628	-174.85
195.848	-157.88
196.069	-150.25
196.29	-105.19
196.51	-93.97
196.731	-89.45
196.951	-83.53
197.172	-109.14
197.392	-123.72
197.613	-105.64
197.833	-136.28
198.054	-125.22
198.274	-74.36
198.495	-94.12
198.715	-61.28
198.936	-83.71
199.156	-89.3
199.377	-186.82
199.597	-162.08
199.817	-179.37
200.038	-87.14
200.258	-136.92
200.479	-50.9
200.699	-45.89
200.919	-4.09
201.14	-59.09
201.36	-72.7
201.58	-16.06
201.801	4.66
202.021	-27.26
202.241	-34.21
202.461	-34.43
202.682	-180.92
202.902	-257.95
203.122	-169.01
203.342	-147.17
203.563	-83.85
203.783	-46.97
204.003	-91.51
204.223	-107.65
204.443	-0.37
204.663	-53.67
204.884	-16.24
205.104	3.22
205.324	15.61
205.544	-25.53
205.764	22.73
205.984	25.84
206.204	39.11
206.424	27.85
206.644	-7.38
206.864	-29.73
207.084	-123.55
207.304	-123
207.525	-263.98
207.745	-137.1
207.964	-67.34
208.184	-110.89
208.404	-155.42
208.624	-148.34
208.844	-157.04
209.064	-493.95
209.284	-424.81
209.504	-203.52
209.724	-59.02
209.944	-29.42
210.164	5.82
210.384	17.75
210.604	13.68
210.823	-45.62
211.043	-73.63
211.263	-59.69
211.483	-75.3
211.703	-131.54
211.922	-127.47
212.142	-50.17
212.362	-35.75
212.582	-26.75
212.801	-20.11
213.021	-32.41
213.241	-66.35
213.461	-113.92
213.68	-139.9
213.9	-107.63
214.12	-59.84
214.339	-86.38
214.559	-67.81
214.779	-12.81
214.998	-4.39
215.218	-52.15
215.438	-35.01
215.657	-18.46
215.877	-32.6
216.096	-21.73
216.316	0.74
216.535	-8.81
216.755	-19.92
216.974	-86.03
217.194	-138.48
217.413	-142.11
217.633	-143.11
217.852	-239.88
218.072	-107.42
218.291	-46.76
218.511	-3.44
218.73	-29.87
218.95	-32.54
219.169	-34.4
219.389	-89.39
219.608	-70.89
219.827	-47.24
220.047	-17.17
220.266	-14.69
220.485	0.67
220.705	10.82
220.924	-10.95
221.143	25.42
221.363	10.26
221.582	22.7
221.801	1.97
222.021	3.01
222.24	-112.95
222.459	-106.15
222.678	-104.84
222.897	-121.8
223.117	-167.42
223.336	-120.37
223.555	-70.19
223.774	-49.38
223.993	-43.94
224.213	21.07
224.432	7.41
224.651	31.15
224.87	9.48
225.089	33.25
225.308	9.89
225.527	19.09
225.746	6.91
225.965	1.02
226.184	-39.64
226.404	-5.69
226.623	-33.02
226.842	-32.55
227.061	-17.98
227.28	-12.25
227.499	-37.21
227.718	-10.12
227.936	-17.18
228.155	-8.17
228.374	-15.86
228.593	5.66
228.812	-4.92
229.031	-21.22
229.25	-59.77
229.469	-64.1
229.688	-87.05
229.907	-26.64
230.125	-0.6
230.344	6.65
230.563	17.53
230.782	32.88
231.001	-64.18
231.22	-67.79
231.438	-30.6
231.657	-9.51
231.876	-23.9
232.095	15.96
232.313	22.02
232.532	-7.73
232.751	-57.83
232.969	-82.7
233.188	-157.05
233.407	-88.81
233.625	-56.51
233.844	-91.53
234.063	-77.1
234.281	-55.74
234.5	-64.07
234.719	-61.59
234.937	-27.75
235.156	-8.48
235.374	-0.1
235.593	-27.39
235.811	-36.56
236.03	-46.8
236.249	-95.13
236.467	-79.09
236.686	-18.43
236.904	1.74
237.123	-24
237.341	-12.39
237.559	-9.43
237.778	-39.3
237.996	-87.31
238.215	-37.35
238.433	-29.17
238.652	-48.17
238.87	-47.32
239.088	-30.56
239.307	-21.72
239.525	-30.87
239.743	-52.44
239.962	-35.58
240.18	-58.58
240.398	-110.42
240.617	-118.04
240.835	-95.6
241.053	-85.96
241.271	-45.4
241.49	-24.93
241.708	-78.52
241.926	-112.29
242.144	-115.95
242.363	-152.75
242.581	-192.15
242.799	-104.58
243.017	-49.45
243.235	-47.68
243.453	-41.58
243.672	-33.51
243.89	-39.44
244.108	-56.77
244.326	-37.21
244.544	-34
244.762	-31.4
244.98	-15.95
245.198	-6.35
245.416	-31.84
245.634	-38.48
245.852	-38.3
246.07	-52.01
246.288	-79.77
246.506	-95.59
246.724	-64.59
246.942	-83.89
247.16	-44.97
247.378	-26.82
247.596	-4.08
247.814	-2.55
248.032	-3.71
248.25	10.46
248.468	7.98
248.685	22.86
248.903	42.93
249.121	42.09
249.339	2.15
249.557	-1.31
249.775	-3.37
249.992	-68.64
250.21	-68.26
250.428	-39.75
250.646	-73.68
250.863	-94.06
251.081	-54.57
251.299	-51.11
251.517	-64.55
251.734	-41.35
251.952	-45.15
252.17	-59.63
252.387	-43.46
252.605	-39.91
252.823	-37.8
253.04	-16.11
253.258	11.33
253.475	-3.47
253.693	13.66
253.911	31.71
254.128	37.78
254.346	43.45
254.563	32.76
254.781	16.35
254.998	-11.64
255.216	-17.18
255.433	-26.23
255.651	18.01
255.868	34.54
256.086	57.97
256.303	18.27
256.521	11.17
256.738	-12.73
256.956	-53.54
257.173	-87.5
257.39	-83.16
257.608	-108
257.825	-54.95
258.043	-14.78
258.26	-15.59
258.477	20.2
258.695	16.08
258.912	-43.49
259.129	-33.82
259.346	-62.26
259.564	-109.5
259.781	-152.19
259.998	-60.44
260.216	-40.07
260.433	1.68
260.65	-5.28
260.867	17.98
261.084	-23.5
261.302	-41.77
261.519	-60.53
261.736	-78.55
261.953	-85.35
262.17	-60.99
262.387	-103.98
262.604	-136.19
262.822	-130.54
263.039	-113.91
263.256	-158.84
263.473	-109.48
263.69	-59.96
263.907	-4.88
264.124	0.78
264.341	6.48
264.558	9.96
264.775	27.25
264.992	2.12
265.209	8.18
265.426	21.73
265.643	8.54
265.86	6.96
266.077	15.03
266.294	-15.46
266.51	-56.71
266.727	-64.44
266.944	-55.42
267.161	-67.52
267.378	-69.17
267.595	-31.6
267.812	-48.79
268.028	-96.25
268.245	-59.89
268.462	-71.22
268.679	-74.54
268.896	-8.91
269.112	-0.09
269.329	-10.3
269.546	8.12
269.763	-0.56
269.979	-28
270.196	-18.34
270.413	-58.81
270.629	-79.5
270.846	-81.73
271.063	-73.33
271.279	-98.4
271.496	-82.02
271.712	-37.49
271.929	-23.2
272.146	-46.74
272.362	-23.61
272.579	24.81
272.795	28.33
273.012	14.39
273.228	16.17
273.445	-20.39
273.661	-72.04
273.878	-150.85
274.094	-122.71
274.311	-141.58
274.527	-63.74
274.744	-52.43
274.96	-33.34
275.177	-25.52
275.393	-5.76
275.609	-13.9
275.826	4.67
276.042	-0.27
276.259	-39.75
276.475	-20.71
276.691	-7.26
276.908	-30.58
277.124	-9.84
277.34	15.04
277.557	-1.64
277.773	-32.34
277.989	-26.25
278.205	-29.88
278.422	-18.16
278.638	-13.46
278.854	1.27
279.07	-15.91
279.286	-34.18
279.503	-54.18
279.719	-40.39
279.935	-74.91
280.151	-83.58
280.367	-61.25
280.583	-82.82
280.799	-86.43
281.016	-99.34
281.232	-35.87
281.448	-30.82
281.664	-15.57
281.88	-72.71
282.096	-34.7
282.312	-50.73
282.528	-64.48
282.744	-40.13
282.96	-3.03
283.176	-9.15
283.392	-21.84
283.608	-14.92
283.824	-32.6
284.04	-25.65
284.256	-32.36
284.471	-31.46
284.687	-33.1
284.903	-11.29
285.119	16.1
285.335	6.05
285.551	7.44
285.767	-33.96
285.982	-48.73
286.198	-123.11
286.414	-58.34
286.63	-39.55
286.846	12.26
287.061	-3.17
287.277	35.67
287.493	-3.98
287.709	14.89
287.924	-19.47
288.14	11.04
288.356	0.43
288.571	27.75
288.787	10.77
289.003	15.43
289.218	-8.23
289.434	-42.28
289.65	-37.38
289.865	-42.1
290.081	-19.83
290.296	9.11
290.512	17.54
290.727	-18.84
290.943	-25.85
291.159	-29.52
291.374	-45.04
291.59	-58.93
291.805	-48.66
292.021	-31.34
292.236	-42.22
292.451	-19.23
292.667	-12.98
292.882	4.69
293.098	-19.82
293.313	-49.59
293.529	-71.75
293.744	-75.55
293.959	-73.74
294.175	-66.53
294.39	-29.75
294.605	-18.58
294.821	0.05
295.036	-7.33
295.251	7.54
295.467	-24.51
295.682	-36.68
295.897	-93.01
296.112	-97.78
296.328	-103.52
296.543	-99.74
296.758	-86.62
296.973	-33.93
297.188	7.71
297.404	-14.11
297.619	-23.27
297.834	-34.96
298.049	-57.57
298.264	-72.9
298.479	-21
298.694	1.58
298.909	13.6
299.125	17.39
299.34	19.42
299.555	-7.64
299.77	-16.56
299.985	-60.21
300.2	-97.21
300.415	-115.88
300.63	-78.04
300.845	-81.94
301.06	-62.22
301.275	-39.99
301.49	-22.13
301.704	-24.91
301.919	-31.85
302.134	-44.57
302.349	-43.39
302.564	-88.62
302.779	-130.78
302.994	-90.09
303.209	-53.79
303.423	-31.96
303.638	9.73
303.853	-6.67
304.068	-23.46
304.283	-26.06
304.497	-19.31
304.712	-25.71
304.927	-22.66
305.142	-25.68
305.356	-13.72
305.571	-29.72
305.786	-49.63
306	-64.69
306.215	-55.82
306.43	-90.37
306.644	-90.2
306.859	-65.28
307.074	-44.63
307.288	-62.29
307.503	-56.57
307.717	-43.02
307.932	-30.62
308.147	-34.62
308.361	-16.72
308.576	-28.82
308.79	-81.22
309.005	-79.71
309.219	-69.6
309.434	-82.97
309.648	-82.33
309.863	-35.17
310.077	-33.93
310.292	-30.21
310.506	-27.92
310.72	1.97
310.935	-14.07
311.149	-25.42
311.364	-7.53
311.578	8.32
311.792	-14.82
312.007	-0.48
312.221	5.41
312.435	3.38
312.649	-8.1
312.864	11.43
313.078	24.94
313.292	65.56
313.507	32.97
313.721	18.08
313.935	17.81
314.149	-3.56
314.363	-7.93
314.578	-15.62
314.792	-9.67
315.006	-27.29
315.22	-7.96
315.434	-19.55
315.648	3.15
315.862	-7.62
316.077	-3.54
316.291	-27.48
316.505	-16.86
316.719	-31.39
316.933	-30.94
317.147	-49.12
317.361	-91.07
317.575	-113.82
317.789	-154.65
318.003	-239.84
318.217	-167.6
318.431	-67.46
318.645	-22.22
318.859	-9.37
319.073	19.61
319.287	1.39
319.5	-17.85
319.714	-57.34
319.928	-83.8
320.142	-112.24
320.356	-46.86
320.57	-29.27
320.784	-38.42
320.997	-68.3
321.211	-54.34
321.425	-120.81
321.639	-145.16
321.853	-86.19
322.066	-52.93
322.28	-47.33
322.494	-33.4
322.707	-4.88
322.921	-24.9
323.135	-14.72
323.349	4.51
323.562	-9.56
323.776	-33.61
323.989	-27.34
324.203	-58.57
324.417	-81.11
324.63	-112.52
324.844	-112.99
325.057	-96
325.271	-60.62
325.485	-29.75
325.698	2.02
325.912	20.3
326.125	-2
326.339	-22.64
326.552	-45.58
326.766	-42.92
326.979	-33.21
327.193	7.97
327.406	10.63
327.619	-3.43
327.833	8.05
328.046	-13.68
328.26	-44.16
328.473	-28.18
328.686	-40.24
328.9	-61.79
329.113	-43.35
329.326	-81.6
329.54	-51.43
329.753	-61.02
329.966	-72.41
330.179	-77.4
330.393	-35.42
330.606	-30.91
330.819	-5.85
331.032	11.07
331.246	15.1
331.459	38.02
331.672	30.92
331.885	19.41
332.098	-1.91
332.311	-18.18
332.525	-88.53
332.738	-64.44
332.951	-27.82
333.164	3.23
333.377	18.81
333.59	49.94
333.803	37.75
334.016	19.45
334.229	13.97
334.442	32.72
334.655	28.1
334.868	30.91
335.081	18.91
335.294	-3.74
335.507	-40.57
335.72	-31.97
335.933	-47.23
336.146	-39.87
336.359	-38.14
336.572	-60.12
336.785	-99.98
336.997	-81.79
337.21	-58.77
337.423	-48.56
337.636	-28.06
337.849	-13.79
338.062	-26.73
338.274	-32.7
338.487	-52.86
338.7	-68.37
338.913	-119.24
339.125	-141.82
339.338	-200.36
339.551	-164.44
339.763	-100.93
339.976	-43.01
340.189	1.28
340.402	3.5
340.614	-18.25
340.827	-30.3
341.039	-50.42
341.252	-60.07
341.465	-40.08
341.677	-31.84
341.89	-70.19
342.102	-45.61
342.315	-73.61
342.527	-118.39
342.74	-108.36
342.952	-70.07
343.165	-67.7
343.377	-29.1
343.59	-15.25
343.802	8.02
344.015	18.91
344.227	29.6
344.44	11.53
344.652	-1.9
344.864	-18.94
345.077	-3.69
345.289	0.45
345.502	2.57
345.714	2.75
345.926	8.32
346.139	5.04
346.351	9.33
346.563	20.98
346.775	28.14
346.988	5.45
347.2	-19.69
347.412	-72.36
347.624	-95.89
347.837	-120.04
348.049	-79.06
348.261	-30.06
348.473	-25.45
348.685	-33.27
348.897	-32.23
349.11	-50.81
349.322	-117.04
349.534	-76.34
349.746	-45.89
349.958	-26.37
350.17	-33.26
350.382	10.29
350.594	-2.18
350.806	-12.94
351.018	-20.62
351.23	-8.59
351.442	-72.53
351.654	-92.98
351.866	-71.42
352.078	-49.7
352.29	-41.28
352.502	-0.49
352.714	12.22
352.926	-4.3
353.138	-14.12
353.35	-22.83
353.561	-26.64
353.773	-42.61
353.985	-23.22
354.197	-29.34
354.409	-34.5
354.621	-45.06
354.832	-32.35
355.044	-52.41
355.256	-58.45
355.468	-34.81
355.679	-33.84
355.891	-29.48
356.103	-39.48
356.314	-21.28
356.526	-24.58
356.738	-22.32
356.949	-43.04
357.161	-20.01
357.373	-20.23
357.584	-46.59
357.796	-33.38
358.008	-36.22
358.219	-28.61
358.431	-36.35
358.642	-9.11
358.854	-13.19
359.065	-22.89
359.277	-49.36
359.488	-50.04
359.7	-78.21
359.911	-87.92
360.123	-55.17
360.334	-53.39
360.546	-74.05
360.757	-77.6
360.969	-59.37
361.18	-55.58
361.391	-46
361.603	-43.58
361.814	-27.65
362.025	-31.85
362.237	-44.59
362.448	-27.81
362.659	-2.38
362.871	-3.51
363.082	-5.36
363.293	-3.9
363.504	-17.05
363.716	-35.1
363.927	-45.88
364.138	-73.83
364.349	-83.98
364.56	-83.31
364.772	-80.53
364.983	-49.97
365.194	-41.27
365.405	-24.43
365.616	-0.19
365.827	-4.07
366.038	-35.01
366.25	-40.6
366.461	-76.09
366.672	-60.2
366.883	-31.24
367.094	-15.76
367.305	-26.93
367.516	-10.37
367.727	-38.4
367.938	-54.55
368.149	-53.28
368.36	-28.94
368.571	-31.52
368.781	-44.8
368.992	-53.92
369.203	-71.71
369.414	-98.58
369.625	-96.76
369.836	-96.66
370.047	-111.77
370.258	-90.88
370.468	-84.95
370.679	-107.98
370.89	-89.8
371.101	-70.51
371.312	-71.4
371.522	-62.64
371.733	-44.48
371.944	-27
372.155	-16.35
372.365	-30.62
372.576	-38.86
372.787	-37.75
372.997	-73.54
373.208	-73.89
373.419	-30.8
373.629	-49.2
373.84	-55.89
374.05	-56.57
374.261	-44.21
374.472	-73.45
374.682	-16.75
374.893	-15.74
375.103	18.23
375.314	9.35
375.524	8.83
375.735	-0.7
375.945	20.91
376.156	-7.93
376.366	0.05
376.577	-0.75
376.787	-7.85
376.997	-25.62
377.208	-11.5
377.418	-32.04
377.629	-24.43
377.839	-26.97
378.049	-16.72
378.26	-2.14
378.47	5.06
378.68	-3.4
378.89	-5.82
379.101	-14.25
379.311	-55.3
379.521	-78.92
379.732	-83.42
379.942	-76.35
380.152	-95.64
380.362	-47.47
380.572	-38.97
380.783	-24.66
380.993	-17.22
381.203	-5.45
381.413	-1.58
381.623	7.49
381.833	11.59
382.043	-0.9
382.253	-6.74
382.463	-11.23
382.674	-24.26
382.884	-44.1
383.094	-36
383.304	-24.64
383.514	-23.27
383.724	-15.39
383.934	-19.64
384.144	-29.09
384.353	-41.65
384.563	-34.54
384.773	-27.1
384.983	-25.28
385.193	-7.82
385.403	0.34
385.613	-9.61
385.823	-23.62
386.033	-14.54
386.242	-25.05
386.452	-29.19
386.662	-34.45
386.872	-18.61
387.082	-27.5
387.291	-35.71
387.501	-39.03
387.711	-28.85
387.921	-35.36
388.13	-30.29
388.34	-12.39
388.55	-14.99
388.759	-17.61
388.969	-14.35
389.179	-15.42
389.388	-18.65
389.598	-8.59
389.807	-13.66
390.017	-14.37
390.227	-12.77
390.436	-16.17
390.646	-17.89
390.855	-13.83
391.065	-14.83
391.274	-13.68
391.484	-14.55
391.693	-12.95
391.903	-10.04
392.112	-3.69
392.322	-2.28
392.531	3.73
392.74	4.13
392.95	-0.14
393.159	-3.04
393.369	-2.83
393.578	-4.73
393.787	-5.94
393.997	-2.78
394.206	-4.12
394.415	-5.11
394.625	-4.79
394.834	-5.4
395.043	-4.38
395.252	-2.33
395.462	0.09
395.671	0.81
395.88	1.13
396.089	1.38
396.298	0.63
396.508	0.14
396.717	-0.9
396.926	0.02
397.135	-0.88
397.344	-1.21
397.553	-1.13
397.762	0.85
397.971	0.5
398.181	0.86
398.39	1.01
398.599	0.85
398.808	0.34
399.017	1.6
399.226	2.63
399.435	3.64
399.644	3.71
399.853	2.68
400.062	1.77
400.27	1.04
400.479	0.5
400.688	0.22
400.897	0.76
401.106	0.78
401.315	0.78
401.524	0.53
401.733	1.01
401.941	1.3
402.15	1.23
402.359	1.13
402.568	1.6
402.777	1.71
402.985	1.63
403.194	1.66
403.403	1.82
403.612	1.43
403.82	1.09
404.029	1.35
404.238	1.31
404.446	1.43
404.655	1.39
404.864	1.33
405.072	0.88
405.281	1.06
405.489	0.81
405.698	0.81
405.906	0.93
406.115	0.88
406.324	0.84
406.532	1.02
406.741	1.4
406.949	1.4
407.158	1.38
407.366	1.42
407.574	1.35
407.783	1.24
407.991	1.05
408.2	1.4
408.408	1.38
408.617	1.36
408.825	1.17
409.033	1.45
409.242	1.34
409.45	1.54
409.658	1.37
409.867	1.64
410.075	1.34
410.283	1.24
410.491	1.01
410.7	1.15
410.908	1.04
411.116	1.39
411.324	1.45
411.533	1.44
411.741	1.61
411.949	1.58
412.157	1.21
412.365	1.21
412.573	1.15
412.781	1.06
412.99	1.06
413.198	1.34
413.406	1.38
413.614	1.43
413.822	1.31
414.03	1.28
414.238	0.98
414.446	1.04
414.654	0.88
414.862	1.02
415.07	1.07
415.278	1.29
415.486	0.98
415.694	1.16
415.902	1.05
416.109	0.89
416.317	0.96
416.525	0.94
416.733	0.87
416.941	1.07
417.149	1.06
417.357	1.07
417.564	1.27
417.772	1.69
417.98	1.47
418.188	1.58
418.395	1.49
418.603	1.66
418.811	1.08
419.019	1.16
419.226	1.31
419.434	1.53
419.642	1.23
419.849	1.46
420.057	1.55
420.265	1.45
420.472	1.09
420.68	1.14
420.887	1.06
421.095	0.95
421.302	0.96
421.51	1.36
421.717	1.41
421.925	1.45
422.132	1.47
422.34	1.24
422.547	1.16
422.755	1.08
422.962	1.06
423.17	0.91
423.377	1.13
423.585	0.95
423.792	1.01
423.999	1.08
424.207	1.09
424.414	1.05
424.621	1.11
424.829	1
425.036	1.02
425.243	1.18
425.451	0.99
425.658	0.79
425.865	1.11
426.072	1.13
426.28	1.29
426.487	1.33
426.694	1.51
426.901	1.17
427.108	1.13
427.315	0.89
427.523	1.04
427.73	1.04
427.937	1.05
428.144	0.9
428.351	0.93
428.558	1.13
428.765	0.98
428.972	0.97
429.179	1.1
429.386	1.34
429.593	1
429.8	0.87
430.007	0.96
430.214	1.02
430.421	0.67
430.628	0.66
430.835	0.76
431.042	1.05
431.249	0.97
431.456	1.01
431.662	1.13
431.869	1.32
432.076	1.2
432.283	1.34
432.49	1.33
432.697	1.35
432.903	1.03
433.11	0.92
433.317	0.91
433.524	1.1
433.73	1.01
433.937	1.31
434.144	1.24
434.35	1.18
434.557	0.99
434.764	1.01
434.97	0.97
435.177	1.09
435.384	1
435.59	1.13
435.797	1.27
436.003	1.26
436.21	1.27
436.416	1.4
436.623	1.4
436.829	1.38
437.036	1.5
437.242	1.47
437.449	1.22
437.655	1.26
437.862	1.3
438.068	1.16
438.275	1.21
438.481	1.48
438.687	1.42
438.894	1.31
439.1	1.42
439.307	1.65
439.513	1.55
439.719	1.57
439.926	1.74
440.132	1.61
440.338	1.36
440.544	1.49
440.751	1.48
440.957	1.43
441.163	1.37
441.369	1.51
441.575	1.26
441.782	1.19
441.988	1.08
442.194	1.11
442.4	1.03
442.606	1.4
442.812	1.45
443.018	1.54
443.224	1.61
443.431	1.7
443.637	1.42
443.843	1.4
444.049	1.4
444.255	1.39
444.461	1.36
444.667	1.38
444.873	1.43
445.079	1.4
445.284	1.44
445.49	1.23
445.696	1.07
445.902	1.02
446.108	0.96
446.314	0.9
446.52	0.98
446.726	1.27
446.931	1.24
447.137	1.32
447.343	1.41
447.549	1.36
447.755	1.18
447.96	1.31
448.166	1.19
448.372	1.1
448.578	1.18
448.783	1.22
448.989	1.25
449.195	1.4
449.4	1.34
449.606	1.29
449.812	1.25
450.017	1.23
450.223	1.14
450.428	1.1
450.634	1.29
450.84	1.45
451.045	1.36
451.251	1.32
451.456	1.64
451.662	1.61
451.867	1.56
452.073	1.55
452.278	1.67
452.483	1.63
452.689	1.49
452.894	1.49
453.1	1.53
453.305	1.46
453.51	1.4
453.716	1.38
453.921	1.43
454.127	1.37
454.332	1.37
454.537	1.21
454.742	1.26
454.948	1.15
455.153	1.19
455.358	1.25
455.563	1.49
455.769	1.58
455.974	1.6
456.179	1.49
456.384	1.47
456.589	1.39
