Data from Ofra_2a_PS_1GT42_Reflection_1.txt Node
Date: Tue Jul 20 09:34:58 EDT 2021
User: Adam
Spectrometer: FLMT01687
Trigger mode: 0
Integration Time (sec): 9.450000E-1
Scans to average: 3
Electric dark correction enabled: true
Nonlinearity correction enabled: false
Boxcar width: 3
XAxis mode: Wavelengths
Number of Pixels in Spectrum: 3648
>>>>>Begin Spectral Data<<<<<
179.494	699.41
179.716	468.75
179.937	490.66
180.158	990.23
180.38	-143.9
180.601	-13.66
180.823	-22.4
181.044	64.24
181.265	12.56
181.486	56.6
181.708	-1933.7
181.929	-156.63
182.15	-758.52
182.372	117.24
182.593	43.41
182.814	321.11
183.035	267.46
183.257	163.05
183.478	69.72
183.699	84.93
183.92	72.62
184.141	61.6
184.363	39.7
184.584	21.61
184.805	0.67
185.026	-24.71
185.247	-49.25
185.468	-31.49
185.689	-1.94
185.91	11.04
186.132	9.2
186.353	11.46
186.574	15.8
186.795	17.36
187.016	12.77
187.237	-8.88
187.458	-25.91
187.679	-19.51
187.9	-11
188.121	-11.98
188.342	12.88
188.563	3.87
188.784	14.61
189.005	8.77
189.226	9.41
189.447	12.51
189.667	13.86
189.888	17.4
190.109	20.22
190.33	2.17
190.551	16.12
190.772	19.63
190.993	22.57
191.214	33.11
191.434	32.02
191.655	37.41
191.876	51.43
192.097	38.72
192.318	39.89
192.538	39.4
192.759	35.7
192.98	21.31
193.201	29.59
193.421	27.83
193.642	40.74
193.863	31.38
194.083	13.21
194.304	-2.66
194.525	27.28
194.745	6.44
194.966	7.01
195.187	4.35
195.407	8.27
195.628	20.12
195.848	25.29
196.069	11.98
196.29	2.53
196.51	-3.31
196.731	-2.61
196.951	-8.39
197.172	-28.05
197.392	-7.9
197.613	-11.89
197.833	-3.16
198.054	-4.73
198.274	-15
198.495	-2.65
198.715	9.48
198.936	20.17
199.156	38.39
199.377	45.36
199.597	45.59
199.817	49.69
200.038	46.62
200.258	37.31
200.479	34.61
200.699	30.09
200.919	10.45
201.14	15.7
201.36	6.93
201.58	7.5
201.801	18.44
202.021	20.74
202.241	23.43
202.461	41.97
202.682	40.82
202.902	47.58
203.122	42.42
203.342	52.11
203.563	54.63
203.783	49.58
204.003	42.18
204.223	47.06
204.443	42.68
204.663	47.27
204.884	41.67
205.104	45.13
205.324	62.69
205.544	61.92
205.764	61.68
205.984	69.45
206.204	61.08
206.424	46.6
206.644	42.79
206.864	31.58
207.084	44.52
207.304	36.13
207.525	25.93
207.745	20.57
207.964	17.3
208.184	9.28
208.404	4.85
208.624	-36.01
208.844	-28.39
209.064	-18.99
209.284	-6.43
209.504	2.93
209.724	-30.41
209.944	-27.44
210.164	-1.31
210.384	3.15
210.604	-7.65
210.823	-13.35
211.043	-18.06
211.263	23.91
211.483	22.96
211.703	30.1
211.922	23.72
212.142	30.79
212.362	37.32
212.582	32.66
212.801	24.96
213.021	23.38
213.241	3.79
213.461	6.06
213.68	14.81
213.9	10.52
214.12	12.69
214.339	16.41
214.559	23.39
214.779	39.72
214.998	39.92
215.218	35.5
215.438	44.38
215.657	48.1
215.877	51.77
216.096	43.14
216.316	37.61
216.535	45.94
216.755	39.46
216.974	32.96
217.194	37.23
217.413	36.91
217.633	40.81
217.852	36.91
218.072	22.06
218.291	28.75
218.511	28.95
218.73	24.31
218.95	23.38
219.169	10.56
219.389	5.73
219.608	14.02
219.827	10.48
220.047	17.66
220.266	19.39
220.485	14.73
220.705	20.3
220.924	25.79
221.143	22.27
221.363	20.37
221.582	6.77
221.801	8.23
222.021	11.05
222.24	9.19
222.459	14.96
222.678	1.99
222.897	1.97
223.117	13.4
223.336	5.11
223.555	-1.15
223.774	15.98
223.993	17.69
224.213	30.99
224.432	26.94
224.651	21.18
224.87	23.04
225.089	33.06
225.308	24.4
225.527	14.61
225.746	12.6
225.965	17.88
226.184	15.35
226.404	21.79
226.623	25.63
226.842	16.44
227.061	29.87
227.28	33.44
227.499	39.52
227.718	39.46
227.936	26.93
228.155	26.64
228.374	34.9
228.593	20.89
228.812	13.41
229.031	-4.21
229.25	-2.26
229.469	8.72
229.688	7.98
229.907	2.2
230.125	14.7
230.344	22.09
230.563	27.8
230.782	22.33
231.001	24.84
231.22	18.95
231.438	19.23
231.657	23.75
231.876	24.4
232.095	29.05
232.313	38.67
232.532	37.05
232.751	40.06
232.969	45.07
233.188	42.64
233.407	40.41
233.625	32.94
233.844	33.29
234.063	33.99
234.281	31.92
234.5	28.17
234.719	23.46
234.937	23.06
235.156	20.02
235.374	13.13
235.593	1.61
235.811	6.48
236.03	-19.04
236.249	-2.75
236.467	-5.28
236.686	10.66
236.904	2.47
237.123	8.99
237.341	3.1
237.559	21.18
237.778	23.61
237.996	35.26
238.215	24.01
238.433	33.93
238.652	35.04
238.87	28.53
239.088	17.6
239.307	15.32
239.525	4.1
239.743	1.45
239.962	-3.86
240.18	5.89
240.398	21.52
240.617	32.46
240.835	38.82
241.053	53.12
241.271	54.98
241.49	46.73
241.708	35.79
241.926	17.22
242.144	14.52
242.363	5.16
242.581	-6.94
242.799	-14.27
243.017	0.51
243.235	-3.78
243.453	-1.05
243.672	-0.73
243.89	4.35
244.108	12.88
244.326	15.23
244.544	17.65
244.762	20.2
244.98	28.3
245.198	21.7
245.416	22.14
245.634	27.47
245.852	34.55
246.07	31.65
246.288	33.47
246.506	41.86
246.724	56.44
246.942	52.68
247.16	40.29
247.378	37.91
247.596	42.9
247.814	37.6
248.032	28.36
248.25	17.98
248.468	25.42
248.685	33.14
248.903	25.62
249.121	17.49
249.339	22.78
249.557	31.77
249.775	24.88
249.992	13.54
250.21	12.42
250.428	11.6
250.646	15.5
250.863	12.4
251.081	10.03
251.299	28.2
251.517	34.06
251.734	39.84
251.952	40.57
252.17	49.54
252.387	50.21
252.605	42.71
252.823	17.68
253.04	24.82
253.258	15.59
253.475	12.46
253.693	9.17
253.911	13.23
254.128	12.75
254.346	22.06
254.563	14.04
254.781	16.73
254.998	22.96
255.216	30.86
255.433	30.49
255.651	44.52
255.868	45.79
256.086	47.89
256.303	42.04
256.521	38.19
256.738	28.8
256.956	21.17
257.173	20.39
257.39	16.54
257.608	17.41
257.825	18.91
258.043	25.48
258.26	23.11
258.477	22.57
258.695	13.81
258.912	22.19
259.129	13.27
259.346	20.67
259.564	9.61
259.781	15.14
259.998	17.09
260.216	23.49
260.433	19.36
260.65	38.64
260.867	18.43
261.084	24.32
261.302	23.29
261.519	12.96
261.736	-2.94
261.953	-0.14
262.17	0.92
262.387	13
262.604	-5.04
262.822	-3.04
263.039	2.11
263.256	11.55
263.473	8.6
263.69	2.89
263.907	-11.31
264.124	4.37
264.341	-0.87
264.558	7.61
264.775	11.22
264.992	10.05
265.209	22.65
265.426	35.12
265.643	30.24
265.86	28.49
266.077	24.44
266.294	26.69
266.51	25.5
266.727	12.17
266.944	-37.59
267.161	-30.19
267.378	-31.2
267.595	-29.46
267.812	-45.22
268.028	-35.31
268.245	-28.68
268.462	17.27
268.679	4.58
268.896	6.31
269.112	13.46
269.329	21.97
269.546	16.13
269.763	22.55
269.979	18.4
270.196	27.72
270.413	33.11
270.629	30.79
270.846	30.96
271.063	32.29
271.279	29.36
271.496	21.71
271.712	17.38
271.929	19.03
272.146	20.05
272.362	-1.63
272.579	-4.3
272.795	-2.77
273.012	3.51
273.228	2
273.445	-7.05
273.661	-9.74
273.878	7.77
274.094	12.08
274.311	6.05
274.527	11.49
274.744	8
274.96	4.94
275.177	15.37
275.393	22.95
275.609	28.39
275.826	36.3
276.042	44.02
276.259	43.88
276.475	46.65
276.691	32.78
276.908	21.31
277.124	22.39
277.34	17.74
277.557	11.67
277.773	16.72
277.989	11.48
278.205	8.09
278.422	19.58
278.638	21.4
278.854	24.17
279.07	13.1
279.286	2.5
279.503	3.54
279.719	21.7
279.935	4.49
280.151	6.71
280.367	0.54
280.583	15.27
280.799	25.22
281.016	30.07
281.232	27.75
281.448	28.86
281.664	28.28
281.88	34.76
282.096	28.37
282.312	28.57
282.528	19.01
282.744	5.75
282.96	17.54
283.176	11.54
283.392	14.58
283.608	16.84
283.824	12.6
284.04	18.95
284.256	25.28
284.471	24.24
284.687	20.02
284.903	17.89
285.119	0.06
285.335	8.79
285.551	15.4
285.767	12.39
285.982	7.95
286.198	7.25
286.414	10.14
286.63	33.12
286.846	26.91
287.061	25.42
287.277	30.17
287.493	23.19
287.709	25.61
287.924	25.84
288.14	21.43
288.356	23.05
288.571	18.94
288.787	10.3
289.003	24.92
289.218	22.21
289.434	15.88
289.65	16.86
289.865	28.3
290.081	25.82
290.296	31.61
290.512	35.49
290.727	49.67
290.943	50.03
291.159	43.9
291.374	34.61
291.59	31.76
291.805	27.83
292.021	8.46
292.236	3.99
292.451	12.09
292.667	15.97
292.882	10.83
293.098	9.26
293.313	8.42
293.529	18.88
293.744	5.75
293.959	4.51
294.175	-4.07
294.39	7.37
294.605	18.03
294.821	15.77
295.036	17.84
295.251	13.31
295.467	6.61
295.682	9.82
295.897	2.15
296.112	-7.04
296.328	2.07
296.543	-5.23
296.758	2.63
296.973	5.63
297.188	15.95
297.404	22.15
297.619	33.45
297.834	31.18
298.049	33.84
298.264	32.09
298.479	18.6
298.694	12.21
298.909	2.86
299.125	3.86
299.34	7.7
299.555	5.65
299.77	6.58
299.985	11.39
300.2	16.32
300.415	21.37
300.63	19.52
300.845	11.18
301.06	17.28
301.275	17.45
301.49	23.26
301.704	16.18
301.919	12.49
302.134	9.37
302.349	5.3
302.564	-6.96
302.779	-10.8
302.994	-11.96
303.209	-16.17
303.423	-11.98
303.638	-8.9
303.853	-5.1
304.068	8.34
304.283	10.07
304.497	8.67
304.712	18.8
304.927	14.53
305.142	14.99
305.356	18.23
305.571	18.46
305.786	22.18
306	26.46
306.215	19.97
306.43	23.49
306.644	29.19
306.859	28.94
307.074	25.23
307.288	23.62
307.503	24.97
307.717	25.44
307.932	27.71
308.147	23.76
308.361	27.66
308.576	23.1
308.79	21.51
309.005	19.42
309.219	25.04
309.434	29.23
309.648	19.11
309.863	22.26
310.077	30.04
310.292	31.1
310.506	39
310.72	31.18
310.935	31.6
311.149	32.96
311.364	31.97
311.578	21.51
311.792	21.35
312.007	16.51
312.221	25.18
312.435	20.57
312.649	29.85
312.864	12.3
313.078	33.67
313.292	29.13
313.507	26.52
313.721	22.48
313.935	41.93
314.149	36.98
314.363	51.07
314.578	48.61
314.792	53.18
315.006	56.76
315.22	60.95
315.434	44.49
315.648	42.37
315.862	34
316.077	37.18
316.291	37.08
316.505	29.87
316.719	8.59
316.933	10.38
317.147	10
317.361	15.93
317.575	11.13
317.789	5.48
318.003	11.33
318.217	21.6
318.431	24.24
318.645	27.99
318.859	17.18
319.073	18.84
319.287	27.93
319.5	24.38
319.714	22.65
319.928	27.95
320.142	19.11
320.356	27.01
320.57	17.17
320.784	5.62
320.997	13.52
321.211	14.43
321.425	2.95
321.639	10.85
321.853	5.82
322.066	11.01
322.28	22.73
322.494	12.31
322.707	6.27
322.921	17.27
323.135	23.49
323.349	25.56
323.562	25.48
323.776	28.2
323.989	21.62
324.203	32.26
324.417	28.55
324.63	14.48
324.844	8.13
325.057	11.68
325.271	-10.59
325.485	4.95
325.698	-6.47
325.912	8.56
326.125	19.15
326.339	20.37
326.552	21.03
326.766	29.18
326.979	30.16
327.193	39.42
327.406	18.2
327.619	1.6
327.833	8.09
328.046	-0.44
328.26	-7.03
328.473	-3.66
328.686	-12.16
328.9	-7.84
329.113	-5.2
329.326	-8.74
329.54	-4.86
329.753	9.58
329.966	9.9
330.179	17.02
330.393	16.51
330.606	32.58
330.819	35.49
331.032	37.17
331.246	27.46
331.459	32.05
331.672	26.25
331.885	34.58
332.098	27.32
332.311	15.81
332.525	16.07
332.738	25.94
332.951	16.65
333.164	15.61
333.377	-5.34
333.59	-2.17
333.803	12.89
334.016	9.36
334.229	1.99
334.442	5.99
334.655	13.47
334.868	35.05
335.081	38.12
335.294	35.48
335.507	35.3
335.72	25.55
335.933	27.51
336.146	21.31
336.359	15.8
336.572	13.43
336.785	16.28
336.997	10.55
337.21	22.29
337.423	19.48
337.636	24.13
337.849	19.08
338.062	22.59
338.274	20.42
338.487	32.05
338.7	25.99
338.913	25.97
339.125	23.18
339.338	29.46
339.551	26.5
339.763	21.33
339.976	12.69
340.189	13.76
340.402	16.99
340.614	23.99
340.827	13.19
341.039	12.48
341.252	9.53
341.465	7.5
341.677	7.37
341.89	7.01
342.102	2.99
342.315	11.36
342.527	8.43
342.74	15.58
342.952	16.76
343.165	24.66
343.377	26.68
343.59	26.56
343.802	31.54
344.015	32.34
344.227	24.8
344.44	21.5
344.652	11.86
344.864	9.01
345.077	4.1
345.289	-1.19
345.502	-2.44
345.714	4.55
345.926	4.96
346.139	10.43
346.351	-5.88
346.563	3.75
346.775	1.64
346.988	2.81
347.2	4
347.412	6.29
347.624	12.67
347.837	26.45
348.049	19.24
348.261	22.52
348.473	20.87
348.685	29.13
348.897	30.63
349.11	30.54
349.322	18.17
349.534	25.11
349.746	25.8
349.958	29.6
350.17	14.39
350.382	10.84
350.594	4.68
350.806	14.78
351.018	17.35
351.23	17.74
351.442	12.51
351.654	22.19
351.866	28.37
352.078	22.5
352.29	27.07
352.502	28.1
352.714	24.23
352.926	26.78
353.138	20.03
353.35	11.02
353.561	19.87
353.773	13.67
353.985	17.86
354.197	14.81
354.409	16.26
354.621	18.91
354.832	20.77
355.044	22.38
355.256	17.68
355.468	-0.47
355.679	10.63
355.891	12.91
356.103	14.32
356.314	20.31
356.526	2.85
356.738	2.97
356.949	9.26
357.161	7.58
357.373	4.67
357.584	10.96
357.796	4.47
358.008	14.8
358.219	24.59
358.431	25.13
358.642	16.68
358.854	15.3
359.065	5.66
359.277	2.8
359.488	1.05
359.7	0.39
359.911	-0.02
360.123	4.22
360.334	0.05
360.546	5.41
360.757	10.97
360.969	18.48
361.18	19.22
361.391	17.75
361.603	23.07
361.814	29.66
362.025	24.6
362.237	23.34
362.448	24.28
362.659	13.96
362.871	21.74
363.082	17.72
363.293	19.84
363.504	21.6
363.716	24.33
363.927	23.42
364.138	29.99
364.349	31.45
364.56	29.61
364.772	26.96
364.983	22.7
365.194	20.97
365.405	19.82
365.616	11.32
365.827	-1.07
366.038	11.52
366.25	13.54
366.461	22.56
366.672	21.83
366.883	26.09
367.094	31.93
367.305	38.47
367.516	32.17
367.727	27.61
367.938	20.28
368.149	23.01
368.36	14.79
368.571	17.45
368.781	13.43
368.992	20.61
369.203	27.54
369.414	32.91
369.625	26.31
369.836	32.16
370.047	24.28
370.258	21.18
370.468	13.05
370.679	5.07
370.89	7.74
371.101	8.49
371.312	4.37
371.522	5.08
371.733	2.13
371.944	10.75
372.155	2.82
372.365	-2.07
372.576	2.99
372.787	6.16
372.997	10.75
373.208	18.76
373.419	10.42
373.629	27.36
373.84	27.42
374.05	21.21
374.261	13.34
374.472	5.49
374.682	1.21
374.893	-5.62
375.103	-11.03
375.314	-9.95
375.524	-5.06
375.735	-1.15
375.945	2.19
376.156	8.5
376.366	15.25
376.577	18.71
376.787	21.74
376.997	19.29
377.208	11.41
377.418	12.39
377.629	7.79
377.839	12.43
378.049	14.78
378.26	11.02
378.47	16.8
378.68	22.65
378.89	15.89
379.101	13.01
379.311	1.23
379.521	1.04
379.732	-2.14
379.942	-6.7
380.152	-0.01
380.362	11.66
380.572	17.58
380.783	21.63
380.993	19.24
381.203	21.98
381.413	25.79
381.623	20.46
381.833	10.84
382.043	1.41
382.253	-0.22
382.463	2.88
382.674	6.67
382.884	1.65
383.094	4.5
383.304	8.48
383.514	17.96
383.724	18.39
383.934	15.44
384.144	16.76
384.353	18.39
384.563	13.82
384.773	13.75
384.983	11.57
385.193	13.69
385.403	15.02
385.613	10.09
385.823	6.35
386.033	8.19
386.242	6.38
386.452	4.8
386.662	3.72
386.872	2.68
387.082	6.04
387.291	7.61
387.501	8.29
387.711	10.14
387.921	10.35
388.13	9.11
388.34	5.11
388.55	5.7
388.759	5.98
388.969	3.34
389.179	4.28
389.388	4.92
389.598	4.86
389.807	7.37
390.017	6.44
390.227	4.84
390.436	6.24
390.646	5.6
390.855	5.58
391.065	5.75
391.274	5.1
391.484	5.44
391.693	8.09
391.903	6.77
392.112	6.53
392.322	6.62
392.531	6.87
392.74	5.65
392.95	4.96
393.159	3.63
393.369	4.23
393.578	4.63
393.787	4.68
393.997	5.66
394.206	5.9
394.415	6.6
394.625	5.9
394.834	5.61
395.043	5.54
395.252	6.27
395.462	5.31
395.671	5.91
395.88	5.44
396.089	5.9
396.298	6.62
396.508	6.35
396.717	5.62
396.926	4.83
397.135	4.62
397.344	4.68
397.553	4.53
397.762	3.81
397.971	3.85
398.181	3.51
398.39	4.44
398.599	4.72
398.808	4.77
399.017	5.35
399.226	5.46
399.435	5.23
399.644	5.27
399.853	4.99
400.062	4.78
400.27	4.68
400.479	4.31
400.688	4.32
400.897	4.48
401.106	4.7
401.315	4.54
401.524	4.62
401.733	4.72
401.941	4.65
402.15	4.52
402.359	4.53
402.568	4.46
402.777	4.37
402.985	4.27
403.194	4.19
403.403	3.97
403.612	4.04
403.82	4.09
404.029	4.09
404.238	4.23
404.446	4.31
404.655	4.16
404.864	4.29
405.072	4.21
405.281	4.06
405.489	4.17
405.698	4.04
405.906	3.93
406.115	4.05
406.324	4.05
406.532	4.16
406.741	4.2
406.949	3.98
407.158	4.05
407.366	4.15
407.574	4.14
407.783	4.08
407.991	3.99
408.2	3.85
408.408	3.92
408.617	3.88
408.825	3.77
409.033	3.65
409.242	3.68
409.45	3.63
409.658	3.74
409.867	3.69
410.075	3.62
410.283	3.54
410.491	3.55
410.7	3.55
410.908	3.58
411.116	3.52
411.324	3.58
411.533	3.53
411.741	3.56
411.949	3.59
412.157	3.61
412.365	3.59
412.573	3.63
412.781	3.6
412.99	3.79
413.198	3.82
413.406	3.79
413.614	3.76
413.822	3.73
414.03	3.65
414.238	3.65
414.446	3.5
414.654	3.53
414.862	3.53
415.07	3.53
415.278	3.53
415.486	3.63
415.694	3.56
415.902	3.52
416.109	3.46
416.317	3.43
416.525	3.56
416.733	3.56
416.941	3.49
417.149	3.61
417.357	3.67
417.564	3.62
417.772	3.7
417.98	3.55
418.188	3.46
418.395	3.44
418.603	3.23
418.811	3.14
419.019	3.2
419.226	3.22
419.434	3.14
419.642	3.2
419.849	3.24
420.057	3.34
420.265	3.41
420.472	3.36
420.68	3.19
420.887	3.22
421.095	3.28
421.302	3.22
421.51	3.29
421.717	3.32
421.925	3.3
422.132	3.29
422.34	3.35
422.547	3.29
422.755	3.25
422.962	3.09
423.17	2.89
423.377	3.01
423.585	3.05
423.792	2.96
423.999	2.91
424.207	2.82
424.414	2.92
424.621	3.18
424.829	3.08
425.036	3.1
425.243	3.17
425.451	3.2
425.658	3.31
425.865	3.21
426.072	3.04
426.28	3.02
426.487	3
426.694	2.92
426.901	2.88
427.108	2.97
427.315	3.02
427.523	3.09
427.73	3.14
427.937	3.14
428.144	3.25
428.351	3.43
428.558	3.34
428.765	3.3
428.972	3.35
429.179	3.3
429.386	3.36
429.593	3.32
429.8	3.28
430.007	3.31
430.214	3.39
430.421	3.32
430.628	3.26
430.835	3.2
431.042	3.21
431.249	3.16
431.456	3.19
431.662	3.12
431.869	3.15
432.076	3.22
432.283	3.22
432.49	3.21
432.697	3.18
432.903	3.18
433.11	3.26
433.317	3.29
433.524	3.26
433.73	3.33
433.937	3.32
434.144	3.45
434.35	3.42
434.557	3.36
434.764	3.32
434.97	3.44
435.177	3.4
435.384	3.51
435.59	3.45
435.797	3.47
436.003	3.52
436.21	3.54
436.416	3.5
436.623	3.57
436.829	3.51
437.036	3.5
437.242	3.56
437.449	3.57
437.655	3.57
437.862	3.58
438.068	3.57
438.275	3.53
438.481	3.62
438.687	3.6
438.894	3.62
439.1	3.66
439.307	3.7
439.513	3.67
439.719	3.75
439.926	3.76
440.132	3.8
440.338	3.85
440.544	3.83
440.751	3.75
440.957	3.75
441.163	3.79
441.369	3.78
441.575	3.78
441.782	3.77
441.988	3.83
442.194	3.94
442.4	4.02
442.606	4.06
442.812	4.09
443.018	4.05
443.224	4.02
443.431	4.05
443.637	4.01
443.843	3.98
444.049	3.94
444.255	3.91
444.461	3.97
444.667	4.02
444.873	3.96
445.079	4.03
445.284	4.06
445.49	4.02
445.696	4.03
445.902	4.03
446.108	4.06
446.314	4.15
446.52	4.18
446.726	4.18
446.931	4.23
447.137	4.25
447.343	4.28
447.549	4.24
447.755	4.17
447.96	4.06
448.166	4.12
448.372	4.11
448.578	4.11
448.783	4.08
448.989	4.09
449.195	4.17
449.4	4.21
449.606	4.15
449.812	4.23
450.017	4.25
450.223	4.24
450.428	4.25
450.634	4.26
450.84	4.26
451.045	4.28
451.251	4.26
451.456	4.26
451.662	4.28
451.867	4.3
452.073	4.27
452.278	4.3
452.483	4.25
452.689	4.25
452.894	4.25
453.1	4.24
453.305	4.27
453.51	4.26
453.716	4.29
453.921	4.36
454.127	4.31
454.332	4.32
454.537	4.39
454.742	4.35
454.948	4.37
455.153	4.38
455.358	4.41
455.563	4.48
455.769	4.47
455.974	4.44
456.179	4.44
456.384	4.45
456.589	4.51
456.795	4.48
457	4.47
457.205	4.47
457.41	4.48
457.615	4.57
457.82	4.62
458.025	4.58
458.23	4.57
458.435	4.55
458.64	4.63
458.845	4.61
459.05	4.58
459.255	4.56
459.46	4.53
459.665	4.61
459.87	4.63
460.075	4.57
460.28	4.58
460.485	4.62
460.69	4.56
460.895	4.64
461.099	4.59
461.304	4.61
461.509	4.59
461.714	4.62
461.919	4.56
462.123	4.65
462.328	4.64
462.533	4.68
462.738	4.69
462.942	4.74
463.147	4.76
463.352	4.85
463.556	4.86
463.761	4.87
463.966	4.91
464.17	4.91
464.375	4.91
464.58	4.87
464.784	4.87
464.989	4.88
465.193	4.91
465.398	4.87
465.602	4.9
465.807	4.9
466.011	4.95
466.216	4.96
466.42	5.02
466.625	4.97
466.829	4.99
467.034	5
467.238	5.04
467.443	5.08
467.647	5.1
467.851	5.07
468.056	5.09
468.26	5.11
468.464	5.11
468.669	5.18
468.873	5.17
469.077	5.19
469.282	5.18
469.486	5.26
469.69	5.3
469.894	5.33
470.099	5.28
