Data from Ofra_2a_PS_9CX5_Reflection_1.txt Node
Date: Tue Jul 20 09:58:18 EDT 2021
User: Adam
Spectrometer: FLMT01687
Trigger mode: 0
Integration Time (sec): 9.450000E-1
Scans to average: 3
Electric dark correction enabled: true
Nonlinearity correction enabled: false
Boxcar width: 3
XAxis mode: Wavelengths
Number of Pixels in Spectrum: 3648
>>>>>Begin Spectral Data<<<<<
179.494	1039.05
179.716	632.92
179.937	694.51
180.158	2783.59
180.38	-1590.12
180.601	-319.89
180.823	-108.36
181.044	-38.05
181.265	-127.51
181.486	-1.29
181.708	-102.17
181.929	82.56
182.15	430.68
182.372	48.56
182.593	-29.97
182.814	196.11
183.035	193.6
183.257	37.23
183.478	39.01
183.699	27.33
183.92	31.45
184.141	19.52
184.363	18.05
184.584	4.99
184.805	26.14
185.026	-9.47
185.247	-25.49
185.468	-18.2
185.689	-4.67
185.91	9.91
186.132	13.74
186.353	-4.8
186.574	4.05
186.795	-5.7
187.016	-3.39
187.237	3.06
187.458	-19.82
187.679	-24.34
187.9	-9.44
188.121	18.12
188.342	57.15
188.563	59.66
188.784	52.42
189.005	60.54
189.226	54.89
189.447	44.47
189.667	38
189.888	28.96
190.109	29.37
190.33	18.03
190.551	11.08
190.772	9.56
190.993	17.38
191.214	20.92
191.434	15.46
191.655	22.38
191.876	28.77
192.097	31.29
192.318	35.14
192.538	41.05
192.759	33.08
192.98	19.57
193.201	20.02
193.421	16.96
193.642	6.33
193.863	-13.85
194.083	-16.34
194.304	-14.54
194.525	18.83
194.745	-2.4
194.966	2.52
195.187	16.81
195.407	19.6
195.628	15.32
195.848	11.49
196.069	1.37
196.29	1.07
196.51	-6.25
196.731	-0.38
196.951	-5.04
197.172	-14.48
197.392	10.8
197.613	7.09
197.833	-1.6
198.054	1.19
198.274	-25.18
198.495	-18.73
198.715	-35.79
198.936	-52.58
199.156	-43.21
199.377	-29.74
199.597	-27.52
199.817	-8.07
200.038	-23
200.258	-8.85
200.479	-7.61
200.699	3.34
200.919	-8.69
201.14	-3.72
201.36	16.94
201.58	34.45
201.801	32.72
202.021	33.74
202.241	28.64
202.461	48.07
202.682	50.58
202.902	35.67
203.122	30.98
203.342	32.05
203.563	21.04
203.783	25.32
204.003	19.2
204.223	22.35
204.443	20.5
204.663	29.3
204.884	30.52
205.104	38.69
205.324	39.58
205.544	43.4
205.764	49.52
205.984	66.79
206.204	65.35
206.424	52.97
206.644	45.67
206.864	39.7
207.084	49.85
207.304	41.71
207.525	21.18
207.745	19.67
207.964	-2.05
208.184	9.09
208.404	6.03
208.624	-16.84
208.844	-30.87
209.064	-25.71
209.284	-23.31
209.504	-10.65
209.724	-36.68
209.944	-27.38
210.164	-17.33
210.384	-10.31
210.604	-24.68
210.823	-38.37
211.043	-43.88
211.263	-22.33
211.483	-18.21
211.703	-19.01
211.922	-15.48
212.142	-4.52
212.362	5.78
212.582	9.6
212.801	6.07
213.021	4.26
213.241	-13.69
213.461	-19.48
213.68	-19.69
213.9	-18.47
214.12	-14.1
214.339	-12.51
214.559	-6.74
214.779	10.78
214.998	25.38
215.218	35.84
215.438	53.99
215.657	53.05
215.877	55.26
216.096	55.05
216.316	48.25
216.535	48.41
216.755	35.56
216.974	14.45
217.194	2.6
217.413	15.3
217.633	0.93
217.852	5.41
218.072	-9.8
218.291	18.79
218.511	18.51
218.73	14.38
218.95	10.44
219.169	11.14
219.389	4.25
219.608	23.93
219.827	-2.52
220.047	-2.68
220.266	2.15
220.485	8.3
220.705	13.81
220.924	11.7
221.143	-9.7
221.363	-8.4
221.582	-10.74
221.801	-2.22
222.021	-2.75
222.24	-13.02
222.459	-24.09
222.678	-7.78
222.897	1.02
223.117	3.32
223.336	4.7
223.555	-11.91
223.774	3.22
223.993	46.79
224.213	28.23
224.432	36.09
224.651	39.44
224.87	38.62
225.089	53.53
225.308	48.54
225.527	23.57
225.746	30.35
225.965	19.36
226.184	6.2
226.404	4.36
226.623	-0.24
226.842	-3.54
227.061	7.46
227.28	21.5
227.499	36.5
227.718	39.73
227.936	31.06
228.155	29.38
228.374	30.13
228.593	27.17
228.812	16.14
229.031	5.66
229.25	18.8
229.469	23.07
229.688	28.8
229.907	28.69
230.125	26.37
230.344	28.29
230.563	32.95
230.782	12.77
231.001	20.53
231.22	16.61
231.438	22.22
231.657	24.1
231.876	13.44
232.095	9.44
232.313	20.97
232.532	13.04
232.751	7.64
232.969	4.77
233.188	-3.4
233.407	11.03
233.625	6.06
233.844	14.65
234.063	16.29
234.281	17.2
234.5	18.14
234.719	12.32
234.937	19.61
235.156	13.59
235.374	-5.48
235.593	-10.18
235.811	-29.27
236.03	-46.71
236.249	-17.89
236.467	-29.38
236.686	-15.07
236.904	-5.41
237.123	11.74
237.341	22.66
237.559	28.22
237.778	34.54
237.996	40.85
238.215	32.19
238.433	39.57
238.652	30.69
238.87	29.48
239.088	20.27
239.307	15.75
239.525	3.93
239.743	2.66
239.962	1.68
240.18	12.48
240.398	20.47
240.617	30.53
240.835	26.68
241.053	38.78
241.271	42.13
241.49	33.52
241.708	26.25
241.926	7.76
242.144	8.92
242.363	-3.97
242.581	-7.85
242.799	-17.51
243.017	-9.4
243.235	-12.85
243.453	3.36
243.672	-8.16
243.89	6.67
244.108	17.91
244.326	25.48
244.544	18.88
244.762	14.16
244.98	13.29
245.198	5.36
245.416	13.05
245.634	24.33
245.852	28.6
246.07	35.7
246.288	36.2
246.506	44.43
246.724	65.6
246.942	58.44
247.16	42.31
247.378	28.25
247.596	31.21
247.814	16.38
248.032	11.88
248.25	7.32
248.468	6.38
248.685	5.63
248.903	1.92
249.121	-0.92
249.339	10.98
249.557	11.3
249.775	-8.17
249.992	-14.44
250.21	-24.78
250.428	-28.94
250.646	-27.91
250.863	-25.2
251.081	-31.72
251.299	-4.72
251.517	9.6
251.734	13.35
251.952	30.64
252.17	10.79
252.387	18.16
252.605	20.24
252.823	0.89
253.04	-8.9
253.258	-12.96
253.475	-14.99
253.693	11.96
253.911	5.81
254.128	5.32
254.346	11.93
254.563	11.34
254.781	14.71
254.998	17.71
255.216	12.04
255.433	10.68
255.651	8.96
255.868	12.29
256.086	13.85
256.303	14.84
256.521	5.95
256.738	4.63
256.956	3.7
257.173	1.08
257.39	7.05
257.608	4.5
257.825	8.28
258.043	17.69
258.26	13.59
258.477	18.24
258.695	19.02
258.912	22.13
259.129	23.95
259.346	25.46
259.564	21.02
259.781	35.69
259.998	37.86
260.216	42.7
260.433	34.18
260.65	33.8
260.867	6.44
261.084	12.54
261.302	-2.93
261.519	-16.86
261.736	-22.3
261.953	-29.2
262.17	-14.48
262.387	1.54
262.604	-8.74
262.822	-4.13
263.039	1.03
263.256	-0.7
263.473	-4.12
263.69	-10.56
263.907	1.32
264.124	7.41
264.341	6.29
264.558	9.19
264.775	17.6
264.992	15.36
265.209	24.12
265.426	16.88
265.643	13.29
265.86	9.39
266.077	17.96
266.294	14.18
266.51	19.13
266.727	7.58
266.944	4.84
267.161	7.07
267.378	21.16
267.595	-7.97
267.812	-7.16
268.028	5.12
268.245	-1.57
268.462	6.11
268.679	1.38
268.896	-2.12
269.112	14.28
269.329	19.88
269.546	16.64
269.763	26.2
269.979	17.13
270.196	26.79
270.413	31.79
270.629	27.02
270.846	20.71
271.063	17.2
271.279	12.39
271.496	3.34
271.712	-4.53
271.929	-4.41
272.146	1.41
272.362	-3.77
272.579	-11.98
272.795	-15.86
273.012	3.72
273.228	-0.57
273.445	-5.79
273.661	-11.06
273.878	3.68
274.094	12.87
274.311	18.95
274.527	20.06
274.744	28.45
274.96	27.07
275.177	35.87
275.393	28.77
275.609	31.91
275.826	27.48
276.042	20.76
276.259	16.66
276.475	13.37
276.691	13.3
276.908	11.29
277.124	9.01
277.34	4.59
277.557	-1.29
277.773	-3.24
277.989	-3.32
278.205	-12.11
278.422	-3.73
278.638	8.11
278.854	12.3
279.07	4.88
279.286	2.54
279.503	10.79
279.719	20.06
279.935	11.13
280.151	8.26
280.367	14.39
280.583	28.26
280.799	39.82
281.016	39.93
281.232	39.71
281.448	39.67
281.664	33.67
281.88	28.25
282.096	30.04
282.312	16.52
282.528	10.95
282.744	4.11
282.96	6.39
283.176	7.87
283.392	13.28
283.608	13.35
283.824	14.58
284.04	24.71
284.256	17.09
284.471	14.15
284.687	16.33
284.903	5.85
285.119	-12.85
285.335	-5.94
285.551	-7.21
285.767	-6.93
285.982	-4.11
286.198	-3.82
286.414	19.36
286.63	30.59
286.846	23.62
287.061	18.21
287.277	33.94
287.493	32.72
287.709	27.35
287.924	18.91
288.14	13.16
288.356	21.39
288.571	2.9
288.787	-7.99
289.003	-3.06
289.218	-7.87
289.434	-13.35
289.65	2.91
289.865	0.41
290.081	7.15
290.296	12.84
290.512	13.79
290.727	23.07
290.943	18.23
291.159	6.15
291.374	7.85
291.59	1.21
291.805	-2.44
292.021	-14.62
292.236	-14.62
292.451	-3.17
292.667	-2
292.882	-11.16
293.098	-6.88
293.313	-13.52
293.529	-6.12
293.744	-7.97
293.959	-16.08
294.175	-9.06
294.39	-1.23
294.605	-0.92
294.821	0.39
295.036	15.93
295.251	7.96
295.467	13.66
295.682	14.95
295.897	13.1
296.112	18.57
296.328	21.38
296.543	-1.16
296.758	14.5
296.973	14.57
297.188	3.83
297.404	7.26
297.619	3.02
297.834	15.32
298.049	32.15
298.264	24.47
298.479	11.09
298.694	21.2
298.909	15.59
299.125	25.21
299.34	14.54
299.555	15.78
299.77	10.53
299.985	13.2
300.2	0.01
300.415	9.83
300.63	0.27
300.845	3.68
301.06	1.06
301.275	5.83
301.49	13.16
301.704	15.59
301.919	3.73
302.134	-7.66
302.349	-9.95
302.564	-16.89
302.779	-19.9
302.994	-25.94
303.209	-28.34
303.423	-14.93
303.638	12.73
303.853	10.99
304.068	9.94
304.283	6.16
304.497	6.43
304.712	13.91
304.927	5.76
305.142	0.75
305.356	1.76
305.571	12.01
305.786	13.83
306	20.97
306.215	19.76
306.43	33.15
306.644	37.53
306.859	42.61
307.074	32.87
307.288	40.09
307.503	34.77
307.717	29.12
307.932	24.23
308.147	15.96
308.361	5.89
308.576	11.7
308.79	6.33
309.005	2.35
309.219	13.93
309.434	12.58
309.648	7.93
309.863	12.72
310.077	-2.93
310.292	-4.91
310.506	17.3
310.72	16.57
310.935	19.64
311.149	25.98
311.364	29.04
311.578	38.77
311.792	40.32
312.007	23.58
312.221	18.19
312.435	16.71
312.649	17.58
312.864	-5.01
313.078	4.33
313.292	2.47
313.507	5.43
313.721	-2.03
313.935	8.87
314.149	10.77
314.363	18.68
314.578	38.21
314.792	35.61
315.006	43.34
315.22	53.73
315.434	43.04
315.648	39.27
315.862	38.49
316.077	14.43
316.291	24.16
316.505	20.39
316.719	-4.38
316.933	3.92
317.147	11.72
317.361	20.91
317.575	23.89
317.789	9.93
318.003	10.05
318.217	20.93
318.431	21.53
318.645	19.96
318.859	1.38
319.073	0.69
319.287	5.13
319.5	6.95
319.714	8.51
319.928	1.85
320.142	7.49
320.356	25.18
320.57	20.8
320.784	21.66
320.997	29.78
321.211	25.71
321.425	28.05
321.639	29.15
321.853	20.38
322.066	23.76
322.28	25.65
322.494	14.7
322.707	18.73
322.921	18.86
323.135	17.39
323.349	21.54
323.562	20.59
323.776	21.04
323.989	16.83
324.203	23.82
324.417	16.09
324.63	1.65
324.844	-8.55
325.057	3.94
325.271	-7.06
325.485	12.66
325.698	2.02
325.912	14.4
326.125	21.12
326.339	30.86
326.552	21.98
326.766	28.01
326.979	16.19
327.193	9.51
327.406	10.88
327.619	0.49
327.833	-2.75
328.046	-4.53
328.26	-3.86
328.473	-2.41
328.686	6.37
328.9	-6.4
329.113	0.66
329.326	3.1
329.54	3.3
329.753	4.5
329.966	6.74
330.179	6.68
330.393	16.33
330.606	17.46
330.819	17.7
331.032	20.11
331.246	25.82
331.459	26.12
331.672	27.74
331.885	20.67
332.098	24.17
332.311	13.55
332.525	19.82
332.738	12.09
332.951	10.34
333.164	2.43
333.377	-7.92
333.59	-0.98
333.803	12.92
334.016	-2.41
334.229	5.36
334.442	12.51
334.655	25.25
334.868	41.58
335.081	42.07
335.294	40.03
335.507	46.75
335.72	33.57
335.933	36.3
336.146	31.41
336.359	17.14
336.572	6.49
336.785	9.09
336.997	1.42
337.21	12.33
337.423	7.5
337.636	7.07
337.849	15.74
338.062	19.15
338.274	16.17
338.487	18.17
338.7	17.53
338.913	14.45
339.125	8.64
339.338	12.31
339.551	19.05
339.763	21.12
339.976	16.21
340.189	11.84
340.402	11.09
340.614	19.59
340.827	10.45
341.039	5.92
341.252	7.17
341.465	7.66
341.677	3.11
341.89	0.01
342.102	-1.53
342.315	9.39
342.527	-0.13
342.74	-3.62
342.952	-2.64
343.165	12.97
343.377	22.36
343.59	22.96
343.802	23.3
344.015	30.69
344.227	25.93
344.44	22.65
344.652	22.07
344.864	23.96
345.077	20.19
345.289	19.17
345.502	18.87
345.714	14.98
345.926	20.02
346.139	10.14
346.351	-5.48
346.563	-0.51
346.775	-9.17
346.988	-9.04
347.2	0.83
347.412	0.98
347.624	-1.68
347.837	3.48
348.049	0.66
348.261	3.9
348.473	-7.42
348.685	-4.31
348.897	-1.39
349.11	-0.52
349.322	-2.13
349.534	-12.34
349.746	-4.12
349.958	13.66
350.17	12.06
350.382	-0.07
350.594	7.31
350.806	18.11
351.018	27.8
351.23	26.3
351.442	23.32
351.654	26.98
351.866	34.31
352.078	30.25
352.29	27.81
352.502	25
352.714	24.74
352.926	21.31
353.138	15.65
353.35	14.58
353.561	14.38
353.773	10.09
353.985	16.58
354.197	8.04
354.409	11.59
354.621	12.67
354.832	4.43
355.044	11.5
355.256	11.95
355.468	4.38
355.679	8.34
355.891	10.18
356.103	14.09
356.314	21.94
356.526	12.63
356.738	5.1
356.949	15.63
357.161	17.97
357.373	16.9
357.584	19.16
357.796	17.23
358.008	25.02
358.219	36.79
358.431	27.76
358.642	27.54
358.854	31.37
359.065	24.2
359.277	25.05
359.488	16.29
359.7	20.78
359.911	22.9
360.123	29.37
360.334	25.2
360.546	23.84
360.757	25.63
360.969	34.57
361.18	26.07
361.391	25.4
361.603	21.62
361.814	26.11
362.025	28.76
362.237	22.81
362.448	17.88
362.659	12.21
362.871	10.53
363.082	17.68
363.293	12.44
363.504	8.82
363.716	15.03
363.927	14.33
364.138	20.16
364.349	23.03
364.56	15.98
364.772	14.4
364.983	9.22
365.194	5.54
365.405	2.99
365.616	0.56
365.827	-4.93
366.038	6.78
366.25	8.4
366.461	24.46
366.672	24.65
366.883	27.33
367.094	22.59
367.305	25.79
367.516	18.04
367.727	16.96
367.938	13.37
368.149	8.67
368.36	7.41
368.571	17.7
368.781	11.51
368.992	10.76
369.203	14.58
369.414	9.73
369.625	14.77
369.836	18.31
370.047	12.39
370.258	9.83
370.468	3.72
370.679	-0.86
370.89	5.77
371.101	-0.99
371.312	-6.78
371.522	-9.38
371.733	-4.94
371.944	5.97
372.155	-1.16
372.365	-8.98
372.576	-10.79
372.787	-10.02
372.997	-12.43
373.208	-7.34
373.419	-17.25
373.629	-5.8
373.84	-10.57
374.05	4.5
374.261	2.59
374.472	5.06
374.682	-2.69
374.893	-5.66
375.103	-0.18
375.314	11.01
375.524	6.42
375.735	10.7
375.945	17.72
376.156	28.64
376.366	33.44
376.577	29.3
376.787	29.4
376.997	31.8
377.208	26.62
377.418	19.45
377.629	10.81
377.839	16.88
378.049	19.18
378.26	14.22
378.47	15.83
378.68	17.03
378.89	15.4
379.101	7.19
379.311	1.9
379.521	4.12
379.732	-2.29
379.942	-3.77
380.152	10.7
380.362	19.01
380.572	30.82
380.783	29.96
380.993	29.63
381.203	42.18
381.413	42.64
381.623	32.83
381.833	22.91
382.043	14.52
382.253	13.03
382.463	12.06
382.674	5.55
382.884	-2.53
383.094	-4.02
383.304	-4.8
383.514	1.96
383.724	4.12
383.934	-1.33
384.144	1.33
384.353	5.89
384.563	5.78
384.773	8.32
384.983	7.15
385.193	5.67
385.403	9.86
385.613	5.7
385.823	4.47
386.033	2.8
386.242	2.64
386.452	0.92
386.662	1.58
386.872	-0.7
387.082	-0.84
387.291	0.86
387.501	4.08
387.711	3.8
387.921	8.22
388.13	9.35
388.34	8.25
388.55	9.7
388.759	8.14
388.969	5.38
389.179	7.5
389.388	5.09
389.598	2.54
389.807	3.02
390.017	2.69
390.227	1.92
390.436	2.01
390.646	1.19
390.855	0.3
391.065	1.37
391.274	0.74
391.484	3.24
391.693	4.87
391.903	5.29
392.112	5.43
392.322	7.52
392.531	7.79
392.74	7.84
392.95	6.46
393.159	5.67
393.369	5.19
393.578	4.67
393.787	3.97
393.997	4.74
394.206	5.19
394.415	5.05
394.625	4.38
394.834	3.36
395.043	3.92
395.252	4.1
395.462	4.36
395.671	4.91
395.88	5.09
396.089	6.08
396.298	6.55
396.508	6.23
396.717	5.48
396.926	4.7
397.135	4.13
397.344	3.52
397.553	3.32
397.762	3.39
397.971	3.3
398.181	2.95
398.39	2.98
398.599	2.93
398.808	3.4
399.017	3.08
399.226	3.44
399.435	3.39
399.644	3.6
399.853	3.58
400.062	3.57
400.27	3.41
400.479	3.57
400.688	3.44
400.897	3.58
401.106	3.75
401.315	3.83
401.524	3.87
401.733	4.02
401.941	3.97
402.15	3.55
402.359	3.57
402.568	3.58
402.777	3.41
402.985	3.34
403.194	3.22
403.403	3.03
403.612	3.37
403.82	3.44
404.029	3.3
404.238	3.33
404.446	3.25
404.655	3.15
404.864	3.26
405.072	3.17
405.281	2.86
405.489	2.98
405.698	2.91
405.906	2.94
406.115	3.07
406.324	2.96
406.532	3
406.741	3.23
406.949	3.13
407.158	3.21
407.366	3.35
407.574	3.31
407.783	3.33
407.991	3.19
408.2	3.09
408.408	3.09
408.617	2.98
408.825	2.95
409.033	2.93
409.242	2.96
409.45	2.99
409.658	2.99
409.867	2.97
410.075	3.07
410.283	2.91
410.491	2.84
410.7	2.8
410.908	2.9
411.116	2.85
411.324	2.89
411.533	2.77
411.741	2.83
411.949	2.84
412.157	2.88
412.365	2.79
412.573	2.8
412.781	2.8
412.99	2.96
413.198	2.97
413.406	3
413.614	2.99
413.822	2.98
414.03	2.96
414.238	3.02
414.446	2.88
414.654	2.87
414.862	2.76
415.07	2.8
415.278	2.74
415.486	2.82
415.694	2.62
415.902	2.66
416.109	2.7
416.317	2.7
416.525	2.73
416.733	2.87
416.941	2.7
417.149	2.87
417.357	2.81
417.564	2.77
417.772	2.83
417.98	2.68
418.188	2.51
418.395	2.65
418.603	2.51
418.811	2.47
419.019	2.54
419.226	2.58
419.434	2.58
419.642	2.64
419.849	2.58
420.057	2.65
420.265	2.67
420.472	2.51
420.68	2.47
420.887	2.58
421.095	2.6
421.302	2.7
421.51	2.77
421.717	2.88
421.925	2.87
422.132	2.73
422.34	2.65
422.547	2.6
422.755	2.53
422.962	2.39
423.17	2.27
423.377	2.5
423.585	2.68
423.792	2.65
423.999	2.69
424.207	2.62
424.414	2.62
424.621	2.71
424.829	2.48
425.036	2.45
425.243	2.5
425.451	2.47
425.658	2.67
425.865	2.64
426.072	2.61
426.28	2.7
426.487	2.68
426.694	2.66
426.901	2.67
427.108	2.58
427.315	2.65
427.523	2.68
427.73	2.66
427.937	2.64
428.144	2.7
428.351	2.74
428.558	2.71
428.765	2.7
428.972	2.69
429.179	2.67
429.386	2.73
429.593	2.66
429.8	2.66
430.007	2.74
430.214	2.74
430.421	2.65
430.628	2.55
430.835	2.41
431.042	2.45
431.249	2.44
431.456	2.37
431.662	2.43
431.869	2.53
432.076	2.68
432.283	2.75
432.49	2.74
432.697	2.77
432.903	2.77
433.11	2.82
433.317	2.82
433.524	2.71
433.73	2.84
433.937	2.76
434.144	2.78
434.35	2.8
434.557	2.69
434.764	2.64
434.97	2.77
435.177	2.64
435.384	2.76
435.59	2.75
435.797	2.76
436.003	2.78
436.21	2.78
436.416	2.76
436.623	2.85
436.829	2.84
437.036	2.83
437.242	2.81
437.449	2.84
437.655	2.89
437.862	2.85
438.068	2.88
438.275	2.89
438.481	2.92
438.687	2.98
438.894	3.01
439.1	3.03
439.307	3.05
439.513	3.02
439.719	3.03
439.926	3.05
440.132	2.98
440.338	2.96
440.544	2.93
440.751	2.94
440.957	2.91
441.163	2.88
441.369	2.87
441.575	2.88
441.782	2.87
441.988	2.84
442.194	2.87
442.4	2.92
442.606	2.95
442.812	2.93
443.018	2.95
443.224	2.98
443.431	3.04
443.637	3.02
443.843	2.98
444.049	2.92
444.255	2.92
444.461	2.93
444.667	2.99
444.873	2.99
445.079	3.07
445.284	3.1
445.49	3.12
445.696	3.16
445.902	3.21
446.108	3.18
446.314	3.25
446.52	3.22
446.726	3.19
446.931	3.28
447.137	3.3
447.343	3.22
447.549	3.21
447.755	3.09
447.96	3.04
448.166	3.09
448.372	3.04
448.578	3.04
448.783	3.09
448.989	3.08
449.195	3.09
449.4	3.13
449.606	3.07
449.812	3.1
450.017	3.07
450.223	3.02
450.428	3.05
450.634	3.11
450.84	3.08
451.045	3.06
451.251	3.07
451.456	3.07
451.662	3.1
451.867	3.08
452.073	3.07
452.278	3.03
452.483	3.13
452.689	3.12
452.894	3.1
453.1	3.06
453.305	3.1
453.51	3.1
453.716	3.14
453.921	3.11
454.127	3.1
454.332	3.12
454.537	3.21
454.742	3.18
454.948	3.17
455.153	3.21
455.358	3.23
455.563	3.27
455.769	3.27
455.974	3.21
456.179	3.19
456.384	3.22
456.589	3.24
456.795	3.14
457	3.14
457.205	3.1
457.41	3.15
457.615	3.22
457.82	3.24
458.025	3.17
458.23	3.22
458.435	3.16
458.64	3.26
458.845	3.24
459.05	3.17
459.255	3.13
459.46	3.15
459.665	3.23
459.87	3.26
460.075	3.23
460.28	3.2
460.485	3.27
460.69	3.2
460.895	3.27
461.099	3.18
461.304	3.2
461.509	3.14
461.714	3.16
461.919	3.1
462.123	3.17
462.328	3.1
462.533	3.17
462.738	3.19
462.942	3.26
463.147	3.29
463.352	3.34
463.556	3.37
463.761	3.36
463.966	3.38
464.17	3.39
464.375	3.36
464.58	3.33
464.784	3.31
464.989	3.28
465.193	3.34
465.398	3.36
465.602	3.35
465.807	3.39
466.011	3.43
466.216	3.47
466.42	3.58
466.625	3.54
466.829	3.52
467.034	3.5
467.238	3.54
467.443	3.54
467.647	3.51
467.851	3.47
468.056	3.45
468.26	3.43
468.464	3.49
468.669	3.46
468.873	3.49
469.077	3.55
469.282	3.57
469.486	3.65
469.69	3.7
469.894	3.68
