Data from Ofra_2a_PS_6EV18_Reflection_1.txt Node
Date: Tue Jul 20 09:52:55 EDT 2021
User: Adam
Spectrometer: FLMT01687
Trigger mode: 0
Integration Time (sec): 9.450000E-1
Scans to average: 3
Electric dark correction enabled: true
Nonlinearity correction enabled: false
Boxcar width: 3
XAxis mode: Wavelengths
Number of Pixels in Spectrum: 3648
>>>>>Begin Spectral Data<<<<<
179.494	913.02
179.716	566.64
179.937	642.31
180.158	2721.48
180.38	-1292.73
180.601	-256.04
180.823	-55.55
181.044	-7.87
181.265	-99.88
181.486	80.2
181.708	840.22
181.929	91.28
182.15	-85.8
182.372	107.85
182.593	26.28
182.814	243.26
183.035	95.97
183.257	53.8
183.478	18.7
183.699	47.36
183.92	53.69
184.141	54.96
184.363	63.78
184.584	44.22
184.805	56.39
185.026	69.42
185.247	36.06
185.468	22.05
185.689	21.63
185.91	-2.32
186.132	3.17
186.353	-12.29
186.574	7.05
186.795	5.29
187.016	10.38
187.237	8.37
187.458	0.39
187.679	-17.02
187.9	-7.35
188.121	-3.19
188.342	28.91
188.563	26.05
188.784	46.71
189.005	61.11
189.226	61.69
189.447	63.37
189.667	55.73
189.888	46.65
190.109	48.55
190.33	21.18
190.551	27.02
190.772	29.01
190.993	26.97
191.214	24.19
191.434	19.49
191.655	23.6
191.876	33.54
192.097	30.21
192.318	45.47
192.538	49.74
192.759	60.15
192.98	53.96
193.201	62.12
193.421	61.6
193.642	54.5
193.863	29.5
194.083	14.87
194.304	-10.13
194.525	25.99
194.745	-1.43
194.966	-2.45
195.187	19.09
195.407	27.73
195.628	28.37
195.848	34.46
196.069	26.66
196.29	24.33
196.51	21.15
196.731	25
196.951	14.38
197.172	20.32
197.392	24.3
197.613	17.57
197.833	16.95
198.054	25.72
198.274	-2.07
198.495	18.67
198.715	0.52
198.936	-10.23
199.156	-7.88
199.377	3.27
199.597	4.3
199.817	32.14
200.038	21.97
200.258	37.9
200.479	37.07
200.699	33.36
200.919	18.16
201.14	12.69
201.36	10.58
201.58	15.92
201.801	9.23
202.021	17.62
202.241	21.74
202.461	39.04
202.682	40.39
202.902	33.78
203.122	25.22
203.342	37.26
203.563	33.29
203.783	34.57
204.003	31.75
204.223	39.16
204.443	34.89
204.663	38.04
204.884	33.99
205.104	38.82
205.324	44
205.544	47.66
205.764	39.94
205.984	41.58
206.204	41.75
206.424	38.17
206.644	28.36
206.864	21.17
207.084	28.86
207.304	24.81
207.525	27.12
207.745	37.82
207.964	29.11
208.184	28.21
208.404	23.3
208.624	-9.78
208.844	-11.31
209.064	-19.7
209.284	-17.86
209.504	-14.06
209.724	-35.78
209.944	-39.76
210.164	-4.16
210.384	-0.34
210.604	1.63
210.823	-11.29
211.043	-15.08
211.263	15.44
211.483	16.34
211.703	19.07
211.922	24.98
212.142	37.48
212.362	43.78
212.582	38.1
212.801	28.62
213.021	31.29
213.241	4.7
213.461	-1.53
213.68	-11.43
213.9	-9.03
214.12	-12.46
214.339	-5.27
214.559	3.76
214.779	20.78
214.998	22.62
215.218	26.54
215.438	36.93
215.657	45.62
215.877	47.66
216.096	37.89
216.316	30.91
216.535	28.59
216.755	25.38
216.974	11.05
217.194	14.49
217.413	19.27
217.633	21.95
217.852	28.78
218.072	41.65
218.291	46.24
218.511	36.21
218.73	32.95
218.95	36.34
219.169	49.88
219.389	35.67
219.608	30.43
219.827	8.63
220.047	37.56
220.266	37.82
220.485	37.53
220.705	16.04
220.924	27.04
221.143	15
221.363	18.61
221.582	7.97
221.801	10.33
222.021	13.78
222.24	36.91
222.459	31.98
222.678	38.37
222.897	40.42
223.117	27.03
223.336	21.06
223.555	14.96
223.774	9.66
223.993	19.06
224.213	19.25
224.432	14.76
224.651	22.77
224.87	33.39
225.089	32.8
225.308	28.52
225.527	35.15
225.746	39.8
225.965	37.18
226.184	38.56
226.404	36.44
226.623	46.28
226.842	51.79
227.061	38.09
227.28	58.5
227.499	59.48
227.718	48.68
227.936	34.22
228.155	29.61
228.374	23.18
228.593	25.41
228.812	14.04
229.031	-4.42
229.25	14.71
229.469	36.02
229.688	27.65
229.907	38.27
230.125	32.38
230.344	38.66
230.563	53.17
230.782	42.6
231.001	47.54
231.22	57.83
231.438	51.56
231.657	56.19
231.876	50.98
232.095	46.81
232.313	52.55
232.532	46.91
232.751	53.33
232.969	51.8
233.188	50.58
233.407	55.23
233.625	58.32
233.844	57.8
234.063	54.47
234.281	45.31
234.5	42.16
234.719	41.93
234.937	42.2
235.156	33.89
235.374	30.08
235.593	33.8
235.811	23.31
236.03	2.35
236.249	11.04
236.467	16.25
236.686	23.46
236.904	16.77
237.123	0.62
237.341	6.28
237.559	21.58
237.778	23.23
237.996	21.8
238.215	13.5
238.433	23.49
238.652	25.97
238.87	28.58
239.088	15.39
239.307	12.07
239.525	3
239.743	8.99
239.962	7.55
240.18	16.6
240.398	20.13
240.617	36.28
240.835	33.09
241.053	48.89
241.271	47.26
241.49	40.75
241.708	34.68
241.926	29.72
242.144	27.75
242.363	17.69
242.581	11.12
242.799	-0.16
243.017	12.27
243.235	11.22
243.453	14.82
243.672	14.58
243.89	34.14
244.108	42.42
244.326	47.94
244.544	38.74
244.762	30.87
244.98	28.36
245.198	19.31
245.416	15.08
245.634	12
245.852	15.07
246.07	18.29
246.288	20.21
246.506	38.28
246.724	47.84
246.942	48.47
247.16	38.67
247.378	30.7
247.596	29.08
247.814	25.28
248.032	6.36
248.25	2.72
248.468	10.83
248.685	22.4
248.903	27.8
249.121	27.1
249.339	27.11
249.557	29.95
249.775	23.82
249.992	15.14
250.21	6.47
250.428	9.6
250.646	17.17
250.863	19.92
251.081	28.43
251.299	40.22
251.517	62.39
251.734	61.93
251.952	64.53
252.17	63.77
252.387	59.19
252.605	60.07
252.823	48.2
253.04	29.11
253.258	26.01
253.475	20.54
253.693	36.13
253.911	41.45
254.128	36.43
254.346	41.8
254.563	40.6
254.781	40.23
254.998	41.33
255.216	28.81
255.433	20.82
255.651	17.17
255.868	17.18
256.086	14.24
256.303	16.21
256.521	10.63
256.738	10.51
256.956	9.16
257.173	11.09
257.39	15.27
257.608	21.28
257.825	19.12
258.043	19.4
258.26	18.03
258.477	22.04
258.695	23.03
258.912	24.95
259.129	20.48
259.346	23.64
259.564	22.77
259.781	32.17
259.998	37.69
260.216	37.66
260.433	35.71
260.65	44.33
260.867	39.54
261.084	53.84
261.302	55.81
261.519	52.01
261.736	49.17
261.953	35.85
262.17	31.38
262.387	23.81
262.604	0.84
262.822	-9.5
263.039	-1.28
263.256	-0.67
263.473	2.24
263.69	-5.59
263.907	8.34
264.124	6.95
264.341	6.31
264.558	11.88
264.775	10.88
264.992	7.42
265.209	20.9
265.426	15.24
265.643	18.25
265.86	17.32
266.077	15.31
266.294	21.7
266.51	23.37
266.727	3.65
266.944	-1.36
267.161	-3.32
267.378	-0.31
267.595	-8.85
267.812	-12.51
268.028	-2.45
268.245	12.51
268.462	29.71
268.679	24.74
268.896	27.57
269.112	31.96
269.329	30.77
269.546	32.65
269.763	35.1
269.979	22.63
270.196	31.14
270.413	26.9
270.629	24.18
270.846	25.86
271.063	24.43
271.279	20.31
271.496	14.79
271.712	17.1
271.929	19.85
272.146	23.81
272.362	7.71
272.579	4.13
272.795	-1.33
273.012	5.63
273.228	2.47
273.445	-0.37
273.661	-5.06
273.878	8.7
274.094	9.33
274.311	13.76
274.527	15.42
274.744	13.43
274.96	15.46
275.177	26.5
275.393	28.53
275.609	32.61
275.826	39.78
276.042	49.96
276.259	45.63
276.475	45.66
276.691	36.14
276.908	29.47
277.124	28.54
277.34	15.85
277.557	17.15
277.773	13.89
277.989	12.57
278.205	3.55
278.422	10.77
278.638	17.2
278.854	29.23
279.07	19.59
279.286	28.55
279.503	34.06
279.719	51.94
279.935	43.85
280.151	43.28
280.367	35.75
280.583	33
280.799	33.25
281.016	32.13
281.232	17.29
281.448	22.68
281.664	14.79
281.88	14.58
282.096	14.02
282.312	10.75
282.528	-4.8
282.744	0.36
282.96	-2.06
283.176	1.59
283.392	4.34
283.608	15.66
283.824	13.22
284.04	26.03
284.256	40.83
284.471	47.93
284.687	49.71
284.903	52.81
285.119	42.13
285.335	34.22
285.551	32.58
285.767	23.84
285.982	10.35
286.198	-0.94
286.414	11.32
286.63	16.79
286.846	23.94
287.061	33.4
287.277	28.62
287.493	40.82
287.709	45.24
287.924	35.5
288.14	37.1
288.356	41.01
288.571	22.86
288.787	23.18
289.003	13.28
289.218	13.89
289.434	19.69
289.65	23.91
289.865	22.83
290.081	25.94
290.296	29.18
290.512	40.57
290.727	45.64
290.943	38.53
291.159	30.1
291.374	26.66
291.59	26.52
291.805	22.5
292.021	8.53
292.236	0.66
292.451	9.51
292.667	12.89
292.882	9.39
293.098	8.87
293.313	10.76
293.529	12.46
293.744	20.75
293.959	16.77
294.175	21.97
294.39	37.56
294.605	39.06
294.821	29.2
295.036	35.58
295.251	38.88
295.467	23.87
295.682	24.4
295.897	16.01
296.112	15.04
296.328	29.84
296.543	22.04
296.758	10.05
296.973	19.22
297.188	10.39
297.404	17.23
297.619	20.32
297.834	16.02
298.049	20.01
298.264	22.75
298.479	17.96
298.694	25.4
298.909	19.45
299.125	21.67
299.34	21.65
299.555	26.35
299.77	26.77
299.985	24.76
300.2	23.47
300.415	30.03
300.63	21.06
300.845	21.98
301.06	20.17
301.275	21.81
301.49	31.55
301.704	31.55
301.919	23.7
302.134	23.25
302.349	13.61
302.564	9.4
302.779	10.09
302.994	-3.56
303.209	-10.68
303.423	-0.16
303.638	12.1
303.853	23.96
304.068	22.47
304.283	19.25
304.497	27.09
304.712	34.29
304.927	26.08
305.142	19.79
305.356	23.72
305.571	30.15
305.786	30.24
306	37.88
306.215	32.05
306.43	45.27
306.644	52.05
306.859	50.95
307.074	37.27
307.288	40.61
307.503	32.56
307.717	30.49
307.932	27.27
308.147	23.1
308.361	10.43
308.576	16.28
308.79	13.5
309.005	11.86
309.219	15.04
309.434	5.96
309.648	-0.81
309.863	9.67
310.077	7.44
310.292	16.72
310.506	28.96
310.72	32.9
310.935	45.2
311.149	50.86
311.364	46.39
311.578	42.46
311.792	29.75
312.007	20.08
312.221	26.86
312.435	17.5
312.649	10.04
312.864	10.55
313.078	24.58
313.292	32.4
313.507	41.47
313.721	26.65
313.935	46.53
314.149	39.82
314.363	52.09
314.578	75.59
314.792	76.88
315.006	77.54
315.22	79.73
315.434	62.45
315.648	62.71
315.862	44.2
316.077	25.36
316.291	25.78
316.505	17.23
316.719	-2.16
316.933	10.44
317.147	13.42
317.361	25.7
317.575	19.68
317.789	23.29
318.003	26.45
318.217	36.74
318.431	36.38
318.645	33.88
318.859	26.23
319.073	27.37
319.287	29.38
319.5	29.08
319.714	25
319.928	32.5
320.142	28.9
320.356	31.61
320.57	33.46
320.784	28.87
320.997	33.35
321.211	36.47
321.425	21.26
321.639	30.66
321.853	19.88
322.066	18.73
322.28	19.19
322.494	15.72
322.707	11.92
322.921	18.33
323.135	18.84
323.349	29.93
323.562	30.84
323.776	24.38
323.989	21.46
324.203	23.41
324.417	11.72
324.63	5.24
324.844	-10.94
325.057	-10.95
325.271	-18.24
325.485	-18.54
325.698	-19.66
325.912	-2.5
326.125	2.43
326.339	13.55
326.552	16.55
326.766	30.36
326.979	37.45
327.193	33.07
327.406	31.87
327.619	23.01
327.833	24.86
328.046	10.14
328.26	-6.96
328.473	-15.72
328.686	-5.58
328.9	-8.75
329.113	2.38
329.326	14.16
329.54	22.69
329.753	26.95
329.966	32.31
330.179	36.19
330.393	37.2
330.606	34.3
330.819	32.45
331.032	38.65
331.246	43.62
331.459	44.64
331.672	47.74
331.885	44.86
332.098	45.08
332.311	23.47
332.525	22.86
332.738	29.18
332.951	29.86
333.164	18.23
333.377	9.89
333.59	13.84
333.803	23.37
334.016	12.27
334.229	12.45
334.442	11.14
334.655	29.41
334.868	36.02
335.081	45.16
335.294	38.85
335.507	47.83
335.72	36.86
335.933	38.08
336.146	32.68
336.359	35.46
336.572	19.67
336.785	31.91
336.997	25.39
337.21	24.67
337.423	21.61
337.636	16.83
337.849	15.4
338.062	18.65
338.274	12.56
338.487	9.21
338.7	13
338.913	9.26
339.125	8.15
339.338	13.67
339.551	24.53
339.763	24.73
339.976	24.53
340.189	17.39
340.402	17.5
340.614	22.65
340.827	8.68
341.039	5.57
341.252	5.05
341.465	-0.52
341.677	-1.03
341.89	-2.15
342.102	-2
342.315	13.09
342.527	6.08
342.74	11.24
342.952	21.61
343.165	38.98
343.377	44.95
343.59	40.83
343.802	34.67
344.015	35.94
344.227	21.61
344.44	12.09
344.652	11.63
344.864	7.39
345.077	-0.44
345.289	-1.46
345.502	-0.97
345.714	0.45
345.926	15.5
346.139	14.71
346.351	-0.14
346.563	9.17
346.775	0.91
346.988	3.83
347.2	14.94
347.412	9.48
347.624	2.24
347.837	14.78
348.049	10.27
348.261	11.29
348.473	2.01
348.685	-0.5
348.897	-6.56
349.11	-0.81
349.322	-3.14
349.534	-0.31
349.746	17.6
349.958	26.25
350.17	25.26
350.382	28.78
350.594	36.12
350.806	43.04
351.018	44.07
351.23	39.18
351.442	41.72
351.654	48.36
351.866	56.79
352.078	49.12
352.29	44.12
352.502	46.62
352.714	47.75
352.926	43.78
353.138	33.8
353.35	16.37
353.561	9.02
353.773	14.38
353.985	20.8
354.197	13.49
354.409	20.53
354.621	22.65
354.832	24.06
355.044	30.17
355.256	24.11
355.468	8.24
355.679	12.85
355.891	4.23
356.103	7.23
356.314	12.4
356.526	16.25
356.738	13.66
356.949	22.06
357.161	24.19
357.373	30.7
357.584	34.39
357.796	24.96
358.008	13.37
358.219	25.53
358.431	22.16
358.642	14.54
358.854	15.74
359.065	8.58
359.277	12.2
359.488	16.38
359.7	10.55
359.911	9.2
360.123	17.23
360.334	14
360.546	8.7
360.757	18.95
360.969	21.71
361.18	22.01
361.391	21.14
361.603	21.45
361.814	26.93
362.025	31.58
362.237	21.9
362.448	24.55
362.659	15.77
362.871	18.45
363.082	19.32
363.293	16.22
363.504	21.87
363.716	22.47
363.927	23.68
364.138	29.73
364.349	33.24
364.56	31.92
364.772	34.37
364.983	26.06
365.194	34.18
365.405	29.44
365.616	26.39
365.827	16.15
366.038	22.43
366.25	14.83
366.461	23.47
366.672	14.67
366.883	21.52
367.094	21.96
367.305	22.44
367.516	10.64
367.727	12.29
367.938	8.87
368.149	17.71
368.36	15.08
368.571	11.11
368.781	13.14
368.992	11.26
369.203	12.95
369.414	6.28
369.625	-4.69
369.836	-6.54
370.047	-0.75
370.258	-2.18
370.468	-2.77
370.679	-5.93
370.89	15.13
371.101	16.91
371.312	16.58
371.522	17.02
371.733	12.99
371.944	24.03
372.155	12.71
372.365	-0.36
372.576	3.21
372.787	1.55
372.997	2.93
373.208	13.58
373.419	2.67
373.629	22.72
373.84	24.01
374.05	29.14
374.261	28.31
374.472	23.28
374.682	14.89
374.893	11.8
375.103	11.36
375.314	9.06
375.524	7.06
375.735	14.81
375.945	22.13
376.156	23.16
376.366	31.17
376.577	35.33
376.787	45.13
376.997	47.98
377.208	37.38
377.418	33.7
377.629	33.07
377.839	37.62
378.049	33.93
378.26	29.77
378.47	26.31
378.68	32.29
378.89	26.44
379.101	18.22
379.311	13.84
379.521	15.41
379.732	4.11
379.942	7
380.152	10.49
380.362	16.43
380.572	24.3
380.783	24.66
380.993	18.6
381.203	24.86
381.413	24.96
381.623	21.46
381.833	18.19
382.043	14.04
382.253	13.76
382.463	13.81
382.674	12.43
382.884	8.7
383.094	9
383.304	7.39
383.514	10.45
383.724	6.44
383.934	8.1
384.144	9.34
384.353	11.66
384.563	12.42
384.773	16.71
384.983	16.95
385.193	22.24
385.403	25.04
385.613	19.97
385.823	18.81
386.033	17.83
386.242	17.03
386.452	13.95
386.662	12.52
386.872	5.73
387.082	6.45
387.291	6.37
387.501	6.37
387.711	4.31
387.921	5.92
388.13	3.24
388.34	6.58
388.55	8.56
388.759	6.93
388.969	4.68
389.179	7.5
389.388	5.18
389.598	4.24
389.807	3.29
390.017	1.55
390.227	2.69
390.436	2.74
390.646	3.12
390.855	4.38
391.065	5.6
391.274	4.36
391.484	6.79
391.693	7.37
391.903	6.48
392.112	4.53
392.322	6.69
392.531	6.42
392.74	5.3
392.95	5.67
393.159	5.11
393.369	4.95
393.578	4.94
393.787	4.13
393.997	4.98
394.206	6.11
394.415	4.78
394.625	4.33
394.834	4.6
395.043	5
395.252	5.07
395.462	5.05
395.671	5.24
395.88	5.14
396.089	5.74
396.298	5.98
396.508	5.39
396.717	4.88
396.926	4.42
397.135	3.79
397.344	3.66
397.553	3.08
397.762	3.09
397.971	3.24
398.181	2.97
398.39	2.82
398.599	3.2
398.808	3.34
399.017	3.66
399.226	3.62
399.435	3.4
399.644	3.37
399.853	3.35
400.062	3.06
400.27	3.06
400.479	2.68
400.688	2.59
400.897	2.67
401.106	2.74
401.315	2.81
401.524	3.03
401.733	3.04
401.941	3.33
402.15	3.06
402.359	3.16
402.568	3.07
402.777	2.96
402.985	2.79
403.194	2.64
403.403	2.28
403.612	2.58
403.82	2.5
404.029	2.51
404.238	2.55
404.446	2.56
404.655	2.58
404.864	2.68
405.072	2.52
405.281	2.37
405.489	2.47
405.698	2.38
405.906	2.36
406.115	2.34
406.324	2.28
406.532	2.33
406.741	2.44
406.949	2.25
407.158	2.35
407.366	2.43
407.574	2.38
407.783	2.38
407.991	2.25
408.2	2.22
408.408	2.28
408.617	2.18
408.825	2.04
409.033	2.07
409.242	2.07
409.45	2.06
409.658	2.07
409.867	2.05
410.075	2.04
410.283	2.04
410.491	2.06
410.7	2.08
410.908	2.08
411.116	2.01
411.324	2.12
411.533	2.06
411.741	2.08
411.949	2.04
412.157	2
412.365	2.07
412.573	2.06
412.781	2.01
412.99	2.11
413.198	2.12
413.406	2.1
413.614	2.14
413.822	2.09
414.03	2.05
414.238	2.07
414.446	1.96
414.654	1.94
414.862	1.92
415.07	1.92
415.278	1.86
415.486	1.98
415.694	1.81
415.902	1.83
416.109	1.82
416.317	1.81
416.525	1.83
416.733	1.91
416.941	1.79
417.149	1.96
417.357	1.99
417.564	2.01
417.772	2.09
417.98	1.97
418.188	1.87
418.395	1.91
418.603	1.78
418.811	1.68
419.019	1.66
419.226	1.73
419.434	1.71
419.642	1.71
419.849	1.79
420.057	1.83
420.265	1.9
420.472	1.79
420.68	1.61
420.887	1.66
421.095	1.65
421.302	1.59
421.51	1.68
421.717	1.76
421.925	1.82
422.132	1.8
422.34	1.82
422.547	1.82
422.755	1.78
422.962	1.66
423.17	1.57
423.377	1.67
423.585	1.79
423.792	1.79
423.999	1.89
424.207	1.75
424.414	1.8
424.621	1.97
424.829	1.85
425.036	1.72
425.243	1.75
425.451	1.78
425.658	1.95
425.865	1.88
426.072	1.77
426.28	1.8
426.487	1.88
426.694	1.77
426.901	1.65
427.108	1.61
427.315	1.63
427.523	1.63
427.73	1.66
427.937	1.62
428.144	1.66
428.351	1.78
428.558	1.78
428.765	1.73
428.972	1.71
429.179	1.58
429.386	1.66
429.593	1.69
429.8	1.67
430.007	1.65
430.214	1.67
430.421	1.66
430.628	1.64
430.835	1.56
431.042	1.56
431.249	1.57
431.456	1.6
431.662	1.63
431.869	1.73
432.076	1.89
432.283	1.86
432.49	1.89
432.697	1.85
432.903	1.88
433.11	1.93
433.317	1.86
433.524	1.73
433.73	1.78
433.937	1.79
434.144	1.93
434.35	1.9
434.557	1.8
434.764	1.77
434.97	1.89
435.177	1.84
435.384	1.87
435.59	1.75
435.797	1.77
436.003	1.79
436.21	1.77
436.416	1.71
436.623	1.81
436.829	1.78
437.036	1.79
437.242	1.76
437.449	1.87
437.655	1.85
437.862	1.9
438.068	1.91
438.275	1.88
438.481	1.93
438.687	1.93
438.894	1.84
439.1	1.88
439.307	1.84
439.513	1.82
439.719	1.85
439.926	1.85
440.132	1.89
440.338	1.95
440.544	1.96
440.751	1.95
440.957	1.88
441.163	1.88
441.369	1.85
441.575	1.84
441.782	1.79
441.988	1.8
442.194	1.9
442.4	1.97
442.606	1.99
442.812	1.99
443.018	2.01
443.224	2.03
443.431	2.02
443.637	1.95
443.843	1.92
444.049	1.85
444.255	1.89
444.461	1.87
444.667	1.87
444.873	1.85
445.079	1.88
445.284	1.89
445.49	1.88
445.696	1.86
445.902	1.9
446.108	1.92
446.314	1.99
446.52	1.97
446.726	1.94
446.931	1.94
447.137	1.91
447.343	1.91
447.549	1.83
447.755	1.77
447.96	1.76
448.166	1.83
448.372	1.9
448.578	1.93
448.783	1.9
448.989	1.97
449.195	1.97
449.4	1.98
449.606	1.89
449.812	1.92
450.017	1.92
450.223	1.93
450.428	1.9
450.634	1.95
450.84	1.94
451.045	1.98
451.251	1.97
451.456	1.94
451.662	1.95
451.867	1.93
452.073	1.92
452.278	1.92
452.483	1.94
452.689	1.94
452.894	1.95
453.1	1.91
453.305	1.92
453.51	1.95
453.716	1.97
453.921	1.93
454.127	1.88
454.332	1.91
454.537	1.99
454.742	1.97
454.948	1.9
455.153	1.89
455.358	1.95
455.563	1.99
455.769	1.97
455.974	1.89
456.179	1.86
456.384	1.92
456.589	2
456.795	1.9
457	1.87
457.205	1.85
457.41	1.91
457.615	2
457.82	2.02
458.025	1.96
458.23	2.01
458.435	1.95
458.64	2.01
458.845	1.97
459.05	1.92
459.255	1.86
459.46	1.84
459.665	1.92
459.87	1.95
460.075	1.94
460.28	1.93
460.485	1.99
460.69	1.94
460.895	2
461.099	1.92
461.304	1.93
461.509	1.84
461.714	1.85
461.919	1.8
462.123	1.89
462.328	1.85
462.533	1.86
462.738	1.87
462.942	1.92
463.147	1.95
463.352	1.98
463.556	1.98
463.761	2.02
463.966	2.05
464.17	2.12
464.375	2.11
464.58	2.06
464.784	2.1
464.989	2.09
465.193	2.09
465.398	2.1
465.602	2.06
465.807	2.13
466.011	2.19
466.216	2.16
466.42	2.22
466.625	2.21
466.829	2.25
467.034	2.27
467.238	2.26
467.443	2.25
467.647	2.29
467.851	2.25
468.056	2.22
468.26	2.16
468.464	2.13
468.669	2.16
468.873	2.14
469.077	2.08
469.282	2.05
469.486	2.09
