Data from Ofra_2a_PS_2H527_Reflection_2.txt Node
Date: Tue Jul 20 09:47:29 EDT 2021
User: Adam
Spectrometer: FLMT01687
Trigger mode: 0
Integration Time (sec): 9.450000E-1
Scans to average: 3
Electric dark correction enabled: true
Nonlinearity correction enabled: false
Boxcar width: 3
XAxis mode: Wavelengths
Number of Pixels in Spectrum: 3648
>>>>>Begin Spectral Data<<<<<
179.494	849.11
179.716	522.54
179.937	585.71
180.158	2364.06
180.38	-1120.93
180.601	-278.07
180.823	-132.6
181.044	-21.91
181.265	-118.18
181.486	53.74
181.708	34.78
181.929	48.37
182.15	11.36
182.372	5.78
182.593	-48.97
182.814	482.63
183.035	377.69
183.257	182.76
183.478	97.96
183.699	95.78
183.92	75.78
184.141	71.19
184.363	51.47
184.584	29.74
184.805	30.3
185.026	19.54
185.247	22.15
185.468	11.91
185.689	12.13
185.91	26.85
186.132	33.14
186.353	34.72
186.574	44.35
186.795	38.55
187.016	51.15
187.237	54.2
187.458	48.75
187.679	44.76
187.9	55.82
188.121	48.04
188.342	61.53
188.563	47.42
188.784	49.9
189.005	52.89
189.226	57.38
189.447	40.61
189.667	24.17
189.888	38.13
190.109	39.98
190.33	30.15
190.551	25.68
190.772	19.04
190.993	28.97
191.214	39.37
191.434	20.35
191.655	28.42
191.876	31.79
192.097	32.01
192.318	37.66
192.538	42.25
192.759	42.08
192.98	39.17
193.201	55.48
193.421	58.6
193.642	56.35
193.863	57.14
194.083	45.3
194.304	36.36
194.525	49.47
194.745	11.01
194.966	16.41
195.187	19.47
195.407	12.22
195.628	12.38
195.848	11.95
196.069	1.31
196.29	-2.59
196.51	-8.6
196.731	5.38
196.951	13.07
197.172	11.25
197.392	30.58
197.613	19.78
197.833	27.17
198.054	23.5
198.274	-1.54
198.495	13.18
198.715	2.97
198.936	-20.29
199.156	-9.99
199.377	5.16
199.597	-8.51
199.817	21.28
200.038	10.86
200.258	14.7
200.479	7.46
200.699	20.12
200.919	0.36
201.14	10.53
201.36	9.47
201.58	12.86
201.801	6.04
202.021	18.06
202.241	16.4
202.461	34.77
202.682	38.33
202.902	35.08
203.122	30.35
203.342	50.27
203.563	50.89
203.783	42.08
204.003	33.55
204.223	32.43
204.443	20.37
204.663	18.06
204.884	3.32
205.104	-3.9
205.324	11.43
205.544	19.95
205.764	4.89
205.984	27.69
206.204	46.97
206.424	44.07
206.644	43.92
206.864	38.99
207.084	38.4
207.304	47.5
207.525	41.4
207.745	53.12
207.964	54.94
208.184	41.56
208.404	25.48
208.624	14.99
208.844	3.7
209.064	3.51
209.284	-7.74
209.504	-13.67
209.724	-22.5
209.944	-4.67
210.164	18.46
210.384	28.58
210.604	45.91
210.823	41.15
211.043	47.71
211.263	50.16
211.483	34.39
211.703	33.85
211.922	40.59
212.142	44.84
212.362	32.28
212.582	30.06
212.801	26.75
213.021	33.93
213.241	26.79
213.461	19.09
213.68	20.13
213.9	39.66
214.12	36.08
214.339	40.26
214.559	48.07
214.779	53.18
214.998	51.15
215.218	45.91
215.438	47.2
215.657	47.72
215.877	49.88
216.096	36.27
216.316	25.59
216.535	27.81
216.755	10.16
216.974	-4.18
217.194	-3.78
217.413	3.43
217.633	7.49
217.852	7.65
218.072	-0.66
218.291	37.4
218.511	45.25
218.73	48.24
218.95	56.31
219.169	62.6
219.389	50.51
219.608	58.45
219.827	45.63
220.047	43
220.266	47.55
220.485	34.16
220.705	30.49
220.924	41.69
221.143	23.02
221.363	30.2
221.582	26.01
221.801	24.92
222.021	18.45
222.24	26.04
222.459	17.78
222.678	23.08
222.897	4.35
223.117	14.81
223.336	17.78
223.555	18.97
223.774	12.38
223.993	32.2
224.213	33.28
224.432	47
224.651	39.37
224.87	35.82
225.089	46.82
225.308	38.89
225.527	33.35
225.746	37.35
225.965	31.83
226.184	33.27
226.404	31.86
226.623	41.6
226.842	49.86
227.061	45.91
227.28	52.16
227.499	53.74
227.718	47.74
227.936	40.36
228.155	33.59
228.374	44.58
228.593	48.45
228.812	39.52
229.031	32.46
229.25	43.54
229.469	55.38
229.688	58.8
229.907	46.37
230.125	41.55
230.344	50.85
230.563	62.16
230.782	51.89
231.001	47.3
231.22	40.88
231.438	43.44
231.657	46.56
231.876	36.11
232.095	34.2
232.313	44.81
232.532	37.44
232.751	43.46
232.969	49.07
233.188	44.91
233.407	51.52
233.625	52.49
233.844	44.82
234.063	46.49
234.281	38.29
234.5	29.99
234.719	26.19
234.937	22.96
235.156	8.64
235.374	-1.21
235.593	3.23
235.811	1.41
236.03	-12.48
236.249	-13.38
236.467	-7.53
236.686	9.47
236.904	9.74
237.123	11.02
237.341	13.07
237.559	15.39
237.778	30.95
237.996	26.03
238.215	12.53
238.433	22.78
238.652	23.44
238.87	21.87
239.088	22.64
239.307	20.43
239.525	17.46
239.743	18.12
239.962	15.59
240.18	21.18
240.398	23.4
240.617	27.2
240.835	23.62
241.053	31.89
241.271	40.2
241.49	35.83
241.708	26.54
241.926	20.07
242.144	19.95
242.363	13.23
242.581	12.95
242.799	6.83
243.017	11.23
243.235	18.94
243.453	26.93
243.672	25.1
243.89	39.87
244.108	47.09
244.326	43.52
244.544	47.18
244.762	39.33
244.98	37.26
245.198	22.57
245.416	12.83
245.634	19.89
245.852	20.99
246.07	18.22
246.288	11.73
246.506	13.81
246.724	43.2
246.942	48.39
247.16	31.96
247.378	27.52
247.596	38.49
247.814	40.28
248.032	36.33
248.25	27.75
248.468	27.14
248.685	21.9
248.903	25.71
249.121	7.53
249.339	6.08
249.557	13.4
249.775	-5.63
249.992	-4.49
250.21	-12.38
250.428	-13.01
250.646	-8.33
250.863	-7.58
251.081	-6.95
251.299	19.95
251.517	24.35
251.734	44.6
251.952	56.82
252.17	52.64
252.387	59.86
252.605	52.59
252.823	49.73
253.04	31.95
253.258	27.55
253.475	18.37
253.693	30.82
253.911	21.5
254.128	23.03
254.346	26.82
254.563	22.99
254.781	19.33
254.998	18.37
255.216	14.91
255.433	15.31
255.651	10.08
255.868	1.57
256.086	10.05
256.303	16.24
256.521	11.82
256.738	13.71
256.956	4.98
257.173	19.23
257.39	25.81
257.608	29.6
257.825	25.48
258.043	27.59
258.26	27.76
258.477	31.28
258.695	25.08
258.912	29.64
259.129	14.91
259.346	18.83
259.564	18.13
259.781	20.03
259.998	26.02
260.216	35.51
260.433	29.45
260.65	37.13
260.867	32.31
261.084	37.11
261.302	29.08
261.519	26.94
261.736	11.29
261.953	11.9
262.17	18.88
262.387	24.5
262.604	14.87
262.822	29.33
263.039	26.65
263.256	27.56
263.473	19.59
263.69	16.75
263.907	26.94
264.124	24.45
264.341	20.15
264.558	24.93
264.775	28.1
264.992	32.69
265.209	36.17
265.426	24.75
265.643	29.26
265.86	28.43
266.077	19.72
266.294	17.83
266.51	20.73
266.727	10.9
266.944	8.5
267.161	4.09
267.378	4.91
267.595	7.38
267.812	2.21
268.028	1.84
268.245	10.48
268.462	26.27
268.679	24
268.896	9.42
269.112	23.15
269.329	27.64
269.546	25.08
269.763	25.77
269.979	12.18
270.196	19.05
270.413	32.11
270.629	26.84
270.846	29.4
271.063	35.11
271.279	29.84
271.496	21.71
271.712	10.9
271.929	9.67
272.146	10.17
272.362	-8.45
272.579	-15.93
272.795	-0.82
273.012	6.94
273.228	17.47
273.445	17.72
273.661	15.34
273.878	26.12
274.094	27.19
274.311	24.91
274.527	29.98
274.744	31.84
274.96	35.25
275.177	46.9
275.393	47.93
275.609	51.6
275.826	43.39
276.042	55.44
276.259	52.45
276.475	42.46
276.691	32.39
276.908	29.34
277.124	30.29
277.34	23.7
277.557	22.67
277.773	22.31
277.989	26.15
278.205	20.71
278.422	24.08
278.638	30.05
278.854	36.6
279.07	28.94
279.286	26.22
279.503	28.3
279.719	45.3
279.935	41.61
280.151	37.53
280.367	31.21
280.583	36.09
280.799	34.11
281.016	35.14
281.232	24.51
281.448	28.94
281.664	35.74
281.88	47.06
282.096	42.09
282.312	47.04
282.528	41.64
282.744	39.54
282.96	37.65
283.176	28.19
283.392	20.97
283.608	24.83
283.824	29.76
284.04	37.6
284.256	36.43
284.471	33.34
284.687	32.9
284.903	34.37
285.119	21.87
285.335	12.51
285.551	9.51
285.767	7.01
285.982	12.7
286.198	9.02
286.414	19.24
286.63	26.93
286.846	31.81
287.061	41.8
287.277	56.24
287.493	54.86
287.709	54.15
287.924	54.01
288.14	51.92
288.356	57.16
288.571	42.04
288.787	32.63
289.003	30.81
289.218	26.43
289.434	17.18
289.65	24.19
289.865	31.13
290.081	38.14
290.296	27.83
290.512	28.59
290.727	43.11
290.943	39.96
291.159	26.51
291.374	16.83
291.59	4.84
291.805	7.03
292.021	-5.76
292.236	-17.7
292.451	-1.94
292.667	4.71
292.882	4.61
293.098	4.65
293.313	8.94
293.529	18.87
293.744	26.46
293.959	17.68
294.175	19.11
294.39	32.27
294.605	37.29
294.821	34.24
295.036	36.91
295.251	31.15
295.467	21.59
295.682	19.74
295.897	12.2
296.112	7.07
296.328	6.48
296.543	-1.79
296.758	1.71
296.973	8.71
297.188	17.4
297.404	23.01
297.619	15.39
297.834	32.2
298.049	27.1
298.264	22.77
298.479	18.44
298.694	22.76
298.909	9.56
299.125	15.16
299.34	6.58
299.555	15.1
299.77	14.55
299.985	16.37
300.2	10.01
300.415	21.84
300.63	18.01
300.845	17.57
301.06	21.73
301.275	32.84
301.49	38.41
301.704	39.85
301.919	30.58
302.134	29.57
302.349	24.48
302.564	14.19
302.779	3.68
302.994	-2.21
303.209	-14.69
303.423	-12.69
303.638	0.4
303.853	11.36
304.068	16.33
304.283	12.96
304.497	15.09
304.712	25.07
304.927	23.6
305.142	28.65
305.356	21.44
305.571	24.66
305.786	23.75
306	23
306.215	19.88
306.43	25.58
306.644	20.81
306.859	25.51
307.074	20.61
307.288	21.26
307.503	22.07
307.717	22.53
307.932	24.67
308.147	19.55
308.361	23.78
308.576	24.85
308.79	25.63
309.005	23.83
309.219	19.33
309.434	13.73
309.648	5.66
309.863	5.43
310.077	10.24
310.292	8.79
310.506	15.89
310.72	24.06
310.935	32.66
311.149	38.24
311.364	41.6
311.578	37.98
311.792	38.33
312.007	29.15
312.221	30.75
312.435	25.94
312.649	37.52
312.864	25.31
313.078	22.18
313.292	25.61
313.507	34.73
313.721	35.66
313.935	52.57
314.149	38.12
314.363	41.77
314.578	67.73
314.792	72.89
315.006	75.91
315.22	78.01
315.434	62.62
315.648	59.76
315.862	55.54
316.077	30.84
316.291	29.23
316.505	23.43
316.719	-1.5
316.933	11.76
317.147	11.76
317.361	13.27
317.575	24.4
317.789	20.06
318.003	20.91
318.217	25.04
318.431	20.88
318.645	29.74
318.859	18.33
319.073	9.96
319.287	14.39
319.5	14.04
319.714	13.97
319.928	20.34
320.142	21.01
320.356	32.91
320.57	34.02
320.784	29.43
320.997	31
321.211	40.41
321.425	23.1
321.639	20.34
321.853	14.18
322.066	14.98
322.28	22.73
322.494	20.25
322.707	15.25
322.921	25.09
323.135	32.46
323.349	43.1
323.562	44.71
323.776	39.77
323.989	42.36
324.203	44.27
324.417	38.55
324.63	25.78
324.844	7.12
325.057	9.75
325.271	0.98
325.485	11.05
325.698	11.3
325.912	26.53
326.125	35.07
326.339	43.75
326.552	41.08
326.766	51.63
326.979	45.7
327.193	52.53
327.406	48.27
327.619	34.43
327.833	40.25
328.046	34.33
328.26	26.56
328.473	28.59
328.686	19.55
328.9	11.3
329.113	19.96
329.326	23.67
329.54	23.66
329.753	23.82
329.966	24.37
330.179	23.83
330.393	32.54
330.606	32.58
330.819	34.3
331.032	39.58
331.246	40.22
331.459	40.1
331.672	47.9
331.885	39.55
332.098	45.17
332.311	36.32
332.525	28.63
332.738	24.48
332.951	26.84
333.164	18.62
333.377	13.05
333.59	13.94
333.803	9.5
334.016	4.08
334.229	8.44
334.442	16.16
334.655	29.06
334.868	41.77
335.081	42.64
335.294	45.18
335.507	51.01
335.72	40
335.933	36.7
336.146	35.75
336.359	31.69
336.572	19.97
336.785	23.1
336.997	17.11
337.21	32.05
337.423	27.26
337.636	18.31
337.849	12.34
338.062	16.67
338.274	16.13
338.487	13.82
338.7	11.01
338.913	7.58
339.125	10.34
339.338	17.86
339.551	23.51
339.763	20.67
339.976	20.15
340.189	21.05
340.402	19.12
340.614	20.02
340.827	14.16
341.039	19.42
341.252	15.61
341.465	11.49
341.677	5.72
341.89	13.18
342.102	16.46
342.315	25.06
342.527	16.44
342.74	30.94
342.952	37.91
343.165	46.86
343.377	44.6
343.59	47.48
343.802	47.28
344.015	39.91
344.227	32.86
344.44	26.57
344.652	20.95
344.864	19.41
345.077	4.17
345.289	-9.44
345.502	-8.95
345.714	-16.24
345.926	-12
346.139	-14.94
346.351	-27.03
346.563	-15.84
346.775	-6.86
346.988	4.18
347.2	11.21
347.412	12.82
347.624	21.05
347.837	23.7
348.049	22.29
348.261	21.31
348.473	15.81
348.685	19.68
348.897	15.3
349.11	15.6
349.322	15.55
349.534	8.66
349.746	17.45
349.958	19.49
350.17	23.53
350.382	13.26
350.594	13.48
350.806	20.42
351.018	26.86
351.23	24.83
351.442	27.4
351.654	26.36
351.866	38.94
352.078	39.22
352.29	43.36
352.502	44.84
352.714	46.66
352.926	46.48
353.138	50.09
353.35	39.59
353.561	28.27
353.773	25.52
353.985	27.03
354.197	12.83
354.409	14.13
354.621	12.89
354.832	15.63
355.044	30.65
355.256	22.54
355.468	16.83
355.679	27.28
355.891	26.96
356.103	20.22
356.314	25.11
356.526	21.81
356.738	17.2
356.949	13.44
357.161	15.16
357.373	12.68
357.584	25.5
357.796	23.71
358.008	25.12
358.219	38.48
358.431	49.3
358.642	49.85
358.854	46.72
359.065	41.74
359.277	38.09
359.488	32.53
359.7	26.69
359.911	19.97
360.123	21.87
360.334	22.1
360.546	12.42
360.757	12.7
360.969	23.61
361.18	19.22
361.391	23.26
361.603	19.57
361.814	19.85
362.025	26.28
362.237	31.35
362.448	26.96
362.659	21.98
362.871	18.21
363.082	23.58
363.293	26.96
363.504	24.49
363.716	21.56
363.927	23.18
364.138	24.34
364.349	26.52
364.56	20.87
364.772	15.24
364.983	13.61
365.194	15.31
365.405	7.33
365.616	8.42
365.827	11.72
366.038	20.74
366.25	27.1
366.461	29.82
366.672	31.82
366.883	34.46
367.094	33.04
367.305	30.97
367.516	26.72
367.727	21.41
367.938	23.97
368.149	18.34
368.36	15.84
368.571	18.78
368.781	17.71
368.992	13.79
369.203	9.94
369.414	5.74
369.625	3.19
369.836	6.92
370.047	9.93
370.258	2.64
370.468	9.01
370.679	3.45
370.89	10.33
371.101	11.85
371.312	6.71
371.522	9.31
371.733	10.32
371.944	9.12
372.155	10.51
372.365	4.41
372.576	5.02
372.787	4.81
372.997	0.29
373.208	6.66
373.419	0.94
373.629	11.18
373.84	5.87
374.05	14.66
374.261	10.25
374.472	7.56
374.682	2.55
374.893	5.77
375.103	8.53
375.314	14.67
375.524	12.63
375.735	16.07
375.945	18.85
376.156	23.96
376.366	24.22
376.577	24.18
376.787	25.38
376.997	25.74
377.208	23.01
377.418	21.31
377.629	19.57
377.839	22.45
378.049	25.01
378.26	21.25
378.47	18.41
378.68	20.03
378.89	14.09
379.101	7.33
379.311	-0.37
379.521	-1.52
379.732	-8.14
379.942	-10.6
380.152	-3.79
380.362	8.7
380.572	13.85
380.783	19.7
380.993	20.78
381.203	28.49
381.413	31.16
381.623	26.97
381.833	17.91
382.043	17.99
382.253	18.9
382.463	21.24
382.674	19.17
382.884	14.07
383.094	17.71
383.304	22.03
383.514	22.04
383.724	17.07
383.934	13.55
384.144	14.06
384.353	18.26
384.563	15.3
384.773	18.44
384.983	21.03
385.193	25.46
385.403	27.58
385.613	26.31
385.823	23.38
386.033	23.21
386.242	19.77
386.452	13.39
386.662	11.88
386.872	9.71
387.082	10.47
387.291	12.41
387.501	10.69
387.711	11.66
387.921	12.49
388.13	12.1
388.34	9.98
388.55	11.87
388.759	11.74
388.969	11.44
389.179	12.43
389.388	13.51
389.598	9.97
389.807	9.53
390.017	9.01
390.227	7.47
390.436	7.4
390.646	5.72
390.855	4.15
391.065	4.71
391.274	4.91
391.484	3.54
391.693	4.02
391.903	3.52
392.112	3.6
392.322	4.87
392.531	5.17
392.74	3.53
392.95	5.28
393.159	5.33
393.369	6.17
393.578	5.7
393.787	4.97
393.997	5.7
394.206	6.47
394.415	5.99
394.625	5.17
394.834	4.28
395.043	3.79
395.252	4.06
395.462	4.16
395.671	4.65
395.88	3.66
396.089	3.97
396.298	4.16
396.508	4.39
396.717	3.74
396.926	3.18
397.135	2.69
397.344	2.95
397.553	3.26
397.762	3.25
397.971	3.49
398.181	3.34
398.39	3.57
398.599	3.91
398.808	3.9
399.017	3.97
399.226	3.87
399.435	3.72
399.644	3.98
399.853	3.84
400.062	3.47
400.27	3.53
400.479	3.26
400.688	3.49
400.897	3.59
401.106	3.58
401.315	3.36
401.524	3.63
401.733	3.77
401.941	3.71
402.15	3.5
402.359	3.51
402.568	3.57
402.777	3.7
402.985	3.44
403.194	3.19
403.403	3.05
403.612	3.01
403.82	3.04
404.029	3.01
404.238	3.05
404.446	3.12
404.655	2.99
404.864	3.05
405.072	3.13
405.281	2.92
405.489	2.99
405.698	2.82
405.906	2.8
406.115	2.99
406.324	2.94
406.532	2.87
406.741	2.97
406.949	2.82
407.158	2.89
407.366	2.98
407.574	2.93
407.783	2.94
407.991	2.91
408.2	2.8
408.408	2.86
408.617	2.87
408.825	2.8
409.033	2.66
409.242	2.65
409.45	2.62
409.658	2.65
409.867	2.61
410.075	2.6
410.283	2.56
410.491	2.57
410.7	2.61
410.908	2.65
411.116	2.56
411.324	2.61
411.533	2.51
411.741	2.55
411.949	2.64
412.157	2.59
412.365	2.55
412.573	2.66
412.781	2.56
412.99	2.71
413.198	2.74
413.406	2.67
413.614	2.68
413.822	2.65
414.03	2.5
414.238	2.55
414.446	2.4
414.654	2.37
414.862	2.33
415.07	2.41
415.278	2.37
415.486	2.54
415.694	2.46
415.902	2.44
416.109	2.42
416.317	2.4
416.525	2.4
416.733	2.59
416.941	2.52
417.149	2.65
417.357	2.7
417.564	2.64
417.772	2.74
417.98	2.63
418.188	2.44
418.395	2.39
418.603	2.26
418.811	2.16
419.019	2.14
419.226	2.16
419.434	2.04
419.642	2.13
419.849	2.21
420.057	2.23
420.265	2.3
420.472	2.3
420.68	2.19
420.887	2.28
421.095	2.25
421.302	2.33
421.51	2.43
421.717	2.48
421.925	2.44
422.132	2.45
422.34	2.47
422.547	2.41
422.755	2.23
422.962	2.08
423.17	1.99
423.377	2.11
423.585	2.16
423.792	2.14
423.999	2.16
424.207	2.17
424.414	2.34
424.621	2.45
424.829	2.34
425.036	2.24
425.243	2.31
425.451	2.38
425.658	2.58
425.865	2.41
426.072	2.41
426.28	2.45
426.487	2.49
426.694	2.39
426.901	2.33
427.108	2.2
427.315	2.25
427.523	2.23
427.73	2.32
427.937	2.35
428.144	2.42
428.351	2.46
428.558	2.49
428.765	2.45
428.972	2.44
429.179	2.31
429.386	2.35
429.593	2.31
429.8	2.4
430.007	2.44
430.214	2.45
430.421	2.41
430.628	2.37
430.835	2.4
431.042	2.51
431.249	2.43
431.456	2.44
431.662	2.47
431.869	2.57
432.076	2.64
432.283	2.59
432.49	2.48
432.697	2.51
432.903	2.49
433.11	2.51
433.317	2.51
433.524	2.47
433.73	2.52
433.937	2.6
434.144	2.69
434.35	2.73
434.557	2.7
434.764	2.7
434.97	2.89
435.177	2.83
435.384	2.87
435.59	2.81
435.797	2.79
436.003	2.79
436.21	2.73
436.416	2.62
436.623	2.7
436.829	2.66
437.036	2.64
437.242	2.67
437.449	2.76
437.655	2.8
437.862	2.82
438.068	2.84
438.275	2.83
438.481	2.91
438.687	2.97
438.894	2.93
439.1	2.98
439.307	3.02
439.513	2.96
439.719	3.02
439.926	2.99
440.132	3
440.338	3.05
440.544	3.01
440.751	3.02
440.957	3.03
441.163	3.06
441.369	3.05
441.575	2.99
441.782	2.96
441.988	2.98
442.194	3.04
442.4	3.08
442.606	3.08
442.812	3.12
443.018	3.21
443.224	3.18
443.431	3.22
443.637	3.12
443.843	3.14
444.049	3.1
444.255	3.04
444.461	3.01
444.667	3.03
444.873	3
445.079	3.1
445.284	3.11
445.49	3.14
445.696	3.22
445.902	3.29
446.108	3.36
446.314	3.42
446.52	3.4
446.726	3.44
446.931	3.46
447.137	3.47
447.343	3.46
447.549	3.38
447.755	3.31
447.96	3.31
448.166	3.32
448.372	3.32
448.578	3.35
448.783	3.33
448.989	3.41
449.195	3.48
449.4	3.51
449.606	3.52
449.812	3.52
450.017	3.49
450.223	3.47
450.428	3.49
450.634	3.52
450.84	3.51
451.045	3.48
451.251	3.55
451.456	3.54
451.662	3.59
451.867	3.59
452.073	3.57
452.278	3.56
452.483	3.6
452.689	3.48
452.894	3.48
453.1	3.44
453.305	3.45
453.51	3.43
453.716	3.5
453.921	3.48
454.127	3.56
454.332	3.56
454.537	3.63
454.742	3.62
454.948	3.63
455.153	3.61
455.358	3.7
455.563	3.74
455.769	3.76
455.974	3.69
456.179	3.69
456.384	3.73
456.589	3.76
456.795	3.65
457	3.63
457.205	3.62
457.41	3.63
457.615	3.73
457.82	3.74
458.025	3.7
458.23	3.79
458.435	3.74
458.64	3.84
458.845	3.83
459.05	3.76
459.255	3.71
459.46	3.69
459.665	3.7
459.87	3.72
460.075	3.62
460.28	3.7
460.485	3.75
460.69	3.7
460.895	3.78
461.099	3.77
461.304	3.83
461.509	3.81
461.714	3.8
461.919	3.78
462.123	3.87
462.328	3.83
462.533	3.86
462.738	3.88
462.942	3.98
463.147	4.01
463.352	4.07
463.556	4.11
463.761	4.13
463.966	4.13
464.17	4.11
464.375	4.1
464.58	4.07
464.784	4.02
464.989	3.98
465.193	4
465.398	4.09
465.602	4.13
465.807	4.18
466.011	4.23
466.216	4.3
466.42	4.36
466.625	4.38
466.829	4.38
467.034	4.39
467.238	4.41
467.443	4.43
467.647	4.39
467.851	4.35
468.056	4.36
468.26	4.29
468.464	4.31
468.669	4.29
468.873	4.28
469.077	4.34
469.282	4.42
