Data from Ofra_1a_PS_2HS27_Reflection_4.txt Node
Date: Tue Jul 20 10:53:55 EDT 2021
User: Adam
Spectrometer: FLMT01687
Trigger mode: 0
Integration Time (sec): 1.004000E0
Scans to average: 2
Electric dark correction enabled: true
Nonlinearity correction enabled: false
Boxcar width: 2
XAxis mode: Wavelengths
Number of Pixels in Spectrum: 3648
>>>>>Begin Spectral Data<<<<<
179.494	-122.84
179.716	-269.47
179.937	585.28
180.158	-1007.64
180.38	184.39
180.601	144.58
180.823	50.4
181.044	-27.12
181.265	10.98
181.486	149.43
181.708	120.27
181.929	2927.27
182.15	-108.04
182.372	-302.46
182.593	86.35
182.814	-132.09
183.035	4.56
183.257	6.42
183.478	-46.65
183.699	-57.29
183.92	-95.46
184.141	-116.16
184.363	-83.81
184.584	-58.13
184.805	-13.16
185.026	29.55
185.247	28.11
185.468	-3.2
185.689	5.69
185.91	-33.79
186.132	-28.68
186.353	-8.33
186.574	5.85
186.795	1.8
187.016	27.88
187.237	24.34
187.458	21.61
187.679	16.19
187.9	32.12
188.121	45.28
188.342	38.5
188.563	37.2
188.784	59.43
189.005	47.1
189.226	42.07
189.447	40.65
189.667	41.47
189.888	14.11
190.109	-11.38
190.33	2.16
190.551	3.95
190.772	-8.76
190.993	-4.9
191.214	-18.08
191.434	-88.65
191.655	-110.03
191.876	-48.2
192.097	-5.76
192.318	32.48
192.538	5.76
192.759	-3.91
192.98	7.71
193.201	10.04
193.421	2.91
193.642	17
193.863	32.37
194.083	41.62
194.304	26.26
194.525	14.98
194.745	23
194.966	13.28
195.187	-2.12
195.407	-17.54
195.628	-10.34
195.848	-16.56
196.069	-16.58
196.29	-0.45
196.51	-4.57
196.731	4.77
196.951	-6.01
197.172	-10.06
197.392	-31.65
197.613	3.12
197.833	-16.7
198.054	-15.78
198.274	-16.3
198.495	1.56
198.715	-22.62
198.936	22.18
199.156	33.5
199.377	24.06
199.597	24.28
199.817	29.06
200.038	-31.94
200.258	-26
200.479	-12.95
200.699	-11.62
200.919	-4.49
201.14	11.65
201.36	8.92
201.58	-5.63
201.801	-14.99
202.021	-11.48
202.241	-11.76
202.461	-6.02
202.682	14.81
202.902	14.5
203.122	19.26
203.342	22.52
203.563	17.44
203.783	-0.86
204.003	-9.52
204.223	10.42
204.443	31.37
204.663	27.85
204.884	70.8
205.104	76.83
205.324	63.06
205.544	21.51
205.764	28.11
205.984	-6.38
206.204	-15.13
206.424	-38.6
206.644	-47.13
206.864	-75.27
207.084	-24.26
207.304	-49.01
207.525	-34.83
207.745	-23.64
207.964	-15.68
208.184	-19.15
208.404	-0.91
208.624	1.49
208.844	3.35
209.064	4.89
209.284	-10
209.504	-15.69
209.724	-8.42
209.944	-18.54
210.164	-24.35
210.384	-22.56
210.604	-35.86
210.823	-37.91
211.043	-13.76
211.263	-24.53
211.483	14.75
211.703	17.43
211.922	-9.61
212.142	11.87
212.362	36.06
212.582	7.02
212.801	-4.13
213.021	15.41
213.241	-3.35
213.461	-15.15
213.68	11.08
213.9	1.72
214.12	-12.6
214.339	-22.25
214.559	-30.68
214.779	-53.17
214.998	-26.95
215.218	-10.41
215.438	5.59
215.657	6.72
215.877	-6.75
216.096	14.98
216.316	29.4
216.535	14.18
216.755	26.24
216.974	30.77
217.194	15.48
217.413	-0.83
217.633	-4.53
217.852	-16.73
218.072	3.09
218.291	-7.33
218.511	-13.24
218.73	-3.17
218.95	-24.52
219.169	-37.85
219.389	-19.7
219.608	-4.14
219.827	3.59
220.047	20.41
220.266	13.61
220.485	-4.55
220.705	-28.17
220.924	-14.79
221.143	11.44
221.363	17.32
221.582	20.35
221.801	31.94
222.021	18.33
222.24	10.7
222.459	30.24
222.678	15.14
222.897	19.52
223.117	25.08
223.336	35.08
223.555	12.01
223.774	16.87
223.993	20.56
224.213	23.91
224.432	1.93
224.651	2.92
224.87	23.09
225.089	28.41
225.308	35.4
225.527	39.45
225.746	19.39
225.965	14.55
226.184	-7.35
226.404	-7.33
226.623	7.85
226.842	36.3
227.061	35.41
227.28	45.12
227.499	35.56
227.718	29.62
227.936	21.82
228.155	21.13
228.374	16.61
228.593	24.7
228.812	24.49
229.031	25.02
229.25	26.44
229.469	36.42
229.688	22.15
229.907	21.16
230.125	26.4
230.344	29.42
230.563	16.98
230.782	25.79
231.001	23.24
231.22	25.3
231.438	24.27
231.657	24.48
231.876	21.95
232.095	25.23
232.313	12.55
232.532	8.66
232.751	5.22
232.969	10.17
233.188	9.91
233.407	14.1
233.625	11.41
233.844	15.49
234.063	16.83
234.281	23.72
234.5	30.48
234.719	26.07
234.937	29.43
235.156	16.09
235.374	11.8
235.593	4.08
235.811	20.59
236.03	15.72
236.249	21.87
236.467	18.51
236.686	10.11
236.904	2.24
237.123	7.56
237.341	-7.87
237.559	-12.55
237.778	22.7
237.996	4.71
238.215	-48.41
238.433	-78.66
238.652	-15.57
238.87	-53.65
239.088	-19.76
239.307	-10.07
239.525	14.22
239.743	-0.5
239.962	-7.45
240.18	-1.3
240.398	11.19
240.617	1.91
240.835	-1.39
241.053	7.44
241.271	19.37
241.49	37.87
241.708	23.51
241.926	20.36
242.144	25.82
242.363	-6.8
242.581	-87.27
242.799	-57.42
243.017	-21.02
243.235	-13.86
243.453	-33.53
243.672	-6.42
243.89	3.39
244.108	19.03
244.326	34.1
244.544	57.52
244.762	43.31
244.98	49.88
245.198	24.4
245.416	12.88
245.634	-9.88
245.852	-16.66
246.07	-4.02
246.288	15.65
246.506	16.33
246.724	32.8
246.942	31.87
247.16	26.86
247.378	29.42
247.596	48.05
247.814	43.46
248.032	40.59
248.25	19.73
248.468	17.68
248.685	13.77
248.903	6.49
249.121	15.78
249.339	14.49
249.557	15.19
249.775	29.8
249.992	31.01
250.21	26.21
250.428	30.53
250.646	36.19
250.863	7.99
251.081	21.72
251.299	20.81
251.517	27.37
251.734	4.22
251.952	13.6
252.17	-0.85
252.387	-22.23
252.605	-34.5
252.823	-41.09
253.04	-16.29
253.258	-9.55
253.475	27.39
253.693	26
253.911	29.28
254.128	13.96
254.346	22.62
254.563	13.85
254.781	18.7
254.998	15.96
255.216	15.93
255.433	-6.74
255.651	-3.47
255.868	-2.34
256.086	5.72
256.303	10.82
256.521	24.56
256.738	14.94
256.956	7.96
257.173	-5.83
257.39	3.53
257.608	2.37
257.825	13.47
258.043	25.92
258.26	30.47
258.477	20.77
258.695	20.33
258.912	2.71
259.129	-15.41
259.346	-26.55
259.564	-27.01
259.781	-35.58
259.998	10.14
260.216	27.51
260.433	25.13
260.65	24.4
260.867	24.64
261.084	13.69
261.302	-12.26
261.519	3.62
261.736	1.47
261.953	-1.09
262.17	13.05
262.387	10.16
262.604	5.87
262.822	17.13
263.039	21.04
263.256	12.67
263.473	15.87
263.69	17.41
263.907	9.01
264.124	22.99
264.341	27.05
264.558	23.83
264.775	24.76
264.992	33.77
265.209	13.22
265.426	-4.91
265.643	16.66
265.86	16.96
266.077	-1.62
266.294	20.09
266.51	24.3
266.727	16.18
266.944	20.23
267.161	24.11
267.378	20.69
267.595	16.11
267.812	-1.02
268.028	-11.01
268.245	-14.44
268.462	-21.38
268.679	-5.11
268.896	30.18
269.112	37.09
269.329	34.24
269.546	58.79
269.763	49.02
269.979	21.45
270.196	18.64
270.413	14.51
270.629	-3.4
270.846	-6.45
271.063	4.69
271.279	6.75
271.496	1.67
271.712	-5.85
271.929	-6.16
272.146	-10.9
272.362	-12.49
272.579	-10.97
272.795	4.09
273.012	-1.28
273.228	7.94
273.445	10.9
273.661	9.23
273.878	-20.18
274.094	-7.12
274.311	-14.53
274.527	-13.92
274.744	27.68
274.96	38.06
275.177	31.3
275.393	37.05
275.609	27.99
275.826	18.5
276.042	17.87
276.259	27.47
276.475	15.58
276.691	9.27
276.908	9.35
277.124	7.61
277.34	-3.75
277.557	-19.07
277.773	-24.22
277.989	-21.72
278.205	-20.42
278.422	-8.62
278.638	5.76
278.854	6.99
279.07	11.91
279.286	10.78
279.503	12.9
279.719	17.89
279.935	26.56
280.151	15.29
280.367	23.78
280.583	20.94
280.799	15.02
281.016	4.85
281.232	32.61
281.448	17
281.664	9.31
281.88	14.43
282.096	13.16
282.312	8.83
282.528	16.14
282.744	18.22
282.96	0.8
283.176	-15.64
283.392	-47.71
283.608	-43.42
283.824	-63.23
284.04	-83.5
284.256	-22
284.471	-11.96
284.687	-1.27
284.903	13.16
285.119	29.04
285.335	20.57
285.551	25.35
285.767	8.97
285.982	9.13
286.198	-13.47
286.414	-5.19
286.63	2.01
286.846	-3.67
287.061	-16.37
287.277	-14.53
287.493	-22.92
287.709	-31.86
287.924	1.07
288.14	0.91
288.356	33.25
288.571	32.55
288.787	20.69
289.003	12.63
289.218	5.51
289.434	-26.13
289.65	7.71
289.865	23.24
290.081	23.34
290.296	33.06
290.512	32.79
290.727	7.87
290.943	-4.85
291.159	-11.31
291.374	-35.26
291.59	-26.55
291.805	-30.07
292.021	-15.58
292.236	-17
292.451	0.69
292.667	-1.2
292.882	14.51
293.098	5.5
293.313	4.15
293.529	-0.65
293.744	-5.23
293.959	-16.66
294.175	-4.12
294.39	-4.02
294.605	13.14
294.821	10.13
295.036	5.61
295.251	1.22
295.467	0.43
295.682	0.44
295.897	14.47
296.112	19.6
296.328	23.05
296.543	23.79
296.758	24.52
296.973	5.18
297.188	-14.25
297.404	-46.1
297.619	-59.74
297.834	-123.67
298.049	-111.85
298.264	-62.91
298.479	-53.96
298.694	-8.94
298.909	6.05
299.125	17.01
299.34	18.41
299.555	20.33
299.77	27.62
299.985	26.8
300.2	24.25
300.415	22.55
300.63	37
300.845	32.8
301.06	44.67
301.275	43.02
301.49	47.23
301.704	28.99
301.919	10.48
302.134	-0.85
302.349	-0.44
302.564	-10.9
302.779	-34.45
302.994	-7.7
303.209	-12.17
303.423	-18.14
303.638	-25.92
303.853	-16.63
304.068	-25.64
304.283	-18.43
304.497	-20.65
304.712	4.66
304.927	14.6
305.142	12.57
305.356	24.74
305.571	23.26
305.786	13.66
306	17.09
306.215	16.05
306.43	1.85
306.644	-3.65
306.859	18.89
307.074	22.02
307.288	20.58
307.503	22.66
307.717	23.35
307.932	12.25
308.147	0.02
308.361	-3.62
308.576	-34.39
308.79	-23.63
309.005	-45.94
309.219	-38.4
309.434	-27.34
309.648	-10.67
309.863	-3.99
310.077	2.77
310.292	23.62
310.506	20.31
310.72	15.81
310.935	22.76
311.149	24.66
311.364	12.07
311.578	12.51
311.792	29.44
312.007	41.09
312.221	28.5
312.435	32.97
312.649	35.75
312.864	-4.83
313.078	-14.22
313.292	-12.55
313.507	-11.38
313.721	-14.68
313.935	19.69
314.149	18.15
314.363	34.05
314.578	10.16
314.792	-9.64
315.006	-26.2
315.22	5.27
315.434	-1.89
315.648	-0.15
315.862	16.3
316.077	23.67
316.291	12.53
316.505	-4.34
316.719	21.13
316.933	12.69
317.147	9.33
317.361	-0.86
317.575	14.49
317.789	13.04
318.003	9.23
318.217	10.16
318.431	11.86
318.645	7.93
318.859	12.98
319.073	26.33
319.287	22.87
319.5	20.45
319.714	15.8
319.928	6.24
320.142	-8.98
320.356	-8.1
320.57	-39.13
320.784	-28.47
320.997	-46.37
321.211	-13.58
321.425	-8.46
321.639	36.9
321.853	35.61
322.066	42.39
322.28	33.41
322.494	27.73
322.707	25.5
322.921	16.51
323.135	13.05
323.349	14.37
323.562	7.99
323.776	-4.38
323.989	14.25
324.203	0.91
324.417	7.52
324.63	-0.79
324.844	-4.29
325.057	-18.14
325.271	-9.58
325.485	-10.68
325.698	21.83
325.912	26.43
326.125	17.78
326.339	28.53
326.552	9.75
326.766	-11.87
326.979	-18.38
327.193	-11.26
327.406	-31.91
327.619	-17.1
327.833	-17.66
328.046	-10.58
328.26	-11.93
328.473	3.83
328.686	4.33
328.9	16.75
329.113	15.11
329.326	14.44
329.54	15.73
329.753	18.2
329.966	14.86
330.179	10.18
330.393	2.8
330.606	4.06
330.819	3.01
331.032	3.85
331.246	11.32
331.459	31.95
331.672	33.53
331.885	24.6
332.098	17.97
332.311	15.8
332.525	13.08
332.738	12.18
332.951	5.75
333.164	16.39
333.377	20.26
333.59	9.26
333.803	9.86
334.016	9.96
334.229	2.05
334.442	13.03
334.655	22.91
334.868	9.51
335.081	8.58
335.294	10.37
335.507	17.68
335.72	18.69
335.933	23.41
336.146	27.48
336.359	23.6
336.572	19.63
336.785	-4.75
336.997	-10.89
337.21	5.71
337.423	-25.34
337.636	-26.4
337.849	-8.78
338.062	-5.92
338.274	15.55
338.487	14.68
338.7	-3.54
338.913	9.37
339.125	6.15
339.338	-19.39
339.551	-10.63
339.763	-7.86
339.976	-10.44
340.189	-4.71
340.402	10.24
340.614	16.98
340.827	26.13
341.039	22.27
341.252	26.43
341.465	3.73
341.677	3.82
341.89	-6.7
342.102	5.03
342.315	-2.87
342.527	12.68
342.74	12.2
342.952	23.28
343.165	12.98
343.377	15.75
343.59	26.07
343.802	16.92
344.015	32.5
344.227	31.58
344.44	29.76
344.652	9.17
344.864	14.04
345.077	3.53
345.289	8.84
345.502	20.54
345.714	24.98
345.926	32.76
346.139	6.51
346.351	-2.23
346.563	1.71
346.775	1.67
346.988	-2.76
347.2	14.48
347.412	19.9
347.624	12.93
347.837	18.41
348.049	18.18
348.261	1.65
348.473	-5.07
348.685	1.01
348.897	-6.49
349.11	-3.64
349.322	21.52
349.534	26.12
349.746	20.64
349.958	1.4
350.17	-8.01
350.382	-2.57
350.594	18.02
350.806	24.95
351.018	46.76
351.23	51.04
351.442	46.65
351.654	34.23
351.866	37.37
352.078	37.81
352.29	35.52
352.502	31.13
352.714	35.7
352.926	17.29
353.138	11.03
353.35	-6.11
353.561	-13.41
353.773	-18.9
353.985	-14.04
354.197	-11.34
354.409	-7.18
354.621	-16.91
354.832	-14.24
355.044	-24.48
355.256	-30.61
355.468	-34.32
355.679	-6.17
355.891	-5.53
356.103	-3.3
356.314	-1.15
356.526	-6.68
356.738	-14.24
356.949	-1.53
357.161	12.68
357.373	14.65
357.584	30.22
357.796	37.16
358.008	34.03
358.219	17.89
358.431	24.11
358.642	18.3
358.854	13.82
359.065	-0.65
359.277	7.48
359.488	-11.75
359.7	-15.42
359.911	-23.65
360.123	-7.28
360.334	-8.66
360.546	-0.64
360.757	13.31
360.969	24.48
361.18	30.84
361.391	36.62
361.603	25.78
361.814	16.89
362.025	11.66
362.237	6.9
362.448	-3.53
362.659	1.62
362.871	-17.31
363.082	-12.74
363.293	-10.8
363.504	-17.49
363.716	-8.12
363.927	9.07
364.138	-21.73
364.349	-34.51
364.56	-38.53
364.772	-30.98
364.983	-20.33
365.194	-8.88
365.405	-7.87
365.616	2.75
365.827	-3.46
366.038	4.22
366.25	14.13
366.461	29.99
366.672	32.95
366.883	27.83
367.094	14.71
367.305	5.93
367.516	0.33
367.727	-6.32
367.938	-10.3
368.149	-10.53
368.36	-9.71
368.571	-32
368.781	-43.58
368.992	-34.84
369.203	-31.58
369.414	-34.14
369.625	-26.96
369.836	8.19
370.047	18.89
370.258	22.18
370.468	16.6
370.679	13.53
370.89	-6.25
371.101	-9.35
371.312	-25.3
371.522	-25.01
371.733	-24.63
371.944	-29.21
372.155	-29.08
372.365	-17.59
372.576	-7.02
372.787	-1.12
372.997	7.4
373.208	6.47
373.419	13.48
373.629	5.52
373.84	17.43
374.05	0.44
374.261	-16.42
374.472	-10.93
374.682	2.15
374.893	-15.43
375.103	-0.58
375.314	10.61
375.524	14.08
375.735	19.02
375.945	22.67
376.156	17.37
376.366	24.13
376.577	23.8
376.787	15.89
376.997	18.43
377.208	19.63
377.418	16.46
377.629	11.04
377.839	18.45
378.049	22.92
378.26	16.98
378.47	18.04
378.68	12.7
378.89	12.83
379.101	2.28
379.311	11
379.521	-2.4
379.732	-3.54
379.942	-12.66
380.152	-10.46
380.362	-10.96
380.572	8.03
380.783	10.62
380.993	16.99
381.203	14.02
381.413	13.16
381.623	8.49
381.833	11.5
382.043	6.87
382.253	17.16
382.463	17.28
382.674	17.3
382.884	15.73
383.094	14.88
383.304	11.32
383.514	6.4
383.724	7.88
383.934	1.25
384.144	1.21
384.353	-1.73
384.563	3.14
384.773	2.54
384.983	1.71
385.193	-1.74
385.403	-0.65
385.613	-2.68
385.823	-5.59
386.033	2.36
386.242	8.03
386.452	4.36
386.662	5.07
386.872	6.29
387.082	0.94
387.291	-7.39
387.501	-0.71
387.711	-1.67
387.921	-4.49
388.13	-1.88
388.34	4.23
388.55	-0.6
388.759	-4.3
388.969	-2.2
389.179	-2.79
389.388	-3.33
389.598	-3.54
389.807	-4.57
390.017	-6.98
390.227	-5.14
390.436	-4.18
390.646	-6.57
390.855	-4.64
391.065	-2.25
391.274	-0.65
391.484	-1.78
391.693	1.91
391.903	3.77
392.112	2.43
392.322	-0.87
392.531	-1.1
392.74	-0.95
392.95	-3.03
393.159	-2.01
393.369	-1.35
393.578	-1.82
393.787	-2.58
393.997	-0.18
394.206	-0.17
394.415	1.21
394.625	1.54
394.834	1.48
395.043	1.73
395.252	3.37
395.462	4.14
395.671	3.96
395.88	4.55
396.089	3.63
396.298	3.04
396.508	2.37
396.717	2.84
396.926	2.04
397.135	1.84
397.344	0.82
397.553	0.26
397.762	1.49
397.971	2
398.181	2.24
398.39	2.1
398.599	2.4
398.808	1.71
399.017	2.24
399.226	2.6
399.435	2.85
399.644	2.95
399.853	2.69
400.062	2.24
400.27	1.56
400.479	1.83
400.688	1.7
400.897	1.45
401.106	1.55
401.315	1.86
401.524	1.67
401.733	1.46
401.941	2.06
402.15	2.05
402.359	2.18
402.568	2.37
402.777	2.56
402.985	2.09
403.194	1.84
403.403	1.96
403.612	1.79
403.82	1.45
404.029	1.6
404.238	1.7
404.446	1.74
404.655	1.89
404.864	2.11
405.072	2.14
405.281	2.09
405.489	2.02
405.698	1.96
405.906	2.13
406.115	2.01
406.324	2.19
406.532	2.05
406.741	1.97
406.949	1.91
407.158	1.99
407.366	1.87
407.574	1.96
407.783	2.03
407.991	1.94
408.2	2.05
408.408	2.12
408.617	2.03
408.825	1.94
409.033	2
409.242	1.96
409.45	1.95
409.658	1.97
409.867	2.21
410.075	2.26
410.283	2.19
410.491	2.09
410.7	1.98
410.908	1.9
411.116	1.79
411.324	1.8
411.533	1.83
411.741	1.93
411.949	1.95
412.157	1.95
412.365	1.93
412.573	1.9
412.781	1.8
412.99	1.76
413.198	1.82
413.406	1.96
413.614	1.96
413.822	2.16
414.03	2.07
414.238	2.02
414.446	1.92
414.654	1.86
414.862	1.64
415.07	1.51
415.278	1.66
415.486	1.48
415.694	1.61
415.902	1.73
416.109	1.89
416.317	1.8
416.525	1.84
416.733	1.73
416.941	1.68
417.149	1.58
417.357	1.59
417.564	1.69
417.772	1.8
417.98	1.8
418.188	1.78
418.395	1.5
418.603	1.31
418.811	1.17
419.019	1.15
419.226	1.32
419.434	1.51
419.642	1.5
419.849	1.55
420.057	1.6
420.265	1.6
420.472	1.57
420.68	1.86
420.887	1.9
421.095	2.01
421.302	1.97
421.51	1.97
421.717	1.97
421.925	1.96
422.132	1.88
422.34	1.69
422.547	1.65
422.755	1.54
422.962	1.59
423.17	1.4
423.377	1.43
423.585	1.61
423.792	1.46
423.999	1.46
424.207	1.55
424.414	1.74
424.621	1.65
424.829	1.82
425.036	1.81
425.243	1.92
425.451	1.85
425.658	1.76
425.865	1.74
426.072	1.72
426.28	1.54
426.487	1.6
426.694	1.56
426.901	1.5
427.108	1.42
427.315	1.39
427.523	1.24
427.73	1.32
427.937	1.19
428.144	1.23
428.351	1.32
428.558	1.42
428.765	1.4
428.972	1.55
429.179	1.46
429.386	1.53
429.593	1.43
429.8	1.49
430.007	1.41
430.214	1.55
430.421	1.6
430.628	1.64
430.835	1.58
431.042	1.49
431.249	1.43
431.456	1.4
431.662	1.53
431.869	1.66
432.076	1.83
432.283	1.99
432.49	1.96
432.697	1.88
432.903	1.87
433.11	1.95
433.317	1.86
433.524	1.83
433.73	1.85
433.937	1.88
434.144	1.72
434.35	1.64
434.557	1.62
434.764	1.65
434.97	1.55
435.177	1.8
435.384	1.95
435.59	2.07
435.797	2.03
436.003	2.06
436.21	1.84
436.416	1.76
436.623	1.71
436.829	1.67
437.036	1.65
437.242	1.77
437.449	1.82
437.655	1.84
437.862	1.86
438.068	1.95
438.275	2.04
438.481	2.09
438.687	2.07
438.894	2.19
439.1	2.1
439.307	2.07
439.513	2.07
439.719	2.22
439.926	2.18
440.132	2.18
440.338	2.14
440.544	2.05
440.751	1.94
440.957	2.03
441.163	2.05
441.369	2.13
441.575	2.04
441.782	2.07
441.988	2.09
442.194	2.12
442.4	1.99
442.606	2.28
442.812	2.27
443.018	2.17
443.224	2.28
443.431	2.32
443.637	2.14
443.843	2.2
444.049	2.3
444.255	2.39
444.461	2.32
444.667	2.33
444.873	2.37
445.079	2.31
445.284	2.14
445.49	2.21
445.696	2.23
445.902	2.15
446.108	2.16
446.314	2.19
446.52	2.3
446.726	2.33
446.931	2.31
447.137	2.38
447.343	2.4
447.549	2.36
447.755	2.35
447.96	2.37
448.166	2.33
448.372	2.31
448.578	2.21
448.783	2.27
448.989	2.38
449.195	2.36
449.4	2.47
449.606	2.5
449.812	2.42
450.017	2.37
450.223	2.34
450.428	2.26
450.634	2.32
450.84	2.41
451.045	2.44
451.251	2.51
451.456	2.62
451.662	2.58
451.867	2.56
452.073	2.57
452.278	2.51
452.483	2.43
452.689	2.47
452.894	2.57
453.1	2.52
453.305	2.57
453.51	2.68
453.716	2.66
453.921	2.6
454.127	2.57
454.332	2.56
454.537	2.47
454.742	2.43
454.948	2.39
455.153	2.47
455.358	2.48
455.563	2.61
455.769	2.69
455.974	2.74
456.179	2.7
456.384	2.71
456.589	2.63
456.795	2.63
457	2.62
457.205	2.57
457.41	2.5
457.615	2.41
457.82	2.41
458.025	2.42
458.23	2.52
458.435	2.63
458.64	2.73
458.845	2.78
459.05	2.75
459.255	2.7
459.46	2.69
459.665	2.65
459.87	2.55
460.075	2.53
460.28	2.66
460.485	2.73
460.69	2.69
460.895	2.81
461.099	2.66
461.304	2.5
461.509	2.41
461.714	2.52
461.919	2.45
462.123	2.61
462.328	2.61
462.533	2.54
462.738	2.39
462.942	2.37
463.147	2.4
463.352	2.56
463.556	2.68
463.761	2.82
463.966	2.82
464.17	2.9
464.375	2.87
464.58	2.76
464.784	2.77
464.989	2.84
465.193	2.8
465.398	2.7
465.602	2.93
465.807	2.87
466.011	2.84
466.216	2.74
466.42	2.8
466.625	2.8
466.829	2.86
467.034	2.98
467.238	3.08
