Data from Ofra_PS_T2_2A_0GT01_Reflection_1.txt Node
Date: Wed Jul 21 16:50:36 EDT 2021
User: Adam
Spectrometer: FLMT01687
Trigger mode: 0
Integration Time (sec): 1.100000E0
Scans to average: 2
Electric dark correction enabled: true
Nonlinearity correction enabled: false
Boxcar width: 2
XAxis mode: Wavelengths
Number of Pixels in Spectrum: 3648
>>>>>Begin Spectral Data<<<<<
179.494	441
179.716	491.29
179.937	454.08
180.158	419.06
180.38	580.78
180.601	220.03
180.823	97.25
181.044	33.77
181.265	228.86
181.486	77.01
181.708	83.66
181.929	-123.98
182.15	30.63
182.372	151.27
182.593	23.26
182.814	33.69
183.035	55.43
183.257	42.78
183.478	12.29
183.699	47.36
183.92	29.28
184.141	9.02
184.363	-25.95
184.584	-18.7
184.805	-8.86
185.026	24.47
185.247	23.45
185.468	15.01
185.689	9.74
185.91	6.02
186.132	-9.58
186.353	9.24
186.574	64.44
186.795	74.55
187.016	62.16
187.237	33.71
187.458	12.31
187.679	-3.46
187.9	-11.11
188.121	8.97
188.342	14.7
188.563	45.26
188.784	57.46
189.005	52.2
189.226	56.97
189.447	77.76
189.667	-25.85
189.888	-141.5
190.109	-708.12
190.33	-394.35
190.551	-617.92
190.772	-87.71
190.993	-17
191.214	51.91
191.434	46.3
191.655	46.84
191.876	21.45
192.097	-47.6
192.318	-127.72
192.538	-157.26
192.759	-109.19
192.98	-35.72
193.201	-0.5
193.421	38
193.642	37.78
193.863	35.47
194.083	14.68
194.304	9.57
194.525	2.08
194.745	-38.27
194.966	-39.6
195.187	-32.84
195.407	-55.41
195.628	-95.16
195.848	-64.17
196.069	-16.09
196.29	0.9
196.51	-17.6
196.731	-15.26
196.951	-6.49
197.172	-38.42
197.392	-42.66
197.613	-39.96
197.833	-53.45
198.054	-67.35
198.274	-34.66
198.495	-53.4
198.715	-19.18
198.936	-47.63
199.156	-14.88
199.377	-65.14
199.597	-48.44
199.817	-57.57
200.038	12.05
200.258	-47.19
200.479	-53.38
200.699	-58.17
200.919	-28.9
201.14	-59.84
201.36	-47.9
201.58	18.59
201.801	41.58
202.021	35.36
202.241	26.12
202.461	18.94
202.682	-44.29
202.902	-142.72
203.122	-86.22
203.342	-54.93
203.563	-5.4
203.783	20.6
204.003	43.32
204.223	15.43
204.443	40.37
204.663	27.8
204.884	26.13
205.104	29.39
205.324	49.97
205.544	46.33
205.764	34.23
205.984	28.76
206.204	27.3
206.424	19.56
206.644	-25.36
206.864	-21.85
207.084	-57.31
207.304	-39.94
207.525	-58.83
207.745	14.77
207.964	62.02
208.184	26.9
208.404	15.54
208.624	-18.21
208.844	-31.8
209.064	-218.95
209.284	-259.39
209.504	-177.72
209.724	-45.42
209.944	-31.14
210.164	0.28
210.384	13.49
210.604	-3.4
210.823	-30.25
211.043	-14.89
211.263	-27.24
211.483	-23.95
211.703	-22.01
211.922	-28.8
212.142	10.07
212.362	48.92
212.582	36.8
212.801	16.18
213.021	19.51
213.241	-24.22
213.461	-60.68
213.68	-58.1
213.9	-61.19
214.12	-59.37
214.339	-67.62
214.559	-57.88
214.779	-19.96
214.998	10.15
215.218	5.42
215.438	19.13
215.657	18.09
215.877	13.21
216.096	18.13
216.316	13.67
216.535	-11.43
216.755	-17.91
216.974	-134
217.194	-170.35
217.413	-116.66
217.633	-96.78
217.852	-146.69
218.072	-23.16
218.291	-1.08
218.511	6.89
218.73	-16.31
218.95	-10.3
219.169	-21.98
219.389	-44.17
219.608	-25.98
219.827	-13.19
220.047	7.27
220.266	32.69
220.485	30.44
220.705	32.68
220.924	27.15
221.143	39.89
221.363	3.38
221.582	11.78
221.801	7.36
222.021	15.72
222.24	-45.57
222.459	31.11
222.678	18.28
222.897	35.25
223.117	18.02
223.336	6.76
223.555	-17.49
223.774	17.9
223.993	-2.68
224.213	6.62
224.432	-0.53
224.651	29.28
224.87	3.04
225.089	1.25
225.308	-10.65
225.527	13.12
225.746	10.02
225.965	12.53
226.184	17.97
226.404	33.06
226.623	4.45
226.842	-5.2
227.061	-5.03
227.28	-4.07
227.499	-32.56
227.718	-12.51
227.936	-18.07
228.155	-17.06
228.374	-8.9
228.593	17.82
228.812	25.13
229.031	21.99
229.25	-6.27
229.469	-14.5
229.688	-21.57
229.907	-15.71
230.125	-13.78
230.344	25.07
230.563	14.59
230.782	18.56
231.001	-17.44
231.22	-25.37
231.438	-28.19
231.657	-17.26
231.876	-34.9
232.095	17.62
232.313	39.96
232.532	36.8
232.751	36.03
232.969	43.27
233.188	-12.9
233.407	7.76
233.625	18.17
233.844	31.76
234.063	38.42
234.281	41.3
234.5	31.32
234.719	21.42
234.937	2.12
235.156	-0.64
235.374	10.97
235.593	14.2
235.811	5.12
236.03	27.15
236.249	26.56
236.467	2.1
236.686	-0.63
236.904	15.87
237.123	-1.11
237.341	-10.22
237.559	1.37
237.778	-9.62
237.996	-29.99
238.215	2.72
238.433	24.24
238.652	20.11
238.87	15.85
239.088	17.99
239.307	17.75
239.525	2.37
239.743	-27.51
239.962	-16.75
240.18	-29.4
240.398	-44.9
240.617	-33.21
240.835	1.24
241.053	-11.65
241.271	27.81
241.49	33.56
241.708	23.39
241.926	5.49
242.144	27.81
242.363	-14.56
242.581	-35.47
242.799	-26.71
243.017	-6.77
243.235	-18.31
243.453	-7.75
243.672	-13.5
243.89	-5.76
244.108	-3.12
244.326	7.3
244.544	18.8
244.762	24.06
244.98	28.49
245.198	17.49
245.416	11.75
245.634	-8.5
245.852	-15.3
246.07	-10.35
246.288	1.3
246.506	-16.19
246.724	6.46
246.942	25.7
247.16	35.84
247.378	44.76
247.596	51.13
247.814	54.5
248.032	42.15
248.25	27.1
248.468	4.34
248.685	6.95
248.903	21.55
249.121	10.06
249.339	-9.67
249.557	-5.33
249.775	-11.65
249.992	-75.59
250.21	-59.09
250.428	-33.65
250.646	-72.28
250.863	-80.13
251.081	-38.78
251.299	-52.72
251.517	-43.51
251.734	0.06
251.952	13.71
252.17	2.54
252.387	6.96
252.605	-3.66
252.823	9.5
253.04	10.97
253.258	32.51
253.475	48.31
253.693	61.23
253.911	41.81
254.128	52.47
254.346	45.48
254.563	19.14
254.781	2.97
254.998	6.67
255.216	-4.65
255.433	1.96
255.651	58.5
255.868	57.72
256.086	54.94
256.303	60.33
256.521	40.25
256.738	19.58
256.956	23.08
257.173	15.43
257.39	-5.77
257.608	-6.14
257.825	27.35
258.043	7.02
258.26	7.07
258.477	39.73
258.695	21.31
258.912	-27.15
259.129	17.8
259.346	-5.71
259.564	-51.93
259.781	-48.39
259.998	8.45
260.216	-15.55
260.433	10.44
260.65	18.99
260.867	53.06
261.084	26.19
261.302	42.59
261.519	46.67
261.736	27.87
261.953	-5.98
262.17	11.97
262.387	-12.21
262.604	-34.85
262.822	-38.06
263.039	-22.12
263.256	-60.05
263.473	-49.14
263.69	-18.11
263.907	18.88
264.124	28.84
264.341	30.13
264.558	30.65
264.775	41.14
264.992	28.32
265.209	12.55
265.426	38.48
265.643	44.47
265.86	37.43
266.077	13.8
266.294	7.24
266.51	-22.61
266.727	-37.17
266.944	-33.06
267.161	-3.26
267.378	-8.05
267.595	6.67
267.812	3.84
268.028	-2.42
268.245	20.24
268.462	27.17
268.679	27.64
268.896	39.44
269.112	28.88
269.329	20.61
269.546	23.12
269.763	17.18
269.979	28.5
270.196	39.25
270.413	10.1
270.629	-9.87
270.846	-6.1
271.063	-21.68
271.279	-29.24
271.496	-3.58
271.712	25.99
271.929	25.33
272.146	18.43
272.362	0.61
272.579	10.05
272.795	-6.04
273.012	2.44
273.228	2.32
273.445	21.49
273.661	7.06
273.878	0.35
274.094	-3.69
274.311	-13.8
274.527	13.74
274.744	20.59
274.96	6.61
275.177	8.13
275.393	18.12
275.609	13.84
275.826	20.84
276.042	38.59
276.259	42.23
276.475	44.31
276.691	51.18
276.908	33.18
277.124	34
277.34	26.88
277.557	22.54
277.773	8.1
277.989	12.53
278.205	12.22
278.422	18.7
278.638	10.94
278.854	14.61
279.07	10
279.286	-4.98
279.503	-23.39
279.719	-21.32
279.935	-35.45
280.151	-43.5
280.367	-29.88
280.583	-47.6
280.799	-40.24
281.016	-60.16
281.232	-19.27
281.448	-16.88
281.664	5.03
281.88	-17.96
282.096	5.37
282.312	-8.98
282.528	0.55
282.744	2.9
282.96	21.27
283.176	15.46
283.392	18.79
283.608	14.43
283.824	13.32
284.04	27.67
284.256	33.16
284.471	23.11
284.687	22.64
284.903	33.78
285.119	35.45
285.335	16.22
285.551	41.14
285.767	18.21
285.982	9.37
286.198	-11.38
286.414	24.71
286.63	9.36
286.846	22.11
287.061	11.35
287.277	30.83
287.493	4.22
287.709	23.51
287.924	27.1
288.14	52.12
288.356	47.87
288.571	72.83
288.787	51.97
289.003	48.71
289.218	37.48
289.434	18.81
289.65	7.1
289.865	9.83
290.081	24.33
290.296	28.19
290.512	45.72
290.727	35.16
290.943	25.96
291.159	7.87
291.374	0.35
291.59	-3.8
291.805	9.66
292.021	20.24
292.236	31.16
292.451	49.05
292.667	38.3
292.882	40.67
293.098	26.14
293.313	28.85
293.529	-4.14
293.744	-6.75
293.959	-20.53
294.175	1.16
294.39	16.28
294.605	37.65
294.821	52.72
295.036	59.93
295.251	60.33
295.467	53.02
295.682	37.73
295.897	6.13
296.112	3.14
296.328	-5.98
296.543	-44.02
296.758	-35.57
296.973	-16.76
297.188	6.44
297.404	-3.96
297.619	4.37
297.834	-9.35
298.049	-23.35
298.264	-36.55
298.479	-11.1
298.694	-10.07
298.909	1.99
299.125	17.49
299.34	13.46
299.555	5.65
299.77	16.5
299.985	-8.52
300.2	-48.8
300.415	-53.52
300.63	-39.68
300.845	-41.62
301.06	-36.55
301.275	-8.22
301.49	10.47
301.704	13.18
301.919	3.99
302.134	-12.66
302.349	-25.5
302.564	-76.12
302.779	-97.46
302.994	-84.05
303.209	-42.03
303.423	-14.07
303.638	39.91
303.853	12
304.068	13.94
304.283	26.34
304.497	28.43
304.712	15.98
304.927	22.32
305.142	14.07
305.356	13.05
305.571	-2.06
305.786	-17.08
306	-40.68
306.215	-39.89
306.43	-58.77
306.644	-40.5
306.859	19.11
307.074	20.57
307.288	-1.93
307.503	-18.83
307.717	-15.33
307.932	-40.05
308.147	-27.82
308.361	-4.83
308.576	-1.28
308.79	-35.81
309.005	-17.62
309.219	-7.18
309.434	-18.96
309.648	3.36
309.863	12.78
310.077	11.67
310.292	4.37
310.506	1.25
310.72	4.14
310.935	1.49
311.149	-0.25
311.364	-0.1
311.578	13.69
311.792	8.82
312.007	19.03
312.221	14.14
312.435	25.25
312.649	19.74
312.864	44.31
313.078	53.37
313.292	89.71
313.507	73.79
313.721	62.79
313.935	30.48
314.149	19.41
314.363	20.27
314.578	27.64
314.792	30.74
315.006	17.6
315.22	32.84
315.434	35.85
315.648	37.29
315.862	52.67
316.077	52.47
316.291	61.11
316.505	69.85
316.719	92.06
316.933	46.65
317.147	37.6
317.361	-22.73
317.575	-62.95
317.789	-98.06
318.003	-156.21
318.217	-107.32
318.431	-27.67
318.645	14.59
318.859	17.36
319.073	30.05
319.287	25.2
319.5	12.63
319.714	-9.61
319.928	-28.67
320.142	-53.66
320.356	-50.91
320.57	-30.87
320.784	-33.19
320.997	-40.78
321.211	-27.61
321.425	-49.17
321.639	-66.92
321.853	-31.28
322.066	-7.65
322.28	-8.32
322.494	6.56
322.707	6.76
322.921	8.6
323.135	7.28
323.349	20.12
323.562	11.95
323.776	16.96
323.989	-2.27
324.203	-20.16
324.417	-25.93
324.63	-44.45
324.844	-32.57
325.057	-15.86
325.271	-2.08
325.485	20.39
325.698	31.88
325.912	29.68
326.125	10.4
326.339	11.69
326.552	-14.84
326.766	-1.51
326.979	12.05
327.193	44.13
327.406	48.86
327.619	42.85
327.833	48.83
328.046	24.74
328.26	-20.49
328.473	-20.86
328.686	-27.55
328.9	-31.4
329.113	-3.35
329.326	8.75
329.54	27.77
329.753	16.62
329.966	15.16
330.179	-2.92
330.393	18.97
330.606	19.6
330.819	26.99
331.032	35.64
331.246	34.19
331.459	41.21
331.672	39.51
331.885	35.06
332.098	21.63
332.311	5.75
332.525	-17.35
332.738	-9.76
332.951	10.3
333.164	17.42
333.377	45.46
333.59	53.83
333.803	45.2
334.016	38.95
334.229	50.17
334.442	30.55
334.655	38.33
334.868	47.31
335.081	51.22
335.294	35.82
335.507	45.78
335.72	28.86
335.933	16.78
336.146	-1.09
336.359	-8.96
336.572	-33.71
336.785	-34.07
336.997	-31
337.21	-12.02
337.423	-14.6
337.636	-19.83
337.849	-20.5
338.062	-33.56
338.274	-28.69
338.487	-24.17
338.7	-6.19
338.913	-25.47
339.125	-7.93
339.338	-42.29
339.551	-35.84
339.763	-32.12
339.976	-13.18
340.189	-21.92
340.402	6.5
340.614	15.08
340.827	10.27
341.039	8.34
341.252	30.03
341.465	23.72
341.677	25.92
341.89	14.11
342.102	32.53
342.315	18
342.527	9.03
342.74	6.18
342.952	22.96
343.165	10.86
343.377	24.08
343.59	22.14
343.802	22.27
344.015	21.56
344.227	21.47
344.44	15.9
344.652	24.45
344.864	22.25
345.077	38.96
345.289	44.36
345.502	35.44
345.714	23.69
345.926	23.08
346.139	0.69
346.351	2.53
346.563	10.1
346.775	17.48
346.988	6.68
347.2	10.95
347.412	-27.02
347.624	-36.17
347.837	-54.94
348.049	-29.18
348.261	-16.15
348.473	7.13
348.685	5.83
348.897	5.46
349.11	-12.81
349.322	-24.15
349.534	-36.67
349.746	-23.81
349.958	-38.86
350.17	-26.68
350.382	3.16
350.594	13.57
350.806	21.32
351.018	29.8
351.23	0.05
351.442	-41.96
351.654	-45.13
351.866	-39.36
352.078	-35.44
352.29	20.17
352.502	22.53
352.714	14.89
352.926	-0.78
353.138	2.02
353.35	-8.37
353.561	0.56
353.773	-3.54
353.985	14.08
354.197	21.95
354.409	3.67
354.621	-9.77
354.832	6.07
355.044	-9.61
355.256	-14.45
355.468	1.75
355.679	7.87
355.891	8.72
356.103	9.18
356.314	20.32
356.526	28.32
356.738	21.36
356.949	4.03
357.161	20.13
357.373	14.7
357.584	9.59
357.796	18.41
358.008	17.44
358.219	8.69
358.431	0.98
358.642	9.89
358.854	12.86
359.065	7.16
359.277	3.28
359.488	3.39
359.7	-9.69
359.911	-25.77
360.123	-9.14
360.334	-12.55
360.546	-33.37
360.757	-45.85
360.969	-40.37
361.18	-44.99
361.391	-29.64
361.603	-24.57
361.814	-12.26
362.025	-2.19
362.237	-5.07
362.448	-10.56
362.659	10.39
362.871	8.13
363.082	-7.09
363.293	-14.8
363.504	-19.83
363.716	-36.28
363.927	-43.07
364.138	-47.71
364.349	-36.37
364.56	-15.21
364.772	-2.61
364.983	18.56
365.194	18.78
365.405	26.64
365.616	32.31
365.827	21.92
366.038	2.86
366.25	-0.12
366.461	-24.25
366.672	-15.15
366.883	7.68
367.094	24.78
367.305	33.3
367.516	33.26
367.727	14.54
367.938	-0.41
368.149	-17.94
368.36	-18.11
368.571	-18.94
368.781	-22.46
368.992	-26.82
369.203	-41.78
369.414	-59.89
369.625	-49.45
369.836	-37.11
370.047	-55.31
370.258	-42.53
370.468	-38.52
370.679	-52.5
370.89	-47.13
371.101	-25.63
371.312	-16.8
371.522	-3.38
371.733	9.9
371.944	20.12
372.155	9.9
372.365	7.15
372.576	8.45
372.787	9.35
372.997	-0.58
373.208	15.55
373.419	14.41
373.629	-6.03
373.84	-10.06
374.05	-19.63
374.261	-16.18
374.472	-18.16
374.682	11.06
374.893	13.52
375.103	33.21
375.314	30.91
375.524	37.25
375.735	31.11
375.945	32.08
376.156	24.56
376.366	16.07
376.577	9.51
376.787	7.23
376.997	8.71
377.208	-0.2
377.418	6.7
377.629	12.45
377.839	6.2
378.049	4.04
378.26	7.23
378.47	7.95
378.68	-2.62
378.89	1.56
379.101	-4.84
379.311	-14.75
379.521	-44.54
379.732	-28.05
379.942	-31.06
380.152	-37.46
380.362	-15.19
380.572	4.59
380.783	2.76
380.993	8.11
381.203	14.58
381.413	16.56
381.623	11.7
381.833	14.06
382.043	11.62
382.253	13.38
382.463	13.05
382.674	1.83
382.884	-3.74
383.094	5.85
383.304	8.39
383.514	2.44
383.724	12.71
383.934	8.88
384.144	-7.09
384.353	-16.36
384.563	-18.98
384.773	-16.29
384.983	-19.19
385.193	-4.72
385.403	-1.59
385.613	5.56
385.823	-3.44
386.033	4.44
386.242	-4.35
386.452	-8.09
386.662	-13.88
386.872	-4.97
387.082	-11.71
387.291	-12.54
387.501	-9.72
387.711	-8.32
387.921	-10.34
388.13	-6.59
388.34	0.53
388.55	-3.41
388.759	-1.27
388.969	4.57
389.179	4.91
389.388	4.77
389.598	15.22
389.807	10.27
390.017	7.18
390.227	6.77
390.436	6.59
390.646	4.6
390.855	7.99
391.065	8.31
391.274	7.3
391.484	3.74
391.693	3.56
391.903	4.99
392.112	7.87
392.322	8.48
392.531	9.85
392.74	9.06
392.95	6.02
393.159	4.12
393.369	5.6
393.578	5.61
393.787	5.59
393.997	5.18
394.206	5.47
394.415	4.41
394.625	3.79
394.834	2.67
395.043	4.3
395.252	5.59
395.462	7.18
395.671	8.43
395.88	8.93
396.089	9.7
396.298	7.69
396.508	6.91
396.717	5.75
396.926	6.21
397.135	5.05
397.344	5.55
397.553	5.15
397.762	6.9
397.971	6.3
398.181	6.8
398.39	6.75
398.599	6.87
398.808	6.27
399.017	6.57
399.226	6.78
399.435	7.26
399.644	7.18
399.853	6.19
400.062	6.08
400.27	5.79
400.479	5.48
400.688	5.01
400.897	5.7
401.106	5.74
401.315	5.91
401.524	5.74
401.733	6.18
401.941	6.19
402.15	6.57
402.359	6.27
402.568	6.57
402.777	6.49
402.985	6.26
403.194	5.87
403.403	5.99
403.612	5.68
403.82	5.43
404.029	5.74
404.238	5.88
404.446	5.99
404.655	5.88
404.864	5.98
405.072	5.67
405.281	5.42
405.489	5.23
405.698	5.37
405.906	5.29
406.115	5.4
406.324	5.47
406.532	5.49
406.741	5.58
406.949	5.69
407.158	5.62
407.366	5.72
407.574	5.7
407.783	5.57
407.991	5.36
408.2	5.35
408.408	5.17
408.617	5.05
408.825	4.97
409.033	5.09
409.242	5.09
409.45	5.27
409.658	5.29
409.867	5.35
410.075	5.2
410.283	5.22
410.491	5.04
410.7	4.99
410.908	4.92
411.116	5.25
411.324	5.18
411.533	5.16
411.741	5.35
411.949	5.33
412.157	5.11
412.365	5.21
412.573	5.31
412.781	5.3
412.99	5.28
413.198	5.42
413.406	5.38
413.614	5.23
413.822	5.07
414.03	5.04
414.238	4.85
414.446	4.89
414.654	4.8
414.862	4.91
415.07	4.92
415.278	5.06
415.486	4.88
415.694	4.96
415.902	4.77
416.109	4.8
416.317	4.77
416.525	4.55
416.733	4.61
416.941	4.7
417.149	4.69
417.357	4.58
417.564	4.76
417.772	4.83
417.98	4.85
418.188	4.79
418.395	4.79
418.603	5
418.811	4.76
419.019	4.66
419.226	4.63
419.434	4.69
419.642	4.3
419.849	4.45
420.057	4.42
420.265	4.47
420.472	4.42
420.68	4.53
420.887	4.35
421.095	4.4
421.302	4.46
421.51	4.36
421.717	4.49
421.925	4.66
422.132	4.64
422.34	4.39
422.547	4.48
422.755	4.5
422.962	4.41
423.17	4.31
423.377	4.36
423.585	4.24
423.792	3.98
423.999	3.94
424.207	3.95
424.414	4.08
424.621	4.21
424.829	4.43
425.036	4.51
425.243	4.52
425.451	4.3
425.658	4.08
425.865	4.08
426.072	4.11
426.28	4.17
426.487	4.3
426.694	4.48
426.901	4.27
427.108	4.18
427.315	4.27
427.523	4.41
427.73	4.33
427.937	4.43
428.144	4.33
428.351	4.23
428.558	4.23
428.765	4.25
428.972	4.21
429.179	4.36
429.386	4.42
429.593	4.33
429.8	4.36
430.007	4.52
430.214	4.61
430.421	4.55
430.628	4.51
430.835	4.48
431.042	4.48
431.249	4.64
431.456	4.71
431.662	4.79
431.869	4.84
432.076	4.86
432.283	4.75
432.49	4.73
432.697	4.72
432.903	4.56
433.11	4.56
433.317	4.56
433.524	4.66
433.73	4.64
433.937	4.82
434.144	4.77
434.35	4.82
434.557	4.73
434.764	4.75
434.97	4.68
435.177	4.8
435.384	4.78
435.59	4.76
435.797	4.98
436.003	4.95
436.21	4.91
436.416	4.91
436.623	5.05
436.829	5
437.036	5.26
437.242	5.27
437.449	5.28
437.655	5.28
437.862	5.32
438.068	5.2
438.275	5.4
438.481	5.6
438.687	5.53
438.894	5.48
439.1	5.57
439.307	5.5
439.513	5.32
439.719	5.43
439.926	5.62
440.132	5.66
440.338	5.6
440.544	5.78
440.751	5.79
440.957	5.66
441.163	5.62
441.369	5.8
441.575	5.68
441.782	5.71
441.988	5.68
442.194	5.66
442.4	5.58
442.606	5.79
442.812	5.8
443.018	5.81
443.224	5.86
443.431	5.87
443.637	5.75
443.843	5.73
444.049	5.74
444.255	5.71
444.461	5.74
444.667	5.72
444.873	5.75
445.079	5.86
445.284	5.98
445.49	5.87
445.696	5.82
445.902	5.81
446.108	5.84
446.314	5.8
446.52	5.87
446.726	6
446.931	6.04
447.137	6
447.343	6.03
447.549	5.99
447.755	5.91
447.96	5.92
448.166	5.9
448.372	5.82
448.578	5.95
448.783	5.98
448.989	6
449.195	6.17
449.4	6.3
449.606	6.27
449.812	6.27
450.017	6.35
450.223	6.28
450.428	6.2
450.634	6.28
450.84	6.33
451.045	6.22
451.251	6.22
451.456	6.38
451.662	6.41
451.867	6.54
452.073	6.64
452.278	6.75
452.483	6.75
452.689	6.71
452.894	6.65
453.1	6.57
453.305	6.49
453.51	6.49
453.716	6.47
453.921	6.5
454.127	6.53
454.332	6.49
454.537	6.44
454.742	6.43
454.948	6.36
455.153	6.41
455.358	6.44
455.563	6.58
455.769	6.65
455.974	6.64
456.179	6.54
456.384	6.48
456.589	6.39
456.795	6.26
457	6.3
457.205	6.48
457.41	6.52
457.615	6.48
457.82	6.64
458.025	6.64
458.23	6.57
458.435	6.64
458.64	6.67
458.845	6.79
459.05	6.77
459.255	6.7
459.46	6.63
459.665	6.66
459.87	6.6
460.075	6.65
460.28	6.79
460.485	6.9
460.69	6.88
460.895	6.73
461.099	6.74
461.304	6.78
461.509	6.82
461.714	6.81
461.919	6.91
462.123	6.83
462.328	6.83
462.533	6.71
462.738	6.81
462.942	6.83
463.147	6.93
463.352	6.93
463.556	6.98
463.761	6.98
463.966	7.02
464.17	7.03
464.375	7.03
464.58	7.14
464.784	7.08
464.989	7.02
465.193	7.04
465.398	7.08
465.602	7.11
465.807	7.1
