Data from Ofra_2a_PS_2GT3_Reflection_3.txt Node
Date: Tue Jul 20 09:40:52 EDT 2021
User: Adam
Spectrometer: FLMT01687
Trigger mode: 0
Integration Time (sec): 9.450000E-1
Scans to average: 3
Electric dark correction enabled: true
Nonlinearity correction enabled: false
Boxcar width: 3
XAxis mode: Wavelengths
Number of Pixels in Spectrum: 3648
>>>>>Begin Spectral Data<<<<<
179.494	659.17
179.716	403.7
179.937	450.55
180.158	1541.41
180.38	-578.49
180.601	-96.84
180.823	-31.1
181.044	28.88
181.265	24.64
181.486	75.82
181.708	-454.35
181.929	-38.84
182.15	-285.23
182.372	19.31
182.593	-34.08
182.814	352.4
183.035	312.6
183.257	162.77
183.478	108.28
183.699	133.39
183.92	94.16
184.141	89.32
184.363	78.07
184.584	55.39
184.805	64.33
185.026	75.64
185.247	45.56
185.468	47.02
185.689	28.34
185.91	27.83
186.132	47.67
186.353	37.2
186.574	37.93
186.795	33.96
187.016	44.17
187.237	62.98
187.458	70.8
187.679	55.87
187.9	60.18
188.121	62.19
188.342	77.11
188.563	68.08
188.784	60.74
189.005	67.17
189.226	64.72
189.447	52.45
189.667	44.02
189.888	44.91
190.109	50.1
190.33	46.93
190.551	40.16
190.772	33.17
190.993	49.64
191.214	60.96
191.434	37.96
191.655	41.65
191.876	46.73
192.097	43.92
192.318	53.61
192.538	50.79
192.759	54.55
192.98	62.62
193.201	78.96
193.421	83.49
193.642	87.96
193.863	101.75
194.083	95.71
194.304	73.57
194.525	79.78
194.745	50.58
194.966	44.5
195.187	60.56
195.407	55.1
195.628	57.02
195.848	72.25
196.069	76.77
196.29	75.89
196.51	86.96
196.731	69.3
196.951	73.98
197.172	69.04
197.392	36.67
197.613	24.51
197.833	33.37
198.054	30.94
198.274	20.23
198.495	40.16
198.715	36.3
198.936	77.41
199.156	73.41
199.377	74.52
199.597	69.15
199.817	80.06
200.038	60.51
200.258	67.71
200.479	65.67
200.699	79.77
200.919	61.96
201.14	66.16
201.36	64.68
201.58	56.63
201.801	52.22
202.021	52.96
202.241	47.45
202.461	63
202.682	64.36
202.902	57.55
203.122	52.97
203.342	65.61
203.563	57.25
203.783	52.36
204.003	46.65
204.223	46.85
204.443	50.07
204.663	55.47
204.884	42.57
205.104	52.6
205.324	74.77
205.544	69.96
205.764	72.91
205.984	64.98
206.204	70.65
206.424	65.44
206.644	65.38
206.864	55.6
207.084	60.54
207.304	56.44
207.525	52.6
207.745	52.35
207.964	54.87
208.184	35.96
208.404	34.73
208.624	38.81
208.844	28.51
209.064	31.52
209.284	36.8
209.504	29.18
209.724	18.45
209.944	10.7
210.164	11
210.384	19.9
210.604	29.75
210.823	17.54
211.043	32.64
211.263	55.35
211.483	51.25
211.703	59.65
211.922	59.25
212.142	58.84
212.362	66.28
212.582	63.24
212.801	53.96
213.021	63.04
213.241	49.62
213.461	46.08
213.68	53.11
213.9	50.38
214.12	51.22
214.339	53.84
214.559	53.31
214.779	61.66
214.998	56.51
215.218	49.64
215.438	54.96
215.657	54.28
215.877	56.93
216.096	54.96
216.316	52.66
216.535	67.35
216.755	60.68
216.974	59.85
217.194	67.32
217.413	74.12
217.633	65.27
217.852	65.31
218.072	51.89
218.291	65.19
218.511	52.03
218.73	50.08
218.95	37.1
219.169	49.59
219.389	38.81
219.608	37.78
219.827	35.9
220.047	56.73
220.266	52.47
220.485	60.44
220.705	32.29
220.924	33.2
221.143	31.64
221.363	16.05
221.582	0.39
221.801	-4.97
222.021	-10.36
222.24	4.63
222.459	12.18
222.678	12.02
222.897	13.56
223.117	23.59
223.336	22.86
223.555	20.9
223.774	31.4
223.993	34.98
224.213	44.23
224.432	68.89
224.651	76.59
224.87	82.7
225.089	94.17
225.308	80.43
225.527	82.22
225.746	74.43
225.965	59.35
226.184	55.37
226.404	42.56
226.623	41.53
226.842	50.78
227.061	60.39
227.28	72.84
227.499	70.54
227.718	67.96
227.936	64.8
228.155	58.66
228.374	50.47
228.593	33.98
228.812	30.07
229.031	23.5
229.25	33.75
229.469	45.01
229.688	49.85
229.907	53.84
230.125	63.54
230.344	67.49
230.563	76.37
230.782	63.66
231.001	61.99
231.22	55.04
231.438	50.19
231.657	49.15
231.876	43.07
232.095	23.13
232.313	41.11
232.532	37
232.751	47.8
232.969	53.7
233.188	60.03
233.407	60.09
233.625	66.42
233.844	51.32
234.063	56.1
234.281	47.97
234.5	50.6
234.719	40.14
234.937	37.68
235.156	38.54
235.374	41.54
235.593	36.83
235.811	23.04
236.03	13.17
236.249	32.75
236.467	43.83
236.686	36.61
236.904	35.21
237.123	37.92
237.341	35.5
237.559	34.96
237.778	31.88
237.996	26.79
238.215	24.79
238.433	33.23
238.652	27.65
238.87	32.1
239.088	21.29
239.307	20.19
239.525	19.92
239.743	19.99
239.962	25.65
240.18	47.53
240.398	52.91
240.617	67.32
240.835	71.04
241.053	71.55
241.271	81.18
241.49	64.02
241.708	59.06
241.926	52.66
242.144	43.26
242.363	35.02
242.581	37.62
242.799	20.52
243.017	23.15
243.235	11.1
243.453	12.66
243.672	17.48
243.89	26.9
244.108	21.51
244.326	34.98
244.544	44.54
244.762	47.81
244.98	46.27
245.198	38.82
245.416	39.68
245.634	57.71
245.852	45.65
246.07	36.07
246.288	27.24
246.506	42.03
246.724	54.26
246.942	57.89
247.16	38.05
247.378	39.21
247.596	49.4
247.814	34.96
248.032	38.03
248.25	45.51
248.468	37.21
248.685	52.68
248.903	43.6
249.121	42
249.339	52.8
249.557	39.06
249.775	20.26
249.992	21.12
250.21	10.63
250.428	21.2
250.646	23.75
250.863	22.65
251.081	26.62
251.299	55.44
251.517	62.11
251.734	65.82
251.952	64.06
252.17	62.56
252.387	62.7
252.605	68.96
252.823	36.32
253.04	41.44
253.258	44.88
253.475	40.34
253.693	46.33
253.911	48.51
254.128	42.19
254.346	45.22
254.563	44.64
254.781	47.32
254.998	42.63
255.216	35.75
255.433	30.84
255.651	27.59
255.868	27.42
256.086	25.85
256.303	27.25
256.521	14.2
256.738	12.43
256.956	15.07
257.173	24.98
257.39	35.21
257.608	33.75
257.825	24.32
258.043	39.32
258.26	39.25
258.477	43.89
258.695	40.31
258.912	37.43
259.129	31.37
259.346	36.97
259.564	30.15
259.781	33.69
259.998	28.83
260.216	38.91
260.433	37.9
260.65	56.98
260.867	47.29
261.084	45.8
261.302	54.31
261.519	48.54
261.736	39.5
261.953	43.96
262.17	25.61
262.387	35.01
262.604	24.26
262.822	12.99
263.039	26.19
263.256	18.79
263.473	14.71
263.69	16.9
263.907	13.64
264.124	19.53
264.341	15.95
264.558	13.27
264.775	32.4
264.992	29.65
265.209	39.23
265.426	42.12
265.643	45.69
265.86	45.15
266.077	42.74
266.294	37.01
266.51	41.59
266.727	21.03
266.944	24.22
267.161	24.97
267.378	32.52
267.595	32.98
267.812	22.9
268.028	21.25
268.245	35
268.462	30.23
268.679	23.62
268.896	21.79
269.112	36.11
269.329	41.87
269.546	33.44
269.763	36.42
269.979	33.52
270.196	41.87
270.413	40.89
270.629	33.26
270.846	30.92
271.063	36.51
271.279	31.35
271.496	30.87
271.712	17.16
271.929	27.32
272.146	29.71
272.362	22.35
272.579	24
272.795	26.37
273.012	24.2
273.228	35.68
273.445	33.47
273.661	28.6
273.878	43.49
274.094	40.54
274.311	37.23
274.527	39.47
274.744	36.24
274.96	28.55
275.177	38.23
275.393	26.49
275.609	35.82
275.826	38.42
276.042	42.03
276.259	48.25
276.475	53.04
276.691	50.03
276.908	55.01
277.124	53.98
277.34	54.99
277.557	58.85
277.773	56.27
277.989	54.27
278.205	43
278.422	36.14
278.638	34.99
278.854	37.5
279.07	27.74
279.286	25.34
279.503	30.92
279.719	41.1
279.935	36.34
280.151	42.22
280.367	37.32
280.583	37.92
280.799	42.35
281.016	45.4
281.232	47.81
281.448	51.46
281.664	43.53
281.88	47.1
282.096	40.51
282.312	38.34
282.528	25.37
282.744	23.01
282.96	26.23
283.176	34.8
283.392	46.21
283.608	53.08
283.824	41.22
284.04	44.44
284.256	47.3
284.471	45.79
284.687	36.15
284.903	34.56
285.119	28.81
285.335	39.6
285.551	48.25
285.767	43.36
285.982	42.77
286.198	38.87
286.414	33.3
286.63	40.32
286.846	32.98
287.061	30.51
287.277	41.03
287.493	45.55
287.709	55
287.924	60.51
288.14	58.29
288.356	72.43
288.571	65.58
288.787	53.32
289.003	55.97
289.218	54.84
289.434	47.63
289.65	56.64
289.865	51.53
290.081	48.29
290.296	46.87
290.512	43.6
290.727	55.59
290.943	41.18
291.159	24.12
291.374	26.39
291.59	27.18
291.805	33.85
292.021	24.84
292.236	15.18
292.451	26.43
292.667	45.17
292.882	43.9
293.098	40.57
293.313	30.52
293.529	27.09
293.744	28.88
293.959	42.71
294.175	29.67
294.39	35.34
294.605	39.69
294.821	38.1
295.036	52.03
295.251	50.72
295.467	37.97
295.682	39.81
295.897	29.88
296.112	41.07
296.328	52.66
296.543	46.21
296.758	49.12
296.973	56.02
297.188	62.19
297.404	62.86
297.619	70.65
297.834	61.66
298.049	63.38
298.264	47.26
298.479	38.1
298.694	42.32
298.909	41.08
299.125	31.74
299.34	24.2
299.555	28.2
299.77	34.52
299.985	37.79
300.2	29.83
300.415	34.03
300.63	27.84
300.845	32.53
301.06	30.34
301.275	38
301.49	37.71
301.704	41.06
301.919	37.4
302.134	31.05
302.349	29.1
302.564	28.97
302.779	22.74
302.994	24.27
303.209	13.19
303.423	21.34
303.638	44.07
303.853	49.31
304.068	45.53
304.283	43.71
304.497	43.49
304.712	43.11
304.927	35.13
305.142	31.77
305.356	33.35
305.571	37.03
305.786	29.15
306	27.42
306.215	28.62
306.43	37.18
306.644	41.1
306.859	36.45
307.074	28.84
307.288	37.39
307.503	39.21
307.717	38.91
307.932	38.4
308.147	42.37
308.361	34.86
308.576	38.66
308.79	38.74
309.005	38.36
309.219	46.53
309.434	46.5
309.648	28.21
309.863	38.21
310.077	42.28
310.292	39.78
310.506	49.06
310.72	38.82
310.935	37.71
311.149	44.66
311.364	46.45
311.578	47.57
311.792	40.52
312.007	31.13
312.221	41.34
312.435	43.73
312.649	61.55
312.864	50.61
313.078	38.14
313.292	43.86
313.507	44.99
313.721	25.48
313.935	45.66
314.149	38.23
314.363	50.51
314.578	74.6
314.792	73.25
315.006	80.64
315.22	84.21
315.434	66.3
315.648	71.34
315.862	66.96
316.077	57.45
316.291	59.59
316.505	49.19
316.719	36.29
316.933	41.97
317.147	32.95
317.361	18.6
317.575	7.94
317.789	12.18
318.003	17.55
318.217	36.3
318.431	36.91
318.645	42.26
318.859	38.15
319.073	33.06
319.287	33.96
319.5	35.66
319.714	34.47
319.928	39.46
320.142	34.32
320.356	52.4
320.57	53.35
320.784	58.71
320.997	59.88
321.211	56.05
321.425	43.08
321.639	44.32
321.853	36.21
322.066	36.2
322.28	34.34
322.494	25.88
322.707	18.06
322.921	21.72
323.135	21.38
323.349	26.6
323.562	28.93
323.776	26.03
323.989	36.36
324.203	47.62
324.417	48.02
324.63	41.73
324.844	26.87
325.057	29.35
325.271	26.01
325.485	19.29
325.698	13.69
325.912	18.07
326.125	22.28
326.339	33.4
326.552	41.65
326.766	46.98
326.979	49.11
327.193	48.1
327.406	45.56
327.619	42.23
327.833	40.2
328.046	26.54
328.26	23.96
328.473	22.86
328.686	25.62
328.9	24.96
329.113	35.95
329.326	38.99
329.54	39.01
329.753	41.02
329.966	32.87
330.179	37.06
330.393	41.65
330.606	41.3
330.819	41.21
331.032	48.95
331.246	49.88
331.459	55.73
331.672	49.99
331.885	45.61
332.098	47.07
332.311	31.77
332.525	24.88
332.738	21.67
332.951	19.44
333.164	11.9
333.377	4.81
333.59	11.67
333.803	25.6
334.016	29.64
334.229	30.57
334.442	44.52
334.655	61.23
334.868	63.05
335.081	61.98
335.294	65.05
335.507	62.93
335.72	57.47
335.933	51.17
336.146	48.08
336.359	42.73
336.572	38.04
336.785	39.1
336.997	30.38
337.21	32.45
337.423	30.86
337.636	28.46
337.849	25.77
338.062	23.28
338.274	28.53
338.487	24.81
338.7	34.78
338.913	36.5
339.125	34.37
339.338	38.18
339.551	38.49
339.763	29.69
339.976	34.51
340.189	26.81
340.402	27.92
340.614	35.32
340.827	31.63
341.039	34.02
341.252	32.6
341.465	28.76
341.677	25.28
341.89	27.76
342.102	29.28
342.315	34.08
342.527	26.75
342.74	30.53
342.952	40.16
343.165	53.46
343.377	53.79
343.59	44.58
343.802	50.02
344.015	52.8
344.227	50.33
344.44	40.29
344.652	37.67
344.864	37.36
345.077	39.9
345.289	34.16
345.502	38.14
345.714	34.19
345.926	38.63
346.139	36.07
346.351	20.79
346.563	26.01
346.775	26.27
346.988	20.55
347.2	22.75
347.412	27.15
347.624	23.62
347.837	31.32
348.049	30.03
348.261	28.32
348.473	25.13
348.685	30.02
348.897	28.37
349.11	35.09
349.322	32.35
349.534	35.8
349.746	47.45
349.958	46.52
350.17	54.25
350.382	43.89
350.594	42.98
350.806	48.66
351.018	46.41
351.23	40.04
351.442	42.76
351.654	41.37
351.866	48.65
352.078	44.3
352.29	54.64
352.502	53.98
352.714	58.2
352.926	56.65
353.138	55.89
353.35	43.09
353.561	39.26
353.773	23.72
353.985	25.22
354.197	19.35
354.409	22.83
354.621	22.95
354.832	29.04
355.044	41.78
355.256	44.78
355.468	41.41
355.679	45.42
355.891	43.06
356.103	39.38
356.314	42.78
356.526	33.4
356.738	25.51
356.949	21.73
357.161	17.97
357.373	16.75
357.584	25.46
357.796	22.77
358.008	23.54
358.219	42.34
358.431	46.46
358.642	47.5
358.854	47.35
359.065	44.04
359.277	42.25
359.488	38.56
359.7	32.05
359.911	35.1
360.123	35.38
360.334	33.04
360.546	25.1
360.757	29.45
360.969	35.81
361.18	27.66
361.391	24.09
361.603	26.11
361.814	28.27
362.025	32.9
362.237	33.72
362.448	33.64
362.659	34.21
362.871	38.36
363.082	38.84
363.293	37
363.504	38.89
363.716	38.12
363.927	39.94
364.138	46.07
364.349	47.45
364.56	42.37
364.772	48.34
364.983	40.66
365.194	43.57
365.405	46.49
365.616	36.38
365.827	31.36
366.038	41.69
366.25	32.02
366.461	36.4
366.672	30.83
366.883	28.8
367.094	33.4
367.305	32.21
367.516	29.27
367.727	32.32
367.938	34.18
368.149	36.73
368.36	33.39
368.571	36.85
368.781	33.68
368.992	31.82
369.203	33.03
369.414	28.11
369.625	19.25
369.836	19.47
370.047	11.21
370.258	11.13
370.468	4.37
370.679	2
370.89	23.26
371.101	26.99
371.312	21.24
371.522	25.48
371.733	21.91
371.944	24.07
372.155	14.05
372.365	-2.43
372.576	-1.19
372.787	2.09
372.997	3.04
373.208	16.42
373.419	21.01
373.629	32.59
373.84	30.76
374.05	33.35
374.261	31.57
374.472	25.6
374.682	13.85
374.893	9.24
375.103	12.04
375.314	13.27
375.524	11.87
375.735	24.12
375.945	28.89
376.156	33.12
376.366	35.84
376.577	38.6
376.787	38
376.997	41.63
377.208	31.99
377.418	29.67
377.629	31.85
377.839	36.99
378.049	33.64
378.26	44.18
378.47	46.75
378.68	41.97
378.89	39.35
379.101	32.29
379.311	23.1
379.521	18.56
379.732	3.2
379.942	1.17
380.152	11.15
380.362	19.68
380.572	24.13
380.783	30.06
380.993	33.3
381.203	37.47
381.413	35.29
381.623	33.02
381.833	25.25
382.043	22.59
382.253	19.23
382.463	24.9
382.674	27.87
382.884	22
383.094	20.64
383.304	20.73
383.514	22.9
383.724	21.52
383.934	16.45
384.144	14.24
384.353	20.87
384.563	17.26
384.773	18.21
384.983	17.19
385.193	20.34
385.403	22.95
385.613	19.69
385.823	16.63
386.033	16.54
386.242	14.49
386.452	13.23
386.662	11.73
386.872	11.38
387.082	12.91
387.291	14.53
387.501	19.03
387.711	20.38
387.921	19.37
388.13	18.02
388.34	13.59
388.55	15.14
388.759	14.24
388.969	8.49
389.179	10.57
389.388	12.99
389.598	9.98
389.807	9.5
390.017	9.61
390.227	7.2
390.436	9.73
390.646	8.15
390.855	7.01
391.065	8.29
391.274	8.48
391.484	6.92
391.693	8.32
391.903	6.57
392.112	5.03
392.322	5.29
392.531	6.43
392.74	5.96
392.95	7.15
393.159	7.13
393.369	7.25
393.578	8.34
393.787	8.59
393.997	8.34
394.206	8.32
394.415	7.66
394.625	6.18
394.834	5.65
395.043	5.37
395.252	4.58
395.462	4.44
395.671	5.47
395.88	5.55
396.089	6.39
396.298	6.88
396.508	6.41
396.717	6.17
396.926	5.84
397.135	4.99
397.344	4.25
397.553	3.89
397.762	3.86
397.971	3.9
398.181	3.48
398.39	3.49
398.599	3.44
398.808	3.78
399.017	4.11
399.226	4.05
399.435	4.21
399.644	4.4
399.853	4.36
400.062	4.44
400.27	4.54
400.479	4.4
400.688	4.42
400.897	4.46
401.106	4.45
401.315	4.31
401.524	4.48
401.733	4.63
401.941	4.52
402.15	4.28
402.359	4.18
402.568	4.21
402.777	4.15
402.985	4.01
403.194	3.76
403.403	3.64
403.612	3.73
403.82	3.71
404.029	3.71
404.238	3.79
404.446	3.64
404.655	3.49
404.864	3.48
405.072	3.48
405.281	3.34
405.489	3.34
405.698	3.31
405.906	3.36
406.115	3.45
406.324	3.41
406.532	3.45
406.741	3.57
406.949	3.51
407.158	3.51
407.366	3.5
407.574	3.53
407.783	3.48
407.991	3.36
408.2	3.31
408.408	3.33
408.617	3.27
408.825	3.27
409.033	3.2
409.242	3.18
409.45	3.13
409.658	3.09
409.867	3.06
410.075	3.08
410.283	3
410.491	2.93
410.7	3.01
410.908	3.08
411.116	3.04
411.324	3.08
411.533	2.99
411.741	2.94
411.949	3.06
412.157	3.02
412.365	3
412.573	3.01
412.781	3
412.99	3.05
413.198	3.18
413.406	3.06
413.614	3.09
413.822	3.09
414.03	3.05
414.238	3.07
414.446	2.98
414.654	2.97
414.862	2.96
415.07	2.92
415.278	2.83
415.486	2.99
415.694	2.94
415.902	2.96
416.109	2.93
416.317	2.93
416.525	3
416.733	3.11
416.941	2.95
417.149	2.99
417.357	3.04
417.564	3.05
417.772	3.08
417.98	3.01
418.188	2.87
418.395	2.97
418.603	2.82
418.811	2.74
419.019	2.74
419.226	2.82
419.434	2.84
419.642	2.88
419.849	2.83
420.057	2.95
420.265	3.04
420.472	2.96
420.68	2.82
420.887	2.79
421.095	2.87
421.302	2.93
421.51	2.87
421.717	2.89
421.925	2.8
422.132	2.79
422.34	2.78
422.547	2.63
422.755	2.49
422.962	2.45
423.17	2.34
423.377	2.55
423.585	2.57
423.792	2.56
423.999	2.62
424.207	2.53
424.414	2.58
424.621	2.59
424.829	2.45
425.036	2.33
425.243	2.36
425.451	2.4
425.658	2.55
425.865	2.41
426.072	2.48
426.28	2.45
426.487	2.58
426.694	2.58
426.901	2.44
427.108	2.43
427.315	2.56
427.523	2.55
427.73	2.63
427.937	2.58
428.144	2.6
428.351	2.73
428.558	2.67
428.765	2.59
428.972	2.55
429.179	2.44
429.386	2.5
429.593	2.42
429.8	2.41
430.007	2.51
430.214	2.59
430.421	2.66
430.628	2.69
430.835	2.65
431.042	2.7
431.249	2.67
431.456	2.61
431.662	2.54
431.869	2.56
432.076	2.62
432.283	2.5
432.49	2.49
432.697	2.5
432.903	2.6
433.11	2.69
433.317	2.73
433.524	2.6
433.73	2.72
433.937	2.72
434.144	2.72
434.35	2.67
434.557	2.58
434.764	2.47
434.97	2.6
435.177	2.56
435.384	2.61
435.59	2.64
435.797	2.65
436.003	2.71
436.21	2.74
436.416	2.72
436.623	2.78
436.829	2.77
437.036	2.76
437.242	2.76
437.449	2.74
437.655	2.74
437.862	2.8
438.068	2.84
438.275	2.84
438.481	2.89
438.687	2.97
438.894	2.97
439.1	3.03
439.307	3.02
439.513	2.98
439.719	2.98
439.926	2.97
440.132	2.89
440.338	2.95
440.544	2.9
440.751	2.93
440.957	2.88
441.163	2.9
441.369	2.86
441.575	2.85
441.782	2.8
441.988	2.79
442.194	2.86
442.4	2.97
442.606	3.03
442.812	3.04
443.018	3.05
443.224	3.09
443.431	3.16
443.637	3.05
443.843	3.06
444.049	2.98
444.255	2.98
444.461	3.03
444.667	3.01
444.873	2.96
445.079	3
445.284	2.9
445.49	2.9
445.696	2.97
445.902	2.95
446.108	2.97
446.314	3.04
446.52	3.06
446.726	3.11
446.931	3.18
447.137	3.13
447.343	3.15
447.549	3.12
447.755	3.1
447.96	3.1
448.166	3.13
448.372	3.14
448.578	3.16
448.783	3.08
448.989	3.13
449.195	3.11
449.4	3.07
449.606	3.01
449.812	3.03
450.017	3.06
450.223	3.13
450.428	3.12
450.634	3.19
450.84	3.21
451.045	3.25
451.251	3.29
451.456	3.24
451.662	3.22
451.867	3.24
452.073	3.17
452.278	3.22
452.483	3.22
452.689	3.19
452.894	3.16
453.1	3.13
453.305	3.12
453.51	3.16
453.716	3.11
453.921	3.13
454.127	3.09
454.332	3.15
454.537	3.26
454.742	3.27
454.948	3.2
455.153	3.23
455.358	3.28
455.563	3.27
455.769	3.25
455.974	3.17
456.179	3.08
456.384	3.12
456.589	3.14
456.795	3.04
457	3.08
457.205	3.07
457.41	3.12
457.615	3.23
457.82	3.28
458.025	3.24
458.23	3.28
458.435	3.25
458.64	3.3
458.845	3.25
459.05	3.23
459.255	3.21
459.46	3.2
459.665	3.27
459.87	3.28
460.075	3.26
460.28	3.32
460.485	3.37
460.69	3.33
460.895	3.38
461.099	3.31
461.304	3.34
461.509	3.28
461.714	3.27
461.919	3.24
462.123	3.28
462.328	3.26
462.533	3.28
462.738	3.27
462.942	3.4
463.147	3.41
463.352	3.47
463.556	3.48
463.761	3.51
463.966	3.57
464.17	3.58
464.375	3.52
464.58	3.49
464.784	3.45
464.989	3.44
465.193	3.49
465.398	3.46
465.602	3.46
465.807	3.51
466.011	3.59
466.216	3.63
466.42	3.68
466.625	3.65
466.829	3.7
467.034	3.77
467.238	3.79
467.443	3.83
467.647	3.85
467.851	3.84
468.056	3.82
468.26	3.79
468.464	3.76
468.669	3.78
