Data from Ofra_1a_PS_1GT37_Reflection_3.txt Node
Date: Tue Jul 20 10:44:53 EDT 2021
User: Adam
Spectrometer: FLMT01687
Trigger mode: 0
Integration Time (sec): 1.004000E0
Scans to average: 2
Electric dark correction enabled: true
Nonlinearity correction enabled: false
Boxcar width: 2
XAxis mode: Wavelengths
Number of Pixels in Spectrum: 3648
>>>>>Begin Spectral Data<<<<<
179.494	60.41
179.716	-35.11
179.937	182.27
180.158	-33.76
180.38	71.08
180.601	63.44
180.823	-33.99
181.044	-40.39
181.265	-7.4
181.486	68.55
181.708	29.86
181.929	5390.91
182.15	-95.49
182.372	339.41
182.593	145.13
182.814	-33.45
183.035	5.35
183.257	8.72
183.478	4.96
183.699	-50.4
183.92	-100.8
184.141	-130.14
184.363	-91.74
184.584	-157.57
184.805	-49.7
185.026	-7.15
185.247	1.21
185.468	-24.16
185.689	7.27
185.91	-17.35
186.132	21.57
186.353	24.55
186.574	42.75
186.795	35.57
187.016	28.41
187.237	-0.4
187.458	-3.48
187.679	-24.81
187.9	5.12
188.121	22.3
188.342	29.22
188.563	46.69
188.784	57.81
189.005	26.59
189.226	10.18
189.447	2.5
189.667	-31.63
189.888	-39.47
190.109	-45.81
190.33	-13.98
190.551	-19.91
190.772	-16.17
190.993	-21.8
191.214	-49.24
191.434	-92.52
191.655	-149.87
191.876	-18.97
192.097	-21.96
192.318	28.95
192.538	-16.69
192.759	-5.21
192.98	-12.2
193.201	-18.2
193.421	-28.54
193.642	3.15
193.863	17.39
194.083	26.58
194.304	31.5
194.525	27.48
194.745	16.84
194.966	4.64
195.187	-11.14
195.407	-16.19
195.628	-10.81
195.848	4.52
196.069	-2.06
196.29	9.01
196.51	16.64
196.731	3.56
196.951	-30.69
197.172	-17.09
197.392	-20.21
197.613	-7.7
197.833	1.17
198.054	3.5
198.274	9.06
198.495	2.31
198.715	-16.47
198.936	-2.88
199.156	-8.25
199.377	-20.46
199.597	-8.03
199.817	-3.95
200.038	-36.68
200.258	7.35
200.479	25.38
200.699	35.96
200.919	31.88
201.14	37.97
201.36	20.46
201.58	-8.87
201.801	-18.31
202.021	-13.59
202.241	-16.74
202.461	-14.86
202.682	2.74
202.902	-6.17
203.122	-2.23
203.342	-7.58
203.563	-8.58
203.783	-46.05
204.003	-50.67
204.223	-26.35
204.443	-20.91
204.663	-39.79
204.884	34.07
205.104	33.19
205.324	16.82
205.544	-48.42
205.764	4.97
205.984	0.15
206.204	0.43
206.424	-16.64
206.644	10.27
206.864	-24.79
207.084	-28.04
207.304	-41.66
207.525	-35.46
207.745	-3.15
207.964	-1.51
208.184	18.55
208.404	18.12
208.624	26.38
208.844	6.14
209.064	-6.42
209.284	-27.73
209.504	-39.06
209.724	-28.62
209.944	-39.24
210.164	-26.31
210.384	-35.48
210.604	-73.97
210.823	-110.98
211.043	-61.96
211.263	-145.88
211.483	-82.56
211.703	-15.96
211.922	-14.47
212.142	-26.96
212.362	11.91
212.582	8.93
212.801	-7.29
213.021	-10.62
213.241	-25.69
213.461	-24.39
213.68	-9.22
213.9	-17.16
214.12	-10.15
214.339	-0.86
214.559	-6.89
214.779	-16.19
214.998	-11.6
215.218	-3.5
215.438	11.4
215.657	4.22
215.877	-1.53
216.096	19.93
216.316	21.66
216.535	1.88
216.755	13.03
216.974	16.36
217.194	-5.09
217.413	-15.27
217.633	-28.78
217.852	-19.81
218.072	-9.73
218.291	-23.77
218.511	-27.19
218.73	-6.28
218.95	-30.11
219.169	-37.73
219.389	4.89
219.608	12.98
219.827	6.19
220.047	8.79
220.266	-9.95
220.485	-34.47
220.705	-22.64
220.924	-7.8
221.143	10.14
221.363	24.63
221.582	19.99
221.801	28.17
222.021	9.92
222.24	2.35
222.459	3.25
222.678	4.42
222.897	-17.82
223.117	3.44
223.336	31.52
223.555	33.7
223.774	42.98
223.993	46.31
224.213	49.02
224.432	15.7
224.651	21.77
224.87	25.56
225.089	35.63
225.308	17.97
225.527	12.22
225.746	2.49
225.965	-9.08
226.184	-22.45
226.404	-16.24
226.623	5.01
226.842	-0.96
227.061	5.38
227.28	5.61
227.499	8.76
227.718	-11.95
227.936	-5.12
228.155	-6.91
228.374	4.83
228.593	-0.56
228.812	14.57
229.031	14.33
229.25	10.95
229.469	-6.51
229.688	-1.47
229.907	1.11
230.125	-6.41
230.344	-1.32
230.563	6.05
230.782	17.9
231.001	20.4
231.22	28.67
231.438	39.1
231.657	43.85
231.876	34.46
232.095	34.4
232.313	24.6
232.532	12.96
232.751	-10.85
232.969	-9.83
233.188	-27.4
233.407	-4.26
233.625	-6.03
233.844	-4.44
234.063	-5.28
234.281	21.19
234.5	20.39
234.719	22.57
234.937	24.96
235.156	12.71
235.374	-1.74
235.593	-12
235.811	4.15
236.03	11.26
236.249	28.9
236.467	29.07
236.686	26.21
236.904	22.35
237.123	19.16
237.341	18.69
237.559	6.43
237.778	10.44
237.996	-28.69
238.215	-70.11
238.433	-147.31
238.652	-64.48
238.87	-68.67
239.088	-48.46
239.307	-3.52
239.525	-4.29
239.743	-9.21
239.962	-17.96
240.18	-10.87
240.398	-22.97
240.617	-20.7
240.835	-44.65
241.053	-22.3
241.271	-4.41
241.49	2.53
241.708	0.6
241.926	19.32
242.144	54.35
242.363	26.73
242.581	27.83
242.799	24.28
243.017	-3.77
243.235	-18.76
243.453	-26.72
243.672	-11.45
243.89	-5.8
244.108	8.04
244.326	20.79
244.544	29.3
244.762	17.79
244.98	6.61
245.198	7.84
245.416	-8.21
245.634	-12.01
245.852	-11.14
246.07	24.38
246.288	14.07
246.506	2.82
246.724	9.74
246.942	19.72
247.16	10.18
247.378	21.02
247.596	41.07
247.814	30.8
248.032	5.94
248.25	16.77
248.468	10.29
248.685	14.39
248.903	12.21
249.121	17.35
249.339	10.51
249.557	10.1
249.775	8.18
249.992	9.22
250.21	8.92
250.428	16.01
250.646	15.83
250.863	7.13
251.081	12.2
251.299	13.6
251.517	13.3
251.734	18.95
251.952	29.57
252.17	25.36
252.387	13.43
252.605	-10.96
252.823	-33.96
253.04	-34.19
253.258	-4.9
253.475	2.13
253.693	11.98
253.911	6.31
254.128	-3.11
254.346	-8.61
254.563	9.52
254.781	15.82
254.998	4.35
255.216	-17.03
255.433	-45.53
255.651	-50.72
255.868	-54.63
256.086	-21.42
256.303	5.08
256.521	16.9
256.738	15.74
256.956	16.68
257.173	-4.04
257.39	-10.43
257.608	-25.53
257.825	-32.95
258.043	-29.97
258.26	-10.34
258.477	-15.66
258.695	-3.61
258.912	-15.48
259.129	-16.99
259.346	-48.95
259.564	-52.81
259.781	-66.2
259.998	-18.55
260.216	-3.97
260.433	7.07
260.65	16.34
260.867	20.9
261.084	4.84
261.302	8.49
261.519	12.91
261.736	-9.12
261.953	6.25
262.17	22.63
262.387	9.34
262.604	-4.74
262.822	19.08
263.039	20.2
263.256	9.95
263.473	10.56
263.69	13.84
263.907	4.5
264.124	-4.41
264.341	9.15
264.558	6.05
264.775	7.63
264.992	11.35
265.209	-1.61
265.426	-17.47
265.643	3.62
265.86	-5.43
266.077	-35.58
266.294	-14.62
266.51	12.06
266.727	-4.56
266.944	15.16
267.161	23.52
267.378	34.3
267.595	6.78
267.812	-3.23
268.028	-19.04
268.245	-5.61
268.462	-28.96
268.679	-16.32
268.896	17.03
269.112	16.82
269.329	-19.11
269.546	5.07
269.763	3.93
269.979	-27.14
270.196	-19.33
270.413	-7.85
270.629	-28.94
270.846	-29.52
271.063	-12.76
271.279	-1.57
271.496	0.94
271.712	5.99
271.929	6.93
272.146	2.9
272.362	-14.66
272.579	-14.95
272.795	-17.68
273.012	-8.66
273.228	8.23
273.445	13.65
273.661	20.91
273.878	14.19
274.094	9.73
274.311	6.22
274.527	-10.08
274.744	-0.33
274.96	18.03
275.177	21.56
275.393	11.72
275.609	26.48
275.826	27.29
276.042	11.11
276.259	11.03
276.475	14.14
276.691	-12.57
276.908	-25.83
277.124	-21.15
277.34	-42.31
277.557	-54.55
277.773	-45.68
277.989	-32.83
278.205	-22.42
278.422	-20.37
278.638	-17.43
278.854	-36.61
279.07	-29.48
279.286	-42.94
279.503	-35.22
279.719	-30.39
279.935	-10.67
280.151	-27.52
280.367	-11.09
280.583	-17.18
280.799	-16.58
281.016	-64.13
281.232	-38.81
281.448	-55.7
281.664	-26.27
281.88	-6.6
282.096	15.67
282.312	6.65
282.528	10.61
282.744	17.32
282.96	-12.82
283.176	-15.53
283.392	-13.45
283.608	23.78
283.824	-17.31
284.04	-16.57
284.256	-9.38
284.471	3.31
284.687	-2.18
284.903	4.18
285.119	18.58
285.335	24.98
285.551	10.01
285.767	-1.38
285.982	-13.38
286.198	-25.75
286.414	-45.04
286.63	-4.83
286.846	10.7
287.061	29.27
287.277	26.77
287.493	18.16
287.709	10.45
287.924	10.7
288.14	13.18
288.356	22.24
288.571	29.9
288.787	14.81
289.003	11.84
289.218	-12.05
289.434	-25.27
289.65	-6.15
289.865	0.96
290.081	8.58
290.296	26.63
290.512	24.37
290.727	9.39
290.943	15.27
291.159	10.53
291.374	-7.96
291.59	0.39
291.805	-10.1
292.021	-14.31
292.236	-22.3
292.451	-7.39
292.667	-7.99
292.882	13
293.098	5.39
293.313	6.76
293.529	-7.71
293.744	-5.5
293.959	-8.42
294.175	-5.25
294.39	0.5
294.605	27.09
294.821	12.68
295.036	4.97
295.251	17.43
295.467	7.21
295.682	0.91
295.897	2.85
296.112	-6.54
296.328	-12.14
296.543	-29.08
296.758	-32.48
296.973	-23.49
297.188	-14.77
297.404	-36.01
297.619	-33.89
297.834	-80.97
298.049	-83.34
298.264	-72.05
298.479	-69.43
298.694	-18.74
298.909	4.3
299.125	5.06
299.34	-4.84
299.555	6.14
299.77	18.87
299.985	16.84
300.2	29.71
300.415	36.36
300.63	35.17
300.845	26.4
301.06	8.87
301.275	-4.57
301.49	0.89
301.704	-2.86
301.919	-15.28
302.134	-6.41
302.349	-6.21
302.564	-4.57
302.779	-22.04
302.994	7.82
303.209	10.92
303.423	19.79
303.638	20.34
303.853	23.49
304.068	-17.14
304.283	-0.92
304.497	-24.04
304.712	-7.3
304.927	1.05
305.142	19.17
305.356	10.22
305.571	22.75
305.786	12.06
306	23.88
306.215	6.56
306.43	7.57
306.644	-10.94
306.859	-19.19
307.074	-21.86
307.288	-0.81
307.503	3.66
307.717	4.36
307.932	14.96
308.147	14.32
308.361	11.44
308.576	-8.54
308.79	-8.17
309.005	-19.56
309.219	-9.55
309.434	-6.16
309.648	-1.41
309.863	-1.23
310.077	-11.21
310.292	-13.48
310.506	-40.24
310.72	-36.37
310.935	-18.35
311.149	-9.67
311.364	-17.04
311.578	12.58
311.792	14.08
312.007	-7.59
312.221	-17.54
312.435	-2.78
312.649	-0.75
312.864	13.78
313.078	19.07
313.292	9.72
313.507	17.04
313.721	-0.79
313.935	-20.85
314.149	-16.82
314.363	-1.02
314.578	-15.26
314.792	-17.64
315.006	-35.32
315.22	-17.55
315.434	-7.92
315.648	-32.8
315.862	-32.27
316.077	-21.9
316.291	-21.37
316.505	-49.32
316.719	-0.93
316.933	11.47
317.147	13.29
317.361	19.06
317.575	25.21
317.789	4.85
318.003	-11.92
318.217	-9.53
318.431	-15.34
318.645	-16.21
318.859	13.34
319.073	24.91
319.287	25.42
319.5	16.24
319.714	23.03
319.928	6.29
320.142	-1.64
320.356	-4.56
320.57	-7.46
320.784	-0.74
320.997	-9.16
321.211	15.81
321.425	12.21
321.639	18.62
321.853	13.15
322.066	26.04
322.28	6.41
322.494	12.97
322.707	14.21
322.921	1.01
323.135	9.54
323.349	19.54
323.562	16.9
323.776	17.88
323.989	36.18
324.203	17.14
324.417	8
324.63	1.89
324.844	-19.39
325.057	-72.18
325.271	-57.79
325.485	-49.1
325.698	-16.76
325.912	10.09
326.125	18.3
326.339	14.41
326.552	10.53
326.766	-3.17
326.979	-21.07
327.193	-22.66
327.406	-30.32
327.619	-22.47
327.833	-32.63
328.046	-14.16
328.26	-12.15
328.473	2.53
328.686	-2.44
328.9	8.25
329.113	-8.51
329.326	-4.31
329.54	-11.42
329.753	2.11
329.966	0.67
330.179	5.52
330.393	-4.22
330.606	-12.18
330.819	-31.55
331.032	-30.95
331.246	-18.54
331.459	2.7
331.672	8.35
331.885	5.6
332.098	7.77
332.311	-6.11
332.525	-9.42
332.738	-4.14
332.951	-6.72
333.164	1.45
333.377	13.74
333.59	15.47
333.803	25.18
334.016	34.71
334.229	22.67
334.442	10.83
334.655	8.07
334.868	-3.04
335.081	-8.09
335.294	-3.98
335.507	0.27
335.72	4.03
335.933	-0.87
336.146	-4
336.359	-7.1
336.572	-2.17
336.785	-19.38
336.997	-16.84
337.21	-2.27
337.423	-13.32
337.636	-25.87
337.849	-13.68
338.062	-13.09
338.274	-12.97
338.487	-19.85
338.7	-25.83
338.913	-21.57
339.125	-32.58
339.338	-20.45
339.551	-15.15
339.763	-5.27
339.976	-12.06
340.189	-12.93
340.402	-4.91
340.614	7.62
340.827	10.1
341.039	14.21
341.252	22.15
341.465	4.73
341.677	7.52
341.89	0.75
342.102	17.43
342.315	11.51
342.527	-0.22
342.74	-27.53
342.952	-30.89
343.165	-35.11
343.377	-32.33
343.59	-14.53
343.802	6.79
344.015	13.75
344.227	12.81
344.44	9.5
344.652	-1.92
344.864	0.21
345.077	10.3
345.289	11.93
345.502	30.1
345.714	41.44
345.926	42.14
346.139	4.3
346.351	-4.03
346.563	-15.93
346.775	-18.69
346.988	-10.11
347.2	4.42
347.412	15.48
347.624	22.06
347.837	24.87
348.049	15.43
348.261	10.13
348.473	-6.21
348.685	-20.39
348.897	-50.61
349.11	-29.68
349.322	-23.33
349.534	-24.54
349.746	-24.71
349.958	-18.41
350.17	-41.25
350.382	-45.37
350.594	-18.91
350.806	6.69
351.018	17.47
351.23	32.56
351.442	33.36
351.654	23.55
351.866	17.35
352.078	26.48
352.29	19.69
352.502	35.86
352.714	35.02
352.926	20.78
353.138	6.57
353.35	-12.89
353.561	-16.33
353.773	-4.63
353.985	4.48
354.197	1.53
354.409	12.28
354.621	-4.69
354.832	-4.46
355.044	-27.68
355.256	-18.97
355.468	-27.04
355.679	2.98
355.891	-1.32
356.103	3.39
356.314	-0.05
356.526	-17.84
356.738	-23.73
356.949	-28.77
357.161	-1.33
357.373	2.2
357.584	21.13
357.796	17.76
358.008	20.7
358.219	17.1
358.431	10.7
358.642	3.17
358.854	17.29
359.065	12.41
359.277	-0.49
359.488	-4.06
359.7	-0.3
359.911	-21.36
360.123	-7.48
360.334	1.71
360.546	2.19
360.757	8.55
360.969	16.93
361.18	11.73
361.391	-0.21
361.603	-0.98
361.814	-3.68
362.025	6.86
362.237	10.44
362.448	22.86
362.659	22.2
362.871	7.53
363.082	-7.45
363.293	-20.11
363.504	-44.2
363.716	-58.03
363.927	-18.75
364.138	-39.28
364.349	-27.83
364.56	-37.87
364.772	-9.52
364.983	-10.16
365.194	9.57
365.405	7.52
365.616	19.02
365.827	-3.86
366.038	-8.93
366.25	-1.53
366.461	0.2
366.672	-2.69
366.883	10.44
367.094	6.91
367.305	-17.64
367.516	-21.85
367.727	-22.44
367.938	-27.34
368.149	-26.15
368.36	-24.58
368.571	-32.11
368.781	-44.41
368.992	-32.37
369.203	-24.53
369.414	-14.8
369.625	-2.76
369.836	19.48
370.047	25.43
370.258	36.71
370.468	31.02
370.679	22.36
370.89	11.5
371.101	-1.6
371.312	-14.85
371.522	-23.43
371.733	-14.12
371.944	-33.78
372.155	-27.75
372.365	-30.86
372.576	-27.63
372.787	-27.26
372.997	-9.2
373.208	-10.09
373.419	-1.22
373.629	0.77
373.84	-5.72
374.05	-21.52
374.261	-46.03
374.472	-50.29
374.682	-38.39
374.893	-47.85
375.103	-23.13
375.314	0.75
375.524	3.2
375.735	4.42
375.945	17.62
376.156	9.61
376.366	15.29
376.577	12.78
376.787	10.94
376.997	13.98
377.208	20.44
377.418	16.25
377.629	16.03
377.839	18.49
378.049	16.26
378.26	-2.94
378.47	-13.88
378.68	-8.39
378.89	-13.86
379.101	-19.42
379.311	-3.67
379.521	-10.32
379.732	-15.19
379.942	-6.12
380.152	-11.62
380.362	-13.69
380.572	7.69
380.783	20.68
380.993	17.76
381.203	19.52
381.413	29.09
381.623	27.59
381.833	18.68
382.043	8.86
382.253	9.19
382.463	11.09
382.674	5.3
382.884	6.39
383.094	5.65
383.304	9.95
383.514	5.81
383.724	1.87
383.934	-2.42
384.144	2.88
384.353	1.79
384.563	-2.61
384.773	-0.33
384.983	0.56
385.193	1.96
385.403	1.37
385.613	3.94
385.823	6.75
386.033	8.93
386.242	6.03
386.452	1.78
386.662	-0.17
386.872	-2.51
387.082	-7.97
387.291	-9.81
387.501	-4.02
387.711	-3.56
387.921	-5.26
388.13	1.44
388.34	5.33
388.55	2.99
388.759	-3.7
388.969	-3.6
389.179	-8.58
389.388	-11.51
389.598	-14.12
389.807	-12.08
390.017	-13.24
390.227	-12.09
390.436	-9.46
390.646	-6.01
390.855	-1.13
391.065	0.16
391.274	-0.67
391.484	-1.07
391.693	-4.1
391.903	-6.54
392.112	-6.4
392.322	-3.65
392.531	-4.03
392.74	-2.41
392.95	-0.61
393.159	-0.35
393.369	-2.36
393.578	-2.25
393.787	-2.11
393.997	-2.73
394.206	-2.57
394.415	-0.73
394.625	-1.12
394.834	-1.65
395.043	-1.57
395.252	1.22
395.462	1.24
395.671	1.72
395.88	3.12
396.089	2.48
396.298	0.97
396.508	0.9
396.717	1.5
396.926	1.15
397.135	2.11
397.344	1.4
397.553	0.83
397.762	1.32
397.971	0.86
398.181	0.76
398.39	0.86
398.599	1.16
398.808	0.47
399.017	1.14
399.226	0.73
399.435	1.04
399.644	1.58
399.853	2.03
400.062	1.89
400.27	1.81
400.479	1.77
400.688	1.62
400.897	1.51
401.106	1.36
401.315	1.55
401.524	1.66
401.733	1.29
401.941	1.1
402.15	1.27
402.359	1.15
402.568	1.16
402.777	1.47
402.985	1.53
403.194	1.37
403.403	1.86
403.612	1.8
403.82	1.61
404.029	1.8
404.238	1.81
404.446	1.7
404.655	1.86
404.864	1.93
405.072	1.72
405.281	1.71
405.489	1.48
405.698	1.41
405.906	1.49
406.115	1.58
406.324	1.63
406.532	1.9
406.741	1.93
406.949	1.97
407.158	2.07
407.366	1.98
407.574	1.86
407.783	1.87
407.991	1.82
408.2	1.74
408.408	1.86
408.617	1.75
408.825	1.6
409.033	1.52
409.242	1.61
409.45	1.57
409.658	1.59
409.867	1.67
410.075	1.78
410.283	1.62
410.491	1.47
410.7	1.46
410.908	1.51
411.116	1.52
411.324	1.68
411.533	1.77
411.741	1.78
411.949	1.69
412.157	1.53
412.365	1.57
412.573	1.69
412.781	1.65
412.99	1.6
413.198	1.76
413.406	1.7
413.614	1.61
413.822	1.82
414.03	1.92
414.238	1.99
414.446	2.02
414.654	2.02
414.862	1.85
415.07	1.74
415.278	1.64
415.486	1.44
415.694	1.4
415.902	1.36
416.109	1.39
416.317	1.38
416.525	1.45
416.733	1.36
416.941	1.37
417.149	1.31
417.357	1.2
417.564	1.16
417.772	1.38
417.98	1.42
418.188	1.51
418.395	1.3
418.603	1.19
418.811	0.95
419.019	0.91
419.226	1.01
419.434	1.17
419.642	1.23
419.849	1.28
420.057	1.32
420.265	1.19
420.472	1.29
420.68	1.36
420.887	1.45
421.095	1.56
421.302	1.6
421.51	1.4
421.717	1.44
421.925	1.42
422.132	1.29
422.34	1.15
422.547	1.22
422.755	1.23
422.962	1.12
423.17	0.94
423.377	0.96
423.585	1.08
423.792	0.98
423.999	1.14
424.207	1.21
424.414	1.23
424.621	1.24
424.829	1.27
425.036	1.22
425.243	1.32
425.451	1.44
425.658	1.38
425.865	1.32
426.072	1.29
426.28	1.37
426.487	1.23
426.694	1.04
426.901	1.14
427.108	1.05
427.315	0.94
427.523	0.88
427.73	1.18
427.937	0.98
428.144	1.13
428.351	1.2
428.558	1.27
428.765	1.18
428.972	1.41
429.179	1.2
429.386	1.08
429.593	1.01
429.8	1.05
430.007	0.98
430.214	1.15
430.421	1.29
430.628	1.33
430.835	1.26
431.042	1.09
431.249	1.04
431.456	0.95
431.662	1.08
431.869	1.18
432.076	1.24
432.283	1.36
432.49	1.33
432.697	1.35
432.903	1.28
433.11	1.41
433.317	1.31
433.524	1.44
433.73	1.33
433.937	1.33
434.144	1.17
434.35	1.14
434.557	1.09
434.764	1.13
434.97	1.08
435.177	1.27
435.384	1.41
435.59	1.5
435.797	1.48
436.003	1.5
436.21	1.44
436.416	1.39
436.623	1.25
436.829	1.32
437.036	1.41
437.242	1.46
437.449	1.32
437.655	1.42
437.862	1.4
438.068	1.35
438.275	1.34
438.481	1.48
438.687	1.47
438.894	1.61
439.1	1.58
439.307	1.74
439.513	1.71
439.719	1.69
439.926	1.61
440.132	1.74
440.338	1.62
440.544	1.56
440.751	1.5
440.957	1.5
441.163	1.3
441.369	1.32
441.575	1.33
441.782	1.46
441.988	1.43
442.194	1.56
442.4	1.5
442.606	1.63
442.812	1.68
443.018	1.73
443.224	1.84
443.431	1.83
443.637	1.82
443.843	1.82
444.049	1.85
444.255	1.71
444.461	1.68
444.667	1.61
444.873	1.56
445.079	1.53
445.284	1.55
445.49	1.61
445.696	1.62
445.902	1.6
446.108	1.65
446.314	1.66
446.52	1.8
446.726	1.84
446.931	1.83
447.137	1.77
447.343	1.89
447.549	1.84
447.755	1.82
447.96	1.88
448.166	1.94
448.372	1.79
448.578	1.72
448.783	1.71
448.989	1.76
449.195	1.66
449.4	1.76
449.606	1.81
449.812	1.75
450.017	1.74
450.223	1.76
450.428	1.71
450.634	1.62
450.84	1.66
451.045	1.62
451.251	1.65
451.456	1.67
451.662	1.76
451.867	1.83
452.073	1.89
452.278	1.88
452.483	1.93
452.689	1.92
452.894	1.98
453.1	1.98
453.305	1.99
453.51	2.04
453.716	1.97
453.921	1.91
454.127	1.8
454.332	1.77
454.537	1.64
454.742	1.73
454.948	1.7
455.153	1.79
455.358	1.82
455.563	1.9
455.769	1.87
455.974	1.9
456.179	1.81
456.384	1.74
456.589	1.66
456.795	1.62
457	1.66
457.205	1.68
457.41	1.75
457.615	1.77
457.82	1.92
458.025	1.85
458.23	1.89
458.435	1.86
458.64	1.91
458.845	1.83
459.05	1.81
459.255	1.8
459.46	1.8
459.665	1.83
459.87	1.79
460.075	1.86
460.28	1.91
460.485	1.97
460.69	1.81
460.895	1.89
461.099	1.79
461.304	1.72
461.509	1.75
461.714	1.95
461.919	1.88
462.123	1.96
462.328	1.92
462.533	1.79
462.738	1.7
462.942	1.67
463.147	1.66
463.352	1.81
463.556	1.96
463.761	1.99
463.966	1.98
464.17	2.07
464.375	2.08
464.58	2.02
464.784	2
464.989	2.12
465.193	2.02
