Data from Ofra_1a_PS_4HS13_Reflection_2.txt Node
Date: Tue Jul 20 10:56:32 EDT 2021
User: Adam
Spectrometer: FLMT01687
Trigger mode: 0
Integration Time (sec): 1.004000E0
Scans to average: 2
Electric dark correction enabled: true
Nonlinearity correction enabled: false
Boxcar width: 2
XAxis mode: Wavelengths
Number of Pixels in Spectrum: 3648
>>>>>Begin Spectral Data<<<<<
179.494	-322.34
179.716	-372.52
179.937	792.98
180.158	-860.51
180.38	181.41
180.601	2.76
180.823	-3.68
181.044	42.18
181.265	104.77
181.486	159.61
181.708	-26.83
181.929	7154.55
182.15	10.86
182.372	228.08
182.593	78.83
182.814	-21.56
183.035	20.89
183.257	22.2
183.478	12.7
183.699	-19.87
183.92	-82.71
184.141	-89.93
184.363	-95.67
184.584	-125.18
184.805	-75.61
185.026	-21.95
185.247	-39.86
185.468	-46.9
185.689	-17.58
185.91	-43.55
186.132	-29.45
186.353	-8.27
186.574	-20.48
186.795	-37.32
187.016	-11.09
187.237	-5.53
187.458	-16.13
187.679	-2.08
187.9	3.59
188.121	-16.18
188.342	-15.55
188.563	2.24
188.784	25.3
189.005	24.6
189.226	24.51
189.447	21.76
189.667	5.4
189.888	-29.5
190.109	-63.51
190.33	-49.07
190.551	-58.88
190.772	-58.17
190.993	-63.94
191.214	-82.39
191.434	-126.77
191.655	-121.96
191.876	-62.62
192.097	-4.57
192.318	22.13
192.538	-6.74
192.759	-18.5
192.98	-14.86
193.201	-23.76
193.421	-28.93
193.642	-8.5
193.863	-2.15
194.083	-0.38
194.304	-0.43
194.525	19.09
194.745	10.77
194.966	2.8
195.187	-7.04
195.407	-19.37
195.628	-26.76
195.848	-35.11
196.069	-63.94
196.29	-50.63
196.51	-55.96
196.731	-53.68
196.951	-54.42
197.172	-36.59
197.392	-74.88
197.613	-20.79
197.833	-22.29
198.054	-11.89
198.274	-4.05
198.495	23.18
198.715	14.71
198.936	20.52
199.156	15.18
199.377	14.51
199.597	12.8
199.817	4.4
200.038	-43.87
200.258	-17.19
200.479	-15.83
200.699	-29.33
200.919	-45.98
201.14	-14.1
201.36	-37.04
201.58	-64.05
201.801	-62.55
202.021	-54.34
202.241	-62.47
202.461	-62
202.682	-39.26
202.902	-27.37
203.122	-12.73
203.342	-7.83
203.563	-16.11
203.783	-22.77
204.003	-35.79
204.223	-25.21
204.443	-36.97
204.663	-42.9
204.884	-21.45
205.104	-12.61
205.324	-14.93
205.544	-17.84
205.764	4.39
205.984	-4.78
206.204	-6.39
206.424	-49.17
206.644	-50.99
206.864	-102.99
207.084	-58.61
207.304	-62.34
207.525	-30.62
207.745	-11.55
207.964	12.94
208.184	10.51
208.404	-5.74
208.624	1.17
208.844	-6.76
209.064	-16.58
209.284	-17.53
209.504	-38.63
209.724	-35
209.944	-46.36
210.164	-43.96
210.384	-61.58
210.604	-72.08
210.823	-90.12
211.043	-70.57
211.263	-163.54
211.483	-103.4
211.703	-74.3
211.922	-86.84
212.142	-57.68
212.362	-27.59
212.582	-25.73
212.801	-17.18
213.021	-38.96
213.241	-56.8
213.461	-17.89
213.68	-7.54
213.9	1.42
214.12	8.32
214.339	5.51
214.559	5.65
214.779	9.75
214.998	-13.39
215.218	-8.44
215.438	15.07
215.657	-16.72
215.877	-32.62
216.096	-9.17
216.316	-8.42
216.535	-29.78
216.755	-14.11
216.974	-6.83
217.194	-13.68
217.413	-9.67
217.633	-20.56
217.852	-9.23
218.072	-10.06
218.291	-15.54
218.511	-23.19
218.73	-19.14
218.95	-69.01
219.169	-70.31
219.389	-43.14
219.608	-44.38
219.827	-33.38
220.047	-10.67
220.266	-39.77
220.485	-61.82
220.705	-36.8
220.924	-55.24
221.143	-2.16
221.363	13
221.582	15.16
221.801	6.08
222.021	10.64
222.24	-5.24
222.459	24.46
222.678	20.66
222.897	-1.67
223.117	-3.44
223.336	-22.06
223.555	-57.17
223.774	-97.4
223.993	-54.28
224.213	-46.18
224.432	-31.03
224.651	-20.12
224.87	-11.36
225.089	-7.98
225.308	-5.34
225.527	-2.46
225.746	-11.95
225.965	-12.59
226.184	-24.38
226.404	-37.13
226.623	-21.38
226.842	-21.37
227.061	-27.39
227.28	-11.43
227.499	-3.25
227.718	-10.04
227.936	-2.05
228.155	6.76
228.374	-10.52
228.593	-12.19
228.812	-14.92
229.031	-11.68
229.25	-30.24
229.469	-34.66
229.688	-30.06
229.907	-18.89
230.125	-15.62
230.344	5.68
230.563	11.18
230.782	9.19
231.001	9.58
231.22	-18.24
231.438	-31.83
231.657	-18.73
231.876	-12.69
232.095	-19.6
232.313	-24.78
232.532	-19.39
232.751	-22.61
232.969	-27.79
233.188	-44.87
233.407	-23.71
233.625	-35.47
233.844	-28.16
234.063	-19.09
234.281	7.86
234.5	1.91
234.719	14.79
234.937	8.57
235.156	11.59
235.374	-6.96
235.593	16.26
235.811	27.9
236.03	15.9
236.249	19.89
236.467	15.88
236.686	4.37
236.904	4.04
237.123	1.67
237.341	-12.76
237.559	-1.53
237.778	23.97
237.996	0.41
238.215	-40.15
238.433	-80.9
238.652	-40.42
238.87	-80.43
239.088	-102.55
239.307	-41.93
239.525	-26.11
239.743	-35.77
239.962	-49.59
240.18	-12.39
240.398	-23.98
240.617	-31.98
240.835	-38.38
241.053	-22.96
241.271	-28.51
241.49	-3.75
241.708	-16.2
241.926	-25.85
242.144	-7.85
242.363	-24.54
242.581	-99.77
242.799	-79.62
243.017	-43.41
243.235	-56.34
243.453	-68.29
243.672	-45.33
243.89	-39.36
244.108	-22.8
244.326	2.14
244.544	9.17
244.762	3.98
244.98	7.79
245.198	10.44
245.416	0.38
245.634	0.22
245.852	-15.57
246.07	-6.34
246.288	-10.46
246.506	-17.86
246.724	-20.66
246.942	-5.26
247.16	-2.49
247.378	-30.56
247.596	-21.18
247.814	-32.23
248.032	-34.31
248.25	-17.03
248.468	15.74
248.685	12.4
248.903	14.21
249.121	13.04
249.339	1.73
249.557	-4.76
249.775	-2.36
249.992	-4.88
250.21	-9.24
250.428	12.71
250.646	5.73
250.863	-3.92
251.081	-6.07
251.299	7.53
251.517	-23.24
251.734	-23.83
251.952	-5.55
252.17	-5.72
252.387	-22.58
252.605	-4.88
252.823	-24.11
253.04	-10.58
253.258	8.69
253.475	12.15
253.693	-0.73
253.911	12.48
254.128	-10.28
254.346	-23.41
254.563	-7.41
254.781	-15.26
254.998	-32.17
255.216	-67.59
255.433	-63.32
255.651	-67.8
255.868	-47.52
256.086	-24.3
256.303	5.72
256.521	9.14
256.738	0.44
256.956	-3.71
257.173	-22.51
257.39	-21.62
257.608	-32.43
257.825	-26.25
258.043	-11.85
258.26	-6.66
258.477	-4.12
258.695	-1.65
258.912	-16.68
259.129	-32.06
259.346	-42.85
259.564	-50.3
259.781	-40.68
259.998	-17.05
260.216	-12.69
260.433	-8.41
260.65	-8.37
260.867	-15.7
261.084	-13.95
261.302	-19.39
261.519	18.03
261.736	15.89
261.953	20
262.17	24.44
262.387	20.76
262.604	12.78
262.822	19.82
263.039	24.18
263.256	15.95
263.473	13.71
263.69	8.87
263.907	1.24
264.124	6.22
264.341	17.7
264.558	14.28
264.775	7.24
264.992	5.17
265.209	-16.55
265.426	-35.14
265.643	-41.33
265.86	-42.8
266.077	-64.06
266.294	-45.53
266.51	-15.5
266.727	-7.12
266.944	5.04
267.161	8.86
267.378	16.16
267.595	-4.07
267.812	-10.45
268.028	-35.53
268.245	-36.22
268.462	-32.53
268.679	-15.36
268.896	7.48
269.112	1.8
269.329	7.37
269.546	12.04
269.763	6.27
269.979	-10.39
270.196	6.49
270.413	7.23
270.629	-19.02
270.846	-29.55
271.063	-17.83
271.279	-26.41
271.496	-32.02
271.712	-8.93
271.929	1.37
272.146	-14.43
272.362	-12.64
272.579	-7.37
272.795	-2.43
273.012	8.44
273.228	21.99
273.445	17.72
273.661	6.08
273.878	-22.76
274.094	-32.63
274.311	-25.5
274.527	-43.28
274.744	-3.36
274.96	9.37
275.177	5.73
275.393	15.48
275.609	24.54
275.826	6.38
276.042	4.56
276.259	15.28
276.475	-4.78
276.691	-9.86
276.908	-5.35
277.124	-0.48
277.34	-9.15
277.557	-14.95
277.773	-24.89
277.989	-38.14
278.205	-25.3
278.422	-34.53
278.638	-36.73
278.854	-27.62
279.07	-10.3
279.286	-13.86
279.503	0.78
279.719	6.71
279.935	-5.81
280.151	-18.88
280.367	-19.74
280.583	-35.43
280.799	-37.96
281.016	-64.76
281.232	-45.6
281.448	-51.24
281.664	-25.3
281.88	-17.35
282.096	0.83
282.312	-1.19
282.528	-2.42
282.744	-8.31
282.96	-20.38
283.176	-40.5
283.392	-89.25
283.608	-82.77
283.824	-117.67
284.04	-154.75
284.256	-84.81
284.471	-41.82
284.687	-29.15
284.903	-14.63
285.119	-2.99
285.335	-4.69
285.551	-8.83
285.767	-22.82
285.982	-21.58
286.198	-52.26
286.414	-11.66
286.63	-29.01
286.846	-35.44
287.061	-43.96
287.277	-20.75
287.493	-46.8
287.709	-48.13
287.924	-17.13
288.14	7.85
288.356	26.49
288.571	21.22
288.787	25.19
289.003	19.93
289.218	-4.78
289.434	-22.78
289.65	13.5
289.865	5.28
290.081	-2.69
290.296	7.39
290.512	-0.33
290.727	-18.43
290.943	-12.06
291.159	-13.93
291.374	-42.34
291.59	-37.92
291.805	-52.06
292.021	-52.41
292.236	-48.62
292.451	-23.39
292.667	-5.91
292.882	7.31
293.098	6.3
293.313	4.99
293.529	-1.97
293.744	-27.77
293.959	-31.14
294.175	-15.12
294.39	-29.45
294.605	-5.8
294.821	3.87
295.036	-5.25
295.251	-7.29
295.467	8
295.682	-0.49
295.897	1.37
296.112	1.85
296.328	1.6
296.543	-20.91
296.758	-31.59
296.973	-24.84
297.188	-20.03
297.404	-56.28
297.619	-58.05
297.834	-80.37
298.049	-62.11
298.264	-70.77
298.479	-45.39
298.694	0.51
298.909	8.8
299.125	-7.99
299.34	9.63
299.555	7.79
299.77	12.34
299.985	20.2
300.2	28.16
300.415	11.26
300.63	8.88
300.845	-20.99
301.06	-14.14
301.275	-17.93
301.49	-3.92
301.704	-6.85
301.919	4.19
302.134	-10.49
302.349	-7.46
302.564	-14.08
302.779	-31.71
302.994	-23.92
303.209	-19.69
303.423	-27.77
303.638	-31.21
303.853	-29.18
304.068	-41.94
304.283	-38.91
304.497	-45.27
304.712	-26.77
304.927	-15.36
305.142	-3.82
305.356	4.78
305.571	12.54
305.786	10.82
306	18.77
306.215	2.62
306.43	-30.16
306.644	-36.01
306.859	-63.13
307.074	-38.38
307.288	-22.31
307.503	0.84
307.717	-16.09
307.932	-7.58
308.147	-20.24
308.361	-21.4
308.576	-43.18
308.79	-17.27
309.005	-9.95
309.219	4.81
309.434	-2.58
309.648	2.91
309.863	5.25
310.077	-0.84
310.292	3.13
310.506	3.26
310.72	17.63
310.935	26.75
311.149	21.66
311.364	15.95
311.578	15.45
311.792	10.74
312.007	-14.39
312.221	-27.07
312.435	-21.11
312.649	-13.77
312.864	-16.2
313.078	-18.5
313.292	-14.74
313.507	-3.33
313.721	7.19
313.935	10.65
314.149	5.03
314.363	16.81
314.578	-9.15
314.792	-54.07
315.006	-54.5
315.22	-11.37
315.434	-14.24
315.648	-18.99
315.862	-5.52
316.077	-16.68
316.291	-24.92
316.505	-45.2
316.719	-34.29
316.933	-32.69
317.147	-13.13
317.361	-29.8
317.575	-14.56
317.789	-4.54
318.003	-10.39
318.217	-0.27
318.431	-12.13
318.645	-14.26
318.859	-3.4
319.073	4.35
319.287	-5.9
319.5	1.36
319.714	1.46
319.928	-13.36
320.142	-11.2
320.356	-10.53
320.57	-21.78
320.784	-28.93
320.997	-42.94
321.211	-41.46
321.425	-60.52
321.639	-24.97
321.853	-9.4
322.066	-17.06
322.28	-14.21
322.494	-9.27
322.707	-4.37
322.921	-0.86
323.135	19.77
323.349	9.72
323.562	18.2
323.776	-1.19
323.989	3.95
324.203	-4.37
324.417	-2.44
324.63	-17.58
324.844	-27.25
325.057	-66.22
325.271	-60.03
325.485	-71.89
325.698	-34.17
325.912	-10.87
326.125	-8.89
326.339	-1.68
326.552	-10.53
326.766	-34.23
326.979	-22.76
327.193	-4.66
327.406	-20.33
327.619	2.05
327.833	9.32
328.046	-0.52
328.26	-11.05
328.473	0.19
328.686	-5.44
328.9	-10.67
329.113	-24.37
329.326	-28.61
329.54	-27.71
329.753	-13.02
329.966	-6.22
330.179	-5.65
330.393	-7.03
330.606	-14.29
330.819	-32.47
331.032	-32.2
331.246	-17.79
331.459	-5.16
331.672	1.42
331.885	6.08
332.098	8.11
332.311	-6.31
332.525	-1.53
332.738	5.66
332.951	1.79
333.164	4.43
333.377	12.01
333.59	7.6
333.803	-6.88
334.016	9.38
334.229	-3.05
334.442	0.23
334.655	-5.81
334.868	-6.45
335.081	-13.82
335.294	-20.62
335.507	-26.07
335.72	-14.05
335.933	-14.29
336.146	-12.4
336.359	13.2
336.572	14.73
336.785	6.14
336.997	10.33
337.21	20.39
337.423	-4.81
337.636	-16.57
337.849	-8.92
338.062	2.18
338.274	3.01
338.487	-10.51
338.7	8.01
338.913	13.26
339.125	-11.39
339.338	-24.36
339.551	-11.08
339.763	-30.21
339.976	-44.35
340.189	-18.88
340.402	-10.32
340.614	-5.7
340.827	6.17
341.039	5.5
341.252	-2.03
341.465	1.76
341.677	-6.37
341.89	-19.14
342.102	-0.25
342.315	-3.95
342.527	-11.01
342.74	-14.07
342.952	-4.38
343.165	-22.37
343.377	-4.11
343.59	9.23
343.802	20.76
344.015	13.24
344.227	20.08
344.44	-2.67
344.652	-7.65
344.864	-7.69
345.077	8.6
345.289	5.55
345.502	22.38
345.714	12.99
345.926	9.73
346.139	-19.54
346.351	-14.04
346.563	-13.35
346.775	-12.39
346.988	-3.64
347.2	-3.11
347.412	13.53
347.624	18.74
347.837	22.26
348.049	17.41
348.261	12.01
348.473	-7.28
348.685	-23.86
348.897	-24.92
349.11	-31.78
349.322	-20.85
349.534	-21.16
349.746	-21.02
349.958	-30.51
350.17	-55.2
350.382	-39.19
350.594	-30.49
350.806	-4.59
351.018	6.17
351.23	17.86
351.442	18.7
351.654	18.73
351.866	-3.38
352.078	-10.84
352.29	-8.23
352.502	-9.58
352.714	-15.1
352.926	-2.21
353.138	15.75
353.35	3.96
353.561	1.09
353.773	0.87
353.985	-0.9
354.197	-6.59
354.409	0.7
354.621	-13.83
354.832	-11.62
355.044	-27.05
355.256	-37.35
355.468	-50.32
355.679	-5.61
355.891	-0.96
356.103	5.62
356.314	-0.21
356.526	-11.45
356.738	-36.2
356.949	-44.08
357.161	-50.09
357.373	-28.53
357.584	-9.44
357.796	-6.08
358.008	-3.81
358.219	6.33
358.431	-11.73
358.642	-5.86
358.854	-7.17
359.065	-19.32
359.277	-18.88
359.488	-20.34
359.7	-31.58
359.911	-38.1
360.123	-14.29
360.334	-15.7
360.546	-7.08
360.757	0.31
360.969	3.45
361.18	-4.36
361.391	-1.4
361.603	2.04
361.814	-0.84
362.025	8.78
362.237	12.11
362.448	13.91
362.659	14.84
362.871	7.22
363.082	-11.17
363.293	-20.86
363.504	-36.81
363.716	-51.79
363.927	-19.52
364.138	-32
364.349	-42.4
364.56	-44.87
364.772	-21.67
364.983	-18.66
365.194	2.1
365.405	1.01
365.616	17.27
365.827	2.34
366.038	3.8
366.25	-5.86
366.461	9.75
366.672	4.38
366.883	-1.46
367.094	-10.17
367.305	-7.55
367.516	-13.1
367.727	-22.79
367.938	-10.7
368.149	-24.82
368.36	-24.77
368.571	-30.66
368.781	-32.77
368.992	-30.18
369.203	-13.92
369.414	-26.11
369.625	-28.12
369.836	-5.05
370.047	-6.42
370.258	-7.77
370.468	-7.26
370.679	-1.06
370.89	-14.47
371.101	-0.5
371.312	-9.6
371.522	-2.97
371.733	-12.2
371.944	-31.34
372.155	-49.14
372.365	-47.07
372.576	-47.71
372.787	-31.85
372.997	-23.98
373.208	-10.11
373.419	-4.71
373.629	-10.4
373.84	-26.72
374.05	-27.5
374.261	-40.09
374.472	-34.33
374.682	-16.75
374.893	-19.96
375.103	-1.61
375.314	1.66
375.524	2.79
375.735	3.16
375.945	18.62
376.156	6.71
376.366	9.06
376.577	6.57
376.787	3.26
376.997	-8.2
377.208	2.66
377.418	-4
377.629	-6.97
377.839	-2.6
378.049	1.26
378.26	-11.43
378.47	-15.87
378.68	-7.96
378.89	-12.66
379.101	-4.48
379.311	1.54
379.521	4.88
379.732	2.16
379.942	-0.06
380.152	-13.93
380.362	-17.44
380.572	-7.88
380.783	0.72
380.993	-1.34
381.203	-2.52
381.413	3.96
381.623	-1.11
381.833	-3.22
382.043	-2
382.253	12.52
382.463	13.36
382.674	18.5
382.884	15.59
383.094	15.14
383.304	13.84
383.514	10.62
383.724	9.96
383.934	-0.46
384.144	0.55
384.353	-2.77
384.563	-3.49
384.773	-5.18
384.983	-1.52
385.193	-2.91
385.403	-3.29
385.613	-3.73
385.823	-3.88
386.033	-1.25
386.242	-5.41
386.452	-7.57
386.662	-5.17
386.872	-1.08
387.082	-2.62
387.291	-0.98
387.501	2.29
387.711	0.38
387.921	-3.52
388.13	-1.11
388.34	0.28
388.55	-2.17
388.759	-4.44
388.969	-6.3
389.179	-6.45
389.388	-3.98
389.598	-6.29
389.807	-6.99
390.017	-3.45
390.227	-4.23
390.436	-3.46
390.646	-1.93
390.855	-0.6
391.065	-0.69
391.274	-0.08
391.484	-2.92
391.693	-2.17
391.903	-2.87
392.112	-4.68
392.322	-5.57
392.531	-5.69
392.74	-6.79
392.95	-5.05
393.159	-3.4
393.369	-1.48
393.578	-0.09
393.787	0.23
393.997	0.48
394.206	-0.34
394.415	-0.14
394.625	-0.09
394.834	-0.51
395.043	-0.52
395.252	2.87
395.462	3.21
395.671	1.96
395.88	3.84
396.089	4.02
396.298	1.7
396.508	1.79
396.717	2.34
396.926	1.6
397.135	1.51
397.344	1.48
397.553	0.54
397.762	1.68
397.971	1.11
398.181	1.26
398.39	1.37
398.599	2
398.808	1.55
399.017	2.72
399.226	2.78
399.435	2.48
399.644	2.68
399.853	2.78
400.062	2.38
400.27	2.07
400.479	2.46
400.688	2.23
400.897	2.09
401.106	2.24
401.315	2.12
401.524	2.03
401.733	1.9
401.941	1.99
402.15	1.89
402.359	2.27
402.568	2.3
402.777	2.62
402.985	2.45
403.194	2.41
403.403	2.43
403.612	2.19
403.82	1.57
404.029	1.64
404.238	1.7
404.446	1.82
404.655	1.97
404.864	2.36
405.072	2.44
405.281	2.51
405.489	2.36
405.698	2.54
405.906	2.49
406.115	2.39
406.324	2.23
406.532	2.26
406.741	2.2
406.949	2.24
407.158	2.35
407.366	2.28
407.574	2.3
407.783	2.32
407.991	2.36
408.2	2.35
408.408	2.49
408.617	2.45
408.825	2.22
409.033	2.19
409.242	2.27
409.45	2.18
409.658	2.13
409.867	2.26
410.075	2.27
410.283	2.16
410.491	2.04
410.7	1.99
410.908	1.94
411.116	1.98
411.324	1.84
411.533	1.92
411.741	1.92
411.949	1.96
412.157	1.76
412.365	1.84
412.573	1.81
412.781	1.74
412.99	1.84
413.198	1.97
413.406	2.06
413.614	2.29
413.822	2.58
414.03	2.54
414.238	2.56
414.446	2.57
414.654	2.44
414.862	2.26
415.07	2.13
415.278	2.15
415.486	2.02
415.694	2.02
415.902	2.01
416.109	2
416.317	2
416.525	2.06
416.733	2.03
416.941	2.05
417.149	2.07
417.357	2.11
417.564	2.1
417.772	2.2
417.98	2.16
418.188	2.12
418.395	1.81
418.603	1.7
418.811	1.43
419.019	1.39
419.226	1.41
419.434	1.57
419.642	1.46
419.849	1.48
420.057	1.5
420.265	1.4
420.472	1.4
420.68	1.44
420.887	1.55
421.095	1.63
421.302	1.67
421.51	1.64
421.717	1.79
421.925	1.88
422.132	1.86
422.34	1.79
422.547	1.75
422.755	1.77
422.962	1.75
423.17	1.56
423.377	1.74
423.585	1.87
423.792	1.85
423.999	1.74
424.207	1.67
424.414	1.52
424.621	1.55
424.829	1.45
425.036	1.53
425.243	1.71
425.451	1.77
425.658	1.7
425.865	1.79
426.072	1.67
426.28	1.77
426.487	1.72
426.694	1.73
426.901	1.83
427.108	1.82
427.315	1.78
427.523	1.8
427.73	1.78
427.937	1.38
428.144	1.43
428.351	1.36
428.558	1.49
428.765	1.42
428.972	1.62
429.179	1.39
429.386	1.42
429.593	1.3
429.8	1.32
430.007	1.35
430.214	1.43
430.421	1.45
430.628	1.38
430.835	1.31
431.042	1.3
431.249	1.36
431.456	1.43
431.662	1.57
431.869	1.72
432.076	1.67
432.283	1.78
432.49	1.79
432.697	1.74
432.903	1.68
433.11	1.89
433.317	1.88
433.524	1.86
433.73	1.83
433.937	2
434.144	1.74
434.35	1.7
434.557	1.66
434.764	1.71
434.97	1.47
435.177	1.67
435.384	1.72
435.59	1.71
435.797	1.71
436.003	1.75
436.21	1.62
436.416	1.59
436.623	1.62
436.829	1.56
437.036	1.57
437.242	1.64
437.449	1.62
437.655	1.61
437.862	1.64
438.068	1.64
438.275	1.77
438.481	1.76
438.687	1.74
438.894	1.83
439.1	1.82
439.307	1.84
439.513	1.9
439.719	2.02
439.926	2.02
440.132	2.07
440.338	1.97
440.544	1.88
440.751	1.69
440.957	1.7
441.163	1.59
441.369	1.58
441.575	1.58
441.782	1.67
441.988	1.72
442.194	1.73
442.4	1.7
442.606	1.8
442.812	1.79
443.018	1.73
443.224	1.88
443.431	1.93
443.637	1.84
443.843	1.79
444.049	1.86
444.255	1.79
444.461	1.72
444.667	1.76
444.873	1.8
445.079	1.75
445.284	1.76
445.49	1.81
445.696	1.69
445.902	1.67
446.108	1.57
446.314	1.57
446.52	1.66
446.726	1.77
446.931	1.76
447.137	1.86
447.343	1.96
447.549	1.91
447.755	1.94
447.96	2.05
448.166	1.99
448.372	1.8
448.578	1.69
448.783	1.72
448.989	1.77
449.195	1.79
449.4	1.92
449.606	2.07
449.812	1.91
450.017	1.86
450.223	1.87
450.428	1.83
450.634	1.81
450.84	1.86
451.045	1.81
451.251	1.83
451.456	1.89
451.662	1.89
451.867	2.02
452.073	1.99
452.278	1.95
452.483	1.95
452.689	1.95
452.894	1.96
453.1	1.98
453.305	1.98
453.51	1.99
453.716	1.97
453.921	1.9
454.127	1.87
454.332	1.85
454.537	1.82
454.742	1.78
454.948	1.81
455.153	1.8
455.358	1.83
455.563	1.84
455.769	1.83
455.974	1.76
456.179	1.77
456.384	1.76
456.589	1.71
456.795	1.66
457	1.71
457.205	1.68
457.41	1.66
457.615	1.61
457.82	1.81
458.025	1.78
458.23	1.86
458.435	1.93
458.64	1.99
458.845	1.87
459.05	1.91
459.255	1.86
459.46	1.79
459.665	1.83
459.87	1.8
460.075	1.83
460.28	1.81
460.485	1.93
460.69	1.88
460.895	1.93
461.099	1.79
461.304	1.73
461.509	1.61
461.714	1.67
461.919	1.62
462.123	1.67
462.328	1.73
462.533	1.6
