Data from Ofra_PS_T2_1A_6GT17_Reflection_3.txt Node
Date: Wed Jul 21 18:13:46 EDT 2021
User: Adam
Spectrometer: FLMT01687
Trigger mode: 0
Integration Time (sec): 1.100000E0
Scans to average: 2
Electric dark correction enabled: true
Nonlinearity correction enabled: false
Boxcar width: 2
XAxis mode: Wavelengths
Number of Pixels in Spectrum: 3648
>>>>>Begin Spectral Data<<<<<
179.494	366.4
179.716	443.06
179.937	398.79
180.158	379
180.38	520
180.601	114.92
180.823	50.9
181.044	45.97
181.265	276.47
181.486	94.37
181.708	109.01
181.929	497.96
182.15	188.73
182.372	179.05
182.593	42.51
182.814	39.59
183.035	100
183.257	25.11
183.478	-20
183.699	41.87
183.92	-12.77
184.141	-9.06
184.363	9.45
184.584	70.08
184.805	60.57
185.026	80.8
185.247	74.92
185.468	46.07
185.689	36.33
185.91	15.81
186.132	5.7
186.353	-1.76
186.574	58.46
186.795	38.97
187.016	17.12
187.237	34.39
187.458	18.18
187.679	-11.83
187.9	-6.5
188.121	-2.87
188.342	-23.24
188.563	19.32
188.784	21.8
189.005	30.02
189.226	83.45
189.447	53.99
189.667	-176.7
189.888	-347.78
190.109	-1368.83
190.33	-726.45
190.551	-953.98
190.772	-157.14
190.993	-111.22
191.214	-85.37
191.434	-46.34
191.655	2.45
191.876	-0.18
192.097	-53.67
192.318	-77.05
192.538	-164.81
192.759	-152.33
192.98	-71.74
193.201	-10.59
193.421	4.43
193.642	26.07
193.863	17.29
194.083	-14.11
194.304	-32.32
194.525	-25.49
194.745	-46.59
194.966	-14.23
195.187	3.47
195.407	19.11
195.628	-10.78
195.848	-61.77
196.069	-63.21
196.29	-36.33
196.51	-67.85
196.731	-43.09
196.951	-41.78
197.172	-89.24
197.392	-122.17
197.613	-119.14
197.833	-165.16
198.054	-129.31
198.274	-42.7
198.495	-42.07
198.715	-23.21
198.936	-54.14
199.156	-54.54
199.377	-156.01
199.597	-160.29
199.817	-152.01
200.038	-63.12
200.258	-114.97
200.479	-47.59
200.699	1.41
200.919	57.86
201.14	12.7
201.36	5.06
201.58	23.46
201.801	35.94
202.021	-2.15
202.241	6.75
202.461	6.11
202.682	-72.54
202.902	-143.75
203.122	-84.83
203.342	-76.75
203.563	-26.88
203.783	-4.38
204.003	-37.9
204.223	-38.17
204.443	22.86
204.663	-3.7
204.884	10.72
205.104	70.96
205.324	106.95
205.544	95.25
205.764	100.22
205.984	89.87
206.204	75.73
206.424	55.35
206.644	39.79
206.864	36.09
207.084	29.67
207.304	62.94
207.525	59.69
207.745	25.14
207.964	38.81
208.184	-1.98
208.404	-70.72
208.624	-90.07
208.844	-110.1
209.064	-447.47
209.284	-481.35
209.504	-242.78
209.724	-77.14
209.944	-19.76
210.164	17.78
210.384	32.01
210.604	17.4
210.823	-11.06
211.043	-33.78
211.263	-4.84
211.483	-6.81
211.703	-56.8
211.922	-16.32
212.142	30.64
212.362	27.64
212.582	20.95
212.801	59.1
213.021	21.1
213.241	-7.03
213.461	-39.42
213.68	-60.55
213.9	-62.44
214.12	-49.49
214.339	-78.5
214.559	-81.89
214.779	-20.09
214.998	-10.17
215.218	-36.04
215.438	-7.61
215.657	19.32
215.877	18.64
216.096	17.12
216.316	32.13
216.535	18.91
216.755	14.03
216.974	-74.6
217.194	-74.32
217.413	-78.61
217.633	-40.43
217.852	-94.63
218.072	-15.59
218.291	6.52
218.511	38.47
218.73	6.52
218.95	1.06
219.169	-6.12
219.389	-64.88
219.608	-51.94
219.827	-46.28
220.047	-40.06
220.266	-29.02
220.485	3.49
220.705	10.66
220.924	-18.06
221.143	20.58
221.363	2.78
221.582	9.64
221.801	10.58
222.021	41.3
222.24	-21.09
222.459	22.03
222.678	6.5
222.897	-49.53
223.117	-114.14
223.336	-66.14
223.555	-38.88
223.774	-10.45
223.993	-19.6
224.213	76.44
224.432	68.76
224.651	80.44
224.87	52.84
225.089	73.7
225.308	50.06
225.527	46.78
225.746	42.22
225.965	40.23
226.184	22.73
226.404	38.71
226.623	22.9
226.842	17.86
227.061	32.75
227.28	29.66
227.499	7.23
227.718	31.38
227.936	20.13
228.155	29.93
228.374	16.31
228.593	16.7
228.812	6.69
229.031	11.42
229.25	-36.9
229.469	-31.92
229.688	-11.22
229.907	-8.07
230.125	16.3
230.344	34.79
230.563	31.54
230.782	35.86
231.001	-30.14
231.22	-40.9
231.438	-24.54
231.657	-4.58
231.876	-19.73
232.095	32.06
232.313	41.36
232.532	25.14
232.751	1.45
232.969	-13.21
233.188	-35.73
233.407	13.49
233.625	11.02
233.844	13.91
234.063	36.85
234.281	40.26
234.5	18.7
234.719	25.09
234.937	35.54
235.156	27.31
235.374	26.89
235.593	33.97
235.811	35.13
236.03	21.74
236.249	5.38
236.467	-0.1
236.686	4.65
236.904	15.51
237.123	-10.21
237.341	-1.37
237.559	5.83
237.778	1.37
237.996	-5.55
238.215	40.99
238.433	32.43
238.652	17.69
238.87	-3.38
239.088	-4.41
239.307	-11.06
239.525	-23.42
239.743	-32.42
239.962	-7.84
240.18	-27.6
240.398	-62.48
240.617	-51.42
240.835	-19.65
241.053	-17.25
241.271	13.47
241.49	32.12
241.708	8.29
241.926	-5.13
242.144	3.52
242.363	-43.12
242.581	-84.7
242.799	-17.94
243.017	-2.87
243.235	-38.55
243.453	-9.58
243.672	-5.86
243.89	-19.42
244.108	-31.8
244.326	-4.73
244.544	-4.03
244.762	5.4
244.98	12.54
245.198	31.28
245.416	9.37
245.634	-7.78
245.852	-13.52
246.07	-4.57
246.288	-27.65
246.506	-47.65
246.724	-23.38
246.942	-27.81
247.16	-6.7
247.378	10.38
247.596	39.75
247.814	43.35
248.032	24.78
248.25	33.06
248.468	3.38
248.685	2.23
248.903	27.65
249.121	27.59
249.339	-15.32
249.557	-6.84
249.775	4.93
249.992	-73.13
250.21	-56.27
250.428	-28.47
250.646	-44.04
250.863	-73.27
251.081	-24.32
251.299	-20.21
251.517	-2.06
251.734	4.05
251.952	15.5
252.17	-4.89
252.387	2.92
252.605	-6.89
252.823	5.05
253.04	25.86
253.258	53.95
253.475	51.74
253.693	38.83
253.911	27.67
254.128	1.41
254.346	-12.76
254.563	-13.46
254.781	-15.71
254.998	-31.89
255.216	-6.11
255.433	-19.29
255.651	6.06
255.868	57.27
256.086	82.94
256.303	53.76
256.521	52.15
256.738	43.23
256.956	12.59
257.173	-13
257.39	-19.91
257.608	-38.62
257.825	13.34
258.043	40.96
258.26	44.29
258.477	89.09
258.695	90.25
258.912	28.98
259.129	22.53
259.346	-12.38
259.564	-69.41
259.781	-105.1
259.998	-34.76
260.216	-24.64
260.433	31.29
260.65	39.35
260.867	69.1
261.084	28.19
261.302	8.88
261.519	-20.21
261.736	-51.6
261.953	-68.34
262.17	-10.04
262.387	-36.65
262.604	-88.53
262.822	-99.35
263.039	-93.21
263.256	-149.32
263.473	-83.13
263.69	-26.89
263.907	29.75
264.124	37.97
264.341	36.44
264.558	20.51
264.775	26.47
264.992	-11.05
265.209	2.65
265.426	18.36
265.643	14.33
265.86	23.93
266.077	43.59
266.294	26.98
266.51	-8.43
266.727	-18.21
266.944	-11.28
267.161	-12.47
267.378	-1.24
267.595	37.83
267.812	14.04
268.028	-1.32
268.245	17.5
268.462	-22.67
268.679	-47.11
268.896	25.86
269.112	26.69
269.329	6.6
269.546	14.66
269.763	14.91
269.979	-21.17
270.196	-18.64
270.413	-34.54
270.629	-26.25
270.846	-34.93
271.063	-34.11
271.279	-56.87
271.496	-55.45
271.712	-41.52
271.929	-42.52
272.146	-47.2
272.362	-38
272.579	-5.07
272.795	1.51
273.012	29.39
273.228	43.4
273.445	20.17
273.661	0.78
273.878	-33
274.094	-48.83
274.311	-77.73
274.527	-7.58
274.744	-2.35
274.96	-0.27
275.177	5.89
275.393	24.62
275.609	10.75
275.826	29.8
276.042	25.47
276.259	14.45
276.475	28.08
276.691	44.24
276.908	18.24
277.124	39.09
277.34	29.23
277.557	21.09
277.773	10.06
277.989	7.54
278.205	5.21
278.422	27.43
278.638	27.87
278.854	46.03
279.07	60.01
279.286	50.84
279.503	39.65
279.719	19.03
279.935	-19.6
280.151	-38.74
280.367	-17.24
280.583	-36.54
280.799	-23.27
281.016	-36.71
281.232	-3.69
281.448	-10.36
281.664	20.23
281.88	4.79
282.096	18.55
282.312	53.92
282.528	60.07
282.744	47.38
282.96	52.36
283.176	38.66
283.392	14.13
283.608	4.02
283.824	-4.06
284.04	-7.14
284.256	-6.47
284.471	-11.17
284.687	-5.08
284.903	14.34
285.119	31.47
285.335	16.82
285.551	33.89
285.767	14.37
285.982	5.4
286.198	-29.3
286.414	23.79
286.63	6.94
286.846	37.71
287.061	17.58
287.277	40.75
287.493	4.28
287.709	17.86
287.924	-14.09
288.14	21.72
288.356	7.53
288.571	32
288.787	15.06
289.003	21.87
289.218	4.54
289.434	-21.92
289.65	-26.12
289.865	-17.8
290.081	2.9
290.296	8.3
290.512	21.85
290.727	-3.58
290.943	-10.94
291.159	-18.75
291.374	-21.28
291.59	-34.33
291.805	-24.66
292.021	-13.62
292.236	-4.36
292.451	11.62
292.667	27.73
292.882	38.5
293.098	31.85
293.313	1.78
293.529	-30.64
293.744	-37.2
293.959	-30.08
294.175	-11.1
294.39	18
294.605	29.27
294.821	48.47
295.036	46.96
295.251	46.31
295.467	10.31
295.682	4.58
295.897	-53.6
296.112	-47.02
296.328	-48.13
296.543	-46.07
296.758	-42.03
296.973	3.26
297.188	27.09
297.404	-2.56
297.619	-1.24
297.834	-11.98
298.049	-24.09
298.264	-56.35
298.479	1.3
298.694	5.21
298.909	20.41
299.125	23.91
299.34	39.44
299.555	16.59
299.77	39.42
299.985	8.15
300.2	-45.95
300.415	-63.24
300.63	-29.76
300.845	-40.08
301.06	-39.58
301.275	3.17
301.49	18.27
301.704	-1.51
301.919	-24.6
302.134	-36.24
302.349	-42.64
302.564	-105.6
302.779	-128.85
302.994	-73.04
303.209	2.83
303.423	27.5
303.638	55.64
303.853	23.46
304.068	12.91
304.283	-4.19
304.497	-3.4
304.712	-6.84
304.927	-3.25
305.142	-14.22
305.356	-0.36
305.571	-9.28
305.786	-15.35
306	-7.82
306.215	2.59
306.43	-21.88
306.644	-17.28
306.859	27.23
307.074	36
307.288	11.83
307.503	14.47
307.717	1.46
307.932	-9.46
308.147	-29.15
308.361	-5.84
308.576	-11.12
308.79	-50.73
309.005	-50.65
309.219	-27.12
309.434	-39.49
309.648	-23.97
309.863	15.52
310.077	27.95
310.292	25.9
310.506	26.56
310.72	22.4
310.935	29.5
311.149	11.02
311.364	24.3
311.578	42.37
311.792	30.56
312.007	22.56
312.221	18.37
312.435	6.19
312.649	-12.82
312.864	12.57
313.078	30.42
313.292	86.53
313.507	101.61
313.721	145.18
313.935	72.74
314.149	50.73
314.363	38.06
314.578	19.39
314.792	21.21
315.006	2.4
315.22	20.24
315.434	6.06
315.648	14.78
315.862	6.48
316.077	7.31
316.291	-15.79
316.505	-10.5
316.719	-26.44
316.933	-45.01
317.147	-32.73
317.361	-71.35
317.575	-80.64
317.789	-85.61
318.003	-110.96
318.217	-78.01
318.431	4.2
318.645	27.86
318.859	17.27
319.073	32.12
319.287	10.1
319.5	-24.1
319.714	-53.83
319.928	-70.52
320.142	-83.24
320.356	-20.64
320.57	33.71
320.784	26.94
320.997	12.49
321.211	-16.23
321.425	-66.91
321.639	-120.93
321.853	-48.54
322.066	-13
322.28	0.77
322.494	20.93
322.707	58.1
322.921	37.66
323.135	17.41
323.349	25.12
323.562	-3.72
323.776	-32.12
323.989	-34.73
324.203	-45.24
324.417	-59.95
324.63	-67.97
324.844	-63.91
325.057	-67.69
325.271	-38.07
325.485	-12.52
325.698	11.87
325.912	31.02
326.125	6.8
326.339	0.86
326.552	-25.08
326.766	-41.11
326.979	-38
327.193	24.13
327.406	13.1
327.619	10.15
327.833	21.73
328.046	3.19
328.26	-43.07
328.473	-25.11
328.686	-38.89
328.9	-39.89
329.113	-21.08
329.326	-27.9
329.54	-6.03
329.753	-12.99
329.966	-29.69
330.179	-19.4
330.393	-4.55
330.606	-9.92
330.819	7.3
331.032	24.91
331.246	21.84
331.459	43.1
331.672	40.72
331.885	35.67
332.098	14.39
332.311	-18.14
332.525	-76.11
332.738	-73.97
332.951	-54.14
333.164	-20.77
333.377	6.3
333.59	24.13
333.803	28.81
334.016	32.01
334.229	29.97
334.442	45.98
334.655	76.27
334.868	87.88
335.081	56.44
335.294	43.89
335.507	29.84
335.72	23.21
335.933	-2.62
336.146	14.01
336.359	27.95
336.572	-6.98
336.785	-39.85
336.997	-30.32
337.21	-10.27
337.423	-23.07
337.636	-13.07
337.849	7.8
338.062	3.52
338.274	-0.06
338.487	-1.56
338.7	25.7
338.913	-4.55
339.125	-15.82
339.338	-39.26
339.551	-16.21
339.763	-18.3
339.976	8.46
340.189	23.1
340.402	27.28
340.614	0.63
340.827	-2.61
341.039	-12.69
341.252	-12.43
341.465	1.05
341.677	24.09
341.89	4.97
342.102	12.97
342.315	-15.02
342.527	-50.83
342.74	-44.59
342.952	-7.58
343.165	-3.44
343.377	31.28
343.59	34.67
343.802	38.11
344.015	29.05
344.227	20.19
344.44	12.36
344.652	16.52
344.864	5.46
345.077	24.63
345.289	22.39
345.502	22.21
345.714	15.06
345.926	20.15
346.139	10.2
346.351	21.82
346.563	24.41
346.775	34.2
346.988	21.13
347.2	12.28
347.412	-22.84
347.624	-47.14
347.837	-72.65
348.049	-47.86
348.261	-8.89
348.473	1.61
348.685	22.49
348.897	18.1
349.11	6.11
349.322	-23.37
349.534	-3.06
349.746	-18.03
349.958	-4.52
350.17	0.84
350.382	13.96
350.594	9.13
350.806	15.06
351.018	17.56
351.23	0.13
351.442	-40.89
351.654	-52.29
351.866	-35.47
352.078	-15.81
352.29	3.63
352.502	17.76
352.714	29.42
352.926	14.93
353.138	13.88
353.35	3.25
353.561	11.85
353.773	-11.17
353.985	5.51
354.197	-13.38
354.409	-8.3
354.621	-20.81
354.832	-4.97
355.044	-11.41
355.256	4.92
355.468	17.51
355.679	12.23
355.891	16.02
356.103	11.13
356.314	10.54
356.526	2.84
356.738	21.43
356.949	22.33
357.161	24.82
357.373	9.45
357.584	-1.15
357.796	7.42
358.008	1.82
358.219	19.83
358.431	17.08
358.642	27.46
358.854	22.64
359.065	15.15
359.277	-21.88
359.488	-25.03
359.7	-37.49
359.911	-54.9
360.123	-37.4
360.334	-44.2
360.546	-47.87
360.757	-54.42
360.969	-48.72
361.18	-44.69
361.391	-41.9
361.603	-62.57
361.814	-41.37
362.025	-39.36
362.237	-36.7
362.448	-10.15
362.659	22.95
362.871	21.77
363.082	32.73
363.293	30.76
363.504	17.5
363.716	-9.96
363.927	-24.54
364.138	-53.63
364.349	-66.46
364.56	-67.07
364.772	-41.45
364.983	-17.74
365.194	-12.13
365.405	-1.16
365.616	11.67
365.827	-1.28
366.038	-21.19
366.25	-14.86
366.461	-45.81
366.672	-13.55
366.883	8.34
367.094	10.71
367.305	-7.06
367.516	7.26
367.727	-25.23
367.938	-41.05
368.149	-38.21
368.36	-6.5
368.571	-0.17
368.781	-4.88
368.992	-14.26
369.203	-25.75
369.414	-42.11
369.625	-53.32
369.836	-44.74
370.047	-59.35
370.258	-43.95
370.468	-53.05
370.679	-61.03
370.89	-50.14
371.101	-28.98
371.312	-33.58
371.522	-26.19
371.733	-22.25
371.944	-3.53
372.155	3.69
372.365	-5.22
372.576	-10.82
372.787	-8.01
372.997	-41.49
373.208	-39.34
373.419	-6.95
373.629	-21.88
373.84	-22.98
374.05	-33.97
374.261	-40.28
374.472	-64.74
374.682	-23.17
374.893	-23.97
375.103	15.47
375.314	23.57
375.524	24.81
375.735	25
375.945	28
376.156	4.96
376.366	-11.15
376.577	-3.46
376.787	-8.52
376.997	-5.96
377.208	-7.32
377.418	2.73
377.629	4.34
377.839	9.51
378.049	10.97
378.26	24.34
378.47	22.07
378.68	8.25
378.89	-3.01
379.101	-7.52
379.311	-33.59
379.521	-55.66
379.732	-52.13
379.942	-53.1
380.152	-69.5
380.362	-36.22
380.572	-26.6
380.783	-15.12
380.993	0.74
381.203	8.79
381.413	14.98
381.623	29.07
381.833	21.8
382.043	12.5
382.253	7.58
382.463	11.42
382.674	-6.06
382.884	-20.6
383.094	-19.59
383.304	-12.72
383.514	-20.66
383.724	-11.6
383.934	-9.21
384.144	-14.95
384.353	-27.15
384.563	-33.43
384.773	-20.72
384.983	-24.54
385.193	-6
385.403	3.2
385.613	11.51
385.823	-8.43
386.033	0.63
386.242	-3.76
386.452	-5.28
386.662	-14.06
386.872	3.46
387.082	1.76
387.291	-9.17
387.501	-11.06
387.711	0.93
387.921	-8.69
388.13	-6.88
388.34	5.87
388.55	3.81
388.759	0.29
388.969	5.45
389.179	1.86
389.388	-2.5
389.598	-1.64
389.807	-5.46
390.017	-7.6
390.227	-7.49
390.436	-10.48
390.646	-8.71
390.855	-6.77
391.065	-6.71
391.274	-8.31
391.484	-10.46
391.693	-7.51
391.903	-4.9
392.112	-0.33
392.322	4.14
392.531	8.42
392.74	8.91
392.95	4.93
393.159	3.12
393.369	1.26
393.578	1.8
393.787	-0.45
393.997	0.78
394.206	0.09
394.415	0.35
394.625	-1.43
394.834	-2.28
395.043	-0.94
395.252	0.87
395.462	2.67
395.671	4.34
395.88	5.29
396.089	5.45
396.298	3.73
396.508	3.24
396.717	1.73
396.926	2.26
397.135	1.87
397.344	1.82
397.553	2.11
397.762	4.16
397.971	4.11
398.181	4.28
398.39	4.41
398.599	4.8
398.808	4.51
399.017	5.2
399.226	6.59
399.435	7.36
399.644	7.45
399.853	6.69
400.062	6.32
400.27	5.18
400.479	4.57
400.688	3.85
400.897	4.32
401.106	4.06
401.315	4.22
401.524	4.49
401.733	4.91
401.941	5.26
402.15	5.63
402.359	5.53
402.568	5.82
402.777	6.09
402.985	5.65
403.194	5.33
403.403	5.24
403.612	4.69
403.82	4.23
404.029	4.58
404.238	4.7
404.446	5.13
404.655	5.2
404.864	5.23
405.072	4.75
405.281	4.88
405.489	4.48
405.698	4.54
405.906	4.57
406.115	4.68
406.324	4.6
406.532	4.8
406.741	4.96
406.949	5.06
407.158	5.16
407.366	5.2
407.574	5.09
407.783	5.12
407.991	4.74
408.2	4.9
408.408	4.78
408.617	4.85
408.825	4.62
409.033	4.88
409.242	4.77
409.45	4.9
409.658	4.84
409.867	4.95
410.075	4.84
410.283	4.62
410.491	4.47
410.7	4.37
410.908	4.36
411.116	4.63
411.324	4.67
411.533	4.61
411.741	4.83
411.949	4.79
412.157	4.49
412.365	4.62
412.573	4.65
412.781	4.61
412.99	4.53
413.198	4.7
413.406	4.7
413.614	4.69
413.822	4.47
414.03	4.44
414.238	4.19
414.446	4.28
414.654	4.16
414.862	4.36
415.07	4.45
415.278	4.69
415.486	4.48
415.694	4.58
415.902	4.52
416.109	4.42
416.317	4.4
416.525	4.13
416.733	4.09
416.941	4.22
417.149	4.18
417.357	4.28
417.564	4.63
417.772	4.75
417.98	4.54
418.188	4.63
418.395	4.54
418.603	4.72
418.811	4.41
419.019	4.4
419.226	4.44
419.434	4.51
419.642	4.12
419.849	4.37
420.057	4.38
420.265	4.46
420.472	4.2
420.68	4.29
420.887	4.12
421.095	4.17
421.302	3.98
421.51	4.17
421.717	4.26
421.925	4.38
422.132	4.17
422.34	3.9
422.547	3.84
422.755	3.63
422.962	3.56
423.17	3.6
423.377	3.85
423.585	3.86
423.792	3.81
423.999	3.8
424.207	3.84
424.414	3.99
424.621	4
424.829	4.03
425.036	4.03
425.243	4.22
425.451	4.08
425.658	3.88
425.865	4.17
426.072	4.27
426.28	4.34
426.487	4.26
426.694	4.36
426.901	4.1
427.108	3.93
427.315	3.74
427.523	3.93
427.73	3.97
427.937	3.98
428.144	3.89
428.351	3.84
428.558	3.93
428.765	3.9
428.972	3.9
429.179	4.18
429.386	4.53
429.593	4.33
429.8	4.16
430.007	4.35
430.214	4.29
430.421	3.9
430.628	3.83
430.835	3.87
431.042	4
431.249	4.11
431.456	4.15
431.662	4.32
431.869	4.49
432.076	4.43
432.283	4.45
432.49	4.45
432.697	4.44
432.903	4.15
433.11	3.98
433.317	4.08
433.524	4.28
433.73	4.19
433.937	4.64
434.144	4.68
434.35	4.45
434.557	4.36
434.764	4.42
434.97	4.16
435.177	4.26
435.384	4.3
435.59	4.33
435.797	4.64
436.003	4.74
436.21	4.76
436.416	4.92
436.623	4.93
436.829	4.88
437.036	4.86
437.242	4.95
437.449	4.8
437.655	4.84
437.862	4.65
438.068	4.78
438.275	4.81
438.481	5.08
438.687	5
438.894	5.14
439.1	5.05
439.307	5.06
439.513	4.92
439.719	5
439.926	5.07
440.132	5.14
440.338	5.05
440.544	5.18
440.751	5.16
440.957	5.21
441.163	5.08
441.369	5.15
441.575	4.93
441.782	4.99
441.988	4.81
442.194	4.87
442.4	4.9
442.606	5.18
442.812	5.25
443.018	5.41
443.224	5.44
443.431	5.43
443.637	5.22
443.843	5.06
444.049	5.03
444.255	4.99
444.461	5.08
444.667	5.12
444.873	5.31
445.079	5.34
445.284	5.43
445.49	5.22
445.696	5.14
445.902	4.96
446.108	4.88
446.314	4.85
446.52	4.9
446.726	5.11
446.931	5.16
447.137	5.26
447.343	5.23
447.549	5.25
447.755	5.16
447.96	5.24
448.166	5.14
448.372	5.16
448.578	5.17
448.783	5.16
448.989	5.23
449.195	5.4
449.4	5.44
449.606	5.44
449.812	5.41
450.017	5.37
450.223	5.21
450.428	5.09
450.634	5.18
450.84	5.27
451.045	5.18
451.251	5.16
451.456	5.52
451.662	5.52
451.867	5.58
452.073	5.67
452.278	5.74
452.483	5.67
452.689	5.63
452.894	5.6
453.1	5.63
453.305	5.61
453.51	5.51
453.716	5.52
453.921	5.55
454.127	5.44
454.332	5.44
454.537	5.47
454.742	5.44
454.948	5.41
455.153	5.56
455.358	5.64
455.563	5.73
455.769	5.8
455.974	5.73
456.179	5.58
456.384	5.48
456.589	5.33
456.795	5.17
457	5.21
457.205	5.41
457.41	5.46
457.615	5.47
457.82	5.58
458.025	5.62
458.23	5.49
458.435	5.59
458.64	5.54
458.845	5.71
459.05	5.73
459.255	5.78
459.46	5.71
459.665	5.73
459.87	5.62
460.075	5.55
460.28	5.6
460.485	5.61
460.69	5.7
460.895	5.6
461.099	5.59
461.304	5.63
461.509	5.64
461.714	5.48
461.919	5.61
462.123	5.49
462.328	5.47
462.533	5.43
462.738	5.57
462.942	5.48
463.147	5.68
463.352	5.78
463.556	5.8
463.761	5.79
463.966	5.88
