Data from Ofra_2a_PS_6GT17_Reflection_3.txt Node
Date: Tue Jul 20 09:54:23 EDT 2021
User: Adam
Spectrometer: FLMT01687
Trigger mode: 0
Integration Time (sec): 9.450000E-1
Scans to average: 3
Electric dark correction enabled: true
Nonlinearity correction enabled: false
Boxcar width: 3
XAxis mode: Wavelengths
Number of Pixels in Spectrum: 3648
>>>>>Begin Spectral Data<<<<<
179.494	985.21
179.716	609.24
179.937	645.6
180.158	2326.17
180.38	-1246.22
180.601	-214.41
180.823	-85.68
181.044	37.95
181.265	61.36
181.486	100.76
181.708	-525
181.929	69.42
182.15	-151.7
182.372	67.42
182.593	69.09
182.814	110.93
183.035	-13.95
183.257	50.2
183.478	28.46
183.699	32.56
183.92	51.86
184.141	44.83
184.363	44.95
184.584	44.77
184.805	35.93
185.026	30.68
185.247	17.03
185.468	2.1
185.689	10.38
185.91	6.82
186.132	15.31
186.353	11.6
186.574	19.51
186.795	10.33
187.016	18.05
187.237	13.96
187.458	-7.04
187.679	-32.29
187.9	-9.89
188.121	-4.28
188.342	42.17
188.563	41.73
188.784	52.07
189.005	64.54
189.226	61.98
189.447	48.09
189.667	29.47
189.888	23.78
190.109	19.25
190.33	1.65
190.551	-2.89
190.772	0.32
190.993	14.08
191.214	22.45
191.434	3.51
191.655	7.36
191.876	23.98
192.097	19.31
192.318	21.25
192.538	24.83
192.759	21.81
192.98	21.8
193.201	32.93
193.421	29.1
193.642	41.38
193.863	46.17
194.083	27.39
194.304	34.77
194.525	51.97
194.745	33.27
194.966	25.37
195.187	19.25
195.407	10.39
195.628	18.98
195.848	19.82
196.069	12.23
196.29	-1.31
196.51	-11.58
196.731	-6.41
196.951	-1.83
197.172	3.67
197.392	5.79
197.613	-8.84
197.833	13.98
198.054	23.73
198.274	14.94
198.495	27.59
198.715	8.58
198.936	1.39
199.156	9.9
199.377	-11.14
199.597	-25.23
199.817	-26.52
200.038	-20.36
200.258	-16.14
200.479	-9.16
200.699	-2.02
200.919	-23.99
201.14	-21.05
201.36	-5.29
201.58	-8.51
201.801	-8.86
202.021	-8.15
202.241	-11.29
202.461	13.13
202.682	30.01
202.902	21.13
203.122	22.45
203.342	29.5
203.563	31.98
203.783	27.66
204.003	33.56
204.223	33.48
204.443	29.05
204.663	30.39
204.884	34.79
205.104	36.56
205.324	67.08
205.544	63.1
205.764	48.69
205.984	51.57
206.204	46.01
206.424	37.48
206.644	35.21
206.864	20.34
207.084	30.69
207.304	26.37
207.525	20.25
207.745	9.56
207.964	-8.93
208.184	-1.68
208.404	-13.98
208.624	-47.81
208.844	-53.67
209.064	-30.19
209.284	-13.59
209.504	-9.51
209.724	-38.47
209.944	-43.06
210.164	-25.68
210.384	-1.76
210.604	-11.97
210.823	-20.63
211.043	-10.91
211.263	17.31
211.483	22.65
211.703	30.3
211.922	29.23
212.142	31.23
212.362	32.56
212.582	24.07
212.801	9.63
213.021	11.95
213.241	-4.56
213.461	-15.63
213.68	-11.97
213.9	-1.96
214.12	-14.58
214.339	-11.75
214.559	-13.84
214.779	-8.26
214.998	-11.63
215.218	-24.04
215.438	-13.2
215.657	3.18
215.877	11.25
216.096	14.75
216.316	17.52
216.535	25.79
216.755	22.02
216.974	8.96
217.194	11.06
217.413	26.37
217.633	17.08
217.852	12.02
218.072	-1.73
218.291	23.07
218.511	19.75
218.73	17.23
218.95	1.2
219.169	6.51
219.389	10.79
219.608	17.31
219.827	3.35
220.047	10.31
220.266	6.84
220.485	4.33
220.705	0.9
220.924	-9.84
221.143	-11.93
221.363	-16.97
221.582	-15.5
221.801	-23.56
222.021	-17.92
222.24	-23.52
222.459	-7.85
222.678	-6.69
222.897	-1.41
223.117	8.22
223.336	26.35
223.555	22.84
223.774	41.34
223.993	47.57
224.213	37.09
224.432	50.98
224.651	35.87
224.87	21.33
225.089	27.51
225.308	29.51
225.527	17.46
225.746	15.07
225.965	9.04
226.184	11.23
226.404	-0.31
226.623	6.25
226.842	-11.83
227.061	-6.89
227.28	1.59
227.499	4.6
227.718	1.43
227.936	4.76
228.155	-5.36
228.374	3.74
228.593	-0.91
228.812	-7.31
229.031	-19.05
229.25	-3.06
229.469	2.49
229.688	15.27
229.907	2.48
230.125	6.05
230.344	14.77
230.563	38.27
230.782	23.84
231.001	29.43
231.22	18.86
231.438	24.11
231.657	26.54
231.876	26.92
232.095	8.07
232.313	19.86
232.532	18.23
232.751	27.32
232.969	28.53
233.188	24.53
233.407	25.75
233.625	29.73
233.844	31.66
234.063	41.81
234.281	33.94
234.5	32.36
234.719	32.87
234.937	34.93
235.156	30.73
235.374	23.83
235.593	11.6
235.811	2.14
236.03	-10.61
236.249	1.82
236.467	-2.82
236.686	2.94
236.904	-1.87
237.123	2.5
237.341	13.51
237.559	22.58
237.778	31.93
237.996	34.54
238.215	34.57
238.433	39.98
238.652	39.36
238.87	39.09
239.088	31.57
239.307	21.84
239.525	12.4
239.743	-4.5
239.962	-2.78
240.18	2.89
240.398	-7.41
240.617	2.18
240.835	3.52
241.053	14.61
241.271	28.5
241.49	15.14
241.708	5.81
241.926	4.49
242.144	8.39
242.363	-7.7
242.581	-6.18
242.799	-11.09
243.017	2.09
243.235	4.86
243.453	14.2
243.672	1.39
243.89	11.09
244.108	15.07
244.326	13.51
244.544	11.08
244.762	7.96
244.98	4.88
245.198	14.96
245.416	13.2
245.634	23.39
245.852	28.65
246.07	25.08
246.288	26.41
246.506	30.3
246.724	30.21
246.942	39.5
247.16	21.27
247.378	3.08
247.596	4.18
247.814	-11.02
248.032	-11.01
248.25	-19.07
248.468	-19.11
248.685	-9.25
248.903	-0.13
249.121	7.23
249.339	19.96
249.557	18.25
249.775	4.11
249.992	-0.67
250.21	-14.37
250.428	-7.45
250.646	-0.38
250.863	3.84
251.081	3.01
251.299	25.32
251.517	46.13
251.734	54.76
251.952	66.59
252.17	39.41
252.387	39.36
252.605	44.77
252.823	40.51
253.04	22.14
253.258	24.54
253.475	5.45
253.693	26.27
253.911	22.62
254.128	17.57
254.346	11.55
254.563	14.25
254.781	11.47
254.998	13.52
255.216	11.94
255.433	18.2
255.651	25.13
255.868	31.58
256.086	30.57
256.303	35.66
256.521	19.35
256.738	9.82
256.956	-1.36
257.173	-5.1
257.39	1.8
257.608	1.25
257.825	-5.88
258.043	10.9
258.26	16.48
258.477	16.54
258.695	20.93
258.912	20.04
259.129	17.49
259.346	19.67
259.564	8.8
259.781	10.51
259.998	10.34
260.216	16.08
260.433	5.11
260.65	16.59
260.867	9.51
261.084	24.85
261.302	17.39
261.519	7.97
261.736	2.66
261.953	14.47
262.17	12.21
262.387	25.27
262.604	7.03
262.822	14.19
263.039	19.05
263.256	6.65
263.473	-6
263.69	-16.13
263.907	-22.51
264.124	-11.16
264.341	-16.81
264.558	-5.13
264.775	3.62
264.992	21.33
265.209	28.19
265.426	33.19
265.643	34.47
265.86	33.49
266.077	32.55
266.294	25.74
266.51	17.27
266.727	3.59
266.944	-12.48
267.161	-16.74
267.378	-23.95
267.595	-40.07
267.812	-39.73
268.028	-26.15
268.245	-15
268.462	-6.58
268.679	-8.37
268.896	-12.76
269.112	1.87
269.329	10.07
269.546	-0.5
269.763	1
269.979	2.94
270.196	10.38
270.413	9.44
270.629	6.43
270.846	10.4
271.063	8.64
271.279	4.46
271.496	-9.14
271.712	-18.68
271.929	-5.29
272.146	-2.24
272.362	-20.18
272.579	-17.5
272.795	-7.18
273.012	1.01
273.228	3.68
273.445	3.17
273.661	-0.5
273.878	10.85
274.094	11.47
274.311	6.99
274.527	11.91
274.744	8.63
274.96	2.85
275.177	13.85
275.393	11.11
275.609	25.75
275.826	36.8
276.042	42.87
276.259	44.22
276.475	42.63
276.691	41.31
276.908	32.72
277.124	25.01
277.34	12.54
277.557	4.57
277.773	1.27
277.989	1.88
278.205	-22.77
278.422	-15.7
278.638	-15.74
278.854	-15.59
279.07	-23.21
279.286	-20.8
279.503	-21.31
279.719	11.03
279.935	4.25
280.151	9.27
280.367	12.76
280.583	16.99
280.799	25.99
281.016	29.03
281.232	15.66
281.448	14.29
281.664	14.27
281.88	20.9
282.096	29.32
282.312	16.88
282.528	8.08
282.744	12.57
282.96	12.54
283.176	13.36
283.392	11.43
283.608	5.98
283.824	3.78
284.04	9.39
284.256	16.9
284.471	21.1
284.687	20.53
284.903	16.31
285.119	0.83
285.335	6.01
285.551	13.44
285.767	0.9
285.982	-3.97
286.198	-9.57
286.414	6.67
286.63	11.76
286.846	4.36
287.061	9.12
287.277	7.99
287.493	10.75
287.709	12.11
287.924	8.02
288.14	24.14
288.356	33.91
288.571	23.08
288.787	27.65
289.003	30.3
289.218	28.18
289.434	20.86
289.65	13.37
289.865	20.1
290.081	15.91
290.296	17.41
290.512	25.55
290.727	41.45
290.943	36.56
291.159	30.3
291.374	29.81
291.59	25.01
291.805	21.75
292.021	-9.89
292.236	-20.55
292.451	-12.5
292.667	-0.98
292.882	-12.11
293.098	-8.06
293.313	-14.35
293.529	-0.79
293.744	-1.38
293.959	-0.34
294.175	-0.92
294.39	17.69
294.605	18.5
294.821	30.16
295.036	33.2
295.251	30.87
295.467	29.19
295.682	23.17
295.897	9.17
296.112	6.59
296.328	1.45
296.543	-8.34
296.758	-14.51
296.973	-8.84
297.188	-17
297.404	-6.04
297.619	-8.56
297.834	1.18
298.049	0.55
298.264	9.14
298.479	-8.25
298.694	3.85
298.909	-7.61
299.125	1.15
299.34	-3.56
299.555	5.71
299.77	1.43
299.985	2.85
300.2	-2.08
300.415	3.52
300.63	2.34
300.845	8.71
301.06	8.82
301.275	17.51
301.49	25.14
301.704	22.86
301.919	19
302.134	13.82
302.349	6.85
302.564	-9.82
302.779	-28.81
302.994	-41.61
303.209	-44.73
303.423	-27.72
303.638	-25.45
303.853	-20.43
304.068	-4.62
304.283	-1.07
304.497	10.14
304.712	15.56
304.927	6.75
305.142	9.63
305.356	8.79
305.571	16.73
305.786	19.03
306	27.46
306.215	21.35
306.43	28.61
306.644	32.76
306.859	31.53
307.074	24.35
307.288	26.54
307.503	19.92
307.717	19.16
307.932	23.65
308.147	15.5
308.361	11.24
308.576	8.73
308.79	10.42
309.005	7.65
309.219	12.88
309.434	8.43
309.648	4.28
309.863	11.42
310.077	9.83
310.292	6.81
310.506	16.14
310.72	10.02
310.935	10.33
311.149	13.79
311.364	10.3
311.578	7.32
311.792	2.54
312.007	-9.57
312.221	-11.66
312.435	-14.09
312.649	-35.69
312.864	-38.63
313.078	-23.72
313.292	-18.33
313.507	2.89
313.721	19.87
313.935	36.66
314.149	41.35
314.363	45.2
314.578	69.54
314.792	67.87
315.006	61.37
315.22	61.9
315.434	46.72
315.648	39.97
315.862	35.51
316.077	19.93
316.291	23.29
316.505	29.45
316.719	5.75
316.933	14.45
317.147	11.12
317.361	15.33
317.575	14.64
317.789	18.98
318.003	17.98
318.217	28.34
318.431	27.45
318.645	32.76
318.859	25.43
319.073	21.63
319.287	19.93
319.5	12.65
319.714	14.73
319.928	14.57
320.142	14.59
320.356	25.53
320.57	18.87
320.784	15.93
320.997	19.9
321.211	19.44
321.425	7.33
321.639	10.91
321.853	4.65
322.066	11.22
322.28	13.77
322.494	13.52
322.707	14.51
322.921	27.4
323.135	35.75
323.349	34.47
323.562	28.84
323.776	24.67
323.989	21.89
324.203	19.76
324.417	10.5
324.63	-6.34
324.844	-10.83
325.057	-3.31
325.271	-11.05
325.485	-13.45
325.698	-9.69
325.912	2.92
326.125	17.76
326.339	20.6
326.552	24.26
326.766	36.6
326.979	36.07
327.193	37.41
327.406	40.09
327.619	12.13
327.833	7.52
328.046	-5.58
328.26	-16.3
328.473	-13.35
328.686	-18.52
328.9	-31.9
329.113	-9.97
329.326	-7.58
329.54	-11.95
329.753	-10.01
329.966	-1.25
330.179	9.61
330.393	15.87
330.606	15
330.819	19.11
331.032	31.76
331.246	36.81
331.459	36.68
331.672	27.42
331.885	20.79
332.098	22.66
332.311	6.35
332.525	10.38
332.738	10.12
332.951	11.07
333.164	10.11
333.377	7.48
333.59	-0.76
333.803	18.14
334.016	5.03
334.229	-2.34
334.442	1.09
334.655	7.04
334.868	16.64
335.081	28.81
335.294	20.67
335.507	32.33
335.72	27.66
335.933	33.4
336.146	30.41
336.359	24.47
336.572	19.14
336.785	26.13
336.997	16.65
337.21	23.53
337.423	13.62
337.636	10.53
337.849	17.69
338.062	15.79
338.274	10
338.487	7.47
338.7	11.3
338.913	0.55
339.125	3.75
339.338	4.86
339.551	9.02
339.763	2.68
339.976	4.44
340.189	2.88
340.402	9.94
340.614	12.1
340.827	-0.38
341.039	-1.54
341.252	8.08
341.465	3.15
341.677	-4.17
341.89	0.12
342.102	4.03
342.315	19.25
342.527	10.4
342.74	2.56
342.952	8.23
343.165	17.1
343.377	13.41
343.59	12.54
343.802	12.43
344.015	18.81
344.227	16.87
344.44	14.58
344.652	17.29
344.864	22.26
345.077	14.94
345.289	16.89
345.502	18.33
345.714	11.87
345.926	14.65
346.139	6.52
346.351	0.34
346.563	8.32
346.775	4.53
346.988	2.65
347.2	9.99
347.412	11.74
347.624	15.14
347.837	17.73
348.049	10.7
348.261	4.62
348.473	-0.66
348.685	4.58
348.897	4.79
349.11	7.87
349.322	4.11
349.534	7.82
349.746	19.95
349.958	24.81
350.17	28.55
350.382	17.03
350.594	14.33
350.806	15.65
351.018	22.42
351.23	21.01
351.442	18.06
351.654	20.93
351.866	29.38
352.078	20.31
352.29	21.32
352.502	17.13
352.714	17.44
352.926	20.84
353.138	13.13
353.35	6.84
353.561	6.55
353.773	2.86
353.985	6.44
354.197	-2.55
354.409	1.77
354.621	6
354.832	2.52
355.044	11.67
355.256	11.71
355.468	2.77
355.679	8.46
355.891	10.9
356.103	6.47
356.314	4.34
356.526	-1.95
356.738	0.12
356.949	1.44
357.161	1.44
357.373	-1.32
357.584	10.22
357.796	18.17
358.008	28.74
358.219	33.9
358.431	43.97
358.642	43.59
358.854	36.1
359.065	25.24
359.277	29.63
359.488	25.97
359.7	23.39
359.911	17.29
360.123	21.75
360.334	26.99
360.546	26.4
360.757	25.24
360.969	23.32
361.18	18.78
361.391	21.39
361.603	21.41
361.814	19.79
362.025	20.16
362.237	17.79
362.448	20.71
362.659	14.08
362.871	17.23
363.082	11.53
363.293	16.54
363.504	18.93
363.716	17.23
363.927	11.5
364.138	15.84
364.349	13.21
364.56	11.2
364.772	1.73
364.983	-0.38
365.194	0.38
365.405	7.82
365.616	2.33
365.827	1.28
366.038	18.66
366.25	21.85
366.461	29.18
366.672	24.11
366.883	23.01
367.094	26.04
367.305	27.99
367.516	17.33
367.727	23.06
367.938	17.16
368.149	19.2
368.36	16.09
368.571	22.15
368.781	16.99
368.992	17.72
369.203	15.98
369.414	6.36
369.625	5.73
369.836	5.88
370.047	0.76
370.258	-1.71
370.468	-6.39
370.679	-9.94
370.89	8.4
371.101	6.36
371.312	5.43
371.522	9.07
371.733	7.94
371.944	14.39
372.155	5.59
372.365	-4.77
372.576	-3.07
372.787	-4.54
372.997	-8.37
373.208	-1.6
373.419	-8.58
373.629	3.46
373.84	-5.34
374.05	-7.52
374.261	-10.22
374.472	-6.69
374.682	-14.3
374.893	-16.76
375.103	-10.14
375.314	0.88
375.524	6.34
375.735	7.15
375.945	3.52
376.156	9.06
376.366	14.25
376.577	7.32
376.787	13.37
376.997	15.55
377.208	15.05
377.418	17.3
377.629	17.26
377.839	17.86
378.049	19.1
378.26	16.27
378.47	15.57
378.68	20.97
378.89	13.53
379.101	8.33
379.311	2.88
379.521	3.93
379.732	-9.93
379.942	-12.17
380.152	-5.36
380.362	1.52
380.572	3.71
380.783	8.68
380.993	11.24
381.203	21.05
381.413	17.98
381.623	12.82
381.833	10.64
382.043	11.6
382.253	12.55
382.463	10.79
382.674	7.09
382.884	8.95
383.094	8.14
383.304	6.32
383.514	9.17
383.724	3.54
383.934	-0.6
384.144	8.14
384.353	4.48
384.563	0.44
384.773	7.87
384.983	4.67
385.193	8.27
385.403	10.65
385.613	0.34
385.823	3.95
386.033	2.58
386.242	0.4
386.452	1.72
386.662	1.6
386.872	1.24
387.082	2.16
387.291	2.13
387.501	8.01
387.711	7.9
387.921	7.67
388.13	5.54
388.34	4.61
388.55	7.17
388.759	7.22
388.969	2.22
389.179	3.07
389.388	2.16
389.598	3.84
389.807	5.2
390.017	3.69
390.227	2.59
390.436	5.9
390.646	4.67
390.855	5.37
391.065	4.42
391.274	1.78
391.484	2.53
391.693	2.7
391.903	1.14
392.112	1.99
392.322	3.74
392.531	3.93
392.74	4.13
392.95	4.27
393.159	4.49
393.369	4.15
393.578	2.68
393.787	1.68
393.997	2.58
394.206	3.28
394.415	3
394.625	1.49
394.834	1.26
395.043	2.78
395.252	2.43
395.462	1.72
395.671	1.74
395.88	1.75
396.089	2.88
396.298	3.15
396.508	2.11
396.717	1.66
396.926	1.5
397.135	1.37
397.344	1.53
397.553	1.66
397.762	1.55
397.971	1.12
398.181	1.06
398.39	1.38
398.599	1.87
398.808	1.86
399.017	2.16
399.226	2.12
399.435	2.74
399.644	2.86
399.853	2.86
400.062	2.4
400.27	2.22
400.479	1.88
400.688	2.03
400.897	2.11
401.106	2.2
401.315	2.01
401.524	2.34
401.733	2.62
401.941	2.71
402.15	2.5
402.359	2.39
402.568	2.25
402.777	2.22
402.985	1.92
403.194	1.73
403.403	1.43
403.612	1.5
403.82	1.52
404.029	1.58
404.238	1.78
404.446	1.85
404.655	1.75
404.864	1.78
405.072	1.88
405.281	1.69
405.489	1.78
405.698	1.62
405.906	1.5
406.115	1.63
406.324	1.63
406.532	1.57
406.741	1.67
406.949	1.53
407.158	1.65
407.366	1.88
407.574	1.86
407.783	1.84
407.991	1.75
408.2	1.64
408.408	1.7
408.617	1.57
408.825	1.48
409.033	1.42
409.242	1.41
409.45	1.53
409.658	1.6
409.867	1.57
410.075	1.55
410.283	1.48
410.491	1.55
410.7	1.61
410.908	1.58
411.116	1.49
411.324	1.55
411.533	1.48
411.741	1.41
411.949	1.39
412.157	1.41
412.365	1.38
412.573	1.46
412.781	1.43
412.99	1.59
413.198	1.7
413.406	1.71
413.614	1.72
413.822	1.74
414.03	1.68
414.238	1.72
414.446	1.61
414.654	1.55
414.862	1.46
415.07	1.45
415.278	1.35
415.486	1.45
415.694	1.32
415.902	1.33
416.109	1.37
416.317	1.27
416.525	1.31
416.733	1.39
416.941	1.27
417.149	1.44
417.357	1.44
417.564	1.42
417.772	1.53
417.98	1.44
418.188	1.3
418.395	1.31
418.603	1.15
418.811	1.14
419.019	1.13
419.226	1.19
419.434	1.11
419.642	1.17
419.849	1.22
420.057	1.28
420.265	1.24
420.472	1.22
420.68	1.16
420.887	1.24
421.095	1.33
421.302	1.38
421.51	1.41
421.717	1.57
421.925	1.58
422.132	1.43
422.34	1.4
422.547	1.34
422.755	1.26
422.962	1.2
423.17	1.03
423.377	1.09
423.585	1.25
423.792	1.22
423.999	1.18
424.207	1.12
424.414	1.1
424.621	1.18
424.829	1.07
425.036	0.97
425.243	1.09
425.451	1.12
425.658	1.26
425.865	1.22
426.072	1.24
426.28	1.28
426.487	1.34
426.694	1.34
426.901	1.29
427.108	1.27
427.315	1.29
427.523	1.33
427.73	1.34
427.937	1.36
428.144	1.33
428.351	1.42
428.558	1.31
428.765	1.31
428.972	1.34
429.179	1.27
429.386	1.3
429.593	1.25
429.8	1.23
430.007	1.34
430.214	1.37
430.421	1.28
430.628	1.21
430.835	1.2
431.042	1.23
431.249	1.24
431.456	1.25
431.662	1.29
431.869	1.38
432.076	1.5
432.283	1.47
432.49	1.44
432.697	1.4
432.903	1.38
433.11	1.4
433.317	1.32
433.524	1.22
433.73	1.32
433.937	1.33
434.144	1.48
434.35	1.44
434.557	1.37
434.764	1.39
434.97	1.53
435.177	1.46
435.384	1.52
435.59	1.47
435.797	1.56
436.003	1.6
436.21	1.54
436.416	1.51
436.623	1.54
436.829	1.5
437.036	1.48
437.242	1.41
437.449	1.39
437.655	1.46
437.862	1.5
438.068	1.56
438.275	1.58
438.481	1.62
438.687	1.7
438.894	1.72
439.1	1.73
439.307	1.72
439.513	1.67
439.719	1.68
439.926	1.67
440.132	1.61
440.338	1.68
440.544	1.63
440.751	1.62
440.957	1.56
441.163	1.59
441.369	1.53
441.575	1.54
441.782	1.49
441.988	1.51
442.194	1.59
442.4	1.71
442.606	1.74
442.812	1.82
443.018	1.86
443.224	1.91
443.431	1.99
443.637	1.9
443.843	1.86
444.049	1.8
444.255	1.78
444.461	1.76
444.667	1.76
444.873	1.68
445.079	1.75
445.284	1.7
445.49	1.74
445.696	1.8
445.902	1.86
446.108	1.83
446.314	1.94
446.52	1.96
446.726	2.04
446.931	2.03
447.137	2.02
447.343	1.99
447.549	2.01
447.755	1.93
447.96	1.89
448.166	1.9
448.372	1.88
448.578	1.86
448.783	1.87
448.989	1.9
449.195	1.9
449.4	1.87
449.606	1.79
449.812	1.85
450.017	1.82
450.223	1.78
450.428	1.76
450.634	1.87
450.84	1.87
451.045	1.9
451.251	1.9
451.456	1.89
451.662	1.93
451.867	1.92
452.073	1.82
452.278	1.87
452.483	1.9
452.689	1.91
452.894	1.99
453.1	1.95
453.305	2
453.51	2.03
453.716	2.01
453.921	1.93
454.127	1.87
454.332	1.85
454.537	1.93
454.742	1.92
454.948	1.93
455.153	1.98
455.358	2.1
455.563	2.14
455.769	2.15
455.974	2.08
456.179	2.04
456.384	2.07
456.589	2.06
456.795	1.98
457	2
457.205	1.98
457.41	2.06
457.615	2.09
457.82	2.11
458.025	2.1
458.23	2.15
458.435	2.12
458.64	2.16
458.845	2.15
459.05	2.17
459.255	2.11
459.46	2.12
459.665	2.14
459.87	2.12
460.075	2.09
460.28	2.09
460.485	2.1
460.69	2.06
460.895	2.09
461.099	2.09
461.304	2.16
461.509	2.08
461.714	2.1
461.919	2.07
462.123	2.15
462.328	2.09
462.533	2.1
462.738	2.07
462.942	2.19
463.147	2.21
463.352	2.28
463.556	2.3
463.761	2.34
463.966	2.36
464.17	2.4
464.375	2.32
464.58	2.3
464.784	2.28
464.989	2.23
465.193	2.25
465.398	2.25
465.602	2.22
465.807	2.28
466.011	2.26
466.216	2.21
466.42	2.26
466.625	2.29
466.829	2.29
467.034	2.35
467.238	2.41
467.443	2.45
467.647	2.51
467.851	2.5
468.056	2.45
468.26	2.4
468.464	2.36
468.669	2.34
468.873	2.32
469.077	2.32
469.282	2.35
469.486	2.38
469.69	2.43
469.894	2.51
470.099	2.53
