Data from Ofra_PS_T2_2A_2HS27_Reflection_2.txt Node
Date: Wed Jul 21 17:08:59 EDT 2021
User: Adam
Spectrometer: FLMT01687
Trigger mode: 0
Integration Time (sec): 1.100000E0
Scans to average: 2
Electric dark correction enabled: true
Nonlinearity correction enabled: false
Boxcar width: 2
XAxis mode: Wavelengths
Number of Pixels in Spectrum: 3648
>>>>>Begin Spectral Data<<<<<
179.494	424.8
179.716	518.12
179.937	511.69
180.158	502.5
180.38	930
180.601	492.27
180.823	179.54
181.044	54.03
181.265	225
181.486	70.78
181.708	93.53
181.929	483.67
182.15	-139.44
182.372	123.65
182.593	96.17
182.814	99.14
183.035	171.13
183.257	120.61
183.478	67.66
183.699	116.78
183.92	64.44
184.141	49.68
184.363	26.52
184.584	76.34
184.805	60.68
185.026	94.61
185.247	104.9
185.468	55.62
185.689	74.11
185.91	66.56
186.132	55.42
186.353	29.47
186.574	114.76
186.795	94.91
187.016	68.58
187.237	45.14
187.458	35.41
187.679	15.98
187.9	-5.76
188.121	18.63
188.342	51.08
188.563	81.79
188.784	123.14
189.005	132.51
189.226	144.7
189.447	118.37
189.667	30.58
189.888	-169.95
190.109	-810.39
190.33	-466.45
190.551	-934.51
190.772	-169.25
190.993	-110.98
191.214	-71.4
191.434	-11.43
191.655	99.39
191.876	66.61
192.097	18.88
192.318	-47.95
192.538	-168.91
192.759	-195.02
192.98	-73.81
193.201	-43.95
193.421	-18.74
193.642	11.27
193.863	13.15
194.083	-5.07
194.304	3.5
194.525	9.56
194.745	24.05
194.966	12.32
195.187	-1.1
195.407	-27.21
195.628	-81.98
195.848	-127.77
196.069	-133.38
196.29	-71.58
196.51	-70.41
196.731	-58.92
196.951	-58.1
197.172	-83.62
197.392	-107.06
197.613	-112.22
197.833	-139.36
198.054	-127.43
198.274	-60.34
198.495	-78.6
198.715	-38.7
198.936	-28.4
199.156	-2.67
199.377	-84.58
199.597	-82.81
199.817	-125.32
200.038	-81.84
200.258	-155.36
200.479	-98.93
200.699	-122.97
200.919	-35.57
201.14	-43.3
201.36	-59.72
201.58	-6.98
201.801	25.21
202.021	-7.78
202.241	-26.67
202.461	-14.65
202.682	-98.7
202.902	-164.36
203.122	-101.36
203.342	-56.51
203.563	-18.97
203.783	12.95
204.003	-9.07
204.223	2.56
204.443	39.15
204.663	30.33
204.884	26.06
205.104	74.72
205.324	99.47
205.544	104.22
205.764	88.09
205.984	83.39
206.204	63.13
206.424	47.46
206.644	12.85
206.864	11.62
207.084	-13.35
207.304	-7.51
207.525	-105.94
207.745	-60.23
207.964	0.37
208.184	-54.89
208.404	-85.21
208.624	-66.35
208.844	-73.96
209.064	-327.65
209.284	-284.46
209.504	-115.38
209.724	-22.1
209.944	-10.08
210.164	10.14
210.384	26.7
210.604	24.59
210.823	-12.02
211.043	-12.67
211.263	1.3
211.483	-2.02
211.703	-56.2
211.922	-54.17
212.142	-3.03
212.362	-12.36
212.582	-29.14
212.801	-10.59
213.021	-13.9
213.241	-34.96
213.461	-53.53
213.68	-64.45
213.9	-51.96
214.12	-28.82
214.339	-70.3
214.559	-63.22
214.779	-2.67
214.998	-6.51
215.218	-44.26
215.438	-14.55
215.657	-4.99
215.877	-24.32
216.096	10.58
216.316	29.61
216.535	11.95
216.755	-4.32
216.974	-74.02
217.194	-156.02
217.413	-165.46
217.633	-157.53
217.852	-278.69
218.072	-115.59
218.291	-45.26
218.511	-1.45
218.73	-22.31
218.95	-3.98
219.169	-16.76
219.389	-49.32
219.608	-39.44
219.827	-33.35
220.047	-27.75
220.266	-21.76
220.485	-4.93
220.705	9.2
220.924	-0.77
221.143	31.07
221.363	24.05
221.582	30.46
221.801	45.75
222.021	60.79
222.24	20.53
222.459	53.18
222.678	-0.89
222.897	-96.84
223.117	-101.19
223.336	-68.83
223.555	-49.88
223.774	-18.53
223.993	-20.66
224.213	30.43
224.432	14.86
224.651	65.57
224.87	40.75
225.089	69.8
225.308	55.55
225.527	67.05
225.746	63.14
225.965	65.07
226.184	25.02
226.404	36.06
226.623	14.54
226.842	-0.85
227.061	26.54
227.28	41.76
227.499	23.76
227.718	36.45
227.936	40.2
228.155	30.4
228.374	15.08
228.593	27.09
228.812	27.69
229.031	1.25
229.25	-40.44
229.469	-45.05
229.688	-49.3
229.907	2.51
230.125	40.12
230.344	50.44
230.563	43.44
230.782	37.2
231.001	-58.8
231.22	-54.35
231.438	-31.13
231.657	-6.21
231.876	9.37
232.095	64.9
232.313	63.18
232.532	53.55
232.751	32.54
232.969	26.22
233.188	-25.04
233.407	21.98
233.625	22.64
233.844	1.85
234.063	-4.53
234.281	14.19
234.5	0.81
234.719	7.57
234.937	32.32
235.156	37.97
235.374	31.53
235.593	34.24
235.811	32.07
236.03	25.33
236.249	-9.36
236.467	-17.41
236.686	8.41
236.904	16.53
237.123	-9.99
237.341	-11.13
237.559	7.88
237.778	-1.43
237.996	-20.61
238.215	23.3
238.433	17.22
238.652	-1.46
238.87	-32.77
239.088	-15.95
239.307	-22.55
239.525	4.85
239.743	-23.66
239.962	-3.1
240.18	-20.7
240.398	-64.41
240.617	-85.38
240.835	-51.95
241.053	-25.74
241.271	16.58
241.49	35.03
241.708	30.78
241.926	8.86
242.144	7.84
242.363	-53.06
242.581	-67.32
242.799	-26.24
243.017	12.63
243.235	-8.68
243.453	12.94
243.672	3.52
243.89	10.37
244.108	-4.32
244.326	20.49
244.544	24.34
244.762	50.76
244.98	46.61
245.198	43.81
245.416	8.77
245.634	13.97
245.852	-7.68
246.07	7.75
246.288	13.16
246.506	-11.57
246.724	-21.04
246.942	-32.47
247.16	1.33
247.378	9.34
247.596	45.24
247.814	53.34
248.032	38.73
248.25	18.26
248.468	12.55
248.685	14.21
248.903	42.37
249.121	61.91
249.339	37.28
249.557	34.88
249.775	44.53
249.992	-28.53
250.21	-38.77
250.428	-26.04
250.646	-53.63
250.863	-89.07
251.081	-41.92
251.299	-49.91
251.517	-29.24
251.734	-1.37
251.952	11.74
252.17	13.67
252.387	29.39
252.605	12.04
252.823	16.17
253.04	28.16
253.258	36.94
253.475	27.8
253.693	56.52
253.911	52.25
254.128	49.85
254.346	44.5
254.563	16.52
254.781	-9.38
254.998	-20.8
255.216	-39.83
255.433	-36.76
255.651	12.02
255.868	32.98
256.086	58.57
256.303	51.3
256.521	42.94
256.738	20.21
256.956	-9.44
257.173	-48.59
257.39	-53.7
257.608	-65.43
257.825	18.65
258.043	54
258.26	63.96
258.477	94.61
258.695	84.07
258.912	10.61
259.129	13.99
259.346	-21.05
259.564	-62.49
259.781	-88.85
259.998	-40.21
260.216	-6.89
260.433	45.54
260.65	51.08
260.867	70.74
261.084	38.67
261.302	1.12
261.519	-27.01
261.736	-52.66
261.953	-70.59
262.17	-5.85
262.387	-33.9
262.604	-49.66
262.822	-44.86
263.039	-39.98
263.256	-65.16
263.473	9.51
263.69	8.25
263.907	34.43
264.124	55.63
264.341	32.76
264.558	20.71
264.775	33.73
264.992	28.07
265.209	24
265.426	49.43
265.643	38.2
265.86	43.15
266.077	41.46
266.294	38.55
266.51	3.91
266.727	-10.88
266.944	-11.68
267.161	-23.16
267.378	-12.97
267.595	20.66
267.812	-24.44
268.028	-43.96
268.245	-21.72
268.462	-47.47
268.679	-75.69
268.896	5.7
269.112	11.6
269.329	-2.63
269.546	7.59
269.763	1.56
269.979	-0.38
270.196	-0.85
270.413	-10.44
270.629	-38.85
270.846	-42.86
271.063	-54.14
271.279	-60.18
271.496	-57.52
271.712	-15.93
271.929	17.42
272.146	9.32
272.362	19.64
272.579	47.92
272.795	46.31
273.012	39.21
273.228	45.51
273.445	25.67
273.661	3.2
273.878	-29.03
274.094	-20.39
274.311	-36.81
274.527	19.67
274.744	26.44
274.96	31.83
275.177	27.9
275.393	43.51
275.609	36.52
275.826	51.93
276.042	45.75
276.259	21.58
276.475	35.16
276.691	34.73
276.908	15.32
277.124	14.01
277.34	22.61
277.557	-7.24
277.773	-25.76
277.989	-35.94
278.205	-24.36
278.422	-10.45
278.638	1.75
278.854	10.28
279.07	16.19
279.286	24.19
279.503	9.12
279.719	-18.65
279.935	-20.64
280.151	-32.54
280.367	-32.24
280.583	-62.43
280.799	-38.8
281.016	-67.71
281.232	-21.69
281.448	-24.83
281.664	7.22
281.88	-15.1
282.096	15.76
282.312	32.53
282.528	80.12
282.744	78.93
282.96	78.22
283.176	49.78
283.392	24.42
283.608	-1.45
283.824	-0.69
284.04	3.1
284.256	12.49
284.471	13.11
284.687	0.36
284.903	25.96
285.119	42.63
285.335	28.66
285.551	44.99
285.767	46.22
285.982	28.97
286.198	-0.97
286.414	39.22
286.63	34.46
286.846	54.89
287.061	33.2
287.277	61.48
287.493	40.28
287.709	65.16
287.924	35.75
288.14	75.16
288.356	63.53
288.571	78.01
288.787	45.48
289.003	44.69
289.218	19.24
289.434	-22.49
289.65	-31.3
289.865	-32
290.081	-2.98
290.296	7.09
290.512	22.33
290.727	-19.51
290.943	-20.39
291.159	-22.33
291.374	-38.71
291.59	-44.72
291.805	-19.23
292.021	-6.31
292.236	-11.17
292.451	14.32
292.667	14.6
292.882	14.66
293.098	7.51
293.313	-23.68
293.529	-46.42
293.744	-56.85
293.959	-36.63
294.175	-42.1
294.39	7.55
294.605	26.23
294.821	60.02
295.036	67.68
295.251	73.79
295.467	50.17
295.682	39.54
295.897	-16.64
296.112	-43.2
296.328	-33.7
296.543	-59.57
296.758	-49.22
296.973	-8.4
297.188	27.27
297.404	-3.17
297.619	-6.87
297.834	-17.34
298.049	-33.22
298.264	-62.41
298.479	-2.11
298.694	4.43
298.909	22.67
299.125	33.06
299.34	49.79
299.555	27.86
299.77	62.9
299.985	6.06
300.2	-46.08
300.415	-72.01
300.63	-30.45
300.845	-59.21
301.06	-34.46
301.275	-5.03
301.49	9.42
301.704	-13.78
301.919	-27.12
302.134	-41.12
302.349	-47.19
302.564	-97.95
302.779	-100.49
302.994	-31.97
303.209	7.39
303.423	54.2
303.638	97.07
303.853	52.63
304.068	39.47
304.283	21.66
304.497	3.5
304.712	-20.52
304.927	-8.74
305.142	-24.77
305.356	-9.76
305.571	-10.04
305.786	-29.25
306	-44.8
306.215	-32.17
306.43	-59.53
306.644	-55.08
306.859	5.83
307.074	25.45
307.288	-3.53
307.503	-11.49
307.717	-13.29
307.932	-19.52
308.147	-22.25
308.361	8.85
308.576	11.39
308.79	-26.27
309.005	-25.29
309.219	-17.23
309.434	-23.22
309.648	-13.43
309.863	9.12
310.077	0.7
310.292	1.08
310.506	9.68
310.72	15.55
310.935	23.93
311.149	31.75
311.364	49.36
311.578	49.84
311.792	47.19
312.007	52.16
312.221	39.7
312.435	39.21
312.649	14.68
312.864	23.55
313.078	30.05
313.292	92.67
313.507	64.7
313.721	123.34
313.935	63.1
314.149	45.62
314.363	13.64
314.578	13.02
314.792	10.28
315.006	-2.74
315.22	10.77
315.434	16.2
315.648	24.11
315.862	25.52
316.077	28.69
316.291	14.09
316.505	33.68
316.719	36.08
316.933	13.31
317.147	35.9
317.361	2.62
317.575	-44.98
317.789	-70.09
318.003	-94.39
318.217	-91.82
318.431	-3.03
318.645	45.57
318.859	40.98
319.073	49.26
319.287	39.28
319.5	0.65
319.714	-39.73
319.928	-57.22
320.142	-73.1
320.356	-29.36
320.57	15.6
320.784	20.83
320.997	6.81
321.211	8.82
321.425	-67.09
321.639	-86.43
321.853	-39.07
322.066	-21.52
322.28	-25.92
322.494	-3.26
322.707	3.01
322.921	-10.3
323.135	-10.7
323.349	8.23
323.562	-10.08
323.776	-13.86
323.989	-6.93
324.203	-14.07
324.417	-31.26
324.63	-44.29
324.844	-41.23
325.057	-46.48
325.271	-19.59
325.485	4.44
325.698	36.52
325.912	53.16
326.125	34.57
326.339	22.25
326.552	0.79
326.766	0.98
326.979	-0.19
327.193	34.21
327.406	18.7
327.619	24.03
327.833	40.37
328.046	13.74
328.26	-15.27
328.473	16.91
328.686	-8.63
328.9	-37.37
329.113	-12.81
329.326	-25.33
329.54	-40.53
329.753	-43.83
329.966	-51.35
330.179	-37.26
330.393	-17.17
330.606	3.81
330.819	29.41
331.032	46.63
331.246	40.64
331.459	69.52
331.672	56.07
331.885	41.84
332.098	9.58
332.311	4.95
332.525	-46.49
332.738	-36.24
332.951	3.49
333.164	32.3
333.377	33.83
333.59	53.1
333.803	64.91
334.016	46.82
334.229	42.05
334.442	47.41
334.655	38.7
334.868	49.73
335.081	47.94
335.294	45.58
335.507	33.81
335.72	27.39
335.933	11.1
336.146	4.95
336.359	-13.81
336.572	-37.02
336.785	-58.41
336.997	-73.96
337.21	-31.93
337.423	-26.84
337.636	-2.11
337.849	17.2
338.062	37.76
338.274	14.37
338.487	12.77
338.7	5.84
338.913	-36.72
339.125	-71.6
339.338	-118.09
339.551	-93.87
339.763	-61.51
339.976	-27.74
340.189	-0.6
340.402	21.84
340.614	16.24
340.827	3.36
341.039	-12.44
341.252	-15.55
341.465	-6.74
341.677	-17.42
341.89	-51.19
342.102	-14.07
342.315	-23.57
342.527	-54.52
342.74	-44.11
342.952	3.15
343.165	-12
343.377	13.5
343.59	9.92
343.802	25.53
344.015	11.88
344.227	26.66
344.44	23.56
344.652	29.98
344.864	20.07
345.077	50.81
345.289	46.67
345.502	44.48
345.714	42.25
345.926	47.98
346.139	26.52
346.351	44.97
346.563	48.52
346.775	43.61
346.988	23.11
347.2	7.11
347.412	-45.74
347.624	-64.67
347.837	-77.99
348.049	-43.5
348.261	-13.12
348.473	11.74
348.685	18.32
348.897	18.51
349.11	-2.4
349.322	-21.45
349.534	-19.51
349.746	-37.01
349.958	-30.91
350.17	-9.82
350.382	19.73
350.594	8.15
350.806	30.6
351.018	32.16
351.23	22.6
351.442	-34.01
351.654	-24.75
351.866	-36.39
352.078	-27.88
352.29	-9.78
352.502	13.94
352.714	16.14
352.926	7.08
353.138	12.8
353.35	-0.73
353.561	-5.02
353.773	-16.3
353.985	-5.43
354.197	-18.65
354.409	-22.81
354.621	-17.59
354.832	-20.45
355.044	-27.09
355.256	-26.49
355.468	-2.82
355.679	0.51
355.891	18.68
356.103	-6.62
356.314	0.3
356.526	-10.15
356.738	-10.66
356.949	-16.54
357.161	-6.93
357.373	-4.99
357.584	1.41
357.796	8.01
358.008	2.39
358.219	35.96
358.431	28.04
358.642	31.75
358.854	28.04
359.065	23.11
359.277	-14.32
359.488	-21.62
359.7	-42.78
359.911	-64.82
360.123	-38.43
360.334	-38.42
360.546	-50.44
360.757	-57.37
360.969	-33.36
361.18	-29.96
361.391	-7.52
361.603	-8.08
361.814	7.89
362.025	8.92
362.237	-8.86
362.448	2.91
362.659	19.41
362.871	17.98
363.082	-0
363.293	2.26
363.504	-19.57
363.716	-47.88
363.927	-73.09
364.138	-73
364.349	-79.46
364.56	-67.97
364.772	-49.19
364.983	-19.13
365.194	-16.16
365.405	0.67
365.616	28.03
365.827	28.35
366.038	16.28
366.25	7
366.461	-25.32
366.672	-19.98
366.883	-0.75
367.094	-4.15
367.305	-10.52
367.516	-0.35
367.727	-25.05
367.938	-41.29
368.149	-33.3
368.36	-0.27
368.571	-1.56
368.781	-13.73
368.992	-22.9
369.203	-35.88
369.414	-78.86
369.625	-83.38
369.836	-65.36
370.047	-77.43
370.258	-52.02
370.468	-40.35
370.679	-45.88
370.89	-48.28
371.101	-18.29
371.312	-32.41
371.522	-18.98
371.733	-12.06
371.944	4.82
372.155	4.27
372.365	7.12
372.576	-3.42
372.787	-7.43
372.997	-37.89
373.208	-38.13
373.419	-17.9
373.629	-31.83
373.84	-36.56
374.05	-38.16
374.261	-41.07
374.472	-50.12
374.682	2.15
374.893	15.8
375.103	45
375.314	40.54
375.524	44.02
375.735	38.63
375.945	39.24
376.156	12.86
376.366	18.79
376.577	15.19
376.787	-8.37
376.997	-11.45
377.208	-3
377.418	-15.73
377.629	-6.39
377.839	5.01
378.049	9.05
378.26	16.21
378.47	26.15
378.68	10.92
378.89	6.82
379.101	4.57
379.311	-19.26
379.521	-56.76
379.732	-44.35
379.942	-38.27
380.152	-60.45
380.362	-28.07
380.572	-12.56
380.783	-3.28
380.993	12.73
381.203	30.48
381.413	35.06
381.623	37.84
381.833	30.26
382.043	5.53
382.253	-8.24
382.463	-11.36
382.674	-22.8
382.884	-42.75
383.094	-31.6
383.304	-20.09
383.514	-10.18
383.724	11.83
383.934	12.22
384.144	2.9
384.353	-3.64
384.563	-6.03
384.773	-13.61
384.983	-18.5
385.193	-2.04
385.403	1.46
385.613	1.82
385.823	-11.39
386.033	3.33
386.242	-5.21
386.452	-10.17
386.662	-20.44
386.872	-0.82
387.082	-13.01
387.291	-19.62
387.501	-15.46
387.711	-0.66
387.921	-9.66
388.13	-4.34
388.34	10.51
388.55	6.89
388.759	0.56
388.969	2.63
389.179	1.48
389.388	-4.55
389.598	-0.86
389.807	-7.23
390.017	-9.53
390.227	-5.78
390.436	-5.33
390.646	-2.57
390.855	1.63
391.065	1.16
391.274	-4.1
391.484	-5.55
391.693	-8.26
391.903	-4.7
392.112	1.73
392.322	6.33
392.531	8.43
392.74	10.2
392.95	3.65
393.159	-1.16
393.369	-2.48
393.578	-4.36
393.787	-6.25
393.997	-4.36
394.206	-3.72
394.415	-3.33
394.625	-3.28
394.834	-3.81
395.043	-0.89
395.252	1.47
395.462	2.66
395.671	4.71
395.88	4.84
396.089	4.13
396.298	1.74
396.508	1.13
396.717	0.46
396.926	1.08
397.135	0.77
397.344	1.09
397.553	1.94
397.762	2.79
397.971	2.81
398.181	3.42
398.39	2.72
398.599	2.3
398.808	2.04
399.017	3.06
399.226	3.51
399.435	5.03
399.644	5.38
399.853	4.54
400.062	4.06
400.27	3.48
400.479	2.74
400.688	1.48
400.897	1.94
401.106	1.86
401.315	1.91
401.524	2.02
401.733	3.15
401.941	3.84
402.15	3.92
402.359	3.82
402.568	4.2
402.777	4.03
402.985	3.42
403.194	3.43
403.403	3.43
403.612	2.82
403.82	2.7
404.029	2.91
404.238	2.58
404.446	2.75
404.655	2.68
404.864	2.55
405.072	2.07
405.281	2.34
405.489	1.98
405.698	2.07
405.906	2.02
406.115	2.21
406.324	2.09
406.532	2.46
406.741	2.75
406.949	2.85
407.158	2.93
407.366	2.93
407.574	2.87
407.783	2.84
407.991	2.7
408.2	2.73
408.408	2.8
408.617	2.65
408.825	2.43
409.033	2.55
409.242	2.61
409.45	2.61
409.658	2.58
409.867	2.72
410.075	2.51
410.283	2.34
410.491	2.29
410.7	2.24
410.908	2.29
411.116	2.72
411.324	2.79
411.533	2.75
411.741	2.9
411.949	2.81
412.157	2.43
412.365	2.4
412.573	2.43
412.781	2.44
412.99	2.32
413.198	2.57
413.406	2.66
413.614	2.59
413.822	2.45
414.03	2.48
414.238	2.1
414.446	2.02
414.654	1.84
414.862	1.92
415.07	1.97
415.278	2.34
415.486	2.2
415.694	2.43
415.902	2.32
416.109	2.21
416.317	2.12
416.525	1.92
416.733	1.9
416.941	2.09
417.149	2.2
417.357	2.36
417.564	2.64
417.772	2.77
417.98	2.64
418.188	2.49
418.395	2.48
418.603	2.59
418.811	2.32
419.019	2.25
419.226	2.54
419.434	2.54
419.642	2.39
419.849	2.52
420.057	2.57
420.265	2.44
420.472	2.09
420.68	2.1
420.887	1.98
421.095	2.01
421.302	2.08
421.51	2.36
421.717	2.44
421.925	2.56
422.132	2.37
422.34	2.19
422.547	2.24
422.755	2.04
422.962	1.88
423.17	1.87
423.377	1.76
423.585	1.53
423.792	1.54
423.999	1.7
424.207	1.76
424.414	1.99
424.621	2.15
424.829	2.15
425.036	2.11
425.243	2.3
425.451	2.06
425.658	1.92
425.865	2.08
426.072	2.04
426.28	2.19
426.487	2.19
426.694	2.26
426.901	1.96
427.108	1.96
427.315	1.68
427.523	2.1
427.73	2
427.937	2.15
428.144	2.06
428.351	2.13
428.558	1.98
428.765	1.96
428.972	2
429.179	2.24
429.386	2.51
429.593	2.3
429.8	2.2
430.007	2.34
430.214	2.3
430.421	2.08
430.628	1.96
430.835	1.98
431.042	2.15
431.249	2.2
431.456	2.18
431.662	2.42
431.869	2.62
432.076	2.57
432.283	2.62
432.49	2.62
432.697	2.67
432.903	2.49
433.11	2.4
433.317	2.46
433.524	2.64
433.73	2.56
433.937	2.86
434.144	2.68
434.35	2.58
434.557	2.4
434.764	2.42
434.97	2.3
435.177	2.55
435.384	2.57
435.59	2.71
435.797	2.99
436.003	3.02
436.21	2.96
436.416	3.18
436.623	3.14
436.829	3.11
437.036	3.24
437.242	3.35
437.449	3.17
437.655	3.23
437.862	3.11
438.068	2.94
438.275	2.96
438.481	3.12
438.687	3.01
438.894	3.05
439.1	3.14
439.307	3.32
439.513	3.18
439.719	3.23
439.926	3.41
440.132	3.35
440.338	3.14
440.544	3.39
440.751	3.37
440.957	3.3
441.163	3.33
441.369	3.35
441.575	3.09
441.782	3.15
441.988	3.03
442.194	3.02
442.4	3.12
442.606	3.37
442.812	3.43
443.018	3.47
443.224	3.6
443.431	3.6
443.637	3.41
443.843	3.37
444.049	3.41
444.255	3.31
444.461	3.38
444.667	3.43
444.873	3.63
445.079	3.65
445.284	3.77
445.49	3.53
445.696	3.36
445.902	3.28
446.108	3.26
446.314	3.11
446.52	3.24
446.726	3.62
446.931	3.58
447.137	3.64
447.343	3.81
447.549	3.78
447.755	3.54
447.96	3.63
448.166	3.56
448.372	3.47
448.578	3.53
448.783	3.56
448.989	3.6
449.195	3.8
449.4	3.86
449.606	3.83
449.812	3.75
450.017	3.75
450.223	3.59
450.428	3.5
450.634	3.57
450.84	3.79
451.045	3.69
451.251	3.72
451.456	3.97
451.662	4.14
451.867	4.17
452.073	4.22
452.278	4.33
452.483	4.33
452.689	4.21
452.894	4.23
453.1	4.22
453.305	4.05
453.51	3.9
453.716	3.85
453.921	3.82
454.127	3.77
454.332	3.86
454.537	3.94
454.742	3.94
454.948	3.89
455.153	3.98
455.358	4.05
455.563	4.23
455.769	4.34
455.974	4.39
456.179	4.23
456.384	4.2
456.589	4.09
456.795	3.84
457	3.79
457.205	4.14
457.41	4.1
457.615	4.08
457.82	4.25
458.025	4.25
458.23	4.03
458.435	4.12
458.64	4.01
458.845	4.17
459.05	4.19
459.255	4.21
459.46	4.17
459.665	4.24
459.87	4.16
460.075	4.15
460.28	4.17
460.485	4.34
460.69	4.34
460.895	4.26
461.099	4.25
461.304	4.35
461.509	4.3
461.714	4.26
461.919	4.44
462.123	4.41
462.328	4.41
462.533	4.35
462.738	4.52
462.942	4.45
463.147	4.53
