Data from Ofra_PS_T2_2A_0GT05_Reflection_1.txt Node
Date: Wed Jul 21 16:52:22 EDT 2021
User: Adam
Spectrometer: FLMT01687
Trigger mode: 0
Integration Time (sec): 1.100000E0
Scans to average: 2
Electric dark correction enabled: true
Nonlinearity correction enabled: false
Boxcar width: 2
XAxis mode: Wavelengths
Number of Pixels in Spectrum: 3648
>>>>>Begin Spectral Data<<<<<
179.494	386
179.716	386.35
179.937	398.69
180.158	396.12
180.38	662.19
180.601	300.28
180.823	208.06
181.044	108.29
181.265	150.37
181.486	68.5
181.708	50.69
181.929	-482.65
182.15	307.75
182.372	133.61
182.593	105.4
182.814	40.71
183.035	58.35
183.257	31.71
183.478	16.49
183.699	43.51
183.92	27.36
184.141	-8.21
184.363	-60.9
184.584	-50.7
184.805	-15.76
185.026	11.75
185.247	22.39
185.468	23.35
185.689	39.69
185.91	36.47
186.132	27.25
186.353	19.97
186.574	93.59
186.795	53.49
187.016	14.9
187.237	-15.47
187.458	-31
187.679	-93.79
187.9	-67.86
188.121	-60.66
188.342	-35.34
188.563	11.6
188.784	44.52
189.005	18.92
189.226	53.82
189.447	10.94
189.667	-291.5
189.888	-476.11
190.109	-1329.22
190.33	-650.65
190.551	-916.37
190.772	-157.02
190.993	-110.38
191.214	-68.23
191.434	-70.5
191.655	-32.45
191.876	-71.49
192.097	-117.57
192.318	-137.19
192.538	-162.02
192.759	-108.43
192.98	-35.14
193.201	0.24
193.421	11.82
193.642	14.66
193.863	5.08
194.083	-9.98
194.304	-18.1
194.525	-22.2
194.745	-14.03
194.966	3.56
195.187	-1.69
195.407	-12.76
195.628	-41.29
195.848	-88.23
196.069	-61.01
196.29	-38.67
196.51	-31.42
196.731	-21.09
196.951	-21.25
197.172	-63.51
197.392	-67.3
197.613	-47.29
197.833	-89.91
198.054	-62.72
198.274	-25.66
198.495	-35.19
198.715	-27.29
198.936	-32.86
199.156	-28.07
199.377	-124.08
199.597	-119.51
199.817	-141.94
200.038	-77.33
200.258	-157.42
200.479	-46.31
200.699	-48.85
200.919	51.74
201.14	34.24
201.36	33.77
201.58	36.05
201.801	49.45
202.021	0.16
202.241	-2.04
202.461	-3.31
202.682	-91.66
202.902	-156.85
203.122	-79.13
203.342	-55.06
203.563	1.86
203.783	23.8
204.003	26.86
204.223	31.93
204.443	26.14
204.663	-30.05
204.884	-8.92
205.104	29.84
205.324	47.32
205.544	85.16
205.764	80.73
205.984	69.21
206.204	48.15
206.424	21.64
206.644	-32.43
206.864	-10.87
207.084	-50.37
207.304	-30.63
207.525	-34.84
207.745	1.59
207.964	50
208.184	18.97
208.404	-10.26
208.624	-23.66
208.844	-1.97
209.064	-183.99
209.284	-192.1
209.504	-68.2
209.724	14.9
209.944	6.44
210.164	19.36
210.384	19.75
210.604	10.32
210.823	-20.43
211.043	-28.67
211.263	-13.25
211.483	-9.24
211.703	-47.01
211.922	-45.14
212.142	9.27
212.362	22.26
212.582	22.76
212.801	22.57
213.021	26.05
213.241	13.3
213.461	-40.62
213.68	-43.68
213.9	-47.36
214.12	-44.04
214.339	-93.49
214.559	-56.05
214.779	-26.72
214.998	-14.62
215.218	-37.18
215.438	-7.82
215.657	-11.14
215.877	-14.03
216.096	-3.34
216.316	18.34
216.535	12.15
216.755	10.2
216.974	-57.11
217.194	-79.53
217.413	-129.19
217.633	-115.67
217.852	-195.87
218.072	-75.12
218.291	-38.02
218.511	8.05
218.73	-26.59
218.95	-10.21
219.169	-11.2
219.389	-33.66
219.608	-21.2
219.827	-0.39
220.047	7.17
220.266	14.93
220.485	19.11
220.705	-9.01
220.924	-19.77
221.143	4.02
221.363	-25.42
221.582	-4.45
221.801	27.96
222.021	34.02
222.24	-17.25
222.459	30.38
222.678	-10.27
222.897	-69.38
223.117	-148.81
223.336	-121.12
223.555	-77.21
223.774	-52.43
223.993	-88.68
224.213	-0.05
224.432	22.09
224.651	51.5
224.87	33.68
225.089	54.64
225.308	44.66
225.527	38.63
225.746	21.57
225.965	20.4
226.184	-0.78
226.404	20.29
226.623	-0.22
226.842	0.82
227.061	19.51
227.28	21.98
227.499	-4.88
227.718	14.58
227.936	11.01
228.155	-4.87
228.374	-10.31
228.593	13.18
228.812	26.13
229.031	19.39
229.25	-10.43
229.469	1.84
229.688	11.37
229.907	-5.29
230.125	6.65
230.344	32.37
230.563	27.31
230.782	29.47
231.001	-9.19
231.22	-10.54
231.438	-5.15
231.657	10.5
231.876	-7.12
232.095	29.72
232.313	29.29
232.532	15.09
232.751	-31.35
232.969	-38.78
233.188	-115.28
233.407	-54.48
233.625	-26.75
233.844	-17.47
234.063	3.77
234.281	10.24
234.5	0.57
234.719	3.56
234.937	9.3
235.156	11.6
235.374	19.35
235.593	2.43
235.811	-13.3
236.03	-23.62
236.249	-74.33
236.467	-68.81
236.686	-15.5
236.904	1.52
237.123	-12.31
237.341	-7.79
237.559	0.11
237.778	-9.16
237.996	-13.45
238.215	21.93
238.433	27.26
238.652	33.81
238.87	30.4
239.088	19.73
239.307	9.1
239.525	13.14
239.743	-21.09
239.962	-20.99
240.18	-37.78
240.398	-63.88
240.617	-67.37
240.835	-40.9
241.053	-41.23
241.271	-21.16
241.49	0.4
241.708	-41.4
241.926	-84.02
242.144	-56.43
242.363	-79.78
242.581	-109.15
242.799	-47.39
243.017	-24.1
243.235	-43.26
243.453	-15.25
243.672	-12.51
243.89	-12.68
244.108	-9.5
244.326	9.82
244.544	1.77
244.762	6.88
244.98	13.22
245.198	13.88
245.416	4.01
245.634	12.27
245.852	7.16
246.07	-25.37
246.288	-20.26
246.506	-53.55
246.724	-32.57
246.942	-34.31
247.16	13.88
247.378	-7.6
247.596	19.98
247.814	-4
248.032	-12.8
248.25	-15.59
248.468	-7.77
248.685	-12.99
248.903	22.3
249.121	11.93
249.339	-5.75
249.557	-5.81
249.775	-18.77
249.992	-106.16
250.21	-82.67
250.428	-69.29
250.646	-104.21
250.863	-89.1
251.081	-39.28
251.299	-40.03
251.517	-26.76
251.734	-6.22
251.952	-22.65
252.17	-16.37
252.387	-3.56
252.605	-15.49
252.823	-6.58
253.04	0.72
253.258	10.41
253.475	-1.59
253.693	38.45
253.911	42.45
254.128	53.13
254.346	45.62
254.563	24.02
254.781	-5.46
254.998	-28.18
255.216	-30.96
255.433	-6.68
255.651	21.48
255.868	18.31
256.086	53.46
256.303	40.45
256.521	20.71
256.738	11.26
256.956	-6.64
257.173	-53.53
257.39	-57.62
257.608	-79.96
257.825	-49.17
258.043	-21.64
258.26	-7.05
258.477	18.59
258.695	19.86
258.912	-6.5
259.129	2.84
259.346	-19.89
259.564	-37.88
259.781	-32.07
259.998	12.11
260.216	18.32
260.433	39.51
260.65	32.49
260.867	35.43
261.084	6.13
261.302	-5.41
261.519	6.05
261.736	-19.87
261.953	-44.16
262.17	-5.23
262.387	-27.8
262.604	-55.91
262.822	-50.79
263.039	-35.38
263.256	-77.18
263.473	-36.39
263.69	-24.38
263.907	13.72
264.124	3.52
264.341	-14.81
264.558	-5.96
264.775	-8.71
264.992	-33.19
265.209	-17.1
265.426	9.33
265.643	0.29
265.86	16.52
266.077	3.95
266.294	-12.73
266.51	-37.05
266.727	-39.2
266.944	-46.51
267.161	-51.52
267.378	-42.2
267.595	-27.91
267.812	-61.76
268.028	-58.4
268.245	-8.58
268.462	-15.03
268.679	-7.73
268.896	23.13
269.112	9.48
269.329	7.4
269.546	15.62
269.763	12.13
269.979	11.65
270.196	20.43
270.413	-18.75
270.629	-38.88
270.846	-68.32
271.063	-54.37
271.279	-71.04
271.496	-50.93
271.712	-22.5
271.929	3.64
272.146	-30.92
272.362	-28.41
272.579	-17.01
272.795	-10.66
273.012	5.6
273.228	42.53
273.445	41.17
273.661	29.92
273.878	7.7
274.094	-12.23
274.311	-46.68
274.527	-8.32
274.744	-15.25
274.96	-33.65
275.177	-18.02
275.393	3.96
275.609	-7.67
275.826	22.21
276.042	33.38
276.259	30.77
276.475	23.15
276.691	29.61
276.908	19.05
277.124	28.3
277.34	20.96
277.557	7.78
277.773	-4.45
277.989	-5.76
278.205	-14.18
278.422	7.59
278.638	10.16
278.854	25.16
279.07	29.23
279.286	34.23
279.503	8.21
279.719	11.33
279.935	-5.36
280.151	-19.62
280.367	-4.64
280.583	-17.43
280.799	-0.96
281.016	-26.18
281.232	-6.83
281.448	-13.09
281.664	-2.26
281.88	-54.34
282.096	-19.47
282.312	-7.04
282.528	19.19
282.744	29.62
282.96	30.96
283.176	20.25
283.392	11
283.608	-5.7
283.824	-2.93
284.04	1.31
284.256	-3.67
284.471	-7
284.687	-13.84
284.903	-18.6
285.119	17.59
285.335	13.16
285.551	10.29
285.767	-2.1
285.982	0.37
286.198	-53.61
286.414	-15.2
286.63	-5.36
286.846	12.46
287.061	-2.96
287.277	18.44
287.493	-20.81
287.709	-11.14
287.924	-27.26
288.14	-5.1
288.356	-11.32
288.571	20.86
288.787	5.4
289.003	8.23
289.218	-5.5
289.434	-26.71
289.65	-9.26
289.865	-13.49
290.081	2.25
290.296	13.06
290.512	30.41
290.727	-22.07
290.943	-16.79
291.159	-25.69
291.374	-25
291.59	-44.38
291.805	-12.9
292.021	1.39
292.236	7.88
292.451	22.07
292.667	35.97
292.882	41.24
293.098	23.62
293.313	7.16
293.529	-9.37
293.744	-16.95
293.959	-19.48
294.175	-10.43
294.39	13.67
294.605	24.07
294.821	23.71
295.036	16.63
295.251	26.09
295.467	21.44
295.682	11.85
295.897	-4.76
296.112	0.62
296.328	-26.46
296.543	-41.02
296.758	-45.27
296.973	-4.72
297.188	16.54
297.404	11.48
297.619	6.05
297.834	-15.2
298.049	-32.42
298.264	-45.1
298.479	-4.24
298.694	4.13
298.909	24.6
299.125	27.3
299.34	26.2
299.555	8.91
299.77	5.58
299.985	-30.53
300.2	-82.1
300.415	-96.57
300.63	-73.61
300.845	-62.36
301.06	-46.17
301.275	-17.1
301.49	3
301.704	-2.14
301.919	-15.65
302.134	-19.09
302.349	-24.33
302.564	-80.72
302.779	-136.49
302.994	-112.93
303.209	-88.73
303.423	-65.3
303.638	11.54
303.853	2.86
304.068	-6.7
304.283	3.61
304.497	3.18
304.712	-4.61
304.927	0.56
305.142	-5.39
305.356	-6.84
305.571	3.37
305.786	-7.84
306	-18.26
306.215	-13.35
306.43	-33.32
306.644	-42.1
306.859	-30.14
307.074	5.4
307.288	-18.99
307.503	-22
307.717	-19.59
307.932	-24.33
308.147	-35.25
308.361	-9.78
308.576	2.12
308.79	-29.85
309.005	-11.93
309.219	-14.67
309.434	-21.05
309.648	-38.66
309.863	-13.08
310.077	-16.76
310.292	-10.31
310.506	-13.85
310.72	6.72
310.935	10.41
311.149	1.58
311.364	17.01
311.578	21.31
311.792	9.9
312.007	8.81
312.221	9.64
312.435	5.66
312.649	-10.22
312.864	-45.17
313.078	-48.16
313.292	-33.04
313.507	-85.03
313.721	-79.85
313.935	6.69
314.149	8.79
314.363	-1.59
314.578	7.81
314.792	15.26
315.006	2.42
315.22	6.87
315.434	10.07
315.648	9.52
315.862	-1.04
316.077	-0.03
316.291	-10.04
316.505	-20.64
316.719	-13.06
316.933	-8.36
317.147	-26.97
317.361	-68.95
317.575	-60.58
317.789	-87.52
318.003	-142.61
318.217	-82.6
318.431	-12.39
318.645	13.54
318.859	15.13
319.073	35.38
319.287	23.22
319.5	12.24
319.714	-28.28
319.928	-48.14
320.142	-78.78
320.356	-53.69
320.57	-27.08
320.784	-18.39
320.997	-37.17
321.211	-42.04
321.425	-72
321.639	-97.5
321.853	-47.67
322.066	-24.34
322.28	-27.09
322.494	-19.39
322.707	-19.12
322.921	-30.41
323.135	-24.1
323.349	1.78
323.562	-11.18
323.776	-6.63
323.989	-9.6
324.203	-22.23
324.417	-27.03
324.63	-37.43
324.844	-36.66
325.057	-13.43
325.271	-0.23
325.485	9.15
325.698	35.29
325.912	42.45
326.125	7.78
326.339	7.85
326.552	-17.5
326.766	-27.59
326.979	-12.42
327.193	23.54
327.406	12.61
327.619	23.13
327.833	26.98
328.046	-16.24
328.26	-45.49
328.473	-20.45
328.686	-52.88
328.9	-34.55
329.113	1.17
329.326	-5.26
329.54	-11.72
329.753	-17.82
329.966	-62.14
330.179	-49.82
330.393	-13.69
330.606	11.92
330.819	29.82
331.032	37.04
331.246	35.18
331.459	47.71
331.672	31.87
331.885	26.56
332.098	29.78
332.311	15.38
332.525	-17.21
332.738	-6.59
332.951	14.79
333.164	19.98
333.377	39.04
333.59	46.37
333.803	51.72
334.016	33.97
334.229	24
334.442	17.26
334.655	19.85
334.868	13.12
335.081	22.99
335.294	30.66
335.507	41.79
335.72	39.71
335.933	24.39
336.146	18.42
336.359	2.37
336.572	-37.66
336.785	-57.82
336.997	-52.04
337.21	-30.48
337.423	-13.28
337.636	-0.21
337.849	16.17
338.062	20.36
338.274	13.29
338.487	5.6
338.7	1.98
338.913	-21.98
339.125	-32.17
339.338	-71.71
339.551	-64.51
339.763	-27.01
339.976	-9.85
340.189	-4.43
340.402	6.23
340.614	7.57
340.827	-11.69
341.039	-28.67
341.252	-19.89
341.465	-1.44
341.677	-7.79
341.89	-20.38
342.102	-10.1
342.315	-20.23
342.527	-59.28
342.74	-45.78
342.952	-14.2
343.165	-7.3
343.377	-3.44
343.59	3.38
343.802	1.21
344.015	3.39
344.227	2.33
344.44	20.55
344.652	27.85
344.864	26.33
345.077	29.06
345.289	32.45
345.502	22.86
345.714	15.64
345.926	18.95
346.139	5.23
346.351	12.57
346.563	19.46
346.775	20.12
346.988	17.83
347.2	14.52
347.412	-34.75
347.624	-46.9
347.837	-70.36
348.049	-61.37
348.261	-27.72
348.473	-9.35
348.685	-7.55
348.897	19.88
349.11	2.03
349.322	-24.48
349.534	-17.02
349.746	-28.5
349.958	-43.85
350.17	-35
350.382	-10.42
350.594	-19.1
350.806	-6.54
351.018	1
351.23	-15.97
351.442	-48.38
351.654	-40.94
351.866	-40.73
352.078	-38.4
352.29	-15.91
352.502	2.46
352.714	6.64
352.926	-0.57
353.138	-0.02
353.35	-1.36
353.561	2.75
353.773	0.51
353.985	13.33
354.197	11.14
354.409	15.65
354.621	0.12
354.832	-7.29
355.044	-22.75
355.256	-28.59
355.468	-21.13
355.679	-11.91
355.891	1.28
356.103	7.54
356.314	20.26
356.526	19.91
356.738	13.34
356.949	2.48
357.161	11.52
357.373	9.16
357.584	15.63
357.796	17.66
358.008	11.54
358.219	14.98
358.431	6.18
358.642	2.44
358.854	-3.55
359.065	-7.31
359.277	-24.91
359.488	-32.04
359.7	-61.52
359.911	-55.43
360.123	-35.35
360.334	-44.82
360.546	-63.64
360.757	-42.16
360.969	-38.88
361.18	-44.02
361.391	-30.11
361.603	-20.51
361.814	-21.88
362.025	-11.53
362.237	-12.64
362.448	1.17
362.659	18.95
362.871	8.62
363.082	-0.02
363.293	2.66
363.504	-8.14
363.716	-30.41
363.927	-27.71
364.138	-42.89
364.349	-39.39
364.56	-38.46
364.772	-32.82
364.983	-8.81
365.194	1.46
365.405	-1.7
365.616	6.6
365.827	8.1
366.038	-18.5
366.25	-18.9
366.461	-27.81
366.672	-14.54
366.883	-7.21
367.094	9.05
367.305	1.07
367.516	6.58
367.727	-9.19
367.938	-9.05
368.149	-12.25
368.36	-1.95
368.571	-4.05
368.781	-6.82
368.992	-25.56
369.203	-46.86
369.414	-60.66
369.625	-57.77
369.836	-54.7
370.047	-61.94
370.258	-39.12
370.468	-46.63
370.679	-54.93
370.89	-39.93
371.101	-8.62
371.312	-13.18
371.522	2.77
371.733	13.68
371.944	12.57
372.155	8.38
372.365	5.8
372.576	2.87
372.787	-5.42
372.997	-14.1
373.208	-18.29
373.419	1.81
373.629	-22.16
373.84	-27.45
374.05	-35.98
374.261	-32.48
374.472	-43.03
374.682	-1.77
374.893	3.17
375.103	23.5
375.314	19.77
375.524	14.08
375.735	10.8
375.945	17.18
376.156	-5.74
376.366	-7.24
376.577	-2.19
376.787	-5.95
376.997	-20.53
377.208	-10.88
377.418	-17.51
377.629	-9.01
377.839	-14.93
378.049	-0.33
378.26	10.13
378.47	10.64
378.68	2.01
378.89	1.9
379.101	-4
379.311	-30.9
379.521	-42.45
379.732	-41.53
379.942	-37.88
380.152	-49.22
380.362	-20.85
380.572	-10.24
380.783	-3.95
380.993	0.76
381.203	6.28
381.413	4.11
381.623	9.98
381.833	11.32
382.043	6.25
382.253	-2.21
382.463	-2.97
382.674	-10.26
382.884	-23.6
383.094	-13.15
383.304	-5.3
383.514	-3.73
383.724	0.67
383.934	3.1
384.144	-15.98
384.353	-24.95
384.563	-21.8
384.773	-20.23
384.983	-30.01
385.193	-6.64
385.403	5.83
385.613	10.46
385.823	3.99
386.033	10.93
386.242	-0.79
386.452	-14.37
386.662	-20.6
386.872	-13.73
387.082	-19.53
387.291	-18.44
387.501	-13.54
387.711	-12.95
387.921	-13.83
388.13	-12.47
388.34	-6.77
388.55	-8.79
388.759	-8.77
388.969	-5.88
389.179	-7.13
389.388	-7.5
389.598	-0.77
389.807	-6.42
390.017	-6.09
390.227	-4.43
390.436	-7.06
390.646	-7.4
390.855	-3.01
391.065	-5.5
391.274	-5.61
391.484	-5.35
391.693	-5.1
391.903	-1.61
392.112	4.82
392.322	5.89
392.531	7.59
392.74	8.69
392.95	4.38
393.159	0.34
393.369	1.1
393.578	0.8
393.787	0.77
393.997	0.73
394.206	-0.41
394.415	-0.34
394.625	-0.4
394.834	-1.55
395.043	-0.69
395.252	1.08
395.462	2.22
395.671	2.25
395.88	2.84
396.089	3.56
396.298	1.95
396.508	0.72
396.717	0.42
396.926	1.17
397.135	0.97
397.344	1.82
397.553	2.23
397.762	3.4
397.971	3.08
398.181	3.21
398.39	2.96
398.599	3.19
398.808	3.01
399.017	3.21
399.226	3.59
399.435	4.37
399.644	4.41
399.853	3.77
400.062	3.49
400.27	3.2
400.479	2.41
400.688	1.71
400.897	1.81
401.106	1.91
401.315	2.05
401.524	2.45
401.733	3.02
401.941	3.35
402.15	3.47
402.359	3.02
402.568	3.04
402.777	3.1
402.985	3.09
403.194	2.71
403.403	3
403.612	2.67
403.82	2.35
404.029	2.48
404.238	2.71
404.446	2.84
404.655	2.75
404.864	2.79
405.072	2.39
405.281	2.43
405.489	2.29
405.698	2.48
405.906	2.56
406.115	2.55
406.324	2.42
406.532	2.55
406.741	2.66
406.949	2.61
407.158	2.7
407.366	2.67
407.574	2.59
407.783	2.61
407.991	2.42
408.2	2.45
408.408	2.32
408.617	2.21
408.825	2.08
409.033	2.3
409.242	2.43
409.45	2.72
409.658	2.68
409.867	2.77
410.075	2.67
410.283	2.5
410.491	2.37
410.7	2.38
410.908	2.41
411.116	2.55
411.324	2.52
411.533	2.45
411.741	2.61
411.949	2.46
412.157	2.32
412.365	2.35
412.573	2.46
412.781	2.39
412.99	2.38
413.198	2.56
413.406	2.71
413.614	2.61
413.822	2.5
414.03	2.47
414.238	2.29
414.446	2.29
414.654	2.23
414.862	2.36
415.07	2.53
415.278	2.74
415.486	2.52
415.694	2.57
415.902	2.51
416.109	2.35
416.317	2.2
416.525	2.12
416.733	2.12
416.941	2.26
417.149	2.29
417.357	2.26
417.564	2.44
417.772	2.62
417.98	2.41
418.188	2.4
418.395	2.51
418.603	2.59
418.811	2.32
419.019	2.31
419.226	2.53
419.434	2.52
419.642	2.36
419.849	2.46
420.057	2.48
420.265	2.38
420.472	2.31
420.68	2.34
420.887	2.24
421.095	2.31
421.302	2.21
421.51	2.24
421.717	2.37
421.925	2.45
422.132	2.38
422.34	2.22
422.547	2.33
422.755	2.17
422.962	2.14
423.17	2.12
423.377	2.26
423.585	2.15
423.792	2.16
423.999	2.16
424.207	2.05
424.414	2.16
424.621	1.93
424.829	1.83
425.036	1.81
425.243	2.02
425.451	1.81
425.658	1.85
425.865	1.98
426.072	2.04
426.28	2.07
426.487	2.12
426.694	2.29
426.901	2.15
427.108	2.1
427.315	1.99
427.523	2.11
427.73	2.01
427.937	2.07
428.144	1.94
428.351	1.84
428.558	1.81
428.765	1.81
428.972	1.76
429.179	1.91
429.386	2.24
429.593	2.14
429.8	2.1
430.007	2.25
430.214	2.26
430.421	2.1
430.628	2.04
430.835	2.05
431.042	2.16
431.249	2.29
431.456	2.2
431.662	2.36
431.869	2.48
432.076	2.42
432.283	2.43
432.49	2.42
432.697	2.41
432.903	2.2
433.11	2.18
433.317	2.18
433.524	2.32
433.73	2.31
433.937	2.54
434.144	2.38
434.35	2.35
434.557	2.16
434.764	2.06
434.97	1.93
435.177	2.07
435.384	2.04
435.59	2.21
435.797	2.45
436.003	2.49
436.21	2.55
436.416	2.52
436.623	2.49
436.829	2.46
437.036	2.55
437.242	2.56
437.449	2.53
437.655	2.57
437.862	2.63
438.068	2.51
438.275	2.56
438.481	2.67
438.687	2.62
438.894	2.45
439.1	2.48
439.307	2.51
439.513	2.37
439.719	2.4
439.926	2.55
440.132	2.5
440.338	2.39
440.544	2.59
440.751	2.53
440.957	2.54
441.163	2.56
441.369	2.6
441.575	2.41
441.782	2.51
441.988	2.44
442.194	2.44
442.4	2.42
442.606	2.73
442.812	2.72
443.018	2.81
443.224	2.84
443.431	2.93
443.637	2.65
443.843	2.58
444.049	2.54
444.255	2.54
444.461	2.53
444.667	2.62
444.873	2.77
445.079	2.75
445.284	2.84
445.49	2.72
445.696	2.61
445.902	2.44
446.108	2.39
446.314	2.32
446.52	2.36
446.726	2.61
446.931	2.72
447.137	2.76
447.343	2.82
447.549	2.71
447.755	2.56
447.96	2.52
448.166	2.46
448.372	2.37
448.578	2.53
448.783	2.53
448.989	2.55
449.195	2.74
449.4	2.8
449.606	2.74
449.812	2.65
450.017	2.64
450.223	2.54
450.428	2.47
450.634	2.48
450.84	2.61
451.045	2.63
451.251	2.61
451.456	2.79
451.662	2.88
451.867	2.99
452.073	2.96
452.278	3.01
452.483	3.02
452.689	2.99
452.894	2.88
453.1	2.95
453.305	2.87
453.51	2.84
453.716	2.77
453.921	2.79
454.127	2.67
454.332	2.69
454.537	2.62
454.742	2.59
454.948	2.56
455.153	2.67
455.358	2.73
455.563	2.89
455.769	3.01
455.974	3.06
456.179	3.06
456.384	3
456.589	2.93
456.795	2.85
457	2.83
457.205	2.94
457.41	2.91
457.615	2.88
457.82	2.89
458.025	2.85
458.23	2.74
458.435	2.77
458.64	2.7
458.845	2.85
459.05	2.95
459.255	2.96
459.46	3
459.665	3.05
459.87	2.99
460.075	2.96
460.28	2.94
460.485	2.98
460.69	2.95
460.895	2.89
461.099	2.81
461.304	2.89
461.509	2.82
461.714	2.81
461.919	2.87
462.123	2.87
462.328	2.84
462.533	2.84
462.738	2.89
462.942	2.8
463.147	2.86
