Data from Ofra_1a_PS_OCX4_Reflection_2.txt Node
Date: Tue Jul 20 10:39:20 EDT 2021
User: Adam
Spectrometer: FLMT01687
Trigger mode: 0
Integration Time (sec): 1.004000E0
Scans to average: 2
Electric dark correction enabled: true
Nonlinearity correction enabled: false
Boxcar width: 2
XAxis mode: Wavelengths
Number of Pixels in Spectrum: 3648
>>>>>Begin Spectral Data<<<<<
179.494	-184.26
179.716	-96.18
179.937	141.47
180.158	-200.64
180.38	40.63
180.601	-20.59
180.823	-37.4
181.044	-112.22
181.265	-328.64
181.486	242.65
181.708	165.26
181.929	-6190.91
182.15	24.96
182.372	639.9
182.593	425.35
182.814	-357.05
183.035	-2.37
183.257	10.06
183.478	39.74
183.699	21.98
183.92	-23.02
184.141	-72.15
184.363	-56.48
184.584	-101.18
184.805	-70.94
185.026	-5.04
185.247	-0.27
185.468	-5.2
185.689	31.38
185.91	9.77
186.132	18.24
186.353	15.99
186.574	17.37
186.795	7.22
187.016	42.7
187.237	27.89
187.458	23.17
187.679	16.69
187.9	20.58
188.121	-6.89
188.342	6.48
188.563	32.54
188.784	42.67
189.005	43.76
189.226	54.82
189.447	63
189.667	44.81
189.888	35.86
190.109	7.99
190.33	-2.18
190.551	-10.42
190.772	-10.94
190.993	-22.67
191.214	6.31
191.434	-12.88
191.655	-75.92
191.876	-36.42
192.097	-27.72
192.318	-6.11
192.538	-7.78
192.759	13.2
192.98	20.96
193.201	13.6
193.421	-1.49
193.642	9.29
193.863	11.48
194.083	0.9
194.304	16.69
194.525	33.6
194.745	12.47
194.966	13.56
195.187	17.48
195.407	-3.82
195.628	9.26
195.848	28.15
196.069	15.58
196.29	4.37
196.51	29.3
196.731	20.4
196.951	-8.88
197.172	-8.19
197.392	-27.64
197.613	-6.58
197.833	-16.37
198.054	-9.89
198.274	3
198.495	23.04
198.715	13.03
198.936	18.65
199.156	27.29
199.377	27.86
199.597	22.01
199.817	19.89
200.038	39.92
200.258	26.42
200.479	23.95
200.699	35.47
200.919	27.89
201.14	-5.86
201.36	8.12
201.58	-22.48
201.801	-48.66
202.021	-61.28
202.241	-49.27
202.461	-39.66
202.682	26.35
202.902	48.79
203.122	59.12
203.342	50.26
203.563	31.12
203.783	7.12
204.003	4.84
204.223	9.95
204.443	29.36
204.663	54.48
204.884	60.7
205.104	15.27
205.324	10.85
205.544	-14.27
205.764	-12.1
205.984	-19.08
206.204	-6.57
206.424	-3.15
206.644	-25.06
206.864	-53.24
207.084	-21.99
207.304	-40.54
207.525	-45.42
207.745	-1.68
207.964	5.87
208.184	4.73
208.404	19.84
208.624	42.28
208.844	30.03
209.064	34.12
209.284	20.4
209.504	8.16
209.724	-5.76
209.944	-13.11
210.164	-15.42
210.384	-16.29
210.604	-46.57
210.823	-65.19
211.043	-12.58
211.263	-73.96
211.483	-18.72
211.703	13.74
211.922	21.91
212.142	1.52
212.362	27.38
212.582	17.76
212.801	10.97
213.021	30.38
213.241	12.2
213.461	10.69
213.68	8.71
213.9	1.82
214.12	-30.63
214.339	-34.35
214.559	-28.91
214.779	-26.29
214.998	-9.81
215.218	9.11
215.438	19.4
215.657	5.98
215.877	-8.28
216.096	4.5
216.316	13.03
216.535	6.04
216.755	13.6
216.974	0.38
217.194	-15.02
217.413	-3.09
217.633	-18.53
217.852	-14.94
218.072	-6.63
218.291	-23.02
218.511	-43.89
218.73	-39.58
218.95	-54.92
219.169	-34.69
219.389	15.93
219.608	37.62
219.827	30.28
220.047	27.5
220.266	5.78
220.485	-31.97
220.705	-34.9
220.924	-37.44
221.143	3.92
221.363	36.26
221.582	31.9
221.801	22.21
222.021	30.7
222.24	34.83
222.459	35.78
222.678	39.82
222.897	44
223.117	48.48
223.336	49.61
223.555	32.56
223.774	61.38
223.993	44.08
224.213	26.63
224.432	17.63
224.651	25.92
224.87	13.05
225.089	17.72
225.308	21.25
225.527	7.37
225.746	4.25
225.965	9.15
226.184	-19.25
226.404	-23.77
226.623	-9.68
226.842	3.56
227.061	2.42
227.28	33.86
227.499	43.76
227.718	35.92
227.936	28.23
228.155	23.07
228.374	13.54
228.593	8.78
228.812	13.7
229.031	20.15
229.25	9.2
229.469	0.69
229.688	5.53
229.907	8.27
230.125	-5.22
230.344	1.79
230.563	16.25
230.782	16.16
231.001	13.3
231.22	27.61
231.438	33.68
231.657	22.58
231.876	23.44
232.095	18.01
232.313	-0.6
232.532	1.82
232.751	-4.09
232.969	-1.02
233.188	-4.12
233.407	9
233.625	17.82
233.844	20.96
234.063	18.11
234.281	22.59
234.5	20.42
234.719	5.39
234.937	-9.16
235.156	-5.26
235.374	-9.94
235.593	8.46
235.811	12.65
236.03	29.1
236.249	26.51
236.467	34.13
236.686	2.44
236.904	15.15
237.123	8.93
237.341	13.58
237.559	2.97
237.778	35.77
237.996	20.62
238.215	-6.97
238.433	-91.59
238.652	-23.35
238.87	-21.49
239.088	6.23
239.307	23.58
239.525	34.41
239.743	24.38
239.962	-4.62
240.18	-12.66
240.398	-17.85
240.617	-40.8
240.835	-52.07
241.053	-6.43
241.271	-0.05
241.49	-2.47
241.708	15.73
241.926	16.18
242.144	13.19
242.363	9.52
242.581	-9.46
242.799	-60.6
243.017	-49.5
243.235	-27.43
243.453	-39.11
243.672	-18.32
243.89	1.13
244.108	29.29
244.326	30.85
244.544	41.92
244.762	45.28
244.98	39.56
245.198	31.96
245.416	28.64
245.634	15.05
245.852	-18.14
246.07	7.21
246.288	7.85
246.506	17.34
246.724	11.06
246.942	32.65
247.16	28.33
247.378	19
247.596	5.33
247.814	14.14
248.032	7.68
248.25	19.11
248.468	15.03
248.685	13.29
248.903	11.42
249.121	10.43
249.339	0.8
249.557	11.96
249.775	24.88
249.992	25.26
250.21	28.66
250.428	30.32
250.646	31.59
250.863	13.9
251.081	22.44
251.299	24.11
251.517	28.63
251.734	18.28
251.952	40.67
252.17	30.65
252.387	15.45
252.605	2.43
252.823	-3.19
253.04	1.34
253.258	12.56
253.475	31.94
253.693	18.15
253.911	15.73
254.128	-3.26
254.346	7.43
254.563	18.82
254.781	38.76
254.998	43.29
255.216	30.92
255.433	-0.33
255.651	9.46
255.868	0.81
256.086	14.58
256.303	30.85
256.521	44.83
256.738	26.86
256.956	43.91
257.173	30.3
257.39	17.02
257.608	12.46
257.825	11.95
258.043	5.78
258.26	-1.68
258.477	-4.07
258.695	-11.11
258.912	-21.48
259.129	-40.13
259.346	-37.4
259.564	-23.71
259.781	-32.25
259.998	7.86
260.216	26.55
260.433	25.52
260.65	21.83
260.867	30.45
261.084	26.36
261.302	13.4
261.519	24.83
261.736	21.09
261.953	34.96
262.17	32.67
262.387	29.18
262.604	19.99
262.822	25.82
263.039	23.22
263.256	21.41
263.473	25.21
263.69	18.45
263.907	24.41
264.124	14.96
264.341	31.35
264.558	24.91
264.775	38.84
264.992	34.4
265.209	23.47
265.426	-30.64
265.643	-21.15
265.86	-50.07
266.077	-46.56
266.294	-6.4
266.51	34.19
266.727	44.89
266.944	43.3
267.161	48.02
267.378	49.89
267.595	15.09
267.812	0.83
268.028	4.95
268.245	4.54
268.462	11.93
268.679	42.52
268.896	57.97
269.112	38.57
269.329	18.97
269.546	30.25
269.763	11.06
269.979	4.11
270.196	13.28
270.413	10.86
270.629	-18.96
270.846	-6.16
271.063	-6.39
271.279	11.52
271.496	17.74
271.712	31.02
271.929	24.87
272.146	9.89
272.362	15.14
272.579	14.04
272.795	5.95
273.012	16.21
273.228	38.28
273.445	14.93
273.661	1.15
273.878	10.49
274.094	24.89
274.311	12.35
274.527	-8.54
274.744	3.63
274.96	10.75
275.177	4.62
275.393	3.89
275.609	18.58
275.826	25.66
276.042	2.14
276.259	4.66
276.475	3.97
276.691	-7.23
276.908	-13.6
277.124	9.19
277.34	-4.46
277.557	-1.68
277.773	10.97
277.989	1.04
278.205	9.42
278.422	1.79
278.638	7.59
278.854	-0.83
279.07	23.13
279.286	20.05
279.503	36.86
279.719	30.57
279.935	32.78
280.151	15.09
280.367	21.89
280.583	6.3
280.799	1.78
281.016	-21.53
281.232	-5.79
281.448	-20.91
281.664	-2.36
281.88	20.56
282.096	39.65
282.312	33.84
282.528	35.59
282.744	33.93
282.96	9.02
283.176	4.3
283.392	-36.25
283.608	-30.5
283.824	-51.25
284.04	-52.75
284.256	-42.51
284.471	-9.84
284.687	-12.86
284.903	-8.09
285.119	0.86
285.335	11.3
285.551	11.22
285.767	1.26
285.982	9.5
286.198	3.59
286.414	-15.82
286.63	-29.66
286.846	-4.49
287.061	-11.6
287.277	-15.64
287.493	-21.79
287.709	0.19
287.924	20.28
288.14	30.69
288.356	48.69
288.571	46.75
288.787	26.24
289.003	27.93
289.218	15.97
289.434	2.28
289.65	28.92
289.865	36.24
290.081	29.87
290.296	28.61
290.512	17.06
290.727	7.15
290.943	10.66
291.159	13.82
291.374	6.77
291.59	27.14
291.805	18.87
292.021	18.65
292.236	7.36
292.451	6.95
292.667	-5.15
292.882	4.21
293.098	11.65
293.313	4.56
293.529	20.67
293.744	12.35
293.959	5.4
294.175	-4.19
294.39	5.36
294.605	7.37
294.821	5.67
295.036	12.53
295.251	14.12
295.467	0.91
295.682	3.69
295.897	15.54
296.112	9.51
296.328	10.36
296.543	3.89
296.758	-9.62
296.973	-17.65
297.188	-16.95
297.404	-27.7
297.619	-16.8
297.834	-34.73
298.049	-4.92
298.264	-22.81
298.479	-33.63
298.694	2.95
298.909	17.28
299.125	12.85
299.34	26.72
299.555	27.81
299.77	33.63
299.985	25.62
300.2	25.5
300.415	16.05
300.63	18.7
300.845	2.82
301.06	-0.04
301.275	-9.54
301.49	-5.14
301.704	-3.12
301.919	-4
302.134	-0.75
302.349	-3.57
302.564	-1.65
302.779	-11.8
302.994	-3.42
303.209	-5.2
303.423	18.97
303.638	26.28
303.853	23.32
304.068	24.48
304.283	32.31
304.497	14.9
304.712	17.54
304.927	23.57
305.142	26.67
305.356	32.32
305.571	33.39
305.786	24.66
306	41.87
306.215	42.13
306.43	32.74
306.644	29.6
306.859	27.38
307.074	24.26
307.288	25.64
307.503	36.55
307.717	28.46
307.932	38.1
308.147	25.23
308.361	21.28
308.576	-2.36
308.79	10.82
309.005	-10.69
309.219	14.52
309.434	21.62
309.648	18.18
309.863	15.08
310.077	27.14
310.292	14.9
310.506	-9.19
310.72	-5.77
310.935	10.83
311.149	11.16
311.364	30.79
311.578	49.52
311.792	58.77
312.007	52.59
312.221	48.64
312.435	24.8
312.649	12.26
312.864	14.94
313.078	13.78
313.292	21.75
313.507	21.84
313.721	15.39
313.935	14.61
314.149	19.78
314.363	11.42
314.578	2.85
314.792	4.12
315.006	-11.4
315.22	1.5
315.434	6.41
315.648	6.61
315.862	19.11
316.077	5.38
316.291	3.65
316.505	-8.15
316.719	-5.96
316.933	-16.99
317.147	6.05
317.361	7.65
317.575	10.45
317.789	19.64
318.003	14.47
318.217	7.73
318.431	-6.34
318.645	-5.97
318.859	-1.69
319.073	17.15
319.287	22.59
319.5	31.12
319.714	28.47
319.928	26.19
320.142	18.51
320.356	19.7
320.57	3.65
320.784	2.79
320.997	-14.61
321.211	7.81
321.425	-6.32
321.639	9.73
321.853	30.59
322.066	29.63
322.28	21.55
322.494	29.72
322.707	31.68
322.921	20.14
323.135	41.32
323.349	34.9
323.562	34.77
323.776	35.55
323.989	44.12
324.203	21.33
324.417	31.49
324.63	26.43
324.844	-2.91
325.057	-21.33
325.271	-19.69
325.485	-27.62
325.698	-11.97
325.912	21.83
326.125	13.31
326.339	24.71
326.552	7.22
326.766	4.61
326.979	-10.73
327.193	-12.43
327.406	-29.15
327.619	-13.55
327.833	-26.48
328.046	-13.99
328.26	-14.38
328.473	1.19
328.686	-3.6
328.9	22.44
329.113	12.63
329.326	15.44
329.54	18.48
329.753	21.45
329.966	7.09
330.179	4.06
330.393	10.84
330.606	2.97
330.819	-11.53
331.032	-14.41
331.246	-2.21
331.459	-4.97
331.672	-20.58
331.885	-11.55
332.098	-3.78
332.311	-9.94
332.525	-10.45
332.738	4.06
332.951	1.97
333.164	8.47
333.377	20.33
333.59	21.04
333.803	23.68
334.016	31.48
334.229	20.67
334.442	8.09
334.655	2.37
334.868	-9.52
335.081	-11.44
335.294	-8.97
335.507	7.26
335.72	22.87
335.933	37.54
336.146	32.75
336.359	23.95
336.572	18.44
336.785	15.58
336.997	4.13
337.21	13.26
337.423	11.85
337.636	6.83
337.849	-6.56
338.062	-8.67
338.274	1.1
338.487	-18.01
338.7	-33.26
338.913	-18.88
339.125	-20.12
339.338	-27.87
339.551	-13.48
339.763	-6.51
339.976	-9.5
340.189	-2.75
340.402	-2.55
340.614	11.32
340.827	13.52
341.039	14.24
341.252	2.37
341.465	-4.67
341.677	-5.32
341.89	11.29
342.102	19.02
342.315	43.04
342.527	42.68
342.74	36.47
342.952	13.71
343.165	-0.41
343.377	1.4
343.59	5.59
343.802	-2.93
344.015	11.2
344.227	15.35
344.44	1.93
344.652	4.39
344.864	5.71
345.077	15.2
345.289	25.68
345.502	30.28
345.714	23.72
345.926	31.26
346.139	7.38
346.351	-0.8
346.563	1.26
346.775	18.15
346.988	32.48
347.2	43.85
347.412	45.31
347.624	33.2
347.837	32.25
348.049	19.99
348.261	7.17
348.473	-6.33
348.685	-0.37
348.897	-4.75
349.11	9.04
349.322	20.28
349.534	30.75
349.746	20.42
349.958	1.18
350.17	-24.16
350.382	-23.09
350.594	-21.43
350.806	-0.19
351.018	11.24
351.23	23.43
351.442	31.75
351.654	25.1
351.866	18.77
352.078	30.88
352.29	22.34
352.502	19.87
352.714	34.86
352.926	22.11
353.138	19.87
353.35	17.4
353.561	14.44
353.773	3.73
353.985	7.24
354.197	7.06
354.409	13.28
354.621	-5.1
354.832	-3.07
355.044	-13.76
355.256	-18.94
355.468	-36.05
355.679	4.05
355.891	13.86
356.103	14.31
356.314	9.85
356.526	10.46
356.738	-2.01
356.949	-2.38
357.161	18.47
357.373	12.73
357.584	24.39
357.796	26.03
358.008	22.87
358.219	20.86
358.431	15.9
358.642	4.4
358.854	8.38
359.065	3.9
359.277	-4.37
359.488	5.07
359.7	9.06
359.911	-11.59
360.123	5.6
360.334	-2.39
360.546	-4.52
360.757	5.16
360.969	23.06
361.18	14.88
361.391	30.85
361.603	39.9
361.814	30.08
362.025	28.57
362.237	30.97
362.448	25.24
362.659	21.18
362.871	14.72
363.082	12.11
363.293	7.17
363.504	-11.6
363.716	-10.72
363.927	10.2
364.138	-12.62
364.349	-17.72
364.56	-5.67
364.772	-5.93
364.983	-2.97
365.194	2.88
365.405	0.28
365.616	10.72
365.827	4.51
366.038	5.71
366.25	24.56
366.461	34.47
366.672	23.28
366.883	13.87
367.094	-0.04
367.305	-21.81
367.516	-30.74
367.727	-29.4
367.938	-10.95
368.149	-14.21
368.36	-15.14
368.571	-17.82
368.781	2.51
368.992	-8.42
369.203	-4.75
369.414	-1.14
369.625	-2.44
369.836	2.52
370.047	8.13
370.258	18.87
370.468	12.53
370.679	13.89
370.89	-1.2
371.101	8.22
371.312	-0.33
371.522	8.16
371.733	10.69
371.944	-4.81
372.155	-4.47
372.365	3.45
372.576	-1.11
372.787	7.66
372.997	16.04
373.208	5.26
373.419	-3.65
373.629	-7.87
373.84	-17.59
374.05	-17.48
374.261	-17.46
374.472	-3.99
374.682	9.35
374.893	-1.14
375.103	11.19
375.314	21.28
375.524	9.6
375.735	8.54
375.945	20.02
376.156	11.69
376.366	-0.64
376.577	8.82
376.787	7.19
376.997	4.9
377.208	9.59
377.418	15.03
377.629	11.77
377.839	18.23
378.049	14.87
378.26	11.45
378.47	4.17
378.68	1.53
378.89	-6.88
379.101	-4.66
379.311	0.08
379.521	-4.86
379.732	2.09
379.942	3.89
380.152	1.94
380.362	-1.09
380.572	17.27
380.783	18.55
380.993	17.68
381.203	18.3
381.413	17.69
381.623	14.8
381.833	14.8
382.043	10.11
382.253	6.16
382.463	15.14
382.674	10.66
382.884	11.01
383.094	12.98
383.304	19.71
383.514	15.4
383.724	9.51
383.934	2.12
384.144	10.79
384.353	10.22
384.563	14.06
384.773	22.52
384.983	18.77
385.193	10.82
385.403	4.55
385.613	1.68
385.823	-5.18
386.033	-1.87
386.242	-5.87
386.452	-3.71
386.662	-3.72
386.872	-4.02
387.082	-8.62
387.291	-3.53
387.501	-0.13
387.711	-0.85
387.921	1.56
388.13	10.74
388.34	10.34
388.55	5.39
388.759	2.19
388.969	0.83
389.179	-3.63
389.388	-1.89
389.598	-2.58
389.807	-2.86
390.017	-2.03
390.227	-4.13
390.436	-0.44
390.646	2.24
390.855	4.13
391.065	3.3
391.274	3.95
391.484	0.22
391.693	-2.53
391.903	-2.89
392.112	-1.99
392.322	-1.46
392.531	-1.82
392.74	-0.99
392.95	0.35
393.159	1.78
393.369	2.25
393.578	2.01
393.787	1.53
393.997	0.68
394.206	-1.98
394.415	-0.09
394.625	0.6
394.834	0.97
395.043	1.04
395.252	4.03
395.462	2.71
395.671	2.23
395.88	3.84
396.089	3.23
396.298	1.89
396.508	1.98
396.717	1.88
396.926	0.38
397.135	0.87
397.344	0.53
397.553	0.67
397.762	1.91
397.971	2.19
398.181	2.1
398.39	2.73
398.599	2.75
398.808	2.64
399.017	3.15
399.226	3.48
399.435	3.14
399.644	3.3
399.853	3.07
400.062	2.73
400.27	2.56
400.479	2.86
400.688	2.89
400.897	2.67
401.106	2.88
401.315	2.88
401.524	2.92
401.733	2.52
401.941	3.05
402.15	2.69
402.359	2.84
402.568	2.7
402.777	3.05
402.985	2.21
403.194	2.41
403.403	2.45
403.612	2.26
403.82	1.99
404.029	2.42
404.238	2.45
404.446	2.45
404.655	2.64
404.864	2.73
405.072	2.64
405.281	2.57
405.489	2.41
405.698	2.37
405.906	2.41
406.115	2.31
406.324	2.5
406.532	2.58
406.741	2.56
406.949	2.48
407.158	2.65
407.366	2.34
407.574	2.39
407.783	2.38
407.991	2.39
408.2	2.44
408.408	2.59
408.617	2.58
408.825	2.57
409.033	2.63
409.242	2.58
409.45	2.54
409.658	2.41
409.867	2.37
410.075	2.46
410.283	2.3
410.491	2.21
410.7	2.25
410.908	2.45
411.116	2.27
411.324	2.3
411.533	2.3
411.741	2.22
411.949	1.96
412.157	1.93
412.365	2.12
412.573	2.15
412.781	2.14
412.99	2.29
413.198	2.44
413.406	2.43
413.614	2.46
413.822	2.63
414.03	2.6
414.238	2.61
414.446	2.56
414.654	2.53
414.862	2.4
415.07	2.18
415.278	2.22
415.486	1.95
415.694	2.01
415.902	2
416.109	2.15
416.317	2.12
416.525	2.22
416.733	2.25
416.941	2.29
417.149	2.28
417.357	2.29
417.564	2.35
417.772	2.37
417.98	2.35
418.188	2.26
418.395	1.86
418.603	1.75
418.811	1.69
419.019	1.66
419.226	1.78
419.434	2.14
419.642	2.1
419.849	1.99
420.057	2.08
420.265	2
420.472	1.87
420.68	1.92
420.887	1.99
421.095	2.18
421.302	2.3
421.51	2.18
421.717	2.18
421.925	2.19
422.132	2.01
422.34	1.73
422.547	1.76
422.755	1.76
422.962	1.88
423.17	1.75
423.377	1.97
423.585	2.21
423.792	2.21
423.999	2.07
424.207	2.02
424.414	1.92
424.621	1.87
424.829	2.07
425.036	2.12
425.243	2.26
425.451	2.2
425.658	2.16
425.865	2.02
426.072	1.93
426.28	1.97
426.487	2.09
426.694	2.01
426.901	2.07
427.108	2.03
427.315	1.87
427.523	1.82
427.73	1.88
427.937	1.76
428.144	1.75
428.351	1.73
428.558	1.83
428.765	1.74
428.972	1.9
429.179	1.87
429.386	2.09
429.593	1.95
429.8	2.09
430.007	2.09
430.214	2.14
430.421	2.14
430.628	2.17
430.835	2.12
431.042	1.96
431.249	2.04
431.456	1.91
431.662	1.94
431.869	1.99
432.076	2.08
432.283	2.18
432.49	2.24
432.697	2.29
432.903	2.25
433.11	2.36
433.317	2.25
433.524	2.21
433.73	2.16
433.937	2.3
434.144	2.23
434.35	2.13
434.557	2.06
434.764	2.08
434.97	1.78
435.177	1.83
435.384	2
435.59	2.16
435.797	2.24
436.003	2.48
436.21	2.33
436.416	2.22
436.623	2.19
436.829	2.02
437.036	1.93
437.242	2.09
437.449	2.12
437.655	2.15
437.862	2.25
438.068	2.21
438.275	2.24
438.481	2.39
438.687	2.31
438.894	2.43
439.1	2.4
439.307	2.44
439.513	2.38
439.719	2.48
439.926	2.4
440.132	2.47
440.338	2.46
440.544	2.41
440.751	2.33
440.957	2.31
441.163	2.29
441.369	2.25
441.575	2.16
441.782	2.21
441.988	2.24
442.194	2.25
442.4	2.2
442.606	2.41
442.812	2.47
443.018	2.46
443.224	2.62
443.431	2.6
443.637	2.45
443.843	2.46
444.049	2.56
444.255	2.52
444.461	2.55
444.667	2.6
444.873	2.56
445.079	2.49
445.284	2.46
445.49	2.43
445.696	2.36
445.902	2.36
446.108	2.38
446.314	2.43
446.52	2.53
446.726	2.66
446.931	2.57
447.137	2.52
447.343	2.57
447.549	2.57
447.755	2.5
447.96	2.6
448.166	2.64
448.372	2.54
448.578	2.47
448.783	2.55
448.989	2.55
449.195	2.51
449.4	2.62
449.606	2.61
449.812	2.51
450.017	2.52
450.223	2.56
450.428	2.5
450.634	2.5
450.84	2.57
451.045	2.57
451.251	2.59
451.456	2.59
451.662	2.7
451.867	2.67
452.073	2.72
452.278	2.67
452.483	2.68
452.689	2.49
452.894	2.48
453.1	2.43
453.305	2.53
453.51	2.54
453.716	2.6
453.921	2.67
454.127	2.61
454.332	2.54
454.537	2.41
454.742	2.45
454.948	2.41
455.153	2.57
455.358	2.6
455.563	2.74
455.769	2.76
455.974	2.74
456.179	2.6
456.384	2.56
456.589	2.39
456.795	2.43
457	2.45
457.205	2.44
457.41	2.45
457.615	2.53
457.82	2.55
458.025	2.56
458.23	2.63
458.435	2.65
458.64	2.64
458.845	2.61
459.05	2.61
459.255	2.6
459.46	2.57
459.665	2.62
459.87	2.57
460.075	2.6
460.28	2.61
460.485	2.72
460.69	2.73
460.895	2.8
461.099	2.69
461.304	2.61
461.509	2.63
461.714	2.66
461.919	2.54
462.123	2.63
462.328	2.59
462.533	2.47
462.738	2.39
462.942	2.42
463.147	2.38
463.352	2.46
463.556	2.54
463.761	2.53
463.966	2.57
464.17	2.65
464.375	2.79
464.58	2.72
464.784	2.75
464.989	2.78
465.193	2.68
465.398	2.62
465.602	2.75
465.807	2.84
466.011	2.81
466.216	2.87
466.42	2.88
466.625	2.88
466.829	2.86
467.034	2.93
467.238	2.99
467.443	2.91
467.647	2.9
467.851	2.94
468.056	2.93
468.26	3.01
