Data from Ofra_2a_PS_OCX5J_Reflection_1.txt Node
Date: Tue Jul 20 09:26:42 EDT 2021
User: Adam
Spectrometer: FLMT01687
Trigger mode: 0
Integration Time (sec): 9.450000E-1
Scans to average: 3
Electric dark correction enabled: true
Nonlinearity correction enabled: false
Boxcar width: 3
XAxis mode: Wavelengths
Number of Pixels in Spectrum: 3648
>>>>>Begin Spectral Data<<<<<
179.494	579.29
179.716	459.95
179.937	521.43
180.158	2135.55
180.38	-957.85
180.601	-281.69
180.823	-84.32
181.044	-78.39
181.265	-84.09
181.486	0.29
181.708	-477.17
181.929	-85.93
182.15	-44.89
182.372	123.01
182.593	129.02
182.814	63.62
183.035	-16.84
183.257	-1.68
183.478	-22.05
183.699	-28.09
183.92	-15.94
184.141	-15.56
184.363	-28.32
184.584	-26.29
184.805	-9.44
185.026	-35.29
185.247	-42.52
185.468	-31.37
185.689	-13.44
185.91	-16.82
186.132	-14.04
186.353	-55.85
186.574	-35.42
186.795	-45.44
187.016	-52.79
187.237	-54.32
187.458	-55.41
187.679	-79.54
187.9	-30.18
188.121	-18.59
188.342	3.65
188.563	2.77
188.784	-7.12
189.005	-9.28
189.226	8.48
189.447	0.69
189.667	3.86
189.888	11.21
190.109	6.84
190.33	6.79
190.551	1.29
190.772	-7.28
190.993	11.29
191.214	-2.99
191.434	-19.63
191.655	-3.15
191.876	-2.29
192.097	5.04
192.318	10.92
192.538	-1.39
192.759	5.52
192.98	3.3
193.201	-0.06
193.421	6.08
193.642	10.53
193.863	-0.09
194.083	-12.56
194.304	-37.51
194.525	-0.29
194.745	-3.85
194.966	-3.53
195.187	-4.44
195.407	-0.44
195.628	3.56
195.848	21.23
196.069	3.73
196.29	-12.15
196.51	-20.61
196.731	-13.64
196.951	-19.47
197.172	-37.22
197.392	-13.11
197.613	-15.19
197.833	-5.28
198.054	-12.37
198.274	-37.99
198.495	-46.47
198.715	-30.92
198.936	-59.34
199.156	-37.53
199.377	-37.43
199.597	-39.65
199.817	-28.92
200.038	-24.93
200.258	-35.79
200.479	-21.83
200.699	-24.09
200.919	-26.62
201.14	-18.77
201.36	-30.78
201.58	-19.58
201.801	-16.59
202.021	-13.01
202.241	-15.46
202.461	-18.44
202.682	-21.37
202.902	-9.17
203.122	-8.06
203.342	9.95
203.563	4.63
203.783	5.52
204.003	13.72
204.223	23.41
204.443	26.3
204.663	27.32
204.884	6.16
205.104	2.03
205.324	13.87
205.544	15.21
205.764	8.63
205.984	6.84
206.204	-9.11
206.424	4.47
206.644	-7.73
206.864	-17.57
207.084	-2.21
207.304	-10.29
207.525	-18
207.745	-18.89
207.964	-19.95
208.184	-0.89
208.404	-4.04
208.624	-38.86
208.844	-40.87
209.064	-9.05
209.284	-2.88
209.504	-6.11
209.724	-46.01
209.944	-41.36
210.164	-30.44
210.384	-14.79
210.604	-52.12
210.823	-32.17
211.043	-41.5
211.263	-8.26
211.483	-5.53
211.703	11.24
211.922	7.83
212.142	11.82
212.362	13.22
212.582	10.78
212.801	5.34
213.021	1.24
213.241	-10.09
213.461	-20.79
213.68	-22.32
213.9	-26.15
214.12	-24.64
214.339	-8.88
214.559	0.33
214.779	-0.74
214.998	7.77
215.218	1.93
215.438	2.09
215.657	13.25
215.877	0.77
216.096	-0.44
216.316	-5.78
216.535	-7.55
216.755	-18.16
216.974	-30.34
217.194	-37.98
217.413	-14.08
217.633	-21.63
217.852	-18.42
218.072	-40.45
218.291	3.34
218.511	15.43
218.73	16.7
218.95	0.16
219.169	2.8
219.389	0.87
219.608	28.34
219.827	25.91
220.047	32.91
220.266	22.54
220.485	22.66
220.705	12.63
220.924	12.9
221.143	-1.01
221.363	-16.9
221.582	-20.16
221.801	-17.89
222.021	-13.9
222.24	-13.33
222.459	-18.85
222.678	-45.05
222.897	-47.21
223.117	-50.03
223.336	-45.4
223.555	-61.34
223.774	-52.47
223.993	-38.1
224.213	-18.06
224.432	-6.02
224.651	-3.96
224.87	-9.43
225.089	12.59
225.308	5.8
225.527	4.05
225.746	6.49
225.965	-4.61
226.184	-1.52
226.404	-9.18
226.623	-11.73
226.842	-12.61
227.061	-15.77
227.28	-10.31
227.499	10.69
227.718	8.96
227.936	4.96
228.155	7.57
228.374	11.57
228.593	12.19
228.812	-5.66
229.031	-24.54
229.25	-19.38
229.469	-5.35
229.688	-7.25
229.907	-17.59
230.125	-9.69
230.344	8.34
230.563	21.89
230.782	15.09
231.001	21.74
231.22	17.87
231.438	21.76
231.657	15.59
231.876	15.42
232.095	10.88
232.313	10.56
232.532	5.18
232.751	5.55
232.969	9.05
233.188	11.23
233.407	1.48
233.625	-3.74
233.844	3.74
234.063	6.11
234.281	-0.72
234.5	-0.88
234.719	-3.67
234.937	-4.21
235.156	-7.9
235.374	-22.05
235.593	-29.73
235.811	-43.94
236.03	-39.96
236.249	-24.53
236.467	-21.3
236.686	-13.38
236.904	-3.1
237.123	3.92
237.341	20.34
237.559	12.56
237.778	20.13
237.996	17.14
238.215	19.66
238.433	22.25
238.652	20.95
238.87	11.79
239.088	4.42
239.307	-0.91
239.525	-1.25
239.743	-8.64
239.962	-4.64
240.18	-7.97
240.398	-4.92
240.617	9.68
240.835	3.83
241.053	9.96
241.271	14.57
241.49	1.04
241.708	-1.05
241.926	-20.24
242.144	-24.69
242.363	-26.19
242.581	-28.19
242.799	-30.91
243.017	-13.16
243.235	-20.15
243.453	-5.73
243.672	-14.8
243.89	1.94
244.108	1
244.326	-5.01
244.544	-14.94
244.762	-8.58
244.98	-2.84
245.198	-11.7
245.416	-19.29
245.634	-3.05
245.852	1.51
246.07	-5.16
246.288	-3.87
246.506	-0.64
246.724	17.61
246.942	16.19
247.16	6.08
247.378	-5.49
247.596	5.22
247.814	3.55
248.032	1.4
248.25	-11.38
248.468	-13.64
248.685	-17.97
248.903	-17.26
249.121	-21.1
249.339	-17.23
249.557	-14.56
249.775	-16.42
249.992	-4.68
250.21	-16.84
250.428	-7.99
250.646	-15.22
250.863	-16.16
251.081	-31.9
251.299	-17.37
251.517	-32.05
251.734	-13.77
251.952	-9.6
252.17	-21.75
252.387	-10.37
252.605	4.18
252.823	-10.68
253.04	-24.03
253.258	-19.48
253.475	-25.48
253.693	-3.23
253.911	-15.33
254.128	-15.47
254.346	-12.45
254.563	-11.3
254.781	-13.44
254.998	-7.47
255.216	-6.06
255.433	-3.86
255.651	-8.57
255.868	2.05
256.086	10.76
256.303	3.72
256.521	-17
256.738	-26.43
256.956	-35.08
257.173	-20.02
257.39	-21.58
257.608	-28.47
257.825	-21.54
258.043	0.59
258.26	-5.02
258.477	7.15
258.695	5.72
258.912	7.04
259.129	12.6
259.346	8.54
259.564	-6.76
259.781	9.02
259.998	-0.06
260.216	7.82
260.433	4.29
260.65	2.57
260.867	-13.43
261.084	-4.99
261.302	-20.42
261.519	-28.16
261.736	-46.27
261.953	-45.34
262.17	-35.16
262.387	-28.01
262.604	-49.46
262.822	-36.69
263.039	-32.83
263.256	-29.15
263.473	-29
263.69	-39.16
263.907	-41.02
264.124	-37.86
264.341	-27.18
264.558	-18.26
264.775	-13.14
264.992	-10.03
265.209	4.49
265.426	9.53
265.643	18.31
265.86	1.37
266.077	-2.1
266.294	-2.63
266.51	0.64
266.727	-18.96
266.944	-32.6
267.161	-40.64
267.378	-32.21
267.595	-38.62
267.812	-47.5
268.028	-45.13
268.245	-23.13
268.462	-17.16
268.679	-7.89
268.896	-7.28
269.112	2.56
269.329	11.07
269.546	-0.37
269.763	-7.99
269.979	-9.21
270.196	-13.88
270.413	-17.6
270.629	-20.96
270.846	-13.23
271.063	-3.89
271.279	2.41
271.496	-2.9
271.712	3.82
271.929	14.75
272.146	26.85
272.362	7.52
272.579	-4.61
272.795	-17.4
273.012	-8.14
273.228	-11.57
273.445	-17.63
273.661	-24.89
273.878	-9.37
274.094	-3.45
274.311	2.56
274.527	-10.63
274.744	-13.91
274.96	-9.58
275.177	-6.64
275.393	-12.76
275.609	-16.38
275.826	-15.5
276.042	8.47
276.259	5.64
276.475	-4.88
276.691	-5.65
276.908	-3.85
277.124	-1.93
277.34	-1.98
277.557	-10.44
277.773	-13.07
277.989	-11.63
278.205	-23.13
278.422	-23.22
278.638	-21.22
278.854	-34.64
279.07	-38.18
279.286	-29.41
279.503	-32.74
279.719	-14.5
279.935	-25.5
280.151	-14.7
280.367	0.51
280.583	2.58
280.799	5.15
281.016	12.4
281.232	5.73
281.448	5.84
281.664	-15.54
281.88	-12.96
282.096	-8.11
282.312	-27.67
282.528	-41.3
282.744	-39.84
282.96	-21.17
283.176	-5.4
283.392	-0.25
283.608	6.99
283.824	8.85
284.04	10.89
284.256	15.21
284.471	14.95
284.687	10.81
284.903	-2.73
285.119	-21.01
285.335	-11.87
285.551	-9.06
285.767	-13.76
285.982	-20.31
286.198	-20.91
286.414	-8.51
286.63	1.99
286.846	1.92
287.061	2.75
287.277	0.41
287.493	4.31
287.709	5.37
287.924	-0.38
288.14	-0.62
288.356	2.62
288.571	-6.03
288.787	-5.3
289.003	-2.01
289.218	-10.08
289.434	2.74
289.65	3.79
289.865	4.77
290.081	5.64
290.296	7.16
290.512	6.32
290.727	16.76
290.943	8.62
291.159	-0.97
291.374	-0.64
291.59	-3.3
291.805	-6.53
292.021	-23.08
292.236	-20.66
292.451	-11.35
292.667	14.58
292.882	6.41
293.098	14
293.313	13.49
293.529	18.68
293.744	19.91
293.959	15.88
294.175	-6.43
294.39	-11.31
294.605	-11.15
294.821	-9.71
295.036	-6.2
295.251	-18.59
295.467	-27.63
295.682	-17.23
295.897	-6.91
296.112	-7.47
296.328	-5.23
296.543	-10.72
296.758	-8.99
296.973	-4.93
297.188	-7.68
297.404	-9.39
297.619	-22.86
297.834	-17.75
298.049	-14.35
298.264	-12.31
298.479	-19.9
298.694	-15.31
298.909	-11.63
299.125	1.45
299.34	-4.42
299.555	-1.39
299.77	-2.93
299.985	-2.84
300.2	-4.22
300.415	-5.07
300.63	-9.32
300.845	-3.39
301.06	-4.42
301.275	1.09
301.49	10.39
301.704	9.11
301.919	4.18
302.134	-5.59
302.349	-15.84
302.564	-28.39
302.779	-41.24
302.994	-57.93
303.209	-73.02
303.423	-63.92
303.638	-53.2
303.853	-34.96
304.068	-19.54
304.283	-15.67
304.497	-9.88
304.712	1.58
304.927	2.67
305.142	-5.26
305.356	-6.96
305.571	-2.8
305.786	0.89
306	-3.42
306.215	-7.28
306.43	-4.16
306.644	2.22
306.859	-3.75
307.074	-10.87
307.288	-10.86
307.503	-2.6
307.717	-5.64
307.932	-9.67
308.147	-9.58
308.361	-1.48
308.576	3.75
308.79	4.8
309.005	4.45
309.219	8.52
309.434	4.43
309.648	-6.65
309.863	-11.03
310.077	-12.26
310.292	-9.39
310.506	4.24
310.72	-0.3
310.935	9.23
311.149	21.94
311.364	25.34
311.578	22.8
311.792	13.91
312.007	5.06
312.221	4.79
312.435	2.72
312.649	-44.45
312.864	-56.71
313.078	-49.87
313.292	-41.78
313.507	-40.97
313.721	-42.47
313.935	-34.21
314.149	4.33
314.363	10.59
314.578	10.99
314.792	2.08
315.006	0.42
315.22	3.01
315.434	-7.77
315.648	-5.57
315.862	1.76
316.077	-3.25
316.291	6.43
316.505	4.21
316.719	-10.5
316.933	-2.39
317.147	-2.77
317.361	-15.66
317.575	-16
317.789	-13.05
318.003	-8.08
318.217	-3.34
318.431	-4.96
318.645	-1.52
318.859	-12.32
319.073	-3.76
319.287	-3.03
319.5	-5.17
319.714	-0.67
319.928	3.58
320.142	0.17
320.356	19.41
320.57	9.95
320.784	7.02
320.997	12.71
321.211	12.15
321.425	9.26
321.639	9.76
321.853	0.03
322.066	0.43
322.28	-0.18
322.494	-8.21
322.707	-10.11
322.921	-14.46
323.135	-16.57
323.349	-15.29
323.562	-17.46
323.776	-12.28
323.989	-7.97
324.203	-4.7
324.417	-6.55
324.63	-8.37
324.844	-16.93
325.057	-8.7
325.271	-31.28
325.485	-28.39
325.698	-30.11
325.912	-14.68
326.125	-13.5
326.339	-0.64
326.552	-6.57
326.766	4.44
326.979	3.19
327.193	-1.67
327.406	-13.42
327.619	-28.77
327.833	-32.51
328.046	-19.16
328.26	-26.27
328.473	-25.23
328.686	-18.96
328.9	-27.89
329.113	-15.67
329.326	-13.24
329.54	-22.62
329.753	-14.13
329.966	-12.64
330.179	-14.71
330.393	1.73
330.606	4.48
330.819	4.22
331.032	2.77
331.246	-0.88
331.459	0.48
331.672	0.1
331.885	-2.42
332.098	-3.7
332.311	-13.32
332.525	-2.78
332.738	-3.3
332.951	-9.48
333.164	-11.93
333.377	-23.25
333.59	-19.89
333.803	-8.52
334.016	-18.61
334.229	-7.72
334.442	6.42
334.655	7.75
334.868	10.88
335.081	13.79
335.294	4.63
335.507	6.23
335.72	-7.6
335.933	-8.51
336.146	-7.4
336.359	-5.47
336.572	-14.53
336.785	-4.29
336.997	-4.43
337.21	7.9
337.423	-3.31
337.636	2.21
337.849	-3.19
338.062	-0.86
338.274	-4.65
338.487	-4.92
338.7	-6.94
338.913	-8.92
339.125	-10.55
339.338	3
339.551	3.8
339.763	5.24
339.976	4.9
340.189	-0.29
340.402	5.89
340.614	7.09
340.827	-9.8
341.039	-12.9
341.252	-17.05
341.465	-19.2
341.677	-14.75
341.89	-13.74
342.102	-7.72
342.315	4.81
342.527	4.91
342.74	3.21
342.952	7.42
343.165	10.13
343.377	14.34
343.59	13
343.802	10.94
344.015	19.46
344.227	10.37
344.44	6.8
344.652	-3.64
344.864	-4.83
345.077	-15.08
345.289	-14.21
345.502	-26.66
345.714	-19.59
345.926	-25.82
346.139	-16.88
346.351	-38.67
346.563	-27.63
346.775	-38.21
346.988	-30.77
347.2	-15.77
347.412	-11.24
347.624	-10.12
347.837	-5.53
348.049	-11.93
348.261	-10.38
348.473	-17.34
348.685	-16.41
348.897	-18.26
349.11	-16.97
349.322	-15.14
349.534	-20.67
349.746	-14.77
349.958	-4.13
350.17	-19.74
350.382	-16.34
350.594	-18.59
350.806	-13.05
351.018	-2.75
351.23	4.54
351.442	1.4
351.654	9.75
351.866	14.01
352.078	12.92
352.29	14.25
352.502	13.98
352.714	6.54
352.926	2.71
353.138	-0.18
353.35	-16.45
353.561	-16.12
353.773	-10.73
353.985	-6.78
354.197	-5.6
354.409	-5.6
354.621	-2.61
354.832	-3.29
355.044	-2.01
355.256	-16.01
355.468	-28.34
355.679	-19.6
355.891	-15.47
356.103	-16.97
356.314	-9.59
356.526	-10.46
356.738	-16.59
356.949	-14.96
357.161	-25.65
357.373	-25.73
357.584	-16.74
357.796	-12.1
358.008	-5.2
358.219	11.25
358.431	11.4
358.642	13.31
358.854	16.4
359.065	8.45
359.277	-1.48
359.488	-6.61
359.7	-2.87
359.911	0.17
360.123	2.11
360.334	2.72
360.546	-5.47
360.757	0.02
360.969	6.76
361.18	-1.82
361.391	-1.8
361.603	-10.35
361.814	-7.81
362.025	-1.32
362.237	2.06
362.448	-4.65
362.659	-21.09
362.871	-18.59
363.082	-1.29
363.293	-4.81
363.504	-6.29
363.716	-2.74
363.927	-3.41
364.138	12.32
364.349	15.2
364.56	6.32
364.772	5.3
364.983	2.05
365.194	-4.18
365.405	-3.16
365.616	-13.11
365.827	-15.6
366.038	-8.38
366.25	1.93
366.461	9.02
366.672	9.15
366.883	17.77
367.094	15.21
367.305	17.81
367.516	10.85
367.727	4.12
367.938	1.24
368.149	0.58
368.36	-5.34
368.571	3.8
368.781	-0.31
368.992	2.31
369.203	0.02
369.414	-2.08
369.625	1.36
369.836	4.57
370.047	1.33
370.258	-3.09
370.468	-7.77
370.679	-12.88
370.89	-5.9
371.101	-9.25
371.312	-20.21
371.522	-20.35
371.733	-26.89
371.944	-22.59
372.155	-22.82
372.365	-26.5
372.576	-22.77
372.787	-21.94
372.997	-22.75
373.208	-13.16
373.419	-6.67
373.629	-2.37
373.84	-10.62
374.05	-12.86
374.261	-9.23
374.472	-9.75
374.682	-14.84
374.893	-22.7
375.103	-18.78
375.314	-13.47
375.524	-8.83
375.735	-6.46
375.945	-3.74
376.156	0.7
376.366	0.13
376.577	-3.59
376.787	-3.51
376.997	-8.9
377.208	-5.04
377.418	-10.08
377.629	-11.76
377.839	-5.69
378.049	5.28
378.26	8.67
378.47	9.26
378.68	2.79
378.89	-1
379.101	-5.77
379.311	-12.55
379.521	-13.36
379.732	-19.86
379.942	-17.48
380.152	-8.75
380.362	-1.3
380.572	5.1
380.783	6.83
380.993	5.65
381.203	3.64
381.413	2.71
381.623	-1.1
381.833	-2.32
382.043	-9.62
382.253	-9.15
382.463	-8.29
382.674	-0.83
382.884	-4.14
383.094	-4.4
383.304	-4.74
383.514	0.55
383.724	0.93
383.934	0.25
384.144	1.42
384.353	4.23
384.563	-0.47
384.773	-1.42
384.983	-1.27
385.193	2.29
385.403	-0.62
385.613	-8.51
385.823	-10.87
386.033	-9.6
386.242	-9.38
386.452	-9.87
386.662	-11.06
386.872	-13.68
387.082	-6.94
387.291	-5.77
387.501	-1.19
387.711	-0.13
387.921	0.49
388.13	-1.79
388.34	-0.96
388.55	-0.56
388.759	-1.31
388.969	-4.35
389.179	-2.27
389.388	-1.2
389.598	-0.48
389.807	0.11
390.017	-0.76
390.227	0.29
390.436	0.54
390.646	-0.13
390.855	-0.46
391.065	-0.13
391.274	0.7
391.484	1.73
391.693	1.64
391.903	0.81
392.112	0.6
392.322	2.97
392.531	3.06
392.74	1.82
392.95	1.27
393.159	1.86
393.369	2.79
393.578	2.53
393.787	1.15
393.997	2.57
394.206	3.16
394.415	3.05
394.625	2.22
394.834	1.78
395.043	1.79
395.252	2.19
395.462	0.8
395.671	1.2
395.88	1.37
396.089	1.42
396.298	1.45
396.508	1.79
396.717	1.46
396.926	1.35
397.135	1.02
397.344	1.1
397.553	1.56
397.762	2.23
397.971	1.98
398.181	2.07
398.39	2.27
398.599	2.56
398.808	2.64
399.017	2.85
399.226	2.76
399.435	2.87
399.644	2.63
399.853	2.77
400.062	2.61
400.27	2.63
400.479	2.43
400.688	2.2
400.897	2.26
401.106	2.47
401.315	2.3
401.524	2.44
401.733	2.49
401.941	2.47
402.15	2.45
402.359	2.35
402.568	2.21
402.777	2.2
402.985	2.07
403.194	2.09
403.403	1.97
403.612	2.05
403.82	2.17
404.029	2.24
404.238	2.38
404.446	2.34
404.655	2.15
404.864	2.14
405.072	2.18
405.281	2.05
405.489	2.17
405.698	2.02
405.906	2.01
406.115	2.2
406.324	2.17
406.532	2.22
406.741	2.31
406.949	2.13
407.158	2.25
407.366	2.29
407.574	2.22
407.783	2.26
407.991	2.1
408.2	1.97
408.408	2.04
408.617	1.96
408.825	1.92
409.033	1.9
409.242	1.86
409.45	1.88
409.658	1.95
409.867	1.91
410.075	1.92
410.283	1.94
410.491	1.97
410.7	2.06
410.908	2.1
411.116	2.01
411.324	2.11
411.533	2.01
411.741	1.96
411.949	1.98
412.157	1.94
412.365	1.87
412.573	2.01
412.781	1.97
412.99	2.06
413.198	2.06
413.406	1.91
413.614	1.87
413.822	1.94
414.03	1.75
414.238	1.76
414.446	1.68
414.654	1.68
414.862	1.7
415.07	1.77
415.278	1.68
415.486	1.82
415.694	1.7
415.902	1.75
416.109	1.78
416.317	1.84
416.525	1.85
416.733	1.92
416.941	1.88
417.149	2.03
417.357	2.05
417.564	2.06
417.772	2.02
417.98	1.97
418.188	1.83
418.395	1.78
418.603	1.64
418.811	1.54
419.019	1.51
419.226	1.55
419.434	1.57
419.642	1.58
419.849	1.64
420.057	1.69
420.265	1.82
420.472	1.78
420.68	1.71
420.887	1.67
421.095	1.84
421.302	1.83
421.51	1.92
421.717	1.93
421.925	1.89
422.132	1.87
422.34	1.85
422.547	1.68
422.755	1.64
422.962	1.5
423.17	1.35
423.377	1.47
423.585	1.48
423.792	1.55
423.999	1.57
424.207	1.53
424.414	1.51
424.621	1.56
424.829	1.47
425.036	1.36
425.243	1.38
425.451	1.42
425.658	1.49
425.865	1.5
426.072	1.45
426.28	1.52
426.487	1.62
426.694	1.53
426.901	1.47
427.108	1.43
427.315	1.44
427.523	1.51
427.73	1.51
427.937	1.54
428.144	1.56
428.351	1.66
428.558	1.57
428.765	1.48
428.972	1.48
429.179	1.4
429.386	1.42
429.593	1.43
429.8	1.41
430.007	1.56
430.214	1.63
430.421	1.65
430.628	1.55
430.835	1.51
431.042	1.53
431.249	1.48
431.456	1.43
431.662	1.41
431.869	1.46
432.076	1.59
432.283	1.58
432.49	1.5
432.697	1.61
432.903	1.69
433.11	1.82
433.317	1.8
433.524	1.76
433.73	1.76
433.937	1.82
434.144	1.85
434.35	1.77
434.557	1.74
434.764	1.66
434.97	1.7
435.177	1.71
435.384	1.77
435.59	1.72
435.797	1.7
436.003	1.63
436.21	1.69
436.416	1.66
436.623	1.68
436.829	1.62
437.036	1.65
437.242	1.68
437.449	1.74
437.655	1.74
437.862	1.75
438.068	1.82
438.275	1.81
438.481	1.84
438.687	1.86
438.894	1.79
439.1	1.81
439.307	1.83
439.513	1.83
439.719	1.93
439.926	1.9
440.132	1.87
440.338	1.93
440.544	1.87
440.751	1.91
440.957	1.84
441.163	1.79
441.369	1.77
441.575	1.78
441.782	1.76
441.988	1.73
442.194	1.73
442.4	1.78
442.606	1.76
442.812	1.77
443.018	1.79
443.224	1.8
443.431	1.88
443.637	1.84
443.843	1.82
444.049	1.88
444.255	1.86
444.461	1.89
444.667	1.89
444.873	1.89
445.079	1.98
445.284	1.96
445.49	1.9
445.696	1.91
445.902	1.92
446.108	1.91
446.314	1.93
446.52	1.9
446.726	1.97
446.931	1.97
447.137	1.97
447.343	1.95
447.549	1.98
447.755	1.96
447.96	1.96
448.166	1.94
448.372	2.01
448.578	2.01
448.783	2.05
448.989	2.04
449.195	2.05
449.4	2.05
449.606	2.02
449.812	2.01
450.017	2.05
450.223	2.04
450.428	2.06
450.634	2.1
450.84	2.1
451.045	2.13
451.251	2.13
451.456	2.08
451.662	2.05
451.867	2.09
452.073	2.04
452.278	2
452.483	2.03
452.689	2.04
452.894	2.07
453.1	2.03
453.305	1.94
453.51	1.99
453.716	2.04
453.921	2.04
454.127	1.99
454.332	1.97
454.537	2.07
454.742	2.11
454.948	2.07
455.153	2.07
455.358	2.08
455.563	2.13
455.769	2.16
455.974	2.09
456.179	2.05
456.384	2.08
456.589	2.11
456.795	2.06
457	2.04
457.205	2
457.41	2.02
457.615	2.1
457.82	2.15
458.025	2.11
458.23	2.14
458.435	2.11
458.64	2.19
458.845	2.15
459.05	2.14
459.255	2.03
459.46	2.06
459.665	2.1
459.87	2.12
460.075	2.09
460.28	2.14
460.485	2.16
460.69	2.21
460.895	2.26
461.099	2.25
461.304	2.23
461.509	2.22
461.714	2.23
461.919	2.2
462.123	2.27
462.328	2.24
462.533	2.25
462.738	2.26
462.942	2.34
463.147	2.31
463.352	2.33
463.556	2.32
463.761	2.3
463.966	2.36
464.17	2.42
464.375	2.38
464.58	2.38
464.784	2.41
464.989	2.38
465.193	2.41
465.398	2.37
