Data from Ofra_PS_T2_2A_0GT03_Reflection_1.txt Node
Date: Wed Jul 21 16:51:25 EDT 2021
User: Adam
Spectrometer: FLMT01687
Trigger mode: 0
Integration Time (sec): 1.100000E0
Scans to average: 2
Electric dark correction enabled: true
Nonlinearity correction enabled: false
Boxcar width: 2
XAxis mode: Wavelengths
Number of Pixels in Spectrum: 3648
>>>>>Begin Spectral Data<<<<<
179.494	403.6
179.716	435.29
179.937	397.28
180.158	449.87
180.38	706.56
180.601	521.82
180.823	209.34
181.044	257.11
181.265	270.96
181.486	35.25
181.708	-50.69
181.929	-264.29
182.15	161.27
182.372	236.32
182.593	104.7
182.814	-11.27
183.035	62.7
183.257	30.99
183.478	-66.28
183.699	-45.59
183.92	1.38
184.141	3.95
184.363	-3.13
184.584	6.2
184.805	25.92
185.026	45.84
185.247	39.35
185.468	24.47
185.689	34.93
185.91	7.74
186.132	2.53
186.353	-9.41
186.574	24.23
186.795	24.09
187.016	6.23
187.237	1.45
187.458	-34.94
187.679	-37.22
187.9	-30.65
188.121	-24.42
188.342	-38.45
188.563	21.4
188.784	12.12
189.005	-5.52
189.226	-10.96
189.447	-21.01
189.667	-307.04
189.888	-403.2
190.109	-1113.64
190.33	-555.16
190.551	-830.53
190.772	-202.54
190.993	-180.31
191.214	-191.16
191.434	-119.28
191.655	-70.98
191.876	-86.23
192.097	-125.26
192.318	-106.86
192.538	-118.62
192.759	-134.75
192.98	-77.04
193.201	-13.28
193.421	-16.09
193.642	-5.78
193.863	-3.07
194.083	-14.01
194.304	-34.16
194.525	-28.24
194.745	-46.75
194.966	-28.51
195.187	-43.01
195.407	-70.68
195.628	-107.16
195.848	-109.03
196.069	-117.54
196.29	-69.5
196.51	-46
196.731	-45.94
196.951	-50
197.172	-52.02
197.392	-71.56
197.613	-80.04
197.833	-101.16
198.054	-76.88
198.274	-49.52
198.495	-62.94
198.715	-28.59
198.936	-51.52
199.156	-58.41
199.377	-104.24
199.597	-88.52
199.817	-133.89
200.038	-64.69
200.258	-75.43
200.479	-67.49
200.699	-95.32
200.919	-27.77
201.14	-29.04
201.36	-58.98
201.58	-4.35
201.801	25.55
202.021	12.75
202.241	12.87
202.461	20.08
202.682	-32.96
202.902	-94.88
203.122	-32.58
203.342	-35.72
203.563	4.07
203.783	17.09
204.003	-6.6
204.223	-24.57
204.443	1.66
204.663	-50.82
204.884	-31.84
205.104	-2.77
205.324	2.26
205.544	17.79
205.764	36.21
205.984	42.05
206.204	41.88
206.424	16.73
206.644	-27.25
206.864	-27.16
207.084	-86.72
207.304	-84.06
207.525	-77.66
207.745	-22.98
207.964	-1.79
208.184	-27.7
208.404	-48.39
208.624	-67.43
208.844	-99.42
209.064	-336.52
209.284	-378.37
209.504	-256
209.724	-93.23
209.944	-38.36
210.164	-8.78
210.384	5.03
210.604	1.33
210.823	-34.19
211.043	-38.22
211.263	-40.47
211.483	-54.26
211.703	-76.95
211.922	-62.92
212.142	-27.19
212.362	-32.21
212.582	-17.44
212.801	-25.94
213.021	-44.65
213.241	-62.41
213.461	-82.61
213.68	-76.38
213.9	-57.93
214.12	-45.24
214.339	-72.28
214.559	-47.92
214.779	-32.43
214.998	-27.79
215.218	-35.59
215.438	-30.31
215.657	-20.47
215.877	-24
216.096	-10.54
216.316	-12.93
216.535	-3.24
216.755	-10.65
216.974	-49.56
217.194	-61.56
217.413	-42.85
217.633	-8.07
217.852	-55.76
218.072	-15.44
218.291	7.09
218.511	12.47
218.73	-21.42
218.95	-5.86
219.169	-8.43
219.389	-41.54
219.608	-19.21
219.827	-13.2
220.047	-11.76
220.266	-16.68
220.485	-4.9
220.705	4.2
220.924	-11.19
221.143	7.97
221.363	-7.15
221.582	-2.35
221.801	-7.69
222.021	14.45
222.24	-43.09
222.459	9.9
222.678	-29.17
222.897	-83.47
223.117	-173.68
223.336	-149.92
223.555	-112.62
223.774	-59.44
223.993	-82.58
224.213	-4.53
224.432	0.96
224.651	11.77
224.87	1.96
225.089	35.79
225.308	11.07
225.527	21.73
225.746	26.43
225.965	16.11
226.184	-20.81
226.404	21.19
226.623	-3.6
226.842	-15.35
227.061	-2.66
227.28	20.28
227.499	-3.79
227.718	10.06
227.936	8.31
228.155	7.08
228.374	-31.21
228.593	-8.78
228.812	-14.57
229.031	-21.07
229.25	-57.57
229.469	-70.1
229.688	-97.95
229.907	-41.55
230.125	-38.01
230.344	-1.61
230.563	5.46
230.782	29.17
231.001	-50.13
231.22	-39.39
231.438	-37.99
231.657	-32.51
231.876	-45.2
232.095	8.65
232.313	12.14
232.532	-14.81
232.751	-8.01
232.969	-36.3
233.188	-79.05
233.407	-26.8
233.625	-1.09
233.844	-18.71
234.063	-9.02
234.281	5.26
234.5	2.45
234.719	3.06
234.937	10.05
235.156	19.7
235.374	15
235.593	5.98
235.811	-11.29
236.03	-17.02
236.249	-60.98
236.467	-50.44
236.686	-12.75
236.904	9.69
237.123	7.23
237.341	11.16
237.559	10.17
237.778	-5.88
237.996	-30.75
238.215	-12.57
238.433	0.35
238.652	-1.64
238.87	-18.69
239.088	-11.21
239.307	-11.89
239.525	-34.4
239.743	-61.83
239.962	-54.78
240.18	-67.65
240.398	-85.83
240.617	-76.57
240.835	-31.47
241.053	-17.4
241.271	17.54
241.49	10.26
241.708	10.31
241.926	-42.68
242.144	-23.77
242.363	-57.89
242.581	-61.39
242.799	-45.13
243.017	-19.82
243.235	-34.31
243.453	-26.03
243.672	-38.13
243.89	-19.95
244.108	-24.4
244.326	-16.43
244.544	-4.3
244.762	8.94
244.98	-9.37
245.198	7.09
245.416	-1.31
245.634	-6.85
245.852	-18.68
246.07	-35.7
246.288	-74.03
246.506	-108.5
246.724	-107.07
246.942	-80.09
247.16	-21.17
247.378	-2.63
247.596	25.26
247.814	14.58
248.032	-1.98
248.25	-16.87
248.468	-7.71
248.685	-6.65
248.903	16.49
249.121	23.63
249.339	-2.75
249.557	-5.35
249.775	-7.02
249.992	-53.35
250.21	-63.81
250.428	-31.28
250.646	-60.17
250.863	-78.46
251.081	-57.91
251.299	-39.16
251.517	-50.28
251.734	-37.98
251.952	-25.57
252.17	-12.81
252.387	-15.38
252.605	-16.81
252.823	-10.46
253.04	-2.22
253.258	-10.24
253.475	-23.98
253.693	1.45
253.911	16.02
254.128	10.88
254.346	8.11
254.563	3.34
254.781	-27.07
254.998	-56.73
255.216	-65.46
255.433	-37.19
255.651	-22.32
255.868	-3.68
256.086	24.94
256.303	34.78
256.521	21.68
256.738	4.24
256.956	-10.35
257.173	-29.83
257.39	-41.37
257.608	-65.13
257.825	-10.2
258.043	-0.44
258.26	0.24
258.477	27.3
258.695	30.66
258.912	-10.11
259.129	1.64
259.346	-24.78
259.564	-60.01
259.781	-75.53
259.998	-28.46
260.216	-26.59
260.433	13.81
260.65	14.57
260.867	35.14
261.084	16.18
261.302	11.01
261.519	-6.84
261.736	-31.65
261.953	-54.76
262.17	-29.42
262.387	-74.15
262.604	-82.72
262.822	-80.42
263.039	-68.57
263.256	-95.96
263.473	-35.74
263.69	-27.2
263.907	1.72
264.124	-0.5
264.341	-7.63
264.558	-16.73
264.775	-3.08
264.992	-10.34
265.209	-6.06
265.426	16.35
265.643	29.28
265.86	30.53
266.077	41.1
266.294	52.95
266.51	17.25
266.727	2.94
266.944	6
267.161	-10.3
267.378	-34.94
267.595	-5.98
267.812	-22.09
268.028	-42.67
268.245	-35.13
268.462	-16.61
268.679	-31.82
268.896	-6.19
269.112	4.22
269.329	7.14
269.546	-0.13
269.763	-5.12
269.979	-7.69
270.196	-7.47
270.413	-23.41
270.629	-21.29
270.846	-22.32
271.063	-26.01
271.279	-54.28
271.496	-56.63
271.712	-28.35
271.929	-24.73
272.146	-33.5
272.362	-24.5
272.579	-2.45
272.795	-1.77
273.012	12.82
273.228	29.25
273.445	15.11
273.661	5.58
273.878	-28.16
274.094	-31.37
274.311	-59.96
274.527	0.03
274.744	3.08
274.96	4.01
275.177	5.15
275.393	18.26
275.609	7.48
275.826	26.23
276.042	26.58
276.259	34.76
276.475	33.75
276.691	31.41
276.908	6.59
277.124	24.39
277.34	12.07
277.557	4.8
277.773	1.61
277.989	-2
278.205	-10.34
278.422	9.13
278.638	9.33
278.854	12.19
279.07	20.32
279.286	11.06
279.503	-31.87
279.719	-27.48
279.935	-34.58
280.151	-34.71
280.367	-16.09
280.583	-27.36
280.799	-20.58
281.016	-32.11
281.232	-11.85
281.448	-14.5
281.664	12.06
281.88	-23.82
282.096	-10.61
282.312	-9.45
282.528	17.54
282.744	28.16
282.96	43.1
283.176	35.56
283.392	23.5
283.608	-1.58
283.824	-9.39
284.04	-0.57
284.256	3.67
284.471	9.65
284.687	24.06
284.903	35.28
285.119	36.49
285.335	19.37
285.551	18.4
285.767	-2.44
285.982	1.86
286.198	-31.86
286.414	3.07
286.63	7.35
286.846	5.83
287.061	-12.17
287.277	14.36
287.493	-7.19
287.709	-5.53
287.924	-1.64
288.14	27.37
288.356	24.21
288.571	36.42
288.787	24.08
289.003	26.92
289.218	6.98
289.434	-21.85
289.65	-28.56
289.865	-37.06
290.081	-30.42
290.296	-25.52
290.512	-4.43
290.727	-30.4
290.943	-19.33
291.159	-21.73
291.374	-20.58
291.59	-23.79
291.805	0.19
292.021	8.07
292.236	8.45
292.451	17.45
292.667	27.94
292.882	25.52
293.098	17.68
293.313	7.47
293.529	-11.16
293.744	-47.18
293.959	-45.85
294.175	-43.52
294.39	-15.07
294.605	-6.39
294.821	-1.26
295.036	8.89
295.251	14.84
295.467	5.65
295.682	-0.34
295.897	-14.58
296.112	-24.43
296.328	-36.37
296.543	-63.34
296.758	-62.77
296.973	-27.33
297.188	-10
297.404	-31.16
297.619	-40.39
297.834	-37.72
298.049	-67.24
298.264	-77.61
298.479	-26.76
298.694	-24.33
298.909	-12.61
299.125	-3.72
299.34	-4.03
299.555	-23.8
299.77	-11.39
299.985	-47.41
300.2	-77.88
300.415	-88.46
300.63	-58.42
300.845	-52.79
301.06	-42.8
301.275	-19.01
301.49	3.05
301.704	-4.51
301.919	-21.08
302.134	-26.79
302.349	-26.05
302.564	-70.94
302.779	-98.23
302.994	-126.88
303.209	-73.83
303.423	-38.26
303.638	10.96
303.853	-15.97
304.068	-8.31
304.283	-5.6
304.497	-16.29
304.712	-34.4
304.927	-19.93
305.142	-13.6
305.356	-19.49
305.571	-26.04
305.786	-29.89
306	-41.08
306.215	-57.43
306.43	-62.54
306.644	-61.55
306.859	-51.84
307.074	-13.8
307.288	-13.19
307.503	-19.62
307.717	-9.08
307.932	-12.92
308.147	-18.55
308.361	3.64
308.576	1.35
308.79	-24.36
309.005	-22.66
309.219	-12.57
309.434	-32.19
309.648	-23.51
309.863	-1.23
310.077	18
310.292	6.34
310.506	0.03
310.72	4.87
310.935	5.33
311.149	-7.26
311.364	4.94
311.578	22.18
311.792	15.04
312.007	14.6
312.221	3.81
312.435	-6.49
312.649	-19.55
312.864	-29.61
313.078	-32.27
313.292	15.99
313.507	11
313.721	-5.22
313.935	0.59
314.149	-7.83
314.363	-23.65
314.578	-11.74
314.792	3.64
315.006	0.31
315.22	16.42
315.434	25.04
315.648	15.11
315.862	18.73
316.077	21.51
316.291	-1.4
316.505	-14.74
316.719	-23.67
316.933	-33.5
317.147	-30.96
317.361	-58.65
317.575	-69.15
317.789	-86.03
318.003	-160.06
318.217	-132.21
318.431	-48.11
318.645	-14.71
318.859	-10.18
319.073	11.88
319.287	8.12
319.5	-12.56
319.714	-33.14
319.928	-37.58
320.142	-62.51
320.356	-45.86
320.57	-24.13
320.784	-31.66
320.997	-53.41
321.211	-48.94
321.425	-61.36
321.639	-83.76
321.853	-41.75
322.066	-8.72
322.28	-0.3
322.494	0.03
322.707	26.55
322.921	22.73
323.135	8.99
323.349	14.51
323.562	8.27
323.776	-5.61
323.989	-1.95
324.203	-16.02
324.417	-32.85
324.63	-46.97
324.844	-53.2
325.057	-56.28
325.271	-31.58
325.485	-7.43
325.698	11.19
325.912	26.96
326.125	1.3
326.339	0.78
326.552	-18.63
326.766	-35.15
326.979	-42.55
327.193	-1.34
327.406	-10.53
327.619	-7.99
327.833	6.7
328.046	0.49
328.26	-36.31
328.473	-20.56
328.686	-30.81
328.9	-48.98
329.113	-39.99
329.326	-35.22
329.54	-29.73
329.753	-37.46
329.966	-42.02
330.179	-43.74
330.393	-28.45
330.606	-26.11
330.819	-9.92
331.032	2.68
331.246	8.12
331.459	26.52
331.672	26.77
331.885	25.92
332.098	14.32
332.311	9.54
332.525	-41.18
332.738	-46.96
332.951	-27.22
333.164	14.77
333.377	11.94
333.59	39.43
333.803	43.99
334.016	21.2
334.229	-12.92
334.442	-11.82
334.655	1.75
334.868	2.5
335.081	27.24
335.294	21.64
335.507	23.29
335.72	7.73
335.933	6.86
336.146	-5.49
336.359	1.03
336.572	-10.34
336.785	-41.84
336.997	-44.07
337.21	-29.86
337.423	-26.47
337.636	-22.83
337.849	-11.5
338.062	-20.55
338.274	-5.93
338.487	-1.28
338.7	-7.21
338.913	-25.93
339.125	-42.67
339.338	-90.18
339.551	-98.35
339.763	-48.46
339.976	-21.3
340.189	-7.96
340.402	2.88
340.614	14.89
340.827	1.78
341.039	0.22
341.252	2.65
341.465	5.04
341.677	-1.18
341.89	-32.48
342.102	-19.25
342.315	-27.65
342.527	-46.46
342.74	-33.05
342.952	-14.49
343.165	-6.23
343.377	5.92
343.59	-2.1
343.802	-1.35
344.015	-1.16
344.227	-16.68
344.44	-11.6
344.652	6.65
344.864	-4.72
345.077	14.39
345.289	15.54
345.502	5.29
345.714	3.96
345.926	4.32
346.139	-3.13
346.351	-1.78
346.563	9.96
346.775	4.38
346.988	-0.53
347.2	-22.89
347.412	-58.96
347.624	-85.5
347.837	-112.43
348.049	-92.91
348.261	-48.97
348.473	-24.94
348.685	-7.1
348.897	-9.23
349.11	-24.47
349.322	-53.69
349.534	-42.43
349.746	-47.26
349.958	-42.66
350.17	-28.29
350.382	-1.53
350.594	-8.82
350.806	9
351.018	21.07
351.23	9.31
351.442	-23.04
351.654	-6.95
351.866	-17.14
352.078	-15.45
352.29	0.95
352.502	17.27
352.714	14.11
352.926	11.46
353.138	3.75
353.35	-4.73
353.561	-0.64
353.773	-18.26
353.985	-9.78
354.197	-11.27
354.409	-11.17
354.621	-18.43
354.832	0.02
355.044	-3.15
355.256	-0.25
355.468	9.35
355.679	4.7
355.891	6.97
356.103	-14.31
356.314	1.54
356.526	-16.1
356.738	-25.44
356.949	-36.81
357.161	-26.27
357.373	-39.93
357.584	-27.22
357.796	-6.06
358.008	-11.4
358.219	10.84
358.431	6.9
358.642	-5.86
358.854	-18.15
359.065	-26.41
359.277	-60.65
359.488	-60.31
359.7	-56.3
359.911	-53.3
360.123	-32.18
360.334	-30.05
360.546	-29.74
360.757	-30.06
360.969	-29.79
361.18	-11.86
361.391	18.35
361.603	13.5
361.814	18.02
362.025	17.19
362.237	-2.19
362.448	-17.59
362.659	-5.29
362.871	-2.86
363.082	5.44
363.293	4.55
363.504	2.63
363.716	-18.63
363.927	-24.1
364.138	-49.73
364.349	-54.97
364.56	-36.18
364.772	-13.59
364.983	10
365.194	26.54
365.405	42.91
365.616	47.44
365.827	48.19
366.038	30.4
366.25	21.5
366.461	-9.56
366.672	-3.04
366.883	8.86
367.094	6.5
367.305	4.13
367.516	17.27
367.727	7.41
367.938	-1.46
368.149	1.5
368.36	6.89
368.571	6.13
368.781	-11.62
368.992	-28.54
369.203	-42.09
369.414	-42.2
369.625	-56.28
369.836	-47.63
370.047	-58.14
370.258	-46.02
370.468	-57.15
370.679	-55.48
370.89	-46.3
371.101	-33.83
371.312	-39.74
371.522	-41.99
371.733	-25.47
371.944	-17.25
372.155	-9.98
372.365	-1.4
372.576	4.1
372.787	-15.1
372.997	-33.53
373.208	-28.69
373.419	-25.06
373.629	-48.79
373.84	-45.03
374.05	-37.79
374.261	-45.61
374.472	-45.4
374.682	-8.72
374.893	9.16
375.103	32.44
375.314	35.19
375.524	26.36
375.735	24.31
375.945	24.18
376.156	3.47
376.366	6.09
376.577	13.61
376.787	7.69
376.997	-6.52
377.208	-11.19
377.418	-22.88
377.629	-20.44
377.839	-15.35
378.049	-6.87
378.26	10.82
378.47	16.92
378.68	11.11
378.89	11.63
379.101	12.46
379.311	-14.88
379.521	-27.78
379.732	-32.48
379.942	-42.05
380.152	-62.53
380.362	-27.05
380.572	-16.1
380.783	5.81
380.993	16.51
381.203	24.2
381.413	30.32
381.623	27.98
381.833	12.18
382.043	3.25
382.253	-7.08
382.463	-5.71
382.674	-12.84
382.884	-19.8
383.094	-10.94
383.304	-4.74
383.514	-8.62
383.724	-5.9
383.934	-3.76
384.144	-17.18
384.353	-20.1
384.563	-24.2
384.773	-13.83
384.983	-26.2
385.193	-6.61
385.403	-5.29
385.613	-2.04
385.823	-13.58
386.033	-5.21
386.242	-15.48
386.452	-16.13
386.662	-25.59
386.872	-14.67
387.082	-17.58
387.291	-20.65
387.501	-15.53
387.711	-5.25
387.921	-10.77
388.13	-6.59
388.34	4.46
388.55	-2.8
388.759	-4.45
388.969	1.27
389.179	-2.66
389.388	-3.38
389.598	4.12
389.807	-0.91
390.017	-2.99
390.227	1.79
390.436	0.12
390.646	-1.73
390.855	4.16
391.065	3.17
391.274	-1.29
391.484	-4.86
391.693	-2.69
391.903	-1.41
392.112	4.08
392.322	6.96
392.531	9.26
392.74	9.13
392.95	4.84
393.159	-0.07
393.369	-0.15
393.578	-0.37
393.787	-2.26
393.997	-0.54
394.206	0.34
394.415	0.36
394.625	0.17
394.834	0.54
395.043	1.03
395.252	3.16
395.462	5.25
395.671	6.07
395.88	6.45
396.089	6.29
396.298	4.33
396.508	2.87
396.717	2.29
396.926	2.07
397.135	1.73
397.344	1.65
397.553	2.41
397.762	3.84
397.971	4.4
398.181	4.77
398.39	4.85
398.599	4.66
398.808	3.97
399.017	4.36
399.226	5.5
399.435	6.53
399.644	6.16
399.853	5.67
400.062	5.44
400.27	4.55
400.479	3.69
400.688	3.67
400.897	3.72
401.106	3.45
401.315	3.76
401.524	3.98
401.733	4.12
401.941	4.5
402.15	4.61
402.359	4.25
402.568	4.47
402.777	4.57
402.985	4.53
403.194	4.64
403.403	4.65
403.612	4.24
403.82	4.1
404.029	4.17
404.238	4.18
404.446	4.62
404.655	4.6
404.864	4.62
405.072	4.25
405.281	4.06
405.489	3.76
405.698	3.77
405.906	3.8
406.115	3.99
406.324	4.07
406.532	4.14
406.741	4.42
406.949	4.46
407.158	4.46
407.366	4.62
407.574	4.67
407.783	4.62
407.991	4.52
408.2	4.59
408.408	4.43
408.617	4.26
408.825	4.1
409.033	4.21
409.242	4.25
409.45	4.37
409.658	4.36
409.867	4.56
410.075	4.35
410.283	4.19
410.491	4.11
410.7	4.05
410.908	3.82
411.116	4.06
411.324	4.04
411.533	3.84
411.741	4.04
411.949	4.08
412.157	3.82
412.365	3.86
412.573	4.11
412.781	4.11
412.99	4.02
413.198	4.15
413.406	4.13
413.614	3.98
413.822	3.82
414.03	3.97
414.238	3.84
414.446	3.95
414.654	3.91
414.862	4.02
415.07	4
415.278	4.28
415.486	4.06
415.694	4.18
415.902	4.04
416.109	3.86
416.317	3.66
416.525	3.65
416.733	3.43
416.941	3.62
417.149	3.75
417.357	3.78
417.564	3.83
417.772	4.01
417.98	3.78
418.188	3.73
418.395	3.74
418.603	3.82
418.811	3.59
419.019	3.69
419.226	3.68
419.434	3.9
419.642	3.68
419.849	3.85
420.057	3.76
420.265	3.8
420.472	3.45
420.68	3.65
420.887	3.6
421.095	3.69
421.302	3.57
421.51	3.68
421.717	3.72
421.925	3.75
422.132	3.71
422.34	3.63
422.547	3.76
422.755	3.65
422.962	3.46
423.17	3.35
423.377	3.42
423.585	3.3
423.792	3.24
423.999	3.39
424.207	3.38
424.414	3.51
424.621	3.52
424.829	3.59
425.036	3.54
425.243	3.7
425.451	3.42
425.658	3.3
425.865	3.19
426.072	3.18
426.28	3.36
426.487	3.43
426.694	3.45
426.901	3.5
427.108	3.5
427.315	3.26
427.523	3.41
427.73	3.38
427.937	3.36
428.144	3.26
428.351	3.15
428.558	3.13
428.765	3.04
428.972	2.99
429.179	3.2
429.386	3.52
429.593	3.42
429.8	3.46
430.007	3.56
430.214	3.61
430.421	3.53
430.628	3.5
430.835	3.47
431.042	3.52
431.249	3.5
431.456	3.4
431.662	3.46
431.869	3.63
432.076	3.8
432.283	3.88
432.49	3.82
432.697	3.87
432.903	3.74
433.11	3.61
433.317	3.57
433.524	3.81
433.73	3.86
433.937	4.03
434.144	3.94
434.35	3.94
434.557	3.76
434.764	3.78
434.97	3.74
435.177	3.9
435.384	3.87
435.59	4.03
435.797	4.12
436.003	4.22
436.21	4.16
436.416	4.15
436.623	4.14
436.829	4.11
437.036	4.15
437.242	4.2
437.449	4.2
437.655	4.31
437.862	4.39
438.068	4.29
438.275	4.43
438.481	4.62
438.687	4.46
438.894	4.44
439.1	4.52
439.307	4.57
439.513	4.49
439.719	4.57
439.926	4.64
440.132	4.67
440.338	4.55
440.544	4.61
440.751	4.58
440.957	4.6
441.163	4.54
441.369	4.62
441.575	4.6
441.782	4.65
441.988	4.51
442.194	4.56
442.4	4.6
442.606	4.75
442.812	4.85
443.018	4.94
443.224	4.96
443.431	4.94
443.637	4.79
443.843	4.72
444.049	4.72
444.255	4.67
444.461	4.71
444.667	4.78
444.873	4.86
445.079	4.95
445.284	5.06
445.49	4.91
445.696	4.77
445.902	4.64
446.108	4.61
446.314	4.52
446.52	4.59
446.726	4.81
446.931	4.91
447.137	4.99
447.343	5.11
447.549	5.12
447.755	5.01
447.96	4.96
448.166	4.81
448.372	4.75
448.578	4.81
448.783	4.82
448.989	4.94
449.195	5.1
449.4	5.07
449.606	5.07
449.812	5.06
450.017	5.04
450.223	5.02
450.428	4.98
450.634	5.01
450.84	5.04
451.045	5.04
451.251	4.98
451.456	5.29
451.662	5.32
451.867	5.39
452.073	5.37
452.278	5.46
452.483	5.49
452.689	5.51
452.894	5.49
453.1	5.46
453.305	5.36
453.51	5.21
453.716	5.09
453.921	5.13
454.127	5.13
454.332	5.17
454.537	5.11
454.742	5.13
454.948	5.03
455.153	5.13
455.358	5.23
455.563	5.31
455.769	5.35
455.974	5.37
456.179	5.27
456.384	5.16
456.589	5.18
456.795	5.18
457	5.22
457.205	5.34
457.41	5.38
457.615	5.35
457.82	5.33
458.025	5.25
458.23	5.2
458.435	5.21
458.64	5.22
458.845	5.41
459.05	5.56
459.255	5.54
459.46	5.64
459.665	5.6
459.87	5.5
460.075	5.47
460.28	5.54
460.485	5.61
460.69	5.58
460.895	5.57
461.099	5.52
461.304	5.51
461.509	5.37
461.714	5.42
