Data from Ofra_2a_PS_9GT30_Reflection_3.txt Node
Date: Tue Jul 20 10:00:26 EDT 2021
User: Adam
Spectrometer: FLMT01687
Trigger mode: 0
Integration Time (sec): 9.450000E-1
Scans to average: 3
Electric dark correction enabled: true
Nonlinearity correction enabled: false
Boxcar width: 3
XAxis mode: Wavelengths
Number of Pixels in Spectrum: 3648
>>>>>Begin Spectral Data<<<<<
179.494	1053.85
179.716	621.74
179.937	687.36
180.158	2439.45
180.38	-880.52
180.601	-166.64
180.823	-30.75
181.044	38.94
181.265	-3.47
181.486	59.99
181.708	-501.09
181.929	-70.35
182.15	3.98
182.372	15.61
182.593	20.98
182.814	205.84
183.035	160.64
183.257	88.21
183.478	58.21
183.699	65.37
183.92	60.2
184.141	45.23
184.363	43.51
184.584	27.95
184.805	29.71
185.026	-7.16
185.247	-21.19
185.468	-30.81
185.689	-4.76
185.91	-14.16
186.132	2.07
186.353	-17.8
186.574	11.32
186.795	-4.1
187.016	-1.11
187.237	-16.68
187.458	-33.91
187.679	-68.5
187.9	-46.12
188.121	-37.03
188.342	15.16
188.563	11.81
188.784	13.43
189.005	31.76
189.226	43.84
189.447	39.46
189.667	17.15
189.888	9.07
190.109	13.41
190.33	9.54
190.551	1.56
190.772	-12.38
190.993	0.65
191.214	2.99
191.434	-10.42
191.655	4.65
191.876	16.15
192.097	19.21
192.318	30.31
192.538	31.34
192.759	40.16
192.98	51.51
193.201	53.7
193.421	55.38
193.642	48.96
193.863	47.67
194.083	27.83
194.304	9.84
194.525	5.28
194.745	-36.46
194.966	-23.78
195.187	-8.09
195.407	1.99
195.628	11.84
195.848	15.15
196.069	20.3
196.29	26.21
196.51	10.2
196.731	13.64
196.951	9.33
197.172	3.14
197.392	8.26
197.613	-8.86
197.833	-0.74
198.054	-2.08
198.274	-28.62
198.495	-35.25
198.715	-54.32
198.936	-74.36
199.156	-23.26
199.377	-11.51
199.597	16.32
199.817	25.98
200.038	25.79
200.258	34.79
200.479	46.22
200.699	30.86
200.919	0.9
201.14	-17.97
201.36	-25.21
201.58	-21.71
201.801	-10.03
202.021	-17.62
202.241	-13.68
202.461	7.99
202.682	14.33
202.902	18.2
203.122	16.17
203.342	16.89
203.563	28.05
203.783	32.03
204.003	28.92
204.223	29.45
204.443	29.45
204.663	29.01
204.884	25.49
205.104	25.88
205.324	35.13
205.544	33.34
205.764	32.95
205.984	35.83
206.204	46.23
206.424	48.58
206.644	39.75
206.864	10.24
207.084	36.51
207.304	26.64
207.525	18
207.745	8.71
207.964	3.79
208.184	5.72
208.404	27.4
208.624	-2.73
208.844	-4.07
209.064	-8.14
209.284	-2.65
209.504	-8.94
209.724	-41.81
209.944	-40.69
210.164	-32.98
210.384	-20.59
210.604	-11.48
210.823	-16.03
211.043	-21.53
211.263	8.74
211.483	6.74
211.703	18.89
211.922	15.46
212.142	28.86
212.362	30.9
212.582	37.66
212.801	36.77
213.021	38.38
213.241	28.33
213.461	23.47
213.68	12.59
213.9	15.04
214.12	-5.11
214.339	0.86
214.559	3.98
214.779	5.87
214.998	11.93
215.218	8.39
215.438	15.48
215.657	24.12
215.877	24.08
216.096	18.88
216.316	11.32
216.535	17.37
216.755	2.92
216.974	-7.85
217.194	-10.88
217.413	-1.44
217.633	-0.73
217.852	-5.31
218.072	-28.45
218.291	13.36
218.511	5.79
218.73	-1.14
218.95	-8.78
219.169	-12.87
219.389	-13.92
219.608	9.12
219.827	-11.89
220.047	4.44
220.266	20.31
220.485	23
220.705	21.48
220.924	40.31
221.143	26.35
221.363	29.48
221.582	17.61
221.801	18.4
222.021	6.48
222.24	9.28
222.459	-9.17
222.678	-13.8
222.897	-10.46
223.117	4.19
223.336	6.69
223.555	1.69
223.774	12.24
223.993	21.21
224.213	30.67
224.432	33.34
224.651	22.79
224.87	9.32
225.089	24.16
225.308	25.87
225.527	31.05
225.746	16.91
225.965	7.59
226.184	3.7
226.404	0.78
226.623	-6.08
226.842	-15.66
227.061	-14.94
227.28	-8.92
227.499	14.02
227.718	15.89
227.936	13.55
228.155	14.61
228.374	10.3
228.593	16.99
228.812	8.65
229.031	-4.86
229.25	10.88
229.469	29.15
229.688	32.26
229.907	27.43
230.125	17.01
230.344	30.38
230.563	35.17
230.782	22.56
231.001	17.25
231.22	13.79
231.438	27.13
231.657	32.35
231.876	20.15
232.095	12.14
232.313	18.51
232.532	18.3
232.751	22.76
232.969	28.94
233.188	27.36
233.407	31.58
233.625	23.86
233.844	30.95
234.063	28.28
234.281	17.49
234.5	18.71
234.719	8.65
234.937	9.72
235.156	21.15
235.374	4.38
235.593	-3.92
235.811	1.03
236.03	-22.07
236.249	-7.09
236.467	-6.86
236.686	8.86
236.904	2.45
237.123	20.32
237.341	24.26
237.559	27.99
237.778	32.27
237.996	31.57
238.215	20
238.433	33.48
238.652	25.06
238.87	14
239.088	7.57
239.307	5.08
239.525	-3.4
239.743	-11.63
239.962	-14.65
240.18	1.51
240.398	7.8
240.617	14.56
240.835	10.58
241.053	34.28
241.271	42.71
241.49	29.37
241.708	17.12
241.926	14.44
242.144	16.09
242.363	19.81
242.581	4.41
242.799	-5.68
243.017	6.03
243.235	-8.77
243.453	0.15
243.672	-2.16
243.89	3.57
244.108	20.06
244.326	14.31
244.544	20.44
244.762	34.33
244.98	24.4
245.198	16.17
245.416	19.93
245.634	19.69
245.852	38.68
246.07	37.75
246.288	36.7
246.506	49.74
246.724	62.09
246.942	53.98
247.16	39.67
247.378	24.02
247.596	25.19
247.814	7.54
248.032	4.04
248.25	0.47
248.468	4.59
248.685	3.88
248.903	-8.17
249.121	-10.51
249.339	18.2
249.557	18.95
249.775	4.53
249.992	1.02
250.21	-5.6
250.428	-3.88
250.646	-2.45
250.863	-9.7
251.081	-14.5
251.299	5.01
251.517	3.31
251.734	6.8
251.952	29.79
252.17	10.72
252.387	15.2
252.605	11.59
252.823	-10.78
253.04	-11.14
253.258	-10.38
253.475	-21.63
253.693	0.82
253.911	2.81
254.128	0.85
254.346	6.21
254.563	0.53
254.781	-0.78
254.998	5.11
255.216	0.11
255.433	0.28
255.651	-0.62
255.868	1.06
256.086	12.97
256.303	21.35
256.521	13.29
256.738	16.89
256.956	-5.16
257.173	2.99
257.39	12.97
257.608	7.67
257.825	1.33
258.043	13
258.26	4.78
258.477	17.04
258.695	10.91
258.912	10.23
259.129	-2.33
259.346	3.55
259.564	-16.07
259.781	2.05
259.998	-5.17
260.216	10
260.433	6.43
260.65	19.39
260.867	11.57
261.084	14.52
261.302	7.53
261.519	5.62
261.736	-4.98
261.953	-7.63
262.17	-6.81
262.387	-8.88
262.604	-20.42
262.822	-12.7
263.039	-14.45
263.256	-8.76
263.473	-10.95
263.69	-15.66
263.907	-12.36
264.124	1.59
264.341	-8.17
264.558	6.48
264.775	9.5
264.992	14.01
265.209	30.05
265.426	34.57
265.643	35.05
265.86	35.06
266.077	29.75
266.294	33.29
266.51	26.98
266.727	5.26
266.944	-3.96
267.161	-6.01
267.378	-7.9
267.595	-21.95
267.812	-34.03
268.028	-19.72
268.245	-4.69
268.462	0.6
268.679	-5.49
268.896	-2.66
269.112	13.45
269.329	19.67
269.546	17.16
269.763	27.57
269.979	21.35
270.196	22.55
270.413	21.44
270.629	20.61
270.846	22.36
271.063	16.33
271.279	3.12
271.496	-3.76
271.712	-4.24
271.929	-0.89
272.146	-4.31
272.362	-32.88
272.579	-29.04
272.795	-14.74
273.012	-10.19
273.228	-10.47
273.445	-9.77
273.661	-8.79
273.878	5.11
274.094	12.22
274.311	1.78
274.527	8.3
274.744	7.29
274.96	5.16
275.177	8.5
275.393	14.69
275.609	15.7
275.826	21.17
276.042	34.16
276.259	36.48
276.475	36.02
276.691	36.31
276.908	42.98
277.124	45.45
277.34	43.23
277.557	32.37
277.773	26.85
277.989	30.11
278.205	15.27
278.422	3.37
278.638	7.03
278.854	14.6
279.07	7.15
279.286	9.89
279.503	5.13
279.719	25.39
279.935	18.09
280.151	15.18
280.367	3.64
280.583	14.43
280.799	22.19
281.016	25.43
281.232	10.92
281.448	8.89
281.664	1.16
281.88	11.59
282.096	12.58
282.312	6.35
282.528	-6.13
282.744	8.77
282.96	21.53
283.176	28.01
283.392	31.65
283.608	33.88
283.824	26.78
284.04	29.49
284.256	28.04
284.471	35.06
284.687	27.87
284.903	22.37
285.119	7.8
285.335	13.61
285.551	25.37
285.767	27.1
285.982	14.57
286.198	13.24
286.414	29.95
286.63	32.05
286.846	27.35
287.061	22.62
287.277	19.41
287.493	18.58
287.709	26.17
287.924	22.59
288.14	29.39
288.356	46.55
288.571	43.67
288.787	47.31
289.003	50.28
289.218	44.59
289.434	34.82
289.65	34.5
289.865	28.92
290.081	30.8
290.296	26.8
290.512	29.85
290.727	38.16
290.943	32.99
291.159	21.72
291.374	22.21
291.59	20.29
291.805	24.67
292.021	2.5
292.236	-0.57
292.451	5.61
292.667	17.48
292.882	5.02
293.098	-1.89
293.313	-10.32
293.529	-1.06
293.744	-7.85
293.959	0.13
294.175	-3.36
294.39	1.21
294.605	2.5
294.821	2.93
295.036	11.13
295.251	13.3
295.467	4.96
295.682	4.05
295.897	0.98
296.112	10.86
296.328	15.45
296.543	5.26
296.758	6.92
296.973	9.9
297.188	14.49
297.404	21.44
297.619	19.07
297.834	27.24
298.049	31.12
298.264	26.7
298.479	22.51
298.694	27.08
298.909	18.42
299.125	15.35
299.34	5.18
299.555	8.4
299.77	4.65
299.985	1.82
300.2	-4.94
300.415	2.67
300.63	-5.52
300.845	2.95
301.06	3.87
301.275	14.06
301.49	19.8
301.704	20.37
301.919	17.2
302.134	16.69
302.349	10.38
302.564	-10.18
302.779	-16.06
302.994	-23.91
303.209	-32.75
303.423	-18.57
303.638	-9.25
303.853	-0.77
304.068	21.11
304.283	14
304.497	21.09
304.712	24.12
304.927	18.85
305.142	19.33
305.356	26.88
305.571	28.72
305.786	33.62
306	32.59
306.215	38.81
306.43	47.38
306.644	41.06
306.859	22.7
307.074	16.73
307.288	17.34
307.503	19.03
307.717	14.9
307.932	8.71
308.147	10.01
308.361	16.75
308.576	15.05
308.79	10.93
309.005	6.99
309.219	4.66
309.434	3.32
309.648	-7.48
309.863	-2.05
310.077	-5.84
310.292	-2.11
310.506	15.88
310.72	24.55
310.935	20.58
311.149	22.3
311.364	17.51
311.578	18.04
311.792	18.71
312.007	0.11
312.221	-3.43
312.435	-1.87
312.649	6.37
312.864	8.86
313.078	19.02
313.292	16.13
313.507	35.87
313.721	28.15
313.935	36.01
314.149	32.52
314.363	32.77
314.578	49.79
314.792	46.09
315.006	38.68
315.22	44.39
315.434	32
315.648	17.04
315.862	16.11
316.077	-1.41
316.291	0.43
316.505	4.39
316.719	-12.22
316.933	0.92
317.147	3.65
317.361	9.94
317.575	15.08
317.789	22.55
318.003	20.59
318.217	32.47
318.431	30.78
318.645	36.11
318.859	16.14
319.073	12.44
319.287	7.98
319.5	4.35
319.714	1.13
319.928	-5.73
320.142	-5.96
320.356	16.41
320.57	10.71
320.784	12.32
320.997	12.66
321.211	17.03
321.425	12.24
321.639	9.47
321.853	3.8
322.066	9.25
322.28	5.83
322.494	9.64
322.707	2.95
322.921	9.43
323.135	15.5
323.349	13.27
323.562	14.1
323.776	16.21
323.989	7.02
324.203	8.73
324.417	10.13
324.63	-3.45
324.844	-16.75
325.057	-12.22
325.271	-9.96
325.485	3.63
325.698	7.37
325.912	16.88
326.125	25.48
326.339	36.87
326.552	35.92
326.766	37.26
326.979	31.34
327.193	24.2
327.406	16.01
327.619	7.04
327.833	4.64
328.046	-4.33
328.26	-21.9
328.473	-18.68
328.686	-5.57
328.9	-3.9
329.113	-5.13
329.326	1.36
329.54	-0.12
329.753	14.68
329.966	17.48
330.179	16.2
330.393	18.63
330.606	32.57
330.819	35.34
331.032	37.23
331.246	34.22
331.459	39.5
331.672	36.41
331.885	32.05
332.098	31.65
332.311	16.59
332.525	17.32
332.738	9.62
332.951	3.21
333.164	0.34
333.377	-6.49
333.59	-11.36
333.803	2.75
334.016	0.27
334.229	-0.95
334.442	6.81
334.655	13.54
334.868	21.06
335.081	22.26
335.294	10.27
335.507	19.45
335.72	21.91
335.933	28.67
336.146	25.12
336.359	22.74
336.572	16.62
336.785	21.87
336.997	21.57
337.21	24.68
337.423	14.72
337.636	12.99
337.849	17.82
338.062	25.75
338.274	25.66
338.487	22.01
338.7	18.39
338.913	13.35
339.125	9.75
339.338	11.78
339.551	13.17
339.763	14.97
339.976	15.45
340.189	13.25
340.402	15.14
340.614	22.54
340.827	11.21
341.039	7.84
341.252	8.2
341.465	2.73
341.677	-1.41
341.89	-2.42
342.102	0.18
342.315	12.45
342.527	12.86
342.74	10.57
342.952	9.79
343.165	24.34
343.377	28
343.59	20.62
343.802	16.3
344.015	15.51
344.227	12.86
344.44	13.73
344.652	13.27
344.864	17.6
345.077	14.37
345.289	20.12
345.502	23.49
345.714	24.16
345.926	25.12
346.139	17.75
346.351	-2.78
346.563	7.6
346.775	0.75
346.988	0.45
347.2	1.54
347.412	5
347.624	9.73
347.837	16.88
348.049	15.99
348.261	13.99
348.473	8.11
348.685	7.56
348.897	3.6
349.11	0.12
349.322	-2.58
349.534	-12.22
349.746	-2.7
349.958	3.05
350.17	6.29
350.382	4.23
350.594	2.65
350.806	11.64
351.018	24.21
351.23	19.49
351.442	21.79
351.654	23.13
351.866	32.72
352.078	28.2
352.29	30.62
352.502	31.34
352.714	33.01
352.926	32.06
353.138	30.97
353.35	13.69
353.561	8.9
353.773	0.52
353.985	1.63
354.197	-2.62
354.409	-0.36
354.621	3.61
354.832	6.27
355.044	15.21
355.256	15.52
355.468	10.58
355.679	15.32
355.891	13.97
356.103	6.65
356.314	6.71
356.526	-0.23
356.738	-9.12
356.949	-8.41
357.161	-6.37
357.373	-8.47
357.584	-0.25
357.796	2.81
358.008	13.58
358.219	25.92
358.431	25.39
358.642	17.96
358.854	11.2
359.065	5.45
359.277	-0.85
359.488	-10.52
359.7	-4.55
359.911	-7.61
360.123	1.11
360.334	3.86
360.546	2.29
360.757	10.37
360.969	18.23
361.18	8.51
361.391	12.78
361.603	8.88
361.814	11.27
362.025	7.97
362.237	8.54
362.448	9.9
362.659	-2.43
362.871	5.59
363.082	8.78
363.293	9.58
363.504	17.19
363.716	20.41
363.927	16.36
364.138	27.33
364.349	20.43
364.56	17.54
364.772	17.9
364.983	6.42
365.194	0.3
365.405	-4.19
365.616	-7.46
365.827	-9.35
366.038	0.34
366.25	3.91
366.461	13.85
366.672	16.3
366.883	26.62
367.094	25.44
367.305	26.46
367.516	16.78
367.727	10.06
367.938	12
368.149	12.68
368.36	8.98
368.571	12.68
368.781	2.98
368.992	5.54
369.203	4.53
369.414	4.55
369.625	5.06
369.836	5.81
370.047	5.49
370.258	8.69
370.468	-4.19
370.679	-4.31
370.89	3.24
371.101	-5.69
371.312	-11.78
371.522	-14.51
371.733	-9.81
371.944	0.61
372.155	-9.94
372.365	-22.77
372.576	-15.86
372.787	-8.96
372.997	-5.29
373.208	-2.94
373.419	-3.83
373.629	10.88
373.84	12.44
374.05	17.16
374.261	9.04
374.472	6.9
374.682	4.41
374.893	2.39
375.103	8.77
375.314	8.18
375.524	5.71
375.735	9.3
375.945	12.36
376.156	14.49
376.366	18.36
376.577	13.12
376.787	15.18
376.997	14.69
377.208	8.68
377.418	7.48
377.629	4.43
377.839	8.83
378.049	11.97
378.26	14.67
378.47	14.38
378.68	23.39
378.89	17.01
379.101	11.78
379.311	2.16
379.521	4.31
379.732	-8.54
379.942	-6.48
380.152	-6.72
380.362	-2.31
380.572	8.62
380.783	14.76
380.993	16.6
381.203	19.74
381.413	20.66
381.623	14.96
381.833	14.47
382.043	10.41
382.253	5.57
382.463	2.82
382.674	7.94
382.884	-0.39
383.094	4.79
383.304	4.2
383.514	7.75
383.724	5.29
383.934	3.45
384.144	9.34
384.353	14.13
384.563	11.31
384.773	8.84
384.983	8.17
385.193	12.88
385.403	13.74
385.613	4.91
385.823	6.41
386.033	6.05
386.242	10.3
386.452	6.65
386.662	7.51
386.872	4.66
387.082	5.36
387.291	4.57
387.501	5.49
387.711	4.98
387.921	6.57
388.13	6.52
388.34	7.83
388.55	10.92
388.759	11.79
388.969	12.77
389.179	14.98
389.388	13.81
389.598	10.63
389.807	9.33
390.017	6.91
390.227	4.06
390.436	1.08
390.646	0.32
390.855	1.27
391.065	2.2
391.274	0.63
391.484	2
391.693	2.1
391.903	3.64
392.112	2.55
392.322	3.49
392.531	3.66
392.74	3.16
392.95	3.4
393.159	4.07
393.369	2.36
393.578	3.57
393.787	2.71
393.997	3.22
394.206	4.29
394.415	3.53
394.625	3.07
394.834	3.63
395.043	3.57
395.252	4.2
395.462	4.09
395.671	4.66
395.88	5.16
396.089	5.4
396.298	5.07
396.508	4.05
396.717	3.42
396.926	2.94
397.135	2.1
397.344	1.88
397.553	2.07
397.762	2.08
397.971	2.45
398.181	1.88
398.39	2.25
398.599	2.82
398.808	2.96
399.017	3.05
399.226	3.5
399.435	3.7
399.644	4.04
399.853	3.98
400.062	3.82
400.27	3.84
400.479	3.6
400.688	3.37
400.897	3.28
401.106	3.44
401.315	3.36
401.524	3.45
401.733	3.66
401.941	3.53
402.15	3.41
402.359	3.5
402.568	3.38
402.777	3.43
402.985	3.35
403.194	3.08
403.403	2.97
403.612	3.1
403.82	3.04
404.029	2.98
404.238	2.93
404.446	2.87
404.655	2.69
404.864	2.8
405.072	2.73
405.281	2.53
405.489	2.64
405.698	2.57
405.906	2.53
406.115	2.75
406.324	2.67
406.532	2.75
406.741	2.95
406.949	2.75
407.158	2.88
407.366	2.92
407.574	2.82
407.783	2.82
407.991	2.75
408.2	2.6
408.408	2.73
408.617	2.6
408.825	2.58
409.033	2.54
409.242	2.55
409.45	2.54
409.658	2.59
409.867	2.54
410.075	2.59
410.283	2.57
410.491	2.55
410.7	2.56
410.908	2.61
411.116	2.53
411.324	2.54
411.533	2.42
411.741	2.46
411.949	2.51
412.157	2.58
412.365	2.51
412.573	2.6
412.781	2.61
412.99	2.75
413.198	2.73
413.406	2.72
413.614	2.67
413.822	2.62
414.03	2.5
414.238	2.55
414.446	2.42
414.654	2.39
414.862	2.37
415.07	2.39
415.278	2.36
415.486	2.43
415.694	2.31
415.902	2.31
416.109	2.34
416.317	2.27
416.525	2.3
416.733	2.41
416.941	2.3
417.149	2.37
417.357	2.39
417.564	2.36
417.772	2.39
417.98	2.27
418.188	2.13
418.395	2.19
418.603	2.07
418.811	2.05
419.019	2
419.226	2.09
419.434	2.07
419.642	2.12
419.849	2.14
420.057	2.21
420.265	2.18
420.472	2.16
420.68	2.06
420.887	2.14
421.095	2.16
421.302	2.27
421.51	2.34
421.717	2.45
421.925	2.42
422.132	2.36
422.34	2.34
422.547	2.3
422.755	2.14
422.962	2.03
423.17	2
423.377	2.11
423.585	2.2
423.792	2.15
423.999	2.09
424.207	2
424.414	2.07
424.621	2.02
424.829	1.96
425.036	1.94
425.243	2.03
425.451	2.1
425.658	2.29
425.865	2.24
426.072	2.3
426.28	2.32
426.487	2.33
426.694	2.27
426.901	2.21
427.108	2.16
427.315	2.13
427.523	2.11
427.73	2.13
427.937	2.12
428.144	2.14
428.351	2.29
428.558	2.29
428.765	2.25
428.972	2.24
429.179	2.07
429.386	2.16
429.593	2.18
429.8	2.15
430.007	2.19
430.214	2.27
430.421	2.29
430.628	2.3
430.835	2.17
431.042	2.2
431.249	2.15
431.456	2.13
431.662	2.14
431.869	2.23
432.076	2.35
432.283	2.36
432.49	2.31
432.697	2.32
432.903	2.34
433.11	2.33
433.317	2.32
433.524	2.24
433.73	2.27
433.937	2.25
434.144	2.32
434.35	2.32
434.557	2.28
434.764	2.24
434.97	2.37
435.177	2.43
435.384	2.49
435.59	2.43
435.797	2.46
436.003	2.46
436.21	2.39
436.416	2.31
436.623	2.32
436.829	2.33
437.036	2.36
437.242	2.36
437.449	2.42
437.655	2.44
437.862	2.54
438.068	2.6
438.275	2.52
438.481	2.58
438.687	2.61
438.894	2.57
439.1	2.67
439.307	2.65
439.513	2.59
439.719	2.68
439.926	2.7
440.132	2.72
440.338	2.77
440.544	2.67
440.751	2.62
440.957	2.63
441.163	2.64
441.369	2.58
441.575	2.53
441.782	2.49
441.988	2.52
442.194	2.56
442.4	2.55
442.606	2.55
442.812	2.58
443.018	2.58
443.224	2.63
443.431	2.72
443.637	2.72
443.843	2.8
444.049	2.77
444.255	2.7
444.461	2.71
444.667	2.69
444.873	2.66
445.079	2.68
445.284	2.62
445.49	2.58
445.696	2.68
445.902	2.71
446.108	2.75
446.314	2.81
446.52	2.82
446.726	2.86
446.931	2.97
447.137	2.96
447.343	2.93
447.549	2.94
447.755	2.85
447.96	2.84
448.166	2.87
448.372	2.85
448.578	2.84
448.783	2.84
448.989	2.87
449.195	2.88
449.4	2.88
449.606	2.84
449.812	2.89
450.017	2.89
450.223	2.9
450.428	2.9
450.634	2.98
450.84	2.98
451.045	2.95
451.251	2.96
451.456	2.96
451.662	2.96
451.867	2.98
452.073	2.87
452.278	2.87
452.483	2.97
452.689	2.95
452.894	2.96
453.1	2.89
453.305	2.85
453.51	2.87
453.716	2.86
453.921	2.79
454.127	2.81
454.332	2.8
454.537	2.91
454.742	2.93
454.948	2.94
455.153	3
455.358	3.03
455.563	2.98
455.769	2.99
455.974	2.93
456.179	2.89
456.384	2.95
456.589	2.94
456.795	2.86
457	2.89
457.205	2.85
457.41	2.91
457.615	2.97
457.82	3
458.025	2.95
458.23	3.04
458.435	3
458.64	3.05
458.845	3.01
459.05	2.98
459.255	2.93
459.46	2.97
459.665	2.95
459.87	2.98
460.075	2.98
460.28	3
460.485	3.06
460.69	3
460.895	3
461.099	3
461.304	3.06
461.509	2.98
461.714	2.99
461.919	2.98
462.123	3.07
462.328	3.11
462.533	3.13
462.738	3.11
462.942	3.2
463.147	3.17
463.352	3.22
463.556	3.24
463.761	3.23
463.966	3.21
464.17	3.26
464.375	3.24
464.58	3.26
464.784	3.18
464.989	3.13
465.193	3.15
465.398	3.18
465.602	3.13
465.807	3.15
466.011	3.2
466.216	3.26
466.42	3.31
466.625	3.33
466.829	3.41
467.034	3.47
467.238	3.49
467.443	3.51
467.647	3.52
467.851	3.54
468.056	3.5
468.26	3.4
468.464	3.41
468.669	3.46
468.873	3.44
469.077	3.47
469.282	3.48
469.486	3.55
469.69	3.63
469.894	3.67
470.099	3.64
470.303	3.65
470.507	3.64
470.711	3.66
470.915	3.7
