Data from Ofra_1a_PS_2HS17_Reflection_1.txt Node
Date: Tue Jul 20 10:52:45 EDT 2021
User: Adam
Spectrometer: FLMT01687
Trigger mode: 0
Integration Time (sec): 1.004000E0
Scans to average: 2
Electric dark correction enabled: true
Nonlinearity correction enabled: false
Boxcar width: 2
XAxis mode: Wavelengths
Number of Pixels in Spectrum: 3648
>>>>>Begin Spectral Data<<<<<
179.494	-156.35
179.716	-246.56
179.937	438.8
180.158	-591.08
180.38	55.39
180.601	14.88
180.823	-31.93
181.044	-103.13
181.265	-125.06
181.486	200.62
181.708	123.8
181.929	-6618.18
182.15	-64.88
182.372	-51.23
182.593	535.93
182.814	-294.06
183.035	-5.21
183.257	43.49
183.478	10.08
183.699	-3.92
183.92	-33.32
184.141	-32.62
184.363	-22.18
184.584	-37.8
184.805	14.46
185.026	37.35
185.247	9.21
185.468	-12.52
185.689	-13.35
185.91	-62.55
186.132	-13.05
186.353	-3.8
186.574	-3.47
186.795	20.51
187.016	39.39
187.237	6.4
187.458	17.27
187.679	21.09
187.9	44.44
188.121	51.57
188.342	74.25
188.563	85.38
188.784	89.44
189.005	44.82
189.226	50.19
189.447	35.78
189.667	15.71
189.888	-6.8
190.109	-13.85
190.33	-19.13
190.551	-19.2
190.772	-12.26
190.993	-12.79
191.214	15.89
191.434	20.23
191.655	2.97
191.876	39.59
192.097	27.51
192.318	31.63
192.538	-3.52
192.759	4.34
192.98	9.43
193.201	9.79
193.421	12.01
193.642	25.63
193.863	31.72
194.083	10.01
194.304	41.79
194.525	12.32
194.745	10.13
194.966	7.02
195.187	15.31
195.407	0.56
195.628	14.79
195.848	17.73
196.069	-5.7
196.29	-19.78
196.51	-43.03
196.731	-39.71
196.951	-48.84
197.172	-19.54
197.392	-25.85
197.613	7.56
197.833	-4.88
198.054	-3.44
198.274	4.07
198.495	18.22
198.715	10.24
198.936	20.14
199.156	22.38
199.377	2.9
199.597	16.03
199.817	-2.57
200.038	-31.8
200.258	-1.39
200.479	14.87
200.699	-3.54
200.919	19.31
201.14	17.99
201.36	-4.05
201.58	-19.41
201.801	-32.7
202.021	-54.9
202.241	-23.74
202.461	-18.01
202.682	14.68
202.902	41.64
203.122	62.31
203.342	57.31
203.563	48.51
203.783	22.34
204.003	5.75
204.223	5.23
204.443	2.31
204.663	7.34
204.884	30.11
205.104	43.67
205.324	37.98
205.544	8.68
205.764	37.34
205.984	36.92
206.204	15.35
206.424	6.35
206.644	9.74
206.864	-39.19
207.084	-17.27
207.304	-38.42
207.525	-41.29
207.745	-4.56
207.964	12.79
208.184	20.71
208.404	37.46
208.624	52.67
208.844	39.34
209.064	36.21
209.284	8.46
209.504	14.47
209.724	3.52
209.944	-6.49
210.164	-5.81
210.384	2.84
210.604	-42.69
210.823	-38.88
211.043	-16.88
211.263	-51.4
211.483	-14.45
211.703	-7.5
211.922	-18.77
212.142	-1.7
212.362	-6.21
212.582	-18.95
212.801	-24.87
213.021	-23.8
213.241	-54.64
213.461	-44.7
213.68	-18.92
213.9	-7.33
214.12	-0.98
214.339	15.24
214.559	30.85
214.779	21.45
214.998	32.16
215.218	42.35
215.438	39.38
215.657	43.67
215.877	40.87
216.096	47.33
216.316	35.08
216.535	30.77
216.755	27.4
216.974	39.75
217.194	20.58
217.413	35.06
217.633	24.05
217.852	10.36
218.072	11.14
218.291	11.25
218.511	4.94
218.73	9.97
218.95	-12.95
219.169	-38
219.389	-29.58
219.608	-54.26
219.827	-27.89
220.047	0.69
220.266	3.37
220.485	-19.42
220.705	0.2
220.924	3.08
221.143	12.72
221.363	12.4
221.582	29.6
221.801	39.75
222.021	31.82
222.24	23.92
222.459	25.76
222.678	28.51
222.897	24.49
223.117	25.18
223.336	33.69
223.555	56.01
223.774	54.62
223.993	48.33
224.213	43.64
224.432	42.13
224.651	38.07
224.87	36.65
225.089	42.61
225.308	53.18
225.527	27.06
225.746	-3.51
225.965	0.95
226.184	-20.53
226.404	-30.94
226.623	12.66
226.842	23.19
227.061	8.21
227.28	23.35
227.499	24.19
227.718	17.24
227.936	14.86
228.155	31.62
228.374	37.54
228.593	39.97
228.812	32.79
229.031	37.69
229.25	21.5
229.469	9.5
229.688	12.83
229.907	29.83
230.125	31.16
230.344	31.45
230.563	35.77
230.782	46.34
231.001	22.97
231.22	21.91
231.438	39.12
231.657	23.07
231.876	20.63
232.095	37.01
232.313	31.24
232.532	24.47
232.751	28.39
232.969	12.6
233.188	-2.78
233.407	5.64
233.625	-1.63
233.844	-3.25
234.063	-0.22
234.281	8.97
234.5	4.41
234.719	15.61
234.937	2.83
235.156	7.95
235.374	8.39
235.593	17.16
235.811	11.42
236.03	32.34
236.249	18.99
236.467	25.16
236.686	10.85
236.904	15.14
237.123	11.8
237.341	34.12
237.559	4.82
237.778	40.41
237.996	11.56
238.215	6.29
238.433	-40.24
238.652	36.06
238.87	-12.66
239.088	7.41
239.307	2.96
239.525	5.86
239.743	-10.95
239.962	-10.67
240.18	3.27
240.398	15.98
240.617	2.03
240.835	1.63
241.053	18.86
241.271	27.91
241.49	15.22
241.708	27.12
241.926	16.17
242.144	15.82
242.363	-17.9
242.581	-52
242.799	-58.49
243.017	-12.73
243.235	-10.86
243.453	-8.29
243.672	15.96
243.89	33.26
244.108	14.33
244.326	27.97
244.544	38.02
244.762	35.02
244.98	30.35
245.198	44.13
245.416	41.16
245.634	28.72
245.852	10.31
246.07	27.6
246.288	24.45
246.506	16.06
246.724	13.64
246.942	32.47
247.16	22.85
247.378	4.81
247.596	18.93
247.814	-6.88
248.032	-31.18
248.25	-15.43
248.468	12.73
248.685	4.72
248.903	27.18
249.121	33.62
249.339	29.99
249.557	37.61
249.775	43.14
249.992	28.09
250.21	13.67
250.428	27.63
250.646	24.77
250.863	14.04
251.081	21.49
251.299	38.48
251.517	24.98
251.734	30.83
251.952	42.06
252.17	45.2
252.387	32.33
252.605	32.37
252.823	9.81
253.04	13.42
253.258	5.47
253.475	14.62
253.693	11.18
253.911	7.74
254.128	3.69
254.346	3.32
254.563	17.99
254.781	14.17
254.998	25.33
255.216	14.49
255.433	-11.57
255.651	-23.14
255.868	-26.91
256.086	-24.25
256.303	-18.99
256.521	5.49
256.738	6.85
256.956	20.12
257.173	8.73
257.39	12.23
257.608	17.29
257.825	18.37
258.043	31.94
258.26	38.63
258.477	45.91
258.695	31.34
258.912	33.61
259.129	9.32
259.346	13.21
259.564	13.29
259.781	24.04
259.998	25.42
260.216	40.01
260.433	33.38
260.65	36.66
260.867	29.75
261.084	15.42
261.302	-20.49
261.519	-18.91
261.736	-7.25
261.953	-2.85
262.17	17.97
262.387	38.71
262.604	33.57
262.822	24.92
263.039	21.99
263.256	15.02
263.473	4.23
263.69	6.96
263.907	4.96
264.124	27.78
264.341	21.79
264.558	31.02
264.775	38.82
264.992	47.39
265.209	17.91
265.426	25.25
265.643	7.11
265.86	-34.26
266.077	-46.25
266.294	-20.4
266.51	12.44
266.727	17.44
266.944	37.87
267.161	28.71
267.378	39.41
267.595	19.37
267.812	9.24
268.028	-1.32
268.245	10.73
268.462	8.77
268.679	13
268.896	27.1
269.112	23.04
269.329	14.71
269.546	17.66
269.763	17.79
269.979	5.09
270.196	19.53
270.413	20.51
270.629	-2.01
270.846	5.31
271.063	6.09
271.279	-2.49
271.496	5.86
271.712	11.89
271.929	11.67
272.146	26.37
272.362	20.87
272.579	13.86
272.795	18.31
273.012	21.02
273.228	6.62
273.445	6.53
273.661	-0.87
273.878	-0.07
274.094	-7.84
274.311	-4.59
274.527	-14.29
274.744	15.82
274.96	12.73
275.177	13.75
275.393	35.85
275.609	44.85
275.826	32.36
276.042	24.91
276.259	30.53
276.475	24.19
276.691	3.37
276.908	0.79
277.124	18.79
277.34	11.06
277.557	-1.9
277.773	10.46
277.989	5.64
278.205	10.73
278.422	4.1
278.638	6.19
278.854	0.9
279.07	18.54
279.286	15.77
279.503	28.31
279.719	26.96
279.935	26.91
280.151	13.46
280.367	16.08
280.583	-0.69
280.799	-7.17
281.016	-23.36
281.232	-11.54
281.448	-30.94
281.664	-0.55
281.88	11.33
282.096	17.48
282.312	11.5
282.528	18.42
282.744	-8.1
282.96	-21.1
283.176	-25.02
283.392	-35.26
283.608	-58.47
283.824	-58.01
284.04	-89.79
284.256	-53.66
284.471	-24.04
284.687	-6.87
284.903	-1.88
285.119	13.14
285.335	19.45
285.551	12.99
285.767	12.79
285.982	14.6
286.198	1.88
286.414	4.48
286.63	38.38
286.846	32.42
287.061	48.02
287.277	47.9
287.493	42.13
287.709	26.8
287.924	28.56
288.14	35.98
288.356	42.03
288.571	45.77
288.787	28.21
289.003	30.34
289.218	9.87
289.434	1.87
289.65	4.91
289.865	15.48
290.081	31.64
290.296	32.76
290.512	35.69
290.727	34.53
290.943	32.26
291.159	19.6
291.374	8.15
291.59	3.85
291.805	-20.12
292.021	-19.44
292.236	-28.21
292.451	-5.88
292.667	0.29
292.882	23.88
293.098	26.73
293.313	26.13
293.529	22.69
293.744	13.01
293.959	10.1
294.175	19.28
294.39	13.45
294.605	9.36
294.821	3.17
295.036	10.29
295.251	0.49
295.467	-0.58
295.682	12.78
295.897	11.47
296.112	-1.35
296.328	21.44
296.543	11.26
296.758	11.17
296.973	18.05
297.188	20.05
297.404	-26.87
297.619	-20.36
297.834	-64.78
298.049	-31.07
298.264	-21.51
298.479	-23.92
298.694	11.61
298.909	31.72
299.125	9.91
299.34	12.8
299.555	32.66
299.77	31.6
299.985	21.98
300.2	30.9
300.415	29.68
300.63	33.64
300.845	30.47
301.06	33.77
301.275	25.77
301.49	25.46
301.704	9.51
301.919	4.07
302.134	-16.61
302.349	-4.51
302.564	-20.79
302.779	-21.06
302.994	-1.18
303.209	22.45
303.423	24.56
303.638	47.07
303.853	27.37
304.068	2.88
304.283	-3.18
304.497	-18.53
304.712	9.38
304.927	23.42
305.142	23.72
305.356	37.31
305.571	47.15
305.786	29.04
306	43.13
306.215	48.36
306.43	11.78
306.644	6.2
306.859	-6.04
307.074	0.56
307.288	13.51
307.503	39.32
307.717	31.5
307.932	40.75
308.147	31.54
308.361	32.35
308.576	-1.41
308.79	5.62
309.005	-17.13
309.219	-1.52
309.434	4.31
309.648	28.87
309.863	27.71
310.077	27.85
310.292	32.71
310.506	15.64
310.72	-1.25
310.935	9.83
311.149	6.99
311.364	-4.62
311.578	13.96
311.792	28.79
312.007	38.8
312.221	28.11
312.435	19.01
312.649	9.86
312.864	-14.88
313.078	-20.33
313.292	-13.31
313.507	-12.84
313.721	-9.22
313.935	13.67
314.149	14.13
314.363	39.22
314.578	28.51
314.792	21.64
315.006	18.59
315.22	25.37
315.434	26.12
315.648	34.11
315.862	39.94
316.077	23.26
316.291	16.31
316.505	-24.14
316.719	-13.36
316.933	-15.89
317.147	1.8
317.361	-5.78
317.575	12.5
317.789	8.99
318.003	13.36
318.217	18.18
318.431	23.79
318.645	22.35
318.859	26
319.073	37.4
319.287	35.08
319.5	34.61
319.714	23.87
319.928	14.84
320.142	-5.34
320.356	-9.63
320.57	-16.52
320.784	3.78
320.997	7.52
321.211	18.26
321.425	11.11
321.639	16.92
321.853	17.06
322.066	15.07
322.28	7.09
322.494	17.45
322.707	18.37
322.921	5.8
323.135	14.76
323.349	15.15
323.562	9.98
323.776	0.73
323.989	23.85
324.203	7.42
324.417	5.09
324.63	7.79
324.844	-0.69
325.057	-31.47
325.271	-16.7
325.485	2.11
325.698	10.67
325.912	33.38
326.125	36.97
326.339	42.2
326.552	33.91
326.766	21.84
326.979	23.32
327.193	21.79
327.406	-5.73
327.619	1.92
327.833	-3.86
328.046	-18.51
328.26	-20.44
328.473	1.72
328.686	-0.64
328.9	12.73
329.113	15.48
329.326	20.74
329.54	19.03
329.753	28.14
329.966	28.67
330.179	29.82
330.393	35.1
330.606	23.16
330.819	-0.2
331.032	4.54
331.246	24.73
331.459	28.4
331.672	45.73
331.885	50.97
332.098	44.42
332.311	14.71
332.525	12.62
332.738	26.86
332.951	22.35
333.164	26.58
333.377	26.76
333.59	25.48
333.803	2.15
334.016	16.41
334.229	14.74
334.442	18.48
334.655	10.79
334.868	12.42
335.081	4.5
335.294	-6.79
335.507	-2.6
335.72	-2.33
335.933	-9.41
336.146	-7.54
336.359	14.99
336.572	25.2
336.785	34.31
336.997	43.4
337.21	40.53
337.423	24.52
337.636	5.92
337.849	-8.49
338.062	-4.44
338.274	8.93
338.487	-4.43
338.7	-13.83
338.913	5.29
339.125	6.05
339.338	-7.01
339.551	-3.33
339.763	4.36
339.976	1.29
340.189	3.33
340.402	11.95
340.614	21.97
340.827	28.75
341.039	27.24
341.252	29.57
341.465	20.35
341.677	33.44
341.89	21.29
342.102	27.91
342.315	25.83
342.527	38.39
342.74	11.62
342.952	22.61
343.165	10.52
343.377	16.16
343.59	12.48
343.802	27.34
344.015	30.36
344.227	38.28
344.44	26.8
344.652	17.95
344.864	23.32
345.077	31.04
345.289	24.37
345.502	43.23
345.714	50.02
345.926	34.46
346.139	11.55
346.351	20.08
346.563	4.23
346.775	-12.34
346.988	7.56
347.2	6.69
347.412	9.4
347.624	16.02
347.837	29.11
348.049	30.53
348.261	18.7
348.473	2.5
348.685	1.09
348.897	-7.31
349.11	-2.92
349.322	22.63
349.534	20.2
349.746	7.08
349.958	0.25
350.17	-23
350.382	-26.52
350.594	-1.92
350.806	12.41
351.018	21.01
351.23	34.01
351.442	41.39
351.654	41.13
351.866	41.38
352.078	44.26
352.29	34.89
352.502	17.83
352.714	0.51
352.926	2.88
353.138	10.51
353.35	8.74
353.561	10.68
353.773	14.06
353.985	21.17
354.197	17.06
354.409	25.15
354.621	19.49
354.832	24.38
355.044	7.3
355.256	-1.53
355.468	-22.08
355.679	-1.1
355.891	4.12
356.103	3.51
356.314	2.43
356.526	-4.71
356.738	-5.66
356.949	-5.2
357.161	31.27
357.373	28.41
357.584	31.44
357.796	32.74
358.008	32.73
358.219	13.73
358.431	18.74
358.642	37.85
358.854	43.84
359.065	37.35
359.277	31.14
359.488	27.63
359.7	14.53
359.911	-1.44
360.123	12.38
360.334	8.49
360.546	0.22
360.757	6.29
360.969	11.64
361.18	-1.37
361.391	13.71
361.603	24.79
361.814	21.78
362.025	20.08
362.237	23.86
362.448	31.25
362.659	22.21
362.871	15.85
363.082	3.03
363.293	-2.23
363.504	-41.92
363.716	-38.98
363.927	-7.32
364.138	-20.13
364.349	-27.49
364.56	-44.44
364.772	-26.79
364.983	-18.94
365.194	5.64
365.405	14.16
365.616	43.71
365.827	26.5
366.038	18.45
366.25	14.74
366.461	13.56
366.672	-1.36
366.883	5.52
367.094	-14.14
367.305	-26.95
367.516	-12.15
367.727	-9.89
367.938	-4.33
368.149	2.51
368.36	21.86
368.571	-14.13
368.781	-12.65
368.992	-19.37
369.203	-22.08
369.414	-34.22
369.625	-3.8
369.836	17.45
370.047	27.41
370.258	39.53
370.468	48.15
370.679	33.93
370.89	11.51
371.101	23.73
371.312	13.86
371.522	-0.81
371.733	8.31
371.944	6.75
372.155	7.7
372.365	13.6
372.576	11.74
372.787	9.64
372.997	19.12
373.208	3.39
373.419	2.7
373.629	8.34
373.84	5.01
374.05	-0.88
374.261	-5.38
374.472	9.23
374.682	25.1
374.893	23.92
375.103	27.11
375.314	20.6
375.524	14.67
375.735	4.93
375.945	13.1
376.156	17.43
376.366	29.31
376.577	28.61
376.787	37.81
376.997	39.47
377.208	35.4
377.418	26.78
377.629	28.94
377.839	27.22
378.049	24.28
378.26	9.48
378.47	9.96
378.68	5.3
378.89	-8.99
379.101	-14.24
379.311	1.78
379.521	-5.07
379.732	1.86
379.942	9.55
380.152	5.64
380.362	-4.51
380.572	19.77
380.783	17.86
380.993	19.78
381.203	27.63
381.413	39.05
381.623	30.77
381.833	32.07
382.043	28.62
382.253	22.18
382.463	23.81
382.674	16.17
382.884	17.26
383.094	22.88
383.304	28.29
383.514	24.12
383.724	24.28
383.934	16.29
384.144	14.14
384.353	12.86
384.563	7.41
384.773	14.19
384.983	12.1
385.193	9.61
385.403	4.77
385.613	14.51
385.823	11.77
386.033	17.39
386.242	12.1
386.452	12.57
386.662	8.02
386.872	9.02
387.082	6.33
387.291	8.39
387.501	8.93
387.711	9.5
387.921	8.03
388.13	9.44
388.34	13.73
388.55	9.77
388.759	2.45
388.969	1.19
389.179	3.45
389.388	1.4
389.598	3.78
389.807	7.04
390.017	5.21
390.227	1.43
390.436	2.12
390.646	5.45
390.855	8.05
391.065	10.36
391.274	9.32
391.484	6.62
391.693	3.22
391.903	-0.42
392.112	-0.68
392.322	-1.1
392.531	-0.43
392.74	0.53
392.95	2.2
393.159	1.21
393.369	3.48
393.578	4
393.787	5.21
393.997	6.4
394.206	6.74
394.415	7.46
394.625	8.18
394.834	5.78
395.043	4.62
395.252	7.32
395.462	6.37
395.671	6.61
395.88	8.55
396.089	8.99
396.298	7.17
396.508	7.95
396.717	7.41
396.926	7.01
397.135	7.54
397.344	7.19
397.553	5.97
397.762	7.14
397.971	6.9
398.181	6.37
398.39	6.34
398.599	6.72
398.808	6.17
399.017	6.95
399.226	7.11
399.435	7.42
399.644	7.99
399.853	7.97
400.062	7.52
400.27	6.96
400.479	7.16
400.688	6.8
400.897	6.33
401.106	6.41
401.315	6.63
401.524	6.46
401.733	6.29
401.941	6.72
402.15	6.89
402.359	6.95
402.568	6.98
402.777	7.13
402.985	6.72
403.194	6.49
403.403	6.61
403.612	6.39
403.82	6.1
404.029	6.28
404.238	6.14
404.446	6.18
404.655	6.3
404.864	6.53
405.072	6.5
405.281	6.61
405.489	6.56
405.698	6.57
405.906	6.46
406.115	6.53
406.324	6.47
406.532	6.45
406.741	6.29
406.949	6.43
407.158	6.35
407.366	6.26
407.574	6.19
407.783	6.21
407.991	6.12
408.2	6.18
408.408	6.24
408.617	6.18
408.825	6.04
409.033	5.99
409.242	5.98
409.45	5.87
409.658	5.77
409.867	5.95
410.075	5.99
410.283	5.87
410.491	5.82
410.7	5.89
410.908	5.82
411.116	5.79
411.324	5.82
411.533	5.83
411.741	5.81
411.949	5.8
412.157	5.69
412.365	5.68
412.573	5.74
412.781	5.75
412.99	5.8
413.198	5.87
413.406	6.01
413.614	6.09
413.822	6.25
414.03	6.33
414.238	6.37
414.446	6.39
414.654	6.16
414.862	5.99
415.07	5.72
415.278	5.83
415.486	5.54
415.694	5.78
415.902	5.69
416.109	5.87
416.317	5.66
416.525	5.64
416.733	5.46
416.941	5.58
417.149	5.36
417.357	5.33
417.564	5.35
417.772	5.4
417.98	5.29
418.188	5.33
418.395	5.2
418.603	5.22
418.811	5.14
419.019	5.14
419.226	5.36
419.434	5.47
419.642	5.34
419.849	5.37
420.057	5.36
420.265	5.27
420.472	5.31
420.68	5.42
420.887	5.4
421.095	5.47
421.302	5.38
421.51	5.26
421.717	5.33
421.925	5.46
422.132	5.43
422.34	5.23
422.547	5.22
422.755	5.14
422.962	4.99
423.17	4.8
423.377	5.09
423.585	5.29
423.792	5.22
423.999	5.42
424.207	5.33
424.414	5.35
424.621	5.3
424.829	5.5
425.036	5.52
425.243	5.81
425.451	5.55
425.658	5.33
425.865	5.34
426.072	5.17
426.28	5.16
426.487	5.33
426.694	5.38
426.901	5.3
427.108	5.3
427.315	5.26
427.523	5.06
427.73	5.1
427.937	4.97
428.144	4.93
428.351	4.83
428.558	5.05
428.765	5
428.972	5.12
429.179	5.06
429.386	5.05
429.593	4.78
429.8	4.78
430.007	4.9
430.214	5
430.421	5.19
430.628	5.32
430.835	5.31
431.042	5.07
431.249	5.01
431.456	4.81
431.662	4.85
431.869	5.11
432.076	5.12
432.283	5.19
432.49	5.25
432.697	5.25
432.903	4.99
433.11	5.17
433.317	5.16
433.524	5.21
433.73	5.1
433.937	5.22
434.144	5.02
434.35	4.94
434.557	4.91
434.764	5
434.97	4.9
435.177	5.1
435.384	5.18
435.59	5.12
435.797	5.15
436.003	5.21
436.21	5.04
436.416	5.08
436.623	5.16
436.829	5.22
437.036	5.24
437.242	5.35
437.449	5.32
437.655	5.4
437.862	5.37
438.068	5.31
438.275	5.32
438.481	5.34
438.687	5.26
438.894	5.37
439.1	5.38
439.307	5.51
439.513	5.45
439.719	5.46
439.926	5.4
440.132	5.55
440.338	5.43
440.544	5.42
440.751	5.41
440.957	5.39
441.163	5.28
441.369	5.31
441.575	5.31
441.782	5.37
441.988	5.33
442.194	5.23
442.4	5.21
442.606	5.41
442.812	5.47
443.018	5.47
443.224	5.68
443.431	5.66
443.637	5.52
443.843	5.48
444.049	5.61
444.255	5.63
444.461	5.56
444.667	5.55
444.873	5.46
445.079	5.45
445.284	5.37
445.49	5.45
445.696	5.39
445.902	5.43
446.108	5.42
446.314	5.49
446.52	5.54
446.726	5.69
446.931	5.7
447.137	5.64
447.343	5.72
447.549	5.68
447.755	5.63
447.96	5.73
448.166	5.78
448.372	5.64
448.578	5.57
448.783	5.54
448.989	5.49
449.195	5.41
449.4	5.48
449.606	5.56
449.812	5.52
450.017	5.62
450.223	5.65
450.428	5.59
450.634	5.55
450.84	5.49
451.045	5.36
451.251	5.46
451.456	5.58
451.662	5.59
451.867	5.78
452.073	5.89
452.278	5.81
452.483	5.75
452.689	5.63
452.894	5.66
453.1	5.6
453.305	5.64
453.51	5.7
453.716	5.74
453.921	5.67
454.127	5.66
454.332	5.6
454.537	5.48
454.742	5.55
454.948	5.51
455.153	5.49
455.358	5.46
455.563	5.52
455.769	5.57
455.974	5.58
456.179	5.51
456.384	5.49
456.589	5.47
456.795	5.39
457	5.34
457.205	5.27
457.41	5.25
457.615	5.21
457.82	5.34
458.025	5.43
458.23	5.54
458.435	5.64
458.64	5.67
458.845	5.57
459.05	5.55
459.255	5.54
459.46	5.49
459.665	5.54
459.87	5.53
460.075	5.58
460.28	5.67
460.485	5.81
460.69	5.8
460.895	5.87
461.099	5.77
461.304	5.68
461.509	5.64
461.714	5.66
461.919	5.62
462.123	5.7
462.328	5.65
462.533	5.55
462.738	5.54
462.942	5.45
463.147	5.36
463.352	5.49
463.556	5.55
463.761	5.52
463.966	5.57
464.17	5.75
464.375	5.71
464.58	5.66
464.784	5.71
464.989	5.8
465.193	5.71
465.398	5.67
465.602	5.82
465.807	5.82
466.011	5.78
466.216	5.71
466.42	5.79
466.625	5.83
466.829	5.84
467.034	5.88
467.238	6.05
467.443	6.13
467.647	6
467.851	6.07
468.056	6.11
468.26	6.03
468.464	5.98
