Data from Ofra_2a_PS_OGT1K_Reflection_2.txt Node
Date: Tue Jul 20 09:28:29 EDT 2021
User: Adam
Spectrometer: FLMT01687
Trigger mode: 0
Integration Time (sec): 9.450000E-1
Scans to average: 3
Electric dark correction enabled: true
Nonlinearity correction enabled: false
Boxcar width: 3
XAxis mode: Wavelengths
Number of Pixels in Spectrum: 3648
>>>>>Begin Spectral Data<<<<<
179.494	672.78
179.716	395.86
179.937	522.53
180.158	1998.05
180.38	-1009.01
180.601	-170.91
180.823	-79.93
181.044	-55.28
181.265	-128.11
181.486	68.52
181.708	1366.3
181.929	218.72
182.15	434.66
182.372	-30.05
182.593	-37.76
182.814	269.01
183.035	57.95
183.257	31.39
183.478	7.32
183.699	21.91
183.92	17.84
184.141	24.19
184.363	2.38
184.584	3.66
184.805	-1.79
185.026	-39.27
185.247	-24.1
185.468	-11.12
185.689	-6.34
185.91	2.6
186.132	17.31
186.353	8.2
186.574	27.16
186.795	9.14
187.016	10.66
187.237	6.83
187.458	2.73
187.679	-10.08
187.9	7.01
188.121	17.85
188.342	30.68
188.563	35.57
188.784	43.03
189.005	57.23
189.226	49.35
189.447	48.85
189.667	27.62
189.888	30.51
190.109	34.77
190.33	11.11
190.551	4.44
190.772	8.58
190.993	10.24
191.214	9.59
191.434	17.76
191.655	11.26
191.876	20.63
192.097	25.32
192.318	29.75
192.538	41.19
192.759	49.95
192.98	34.04
193.201	43.72
193.421	49.46
193.642	43.63
193.863	31.38
194.083	9.78
194.304	0.11
194.525	21.84
194.745	1.04
194.966	9.27
195.187	12.5
195.407	18.98
195.628	21.8
195.848	22.61
196.069	18.24
196.29	29.95
196.51	28.18
196.731	44.02
196.951	45.14
197.172	43.32
197.392	30.59
197.613	27.29
197.833	21.62
198.054	12.17
198.274	-17.99
198.495	-5.56
198.715	-10.16
198.936	-12.43
199.156	-0.7
199.377	6.68
199.597	13.48
199.817	43.81
200.038	29.11
200.258	33.69
200.479	50.61
200.699	52.51
200.919	38.49
201.14	47.8
201.36	39.47
201.58	37.21
201.801	25.67
202.021	11.49
202.241	10.31
202.461	15
202.682	8.2
202.902	-0.84
203.122	1.52
203.342	21.71
203.563	30.93
203.783	28.2
204.003	32.94
204.223	35.65
204.443	41.53
204.663	47.27
204.884	37.75
205.104	44.61
205.324	62.92
205.544	75.32
205.764	79.74
205.984	84.51
206.204	77.71
206.424	69.47
206.644	56.62
206.864	37.95
207.084	39.85
207.304	33.45
207.525	13.79
207.745	10.39
207.964	8.86
208.184	22.36
208.404	23.34
208.624	-1.16
208.844	-5.12
209.064	3.85
209.284	11.37
209.504	1.04
209.724	-10.11
209.944	-9.12
210.164	17.07
210.384	23.16
210.604	35.21
210.823	27.43
211.043	26.8
211.263	39.06
211.483	35.01
211.703	22.87
211.922	23.82
212.142	30.44
212.362	31.64
212.582	31.77
212.801	24.11
213.021	25.34
213.241	36.58
213.461	42.25
213.68	40.43
213.9	44.89
214.12	42.01
214.339	44.88
214.559	49.94
214.779	35.74
214.998	36.86
215.218	37.49
215.438	36.28
215.657	36.12
215.877	25.35
216.096	20.35
216.316	28.41
216.535	15.87
216.755	-2.11
216.974	1.39
217.194	6.16
217.413	19.89
217.633	24.27
217.852	14.59
218.072	20.37
218.291	44.01
218.511	30.13
218.73	25.71
218.95	22.15
219.169	25.34
219.389	26.66
219.608	32.66
219.827	16.28
220.047	27.41
220.266	23.17
220.485	29.07
220.705	15.42
220.924	24.91
221.143	22.36
221.363	29.29
221.582	30.27
221.801	34
222.021	27.65
222.24	41.79
222.459	33.86
222.678	27.87
222.897	6.24
223.117	1.27
223.336	4.54
223.555	-15.44
223.774	-20.53
223.993	-9.71
224.213	2.18
224.432	18.3
224.651	2.98
224.87	4.43
225.089	23.84
225.308	36.23
225.527	35.18
225.746	25.85
225.965	12.62
226.184	20.8
226.404	8.08
226.623	10.97
226.842	0.46
227.061	-0.73
227.28	15.58
227.499	24.77
227.718	23.54
227.936	24.91
228.155	24.73
228.374	30.33
228.593	29.97
228.812	19.46
229.031	13.54
229.25	13.22
229.469	16.8
229.688	19.95
229.907	3.22
230.125	11.2
230.344	13.46
230.563	25.99
230.782	33.03
231.001	35.14
231.22	20.38
231.438	34.89
231.657	30.37
231.876	35.87
232.095	25.41
232.313	20.75
232.532	22.98
232.751	35.35
232.969	30.29
233.188	31.55
233.407	25.75
233.625	20.76
233.844	22.96
234.063	22.13
234.281	18.51
234.5	18.57
234.719	7.7
234.937	16.52
235.156	19.36
235.374	15.19
235.593	14.15
235.811	13.23
236.03	12.54
236.249	34.67
236.467	30.71
236.686	44.41
236.904	42.12
237.123	46.02
237.341	46.83
237.559	45.44
237.778	43.97
237.996	41.35
238.215	30.25
238.433	30.14
238.652	22.96
238.87	22.01
239.088	14.17
239.307	10.34
239.525	-0.56
239.743	-6.11
239.962	-2.53
240.18	11.81
240.398	16.65
240.617	26.5
240.835	27.94
241.053	34.63
241.271	46.18
241.49	35.25
241.708	21.97
241.926	4.86
242.144	4.23
242.363	4.96
242.581	3.86
242.799	-6.48
243.017	2.09
243.235	-4.72
243.453	0.53
243.672	9.46
243.89	8.62
244.108	18.4
244.326	14.53
244.544	26.49
244.762	38.88
244.98	37.94
245.198	19.34
245.416	23.59
245.634	21.2
245.852	39.9
246.07	24.71
246.288	17
246.506	19.66
246.724	25.98
246.942	16.99
247.16	17.7
247.378	-2.84
247.596	-1.1
247.814	-4.18
248.032	-9.94
248.25	-16.49
248.468	-7.83
248.685	-6.6
248.903	-2.66
249.121	3.19
249.339	3.47
249.557	10.37
249.775	7.9
249.992	0.3
250.21	-3.41
250.428	-0.96
250.646	1.85
250.863	3.93
251.081	0.6
251.299	13.16
251.517	25.6
251.734	21
251.952	21.95
252.17	-2.63
252.387	13.18
252.605	-0.57
252.823	-20.24
253.04	-33.17
253.258	-31.91
253.475	-11.09
253.693	7.54
253.911	-3.61
254.128	5.52
254.346	9.38
254.563	7.26
254.781	3.61
254.998	-2.93
255.216	-6.69
255.433	-11.07
255.651	-6.79
255.868	2.5
256.086	10.97
256.303	17.77
256.521	5.37
256.738	0.69
256.956	-2.79
257.173	-1.45
257.39	-7.31
257.608	-0.24
257.825	4.95
258.043	15.41
258.26	21.3
258.477	32.89
258.695	34.34
258.912	49.53
259.129	44.63
259.346	44.36
259.564	35.18
259.781	42.73
259.998	32.78
260.216	37.42
260.433	30.25
260.65	33.85
260.867	19.36
261.084	31.91
261.302	19.65
261.519	27.73
261.736	17.69
261.953	28.52
262.17	21.24
262.387	19.85
262.604	14.65
262.822	16.99
263.039	10.53
263.256	13.5
263.473	0.95
263.69	-1.96
263.907	-1.42
264.124	-2.62
264.341	10.91
264.558	13.97
264.775	16.1
264.992	16.54
265.209	27.04
265.426	33.26
265.643	38.64
265.86	25.63
266.077	23.51
266.294	22.33
266.51	20.06
266.727	4.77
266.944	1.28
267.161	-15.43
267.378	-7.76
267.595	-6.99
267.812	-11.02
268.028	-4.81
268.245	3.7
268.462	-2.48
268.679	0.83
268.896	-4.29
269.112	11.8
269.329	21.5
269.546	29.61
269.763	29.55
269.979	26.99
270.196	31.92
270.413	29.63
270.629	21.91
270.846	24.6
271.063	23.84
271.279	22.58
271.496	25.52
271.712	28.05
271.929	31.62
272.146	29.26
272.362	16.35
272.579	13.27
272.795	9.48
273.012	8.41
273.228	9.74
273.445	10.2
273.661	5.16
273.878	9.24
274.094	10.26
274.311	17.91
274.527	21.51
274.744	24.13
274.96	17.35
275.177	35.15
275.393	37.76
275.609	35.96
275.826	37.3
276.042	48.85
276.259	46.77
276.475	49.23
276.691	44.08
276.908	42.85
277.124	39.15
277.34	39.06
277.557	31.16
277.773	20.73
277.989	26.47
278.205	16.29
278.422	12.93
278.638	23.16
278.854	1.39
279.07	-13.39
279.286	0.48
279.503	-4.57
279.719	13.22
279.935	12.7
280.151	11.99
280.367	29.38
280.583	39.99
280.799	40.5
281.016	44.98
281.232	33.6
281.448	31.89
281.664	37.87
281.88	32.78
282.096	32.84
282.312	19.43
282.528	10
282.744	8.27
282.96	10.9
283.176	-1.32
283.392	11.05
283.608	13.5
283.824	15.1
284.04	23.23
284.256	32.4
284.471	35.31
284.687	32.84
284.903	17.18
285.119	2.53
285.335	9.58
285.551	9.52
285.767	5.9
285.982	3.29
286.198	6.47
286.414	26.82
286.63	35.61
286.846	30.98
287.061	26.1
287.277	28.88
287.493	22.55
287.709	20.44
287.924	15.81
288.14	13.62
288.356	7.91
288.571	-6.67
288.787	-9.19
289.003	-3.69
289.218	1.8
289.434	-5.96
289.65	-0.79
289.865	10.16
290.081	20.56
290.296	20.98
290.512	27.34
290.727	29.01
290.943	16.57
291.159	9.89
291.374	11.78
291.59	12.62
291.805	6.25
292.021	-9.57
292.236	-11
292.451	6.9
292.667	9.38
292.882	-1.84
293.098	-7.36
293.313	-4.68
293.529	6.79
293.744	9.74
293.959	12.59
294.175	13.82
294.39	29.67
294.605	35.51
294.821	34.9
295.036	25.47
295.251	25.77
295.467	16.79
295.682	20.59
295.897	17.92
296.112	18.21
296.328	20.96
296.543	21.56
296.758	19.77
296.973	24.47
297.188	20.95
297.404	31.4
297.619	23.46
297.834	25.8
298.049	28.17
298.264	23.38
298.479	11.29
298.694	12.13
298.909	-0.1
299.125	7.03
299.34	2.28
299.555	7.51
299.77	10.71
299.985	8.86
300.2	10.88
300.415	14.48
300.63	6.91
300.845	7.83
301.06	4.25
301.275	9.12
301.49	20.72
301.704	20.01
301.919	15.5
302.134	14.92
302.349	12.6
302.564	8.82
302.779	7.58
302.994	11.72
303.209	-0.66
303.423	3.56
303.638	20.46
303.853	19.55
304.068	29.58
304.283	22.18
304.497	15.91
304.712	26.15
304.927	20.01
305.142	21.09
305.356	22
305.571	21.42
305.786	21.89
306	24.62
306.215	19.24
306.43	26.83
306.644	18.34
306.859	22.58
307.074	16.23
307.288	19.92
307.503	17.97
307.717	18.89
307.932	13.26
308.147	16.43
308.361	13.03
308.576	17.09
308.79	17.32
309.005	22.02
309.219	21.17
309.434	22.95
309.648	13.5
309.863	18.07
310.077	24.9
310.292	29.72
310.506	35.37
310.72	40.37
310.935	35.7
311.149	41.96
311.364	36.99
311.578	25.11
311.792	12.99
312.007	2.64
312.221	6.86
312.435	9.81
312.649	11.54
312.864	11.28
313.078	24.93
313.292	37.22
313.507	37.76
313.721	27.71
313.935	29.17
314.149	19.7
314.363	21.99
314.578	17.31
314.792	11.77
315.006	18.05
315.22	22.7
315.434	10.53
315.648	-0.19
315.862	7.19
316.077	6.68
316.291	9.05
316.505	-3.78
316.719	-6.62
316.933	8.39
317.147	19.46
317.361	18.74
317.575	29.02
317.789	23.74
318.003	33.58
318.217	27.57
318.431	33.19
318.645	32.76
318.859	18.47
319.073	13.44
319.287	22.52
319.5	20.64
319.714	26.46
319.928	25.67
320.142	27.86
320.356	42.36
320.57	34.23
320.784	26.52
320.997	26.4
321.211	24.08
321.425	14.47
321.639	11.39
321.853	2.64
322.066	12.29
322.28	8.6
322.494	4.93
322.707	0.93
322.921	9.85
323.135	19.79
323.349	20.5
323.562	19.56
323.776	21.28
323.989	16.53
324.203	21.32
324.417	15.33
324.63	0.06
324.844	-6.67
325.057	-12.76
325.271	-27.76
325.485	-16.68
325.698	-19.98
325.912	-7.46
326.125	3
326.339	12.23
326.552	27.33
326.766	43.75
326.979	41.98
327.193	43.59
327.406	33.91
327.619	14.24
327.833	7.04
328.046	-1.62
328.26	-10.72
328.473	-9.63
328.686	-6.71
328.9	-10.74
329.113	9.29
329.326	18.5
329.54	20.3
329.753	26.58
329.966	27.05
330.179	34.21
330.393	34.1
330.606	30.43
330.819	26.77
331.032	25.43
331.246	20.63
331.459	21.39
331.672	11.1
331.885	8.53
332.098	8.21
332.311	-4.18
332.525	5.74
332.738	4.15
332.951	7.9
333.164	10.11
333.377	13.32
333.59	23.95
333.803	34.57
334.016	39.19
334.229	37.89
334.442	32.18
334.655	47.24
334.868	54.08
335.081	55.8
335.294	54.72
335.507	49.24
335.72	39.79
335.933	44.07
336.146	34.5
336.359	29.63
336.572	15.1
336.785	19.82
336.997	14.69
337.21	22.51
337.423	16.81
337.636	13.29
337.849	11.32
338.062	12.39
338.274	12.26
338.487	12.7
338.7	15.99
338.913	18.23
339.125	22.31
339.338	23.17
339.551	32.54
339.763	29.43
339.976	30.03
340.189	31.25
340.402	28.13
340.614	31.51
340.827	27
341.039	24.37
341.252	20.26
341.465	19.56
341.677	13.05
341.89	8.2
342.102	0.54
342.315	7.61
342.527	3.7
342.74	6.34
342.952	9.59
343.165	18.18
343.377	24.69
343.59	24.67
343.802	26.71
344.015	28.86
344.227	27.76
344.44	21.43
344.652	16.81
344.864	16.16
345.077	13.2
345.289	8.06
345.502	7.32
345.714	-6.51
345.926	-2.21
346.139	-0.26
346.351	-7.25
346.563	3.75
346.775	5.84
346.988	10.41
347.2	21.43
347.412	17.01
347.624	20.6
347.837	22.81
348.049	17.29
348.261	17.66
348.473	8.83
348.685	16.95
348.897	18.05
349.11	22.5
349.322	14.28
349.534	15.57
349.746	16.85
349.958	19.72
350.17	16.33
350.382	16.69
350.594	3.76
350.806	20.19
351.018	24.29
351.23	29.04
351.442	30.08
351.654	27.74
351.866	32.07
352.078	31.32
352.29	27.33
352.502	23.91
352.714	18.41
352.926	12.22
353.138	15.41
353.35	10.45
353.561	5.76
353.773	7.62
353.985	9.34
354.197	4.31
354.409	11.96
354.621	5.44
354.832	5.18
355.044	14.89
355.256	11.78
355.468	10.44
355.679	17.87
355.891	15.86
356.103	21.13
356.314	21.4
356.526	16.61
356.738	10.77
356.949	9.7
357.161	1.04
357.373	1.43
357.584	4.8
357.796	-1.07
358.008	10.78
358.219	19.75
358.431	21.43
358.642	21.58
358.854	21.7
359.065	23.3
359.277	29.43
359.488	26.33
359.7	29.32
359.911	35.41
360.123	39.97
360.334	39.9
360.546	31.89
360.757	32.23
360.969	37.32
361.18	36.36
361.391	29.25
361.603	30.07
361.814	22.32
362.025	22.5
362.237	25.81
362.448	22.58
362.659	11.24
362.871	12
363.082	6.98
363.293	14.77
363.504	17.49
363.716	10.99
363.927	7.32
364.138	18.04
364.349	21.95
364.56	26.59
364.772	25.98
364.983	19.57
365.194	17.42
365.405	19.34
365.616	12.02
365.827	3.06
366.038	11.37
366.25	12.16
366.461	24.72
366.672	28
366.883	28.5
367.094	25.51
367.305	19.1
367.516	9.24
367.727	12.77
367.938	10.67
368.149	15.52
368.36	12.82
368.571	16.35
368.781	24.32
368.992	22.3
369.203	18.54
369.414	13.11
369.625	10.45
369.836	17.12
370.047	15.63
370.258	12.21
370.468	16.36
370.679	15.81
370.89	27.11
371.101	23.43
371.312	12.68
371.522	14.47
371.733	11.79
371.944	11.27
372.155	7.07
372.365	-3.55
372.576	2.27
372.787	1.45
372.997	-0.7
373.208	9.77
373.419	7.2
373.629	20.71
373.84	22.47
374.05	22.87
374.261	23.98
374.472	27.45
374.682	15.88
374.893	13.61
375.103	8.34
375.314	6.17
375.524	3.79
375.735	8.17
375.945	9.3
376.156	23.46
376.366	26.34
376.577	20.84
376.787	23
376.997	29
377.208	27.64
377.418	18.54
377.629	13.56
377.839	20.05
378.049	27.54
378.26	30.75
378.47	28.74
378.68	26.02
378.89	25.43
379.101	14.79
379.311	8.9
379.521	5.65
379.732	-4.1
379.942	-6.99
380.152	3.36
380.362	9.82
380.572	15.57
380.783	14.82
380.993	17.53
381.203	21.15
381.413	24.73
381.623	20.85
381.833	22.99
382.043	22.18
382.253	24.03
382.463	22.34
382.674	27.47
382.884	17.27
383.094	14.65
383.304	10.2
383.514	14.14
383.724	17.79
383.934	15.84
384.144	11.96
384.353	17.39
384.563	15.12
384.773	15.36
384.983	11.17
385.193	9.67
385.403	12.73
385.613	6.84
385.823	6.08
386.033	7.98
386.242	7.58
386.452	9.13
386.662	6.83
386.872	3.32
387.082	7.63
387.291	7.45
387.501	8.84
387.711	10.64
387.921	10.19
388.13	8.59
388.34	5.96
388.55	4.25
388.759	3.51
388.969	-0.36
389.179	0.06
389.388	1.2
389.598	1.39
389.807	4.77
390.017	6.8
390.227	7.45
390.436	7.61
390.646	7.43
390.855	5.81
391.065	5.72
391.274	2.79
391.484	3.35
391.693	4.27
391.903	5.32
392.112	4.88
392.322	6.06
392.531	6.32
392.74	6.77
392.95	5.56
393.159	5.79
393.369	6.61
393.578	6.6
393.787	6.06
393.997	7.16
394.206	7.58
394.415	7.46
394.625	5.86
394.834	4.41
395.043	4.69
395.252	5.45
395.462	4.93
395.671	5.03
395.88	5.48
396.089	6.51
396.298	7.08
396.508	7.12
396.717	6.86
396.926	6.45
397.135	5.88
397.344	5.87
397.553	6.02
397.762	5.68
397.971	5.27
398.181	5
398.39	5.3
398.599	5.97
398.808	6.01
399.017	5.98
399.226	6.23
399.435	6.42
399.644	6.33
399.853	6.29
400.062	6.03
400.27	6.07
400.479	6.11
400.688	6.11
400.897	6.26
401.106	6.41
401.315	6.28
401.524	6.36
401.733	6.45
401.941	6.18
402.15	6.03
402.359	5.94
402.568	5.91
402.777	5.87
402.985	5.81
403.194	5.66
403.403	5.48
403.612	5.43
403.82	5.5
404.029	5.41
404.238	5.49
404.446	5.53
404.655	5.38
404.864	5.55
405.072	5.65
405.281	5.46
405.489	5.55
405.698	5.5
405.906	5.35
406.115	5.51
406.324	5.45
406.532	5.46
406.741	5.63
406.949	5.53
407.158	5.56
407.366	5.72
407.574	5.74
407.783	5.65
407.991	5.55
408.2	5.41
408.408	5.44
408.617	5.35
408.825	5.25
409.033	5.12
409.242	5.15
409.45	5.13
409.658	5.14
409.867	5.17
410.075	5.22
410.283	5.2
410.491	5.18
410.7	5.28
410.908	5.31
411.116	5.23
411.324	5.18
411.533	5.09
411.741	5.09
411.949	5.17
412.157	5.16
412.365	5.24
412.573	5.32
412.781	5.37
412.99	5.46
413.198	5.45
413.406	5.4
413.614	5.36
413.822	5.27
414.03	5.19
414.238	5.19
414.446	5.08
414.654	5.1
414.862	5.08
415.07	5.17
415.278	5.09
415.486	5.17
415.694	5.1
415.902	5.14
416.109	5.11
416.317	5.06
416.525	5.01
416.733	5.13
416.941	5.03
417.149	5.09
417.357	5.12
417.564	5.1
417.772	5.1
417.98	5.07
418.188	4.85
418.395	4.92
418.603	4.82
418.811	4.72
419.019	4.78
419.226	4.83
419.434	4.7
419.642	4.69
419.849	4.57
420.057	4.62
420.265	4.67
420.472	4.59
420.68	4.5
420.887	4.59
421.095	4.7
421.302	4.86
421.51	4.86
421.717	4.88
421.925	4.76
422.132	4.73
422.34	4.72
422.547	4.62
422.755	4.53
422.962	4.33
423.17	4.28
423.377	4.48
423.585	4.54
423.792	4.54
423.999	4.57
424.207	4.48
424.414	4.75
424.621	4.73
424.829	4.6
425.036	4.55
425.243	4.58
425.451	4.57
425.658	4.66
425.865	4.47
426.072	4.5
426.28	4.53
426.487	4.52
426.694	4.39
426.901	4.29
427.108	4.23
427.315	4.25
427.523	4.26
427.73	4.33
427.937	4.43
428.144	4.49
428.351	4.59
428.558	4.63
428.765	4.61
428.972	4.6
429.179	4.51
429.386	4.47
429.593	4.41
429.8	4.49
430.007	4.54
430.214	4.59
430.421	4.53
430.628	4.49
430.835	4.44
431.042	4.56
431.249	4.49
431.456	4.5
431.662	4.55
431.869	4.66
432.076	4.68
432.283	4.7
432.49	4.7
432.697	4.75
432.903	4.78
433.11	4.77
433.317	4.77
433.524	4.75
433.73	4.8
433.937	4.81
434.144	4.9
434.35	4.86
434.557	4.86
434.764	4.84
434.97	4.95
435.177	4.94
435.384	5.03
435.59	4.97
435.797	4.99
436.003	4.95
436.21	4.95
436.416	4.92
436.623	4.97
436.829	4.86
437.036	4.82
437.242	4.84
437.449	4.89
437.655	4.89
437.862	4.91
438.068	4.94
438.275	5.02
438.481	5.12
438.687	5.17
438.894	5.18
439.1	5.25
439.307	5.23
439.513	5.17
439.719	5.13
439.926	5.09
440.132	5.1
440.338	5.12
440.544	5.05
440.751	5.07
440.957	5.11
441.163	5.16
441.369	5.19
441.575	5.16
441.782	5.19
441.988	5.25
442.194	5.34
442.4	5.32
442.606	5.32
442.812	5.33
443.018	5.34
443.224	5.33
443.431	5.32
443.637	5.26
443.843	5.29
444.049	5.28
444.255	5.24
444.461	5.26
444.667	5.27
444.873	5.27
445.079	5.3
445.284	5.33
445.49	5.36
445.696	5.39
445.902	5.44
446.108	5.5
446.314	5.54
446.52	5.54
446.726	5.59
446.931	5.59
447.137	5.68
447.343	5.7
447.549	5.63
447.755	5.59
447.96	5.59
448.166	5.6
448.372	5.6
448.578	5.51
448.783	5.47
448.989	5.55
449.195	5.63
449.4	5.65
449.606	5.59
449.812	5.6
450.017	5.65
450.223	5.66
450.428	5.64
450.634	5.64
450.84	5.67
451.045	5.68
451.251	5.71
451.456	5.67
451.662	5.62
451.867	5.63
452.073	5.58
452.278	5.54
452.483	5.53
452.689	5.56
452.894	5.58
453.1	5.6
453.305	5.56
453.51	5.61
453.716	5.66
453.921	5.67
454.127	5.69
454.332	5.7
454.537	5.76
454.742	5.77
454.948	5.77
455.153	5.77
455.358	5.83
455.563	5.84
455.769	5.81
455.974	5.73
456.179	5.69
456.384	5.72
456.589	5.71
456.795	5.67
457	5.67
457.205	5.72
457.41	5.74
457.615	5.77
457.82	5.77
458.025	5.83
458.23	5.8
458.435	5.76
458.64	5.81
458.845	5.85
459.05	5.89
459.255	5.86
459.46	5.84
459.665	5.9
459.87	5.93
460.075	5.9
460.28	5.88
460.485	5.91
460.69	5.88
460.895	5.87
461.099	5.87
461.304	5.86
461.509	5.81
461.714	5.84
461.919	5.84
462.123	5.89
462.328	5.89
462.533	5.91
462.738	5.9
462.942	5.97
463.147	5.97
463.352	6.03
463.556	6.05
463.761	6.08
463.966	6.09
464.17	6.18
464.375	6.18
464.58	6.17
464.784	6.15
464.989	6.15
465.193	6.18
465.398	6.16
465.602	6.11
465.807	6.14
466.011	6.2
466.216	6.24
466.42	6.27
466.625	6.29
466.829	6.32
467.034	6.33
467.238	6.38
467.443	6.42
467.647	6.4
467.851	6.4
468.056	6.41
468.26	6.37
468.464	6.41
468.669	6.43
468.873	6.39
469.077	6.38
469.282	6.42
469.486	6.42
469.69	6.47
469.894	6.48
470.099	6.43
470.303	6.5
470.507	6.53
