Data from Ofra_PS_T2_1A_8HS23_Reflection_1.txt Node
Date: Wed Jul 21 18:15:40 EDT 2021
User: Adam
Spectrometer: FLMT01687
Trigger mode: 0
Integration Time (sec): 1.100000E0
Scans to average: 2
Electric dark correction enabled: true
Nonlinearity correction enabled: false
Boxcar width: 2
XAxis mode: Wavelengths
Number of Pixels in Spectrum: 3648
>>>>>Begin Spectral Data<<<<<
179.494	593.8
179.716	637.88
179.937	640.57
180.158	602.31
180.38	1005.16
180.601	368.09
180.823	149.68
181.044	-66.71
181.265	24.45
181.486	36.26
181.708	107.45
181.929	631.12
182.15	-300.35
182.372	64.78
182.593	17.68
182.814	23.71
183.035	77.7
183.257	49.17
183.478	-26.86
183.699	18.12
183.92	-31.39
184.141	-44.66
184.363	-108.42
184.584	-65.25
184.805	-50.54
185.026	5.19
185.247	8.66
185.468	3.14
185.689	7.11
185.91	17.12
186.132	15.69
186.353	-3.36
186.574	17
186.795	11.88
187.016	-40.98
187.237	-39.56
187.458	-37.48
187.679	-17.43
187.9	2.21
188.121	2.76
188.342	-51.11
188.563	-11.67
188.784	-38.4
189.005	-51.02
189.226	-28.89
189.447	9.54
189.667	-214.2
189.888	-334.11
190.109	-1379.55
190.33	-718.23
190.551	-1399.34
190.772	-308.78
190.993	-250.66
191.214	-204.42
191.434	-135.86
191.655	-37.21
191.876	-120.47
192.097	-125.39
192.318	-140.22
192.538	-238.49
192.759	-209.03
192.98	-58.5
193.201	-31.5
193.421	-10.69
193.642	10.4
193.863	31.57
194.083	-6.65
194.304	-28.19
194.525	-26.05
194.745	-52.03
194.966	-69.76
195.187	-69.68
195.407	-88.18
195.628	-164.44
195.848	-154.33
196.069	-156.43
196.29	-88.51
196.51	-108.48
196.731	-73.97
196.951	-100.88
197.172	-115.56
197.392	-148.75
197.613	-138.7
197.833	-197.34
198.054	-152.1
198.274	-82.62
198.495	-76.91
198.715	-28.87
198.936	-38.35
199.156	-38.99
199.377	-127.84
199.597	-129.67
199.817	-121.2
200.038	-41.09
200.258	-75.93
200.479	-17.33
200.699	-18.6
200.919	-22.45
201.14	-73.82
201.36	-70.45
201.58	-20.95
201.801	9.18
202.021	-30.02
202.241	-25.89
202.461	-31.06
202.682	-128.91
202.902	-206.28
203.122	-109.86
203.342	-82.09
203.563	-8.56
203.783	2.45
204.003	-26.34
204.223	-16.34
204.443	31.25
204.663	-25.14
204.884	4.69
205.104	31.27
205.324	30.92
205.544	23.73
205.764	35.26
205.984	34.18
206.204	36.74
206.424	30.58
206.644	-0.83
206.864	19.52
207.084	-7.16
207.304	-21.58
207.525	-154.77
207.745	-105.86
207.964	-74.57
208.184	-123.52
208.404	-149.73
208.624	-141.17
208.844	-169
209.064	-523.33
209.284	-499.81
209.504	-306.24
209.724	-126.14
209.944	-72.02
210.164	-38.59
210.384	-28.06
210.604	-21.15
210.823	-60.13
211.043	-80.09
211.263	-70.63
211.483	-61.72
211.703	-112.68
211.922	-98.74
212.142	-40.52
212.362	-10.58
212.582	-27.89
212.801	-26.48
213.021	-48.13
213.241	-62.74
213.461	-108.32
213.68	-120.37
213.9	-86.99
214.12	-60.48
214.339	-126.74
214.559	-106.77
214.779	-71.85
214.998	-85.96
215.218	-147.95
215.438	-87.31
215.657	-94.02
215.877	-92.85
216.096	-42.78
216.316	-3.26
216.535	-5.41
216.755	-4.34
216.974	-37.92
217.194	-83.83
217.413	-143.46
217.633	-169.37
217.852	-327.11
218.072	-144.51
218.291	-78.94
218.511	-17.63
218.73	-28.28
218.95	-9.56
219.169	-21.72
219.389	-62.58
219.608	-46.24
219.827	-34.64
220.047	-19.46
220.266	-13.81
220.485	-9.1
220.705	-19.73
220.924	-37.56
221.143	-8.65
221.363	-28.58
221.582	-14.82
221.801	-18.82
222.021	-8.17
222.24	-78.81
222.459	-30.51
222.678	-74.48
222.897	-136.75
223.117	-189.65
223.336	-171.4
223.555	-139.98
223.774	-65.94
223.993	-60.83
224.213	31.38
224.432	13.32
224.651	35.64
224.87	0.41
225.089	3.94
225.308	-22.27
225.527	1.92
225.746	-2.05
225.965	-12.12
226.184	-21.85
226.404	1.17
226.623	-19.53
226.842	-15.9
227.061	15.94
227.28	24.97
227.499	15.77
227.718	26.84
227.936	11.37
228.155	12.67
228.374	-7.45
228.593	8.45
228.812	8.7
229.031	11.26
229.25	-43.62
229.469	-61.53
229.688	-68.56
229.907	-40.46
230.125	-28.15
230.344	-8.42
230.563	14.72
230.782	24.36
231.001	-41.31
231.22	-48.54
231.438	-11.14
231.657	-17.88
231.876	-34.75
232.095	19.08
232.313	27.03
232.532	-12.64
232.751	-38.15
232.969	-32.8
233.188	-96.2
233.407	-16.77
233.625	0.21
233.844	7.37
234.063	2.12
234.281	12.68
234.5	-8.49
234.719	-14.39
234.937	2.4
235.156	1.87
235.374	-7.94
235.593	-24.01
235.811	-21.97
236.03	-35.14
236.249	-81.73
236.467	-77.49
236.686	-25.57
236.904	-13.04
237.123	-25.23
237.341	-15.69
237.559	2.93
237.778	-20.24
237.996	-30.07
238.215	-4.41
238.433	0.47
238.652	-3.78
238.87	-6.84
239.088	5.6
239.307	9.67
239.525	17.32
239.743	-27.37
239.962	-20.45
240.18	-51.89
240.398	-98.38
240.617	-100.11
240.835	-71.52
241.053	-68.66
241.271	-31.98
241.49	-8.72
241.708	-41.06
241.926	-92.07
242.144	-29.87
242.363	-85.21
242.581	-130.18
242.799	-66.57
243.017	-15.86
243.235	-48.57
243.453	-43.2
243.672	-29.91
243.89	-36.62
244.108	-48.88
244.326	-30.03
244.544	-15.34
244.762	-4.56
244.98	-8.57
245.198	4.76
245.416	-15.09
245.634	-12.53
245.852	-4.58
246.07	2.36
246.288	-28.49
246.506	-32.56
246.724	-29.04
246.942	-50.37
247.16	-24.98
247.378	-3.13
247.596	10.62
247.814	18.94
248.032	-11.88
248.25	-4.3
248.468	-1.91
248.685	-3.36
248.903	27.2
249.121	37.49
249.339	12.64
249.557	5.76
249.775	5.14
249.992	-76.53
250.21	-68.55
250.428	-42.56
250.646	-63.3
250.863	-78.93
251.081	-37.62
251.299	-42.09
251.517	-59.35
251.734	-43.99
251.952	-42.05
252.17	-43.87
252.387	-21.21
252.605	-19.86
252.823	-17.05
253.04	-2.71
253.258	17.05
253.475	-2.46
253.693	31.18
253.911	34.64
254.128	36.96
254.346	43.79
254.563	25.32
254.781	-10.65
254.998	-41.86
255.216	-37.75
255.433	-40.81
255.651	0.82
255.868	24.35
256.086	44.95
256.303	19.77
256.521	12.17
256.738	-12.48
256.956	-43.06
257.173	-56.18
257.39	-63.86
257.608	-99.33
257.825	-14.58
258.043	22.54
258.26	37.95
258.477	80.49
258.695	84.64
258.912	11.97
259.129	6.08
259.346	-43.89
259.564	-95.22
259.781	-109.35
259.998	-34.04
260.216	1.13
260.433	47.12
260.65	56.43
260.867	71.43
261.084	41.41
261.302	2.67
261.519	-18.29
261.736	-67.04
261.953	-99.17
262.17	-67.6
262.387	-85.43
262.604	-128.3
262.822	-95.91
263.039	-74.31
263.256	-119.02
263.473	-80.55
263.69	-36.33
263.907	-4.95
264.124	9.76
264.341	12.8
264.558	5.62
264.775	18.82
264.992	6.29
265.209	7.59
265.426	24.18
265.643	22.68
265.86	28.81
266.077	24.5
266.294	-10.55
266.51	-28.95
266.727	-46.68
266.944	-50.77
267.161	-30.62
267.378	-20.17
267.595	-3.63
267.812	-8.02
268.028	-36.78
268.245	-55.37
268.462	-66.18
268.679	-82.13
268.896	-29.91
269.112	-12.26
269.329	-5.12
269.546	5.56
269.763	1.7
269.979	-4.92
270.196	-13.99
270.413	-62.07
270.629	-78.98
270.846	-95.16
271.063	-99.68
271.279	-112.27
271.496	-83.84
271.712	-46.38
271.929	-10.08
272.146	-26.64
272.362	-7.39
272.579	25.94
272.795	30.48
273.012	22.51
273.228	32.58
273.445	18.82
273.661	-3.23
273.878	-30.99
274.094	-29.32
274.311	-58.76
274.527	1.33
274.744	-2.87
274.96	-20.31
275.177	-7.28
275.393	8.87
275.609	-19.02
275.826	12.85
276.042	24.31
276.259	-2.37
276.475	17.09
276.691	19.58
276.908	-5.95
277.124	8.21
277.34	19.67
277.557	-3.26
277.773	-3.02
277.989	-13.17
278.205	-15.98
278.422	0.73
278.638	0.57
278.854	14.55
279.07	24.95
279.286	6.37
279.503	-22.59
279.719	-32.09
279.935	-64.59
280.151	-78.57
280.367	-43.98
280.583	-68.88
280.799	-48.28
281.016	-72.45
281.232	-39.91
281.448	-57.59
281.664	-27.52
281.88	-64.55
282.096	-18.84
282.312	4.27
282.528	3.68
282.744	4.88
282.96	24.95
283.176	5.01
283.392	-11.36
283.608	2.61
283.824	-11.5
284.04	-11.98
284.256	-14.75
284.471	-10.14
284.687	-24.76
284.903	6.24
285.119	17.07
285.335	-11.97
285.551	-16.32
285.767	-39.63
285.982	-54.51
286.198	-80.62
286.414	2.81
286.63	6.48
286.846	34.11
287.061	13.94
287.277	38.55
287.493	-1.31
287.709	1.99
287.924	-18.56
288.14	31.26
288.356	21.87
288.571	48.85
288.787	43.56
289.003	54.78
289.218	22.48
289.434	-17.23
289.65	-14.85
289.865	-51.38
290.081	-52.23
290.296	-27.93
290.512	-0.63
290.727	-32.59
290.943	-19.02
291.159	-31.33
291.374	-38.72
291.59	-59.03
291.805	-43.52
292.021	-24.79
292.236	-20.99
292.451	-7.48
292.667	4.1
292.882	21.65
293.098	20.07
293.313	9.73
293.529	-13.08
293.744	-41.6
293.959	-53.82
294.175	-51.56
294.39	-5
294.605	6.64
294.821	36.63
295.036	35.17
295.251	32.11
295.467	-14.96
295.682	-26.38
295.897	-97.4
296.112	-92.82
296.328	-61.18
296.543	-55.54
296.758	-49.94
296.973	14.45
297.188	38.25
297.404	-2.02
297.619	-12.18
297.834	-33.07
298.049	-76.27
298.264	-100.72
298.479	-34.32
298.694	-27.83
298.909	-3.92
299.125	9.47
299.34	6.7
299.555	-13.16
299.77	-3.69
299.985	-51.2
300.2	-106.02
300.415	-122.84
300.63	-90.81
300.845	-77.43
301.06	-61.53
301.275	-24.09
301.49	12.77
301.704	-2.61
301.919	-24.39
302.134	-25.96
302.349	-24.14
302.564	-102.23
302.779	-109.69
302.994	-74.33
303.209	-58.04
303.423	-48.36
303.638	20.13
303.853	-11.2
304.068	-17.8
304.283	-15.72
304.497	-18.51
304.712	-30.88
304.927	-20.55
305.142	-26.85
305.356	-28.98
305.571	-29.8
305.786	-45.22
306	-65.17
306.215	-67.47
306.43	-76.89
306.644	-68.73
306.859	-20.6
307.074	-2
307.288	-25.15
307.503	-18.4
307.717	-25.46
307.932	-45.25
308.147	-55.56
308.361	-26.75
308.576	-45.75
308.79	-96.75
309.005	-82.78
309.219	-59.5
309.434	-71.26
309.648	-66.97
309.863	-33.68
310.077	-20.63
310.292	-24.35
310.506	-19.89
310.72	-0.45
310.935	-8.36
311.149	-22.44
311.364	-5.33
311.578	-0.61
311.792	-10.5
312.007	7.75
312.221	6.91
312.435	6.36
312.649	-6.67
312.864	15.9
313.078	35.67
313.292	106.67
313.507	64.03
313.721	114.35
313.935	44.42
314.149	14.55
314.363	-8.32
314.578	2.03
314.792	-0.98
315.006	-20.89
315.22	-3.89
315.434	2.83
315.648	15.59
315.862	12.6
316.077	29.28
316.291	12.85
316.505	11.61
316.719	-16.93
316.933	-19.99
317.147	-19.61
317.361	-46.92
317.575	-70.7
317.789	-76.85
318.003	-117.36
318.217	-98.81
318.431	-26.49
318.645	5.03
318.859	-7.28
319.073	9.22
319.287	-2.81
319.5	-36
319.714	-76.93
319.928	-82.09
320.142	-105.74
320.356	-63.01
320.57	-9.38
320.784	-15.26
320.997	-35.44
321.211	2.71
321.425	-45.74
321.639	-75.94
321.853	-29.27
322.066	-13.48
322.28	-30.52
322.494	-23.18
322.707	-14.16
322.921	-20.27
323.135	-25.34
323.349	-4.79
323.562	-6.89
323.776	-11.45
323.989	-15.04
324.203	-20.62
324.417	-39.8
324.63	-72.51
324.844	-76.47
325.057	-75.38
325.271	-57.81
325.485	-25.81
325.698	-2.73
325.912	16.09
326.125	-0.97
326.339	9.22
326.552	-14.91
326.766	-10.18
326.979	-6.4
327.193	30.09
327.406	9.16
327.619	12.22
327.833	18.14
328.046	-15.61
328.26	-48.99
328.473	-22.03
328.686	-48.76
328.9	-52.5
329.113	-20.23
329.326	-36.78
329.54	-21.55
329.753	-29.24
329.966	-39.19
330.179	-30.49
330.393	-4.31
330.606	-7.46
330.819	6.33
331.032	19
331.246	19.91
331.459	35.78
331.672	26.22
331.885	16.48
332.098	-6.55
332.311	-15.04
332.525	-92.31
332.738	-69.7
332.951	-35.99
333.164	-7.56
333.377	11.9
333.59	51.41
333.803	32.74
334.016	22.65
334.229	18.19
334.442	-6.82
334.655	-9.21
334.868	6.56
335.081	10.26
335.294	7.25
335.507	2.33
335.72	-14.16
335.933	-26.48
336.146	-20.18
336.359	-20.63
336.572	-27.88
336.785	-51.73
336.997	-35.42
337.21	-39.74
337.423	-46.91
337.636	-46.44
337.849	-17.72
338.062	-35.7
338.274	-27.18
338.487	-29.3
338.7	-26.39
338.913	-57.11
339.125	-56.96
339.338	-96.64
339.551	-72.69
339.763	-27.7
339.976	0.2
340.189	20.76
340.402	35.87
340.614	14.33
340.827	-7.05
341.039	-27.15
341.252	-39.74
341.465	-31.22
341.677	-24.86
341.89	-61.07
342.102	-36.84
342.315	-48.08
342.527	-73.66
342.74	-57.2
342.952	-9.99
343.165	-12.52
343.377	-0.63
343.59	4.52
343.802	18.38
344.015	8
344.227	19.9
344.44	25.9
344.652	28.01
344.864	3.51
345.077	18.78
345.289	14.2
345.502	9.69
345.714	-1.47
345.926	11.35
346.139	-0.14
346.351	13
346.563	19.47
346.775	25.77
346.988	14.24
347.2	2.67
347.412	-56.39
347.624	-61.41
347.837	-97.39
348.049	-72.76
348.261	-28.93
348.473	4.83
348.685	-15.83
348.897	3.48
349.11	-24.86
349.322	-53.52
349.534	-56.25
349.746	-38.78
349.958	-33.82
350.17	-27.21
350.382	-13.34
350.594	-17.18
350.806	-7.58
351.018	-11.82
351.23	-39.96
351.442	-78.24
351.654	-77.24
351.866	-73.32
352.078	-70.79
352.29	-15.34
352.502	7.03
352.714	7.93
352.926	-15.66
353.138	-5.73
353.35	-20.21
353.561	-28.95
353.773	-43.08
353.985	-17.73
354.197	-32.27
354.409	-25.48
354.621	-23.65
354.832	-2.97
355.044	-16.66
355.256	-14.22
355.468	-9.34
355.679	-5.83
355.891	-9.42
356.103	-11.2
356.314	-8.19
356.526	-12.34
356.738	-31.98
356.949	-45.66
357.161	-41.42
357.373	-38.2
357.584	-50.74
357.796	-34.97
358.008	-35.88
358.219	-11.37
358.431	-13.9
358.642	-7.68
358.854	-8.75
359.065	-24.87
359.277	-61.72
359.488	-62.86
359.7	-84.42
359.911	-97.44
360.123	-59.14
360.334	-68.68
360.546	-89.96
360.757	-86.35
360.969	-73.79
361.18	-77.99
361.391	-45.9
361.603	-40.25
361.814	-25.9
362.025	-17.86
362.237	-21.15
362.448	-6.51
362.659	5.88
362.871	1.64
363.082	-0.3
363.293	3.1
363.504	-7.55
363.716	-25.77
363.927	-28.4
364.138	-55.04
364.349	-73.41
364.56	-71.64
364.772	-62.96
364.983	-31.61
365.194	-28.26
365.405	-1.02
365.616	13.23
365.827	9.76
366.038	-19.9
366.25	-19.21
366.461	-68.64
366.672	-40.99
366.883	-12.59
367.094	-7.92
367.305	-8.36
367.516	1.84
367.727	-28.75
367.938	-42.49
368.149	-31.25
368.36	-22.82
368.571	-19.24
368.781	-33.88
368.992	-46.48
369.203	-69.2
369.414	-83.78
369.625	-97.38
369.836	-73.96
370.047	-91.66
370.258	-83.5
370.468	-78.92
370.679	-82.89
370.89	-80.66
371.101	-54.47
371.312	-44.87
371.522	-37.98
371.733	-21.8
371.944	-9.25
372.155	-9.08
372.365	-17.74
372.576	-15.26
372.787	-20.8
372.997	-47.33
373.208	-40.47
373.419	-11.43
373.629	-42.61
373.84	-58.86
374.05	-64.63
374.261	-60.52
374.472	-88.97
374.682	-30.4
374.893	-14.08
375.103	15.24
375.314	8.34
375.524	18.79
375.735	7.67
375.945	10.01
376.156	-12.4
376.366	-5.97
376.577	-2.52
376.787	-7.45
376.997	-12.85
377.208	-3.59
377.418	-13.1
377.629	-20.23
377.839	-19.23
378.049	-6.28
378.26	9.95
378.47	18.13
378.68	12.85
378.89	14.68
379.101	-1.76
379.311	-42.28
379.521	-73.83
379.732	-74.34
379.942	-75.72
380.152	-87.16
380.362	-47.04
380.572	-34.58
380.783	-32.15
380.993	-17.6
381.203	-6.54
381.413	-5.52
381.623	-8.73
381.833	11.74
382.043	-3.98
382.253	-1.99
382.463	1.29
382.674	-4.33
382.884	-29.73
383.094	-18.67
383.304	-13.67
383.514	-12.44
383.724	-0.69
383.934	-0.25
384.144	-14.57
384.353	-23.95
384.563	-29.63
384.773	-20.86
384.983	-30.72
385.193	-12.36
385.403	-6.69
385.613	-4.1
385.823	-25.78
386.033	-11.02
386.242	-17.26
386.452	-20.48
386.662	-26.05
386.872	-5.26
387.082	-11.23
387.291	-20.14
387.501	-20.87
387.711	-13.68
387.921	-25.38
388.13	-18.37
388.34	-2.49
388.55	-5.11
388.759	-7.18
388.969	-1.07
389.179	-3.07
389.388	-4.76
389.598	0.43
389.807	-6.65
390.017	-6.77
390.227	-8.25
390.436	-13.21
390.646	-16.96
390.855	-9.62
391.065	-11.07
391.274	-10.86
391.484	-10.9
391.693	-4.71
391.903	-4.38
392.112	-0.58
392.322	1.37
392.531	5.91
392.74	3.6
392.95	-1.46
393.159	-3.1
393.369	-1.94
393.578	-2.58
393.787	-1.82
393.997	1.05
394.206	0.74
394.415	-0.57
394.625	-1.02
394.834	-3.31
395.043	-2.16
395.252	-0.9
395.462	2.06
395.671	3.83
395.88	5.1
396.089	5.37
396.298	4.37
396.508	3.55
396.717	1.06
396.926	1.23
397.135	0.64
397.344	1.12
397.553	0.81
397.762	2.67
397.971	2.48
398.181	2.61
398.39	2.18
398.599	1.97
398.808	1.87
399.017	2.74
399.226	3.8
399.435	4.52
399.644	5.04
399.853	4.22
400.062	3.76
400.27	3.02
400.479	2.77
400.688	2.13
400.897	2.07
401.106	2.21
401.315	2.17
401.524	2.17
401.733	2.63
401.941	3.32
402.15	3.56
402.359	3.45
402.568	3.75
402.777	3.89
402.985	3.71
403.194	3.53
403.403	3.71
403.612	3.25
403.82	3.11
404.029	3.18
404.238	2.94
404.446	3.3
404.655	3.26
404.864	3.15
405.072	3.05
405.281	3.43
405.489	3.14
405.698	3.21
405.906	3.25
406.115	3.09
406.324	2.95
406.532	3.08
406.741	3.32
406.949	3.38
407.158	3.55
407.366	3.54
407.574	3.38
407.783	3.21
407.991	2.85
408.2	3.07
408.408	3.08
408.617	3.02
408.825	2.9
409.033	3.08
409.242	2.84
409.45	2.85
409.658	2.8
409.867	2.94
410.075	2.88
410.283	2.8
410.491	2.68
410.7	2.67
410.908	2.65
411.116	2.89
411.324	2.87
411.533	2.76
411.741	3.01
411.949	2.9
412.157	2.61
412.365	2.61
412.573	2.81
412.781	2.7
412.99	2.77
413.198	3.01
413.406	3.08
413.614	3.04
413.822	2.78
414.03	2.66
414.238	2.46
414.446	2.51
414.654	2.36
414.862	2.53
415.07	2.63
415.278	2.74
415.486	2.52
415.694	2.53
415.902	2.46
416.109	2.44
416.317	2.41
416.525	2.42
416.733	2.39
416.941	2.46
417.149	2.35
417.357	2.33
417.564	2.47
417.772	2.72
417.98	2.7
418.188	2.65
418.395	2.71
418.603	2.85
418.811	2.47
419.019	2.41
419.226	2.58
419.434	2.64
419.642	2.38
419.849	2.68
420.057	2.75
420.265	2.77
420.472	2.64
420.68	2.71
420.887	2.43
421.095	2.48
421.302	2.41
421.51	2.49
421.717	2.59
421.925	2.61
422.132	2.42
422.34	2.23
422.547	2.28
422.755	2.01
422.962	2.03
423.17	2.04
423.377	2.14
423.585	2
423.792	1.97
423.999	2.1
424.207	2.01
424.414	2.21
424.621	2.26
424.829	2.45
425.036	2.52
425.243	2.78
425.451	2.54
425.658	2.38
425.865	2.38
426.072	2.34
426.28	2.59
426.487	2.65
426.694	2.77
426.901	2.63
427.108	2.56
427.315	2.25
427.523	2.45
427.73	2.39
427.937	2.44
428.144	2.44
428.351	2.39
428.558	2.62
428.765	2.58
428.972	2.59
429.179	2.71
429.386	2.93
429.593	2.54
429.8	2.4
430.007	2.57
430.214	2.6
430.421	2.38
430.628	2.22
430.835	2.27
431.042	2.35
431.249	2.36
431.456	2.42
431.662	2.59
431.869	2.71
432.076	2.56
432.283	2.49
432.49	2.55
432.697	2.57
432.903	2.44
433.11	2.48
433.317	2.58
433.524	2.74
433.73	2.77
433.937	2.99
434.144	2.96
434.35	3
434.557	2.78
434.764	2.74
434.97	2.66
435.177	2.78
435.384	2.74
435.59	2.88
435.797	3.12
436.003	3.26
436.21	3.28
436.416	3.34
436.623	3.3
436.829	3.32
437.036	3.33
437.242	3.27
437.449	3.16
437.655	3.26
437.862	3.19
438.068	3.06
438.275	3.2
438.481	3.43
438.687	3.39
438.894	3.43
439.1	3.57
439.307	3.7
439.513	3.57
439.719	3.62
439.926	3.64
440.132	3.66
440.338	3.47
440.544	3.67
440.751	3.59
440.957	3.67
441.163	3.57
441.369	3.71
441.575	3.45
441.782	3.48
441.988	3.31
442.194	3.29
442.4	3.2
442.606	3.54
442.812	3.68
443.018	3.8
443.224	3.91
443.431	4.04
443.637	3.69
443.843	3.57
444.049	3.62
444.255	3.54
444.461	3.53
444.667	3.65
444.873	3.78
445.079	3.77
445.284	3.92
445.49	3.73
445.696	3.6
445.902	3.44
446.108	3.37
446.314	3.33
446.52	3.46
446.726	3.73
446.931	3.84
447.137	3.95
447.343	3.96
447.549	3.88
447.755	3.71
447.96	3.81
448.166	3.67
448.372	3.71
448.578	3.83
448.783	3.91
448.989	3.97
449.195	4.21
449.4	4.26
449.606	4.15
449.812	4.05
450.017	3.93
450.223	3.73
450.428	3.72
450.634	3.86
450.84	4.09
451.045	4.1
451.251	4.07
451.456	4.17
451.662	4.29
451.867	4.25
452.073	4.21
452.278	4.39
452.483	4.47
452.689	4.26
452.894	4.34
453.1	4.42
453.305	4.35
453.51	4.29
453.716	4.32
453.921	4.22
454.127	4.21
454.332	4.14
454.537	4.06
454.742	4.1
454.948	4.06
455.153	4.12
455.358	4.22
455.563	4.36
455.769	4.39
455.974	4.45
456.179	4.27
456.384	4.23
456.589	4.16
456.795	4
457	3.91
457.205	4.17
457.41	4.22
457.615	4.17
457.82	4.33
458.025	4.35
458.23	4.2
458.435	4.17
458.64	4.12
