Data from Ofra_2a_PS_9GT30_Reflection_2.txt Node
Date: Tue Jul 20 10:00:17 EDT 2021
User: Adam
Spectrometer: FLMT01687
Trigger mode: 0
Integration Time (sec): 9.450000E-1
Scans to average: 3
Electric dark correction enabled: true
Nonlinearity correction enabled: false
Boxcar width: 3
XAxis mode: Wavelengths
Number of Pixels in Spectrum: 3648
>>>>>Begin Spectral Data<<<<<
179.494	1336.09
179.716	814.52
179.937	967.58
180.158	3510.55
180.38	-2124.13
180.601	-425.93
180.823	-191.44
181.044	-144.52
181.265	-166.39
181.486	33
181.708	-1838.04
181.929	41.98
182.15	-156.25
182.372	-110.56
182.593	-140.84
182.814	513.92
183.035	401.76
183.257	180.13
183.478	113.09
183.699	124.5
183.92	69.21
184.141	52.19
184.363	28.39
184.584	21.52
184.805	29.88
185.026	5.88
185.247	-22.57
185.468	-4.81
185.689	18.64
185.91	34.15
186.132	34.69
186.353	15.62
186.574	16.15
186.795	11.68
187.016	-1.63
187.237	-8.57
187.458	-26.18
187.679	-37.53
187.9	-6.3
188.121	-3.83
188.342	27
188.563	40.12
188.784	25.71
189.005	33.31
189.226	38.42
189.447	29.26
189.667	25.45
189.888	18.58
190.109	13.83
190.33	13.49
190.551	17.91
190.772	2.57
190.993	10.56
191.214	15.17
191.434	15.92
191.655	21.57
191.876	37.04
192.097	20.78
192.318	26.64
192.538	33.35
192.759	40.11
192.98	41.58
193.201	43.85
193.421	34.59
193.642	42.91
193.863	52.17
194.083	39.6
194.304	23.9
194.525	32.3
194.745	23.74
194.966	32.08
195.187	42.7
195.407	31.36
195.628	30.8
195.848	35.25
196.069	23.92
196.29	24.53
196.51	20.39
196.731	22.11
196.951	34.31
197.172	33.25
197.392	30.08
197.613	20.26
197.833	23.17
198.054	17.34
198.274	-0.74
198.495	0.01
198.715	-19.18
198.936	-41.45
199.156	-14.07
199.377	-1.16
199.597	5.42
199.817	17.82
200.038	29.64
200.258	58.59
200.479	69.41
200.699	74.85
200.919	42.48
201.14	44.75
201.36	62.54
201.58	47.88
201.801	23.53
202.021	24.27
202.241	17.78
202.461	32.85
202.682	32.23
202.902	19.61
203.122	13.9
203.342	21.55
203.563	19.98
203.783	26.04
204.003	28.17
204.223	31.02
204.443	32.63
204.663	38.74
204.884	29.94
205.104	26.25
205.324	39.57
205.544	26.34
205.764	27.94
205.984	27.4
206.204	20.74
206.424	37.78
206.644	37.52
206.864	20.57
207.084	43.65
207.304	34.91
207.525	29.08
207.745	34.22
207.964	29.36
208.184	18.98
208.404	24.28
208.624	5.77
208.844	-11.09
209.064	-10.3
209.284	1.53
209.504	-0.82
209.724	-10.21
209.944	-4.13
210.164	5.88
210.384	30.36
210.604	39.76
210.823	-0.27
211.043	-4.39
211.263	4.77
211.483	2.44
211.703	-1.21
211.922	2.57
212.142	12.66
212.362	23.53
212.582	18.9
212.801	19.03
213.021	8.94
213.241	2.99
213.461	-7.42
213.68	-5.09
213.9	2.62
214.12	-3.33
214.339	2.61
214.559	28.03
214.779	35.48
214.998	36.08
215.218	39.51
215.438	43.73
215.657	47.38
215.877	49.82
216.096	31.39
216.316	15.77
216.535	17.83
216.755	6.48
216.974	-11.7
217.194	1.69
217.413	9.85
217.633	10.5
217.852	24
218.072	17.81
218.291	37.75
218.511	34.63
218.73	19.76
218.95	15.24
219.169	20.67
219.389	22.46
219.608	32.99
219.827	16.08
220.047	19.21
220.266	32.92
220.485	28.15
220.705	18.3
220.924	19.15
221.143	6.87
221.363	11.47
221.582	13.79
221.801	21.3
222.021	25.21
222.24	31.03
222.459	28.36
222.678	43.96
222.897	28.97
223.117	32.77
223.336	25.93
223.555	19.89
223.774	26.91
223.993	34.97
224.213	21.12
224.432	32.58
224.651	21.22
224.87	27.07
225.089	34.98
225.308	31.15
225.527	28.25
225.746	42.73
225.965	33.79
226.184	41.67
226.404	32.89
226.623	38.12
226.842	30.98
227.061	31.88
227.28	39.23
227.499	44.44
227.718	36.27
227.936	30.54
228.155	28.93
228.374	40.13
228.593	34.86
228.812	21.97
229.031	9.93
229.25	21.21
229.469	33.94
229.688	40.31
229.907	31.93
230.125	34.01
230.344	41.27
230.563	40.41
230.782	31.79
231.001	22.74
231.22	13.36
231.438	17.74
231.657	15.48
231.876	10.99
232.095	18.41
232.313	28.27
232.532	29.03
232.751	32.86
232.969	28.73
233.188	31.11
233.407	42.26
233.625	30.99
233.844	29.96
234.063	38.71
234.281	35.89
234.5	40.61
234.719	35.79
234.937	37
235.156	41.72
235.374	41.43
235.593	35.9
235.811	17.73
236.03	11.45
236.249	16.93
236.467	17.56
236.686	16.52
236.904	4.25
237.123	15.61
237.341	24.3
237.559	28.21
237.778	38.51
237.996	32.16
238.215	23.79
238.433	41.24
238.652	26.44
238.87	34.43
239.088	25.6
239.307	26.98
239.525	20.25
239.743	26.74
239.962	19.46
240.18	40.69
240.398	40.56
240.617	48.57
240.835	40.23
241.053	52.12
241.271	56.27
241.49	52.03
241.708	35.99
241.926	20.11
242.144	9.21
242.363	11.08
242.581	8.72
242.799	-7.06
243.017	-4.92
243.235	-1.78
243.453	17.02
243.672	21.61
243.89	26.61
244.108	27.65
244.326	41.84
244.544	41.62
244.762	44.99
244.98	34.59
245.198	30.49
245.416	26.09
245.634	28.01
245.852	18.17
246.07	26.2
246.288	13.79
246.506	19.58
246.724	34.69
246.942	32.51
247.16	23.28
247.378	20
247.596	21.13
247.814	13.97
248.032	11.58
248.25	2.27
248.468	14.46
248.685	23.85
248.903	29.13
249.121	32.97
249.339	44.45
249.557	43.44
249.775	25.25
249.992	8.45
250.21	6.79
250.428	-0.33
250.646	5.45
250.863	-1
251.081	-2.09
251.299	29.68
251.517	51.4
251.734	50.28
251.952	69.32
252.17	30.37
252.387	30.28
252.605	26.76
252.823	10.36
253.04	9.95
253.258	12.48
253.475	-6.13
253.693	24.58
253.911	28.72
254.128	25.15
254.346	19.84
254.563	17.42
254.781	17.1
254.998	17.98
255.216	14.72
255.433	18.77
255.651	20.31
255.868	33.8
256.086	31.43
256.303	28.23
256.521	31.24
256.738	24.43
256.956	2.57
257.173	-0.44
257.39	-4.46
257.608	1.43
257.825	-4.65
258.043	3.32
258.26	1.35
258.477	10.18
258.695	17.74
258.912	18.02
259.129	11.65
259.346	20.11
259.564	15.53
259.781	30.14
259.998	43.75
260.216	45.68
260.433	49.23
260.65	50.77
260.867	43.13
261.084	41.02
261.302	35.32
261.519	11.89
261.736	-5.93
261.953	-9.58
262.17	-7.71
262.387	-6.84
262.604	-8.3
262.822	-4.87
263.039	7.31
263.256	8.02
263.473	-1.05
263.69	4.28
263.907	7.75
264.124	-0.16
264.341	-6.77
264.558	1.41
264.775	9.69
264.992	18.19
265.209	22.03
265.426	27.3
265.643	38.99
265.86	34.06
266.077	40.15
266.294	38.91
266.51	34.98
266.727	29.01
266.944	20.8
267.161	14.44
267.378	31.06
267.595	9.71
267.812	8.76
268.028	17.18
268.245	11.27
268.462	14.57
268.679	8.44
268.896	1.65
269.112	13.88
269.329	23.18
269.546	22.69
269.763	38.38
269.979	31.57
270.196	34.29
270.413	36.62
270.629	25.16
270.846	20.36
271.063	16.92
271.279	4.27
271.496	-5.15
271.712	-13.78
271.929	-15.05
272.146	-5.92
272.362	-14
272.579	-9.2
272.795	-6.65
273.012	1.73
273.228	1.86
273.445	9.82
273.661	3.59
273.878	8.38
274.094	7.94
274.311	19.74
274.527	19.06
274.744	23.3
274.96	22.11
275.177	33.07
275.393	30.69
275.609	27.31
275.826	16.46
276.042	32
276.259	40.43
276.475	30.75
276.691	26.59
276.908	28.08
277.124	24.23
277.34	22.65
277.557	12.69
277.773	9.09
277.989	11.98
278.205	0.34
278.422	0.09
278.638	14.12
278.854	14.8
279.07	7.76
279.286	1.86
279.503	3.93
279.719	29.82
279.935	28.6
280.151	32.12
280.367	33.24
280.583	36.57
280.799	37.58
281.016	36.28
281.232	24.09
281.448	22.57
281.664	18.72
281.88	17.74
282.096	24.89
282.312	22.9
282.528	12.4
282.744	11.24
282.96	12.02
283.176	8.55
283.392	10.98
283.608	6.77
283.824	-1.38
284.04	10.25
284.256	12.1
284.471	11.63
284.687	7.36
284.903	7.66
285.119	-3.91
285.335	7.07
285.551	0.45
285.767	0.66
285.982	1.35
286.198	2.76
286.414	13.06
286.63	20.16
286.846	13.89
287.061	21.29
287.277	21.51
287.493	18.3
287.709	28.39
287.924	25.45
288.14	28.28
288.356	37.15
288.571	29.47
288.787	38.19
289.003	45.45
289.218	33.93
289.434	27.53
289.65	32.92
289.865	35.98
290.081	32.98
290.296	24.98
290.512	32
290.727	37.4
290.943	39.47
291.159	26.97
291.374	22.93
291.59	26.49
291.805	32.18
292.021	2.02
292.236	-0.97
292.451	6.84
292.667	16.32
292.882	12.18
293.098	10.26
293.313	-2.19
293.529	11.5
293.744	10.79
293.959	12.7
294.175	15.29
294.39	20.22
294.605	23.79
294.821	22.39
295.036	29.78
295.251	28.55
295.467	15.38
295.682	16.78
295.897	15.19
296.112	21.3
296.328	29.19
296.543	21.59
296.758	25.43
296.973	32.81
297.188	36.04
297.404	35.79
297.619	28.92
297.834	39.76
298.049	42.09
298.264	38.32
298.479	25.47
298.694	36.01
298.909	36.52
299.125	39.48
299.34	26
299.555	28
299.77	26.68
299.985	26.92
300.2	17.34
300.415	13.6
300.63	4.77
300.845	15.19
301.06	10.38
301.275	17.59
301.49	23.46
301.704	16.7
301.919	13.45
302.134	22
302.349	8.94
302.564	4.69
302.779	-3.79
302.994	-9.46
303.209	-7.21
303.423	19.34
303.638	11.73
303.853	25.07
304.068	34.58
304.283	28.26
304.497	26.25
304.712	28.33
304.927	17.06
305.142	19.63
305.356	20.49
305.571	22
305.786	33.16
306	41.92
306.215	40.88
306.43	45.32
306.644	40.73
306.859	40.16
307.074	26.71
307.288	22.93
307.503	21.9
307.717	21.41
307.932	21.19
308.147	20.79
308.361	17.86
308.576	27.95
308.79	28.49
309.005	28.8
309.219	27.1
309.434	23.32
309.648	11.99
309.863	21.24
310.077	18.45
310.292	13.23
310.506	23.92
310.72	30.87
310.935	33.51
311.149	35.25
311.364	29.52
311.578	24.72
311.792	25.01
312.007	14.31
312.221	9.47
312.435	11.75
312.649	20.21
312.864	3.78
313.078	23.6
313.292	26.83
313.507	26.66
313.721	30.25
313.935	34.48
314.149	27.83
314.363	34.74
314.578	48.86
314.792	47.23
315.006	51.39
315.22	56.62
315.434	43.7
315.648	43.79
315.862	42.88
316.077	26.21
316.291	25.37
316.505	25.22
316.719	8.07
316.933	20.29
317.147	18.68
317.361	19.54
317.575	13.28
317.789	14.18
318.003	11.9
318.217	27.73
318.431	25.28
318.645	26.14
318.859	19.93
319.073	17.06
319.287	21.89
319.5	22.24
319.714	17
319.928	17.32
320.142	13.06
320.356	30.18
320.57	26.71
320.784	24.84
320.997	26.95
321.211	23.02
321.425	12.41
321.639	15.95
321.853	1.63
322.066	8.82
322.28	10.76
322.494	4.38
322.707	5.75
322.921	12.19
323.135	19.1
323.349	22.75
323.562	23.08
323.776	23.1
323.989	25.98
324.203	31.02
324.417	26.97
324.63	18.97
324.844	10.82
325.057	12.67
325.271	-0.73
325.485	6.9
325.698	3.84
325.912	20.11
326.125	25.98
326.339	27.57
326.552	24.59
326.766	34.55
326.979	33.98
327.193	29.64
327.406	24.24
327.619	11.02
327.833	12.32
328.046	5.4
328.26	-0.18
328.473	-2.32
328.686	9.59
328.9	3.52
329.113	11.34
329.326	25.01
329.54	27.93
329.753	25.11
329.966	25.55
330.179	16.53
330.393	24.98
330.606	27.11
330.819	23.78
331.032	30.61
331.246	31.67
331.459	23.65
331.672	26.49
331.885	14.29
332.098	28.82
332.311	12.04
332.525	7.8
332.738	9.86
332.951	21.29
333.164	24.81
333.377	36.46
333.59	22.49
333.803	37.6
334.016	45.76
334.229	37.82
334.442	31.01
334.655	26.35
334.868	31.64
335.081	36.68
335.294	34.14
335.507	43.18
335.72	38.14
335.933	44.46
336.146	51.82
336.359	46.44
336.572	36.64
336.785	39.42
336.997	25.52
337.21	32.74
337.423	19.8
337.636	16.52
337.849	16.47
338.062	20.25
338.274	17.22
338.487	25.65
338.7	25.39
338.913	27.55
339.125	22.33
339.338	24.39
339.551	30.23
339.763	23.87
339.976	22.29
340.189	13.97
340.402	15.41
340.614	16.83
340.827	6.64
341.039	-2.07
341.252	-1.38
341.465	-12.26
341.677	-7.45
341.89	-5.96
342.102	6.22
342.315	12.87
342.527	8.17
342.74	11.59
342.952	23.67
343.165	32.24
343.377	32.76
343.59	24.14
343.802	26.88
344.015	29.95
344.227	20.27
344.44	15.67
344.652	16.22
344.864	9.93
345.077	-6.17
345.289	-12.74
345.502	-9.17
345.714	-10.47
345.926	-10.04
346.139	-14.03
346.351	-21.87
346.563	-1.31
346.775	-0.43
346.988	-4.85
347.2	9.47
347.412	15.39
347.624	22.57
347.837	27.61
348.049	25.38
348.261	24.25
348.473	24.55
348.685	20.97
348.897	16.74
349.11	16.17
349.322	10.49
349.534	5.89
349.746	16.02
349.958	20.06
350.17	20.66
350.382	17.22
350.594	16.45
350.806	32.75
351.018	36.33
351.23	29.12
351.442	28.73
351.654	33.6
351.866	35.14
352.078	32.43
352.29	30.85
352.502	26.52
352.714	31.25
352.926	30.21
353.138	20.27
353.35	15.29
353.561	5.26
353.773	0.49
353.985	7.17
354.197	1.3
354.409	5.76
354.621	8.65
354.832	7.28
355.044	16.42
355.256	18.33
355.468	7.01
355.679	11.38
355.891	11.05
356.103	11.88
356.314	13.34
356.526	12.96
356.738	5.16
356.949	8.77
357.161	7.73
357.373	4.05
357.584	15.89
357.796	13.48
358.008	18.71
358.219	28.88
358.431	30.63
358.642	29.92
358.854	30.18
359.065	24.79
359.277	29.38
359.488	19.5
359.7	13.7
359.911	11.31
360.123	17.4
360.334	18.87
360.546	5.04
360.757	9.92
360.969	17.67
361.18	18.99
361.391	21.35
361.603	14.74
361.814	13.02
362.025	18.9
362.237	15.17
362.448	14.89
362.659	2.47
362.871	4.91
363.082	10.31
363.293	13.2
363.504	15.3
363.716	17.24
363.927	17.99
364.138	24.71
364.349	24.83
364.56	19.42
364.772	14.39
364.983	12.04
365.194	15.8
365.405	14.36
365.616	9.23
365.827	10.7
366.038	17.35
366.25	22.97
366.461	32.58
366.672	26.56
366.883	25.85
367.094	25.53
367.305	25.34
367.516	22.12
367.727	24.4
367.938	15.34
368.149	23.28
368.36	26.97
368.571	30.29
368.781	23.9
368.992	19.98
369.203	18.39
369.414	16.47
369.625	10.17
369.836	7.31
370.047	5.16
370.258	4.04
370.468	8.06
370.679	1.37
370.89	11.35
371.101	7.98
371.312	0.71
371.522	-1.9
371.733	-3.85
371.944	1.97
372.155	-5.23
372.365	-11.3
372.576	-10.07
372.787	-8.19
372.997	-9.96
373.208	-4.92
373.419	-10.36
373.629	-1.61
373.84	-7.32
374.05	-4.61
374.261	-4.91
374.472	2.86
374.682	-1.73
374.893	0.77
375.103	5.01
375.314	12.55
375.524	15.72
375.735	19.39
375.945	16.91
376.156	28.25
376.366	32.77
376.577	35.92
376.787	37.83
376.997	36.02
377.208	32.11
377.418	28.54
377.629	18.21
377.839	19.78
378.049	22.19
378.26	25.57
378.47	24.87
378.68	26.88
378.89	25.29
379.101	19.87
379.311	11.99
379.521	7.67
379.732	-9.57
379.942	-10.69
380.152	0.17
380.362	9.38
380.572	19.66
380.783	19.19
380.993	19.67
381.203	27.84
381.413	30.22
381.623	22.91
381.833	20.81
382.043	14.91
382.253	16.72
382.463	15.98
382.674	12.23
382.884	6.7
383.094	7.24
383.304	3.05
383.514	6.17
383.724	4.83
383.934	4.81
384.144	10.02
384.353	13.35
384.563	10.92
384.773	11.65
384.983	11.47
385.193	11.85
385.403	10
385.613	8.85
385.823	9.97
386.033	11.54
386.242	12.03
386.452	11.57
386.662	12.48
386.872	11.88
387.082	6.96
387.291	5.42
387.501	6.76
387.711	5.27
387.921	3
388.13	3.23
388.34	4.7
388.55	9.65
388.759	7.85
388.969	3.87
389.179	8.36
389.388	9.81
389.598	7.59
389.807	7.17
390.017	5.87
390.227	5.56
390.436	6.69
390.646	4.97
390.855	4.82
391.065	5.72
391.274	3.81
391.484	3.46
391.693	4.25
391.903	2.92
392.112	2.48
392.322	2.42
392.531	2.88
392.74	2.5
392.95	2.03
393.159	2.05
393.369	3.15
393.578	4.25
393.787	4.49
393.997	5.59
394.206	6.65
394.415	6.33
394.625	5.64
394.834	4.21
395.043	4.02
395.252	4.61
395.462	4.03
395.671	4.03
395.88	5.29
396.089	5.79
396.298	6.26
396.508	5.62
396.717	4.85
396.926	4.13
397.135	3.59
397.344	3.24
397.553	3.4
397.762	3.91
397.971	3.82
398.181	3.62
398.39	4
398.599	4.37
398.808	4.55
399.017	4.63
399.226	4.66
399.435	4.44
399.644	4.49
399.853	4.55
400.062	4.55
400.27	4.4
400.479	4.1
400.688	3.92
400.897	4.37
401.106	4.51
401.315	4.38
401.524	4.4
401.733	4.43
401.941	4.45
402.15	4.22
402.359	4.02
402.568	4.02
402.777	3.83
402.985	3.66
403.194	3.4
403.403	3.23
403.612	3.29
403.82	3.26
404.029	3.06
404.238	3.09
404.446	3.05
404.655	3.02
404.864	3.06
405.072	3.12
405.281	2.99
405.489	3.07
405.698	3.12
405.906	3.17
406.115	3.29
406.324	3.2
406.532	3.15
406.741	3.24
406.949	3.12
407.158	3.09
407.366	3.18
407.574	3.11
407.783	3.12
407.991	3.1
408.2	3.04
408.408	3.07
408.617	3.04
408.825	3.01
409.033	2.95
409.242	2.94
409.45	2.92
409.658	2.99
409.867	2.95
410.075	2.88
410.283	2.78
410.491	2.81
410.7	2.88
410.908	2.88
411.116	2.76
411.324	2.84
411.533	2.8
411.741	2.77
411.949	2.78
412.157	2.78
412.365	2.74
412.573	2.79
412.781	2.77
412.99	2.89
413.198	2.95
413.406	2.94
413.614	2.9
413.822	2.92
414.03	2.81
414.238	2.85
414.446	2.79
414.654	2.74
414.862	2.72
415.07	2.79
415.278	2.78
415.486	2.91
415.694	2.82
415.902	2.73
416.109	2.82
416.317	2.81
416.525	2.78
416.733	2.85
416.941	2.75
417.149	2.9
417.357	2.98
417.564	2.88
417.772	2.95
417.98	2.9
418.188	2.76
418.395	2.77
418.603	2.57
418.811	2.5
419.019	2.49
419.226	2.52
419.434	2.45
419.642	2.5
419.849	2.52
420.057	2.65
420.265	2.68
420.472	2.61
420.68	2.47
420.887	2.48
421.095	2.47
421.302	2.47
421.51	2.53
421.717	2.63
421.925	2.58
422.132	2.54
422.34	2.55
422.547	2.55
422.755	2.53
422.962	2.4
423.17	2.27
423.377	2.45
423.585	2.56
423.792	2.59
423.999	2.51
424.207	2.42
424.414	2.46
424.621	2.47
424.829	2.43
425.036	2.33
425.243	2.32
425.451	2.33
425.658	2.44
425.865	2.31
426.072	2.35
426.28	2.3
426.487	2.35
426.694	2.35
426.901	2.37
427.108	2.34
427.315	2.4
427.523	2.43
427.73	2.42
427.937	2.45
428.144	2.41
428.351	2.5
428.558	2.46
428.765	2.5
428.972	2.46
429.179	2.48
429.386	2.49
429.593	2.51
429.8	2.51
430.007	2.56
430.214	2.59
430.421	2.56
430.628	2.46
430.835	2.45
431.042	2.47
431.249	2.39
431.456	2.43
431.662	2.44
431.869	2.52
432.076	2.64
432.283	2.6
432.49	2.57
432.697	2.66
432.903	2.58
433.11	2.65
433.317	2.64
433.524	2.55
433.73	2.62
433.937	2.59
434.144	2.62
434.35	2.64
434.557	2.5
434.764	2.52
434.97	2.65
435.177	2.56
435.384	2.65
435.59	2.56
435.797	2.62
436.003	2.65
436.21	2.59
436.416	2.49
436.623	2.6
436.829	2.6
437.036	2.63
437.242	2.62
437.449	2.66
437.655	2.65
437.862	2.69
438.068	2.71
438.275	2.63
438.481	2.68
438.687	2.71
438.894	2.76
439.1	2.77
439.307	2.81
439.513	2.76
439.719	2.82
439.926	2.84
440.132	2.8
440.338	2.74
440.544	2.79
440.751	2.75
440.957	2.72
441.163	2.74
441.369	2.7
441.575	2.65
441.782	2.66
441.988	2.64
442.194	2.73
442.4	2.74
442.606	2.79
442.812	2.81
443.018	2.85
443.224	2.89
443.431	2.91
443.637	2.83
443.843	2.91
444.049	2.82
444.255	2.78
444.461	2.82
444.667	2.82
444.873	2.79
445.079	2.83
445.284	2.74
445.49	2.77
445.696	2.83
445.902	2.86
446.108	2.89
446.314	2.93
446.52	2.94
446.726	3
446.931	3.04
447.137	3
447.343	2.98
447.549	2.89
447.755	2.9
447.96	2.91
448.166	2.9
448.372	2.87
448.578	2.89
448.783	2.84
448.989	2.9
449.195	2.9
449.4	2.84
449.606	2.8
449.812	2.8
450.017	2.88
450.223	2.89
450.428	2.87
450.634	2.87
450.84	2.87
451.045	2.9
451.251	3
451.456	2.92
451.662	2.93
451.867	2.94
452.073	2.93
452.278	2.99
452.483	3
452.689	2.95
452.894	2.98
453.1	2.92
453.305	2.9
453.51	2.86
453.716	2.84
453.921	2.81
454.127	2.77
454.332	2.78
454.537	2.92
454.742	2.94
454.948	2.98
455.153	2.99
455.358	3.05
455.563	3.07
455.769	3.03
455.974	2.9
456.179	2.86
456.384	2.91
456.589	2.93
456.795	2.88
457	2.95
457.205	2.9
457.41	2.96
457.615	3.05
457.82	3.06
458.025	3.01
458.23	3.04
458.435	2.92
458.64	3
458.845	2.96
459.05	2.9
459.255	2.85
459.46	2.86
459.665	2.89
459.87	2.94
460.075	2.92
460.28	2.93
460.485	3
460.69	2.96
460.895	3.01
461.099	2.97
461.304	2.98
461.509	2.93
461.714	2.99
461.919	2.95
462.123	2.98
462.328	2.92
462.533	2.96
462.738	3
462.942	3.1
463.147	3.07
463.352	3.11
463.556	3.16
463.761	3.2
463.966	3.2
464.17	3.19
464.375	3.13
464.58	3.11
464.784	3.1
464.989	3.1
465.193	3.12
465.398	3.07
465.602	3.08
465.807	3.14
466.011	3.18
466.216	3.19
466.42	3.19
466.625	3.17
466.829	3.25
467.034	3.26
467.238	3.24
467.443	3.25
467.647	3.27
467.851	3.29
468.056	3.31
468.26	3.31
468.464	3.33
468.669	3.38
468.873	3.35
469.077	3.36
469.282	3.38
469.486	3.39
469.69	3.41
469.894	3.5
