Data from Ofra_PS_T2_2A_1GT42_Reflection_3.txt Node
Date: Wed Jul 21 16:55:25 EDT 2021
User: Adam
Spectrometer: FLMT01687
Trigger mode: 0
Integration Time (sec): 1.100000E0
Scans to average: 2
Electric dark correction enabled: true
Nonlinearity correction enabled: false
Boxcar width: 2
XAxis mode: Wavelengths
Number of Pixels in Spectrum: 3648
>>>>>Begin Spectral Data<<<<<
179.494	440.4
179.716	520.94
179.937	504.74
180.158	484.87
180.38	902.81
180.601	425.14
180.823	180.69
181.044	63.27
181.265	215.07
181.486	-2.82
181.708	25.98
181.929	-547.96
182.15	272.54
182.372	140.37
182.593	10.98
182.814	-1.29
183.035	21.13
183.257	19.81
183.478	-41.81
183.699	-12.2
183.92	25.04
184.141	20.76
184.363	-3.89
184.584	17.46
184.805	38.96
185.026	41.82
185.247	49.8
185.468	27.91
185.689	52.84
185.91	43.58
186.132	34.6
186.353	14.87
186.574	73.38
186.795	51.08
187.016	25.19
187.237	11.92
187.458	25.03
187.679	-14.38
187.9	1.44
188.121	6.53
188.342	13.58
188.563	33.96
188.784	38.92
189.005	31.08
189.226	54.1
189.447	45.29
189.667	-108.5
189.888	-278.57
190.109	-1053.9
190.33	-564.19
190.551	-1063.27
190.772	-237.17
190.993	-144.99
191.214	-92.69
191.434	-54.65
191.655	12.7
191.876	9.86
192.097	-18.09
192.318	-75.92
192.538	-128.01
192.759	-91.25
192.98	-28.32
193.201	-8.93
193.421	10.55
193.642	26.55
193.863	9.95
194.083	-1.66
194.304	-3.4
194.525	-5.19
194.745	-37.54
194.966	-13.98
195.187	-33.04
195.407	-73.1
195.628	-135.38
195.848	-108.53
196.069	-123.79
196.29	-66.15
196.51	-37.54
196.731	-22.09
196.951	-46.22
197.172	-46.76
197.392	-68.51
197.613	-70.47
197.833	-90.04
198.054	-51.53
198.274	-9.46
198.495	-43.57
198.715	-20.5
198.936	-24.4
199.156	-26.29
199.377	-129.52
199.597	-91.12
199.817	-97.53
200.038	-52.61
200.258	-128.54
200.479	-42.02
200.699	-15.64
200.919	5.99
201.14	-0.17
201.36	11.22
201.58	38.17
201.801	53.04
202.021	34.84
202.241	33.39
202.461	39.43
202.682	-26.09
202.902	-103.52
203.122	-35.93
203.342	-44.04
203.563	-12.69
203.783	18.8
204.003	-9.53
204.223	-22.23
204.443	22.82
204.663	-14.84
204.884	-15.11
205.104	30.87
205.324	-5.53
205.544	-3.96
205.764	23.85
205.984	17.84
206.204	15.56
206.424	36.8
206.644	11.64
206.864	12.54
207.084	-5.56
207.304	8.26
207.525	-84.84
207.745	-23.36
207.964	-3.15
208.184	-34.46
208.404	-67.56
208.624	-65.09
208.844	-64.56
209.064	-265.09
209.284	-205.57
209.504	-61.63
209.724	8.94
209.944	13.32
210.164	30.09
210.384	24.68
210.604	-11.11
210.823	-56.32
211.043	-61.95
211.263	-43
211.483	-51.27
211.703	-66.34
211.922	-60.63
212.142	-15.01
212.362	0.75
212.582	-15.33
212.801	-1.56
213.021	-5.02
213.241	-38.3
213.461	-84.77
213.68	-89.4
213.9	-106.52
214.12	-90.69
214.339	-106.61
214.559	-82.76
214.779	-30.58
214.998	7.29
215.218	-21.53
215.438	-14.67
215.657	-3.74
215.877	-11.32
216.096	-6.28
216.316	13.29
216.535	1.99
216.755	3.75
216.974	-64.22
217.194	-109.07
217.413	-91.82
217.633	-67.37
217.852	-137.91
218.072	-57.35
218.291	-18.99
218.511	2.59
218.73	-22.84
218.95	-22.51
219.169	-12.21
219.389	-48.61
219.608	-32.73
219.827	-29.09
220.047	-19.12
220.266	-20.3
220.485	-14.11
220.705	-10.84
220.924	-10.35
221.143	21.39
221.363	-3.09
221.582	0.94
221.801	-2.19
222.021	18.28
222.24	-40.85
222.459	48.8
222.678	43.21
222.897	16.85
223.117	-27.34
223.336	2.14
223.555	-0.9
223.774	23.69
223.993	17.28
224.213	48.91
224.432	11.98
224.651	44.29
224.87	22.08
225.089	39.28
225.308	32.16
225.527	48.24
225.746	34.98
225.965	31.31
226.184	7.73
226.404	22.26
226.623	11.96
226.842	6.85
227.061	22.59
227.28	23.55
227.499	16.04
227.718	28.55
227.936	14.23
228.155	20.44
228.374	21.09
228.593	15.66
228.812	-0.55
229.031	3.86
229.25	-32.64
229.469	-64.88
229.688	-67.79
229.907	-33.47
230.125	-16.72
230.344	3.59
230.563	22.79
230.782	26.11
231.001	-25.74
231.22	-38.61
231.438	-24.57
231.657	-9.5
231.876	-21.36
232.095	13.77
232.313	28.47
232.532	24.25
232.751	8.52
232.969	4.02
233.188	-51.34
233.407	7.85
233.625	1.02
233.844	1.19
234.063	11.8
234.281	34.07
234.5	13.01
234.719	9.93
234.937	3.54
235.156	-7.61
235.374	-0.97
235.593	-18.15
235.811	-19.17
236.03	-10.16
236.249	-28.58
236.467	-36.41
236.686	10.85
236.904	20.25
237.123	7.78
237.341	16.48
237.559	10.22
237.778	-15.48
237.996	-40.36
238.215	-5.82
238.433	-2.03
238.652	-9.71
238.87	-21.55
239.088	-5.71
239.307	-21.15
239.525	-19.53
239.743	-11.61
239.962	7.63
240.18	-27.64
240.398	-52.37
240.617	-52.24
240.835	-43.92
241.053	-45.61
241.271	42.36
241.49	54.28
241.708	36.53
241.926	15.98
242.144	6.78
242.363	-70.41
242.581	-81.99
242.799	-31.51
243.017	-18.15
243.235	-10.56
243.453	8.08
243.672	1.49
243.89	-5.26
244.108	-7.73
244.326	2.66
244.544	-7.48
244.762	-3
244.98	-16.36
245.198	2.39
245.416	-20.58
245.634	-13.45
245.852	-33.24
246.07	-21.6
246.288	-52.5
246.506	-52.09
246.724	-56.91
246.942	-26.37
247.16	10.05
247.378	30.58
247.596	26.58
247.814	37.8
248.032	10.86
248.25	12.51
248.468	9.89
248.685	23.29
248.903	27.95
249.121	36.29
249.339	6.16
249.557	-12.26
249.775	0.26
249.992	-37.72
250.21	-34.56
250.428	-26.8
250.646	-47.16
250.863	-65.69
251.081	-37.5
251.299	-49
251.517	-21.23
251.734	-16.6
251.952	-16.11
252.17	-17.93
252.387	-4.17
252.605	-13.62
252.823	4.88
253.04	23.74
253.258	36.53
253.475	46.59
253.693	53.98
253.911	38.3
254.128	32.83
254.346	30.32
254.563	6.15
254.781	-22.41
254.998	-29.98
255.216	-59.34
255.433	-44.23
255.651	-16.64
255.868	-8.17
256.086	3.34
256.303	15.07
256.521	6.28
256.738	-9.69
256.956	-20.67
257.173	-24.18
257.39	-44.75
257.608	-44.09
257.825	-9.89
258.043	10.68
258.26	17.85
258.477	58.03
258.695	38.13
258.912	0.81
259.129	18.2
259.346	-3.08
259.564	-45.28
259.781	-32.16
259.998	3.65
260.216	-2.41
260.433	13.08
260.65	24.2
260.867	22.73
261.084	4.14
261.302	5.71
261.519	-2.52
261.736	-31.12
261.953	-40.98
262.17	-22.42
262.387	-56.72
262.604	-55.99
262.822	-48.64
263.039	-40.37
263.256	-57.76
263.473	-26.98
263.69	-17.85
263.907	14.44
264.124	14.84
264.341	20.56
264.558	20.03
264.775	26.94
264.992	14.54
265.209	13.1
265.426	12.25
265.643	17.02
265.86	20.55
266.077	32.99
266.294	31.01
266.51	27.24
266.727	3.99
266.944	19.18
267.161	-27.6
267.378	-34.63
267.595	-14.74
267.812	-31.5
268.028	-62.21
268.245	-23.92
268.462	-27.43
268.679	-38.6
268.896	2.16
269.112	-7.01
269.329	-11.98
269.546	0.54
269.763	-3.66
269.979	-8.57
270.196	9.63
270.413	-12.71
270.629	-36.84
270.846	-29.22
271.063	-49.32
271.279	-68.86
271.496	-55.27
271.712	-5.41
271.929	-15.58
272.146	-16.37
272.362	-22.23
272.579	3.62
272.795	-21.8
273.012	-11.81
273.228	-8.94
273.445	-10.71
273.661	-54.85
273.878	-78.39
274.094	-60.59
274.311	-98.95
274.527	-40.01
274.744	-13.98
274.96	-2.88
275.177	6.52
275.393	32.41
275.609	24.5
275.826	34.7
276.042	33.84
276.259	29.92
276.475	32.37
276.691	28.12
276.908	-0.08
277.124	17.89
277.34	11.47
277.557	0.29
277.773	-1.03
277.989	-3.63
278.205	-13.25
278.422	-7.09
278.638	2.98
278.854	9.17
279.07	11.8
279.286	40.35
279.503	40.7
279.719	31.05
279.935	21.19
280.151	28.26
280.367	-18.32
280.583	-45.39
280.799	-25.53
281.016	-54.11
281.232	-15.44
281.448	-2.67
281.664	15.39
281.88	-26.91
282.096	-22
282.312	-21.12
282.528	-33.89
282.744	-24.63
282.96	-24.86
283.176	-6.45
283.392	-19.77
283.608	-12.72
283.824	-25.39
284.04	-6.72
284.256	3.55
284.471	2.41
284.687	1.34
284.903	24.73
285.119	31.44
285.335	20.84
285.551	24.67
285.767	5.26
285.982	-5.37
286.198	-39.08
286.414	-16.88
286.63	-9.41
286.846	13
287.061	-7.42
287.277	29.57
287.493	1.23
287.709	13.05
287.924	-2.42
288.14	32.83
288.356	10.68
288.571	37.92
288.787	20.9
289.003	18.29
289.218	7.47
289.434	-16.52
289.65	-13.3
289.865	-14.57
290.081	7.21
290.296	-3.54
290.512	7.61
290.727	-26.24
290.943	-17.19
291.159	-22.69
291.374	-18.65
291.59	-23.37
291.805	3.18
292.021	2.6
292.236	7.48
292.451	25.44
292.667	41.17
292.882	36.09
293.098	27.5
293.313	25.66
293.529	-5.48
293.744	-38.88
293.959	-32.19
294.175	-24.73
294.39	-0.96
294.605	14.54
294.821	26.11
295.036	24.64
295.251	33.67
295.467	15.47
295.682	0.65
295.897	-19.68
296.112	-26.12
296.328	-19.45
296.543	-44.68
296.758	-62.23
296.973	-25.5
297.188	2.85
297.404	-25.93
297.619	-37.77
297.834	-37.3
298.049	-53.8
298.264	-54.9
298.479	-11.36
298.694	-4.77
298.909	19.21
299.125	21.52
299.34	15.84
299.555	2.72
299.77	25.84
299.985	-11.86
300.2	-44.99
300.415	-45.81
300.63	-20.52
300.845	-31.57
301.06	-19.57
301.275	-0.63
301.49	15.72
301.704	-1.7
301.919	-4.38
302.134	-8.38
302.349	-13.04
302.564	-67.31
302.779	-73.17
302.994	-83.93
303.209	-45.26
303.423	-12.6
303.638	38.89
303.853	8.97
304.068	18.25
304.283	8.02
304.497	0.22
304.712	-9.75
304.927	8.37
305.142	-3.92
305.356	3.18
305.571	3.48
305.786	-3.74
306	-33.06
306.215	-6.99
306.43	-18.16
306.644	-24.14
306.859	-14.28
307.074	3.83
307.288	-49.04
307.503	-82.6
307.717	-68.07
307.932	-68.39
308.147	-73.34
308.361	-42.9
308.576	-31.78
308.79	-54.73
309.005	-43.24
309.219	-15.66
309.434	-30.32
309.648	-22.53
309.863	3.54
310.077	0.79
310.292	-8.56
310.506	-2.68
310.72	14.3
310.935	6.99
311.149	5.75
311.364	17.49
311.578	29.17
311.792	18.07
312.007	24.01
312.221	19.53
312.435	21.41
312.649	8.36
312.864	-23.66
313.078	-23.61
313.292	5.91
313.507	-56.49
313.721	-61.26
313.935	23.62
314.149	11.79
314.363	4.47
314.578	18.11
314.792	18.13
315.006	-6.69
315.22	6.82
315.434	2.77
315.648	12.31
315.862	5.44
316.077	10.89
316.291	-4.8
316.505	-14.9
316.719	-71.99
316.933	-80.82
317.147	-51.81
317.361	-96.29
317.575	-82.41
317.789	-70.79
318.003	-80.83
318.217	-76.41
318.431	-6.93
318.645	21.62
318.859	20.95
319.073	25.78
319.287	16.41
319.5	5.73
319.714	-26.34
319.928	-51.63
320.142	-62.43
320.356	-21.22
320.57	-8.45
320.784	-36.22
320.997	-17.88
321.211	-26.93
321.425	-76.15
321.639	-96.02
321.853	-32.28
322.066	-26.15
322.28	-21.24
322.494	-11.13
322.707	9.99
322.921	-3.93
323.135	-1.02
323.349	7.16
323.562	-6.34
323.776	-17.8
323.989	-20.06
324.203	-35.17
324.417	-47.8
324.63	-51.29
324.844	-58.74
325.057	-58.72
325.271	-41.79
325.485	-7.1
325.698	1.13
325.912	14.61
326.125	6.93
326.339	3.56
326.552	-15.39
326.766	-7.33
326.979	12.1
327.193	40.37
327.406	39.56
327.619	29.34
327.833	32.16
328.046	16.6
328.26	-16.59
328.473	-1.52
328.686	-10.46
328.9	-12.15
329.113	-0.9
329.326	-8.32
329.54	10.65
329.753	14
329.966	14.07
330.179	-6.39
330.393	4.39
330.606	-6.84
330.819	2.23
331.032	16.77
331.246	30.63
331.459	50.19
331.672	49.83
331.885	44.09
332.098	28.97
332.311	4.85
332.525	-26.45
332.738	-36.59
332.951	-0.33
333.164	29.4
333.377	35.02
333.59	37.38
333.803	47.48
334.016	24.98
334.229	-6.66
334.442	7.09
334.655	27.48
334.868	11.2
335.081	14.36
335.294	10.99
335.507	-6.74
335.72	-21.03
335.933	-8.79
336.146	-26.16
336.359	-33.32
336.572	-37.93
336.785	-59.98
336.997	-61.21
337.21	-25.71
337.423	-23.79
337.636	-18.73
337.849	-2.76
338.062	-11.42
338.274	-13.41
338.487	-9.67
338.7	-15.81
338.913	-56.53
339.125	-69.55
339.338	-101.69
339.551	-67.72
339.763	-33.71
339.976	-3.31
340.189	13.88
340.402	12.06
340.614	3.89
340.827	-5.51
341.039	-21.95
341.252	-14.33
341.465	-5.72
341.677	-8.37
341.89	-40.59
342.102	-11.03
342.315	-17.3
342.527	-36.23
342.74	-31.76
342.952	6.38
343.165	3.97
343.377	10.01
343.59	14.53
343.802	26.56
344.015	18.48
344.227	26.91
344.44	24.27
344.652	21.62
344.864	4.52
345.077	28.8
345.289	19.33
345.502	17.55
345.714	10.65
345.926	14.28
346.139	-3.09
346.351	11.69
346.563	17.72
346.775	35.08
346.988	31.62
347.2	27.27
347.412	-23.8
347.624	-27.11
347.837	-61.42
348.049	-34.59
348.261	-15.07
348.473	19.47
348.685	2.8
348.897	14.58
349.11	-11.05
349.322	-24.56
349.534	-26.05
349.746	-4.71
349.958	-0.56
350.17	-8.8
350.382	-10.99
350.594	0.26
350.806	-3.08
351.018	-8.47
351.23	-9.99
351.442	-19.07
351.654	-38.07
351.866	-31.47
352.078	-24.42
352.29	-3.05
352.502	3.24
352.714	8.01
352.926	-7.15
353.138	-7.02
353.35	-13.08
353.561	-13.81
353.773	-24.45
353.985	-2.66
354.197	3.47
354.409	16.16
354.621	15.35
354.832	20.14
355.044	5.35
355.256	4.21
355.468	9.27
355.679	9.93
355.891	20.2
356.103	8.74
356.314	7.04
356.526	-5.53
356.738	-3.16
356.949	-14.34
357.161	3.29
357.373	-3.95
357.584	-6.81
357.796	-0.48
358.008	0.6
358.219	13.86
358.431	20.29
358.642	21.56
358.854	13.32
359.065	0.4
359.277	-22.93
359.488	-38.13
359.7	-62.35
359.911	-70.38
360.123	-48.47
360.334	-51.91
360.546	-54.79
360.757	-50.69
360.969	-21.09
361.18	-15.19
361.391	-12.44
361.603	-22.01
361.814	-9.64
362.025	-20.68
362.237	-27.02
362.448	-3.34
362.659	3.95
362.871	6.93
363.082	6.34
363.293	-4.59
363.504	-32.99
363.716	-44.17
363.927	-45.68
364.138	-55.12
364.349	-47.92
364.56	-36.29
364.772	-26.61
364.983	-17.41
365.194	-19.31
365.405	-6.9
365.616	7.15
365.827	5.71
366.038	-16.99
366.25	-22.53
366.461	-32.78
366.672	-16.99
366.883	-4.72
367.094	14.45
367.305	11.67
367.516	8.74
367.727	-7.87
367.938	-22.13
368.149	-29.69
368.36	-18.62
368.571	-20.33
368.781	-22.69
368.992	-25.87
369.203	-39.61
369.414	-47.93
369.625	-50.84
369.836	-55.64
370.047	-72.48
370.258	-51.44
370.468	-49.65
370.679	-54.83
370.89	-46.67
371.101	-19.59
371.312	-22.71
371.522	-20.62
371.733	-13.09
371.944	-4.75
372.155	-7.27
372.365	-13.52
372.576	-20.18
372.787	-23.02
372.997	-42.91
373.208	-40.38
373.419	-3.88
373.629	-10.08
373.84	-7.3
374.05	0.76
374.261	2.96
374.472	-13.27
374.682	14.59
374.893	9.21
375.103	26
375.314	29.75
375.524	28.01
375.735	20.2
375.945	34.23
376.156	18.64
376.366	7.16
376.577	0.4
376.787	-4.36
376.997	-15.92
377.208	-19.81
377.418	-20.32
377.629	-15.67
377.839	-18.46
378.049	-21.23
378.26	0.9
378.47	6.12
378.68	1.63
378.89	3.5
379.101	6.95
379.311	-21.01
379.521	-46.66
379.732	-42.69
379.942	-40.31
380.152	-48.97
380.362	-20.89
380.572	-15.62
380.783	-4.1
380.993	11.56
381.203	20.11
381.413	17.34
381.623	16.61
381.833	4.73
382.043	-15.4
382.253	-18.72
382.463	-12.61
382.674	-15.12
382.884	-17.82
383.094	-2.91
383.304	9.12
383.514	3.24
383.724	8.1
383.934	1.84
384.144	-11.89
384.353	-26.17
384.563	-20.03
384.773	-3.54
384.983	-5.97
385.193	7.24
385.403	14.71
385.613	16.43
385.823	1.93
386.033	5.4
386.242	-3.98
386.452	-7.36
386.662	-16.84
386.872	-11.91
387.082	-15.41
387.291	-14.6
387.501	-19.61
387.711	-9.83
387.921	-10.82
388.13	-10.1
388.34	-3.78
388.55	-4.72
388.759	-2.59
388.969	2.86
389.179	3.24
389.388	4.22
389.598	6.1
389.807	-3.11
390.017	-11.15
390.227	-5.8
390.436	-7.03
390.646	-8.48
390.855	-3.81
391.065	-2.97
391.274	-5.38
391.484	-6.9
391.693	-4
391.903	-2.22
392.112	4.15
392.322	4.97
392.531	8.01
392.74	10.52
392.95	5.27
393.159	2.65
393.369	3.4
393.578	1.89
393.787	0.25
393.997	1.99
394.206	0.18
394.415	-0.56
394.625	-0.61
394.834	-2.19
395.043	-0.68
395.252	1.65
395.462	3.89
395.671	4.77
395.88	6.81
396.089	7.23
396.298	5.92
396.508	5
396.717	4.59
396.926	4.05
397.135	3.75
397.344	3.65
397.553	3.75
397.762	3.99
397.971	4.06
398.181	4.14
398.39	4.25
398.599	3.82
398.808	4.04
399.017	5.06
399.226	6.26
399.435	6.61
399.644	6.96
399.853	6.34
400.062	5.59
400.27	4.63
400.479	4.02
400.688	3.48
400.897	3.51
401.106	3.69
401.315	4.03
401.524	4.32
401.733	4.78
401.941	4.91
402.15	4.69
402.359	4.3
402.568	4.54
402.777	4.55
402.985	4.7
403.194	4.5
403.403	4.7
403.612	4.4
403.82	4.17
404.029	4.3
404.238	4.6
404.446	4.63
404.655	4.64
404.864	4.72
405.072	4.46
405.281	4.31
405.489	3.99
405.698	4.05
405.906	4.06
406.115	4.23
406.324	4.26
406.532	4.48
406.741	4.59
406.949	4.5
407.158	4.43
407.366	4.45
407.574	4.58
407.783	4.5
407.991	4.33
408.2	4.27
408.408	4.2
408.617	3.97
408.825	3.93
409.033	4.14
409.242	4.21
409.45	4.36
409.658	4.43
409.867	4.61
410.075	4.45
410.283	4.28
410.491	4.11
410.7	4.01
410.908	4.01
411.116	4.32
411.324	4.4
411.533	4.31
411.741	4.37
411.949	4.2
412.157	3.89
412.365	3.88
412.573	3.81
412.781	3.81
412.99	3.81
413.198	3.97
413.406	3.92
413.614	3.96
413.822	3.93
414.03	3.85
414.238	3.61
414.446	3.73
414.654	3.71
414.862	3.75
415.07	3.82
415.278	4
415.486	3.78
415.694	3.98
415.902	3.81
416.109	3.72
416.317	3.78
416.525	3.75
416.733	3.65
416.941	3.87
417.149	3.91
417.357	3.78
417.564	3.84
417.772	3.9
417.98	3.8
418.188	3.75
418.395	3.68
418.603	3.96
418.811	3.68
419.019	3.57
419.226	3.75
419.434	3.93
419.642	3.56
419.849	3.75
420.057	3.81
420.265	3.61
420.472	3.34
420.68	3.46
420.887	3.46
421.095	3.4
421.302	3.43
421.51	3.68
421.717	3.73
421.925	3.93
422.132	4.04
422.34	3.79
422.547	3.73
422.755	3.62
422.962	3.26
423.17	3.11
423.377	3.43
423.585	3.35
423.792	3.14
423.999	3.21
424.207	3.22
424.414	3.12
424.621	3.06
424.829	3.19
425.036	3.26
425.243	3.48
425.451	3.44
425.658	3.38
425.865	3.57
426.072	3.51
426.28	3.56
426.487	3.53
426.694	3.7
426.901	3.47
427.108	3.44
427.315	3.2
427.523	3.44
427.73	3.36
427.937	3.5
428.144	3.45
428.351	3.39
428.558	3.3
428.765	3.21
428.972	2.97
429.179	3.11
429.386	3.38
429.593	3.31
429.8	3.36
430.007	3.64
430.214	3.68
430.421	3.51
430.628	3.36
430.835	3.38
431.042	3.38
431.249	3.47
431.456	3.5
431.662	3.69
431.869	3.65
432.076	3.75
432.283	3.8
432.49	3.82
432.697	3.87
432.903	3.85
433.11	3.81
433.317	3.72
433.524	3.87
433.73	3.82
433.937	4.05
434.144	3.96
434.35	4.04
434.557	3.86
434.764	3.83
434.97	3.75
435.177	3.84
435.384	3.67
435.59	3.68
435.797	3.9
436.003	3.99
436.21	3.96
436.416	4.13
436.623	4.24
436.829	4.18
437.036	4.2
437.242	4.24
437.449	4.17
437.655	4.19
437.862	4.2
438.068	4.13
438.275	4.21
438.481	4.33
438.687	4.23
438.894	4.25
439.1	4.3
439.307	4.33
439.513	4.28
439.719	4.27
439.926	4.29
440.132	4.25
440.338	4.12
440.544	4.21
440.751	4.21
440.957	4.28
441.163	4.21
441.369	4.38
441.575	4.22
441.782	4.21
441.988	4.16
442.194	4.23
442.4	4.2
442.606	4.46
442.812	4.62
443.018	4.64
443.224	4.71
443.431	4.76
443.637	4.6
443.843	4.5
444.049	4.47
444.255	4.43
444.461	4.45
444.667	4.4
444.873	4.57
445.079	4.61
445.284	4.64
445.49	4.41
445.696	4.38
445.902	4.18
446.108	4.13
446.314	4.1
446.52	4.17
446.726	4.37
446.931	4.5
447.137	4.59
447.343	4.62
447.549	4.62
447.755	4.55
447.96	4.59
448.166	4.5
448.372	4.5
448.578	4.57
448.783	4.52
448.989	4.54
449.195	4.65
449.4	4.71
449.606	4.75
449.812	4.77
450.017	4.72
450.223	4.67
450.428	4.53
450.634	4.55
450.84	4.63
451.045	4.63
451.251	4.62
451.456	4.95
451.662	5.02
451.867	5.06
452.073	5.09
452.278	5.18
452.483	5.13
452.689	5.01
452.894	5.08
453.1	5.05
453.305	5.02
453.51	4.95
453.716	4.97
453.921	4.88
454.127	4.81
454.332	4.68
454.537	4.58
454.742	4.57
454.948	4.53
455.153	4.59
455.358	4.7
455.563	4.86
455.769	4.99
455.974	5.01
456.179	4.97
456.384	4.9
456.589	4.83
456.795	4.63
457	4.62
457.205	4.77
457.41	4.85
457.615	4.79
457.82	4.93
458.025	4.91
458.23	4.81
458.435	4.8
458.64	4.8
458.845	4.97
459.05	4.98
459.255	5.02
459.46	4.93
459.665	4.97
459.87	4.84
460.075	4.85
460.28	4.92
460.485	5.09
460.69	5.16
460.895	5.09
461.099	5.14
461.304	5.13
461.509	5.12
461.714	5.03
461.919	5.09
462.123	4.98
462.328	5
462.533	4.94
462.738	5.11
462.942	5.1
463.147	5.16
