Data from Ofra_PS_T2_2A_2GT38_Reflection_2.txt Node
Date: Wed Jul 21 17:04:08 EDT 2021
User: Adam
Spectrometer: FLMT01687
Trigger mode: 0
Integration Time (sec): 1.100000E0
Scans to average: 2
Electric dark correction enabled: true
Nonlinearity correction enabled: false
Boxcar width: 2
XAxis mode: Wavelengths
Number of Pixels in Spectrum: 3648
>>>>>Begin Spectral Data<<<<<
179.494	541
179.716	589.18
179.937	549.85
180.158	532.56
180.38	896.41
180.601	368.09
180.823	157.35
181.044	65.52
181.265	220.77
181.486	33.04
181.708	61.72
181.929	141.33
182.15	75.7
182.372	147.89
182.593	63.68
182.814	19.58
183.035	66.22
183.257	43.94
183.478	-24.95
183.699	13.45
183.92	52.65
184.141	36.84
184.363	-29.31
184.584	43.7
184.805	39.09
185.026	50.98
185.247	39.53
185.468	32.64
185.689	6.85
185.91	14.13
186.132	-0.85
186.353	8.04
186.574	74.21
186.795	60.5
187.016	36.38
187.237	16.8
187.458	17.47
187.679	4.59
187.9	33.88
188.121	33.62
188.342	40.51
188.563	42.68
188.784	50.76
189.005	32.35
189.226	74.22
189.447	121.69
189.667	202.31
189.888	60.47
190.109	221.75
190.33	-44.68
190.551	-371.9
190.772	-65.44
190.993	-48.03
191.214	-40.01
191.434	-16.5
191.655	19.11
191.876	-36.28
192.097	-86.58
192.318	-137.76
192.538	-267.52
192.759	-165.21
192.98	-19.4
193.201	14.15
193.421	13.02
193.642	36.01
193.863	43.44
194.083	19.49
194.304	12.81
194.525	-0.22
194.745	-23.1
194.966	-48.12
195.187	-48.56
195.407	-68.23
195.628	-58.53
195.848	-77.37
196.069	-49.47
196.29	-0.44
196.51	-6.7
196.731	5.39
196.951	18.24
197.172	-18
197.392	-77.86
197.613	-97.89
197.833	-165.8
198.054	-151.81
198.274	-97.47
198.495	-100.35
198.715	-53.84
198.936	-55.17
199.156	-27.78
199.377	-84.23
199.597	-98.44
199.817	-132.94
200.038	-59.62
200.258	-108.11
200.479	-28.59
200.699	2.61
200.919	60.66
201.14	24.91
201.36	-17.29
201.58	18.52
201.801	37.72
202.021	15.93
202.241	14.02
202.461	25.05
202.682	-105.12
202.902	-150.43
203.122	-95.11
203.342	-69.16
203.563	-32.51
203.783	19.3
204.003	-6.68
204.223	-14.74
204.443	48.86
204.663	40.41
204.884	55.98
205.104	84.84
205.324	90.61
205.544	60.48
205.764	76.31
205.984	65.43
206.204	64.35
206.424	50.76
206.644	25.94
206.864	17.67
207.084	-17.84
207.304	-1.54
207.525	-74.14
207.745	-64.21
207.964	-29.7
208.184	-63.96
208.404	-115.88
208.624	-98.43
208.844	-87.06
209.064	-334.62
209.284	-315.61
209.504	-123.31
209.724	-33.5
209.944	-22.82
210.164	7.48
210.384	7.28
210.604	6.02
210.823	-23.54
211.043	-14.21
211.263	-26.88
211.483	-26.94
211.703	-64.69
211.922	-51.17
212.142	-16.54
212.362	21.38
212.582	15.43
212.801	21.15
213.021	12.6
213.241	-0.02
213.461	-44.09
213.68	-63.62
213.9	-41.59
214.12	-38.36
214.339	-83.63
214.559	-43.28
214.779	9.32
214.998	3.12
215.218	-8.34
215.438	4.49
215.657	-22.48
215.877	-36.09
216.096	-0.68
216.316	8.41
216.535	-13.85
216.755	1.57
216.974	-38.35
217.194	-105.98
217.413	-84.31
217.633	-45.62
217.852	-145.73
218.072	-48.88
218.291	-23.67
218.511	13.45
218.73	-30.83
218.95	-8.13
219.169	-17.73
219.389	-41.39
219.608	-49.47
219.827	-22.85
220.047	-15.09
220.266	-2.54
220.485	14.98
220.705	39.4
220.924	28.24
221.143	53.63
221.363	31.22
221.582	29.08
221.801	32.99
222.021	45.53
222.24	-47.8
222.459	-4.69
222.678	-40.81
222.897	-105.89
223.117	-165.12
223.336	-103.05
223.555	-50.99
223.774	-0.03
223.993	20.23
224.213	72.27
224.432	53.36
224.651	63.94
224.87	30.49
225.089	40.56
225.308	22.24
225.527	41.61
225.746	33.22
225.965	37.06
226.184	-10.81
226.404	21.99
226.623	-19.91
226.842	-13.87
227.061	16.39
227.28	34.79
227.499	27.21
227.718	64.03
227.936	62.61
228.155	54.35
228.374	46.74
228.593	47.73
228.812	28.98
229.031	20.04
229.25	-15.61
229.469	-17.29
229.688	-30.39
229.907	2.04
230.125	12.89
230.344	39.76
230.563	45.94
230.782	58.26
231.001	7.56
231.22	30.07
231.438	25.56
231.657	30.64
231.876	31.74
232.095	57.96
232.313	45.76
232.532	39.51
232.751	24.15
232.969	-0.62
233.188	-32.6
233.407	22.3
233.625	22.17
233.844	9.75
234.063	18.57
234.281	32.84
234.5	14.91
234.719	18.71
234.937	33.68
235.156	33.51
235.374	32.93
235.593	37.51
235.811	40.01
236.03	28.32
236.249	4.49
236.467	-0.31
236.686	16.3
236.904	28.99
237.123	8.83
237.341	9.8
237.559	9.34
237.778	-12.01
237.996	-49.44
238.215	-4.41
238.433	8.6
238.652	8.13
238.87	-9.96
239.088	-6.36
239.307	0.36
239.525	-17.12
239.743	-50.81
239.962	-37
240.18	-25.1
240.398	-69.95
240.617	-78.18
240.835	-43.51
241.053	-15.47
241.271	4.8
241.49	10.64
241.708	24.84
241.926	34.63
242.144	5.7
242.363	-12.64
242.581	-9.7
242.799	-4.62
243.017	1.99
243.235	-11.66
243.453	-13.9
243.672	-7.93
243.89	-3.83
244.108	-18.96
244.326	8.38
244.544	9.72
244.762	1.08
244.98	10.67
245.198	24.9
245.416	-10.59
245.634	-8.56
245.852	-12.5
246.07	-38.16
246.288	-16.86
246.506	-34.75
246.724	-18.84
246.942	-26.54
247.16	1.97
247.378	5.1
247.596	30.63
247.814	20.48
248.032	17
248.25	36.72
248.468	23.02
248.685	26.51
248.903	55.39
249.121	60.76
249.339	37.79
249.557	18.92
249.775	19.41
249.992	-64.21
250.21	-59.55
250.428	-53.79
250.646	-63.1
250.863	-61.37
251.081	-7.62
251.299	-7.34
251.517	5.04
251.734	8
251.952	-5.35
252.17	-17.52
252.387	9.46
252.605	3.41
252.823	11.93
253.04	36.38
253.258	64.26
253.475	44.01
253.693	64.8
253.911	63.79
254.128	62.89
254.346	46.1
254.563	37.07
254.781	7.49
254.998	-17.15
255.216	-31.46
255.433	-20.18
255.651	24.3
255.868	36.69
256.086	60.86
256.303	24.6
256.521	30.73
256.738	6.72
256.956	-12.48
257.173	-33.23
257.39	-36.04
257.608	-53.3
257.825	-20.26
258.043	-1.46
258.26	10.92
258.477	57.54
258.695	49.53
258.912	5.28
259.129	16.66
259.346	-23.44
259.564	-79.84
259.781	-76.47
259.998	-14.38
260.216	12.38
260.433	53.11
260.65	63.7
260.867	51.24
261.084	20.59
261.302	-12.11
261.519	-24.65
261.736	-46.98
261.953	-62.95
262.17	-5.22
262.387	-29.65
262.604	-58.73
262.822	-67.87
263.039	-44.91
263.256	-115.24
263.473	-56.78
263.69	-36.12
263.907	3.08
264.124	8.69
264.341	14.41
264.558	8.36
264.775	29.46
264.992	23.17
265.209	24.66
265.426	39.32
265.643	37.55
265.86	43.51
266.077	49.82
266.294	19.61
266.51	-8.36
266.727	-30.96
266.944	-24.8
267.161	-44.26
267.378	-17.39
267.595	13.02
267.812	3.77
268.028	-34.29
268.245	1.01
268.462	-12.35
268.679	-30.6
268.896	25.04
269.112	36.88
269.329	29.06
269.546	24.46
269.763	19.62
269.979	-1.9
270.196	-5.13
270.413	-26.81
270.629	-42.45
270.846	-48
271.063	-50.05
271.279	-75.53
271.496	-60.1
271.712	-14.11
271.929	8.07
272.146	6.9
272.362	24.52
272.579	48.15
272.795	51.49
273.012	42.44
273.228	53.64
273.445	52.73
273.661	30.82
273.878	-24.91
274.094	-16.89
274.311	-40.36
274.527	4.23
274.744	0.17
274.96	4.16
275.177	7.42
275.393	11.63
275.609	4.64
275.826	39.21
276.042	45.05
276.259	24.31
276.475	39.62
276.691	32.65
276.908	8.74
277.124	18.57
277.34	35.29
277.557	35.24
277.773	37.13
277.989	29.85
278.205	18.58
278.422	32.09
278.638	30.82
278.854	31.68
279.07	34.9
279.286	19.15
279.503	-22.59
279.719	-20.49
279.935	-45.28
280.151	-62.17
280.367	-22.42
280.583	-36
280.799	-38.26
281.016	-55.73
281.232	-12.36
281.448	-23.38
281.664	15.97
281.88	-8.06
282.096	16.97
282.312	31.61
282.528	59.63
282.744	52.34
282.96	55.53
283.176	37.03
283.392	36.23
283.608	22.24
283.824	6.77
284.04	14.47
284.256	28.08
284.471	5.96
284.687	10.74
284.903	50.58
285.119	72.92
285.335	40.78
285.551	58.51
285.767	23.92
285.982	-3.26
286.198	-50.18
286.414	2.41
286.63	11.64
286.846	39.05
287.061	18.21
287.277	44.66
287.493	16.01
287.709	29.63
287.924	13.35
288.14	51.73
288.356	47.46
288.571	65.96
288.787	36.52
289.003	47.81
289.218	28.11
289.434	-11.65
289.65	-14.13
289.865	-20.19
290.081	-12.16
290.296	-3.24
290.512	15.21
290.727	-18.16
290.943	-10.73
291.159	-24.23
291.374	-26.7
291.59	-41.07
291.805	-2.13
292.021	2.35
292.236	-4.66
292.451	20.99
292.667	30.46
292.882	39.18
293.098	47.67
293.313	48.28
293.529	13.51
293.744	-14.12
293.959	-35.13
294.175	-35.07
294.39	-8.33
294.605	6.4
294.821	26.63
295.036	29.26
295.251	39.74
295.467	30.03
295.682	8.52
295.897	-33.53
296.112	-45.21
296.328	-67.63
296.543	-92.71
296.758	-63.54
296.973	-10.57
297.188	25.17
297.404	17.5
297.619	25.49
297.834	9.02
298.049	0.82
298.264	-34.08
298.479	5.25
298.694	12.86
298.909	24.48
299.125	31.92
299.34	50.09
299.555	45.02
299.77	65.4
299.985	15.32
300.2	-32.65
300.415	-48.48
300.63	-21.39
300.845	-34.62
301.06	-31.16
301.275	-6.3
301.49	7.22
301.704	-13.96
301.919	-40.35
302.134	-36.19
302.349	-28.93
302.564	-88.51
302.779	-123.99
302.994	-75.27
303.209	-34.02
303.423	-14.53
303.638	32.55
303.853	22.35
304.068	7.21
304.283	10.57
304.497	-1.03
304.712	-16.63
304.927	-9.77
305.142	-15.97
305.356	-21.08
305.571	-10.21
305.786	-16.97
306	-31.63
306.215	-4.23
306.43	-27.91
306.644	-28.75
306.859	37.13
307.074	37.05
307.288	-3.1
307.503	15.81
307.717	-9.51
307.932	-31.06
308.147	-28.93
308.361	-2
308.576	2.13
308.79	-18.78
309.005	-4.29
309.219	11.1
309.434	-5.22
309.648	-22.09
309.863	-7.56
310.077	-4.42
310.292	-7.77
310.506	2.23
310.72	17.89
310.935	34.19
311.149	23.58
311.364	29.39
311.578	35.81
311.792	25.78
312.007	31.82
312.221	24.28
312.435	38.37
312.649	21.47
312.864	71.06
313.078	81.76
313.292	141.59
313.507	102.98
313.721	142.84
313.935	66.82
314.149	57.3
314.363	42.33
314.578	49.39
314.792	44.18
315.006	11.22
315.22	15.77
315.434	18.75
315.648	19.97
315.862	22.9
316.077	43.25
316.291	26.33
316.505	17.18
316.719	11.67
316.933	-15
317.147	-27.22
317.361	-45.87
317.575	-65.01
317.789	-98.15
318.003	-158.25
318.217	-116.38
318.431	-35.32
318.645	-5.83
318.859	1.22
319.073	28.31
319.287	3.81
319.5	-20.35
319.714	-58.16
319.928	-69.78
320.142	-88.57
320.356	-25.11
320.57	-5.48
320.784	-3.45
320.997	-4.46
321.211	10.32
321.425	-52.23
321.639	-54.66
321.853	7.92
322.066	9.78
322.28	-2.97
322.494	17.54
322.707	15.54
322.921	-2.63
323.135	-1.11
323.349	18.58
323.562	4.57
323.776	-6.3
323.989	-6.12
324.203	-14.09
324.417	-37.36
324.63	-33.23
324.844	-39.24
325.057	-20.95
325.271	-10.88
325.485	9.02
325.698	23.23
325.912	34.19
326.125	2.06
326.339	9.37
326.552	-9.35
326.766	-4.71
326.979	4.82
327.193	38
327.406	21.97
327.619	17.75
327.833	17.27
328.046	-1.25
328.26	-34.07
328.473	-5.6
328.686	-29.57
328.9	-19.21
329.113	-5.62
329.326	-19.14
329.54	-23.38
329.753	-7.57
329.966	-58.63
330.179	-53.88
330.393	-27.91
330.606	-25.81
330.819	-14
331.032	20.46
331.246	31.95
331.459	52.07
331.672	46.02
331.885	46.06
332.098	15.5
332.311	-3.82
332.525	-54.52
332.738	-43.04
332.951	-21.6
333.164	14.2
333.377	27.94
333.59	42.05
333.803	43.66
334.016	30.85
334.229	14.44
334.442	16.69
334.655	36.33
334.868	47.04
335.081	34.8
335.294	29.77
335.507	19.53
335.72	19.5
335.933	1.01
336.146	11.4
336.359	12.79
336.572	-6.73
336.785	-42.93
336.997	-21.97
337.21	-1.69
337.423	-12.74
337.636	-3.88
337.849	25.71
338.062	16.79
338.274	12.08
338.487	18.01
338.7	22.53
338.913	-38.3
339.125	-67.52
339.338	-110.86
339.551	-111.15
339.763	-66.74
339.976	-5.78
340.189	16.76
340.402	19.16
340.614	29.88
340.827	13.25
341.039	-3.03
341.252	-2.26
341.465	16.3
341.677	10.34
341.89	-26.24
342.102	-5.05
342.315	-16.85
342.527	-56.2
342.74	-36.57
342.952	-8.76
343.165	-6.61
343.377	27.6
343.59	29.61
343.802	28.53
344.015	39.32
344.227	30.86
344.44	10.67
344.652	20.18
344.864	16.23
345.077	33.71
345.289	33.78
345.502	36.04
345.714	22.3
345.926	25.8
346.139	5.24
346.351	13.41
346.563	17.25
346.775	27.69
346.988	22.27
347.2	16.43
347.412	-25.96
347.624	-34.19
347.837	-43.75
348.049	-26.64
348.261	11.88
348.473	24.21
348.685	6.54
348.897	6.1
349.11	-11.49
349.322	-57.67
349.534	-56.03
349.746	-28.27
349.958	-28.93
350.17	-24.47
350.382	7.43
350.594	25.65
350.806	14.93
351.018	24.62
351.23	17.13
351.442	-28.44
351.654	-42.26
351.866	-32.12
352.078	-37.67
352.29	-17.18
352.502	7.3
352.714	5.11
352.926	1.08
353.138	-0.88
353.35	-10.84
353.561	-13.23
353.773	-23.07
353.985	-14.77
354.197	-29.68
354.409	-32.33
354.621	-34.47
354.832	-13.07
355.044	-23.14
355.256	-16.16
355.468	1.09
355.679	-3.8
355.891	-8.12
356.103	-7.1
356.314	6.04
356.526	1.25
356.738	16.6
356.949	5.64
357.161	20.42
357.373	13.36
357.584	18.15
357.796	18.37
358.008	19.92
358.219	27.16
358.431	21.02
358.642	16.28
358.854	11.4
359.065	-1.91
359.277	-44.84
359.488	-38.39
359.7	-46.42
359.911	-48.07
360.123	-26.47
360.334	-16.04
360.546	-34.45
360.757	-26.91
360.969	-19.05
361.18	-2.14
361.391	0.37
361.603	-3.25
361.814	-11.95
362.025	-14.77
362.237	-12.97
362.448	7.34
362.659	30.17
362.871	31.55
363.082	33.91
363.293	18.92
363.504	2.16
363.716	-20.98
363.927	-26.09
364.138	-48.5
364.349	-44.9
364.56	-34.16
364.772	-29.75
364.983	-7.61
365.194	0.24
365.405	10.32
365.616	21.04
365.827	24.9
366.038	-5.65
366.25	-13.35
366.461	-38
366.672	-27.5
366.883	-11.84
367.094	6.86
367.305	4.95
367.516	9.14
367.727	-18.35
367.938	-26.21
368.149	-30.07
368.36	-4.68
368.571	4.41
368.781	2.21
368.992	-7.65
369.203	-25.1
369.414	-55.04
369.625	-68.69
369.836	-45.22
370.047	-74.27
370.258	-56.17
370.468	-50.04
370.679	-60.84
370.89	-63.22
371.101	-23.49
371.312	-18.41
371.522	-11.84
371.733	-1.11
371.944	13.52
372.155	9.46
372.365	5.42
372.576	8.01
372.787	11.87
372.997	-1.71
373.208	-8.42
373.419	21.69
373.629	-19.87
373.84	-37.53
374.05	-51.57
374.261	-38.21
374.472	-69.73
374.682	1.06
374.893	14.05
375.103	39.27
375.314	32.06
375.524	28.56
375.735	26.29
375.945	27.33
376.156	0.94
376.366	4.23
376.577	9.35
376.787	-3.5
376.997	-1.65
377.208	8.19
377.418	-1.52
377.629	2.59
377.839	1.62
378.049	-1.14
378.26	11.46
378.47	13.82
378.68	8.71
378.89	3.45
379.101	-3.41
379.311	-35.74
379.521	-61.36
379.732	-66.61
379.942	-56.3
380.152	-64.06
380.362	-29.82
380.572	-17.13
380.783	-2.41
380.993	8.51
381.203	22.34
381.413	37.68
381.623	40.9
381.833	44.5
382.043	29.12
382.253	22.11
382.463	10.52
382.674	2.8
382.884	-24.34
383.094	-21.73
383.304	-15.43
383.514	-5.88
383.724	1.79
383.934	1.22
384.144	-7.47
384.353	-12.39
384.563	-17.11
384.773	-9.71
384.983	-18.15
385.193	0.07
385.403	2.3
385.613	1.13
385.823	-8.02
386.033	3.76
386.242	-2.33
386.452	-5.84
386.662	-9.1
386.872	3.54
387.082	1.64
387.291	-5.36
387.501	5.39
387.711	5.33
387.921	-2.97
388.13	-1.2
388.34	11.08
388.55	0.66
388.759	2.25
388.969	7.99
389.179	5.93
389.388	2.22
389.598	9.61
389.807	4.24
390.017	-1.5
390.227	1.53
390.436	-0
390.646	1.3
390.855	5.31
391.065	7.09
391.274	1.54
391.484	0.82
391.693	-0.2
391.903	-1.33
392.112	2.89
392.322	6.73
392.531	10.51
392.74	11.32
392.95	9.87
393.159	8.14
393.369	8.03
393.578	6.78
393.787	6.55
393.997	8.88
394.206	7.66
394.415	9.26
394.625	9.65
394.834	8.19
395.043	8.39
395.252	10.63
395.462	11.16
395.671	12.85
395.88	13.61
396.089	13.58
396.298	12.11
396.508	12.09
396.717	10.77
396.926	11.37
397.135	11.17
397.344	11.09
397.553	11.41
397.762	12.86
397.971	12.91
398.181	12.94
398.39	13.21
398.599	12.83
398.808	12.34
399.017	13.12
399.226	14.42
399.435	15.51
399.644	15.83
399.853	15.59
400.062	15.02
400.27	14.45
400.479	13.96
400.688	13.21
400.897	12.89
401.106	13.05
401.315	12.82
401.524	12.98
401.733	13.34
401.941	13.91
402.15	13.77
402.359	13.77
402.568	13.7
402.777	13.82
402.985	13.59
403.194	13.59
403.403	13.68
403.612	13.49
403.82	13.28
404.029	13.33
404.238	13.16
404.446	13.39
404.655	12.98
404.864	13.05
405.072	12.85
405.281	12.88
405.489	12.4
405.698	12.58
405.906	12.63
406.115	12.61
406.324	12.54
406.532	12.75
406.741	12.9
406.949	12.83
407.158	12.9
407.366	12.88
407.574	12.79
407.783	12.74
407.991	12.45
408.2	12.48
408.408	12.53
408.617	12.42
408.825	12.37
409.033	12.56
409.242	12.64
409.45	12.56
409.658	12.42
409.867	12.29
410.075	12.19
410.283	11.91
410.491	11.81
410.7	11.81
410.908	11.85
411.116	12.09
411.324	12.02
411.533	12.01
411.741	12.24
411.949	12.23
412.157	11.87
412.365	11.89
412.573	11.82
412.781	11.67
412.99	11.6
413.198	11.77
413.406	11.74
413.614	11.8
413.822	11.67
414.03	11.53
414.238	11.29
414.446	11.32
414.654	11.1
414.862	11.21
415.07	11.41
415.278	11.54
415.486	11.34
415.694	11.54
415.902	11.33
416.109	11.13
416.317	11.12
416.525	11.05
416.733	10.96
416.941	11.06
417.149	11.04
417.357	11.11
417.564	11.31
417.772	11.62
417.98	11.61
418.188	11.47
418.395	11.35
418.603	11.39
418.811	10.86
419.019	10.82
419.226	10.96
419.434	11
419.642	10.77
419.849	10.95
420.057	10.9
420.265	10.83
420.472	10.64
420.68	10.58
420.887	10.51
421.095	10.53
421.302	10.58
421.51	10.67
421.717	10.83
421.925	10.81
422.132	10.71
422.34	10.36
422.547	10.31
422.755	10.25
422.962	10.15
423.17	9.97
423.377	10.33
423.585	10.2
423.792	10.11
423.999	10.2
424.207	10.34
424.414	10.26
424.621	10.27
424.829	10.2
425.036	10.08
425.243	10.18
425.451	9.99
425.658	9.98
425.865	10.14
426.072	10.22
426.28	10.35
426.487	10.46
426.694	10.59
426.901	10.47
427.108	10.41
427.315	10.22
427.523	10.43
427.73	10.41
427.937	10.33
428.144	10.3
428.351	10.14
428.558	10.1
428.765	10.02
428.972	9.99
429.179	10.11
429.386	10.49
429.593	10.31
429.8	10.25
430.007	10.48
430.214	10.46
430.421	10.35
430.628	10.2
430.835	10.24
431.042	10.4
431.249	10.58
431.456	10.56
431.662	10.83
431.869	10.94
432.076	10.83
432.283	10.82
432.49	10.82
432.697	10.91
432.903	10.72
433.11	10.64
433.317	10.77
433.524	11.04
433.73	11.01
433.937	11.3
434.144	11.33
434.35	11.21
434.557	10.95
434.764	10.95
434.97	10.91
435.177	11.18
435.384	11.22
435.59	11.32
435.797	11.49
436.003	11.55
436.21	11.47
436.416	11.51
436.623	11.56
436.829	11.52
437.036	11.67
437.242	11.77
437.449	11.81
437.655	11.91
437.862	11.99
438.068	11.95
438.275	12.08
438.481	12.22
438.687	12.17
438.894	12.19
439.1	12.19
439.307	12.17
439.513	11.98
439.719	12.05
439.926	12.17
440.132	12.18
440.338	12.04
440.544	12.23
440.751	12.17
440.957	12.09
441.163	12.01
441.369	12.18
441.575	12
441.782	12.02
441.988	11.99
442.194	12.08
442.4	12.07
442.606	12.34
442.812	12.37
443.018	12.43
443.224	12.46
443.431	12.57
443.637	12.48
443.843	12.5
444.049	12.59
444.255	12.61
444.461	12.63
444.667	12.55
444.873	12.75
445.079	12.77
445.284	12.81
445.49	12.61
445.696	12.63
445.902	12.53
446.108	12.46
446.314	12.44
446.52	12.59
446.726	12.87
446.931	12.91
447.137	12.92
447.343	12.98
447.549	12.86
447.755	12.72
447.96	12.84
448.166	12.82
448.372	12.82
448.578	12.99
448.783	13.02
448.989	13.03
449.195	13.24
449.4	13.27
449.606	13.23
449.812	13.04
450.017	12.96
450.223	12.76
450.428	12.68
450.634	12.75
450.84	12.97
451.045	12.95
451.251	12.95
451.456	13.15
451.662	13.23
451.867	13.26
452.073	13.26
452.278	13.36
452.483	13.46
452.689	13.37
452.894	13.42
453.1	13.46
453.305	13.45
453.51	13.37
453.716	13.44
453.921	13.43
454.127	13.3
454.332	13.17
454.537	13.14
454.742	13.03
454.948	12.93
455.153	13.18
455.358	13.35
455.563	13.42
455.769	13.53
455.974	13.62
456.179	13.37
456.384	13.38
456.589	13.36
456.795	13.26
457	13.21
457.205	13.44
457.41	13.36
457.615	13.36
457.82	13.41
458.025	13.45
458.23	13.42
458.435	13.49
458.64	13.35
458.845	13.47
459.05	13.43
459.255	13.37
459.46	13.39
459.665	13.38
