Data from Ofra_PS_T2_2A_8HS24_Reflection_2.txt Node
Date: Wed Jul 21 17:21:57 EDT 2021
User: Adam
Spectrometer: FLMT01687
Trigger mode: 0
Integration Time (sec): 1.100000E0
Scans to average: 2
Electric dark correction enabled: true
Nonlinearity correction enabled: false
Boxcar width: 2
XAxis mode: Wavelengths
Number of Pixels in Spectrum: 3648
>>>>>Begin Spectral Data<<<<<
179.494	568.4
179.716	654.59
179.937	665.42
180.158	710.37
180.38	1189.06
180.601	540.61
180.823	133.63
181.044	-122.04
181.265	-59.19
181.486	-13.54
181.708	70.09
181.929	839.8
182.15	-528.87
182.372	106.25
182.593	-9.58
182.814	17.47
183.035	100.09
183.257	60.01
183.478	-25.64
183.699	47.66
183.92	20.39
184.141	-0.06
184.363	-42.61
184.584	40.98
184.805	9.8
185.026	45.2
185.247	42.16
185.468	31.57
185.689	20.59
185.91	24.3
186.132	32.22
186.353	33.04
186.574	110.61
186.795	89.96
187.016	64.3
187.237	25.75
187.458	1.56
187.679	-37.34
187.9	-43.87
188.121	-22.57
188.342	-19.53
188.563	40.43
188.784	71.92
189.005	57.26
189.226	85.22
189.447	61.26
189.667	-154.61
189.888	-316.5
190.109	-865.58
190.33	-526.77
190.551	-908.41
190.772	-210.05
190.993	-244.27
191.214	-239.85
191.434	-134.98
191.655	-37.24
191.876	-38.99
192.097	-67.74
192.318	-107.07
192.538	-238.56
192.759	-198.96
192.98	-107.13
193.201	-36.63
193.421	-33
193.642	0.31
193.863	27.72
194.083	8.75
194.304	-2.17
194.525	29.66
194.745	54.88
194.966	-10.87
195.187	-26.37
195.407	-27.63
195.628	-107.75
195.848	-110.27
196.069	-65.7
196.29	4.76
196.51	-40.1
196.731	-28.01
196.951	-35.87
197.172	-59.84
197.392	-121.38
197.613	-102.08
197.833	-111.92
198.054	-104.01
198.274	-60.38
198.495	-65.7
198.715	-37.82
198.936	-43.61
199.156	-34.48
199.377	-125.98
199.597	-119.51
199.817	-137.11
200.038	-59.93
200.258	-103.77
200.479	-11.73
200.699	13.16
200.919	81.89
201.14	17.61
201.36	-5.24
201.58	24.88
201.801	46.59
202.021	15.73
202.241	11.8
202.461	22.33
202.682	-63.25
202.902	-126.13
203.122	-79.76
203.342	-49.35
203.563	-8.81
203.783	15.99
204.003	-15.17
204.223	-33
204.443	17.1
204.663	-25.49
204.884	6.61
205.104	57.19
205.324	97.21
205.544	106.71
205.764	99.15
205.984	81.46
206.204	65.39
206.424	43.8
206.644	13.07
206.864	23.2
207.084	-6.31
207.304	28.96
207.525	4.53
207.745	-50.19
207.964	-20.09
208.184	-51.82
208.404	-92.56
208.624	-93.96
208.844	-79.12
209.064	-385.83
209.284	-438.47
209.504	-237.62
209.724	-41.98
209.944	-4.6
210.164	41.4
210.384	53.94
210.604	60.35
210.823	-14.16
211.043	-60.09
211.263	-54.62
211.483	-56.36
211.703	-120.66
211.922	-60.27
212.142	10.9
212.362	39.45
212.582	23.52
212.801	18.72
213.021	-28.05
213.241	-39.01
213.461	-94.65
213.68	-104.42
213.9	-55.01
214.12	-30.4
214.339	-85.68
214.559	-49.68
214.779	-19.38
214.998	-27.41
215.218	-55.3
215.438	-40.43
215.657	-37.75
215.877	-45.34
216.096	-10.18
216.316	-2.41
216.535	-5.9
216.755	-18.46
216.974	-65.38
217.194	-119.02
217.413	-116.82
217.633	-86.77
217.852	-139.44
218.072	-65.29
218.291	-27.33
218.511	-3.56
218.73	-38.92
218.95	-28.66
219.169	-23.96
219.389	-65.25
219.608	-38.01
219.827	-26.13
220.047	-21.23
220.266	-3.53
220.485	16.55
220.705	19.67
220.924	-6.42
221.143	28.54
221.363	-8.21
221.582	-12.11
221.801	-11.53
222.021	12.92
222.24	-83.45
222.459	-9.9
222.678	-17.36
222.897	-84.1
223.117	-135.52
223.336	-60.36
223.555	-56.04
223.774	-19.3
223.993	24.97
224.213	101.69
224.432	54.85
224.651	91.99
224.87	58.21
225.089	51.38
225.308	30.81
225.527	44.43
225.746	33.02
225.965	37.23
226.184	16.39
226.404	19.27
226.623	3.79
226.842	9.94
227.061	24.13
227.28	31.05
227.499	26.16
227.718	38.34
227.936	10.67
228.155	26.54
228.374	11.54
228.593	14.02
228.812	9.56
229.031	12.71
229.25	-38.22
229.469	-51.03
229.688	-12.07
229.907	4.07
230.125	41.47
230.344	32.78
230.563	43.79
230.782	39
231.001	-31.93
231.22	-41.8
231.438	-7.38
231.657	1.47
231.876	-13.75
232.095	51.35
232.313	51.8
232.532	67.8
232.751	39.62
232.969	6.8
233.188	-58.68
233.407	-2.5
233.625	-12.26
233.844	-24.87
234.063	-5.28
234.281	18.08
234.5	21.55
234.719	40.26
234.937	49.22
235.156	63.94
235.374	56.34
235.593	34.21
235.811	8.64
236.03	-2.8
236.249	-45.91
236.467	-43.57
236.686	-16.34
236.904	7.68
237.123	-13.78
237.341	-17.02
237.559	-12.85
237.778	-24.55
237.996	-83.73
238.215	-4.04
238.433	20.28
238.652	17.31
238.87	-1.01
239.088	18.28
239.307	13.94
239.525	3.89
239.743	-16.53
239.962	2.8
240.18	0.2
240.398	-54.59
240.617	-52.15
240.835	-42.36
241.053	-24.93
241.271	0.55
241.49	29.12
241.708	2.12
241.926	35.37
242.144	5.08
242.363	-39.91
242.581	-57.71
242.799	-37.11
243.017	-17.88
243.235	-22.93
243.453	-6.5
243.672	-15.15
243.89	-12.53
244.108	-22.3
244.326	10.3
244.544	12.77
244.762	15.62
244.98	30.76
245.198	17.82
245.416	-15.55
245.634	-26.3
245.852	-19.96
246.07	-53.08
246.288	-43.83
246.506	-67
246.724	-40.86
246.942	-28.95
247.16	22.05
247.378	37.1
247.596	47.92
247.814	44.93
248.032	6.01
248.25	3.34
248.468	11.83
248.685	22.95
248.903	45.6
249.121	52.99
249.339	24.42
249.557	-2.43
249.775	1.69
249.992	-70.28
250.21	-58.19
250.428	-38.15
250.646	-53.66
250.863	-59.06
251.081	-26.54
251.299	-17.03
251.517	-9.04
251.734	-0.95
251.952	-16.68
252.17	-6.53
252.387	4.64
252.605	-5.77
252.823	0.85
253.04	12.11
253.258	36.25
253.475	25.54
253.693	52.03
253.911	46
254.128	47.61
254.346	30.4
254.563	14.66
254.781	-9.21
254.998	-33.08
255.216	-12.1
255.433	-0.04
255.651	30.15
255.868	58.17
256.086	95.43
256.303	64.61
256.521	31.44
256.738	18.67
256.956	-18.34
257.173	-48.85
257.39	-56.97
257.608	-62.37
257.825	15.88
258.043	50.6
258.26	36.9
258.477	71.44
258.695	68.63
258.912	-12.49
259.129	-1.29
259.346	-20.09
259.564	-68.14
259.781	-96.11
259.998	-20.8
260.216	10.06
260.433	37.72
260.65	46.08
260.867	71.94
261.084	61.37
261.302	42.95
261.519	34.11
261.736	-7.79
261.953	-27.44
262.17	-18.45
262.387	-67.84
262.604	-60.3
262.822	-56.96
263.039	-39.25
263.256	-97.64
263.473	-46.18
263.69	-37.79
263.907	8.47
264.124	12.23
264.341	33.98
264.558	14.59
264.775	26.99
264.992	11.15
265.209	16.54
265.426	41.39
265.643	56.55
265.86	64.32
266.077	68.74
266.294	67.72
266.51	3.34
266.727	-12.61
266.944	-19.58
267.161	-18.64
267.378	-33.17
267.595	4.78
267.812	-25.74
268.028	-42.01
268.245	-45.56
268.462	-49.14
268.679	-66.11
268.896	-3.49
269.112	-5.18
269.329	-11.01
269.546	-5.29
269.763	2.47
269.979	-9.45
270.196	7.81
270.413	9.23
270.629	-11.44
270.846	-34.89
271.063	-22.39
271.279	-57.96
271.496	-52.42
271.712	-12.08
271.929	13.94
272.146	-16.28
272.362	-6.05
272.579	21.92
272.795	41.53
273.012	56.71
273.228	61.77
273.445	56
273.661	41.27
273.878	-25.76
274.094	-49.73
274.311	-64.58
274.527	-0.03
274.744	7.39
274.96	9.12
275.177	20.94
275.393	29.7
275.609	27.17
275.826	35.23
276.042	46.74
276.259	20.57
276.475	39.29
276.691	29.61
276.908	1.85
277.124	12.31
277.34	24.21
277.557	8.93
277.773	3.13
277.989	3.85
278.205	-3.65
278.422	12.22
278.638	13.35
278.854	30.47
279.07	34.69
279.286	25.71
279.503	-0.25
279.719	-20.96
279.935	-49.96
280.151	-44.33
280.367	-21.81
280.583	-39.83
280.799	-27.32
281.016	-58.96
281.232	-33.59
281.448	-36.27
281.664	-10.86
281.88	-37.3
282.096	8.77
282.312	48.98
282.528	67.75
282.744	85.08
282.96	76.32
283.176	49.92
283.392	30.38
283.608	14.81
283.824	14.09
284.04	19.93
284.256	26.16
284.471	2.63
284.687	-11.15
284.903	-6.85
285.119	19.7
285.335	7
285.551	25.67
285.767	31.95
285.982	19.62
286.198	-26.83
286.414	7.24
286.63	1.14
286.846	23.79
287.061	-6.78
287.277	28.19
287.493	1.56
287.709	20.97
287.924	-1.2
288.14	45.99
288.356	49.56
288.571	71.89
288.787	44.87
289.003	44.81
289.218	18.62
289.434	-27.79
289.65	-36.04
289.865	-37.53
290.081	-25.23
290.296	-9.06
290.512	24.53
290.727	-7.64
290.943	-16.96
291.159	-18.44
291.374	-16.57
291.59	-46.58
291.805	-19.58
292.021	-9.34
292.236	-14.64
292.451	-4.07
292.667	4.37
292.882	0.93
293.098	8.79
293.313	-9.56
293.529	-36.2
293.744	-34.81
293.959	-36.66
294.175	-33.48
294.39	6.89
294.605	20.39
294.821	40.11
295.036	46.58
295.251	54.69
295.467	35.64
295.682	27.44
295.897	-18.93
296.112	-37.73
296.328	-40.81
296.543	-68.9
296.758	-45.27
296.973	-17.82
297.188	28.08
297.404	7.64
297.619	-0.23
297.834	-33.8
298.049	-45.16
298.264	-81.91
298.479	-26.35
298.694	-15.94
298.909	9.62
299.125	19.44
299.34	25.26
299.555	1.02
299.77	0.16
299.985	-36.95
300.2	-84.28
300.415	-96.37
300.63	-65.67
300.845	-56.45
301.06	-47.92
301.275	-27.87
301.49	-13.82
301.704	-16.08
301.919	-29.03
302.134	-33.74
302.349	-23.45
302.564	-86.4
302.779	-101.28
302.994	-95.06
303.209	-58.44
303.423	-27.33
303.638	45.61
303.853	5.56
304.068	-0.59
304.283	5.6
304.497	-11.53
304.712	-28.35
304.927	-10.22
305.142	-19.29
305.356	-17.68
305.571	4.83
305.786	-7.84
306	-26.02
306.215	-8.47
306.43	-24.18
306.644	-48.62
306.859	-4.66
307.074	9.6
307.288	-16.79
307.503	-24.81
307.717	-43.32
307.932	-61.24
308.147	-72.05
308.361	-46.45
308.576	-53.69
308.79	-86.76
309.005	-54.15
309.219	-18.19
309.434	-24.85
309.648	-15.85
309.863	19.32
310.077	14.24
310.292	-10.49
310.506	-8.15
310.72	0.56
310.935	6.4
311.149	0.85
311.364	25.25
311.578	30.29
311.792	13.86
312.007	16.83
312.221	6.25
312.435	4
312.649	-2.61
312.864	33.54
313.078	36.33
313.292	91.25
313.507	59.5
313.721	76.46
313.935	36.37
314.149	20.67
314.363	7.03
314.578	5.78
314.792	15.4
315.006	-4.05
315.22	17.01
315.434	21.15
315.648	29.63
315.862	8.24
316.077	20.11
316.291	-8.82
316.505	6.26
316.719	-4.6
316.933	-13.63
317.147	-17.72
317.361	-60.04
317.575	-71.71
317.789	-101.54
318.003	-121.97
318.217	-95.86
318.431	-12.39
318.645	20.72
318.859	18.38
319.073	36.45
319.287	18.51
319.5	-14.39
319.714	-56.35
319.928	-80.97
320.142	-99.14
320.356	-60.36
320.57	-9.14
320.784	-26.48
320.997	-12.66
321.211	-24.09
321.425	-53.07
321.639	-99.34
321.853	-39.94
322.066	-20.5
322.28	-20.2
322.494	-10.34
322.707	28.61
322.921	18.66
323.135	8.94
323.349	35.19
323.562	20.75
323.776	-11.31
323.989	-15.05
324.203	-28.17
324.417	-54.03
324.63	-80.88
324.844	-70.28
325.057	-64.31
325.271	-37.65
325.485	-1.6
325.698	28.8
325.912	45.58
326.125	26.58
326.339	27.98
326.552	3.14
326.766	7.2
326.979	18.74
327.193	53.5
327.406	34.42
327.619	25.9
327.833	27.57
328.046	2.75
328.26	-48.3
328.473	-21.89
328.686	-39.94
328.9	-26.17
329.113	-10.44
329.326	-21.9
329.54	-0.73
329.753	-2.72
329.966	-44.44
330.179	-20.72
330.393	-6.27
330.606	-5.91
330.819	24.48
331.032	45.03
331.246	36.11
331.459	65.14
331.672	53.47
331.885	26.97
332.098	-2.76
332.311	4.72
332.525	-62.33
332.738	-48.44
332.951	-19.44
333.164	27.18
333.377	14.74
333.59	45.67
333.803	43.79
334.016	43.07
334.229	16.3
334.442	19.2
334.655	21.56
334.868	14.97
335.081	5.49
335.294	-4.57
335.507	-16.84
335.72	-35.47
335.933	-38.62
336.146	-40.36
336.359	-14.04
336.572	-34.61
336.785	-53.21
336.997	-36.22
337.21	-11.17
337.423	-35.76
337.636	-23.24
337.849	5.48
338.062	-3.81
338.274	3.12
338.487	-4.91
338.7	-11.31
338.913	-54.22
339.125	-75.52
339.338	-153.24
339.551	-88.83
339.763	-28.43
339.976	-0.04
340.189	27.73
340.402	33.58
340.614	0.14
340.827	-20.17
341.039	-31.69
341.252	-23.64
341.465	-3.48
341.677	5.66
341.89	-16.82
342.102	1.19
342.315	-20.04
342.527	-67.78
342.74	-50.48
342.952	-16.12
343.165	-12.37
343.377	4.94
343.59	17.26
343.802	19.74
344.015	14.52
344.227	30.68
344.44	23.85
344.652	21.97
344.864	9.63
345.077	30.42
345.289	21.39
345.502	26.44
345.714	16.99
345.926	31.42
346.139	18.1
346.351	26.41
346.563	32.41
346.775	55
346.988	43.7
347.2	32.38
347.412	-13.47
347.624	-43.62
347.837	-81.63
348.049	-59.71
348.261	-10.29
348.473	0.9
348.685	9.61
348.897	12.89
349.11	-19.22
349.322	-67.37
349.534	-31.48
349.746	-30.04
349.958	-37.18
350.17	-40.25
350.382	-0.72
350.594	-17.37
350.806	-10.4
351.018	-2.42
351.23	0.17
351.442	-41.58
351.654	-46.05
351.866	-48.32
352.078	-38.4
352.29	-15.72
352.502	8.95
352.714	20.86
352.926	20.26
353.138	15.27
353.35	7.89
353.561	4.47
353.773	-18.97
353.985	-10.41
354.197	-12.68
354.409	-11.64
354.621	-14.01
354.832	-1.62
355.044	-2.8
355.256	0.67
355.468	11.64
355.679	2.76
355.891	6.49
356.103	-6.64
356.314	-11.68
356.526	-10.18
356.738	16.59
356.949	11.69
357.161	9.57
357.373	22.21
357.584	10.62
357.796	-0.85
358.008	-1.09
358.219	15.53
358.431	12.65
358.642	16.54
358.854	24.64
359.065	17.07
359.277	-7.7
359.488	-28.52
359.7	-59.23
359.911	-93.12
360.123	-62.27
360.334	-78.34
360.546	-101.32
360.757	-83.35
360.969	-53.2
361.18	-41.47
361.391	-13.53
361.603	-11.35
361.814	-7.74
362.025	-16.16
362.237	-22.53
362.448	-2.77
362.659	23.55
362.871	24.82
363.082	18.5
363.293	26.12
363.504	12.16
363.716	-10.92
363.927	-19.19
364.138	-36.17
364.349	-63.3
364.56	-64.98
364.772	-55.33
364.983	-28.89
365.194	-18.52
365.405	3.46
365.616	30.73
365.827	35.89
366.038	9.21
366.25	6.48
366.461	-35.36
366.672	-39.64
366.883	-11.56
367.094	9.31
367.305	-0.26
367.516	10.52
367.727	-13.71
367.938	-41.32
368.149	-44.67
368.36	-27.78
368.571	-21.98
368.781	-28.4
368.992	-30.04
369.203	-55.83
369.414	-80.46
369.625	-83.41
369.836	-66.79
370.047	-94.86
370.258	-77.39
370.468	-68.36
370.679	-78.17
370.89	-82.07
371.101	-49.16
371.312	-43.75
371.522	-26.63
371.733	-35.24
371.944	-26
372.155	-15.76
372.365	-20.21
372.576	-29.34
372.787	-24.59
372.997	-29.72
373.208	-44.1
373.419	-11.01
373.629	-47.93
373.84	-41.07
374.05	-63.11
374.261	-49.89
374.472	-75.29
374.682	-9.97
374.893	-5.53
375.103	43.45
375.314	29.91
375.524	24.09
375.735	24.01
375.945	18.01
376.156	-21.58
376.366	-20.3
376.577	-9.5
376.787	-18.26
376.997	1.11
377.208	7.95
377.418	7.78
377.629	17.01
377.839	7.55
378.049	-3.72
378.26	12.31
378.47	14.78
378.68	-1.95
378.89	-3.38
379.101	-1.96
379.311	-35.14
379.521	-62.95
379.732	-54
379.942	-50.54
380.152	-73.38
380.362	-31.33
380.572	-20.92
380.783	-9.2
380.993	5.51
381.203	23.82
381.413	28.03
381.623	40
381.833	32.84
382.043	13.66
382.253	-4.5
382.463	-8.33
382.674	-22.11
382.884	-40.29
383.094	-32.11
383.304	-16.76
383.514	-10.46
383.724	-0.7
383.934	-3.95
384.144	-9.32
384.353	-18.22
384.563	-16.85
384.773	-14.97
384.983	-20.4
385.193	-1.08
385.403	-2.86
385.613	-10.26
385.823	-17.61
386.033	-8.13
386.242	-19.17
386.452	-14.51
386.662	-23.22
386.872	-11.28
387.082	-12.45
387.291	-17.03
387.501	-19.91
387.711	-5.5
387.921	-12.56
388.13	-11.14
388.34	0.39
388.55	-2.56
388.759	-4.26
388.969	2.72
389.179	-0.16
389.388	-2.84
389.598	3.68
389.807	-6.08
390.017	-11.31
390.227	-8.16
390.436	-12.51
390.646	-12.62
390.855	-8.51
391.065	-6.99
391.274	-6.21
391.484	-4.29
391.693	-1.85
391.903	-1.2
392.112	3.23
392.322	4.03
392.531	7.83
392.74	7
392.95	2.82
393.159	0.63
393.369	0.49
393.578	-1.86
393.787	-1.89
393.997	1.32
394.206	-0.77
394.415	-2.6
394.625	-2.03
394.834	-4.57
395.043	-3.78
395.252	-0.93
395.462	1.9
395.671	2.88
395.88	3.96
396.089	4.53
396.298	1.86
396.508	0.78
396.717	-0.1
396.926	0.48
397.135	-0.11
397.344	0.34
397.553	1.5
397.762	3
397.971	2.53
398.181	2.71
398.39	2.26
398.599	1.46
398.808	0.87
399.017	1.89
399.226	3.18
399.435	4.31
399.644	4.48
399.853	3.16
400.062	2.64
400.27	1.88
400.479	1.66
400.688	0.88
400.897	1.97
401.106	1.87
401.315	1.9
401.524	1.94
401.733	2.46
401.941	2.52
402.15	2.83
402.359	2.62
402.568	3.03
402.777	3.29
402.985	3.1
403.194	2.91
403.403	3.2
403.612	2.59
403.82	2.35
404.029	2.59
404.238	2.48
404.446	2.56
404.655	2.55
404.864	2.53
405.072	2.23
405.281	2.34
405.489	2.03
405.698	2.07
405.906	2.19
406.115	2.26
406.324	2.18
406.532	2.34
406.741	2.67
406.949	2.59
407.158	2.55
407.366	2.71
407.574	2.65
407.783	2.6
407.991	2.45
408.2	2.75
408.408	2.75
408.617	2.63
408.825	2.44
409.033	2.71
409.242	2.61
409.45	2.62
409.658	2.64
409.867	2.76
410.075	2.51
410.283	2.36
410.491	2.16
410.7	2.05
410.908	2
411.116	2.44
411.324	2.48
411.533	2.47
411.741	2.84
411.949	2.91
412.157	2.49
412.365	2.39
412.573	2.45
412.781	2.43
412.99	2.16
413.198	2.34
413.406	2.44
413.614	2.53
413.822	2.28
414.03	2.36
414.238	2.16
414.446	2.2
414.654	1.94
414.862	2.05
415.07	2.2
415.278	2.4
415.486	2.14
415.694	2.34
415.902	2.13
416.109	1.91
416.317	1.75
416.525	1.75
416.733	1.7
416.941	1.88
417.149	1.97
417.357	2.09
417.564	2.25
417.772	2.51
417.98	2.51
418.188	2.46
418.395	2.52
418.603	2.68
418.811	2.26
419.019	2.19
419.226	2.45
419.434	2.49
419.642	2.13
419.849	2.32
420.057	2.41
420.265	2.27
420.472	1.95
420.68	2.11
420.887	2
421.095	1.99
421.302	1.82
421.51	2.11
421.717	2.22
421.925	2.3
422.132	2.17
422.34	2.05
422.547	2.03
422.755	1.78
422.962	1.7
423.17	1.69
423.377	1.91
423.585	1.8
423.792	1.82
423.999	1.81
424.207	1.78
424.414	1.8
424.621	1.86
424.829	2
425.036	2
425.243	2.15
425.451	2.04
425.658	1.85
425.865	2.02
426.072	2.08
426.28	2.36
426.487	2.32
426.694	2.42
426.901	2.04
427.108	2.02
427.315	1.73
427.523	2.01
427.73	1.92
427.937	2.06
428.144	1.81
428.351	1.72
428.558	1.78
428.765	1.75
428.972	1.68
429.179	1.99
429.386	2.39
429.593	2.05
429.8	1.97
430.007	2.13
430.214	2.18
430.421	1.86
430.628	1.74
430.835	1.7
431.042	1.82
431.249	1.79
431.456	1.76
431.662	1.93
431.869	2.06
432.076	1.98
432.283	2.1
432.49	2.06
432.697	2.21
432.903	2.1
433.11	2.02
433.317	1.99
433.524	2.23
433.73	2.1
433.937	2.38
434.144	2.26
434.35	2.16
434.557	1.98
434.764	1.98
434.97	1.84
435.177	2.04
435.384	2.06
435.59	2.14
435.797	2.31
436.003	2.41
436.21	2.39
436.416	2.51
436.623	2.5
436.829	2.62
437.036	2.7
437.242	2.69
437.449	2.53
437.655	2.57
437.862	2.42
438.068	2.25
438.275	2.32
438.481	2.61
438.687	2.54
438.894	2.52
439.1	2.59
439.307	2.76
439.513	2.55
439.719	2.56
439.926	2.66
440.132	2.68
440.338	2.49
440.544	2.68
440.751	2.62
440.957	2.69
441.163	2.54
441.369	2.69
441.575	2.39
441.782	2.43
441.988	2.19
442.194	2.28
442.4	2.21
442.606	2.57
442.812	2.66
443.018	2.9
443.224	2.93
443.431	2.99
443.637	2.7
443.843	2.59
444.049	2.52
444.255	2.43
444.461	2.41
444.667	2.42
444.873	2.54
445.079	2.55
445.284	2.61
445.49	2.42
445.696	2.28
445.902	2.14
446.108	2.07
446.314	2.07
446.52	2.12
446.726	2.4
446.931	2.47
447.137	2.58
447.343	2.62
447.549	2.58
447.755	2.49
447.96	2.53
448.166	2.4
448.372	2.34
448.578	2.38
448.783	2.39
448.989	2.47
449.195	2.61
449.4	2.65
449.606	2.64
449.812	2.52
450.017	2.52
450.223	2.42
450.428	2.4
450.634	2.58
450.84	2.77
451.045	2.69
451.251	2.64
451.456	2.95
451.662	2.96
451.867	2.98
452.073	2.99
452.278	3.15
452.483	3.02
452.689	2.89
452.894	2.88
453.1	2.86
453.305	2.75
453.51	2.74
453.716	2.69
453.921	2.71
454.127	2.68
454.332	2.66
454.537	2.53
454.742	2.59
454.948	2.55
455.153	2.64
455.358	2.75
455.563	3.02
455.769	3.12
455.974	3.08
456.179	2.97
456.384	2.96
456.589	2.75
456.795	2.54
457	2.53
457.205	2.73
457.41	2.69
457.615	2.63
457.82	2.74
458.025	2.75
458.23	2.6
458.435	2.59
458.64	2.57
458.845	2.73
459.05	2.74
459.255	2.71
459.46	2.73
459.665	2.78
459.87	2.73
460.075	2.71
460.28	2.77
460.485	2.85
460.69	2.96
460.895	2.72
461.099	2.66
461.304	2.78
461.509	2.76
461.714	2.64
461.919	2.92
462.123	2.87
