Data from Ofra_1a_PS_6GT17_Reflection_2.txt Node
Date: Tue Jul 20 11:00:23 EDT 2021
User: Adam
Spectrometer: FLMT01687
Trigger mode: 0
Integration Time (sec): 1.004000E0
Scans to average: 2
Electric dark correction enabled: true
Nonlinearity correction enabled: false
Boxcar width: 2
XAxis mode: Wavelengths
Number of Pixels in Spectrum: 3648
>>>>>Begin Spectral Data<<<<<
179.494	-336.04
179.716	-436.64
179.937	1135.12
180.158	-1443.31
180.38	223.87
180.601	157.67
180.823	155.87
181.044	69.45
181.265	39.62
181.486	118.6
181.708	135.41
181.929	-11363.64
182.15	78.14
182.372	265.02
182.593	83.01
182.814	-148.39
183.035	-42.9
183.257	19.13
183.478	3.64
183.699	-17.89
183.92	-50.27
184.141	-67.06
184.363	-77.54
184.584	-114.08
184.805	-65.44
185.026	-9.53
185.247	-32.36
185.468	-56.97
185.689	-27.47
185.91	-85.77
186.132	-80.22
186.353	-51.35
186.574	-42.81
186.795	-38.64
187.016	3.54
187.237	-1.37
187.458	12.65
187.679	2.9
187.9	20.93
188.121	22.5
188.342	25.4
188.563	55.02
188.784	66.26
189.005	51.65
189.226	38.48
189.447	7.2
189.667	-19.93
189.888	-41.18
190.109	-67.47
190.33	-64.89
190.551	-52.03
190.772	-36.48
190.993	-64.33
191.214	-101.33
191.434	-128.43
191.655	-102.39
191.876	-42.22
192.097	4.42
192.318	45.31
192.538	21.47
192.759	7.71
192.98	8.72
193.201	9.01
193.421	-1.77
193.642	18.07
193.863	21.4
194.083	9.89
194.304	-1.85
194.525	-25.02
194.745	-40.09
194.966	-32.45
195.187	-31.21
195.407	-48.49
195.628	-16.25
195.848	-25.56
196.069	-38.83
196.29	-31.23
196.51	-37.57
196.731	-52.44
196.951	-63.3
197.172	-44.28
197.392	-71.08
197.613	-34.99
197.833	-53.51
198.054	-75.48
198.274	-65.53
198.495	-63.79
198.715	-74.75
198.936	-49.2
199.156	-13.23
199.377	-26.5
199.597	-7.52
199.817	5.48
200.038	-27.95
200.258	-2.81
200.479	1.02
200.699	-19.85
200.919	-60.65
201.14	-33.51
201.36	-47.38
201.58	-74.43
201.801	-59.18
202.021	-51.54
202.241	-31.25
202.461	-34.91
202.682	-9.28
202.902	-20.72
203.122	-11.07
203.342	-24.16
203.563	-37.21
203.783	-52.42
204.003	-48.9
204.223	-34.67
204.443	-21.25
204.663	-37.56
204.884	-11.24
205.104	1.03
205.324	22.7
205.544	-40.92
205.764	6.99
205.984	1.07
206.204	4.92
206.424	-21.8
206.644	-19.89
206.864	-55.56
207.084	-27.27
207.304	-57.32
207.525	-61.17
207.745	-23.84
207.964	-16.49
208.184	-41.81
208.404	-11.79
208.624	24.84
208.844	0.24
209.064	5.31
209.284	-8.11
209.504	-30.71
209.724	-54.71
209.944	-46.86
210.164	-56.72
210.384	-33.72
210.604	-65.93
210.823	-89.05
211.043	-69.33
211.263	-131.52
211.483	-128.58
211.703	-75.64
211.922	-95.58
212.142	-74.37
212.362	-42.84
212.582	-24.76
212.801	-18.15
213.021	-2.11
213.241	-21.88
213.461	-16.55
213.68	-7.97
213.9	-28.73
214.12	-37.14
214.339	-40.27
214.559	-35.84
214.779	-53.66
214.998	-34.95
215.218	-18.3
215.438	-2.38
215.657	-6.64
215.877	-18.48
216.096	7.25
216.316	1.22
216.535	-6.06
216.755	-11.28
216.974	-17.28
217.194	-66.22
217.413	-58.74
217.633	-54.74
217.852	-50.43
218.072	-45.37
218.291	-45.92
218.511	-46.88
218.73	-68.33
218.95	-103.36
219.169	-82.32
219.389	-42.45
219.608	-58.06
219.827	-45.56
220.047	-31.28
220.266	-59.52
220.485	-78.15
220.705	-59.39
220.924	-94.68
221.143	-17.61
221.363	-6.75
221.582	-2.24
221.801	-1.89
222.021	8.33
222.24	-19.96
222.459	8.37
222.678	11.65
222.897	4.52
223.117	37.99
223.336	54
223.555	50.26
223.774	59.97
223.993	71.26
224.213	57.99
224.432	35.41
224.651	22.3
224.87	-2.55
225.089	-6.2
225.308	-1.59
225.527	-8.65
225.746	-26.2
225.965	-14.89
226.184	-33.08
226.404	-59.67
226.623	-32.87
226.842	-20.51
227.061	-4.2
227.28	17.75
227.499	32.25
227.718	19.25
227.936	23.65
228.155	8.72
228.374	-8.98
228.593	-9.12
228.812	-6.93
229.031	-0.63
229.25	-10.34
229.469	3.34
229.688	-1.71
229.907	11.1
230.125	2.2
230.344	7.62
230.563	3.82
230.782	9.74
231.001	2.04
231.22	14.31
231.438	26.29
231.657	36.96
231.876	16.82
232.095	13.03
232.313	-6.41
232.532	-17.74
232.751	-50.92
232.969	-43.43
233.188	-54.61
233.407	-45.19
233.625	-46.55
233.844	-24.67
234.063	-28.88
234.281	-21.53
234.5	-19.66
234.719	-10.52
234.937	-53.99
235.156	-66.33
235.374	-66.3
235.593	-36.34
235.811	-26.37
236.03	5.68
236.249	24.15
236.467	22.29
236.686	5.32
236.904	9.46
237.123	4.35
237.341	-6.09
237.559	-0.19
237.778	27.15
237.996	-13.07
238.215	-33.82
238.433	-67.35
238.652	-32
238.87	-49.08
239.088	-36.88
239.307	0.64
239.525	3.74
239.743	-7.35
239.962	-40.71
240.18	-23.22
240.398	-41.84
240.617	-53.11
240.835	-53.96
241.053	-15.4
241.271	-8.19
241.49	1.42
241.708	-6.68
241.926	-5.94
242.144	-12.73
242.363	-27.62
242.581	-68.59
242.799	-71.15
243.017	-57.8
243.235	-40
243.453	-64.62
243.672	-58.97
243.89	-24.42
244.108	-5.87
244.326	12.76
244.544	27.77
244.762	21.92
244.98	15.49
245.198	6.95
245.416	-17.68
245.634	-29.22
245.852	-42.32
246.07	-23.41
246.288	-12.14
246.506	-11.02
246.724	2.25
246.942	17.75
247.16	16.95
247.378	0.3
247.596	31.01
247.814	-15.24
248.032	-22.91
248.25	-33.71
248.468	-10.48
248.685	-13.86
248.903	-12.64
249.121	-11.71
249.339	-3.18
249.557	-11.47
249.775	-7.74
249.992	1.67
250.21	-6.6
250.428	-8.31
250.646	-2.67
250.863	-14.06
251.081	13.23
251.299	16.37
251.517	9.4
251.734	7.18
251.952	15.62
252.17	-16.63
252.387	-19.45
252.605	-26.3
252.823	-54.89
253.04	-52.62
253.258	-19.65
253.475	9.89
253.693	3.71
253.911	14.57
254.128	15.38
254.346	6.61
254.563	9.29
254.781	20.36
254.998	16.76
255.216	-19.22
255.433	-43.81
255.651	-55.08
255.868	-50.6
256.086	-34.72
256.303	-16.75
256.521	-6.86
256.738	-18.15
256.956	-15.82
257.173	-29.79
257.39	-25.17
257.608	-28.72
257.825	-13.28
258.043	-7.73
258.26	5.23
258.477	11.86
258.695	9.97
258.912	-1.81
259.129	-16.04
259.346	-59.54
259.564	-97.37
259.781	-88.44
259.998	-59.95
260.216	-26.92
260.433	-7.55
260.65	7.21
260.867	16.49
261.084	5.68
261.302	-14.58
261.519	2.05
261.736	-1.4
261.953	15.3
262.17	27.4
262.387	27.04
262.604	21.37
262.822	34.49
263.039	28.71
263.256	28.69
263.473	31.97
263.69	33.95
263.907	25.94
264.124	16.12
264.341	10.22
264.558	-2.12
264.775	-0.33
264.992	0.03
265.209	2.13
265.426	-15.1
265.643	-8.64
265.86	-49.93
266.077	-52.44
266.294	-50.6
266.51	-4.68
266.727	8.01
266.944	32.08
267.161	25.28
267.378	25.52
267.595	2.26
267.812	-29.09
268.028	-69.95
268.245	-55.58
268.462	-47.7
268.679	-13.43
268.896	13.25
269.112	0.72
269.329	-22.43
269.546	2.71
269.763	-14.72
269.979	-27.88
270.196	-1.1
270.413	10.77
270.629	-13.18
270.846	-22.56
271.063	-17.32
271.279	-23.85
271.496	-44.54
271.712	-33.97
271.929	-12.84
272.146	-23.22
272.362	-19.47
272.579	-4.99
272.795	-0.35
273.012	-18.86
273.228	0.64
273.445	-9.95
273.661	-23.36
273.878	-42.81
274.094	-42.7
274.311	-53.11
274.527	-56.56
274.744	-20.46
274.96	-7.61
275.177	-1.97
275.393	3.53
275.609	9.5
275.826	-6.56
276.042	-11.44
276.259	-20.74
276.475	-28.4
276.691	-38.84
276.908	-35.05
277.124	-42.11
277.34	-42.39
277.557	-51.38
277.773	-75.19
277.989	-81.27
278.205	-51.48
278.422	-40.07
278.638	-26.36
278.854	-6.78
279.07	16.64
279.286	2.56
279.503	15.65
279.719	21.9
279.935	17.76
280.151	1.49
280.367	20.53
280.583	9.85
280.799	-8.76
281.016	-41.12
281.232	-11.85
281.448	-20.41
281.664	-3.12
281.88	9.07
282.096	14.84
282.312	6.47
282.528	-1.67
282.744	-12.53
282.96	-23.71
283.176	-11.78
283.392	-18.37
283.608	-8.95
283.824	-6.68
284.04	-21.3
284.256	-9.94
284.471	-5.55
284.687	-2.41
284.903	4.26
285.119	13.58
285.335	14.12
285.551	-0.27
285.767	-16.73
285.982	-34.92
286.198	-60.22
286.414	-87.13
286.63	-72.29
286.846	-44.34
287.061	-42.3
287.277	-32.87
287.493	-37.73
287.709	-42.41
287.924	-27.55
288.14	-7.39
288.356	9.84
288.571	16.05
288.787	15.56
289.003	13.15
289.218	-14.37
289.434	-27.29
289.65	-4.29
289.865	-3.46
290.081	3.59
290.296	12.01
290.512	10.95
290.727	-6.76
290.943	0.49
291.159	-9.55
291.374	-28.14
291.59	-22.04
291.805	-29.74
292.021	-34.1
292.236	-32.56
292.451	-25.59
292.667	-30.95
292.882	-18.4
293.098	-30.72
293.313	-26.8
293.529	-15.93
293.744	-18.98
293.959	-17.57
294.175	-14.65
294.39	-13.29
294.605	14.07
294.821	14.22
295.036	9.38
295.251	14.84
295.467	-8.46
295.682	-20.11
295.897	-27.08
296.112	-26.34
296.328	-17.81
296.543	-9.32
296.758	-26.67
296.973	-18.08
297.188	-12.24
297.404	-74.29
297.619	-118.56
297.834	-136.87
298.049	-137.01
298.264	-132.47
298.479	-98.97
298.694	-15.52
298.909	-4.34
299.125	-4.81
299.34	5.7
299.555	11.77
299.77	11.01
299.985	3.27
300.2	16.25
300.415	17.68
300.63	18.63
300.845	2.43
301.06	6.03
301.275	-0.97
301.49	4.17
301.704	5.02
301.919	9.85
302.134	11.65
302.349	-4.27
302.564	-33.41
302.779	-60.46
302.994	-42.48
303.209	-44.98
303.423	-31.04
303.638	-21.72
303.853	-23.13
304.068	-39.5
304.283	-36.68
304.497	-44.59
304.712	-12.56
304.927	-2.75
305.142	-0.65
305.356	3.08
305.571	-0.84
305.786	-21.49
306	-18.84
306.215	-27.31
306.43	-24.56
306.644	-46.74
306.859	-53.89
307.074	-40.97
307.288	-16.11
307.503	-0.9
307.717	14.96
307.932	25.44
308.147	14.94
308.361	12.64
308.576	-23.04
308.79	-18.93
309.005	-58.79
309.219	-35.85
309.434	-44.07
309.648	-26.89
309.863	-49.39
310.077	-33.54
310.292	-27.47
310.506	-49.46
310.72	-50.06
310.935	1.67
311.149	15.86
311.364	14.26
311.578	32.5
311.792	46.9
312.007	25.64
312.221	-4.06
312.435	-0.74
312.649	3.79
312.864	-3.26
313.078	-2.85
313.292	5.05
313.507	-0.28
313.721	-5.36
313.935	8.01
314.149	8.06
314.363	5.29
314.578	18.65
314.792	-14.61
315.006	-28.56
315.22	-11.81
315.434	7.01
315.648	-28.38
315.862	-0.99
316.077	-13.44
316.291	-26.73
316.505	-81.79
316.719	-31.18
316.933	-29.76
317.147	-13
317.361	-7.48
317.575	18.94
317.789	13.36
318.003	4.08
318.217	-11.96
318.431	-23.06
318.645	-25.18
318.859	-19.1
319.073	-6.55
319.287	-1.88
319.5	-5.56
319.714	-15.88
319.928	-21.44
320.142	-28.05
320.356	-20.15
320.57	-20.98
320.784	-13.64
320.997	-30.34
321.211	-1.37
321.425	-16.51
321.639	1.74
321.853	14.29
322.066	4.3
322.28	-24.39
322.494	-9.56
322.707	-12.72
322.921	-19.69
323.135	-8.93
323.349	2.72
323.562	2.09
323.776	-6.59
323.989	3.38
324.203	-5.04
324.417	-12.75
324.63	-28.07
324.844	-39.74
325.057	-79.29
325.271	-64.28
325.485	-69.97
325.698	-35.23
325.912	-18.88
326.125	-11.81
326.339	-6.05
326.552	0.46
326.766	-13.07
326.979	-10.46
327.193	-9.44
327.406	-25.67
327.619	-11.67
327.833	-5.59
328.046	0.75
328.26	-12.35
328.473	-12.9
328.686	-26.72
328.9	-14.54
329.113	-16.56
329.326	-0.43
329.54	19.52
329.753	27.97
329.966	15.58
330.179	11.3
330.393	11.02
330.606	5.5
330.819	-1.47
331.032	2.62
331.246	-4.86
331.459	3.22
331.672	-9.23
331.885	-27.29
332.098	-14.92
332.311	-4
332.525	-1.03
332.738	15.11
332.951	12.95
333.164	11.89
333.377	17.5
333.59	1.87
333.803	-5.56
334.016	10.12
334.229	2.99
334.442	-4.85
334.655	12.37
334.868	0.56
335.081	3.26
335.294	2.38
335.507	11.74
335.72	10.04
335.933	12.28
336.146	15.36
336.359	24.41
336.572	26.11
336.785	11.79
336.997	16.08
337.21	11.61
337.423	-40.1
337.636	-53.06
337.849	-44.21
338.062	-31.42
338.274	-21.7
338.487	-15.68
338.7	-17.8
338.913	-10.8
339.125	-27.69
339.338	-44.79
339.551	-36.2
339.763	-27.89
339.976	-28.85
340.189	-13.34
340.402	11.32
340.614	14.89
340.827	23.92
341.039	27.51
341.252	19.19
341.465	6.83
341.677	11.41
341.89	-14.09
342.102	-7
342.315	-0.62
342.527	1.92
342.74	-10
342.952	-5.39
343.165	0.94
343.377	6.13
343.59	5.81
343.802	27.57
344.015	33.35
344.227	28.93
344.44	20.66
344.652	4.02
344.864	3.23
345.077	0.94
345.289	11.87
345.502	23.25
345.714	37.46
345.926	22.57
346.139	15.46
346.351	6.62
346.563	-0.16
346.775	3.51
346.988	6.91
347.2	-0.34
347.412	3.55
347.624	7.16
347.837	10.51
348.049	13.77
348.261	9.53
348.473	-0.57
348.685	-5.71
348.897	-30.76
349.11	-17.01
349.322	2.23
349.534	-8.08
349.746	-7.42
349.958	-0.28
350.17	-37.22
350.382	-46.25
350.594	-16.27
350.806	3.48
351.018	-2.69
351.23	18.91
351.442	26.26
351.654	23.71
351.866	2.44
352.078	14.91
352.29	5.41
352.502	2.05
352.714	3.26
352.926	5.24
353.138	4.4
353.35	2.53
353.561	-0.24
353.773	-12.32
353.985	4.07
354.197	7.67
354.409	4.49
354.621	-10.83
354.832	3.97
355.044	-23.66
355.256	-33.73
355.468	-56.54
355.679	-13.81
355.891	-13.74
356.103	-11.95
356.314	-24.16
356.526	-19.22
356.738	-27.13
356.949	-29.77
357.161	-21.81
357.373	-14.87
357.584	-10.05
357.796	-24.27
358.008	-20.95
358.219	-19.3
358.431	-16.3
358.642	-8.31
358.854	-0.24
359.065	-9.19
359.277	-13.68
359.488	-29.1
359.7	-27.12
359.911	-32.98
360.123	-28.27
360.334	-24.42
360.546	-22.3
360.757	-27.82
360.969	-27.28
361.18	-29.64
361.391	-18.13
361.603	-7.75
361.814	-5.7
362.025	-1.07
362.237	-1.56
362.448	-3.85
362.659	-10.87
362.871	-22.47
363.082	-30.12
363.293	-39.13
363.504	-72.12
363.716	-55.19
363.927	-31.87
364.138	-54.37
364.349	-60.79
364.56	-65.85
364.772	-53.62
364.983	-48.5
365.194	-23.04
365.405	-10.56
365.616	-6.14
365.827	-37
366.038	-32.94
366.25	-27.66
366.461	-23.78
366.672	-17.41
366.883	-4.66
367.094	-18.96
367.305	-37.61
367.516	-36.43
367.727	-45.68
367.938	-48.94
368.149	-48.39
368.36	-48.99
368.571	-89.96
368.781	-89.01
368.992	-83.38
369.203	-74.28
369.414	-63.45
369.625	-36.25
369.836	-13.26
370.047	-5.05
370.258	1.06
370.468	-7.71
370.679	0.16
370.89	-7.08
371.101	1.56
371.312	-12.42
371.522	-5.89
371.733	-17.94
371.944	-31.67
372.155	-34.78
372.365	-21.56
372.576	-22.02
372.787	-15.07
372.997	-15.61
373.208	-16.31
373.419	-14.01
373.629	-18.68
373.84	-19.47
374.05	-13.96
374.261	-38.68
374.472	-37.56
374.682	-27.7
374.893	-38.93
375.103	-24.86
375.314	-11.1
375.524	-7.27
375.735	-5.57
375.945	7.72
376.156	1.4
376.366	8.3
376.577	7.98
376.787	8.79
376.997	8.26
377.208	2.83
377.418	-1.96
377.629	-3.75
377.839	3.65
378.049	0.3
378.26	-5.57
378.47	-11.46
378.68	-5.54
378.89	-14.12
379.101	-10.75
379.311	-2.33
379.521	-2.91
379.732	-5.66
379.942	-14.41
380.152	-24.98
380.362	-25.89
380.572	-7.42
380.783	-4.46
380.993	8.36
381.203	7.24
381.413	10.52
381.623	6.63
381.833	6.8
382.043	-2.95
382.253	5.19
382.463	15.35
382.674	15.31
382.884	19.27
383.094	21.38
383.304	18.34
383.514	7.96
383.724	-0.07
383.934	-10.21
384.144	-4.24
384.353	-2.79
384.563	3.46
384.773	8.64
384.983	5.49
385.193	-0.54
385.403	-4.34
385.613	-1.41
385.823	-3.01
386.033	0.23
386.242	-2.64
386.452	-4.26
386.662	-5.12
386.872	-2.61
387.082	-1.97
387.291	-6.39
387.501	1.74
387.711	-0.47
387.921	-4.94
388.13	-6.26
388.34	1.35
388.55	-4.33
388.759	-7.71
388.969	-3.57
389.179	-5.7
389.388	-8.55
389.598	-8.02
389.807	-11.63
390.017	-12.07
390.227	-10.62
390.436	-8.13
390.646	-6.87
390.855	-1
391.065	-1.05
391.274	1.54
391.484	-1.53
391.693	-1.99
391.903	-2.68
392.112	-2.26
392.322	-3.5
392.531	-1.15
392.74	-0.9
392.95	-2.49
393.159	-2.25
393.369	-0.54
393.578	-0.72
393.787	0.94
393.997	2.16
394.206	2.3
394.415	1.54
394.625	1.14
394.834	-1.11
395.043	-0.86
395.252	0.29
395.462	0.71
395.671	1.05
395.88	3.17
396.089	3.11
396.298	3.9
396.508	4.07
396.717	4.55
396.926	3.98
397.135	3.79
397.344	2.04
397.553	1.97
397.762	2.43
397.971	2.09
398.181	1.76
398.39	1.85
398.599	1.86
398.808	1.28
399.017	1.6
399.226	1.94
399.435	2.38
399.644	2.3
399.853	2.44
400.062	2.33
400.27	2.3
400.479	2.31
400.688	2.53
400.897	2.42
401.106	2.52
401.315	2.42
401.524	2.21
401.733	1.83
401.941	2.24
402.15	1.96
402.359	2.18
402.568	2.49
402.777	2.65
402.985	2.15
403.194	2.31
403.403	2.36
403.612	2.25
403.82	2.25
404.029	2.42
404.238	2.57
404.446	2.74
404.655	2.8
404.864	2.88
405.072	2.94
405.281	2.8
405.489	2.57
405.698	2.48
405.906	2.48
406.115	2.45
406.324	2.63
406.532	2.83
406.741	2.89
406.949	2.88
407.158	2.89
407.366	2.63
407.574	2.53
407.783	2.69
407.991	2.72
408.2	2.81
408.408	3.02
408.617	2.98
408.825	2.67
409.033	2.58
409.242	2.52
409.45	2.39
409.658	2.27
409.867	2.39
410.075	2.46
410.283	2.39
410.491	2.3
410.7	2.3
410.908	2.39
411.116	2.36
411.324	2.39
411.533	2.36
411.741	2.37
411.949	2.3
412.157	2.21
412.365	2.18
412.573	2.35
412.781	2.39
412.99	2.37
413.198	2.56
413.406	2.64
413.614	2.71
413.822	2.77
414.03	2.79
414.238	2.69
414.446	2.79
414.654	2.55
414.862	2.55
415.07	2.41
415.278	2.47
415.486	2.19
415.694	2.32
415.902	2.19
416.109	2.16
416.317	2.09
416.525	2.12
416.733	2.18
416.941	2.26
417.149	2.34
417.357	2.33
417.564	2.38
417.772	2.18
417.98	2.14
418.188	2.05
418.395	1.78
418.603	1.63
418.811	1.71
419.019	1.63
419.226	1.83
419.434	2
419.642	2.02
419.849	1.99
420.057	2.12
420.265	2.04
420.472	2.06
420.68	2.17
420.887	2.1
421.095	2.15
421.302	2.18
421.51	2.18
421.717	2.26
421.925	2.45
422.132	2.42
422.34	2.19
422.547	2.09
422.755	2.11
422.962	2.02
423.17	1.84
423.377	1.91
423.585	2.17
423.792	1.98
423.999	2.01
424.207	2.1
424.414	2.2
424.621	2.06
424.829	2.1
425.036	2.02
425.243	2.07
425.451	2.13
425.658	2.14
425.865	2.19
426.072	2.17
426.28	2.2
426.487	2.07
426.694	1.98
426.901	2.04
427.108	2.05
427.315	1.85
427.523	1.73
427.73	1.88
427.937	1.69
428.144	1.73
428.351	1.73
428.558	1.91
428.765	1.76
428.972	1.94
429.179	1.85
429.386	1.96
429.593	1.84
429.8	1.93
430.007	1.89
430.214	2.1
430.421	2.14
430.628	2.13
430.835	2.13
431.042	2
431.249	1.93
431.456	1.89
431.662	2.14
431.869	2.24
432.076	2.4
432.283	2.5
432.49	2.48
432.697	2.32
432.903	2.18
433.11	2.21
433.317	2.22
433.524	2.28
433.73	2.28
433.937	2.56
434.144	2.38
434.35	2.18
434.557	2.25
434.764	2.34
434.97	2.12
435.177	2.36
435.384	2.48
435.59	2.41
435.797	2.39
436.003	2.41
436.21	2.24
436.416	2.29
436.623	2.41
436.829	2.33
437.036	2.33
437.242	2.57
437.449	2.47
437.655	2.49
437.862	2.63
438.068	2.61
438.275	2.52
438.481	2.62
438.687	2.54
438.894	2.59
439.1	2.7
439.307	2.77
439.513	2.9
439.719	2.91
439.926	2.94
440.132	3.04
440.338	2.96
440.544	2.86
440.751	2.91
440.957	2.95
441.163	2.82
441.369	2.78
441.575	2.74
441.782	2.77
441.988	2.65
442.194	2.67
442.4	2.67
442.606	2.79
442.812	2.75
443.018	2.75
443.224	2.82
443.431	2.87
443.637	2.79
443.843	2.76
444.049	2.86
444.255	2.82
444.461	2.75
444.667	2.74
444.873	2.77
445.079	2.72
445.284	2.66
445.49	2.71
445.696	2.7
445.902	2.71
446.108	2.78
446.314	2.89
446.52	2.98
446.726	3.07
446.931	3.06
447.137	3.08
447.343	3.12
447.549	3.02
447.755	2.95
447.96	2.97
448.166	2.94
448.372	2.89
448.578	2.87
448.783	2.93
448.989	3.04
449.195	3.05
449.4	3.11
449.606	3.18
449.812	3.07
450.017	3.03
450.223	2.95
450.428	2.89
450.634	2.99
450.84	3.12
451.045	3.13
451.251	3.19
451.456	3.24
451.662	3.19
451.867	3.19
452.073	3.19
452.278	3.21
452.483	3.19
452.689	3.25
452.894	3.34
453.1	3.3
453.305	3.35
453.51	3.39
453.716	3.31
453.921	3.24
454.127	3.24
454.332	3.15
454.537	3.15
454.742	3.15
454.948	3.19
455.153	3.26
455.358	3.29
455.563	3.34
455.769	3.39
455.974	3.33
456.179	3.31
456.384	3.3
456.589	3.26
456.795	3.2
457	3.2
457.205	3.1
457.41	3.15
457.615	3.11
457.82	3.2
458.025	3.16
458.23	3.23
458.435	3.19
458.64	3.22
458.845	3.23
459.05	3.35
459.255	3.36
459.46	3.38
459.665	3.35
459.87	3.26
460.075	3.27
460.28	3.35
460.485	3.37
460.69	3.41
460.895	3.48
461.099	3.39
461.304	3.31
461.509	3.34
461.714	3.42
461.919	3.41
462.123	3.5
462.328	3.45
