Data from Ofra_PS_T2_1A_2GT10_Reflection_3.txt Node
Date: Wed Jul 21 17:54:49 EDT 2021
User: Adam
Spectrometer: FLMT01687
Trigger mode: 0
Integration Time (sec): 1.100000E0
Scans to average: 2
Electric dark correction enabled: true
Nonlinearity correction enabled: false
Boxcar width: 2
XAxis mode: Wavelengths
Number of Pixels in Spectrum: 3648
>>>>>Begin Spectral Data<<<<<
179.494	545.6
179.716	647.53
179.937	608.27
180.158	639.5
180.38	1145
180.601	246.41
180.823	33.5
181.044	-124.17
181.265	67.65
181.486	3.75
181.708	174.36
181.929	1406.12
182.15	-569.01
182.372	113.85
182.593	67.25
182.814	46.64
183.035	68.52
183.257	24.96
183.478	-26.6
183.699	15.74
183.92	-6.82
184.141	0.13
184.363	-25
184.584	9.34
184.805	5.65
185.026	42.6
185.247	40.11
185.468	23.24
185.689	13.58
185.91	30.38
186.132	11.67
186.353	22.06
186.574	66.52
186.795	66.03
187.016	-14.84
187.237	-27.94
187.458	-62.55
187.679	-92.54
187.9	-98.72
188.121	-78.04
188.342	-69.59
188.563	-12.38
188.784	30.45
189.005	65.63
189.226	154.17
189.447	124.76
189.667	67.48
189.888	-191.63
190.109	-1120.78
190.33	-754.19
190.551	-1363.72
190.772	-272.88
190.993	-217.42
191.214	-170.09
191.434	-81.71
191.655	38.04
191.876	33.75
192.097	-46.5
192.318	-80.33
192.538	-202.93
192.759	-202.57
192.98	-90.13
193.201	-36.48
193.421	-8.93
193.642	28.06
193.863	38.77
194.083	9.04
194.304	6.09
194.525	6.98
194.745	-34.67
194.966	-82.26
195.187	-101.92
195.407	-156.59
195.628	-270.16
195.848	-260.65
196.069	-241.05
196.29	-193.3
196.51	-174.42
196.731	-154.71
196.951	-154.08
197.172	-178.85
197.392	-165.77
197.613	-157.05
197.833	-157.58
198.054	-130.59
198.274	-63.37
198.495	-92.43
198.715	-55.57
198.936	-68.29
199.156	-57.83
199.377	-177.37
199.597	-157.01
199.817	-190.1
200.038	-109.41
200.258	-176.69
200.479	-85.92
200.699	-87.81
200.919	16.37
201.14	-7.85
201.36	-15.42
201.58	34.15
201.801	58.56
202.021	29.87
202.241	24.33
202.461	12.02
202.682	-82.96
202.902	-142.69
203.122	-87.45
203.342	-71.74
203.563	-18.18
203.783	-0.14
204.003	-48.89
204.223	-63.54
204.443	21.16
204.663	-9.67
204.884	3.97
205.104	53.67
205.324	100.21
205.544	54.59
205.764	70.41
205.984	94.02
206.204	76.2
206.424	48.51
206.644	22.57
206.864	23.86
207.084	-43.47
207.304	-7.35
207.525	-75.63
207.745	-1.5
207.964	-3.21
208.184	-65.07
208.404	-123.93
208.624	-130.37
208.844	-131.56
209.064	-449.08
209.284	-455.18
209.504	-152.91
209.724	-8.02
209.944	-21.28
210.164	20.57
210.384	40.01
210.604	14.95
210.823	-32.32
211.043	-24.49
211.263	-29.82
211.483	-23.04
211.703	-68.43
211.922	-38.68
212.142	14.27
212.362	49.85
212.582	-6.76
212.801	5.85
213.021	-20.46
213.241	-27.67
213.461	-64.4
213.68	-57.51
213.9	-42.84
214.12	-18.44
214.339	-93.92
214.559	-77.26
214.779	-18.38
214.998	-8.23
215.218	-51.29
215.438	-26
215.657	-47.87
215.877	-63.37
216.096	-39.82
216.316	-26.95
216.535	-32.73
216.755	-23.81
216.974	-113.06
217.194	-150.08
217.413	-139.82
217.633	-152.51
217.852	-244.53
218.072	-86
218.291	-47.01
218.511	0.48
218.73	-8.64
218.95	-7.74
219.169	-29.47
219.389	-78.19
219.608	-61.21
219.827	-48.16
220.047	-41.88
220.266	-12.56
220.485	-1.91
220.705	-0.36
220.924	-29.94
221.143	22.06
221.363	-8.13
221.582	4.48
221.801	12.4
222.021	38.93
222.24	-58.1
222.459	8.95
222.678	-10.04
222.897	-70.57
223.117	-106.13
223.336	-65.82
223.555	-32.18
223.774	17.22
223.993	25.17
224.213	78.95
224.432	64.41
224.651	52.76
224.87	9.03
225.089	19.66
225.308	0.41
225.527	20.86
225.746	21.85
225.965	17.84
226.184	-14.88
226.404	-5.19
226.623	-22.7
226.842	-18.03
227.061	7.36
227.28	15.95
227.499	11.68
227.718	13.03
227.936	-2.19
228.155	-5.97
228.374	-8.01
228.593	-0.28
228.812	-16.93
229.031	-17.69
229.25	-67.7
229.469	-78.15
229.688	-74.75
229.907	-14.55
230.125	10.45
230.344	30.01
230.563	37.69
230.782	49.18
231.001	-32.58
231.22	-31.42
231.438	-4.6
231.657	3.07
231.876	-23.69
232.095	35.04
232.313	26.92
232.532	11.03
232.751	-33.68
232.969	-17.48
233.188	-106.51
233.407	-23.95
233.625	-27.09
233.844	-42.17
234.063	-38.05
234.281	-20.1
234.5	-26.56
234.719	-16.58
234.937	15.44
235.156	21.78
235.374	28.24
235.593	8.89
235.811	9
236.03	-15.22
236.249	-66.74
236.467	-69.83
236.686	-30.04
236.904	-15.93
237.123	-26.8
237.341	-27.64
237.559	-11.44
237.778	-31.98
237.996	-62.5
238.215	-12.92
238.433	10.29
238.652	-5.15
238.87	-14.95
239.088	5.14
239.307	-21.55
239.525	-27.2
239.743	-53.98
239.962	-40.52
240.18	-63.23
240.398	-83.46
240.617	-95.87
240.835	-44.55
241.053	4.67
241.271	57.99
241.49	35.32
241.708	6.01
241.926	-27.21
242.144	-48.14
242.363	-123.23
242.581	-133.49
242.799	-47.79
243.017	-4.75
243.235	-34.28
243.453	-6.59
243.672	-4.69
243.89	-13.83
244.108	-39.34
244.326	-17.86
244.544	-16.35
244.762	-17.95
244.98	-17.03
245.198	-9.69
245.416	-31.18
245.634	-23.91
245.852	-28.24
246.07	-34.46
246.288	-35.71
246.506	-59.02
246.724	-45.48
246.942	-11.22
247.16	24.59
247.378	31.65
247.596	66.16
247.814	63.12
248.032	13.73
248.25	19.46
248.468	20.86
248.685	21.59
248.903	49.27
249.121	55.01
249.339	11.5
249.557	6.84
249.775	17.42
249.992	-69.96
250.21	-48.89
250.428	-27.68
250.646	-54.79
250.863	-77.15
251.081	-31.58
251.299	-28.92
251.517	-20.99
251.734	1.22
251.952	-14.86
252.17	-3.78
252.387	9.51
252.605	-4.2
252.823	1.07
253.04	16.08
253.258	18.11
253.475	-11.93
253.693	21.54
253.911	26.54
254.128	41.45
254.346	42.51
254.563	20.07
254.781	-9.52
254.998	-57.67
255.216	-58.6
255.433	-49.49
255.651	-7.46
255.868	8.41
256.086	66.49
256.303	28.14
256.521	12.98
256.738	-1.12
256.956	-26.37
257.173	-72.14
257.39	-81.67
257.608	-100.78
257.825	-40.86
258.043	6.8
258.26	12.65
258.477	56.68
258.695	65.21
258.912	7.69
259.129	-1.02
259.346	-30.11
259.564	-69
259.781	-89.33
259.998	-21.8
260.216	-15.76
260.433	21.04
260.65	14.41
260.867	29.72
261.084	-9.49
261.302	-17.39
261.519	-27.18
261.736	-56.91
261.953	-89.78
262.17	-46.71
262.387	-78.91
262.604	-111.12
262.822	-114.02
263.039	-92.52
263.256	-154.46
263.473	-106.15
263.69	-58.12
263.907	-1.03
264.124	6.1
264.341	8.25
264.558	-7.56
264.775	1.86
264.992	-36.95
265.209	-10.93
265.426	16.67
265.643	21.79
265.86	16.06
266.077	27.38
266.294	2.47
266.51	-36.14
266.727	-60.6
266.944	-52.1
267.161	-45.42
267.378	-56.22
267.595	-27.01
267.812	-39.33
268.028	-67.22
268.245	-36.9
268.462	-46.99
268.679	-49.54
268.896	12.15
269.112	25.19
269.329	1.75
269.546	6.4
269.763	-0.57
269.979	-23.87
270.196	-22.61
270.413	-48
270.629	-56.3
270.846	-64.11
271.063	-57.76
271.279	-87.15
271.496	-74.34
271.712	-39.35
271.929	-29.11
272.146	-47.83
272.362	-42.45
272.579	14.31
272.795	23.57
273.012	26.06
273.228	26.79
273.445	6.44
273.661	-45
273.878	-97.51
274.094	-92.97
274.311	-117.14
274.527	-27.7
274.744	-10.97
274.96	-18.24
275.177	-1.6
275.393	20.89
275.609	5.28
275.826	15.62
276.042	28.16
276.259	16.74
276.475	28.34
276.691	35.74
276.908	12.56
277.124	17.56
277.34	11.12
277.557	-8.32
277.773	-22.39
277.989	-20.36
278.205	-31.71
278.422	-12.94
278.638	5.14
278.854	25.07
279.07	19.96
279.286	26.58
279.503	15.05
279.719	-0.61
279.935	-27
280.151	-33.2
280.367	-17.52
280.583	-46.62
280.799	-53.4
281.016	-84.57
281.232	-32.4
281.448	-44.45
281.664	-15.24
281.88	-43.75
282.096	-19.17
282.312	-11.67
282.528	13.64
282.744	33.88
282.96	39.39
283.176	30.06
283.392	15.18
283.608	6.88
283.824	-11.72
284.04	-11.48
284.256	2.31
284.471	-7.08
284.687	-25.58
284.903	-1.64
285.119	30.18
285.335	5.33
285.551	6.96
285.767	-2.61
285.982	-11.07
286.198	-65.67
286.414	-16.11
286.63	0.89
286.846	39.84
287.061	15.77
287.277	47.41
287.493	16.65
287.709	31.7
287.924	11.75
288.14	50
288.356	44.53
288.571	70.52
288.787	44.94
289.003	50.71
289.218	21.95
289.434	-15.31
289.65	-24.19
289.865	-34.17
290.081	-27.63
290.296	-16.03
290.512	-11.71
290.727	-41.87
290.943	-43.15
291.159	-58.97
291.374	-60.51
291.59	-82.04
291.805	-60.08
292.021	-39.72
292.236	-40.34
292.451	-22.04
292.667	-10.01
292.882	6.11
293.098	-3.13
293.313	-18.5
293.529	-38.41
293.744	-48.79
293.959	-65.64
294.175	-56.46
294.39	-13.26
294.605	3.84
294.821	34.94
295.036	42.61
295.251	49.63
295.467	8.63
295.682	-20.54
295.897	-96.4
296.112	-115.65
296.328	-116.02
296.543	-110.48
296.758	-98.83
296.973	-34.92
297.188	11.32
297.404	-16.45
297.619	-43.69
297.834	-43.83
298.049	-69.08
298.264	-98.73
298.479	-28.69
298.694	-18.77
298.909	6.56
299.125	15.76
299.34	21.9
299.555	-16.94
299.77	4.52
299.985	-48.1
300.2	-111.07
300.415	-128.65
300.63	-76.17
300.845	-75.89
301.06	-69.82
301.275	-21.68
301.49	-6.5
301.704	-20.22
301.919	-36.84
302.134	-48.47
302.349	-48.91
302.564	-101.18
302.779	-101.1
302.994	-84.48
303.209	-24.26
303.423	23.94
303.638	55.14
303.853	0.26
304.068	-3.27
304.283	-6.39
304.497	-19.32
304.712	-15.88
304.927	0.78
305.142	2.39
305.356	10.74
305.571	5.4
305.786	-21.72
306	-33.68
306.215	-42.97
306.43	-61.33
306.644	-41.95
306.859	13
307.074	14.66
307.288	-2.79
307.503	-35.91
307.717	-43.61
307.932	-54.58
308.147	-63.2
308.361	-48.89
308.576	-38.75
308.79	-98.54
309.005	-89.21
309.219	-58.12
309.434	-61.57
309.648	-42.24
309.863	-0.58
310.077	19.26
310.292	7.99
310.506	5.59
310.72	2.25
310.935	0.54
311.149	-13.5
311.364	3.77
311.578	18.01
311.792	6.99
312.007	9.27
312.221	1.22
312.435	2.12
312.649	-23.74
312.864	-17.37
313.078	-0.15
313.292	59.76
313.507	24.57
313.721	108.82
313.935	59.24
314.149	43.19
314.363	20.75
314.578	20.13
314.792	4.63
315.006	-9.17
315.22	17.32
315.434	16.25
315.648	30.08
315.862	28.32
316.077	35.65
316.291	-2.59
316.505	-2.83
316.719	-15.82
316.933	-17.93
317.147	-15.14
317.361	-56.51
317.575	-92.59
317.789	-142.34
318.003	-218.47
318.217	-182.21
318.431	-71.51
318.645	-10.02
318.859	9.79
319.073	38.38
319.287	24.33
319.5	-3.5
319.714	-51.7
319.928	-83.36
320.142	-111.53
320.356	-53.02
320.57	-15.77
320.784	-4.56
320.997	-26.45
321.211	-12.37
321.425	-80.52
321.639	-128.63
321.853	-66.78
322.066	-45.6
322.28	-55.06
322.494	-34.68
322.707	-3.83
322.921	-22.82
323.135	-19.77
323.349	-6.86
323.562	-24.85
323.776	-42.64
323.989	-43.04
324.203	-54.43
324.417	-52.1
324.63	-70.75
324.844	-63.78
325.057	-63.36
325.271	-33.1
325.485	-7.98
325.698	13.48
325.912	28.27
326.125	15.51
326.339	1.56
326.552	-34.68
326.766	-45.08
326.979	-27.81
327.193	11.91
327.406	9.58
327.619	9.81
327.833	35.19
328.046	-3.96
328.26	-40.32
328.473	-18.94
328.686	-35.08
328.9	-39.96
329.113	-13.94
329.326	-44.62
329.54	-53.97
329.753	-72
329.966	-119.44
330.179	-95.38
330.393	-38.95
330.606	-25.39
330.819	-4.13
331.032	23.42
331.246	24.01
331.459	48.68
331.672	33.22
331.885	25.53
332.098	-6.03
332.311	-27.14
332.525	-107.1
332.738	-85.74
332.951	-43.75
333.164	-17.67
333.377	-6.46
333.59	34.14
333.803	36.09
334.016	26.14
334.229	30.48
334.442	50.19
334.655	61.23
334.868	60.27
335.081	44.96
335.294	27.85
335.507	21.17
335.72	-2.63
335.933	-14.63
336.146	-23.34
336.359	-8.54
336.572	-54.44
336.785	-80.74
336.997	-58.67
337.21	-25
337.423	-44.74
337.636	-23.15
337.849	1.22
338.062	-7.11
338.274	-21.85
338.487	-22.09
338.7	-24.5
338.913	-65.75
339.125	-84.69
339.338	-148.74
339.551	-122.34
339.763	-95.98
339.976	-56.9
340.189	-42.88
340.402	-10.38
340.614	-28.46
340.827	-29.2
341.039	-48.18
341.252	-43.04
341.465	-20.18
341.677	-13.74
341.89	-61.82
342.102	-30.69
342.315	-45.01
342.527	-83.95
342.74	-80.19
342.952	-18.31
343.165	-36.62
343.377	-1.19
343.59	-4.35
343.802	23.51
344.015	21.87
344.227	61.64
344.44	46.07
344.652	36.82
344.864	9.86
345.077	29.57
345.289	18.9
345.502	16.06
345.714	10.29
345.926	20.44
346.139	-2.06
346.351	2.54
346.563	20.31
346.775	30.31
346.988	15.68
347.2	6.22
347.412	-45.49
347.624	-92.43
347.837	-105.63
348.049	-74.33
348.261	-35.2
348.473	-14.47
348.685	-7.84
348.897	-16.36
349.11	-28.38
349.322	-73.94
349.534	-77.74
349.746	-68.25
349.958	-55.08
350.17	-67.1
350.382	-25.22
350.594	-19.19
350.806	-11.55
351.018	-6.61
351.23	-14.86
351.442	-61.13
351.654	-59.91
351.866	-59.56
352.078	-60.92
352.29	-24.49
352.502	-4.92
352.714	6.83
352.926	-6.76
353.138	-0.83
353.35	-17.73
353.561	-16.34
353.773	-34.67
353.985	-14.37
354.197	-22.96
354.409	-9.75
354.621	-8.17
354.832	0.16
355.044	-10.26
355.256	-14.72
355.468	-14.2
355.679	-23.86
355.891	-22.1
356.103	-47.85
356.314	-30.83
356.526	-37.64
356.738	-25.59
356.949	-44.73
357.161	-6.34
357.373	-17.19
357.584	-22.65
357.796	-8.38
358.008	-7.26
358.219	4.1
358.431	14.2
358.642	21.67
358.854	13.72
359.065	10.82
359.277	-19.2
359.488	-43.18
359.7	-55.7
359.911	-78.33
360.123	-66.08
360.334	-72.7
360.546	-79.74
360.757	-78.18
360.969	-42.51
361.18	-35.84
361.391	-1.09
361.603	-11.44
361.814	-0.31
362.025	-14.19
362.237	-10.34
362.448	-11.06
362.659	13.27
362.871	19.12
363.082	20.57
363.293	14.32
363.504	-2.71
363.716	-30.16
363.927	-57.95
364.138	-79.66
364.349	-72.04
364.56	-72.53
364.772	-62.62
364.983	-34.3
365.194	-35.49
365.405	-21.41
365.616	3.82
365.827	10.64
366.038	-19.68
366.25	-13.12
366.461	-43.02
366.672	-28.12
366.883	-7.59
367.094	10.28
367.305	-0.81
367.516	0.96
367.727	-34.31
367.938	-56.93
368.149	-60.07
368.36	-34.17
368.571	-32.18
368.781	-37.88
368.992	-50.64
369.203	-68.68
369.414	-104.73
369.625	-105.2
369.836	-87.73
370.047	-108.79
370.258	-86.58
370.468	-84.67
370.679	-95.71
370.89	-88
371.101	-48
371.312	-47.64
371.522	-28.58
371.733	-22.7
371.944	-13.62
372.155	-14.76
372.365	-17.82
372.576	-29.93
372.787	-33.44
372.997	-62.73
373.208	-57.81
373.419	-31.8
373.629	-53.31
373.84	-48.05
374.05	-48.11
374.261	-52.68
374.472	-78.5
374.682	-15.28
374.893	-6.91
375.103	19.87
375.314	21.62
375.524	20.07
375.735	16.78
375.945	11.35
376.156	-11.99
376.366	-13.03
376.577	-12.41
376.787	-28.2
376.997	-16.32
377.208	-13.13
377.418	-25.5
377.629	-6.58
377.839	-4.27
378.049	-12.71
378.26	4.58
378.47	17.38
378.68	0.38
378.89	-7.65
379.101	-14.45
379.311	-45.26
379.521	-74.77
379.732	-80.27
379.942	-66.51
380.152	-77.95
380.362	-44.49
380.572	-40.98
380.783	-17.78
380.993	-6.27
381.203	12.76
381.413	25.33
381.623	33.39
381.833	28.84
382.043	9.64
382.253	-8.94
382.463	-16.5
382.674	-32.81
382.884	-56.39
383.094	-50.33
383.304	-41.04
383.514	-27.59
383.724	-14.37
383.934	-11.62
384.144	-16.47
384.353	-26.18
384.563	-31.93
384.773	-24.48
384.983	-35.35
385.193	-19.6
385.403	-9.12
385.613	-16.52
385.823	-31.25
386.033	-14.4
386.242	-24.84
386.452	-27.7
386.662	-29.66
386.872	-10.49
387.082	-21.28
387.291	-21.45
387.501	-20.91
387.711	-15.84
387.921	-25.99
388.13	-23.76
388.34	-12.57
388.55	-18.46
388.759	-15.77
388.969	-8.99
389.179	-5.48
389.388	-8.68
389.598	0.49
389.807	-10.15
390.017	-14.19
390.227	-14.77
390.436	-14.33
390.646	-13.59
390.855	-8.41
391.065	-6.1
391.274	-7.17
391.484	-10.58
391.693	-6.37
391.903	-4.94
392.112	-0.51
392.322	3.02
392.531	8.19
392.74	6.81
392.95	2.75
393.159	-1.42
393.369	-2.52
393.578	-3.27
393.787	-4.79
393.997	-2.72
394.206	-3.45
394.415	-2.54
394.625	-3.3
394.834	-4
395.043	-3.16
395.252	0.02
395.462	1.35
395.671	3.11
395.88	3.28
396.089	4.37
396.298	1.8
396.508	0.96
396.717	-0.55
396.926	0.27
397.135	-0.95
397.344	-0.86
397.553	0.05
397.762	2.28
397.971	2.18
398.181	3
398.39	2.72
398.599	1.54
398.808	0.58
399.017	1.56
399.226	2.98
399.435	3.96
399.644	4.31
399.853	3.54
400.062	2.67
400.27	1.85
400.479	1.3
400.688	0.86
400.897	1.56
401.106	2.13
401.315	2.03
401.524	2.38
401.733	2.8
401.941	2.76
402.15	2.7
402.359	2.42
402.568	2.58
402.777	2.83
402.985	2.76
403.194	2.54
403.403	2.66
403.612	2.28
403.82	2.02
404.029	2.25
404.238	2.16
404.446	2.57
404.655	2.36
404.864	2.22
405.072	1.75
405.281	2.07
405.489	1.65
405.698	1.79
405.906	1.97
406.115	2.13
406.324	1.8
406.532	1.98
406.741	2.33
406.949	2.3
407.158	2.28
407.366	2.46
407.574	2.41
407.783	2.35
407.991	2.11
408.2	2.44
408.408	2.41
408.617	2.3
408.825	2.17
409.033	2.35
409.242	2.35
409.45	2.43
409.658	2.32
409.867	2.37
410.075	2.23
410.283	1.91
410.491	1.76
410.7	1.85
410.908	1.88
411.116	2.34
411.324	2.36
411.533	2.31
411.741	2.42
411.949	2.43
412.157	2.02
412.365	2.22
412.573	2.38
412.781	2.4
412.99	2.37
413.198	2.53
413.406	2.46
413.614	2.41
413.822	2.25
414.03	2.18
414.238	2.03
414.446	2.15
414.654	1.87
414.862	2.02
415.07	2.04
415.278	2.25
415.486	1.91
415.694	2.09
415.902	1.87
416.109	1.72
416.317	1.61
416.525	1.46
416.733	1.49
416.941	1.74
417.149	1.81
417.357	1.89
417.564	2.23
417.772	2.46
417.98	2.34
418.188	2.3
418.395	2.34
418.603	2.43
418.811	2.03
419.019	1.98
419.226	2.28
419.434	2.24
419.642	2.04
419.849	2.27
420.057	2.2
420.265	2.05
420.472	1.77
420.68	1.8
420.887	1.66
421.095	1.88
421.302	1.79
421.51	2.02
421.717	2.01
421.925	2.13
422.132	1.83
422.34	1.75
422.547	1.86
422.755	1.68
422.962	1.6
423.17	1.65
423.377	1.72
423.585	1.58
423.792	1.61
423.999	1.56
424.207	1.65
424.414	1.77
424.621	1.69
424.829	1.84
425.036	1.83
425.243	1.93
425.451	1.7
425.658	1.6
425.865	1.85
426.072	1.74
426.28	1.89
426.487	1.8
426.694	1.94
426.901	1.57
427.108	1.7
427.315	1.51
427.523	2.04
427.73	1.96
427.937	1.89
428.144	1.88
428.351	1.9
428.558	1.76
428.765	1.79
428.972	1.78
429.179	1.76
429.386	1.96
429.593	1.66
429.8	1.52
430.007	1.75
430.214	2.01
430.421	1.77
430.628	1.65
430.835	1.6
431.042	1.72
431.249	1.57
431.456	1.57
431.662	1.71
431.869	1.99
432.076	1.95
432.283	2.13
432.49	2.13
432.697	2.19
432.903	1.88
433.11	1.78
433.317	1.76
433.524	1.9
433.73	1.8
433.937	2.2
434.144	2.05
434.35	1.98
434.557	1.85
434.764	1.89
434.97	1.71
435.177	1.85
435.384	1.79
435.59	1.86
435.797	2.05
436.003	2.1
436.21	2.1
436.416	2.22
436.623	2.17
436.829	2.26
437.036	2.33
437.242	2.39
437.449	2.33
437.655	2.39
437.862	2.3
438.068	2.22
438.275	2.37
438.481	2.56
438.687	2.51
438.894	2.44
439.1	2.47
439.307	2.63
439.513	2.4
439.719	2.4
439.926	2.5
440.132	2.48
440.338	2.12
440.544	2.3
440.751	2.25
440.957	2.31
441.163	2.21
441.369	2.3
441.575	2.08
441.782	2.17
441.988	1.97
442.194	1.99
442.4	1.93
442.606	2.17
442.812	2.24
443.018	2.38
443.224	2.46
443.431	2.61
443.637	2.44
443.843	2.32
444.049	2.33
444.255	2.27
444.461	2.26
444.667	2.27
444.873	2.44
445.079	2.36
445.284	2.42
445.49	2.28
445.696	2.13
445.902	1.94
446.108	1.92
446.314	1.88
446.52	1.91
446.726	2.24
446.931	2.33
447.137	2.31
447.343	2.43
447.549	2.39
447.755	2.17
447.96	2.23
448.166	2.17
448.372	2.04
448.578	2.07
448.783	2.1
448.989	2.16
449.195	2.43
449.4	2.47
449.606	2.39
449.812	2.32
450.017	2.34
450.223	2.23
450.428	2.12
450.634	2.37
450.84	2.59
451.045	2.47
451.251	2.31
451.456	2.64
451.662	2.69
451.867	2.66
452.073	2.66
452.278	2.9
452.483	2.86
452.689	2.64
452.894	2.64
453.1	2.64
453.305	2.49
453.51	2.45
453.716	2.45
453.921	2.4
454.127	2.35
454.332	2.37
454.537	2.22
454.742	2.27
454.948	2.25
455.153	2.29
455.358	2.36
455.563	2.63
455.769	2.68
455.974	2.68
456.179	2.59
456.384	2.58
456.589	2.45
456.795	2.3
457	2.27
457.205	2.48
457.41	2.42
457.615	2.41
457.82	2.5
458.025	2.5
458.23	2.39
458.435	2.47
458.64	2.37
458.845	2.49
459.05	2.46
459.255	2.43
