Data from Ofra_PS_Phys_0GT1_Reflection_3.txt Node
Date: Tue Jul 20 14:46:10 EDT 2021
User: USUARIO
Spectrometer: FLMT01687
Trigger mode: 0
Integration Time (sec): 1.200000E0
Scans to average: 2
Electric dark correction enabled: true
Nonlinearity correction enabled: false
Boxcar width: 2
XAxis mode: Wavelengths
Number of Pixels in Spectrum: 3648
>>>>>Begin Spectral Data<<<<<
179.494	181.08
179.716	959.09
179.937	-1170.77
180.158	-76.83
180.38	2.03
180.601	64.75
180.823	453.09
181.044	637.59
181.265	-658.56
181.486	-463.22
181.708	210.11
181.929	-0.58
182.15	316.99
182.372	-2441.46
182.593	462.87
182.814	-13620
183.035	-260.58
183.257	1.69
183.478	71.55
183.699	56.84
183.92	74.58
184.141	81.89
184.363	52.57
184.584	38.89
184.805	30.72
185.026	34.48
185.247	18.46
185.468	24.02
185.689	35.54
185.91	36.52
186.132	41.28
186.353	50.51
186.574	64.62
186.795	41.68
187.016	48.54
187.237	38.59
187.458	25.18
187.679	9.53
187.9	29.8
188.121	7.04
188.342	-0.9
188.563	26.76
188.784	39.64
189.005	34.33
189.226	39.45
189.447	65.44
189.667	49.91
189.888	48.58
190.109	47
190.33	58.53
190.551	57.9
190.772	44.55
190.993	33.45
191.214	20.85
191.434	4.01
191.655	-5.31
191.876	-5.37
192.097	1.35
192.318	11.56
192.538	25.77
192.759	12.15
192.98	36.81
193.201	28.39
193.421	23.69
193.642	25.13
193.863	38.88
194.083	39.91
194.304	39.98
194.525	40.13
194.745	51.72
194.966	50.59
195.187	34.77
195.407	29.24
195.628	29.63
195.848	9.23
196.069	6.34
196.29	7.74
196.51	33.99
196.731	34.48
196.951	26.33
197.172	36.02
197.392	41.12
197.613	25.5
197.833	29.12
198.054	39.6
198.274	36.41
198.495	32.47
198.715	20.02
198.936	8.4
199.156	-10.81
199.377	-147.17
199.597	-171.72
199.817	-86.46
200.038	-57.78
200.258	-34.52
200.479	14.87
200.699	10.3
200.919	21.88
201.14	16.85
201.36	17.96
201.58	20.23
201.801	25.81
202.021	4.67
202.241	19.81
202.461	14.97
202.682	2.46
202.902	11.12
203.122	16.9
203.342	15.59
203.563	17.82
203.783	31.61
204.003	41.33
204.223	55.58
204.443	60.56
204.663	57.82
204.884	62.71
205.104	41.52
205.324	34
205.544	45.82
205.764	53.94
205.984	62.05
206.204	50.24
206.424	48.78
206.644	14.09
206.864	4.84
207.084	-2.99
207.304	18.04
207.525	17.91
207.745	45.84
207.964	44.35
208.184	51.81
208.404	39.13
208.624	41.42
208.844	24.72
209.064	26.85
209.284	5.25
209.504	13.93
209.724	10.52
209.944	19.36
210.164	21.38
210.384	35.41
210.604	27.7
210.823	22.17
211.043	15.44
211.263	0.84
211.483	-2.06
211.703	14.82
211.922	33.67
212.142	46.6
212.362	41.09
212.582	35.97
212.801	45.39
213.021	26.02
213.241	28.08
213.461	25.23
213.68	17.21
213.9	24.27
214.12	33.56
214.339	13.78
214.559	24.87
214.779	39.43
214.998	23.19
215.218	12.54
215.438	35.1
215.657	32.81
215.877	22.09
216.096	35.04
216.316	36.93
216.535	17.75
216.755	29.34
216.974	28.22
217.194	28.77
217.413	34.87
217.633	43.3
217.852	47.07
218.072	49.06
218.291	56.76
218.511	36.73
218.73	13.34
218.95	20.32
219.169	17.67
219.389	-2.26
219.608	6.79
219.827	29.59
220.047	14.46
220.266	15.92
220.485	33.41
220.705	50.24
220.924	54.04
221.143	52.36
221.363	39.17
221.582	30.88
221.801	17.89
222.021	24.19
222.24	20.46
222.459	32.26
222.678	35.67
222.897	31.48
223.117	21.34
223.336	29.67
223.555	20.65
223.774	23.65
223.993	30.8
224.213	34.72
224.432	43.33
224.651	54.06
224.87	46.71
225.089	40.1
225.308	38.45
225.527	24.15
225.746	9.56
225.965	13.85
226.184	20.12
226.404	10.99
226.623	14.72
226.842	21.04
227.061	9.87
227.28	29.45
227.499	37.64
227.718	52.4
227.936	49.54
228.155	67.3
228.374	48.7
228.593	47.48
228.812	45.04
229.031	40.98
229.25	17.9
229.469	19.55
229.688	18.97
229.907	14.29
230.125	9.17
230.344	22.01
230.563	16.62
230.782	-4.45
231.001	0.17
231.22	16.9
231.438	25.22
231.657	42.84
231.876	52.06
232.095	42.05
232.313	43.32
232.532	45.68
232.751	41.35
232.969	43.97
233.188	51.26
233.407	54.03
233.625	26.14
233.844	26.21
234.063	26.4
234.281	23.25
234.5	19.13
234.719	31.21
234.937	36.86
235.156	41
235.374	38.54
235.593	39.95
235.811	31.92
236.03	30.31
236.249	24.7
236.467	24.47
236.686	27.87
236.904	39.18
237.123	36.38
237.341	35.61
237.559	41.22
237.778	41.63
237.996	49.41
238.215	64.06
238.433	52.61
238.652	42.77
238.87	34.75
239.088	30.86
239.307	21.23
239.525	29.45
239.743	40.74
239.962	32.85
240.18	27.76
240.398	22.6
240.617	30.67
240.835	38.51
241.053	61.09
241.271	61.59
241.49	58
241.708	57.78
241.926	57.3
242.144	33.87
242.363	39.03
242.581	40.52
242.799	24.56
243.017	2.48
243.235	22.47
243.453	24.64
243.672	32.22
243.89	30.78
244.108	50.55
244.326	41.58
244.544	28.53
244.762	7.95
244.98	4.1
245.198	-3.24
245.416	16.88
245.634	19.57
245.852	37.91
246.07	54.99
246.288	65.11
246.506	45.3
246.724	47.76
246.942	32.81
247.16	33.92
247.378	27.01
247.596	27.48
247.814	31.38
248.032	33.19
248.25	15.21
248.468	12.9
248.685	19.84
248.903	33.07
249.121	40.12
249.339	53.02
249.557	57.46
249.775	47.57
249.992	36.65
250.21	19.67
250.428	18.03
250.646	14.7
250.863	26.52
251.081	21.9
251.299	31.3
251.517	34.3
251.734	40.01
251.952	30.51
252.17	35.47
252.387	38.39
252.605	29.69
252.823	14.13
253.04	17.8
253.258	16.17
253.475	19.22
253.693	27.77
253.911	28.79
254.128	31.63
254.346	27.37
254.563	12.08
254.781	6.52
254.998	24.64
255.216	30.07
255.433	43.03
255.651	55.26
255.868	59.84
256.086	42.25
256.303	39.22
256.521	37.81
256.738	30.68
256.956	15.51
257.173	18.89
257.39	25.29
257.608	19.5
257.825	14.26
258.043	19.02
258.26	29.56
258.477	22.6
258.695	-8.12
258.912	11.7
259.129	19.75
259.346	9.35
259.564	7.11
259.781	4.83
259.998	26.87
260.216	29.67
260.433	33.87
260.65	41.65
260.867	53.78
261.084	28.64
261.302	29.98
261.519	20.59
261.736	15.33
261.953	27.12
262.17	42.33
262.387	43.78
262.604	52.22
262.822	60.77
263.039	49.72
263.256	42.95
263.473	39.41
263.69	34.43
263.907	27.68
264.124	29.89
264.341	33.19
264.558	34.53
264.775	36.73
264.992	26.09
265.209	20.06
265.426	34.18
265.643	17.38
265.86	9.23
266.077	32.68
266.294	28.16
266.51	17.89
266.727	27.46
266.944	22.38
267.161	17.6
267.378	20.08
267.595	12.77
267.812	14.39
268.028	26.8
268.245	28.37
268.462	29.14
268.679	19.36
268.896	17.98
269.112	24.48
269.329	18.69
269.546	12.35
269.763	20.88
269.979	22.62
270.196	16.88
270.413	32.95
270.629	40.36
270.846	45.25
271.063	39.19
271.279	27.03
271.496	3.23
271.712	13.82
271.929	9.8
272.146	24.99
272.362	25.68
272.579	23.19
272.795	18.89
273.012	14.87
273.228	6.26
273.445	16.63
273.661	27.75
273.878	16.47
274.094	29.14
274.311	27.39
274.527	28.78
274.744	18.45
274.96	34.55
275.177	10.1
275.393	8.33
275.609	-13.39
275.826	9.51
276.042	-3.9
276.259	-0.81
276.475	0.26
276.691	16.29
276.908	5.41
277.124	24.63
277.34	29.21
277.557	37.27
277.773	36.92
277.989	43.44
278.205	39.19
278.422	31.1
278.638	28.49
278.854	32.11
279.07	26.24
279.286	16.9
279.503	28.16
279.719	27.63
279.935	18.59
280.151	24.87
280.367	31.43
280.583	33.66
280.799	34.15
281.016	42.12
281.232	39.92
281.448	38.38
281.664	40.72
281.88	38.98
282.096	26.24
282.312	13.46
282.528	20.82
282.744	19.41
282.96	16.76
283.176	15.79
283.392	23.74
283.608	11.03
283.824	9.79
284.04	5.5
284.256	6.64
284.471	0.89
284.687	-3.03
284.903	-9.21
285.119	1.14
285.335	21.57
285.551	29.15
285.767	27.59
285.982	32.57
286.198	24.57
286.414	9.39
286.63	14.66
286.846	14.27
287.061	11.51
287.277	12.92
287.493	20.7
287.709	14.82
287.924	28.41
288.14	40.61
288.356	35.62
288.571	37.83
288.787	34.18
289.003	37.02
289.218	32.74
289.434	26.05
289.65	16.67
289.865	7.94
290.081	11.95
290.296	7.76
290.512	8.72
290.727	-3.07
290.943	-0.37
291.159	-13.55
291.374	-7.34
291.59	-5.61
291.805	10.45
292.021	23.35
292.236	32.08
292.451	35.6
292.667	42.03
292.882	40.42
293.098	26.78
293.313	32.93
293.529	26.81
293.744	16.39
293.959	12.4
294.175	25.98
294.39	9.22
294.605	21.62
294.821	26.82
295.036	31.54
295.251	28.28
295.467	41.29
295.682	31.99
295.897	31.84
296.112	32.37
296.328	35.46
296.543	29.86
296.758	29.26
296.973	23.58
297.188	23.15
297.404	28.4
297.619	23.89
297.834	26.38
298.049	27.62
298.264	30.64
298.479	27.59
298.694	22.9
298.909	11.9
299.125	33.97
299.34	27.35
299.555	31.02
299.77	57.82
299.985	43.15
300.2	40.22
300.415	39.77
300.63	31.48
300.845	15.11
301.06	24.31
301.275	7.92
301.49	-1.66
301.704	3
301.919	3.77
302.134	10.51
302.349	9.31
302.564	17.76
302.779	25.67
302.994	35.32
303.209	47.91
303.423	62.43
303.638	69.07
303.853	59.31
304.068	36.59
304.283	25.77
304.497	16.32
304.712	10.67
304.927	18.14
305.142	24.1
305.356	13.7
305.571	23.16
305.786	32.65
306	25.5
306.215	36.57
306.43	50.6
306.644	53.79
306.859	44.4
307.074	38.9
307.288	34.12
307.503	20.26
307.717	24.72
307.932	22.7
308.147	31.61
308.361	40.84
308.576	49.31
308.79	39.79
309.005	47.55
309.219	39.02
309.434	38.79
309.648	37.7
309.863	36.97
310.077	21.99
310.292	18.42
310.506	12.61
310.72	29.33
310.935	39.07
311.149	25.23
311.364	46.99
311.578	46.75
311.792	23.83
312.007	19.69
312.221	25.58
312.435	21.27
312.649	16.04
312.864	36.88
313.078	50.02
313.292	56.04
313.507	56.76
313.721	76.84
313.935	42.69
314.149	33.16
314.363	25.53
314.578	30.74
314.792	23.3
315.006	17.81
315.22	5.64
315.434	16.62
315.648	10.19
315.862	5.57
316.077	8.62
316.291	21.56
316.505	13.75
316.719	6.88
316.933	13.68
317.147	12.76
317.361	11.27
317.575	8.94
317.789	13.96
318.003	11.93
318.217	11.12
318.431	3.86
318.645	12.43
318.859	12.02
319.073	11.25
319.287	10.91
319.5	11
319.714	19.39
319.928	17.25
320.142	16.35
320.356	15.99
320.57	20.49
320.784	8.89
320.997	16.24
321.211	17.81
321.425	24.09
321.639	16.06
321.853	35.54
322.066	28.47
322.28	8.5
322.494	13.16
322.707	26.54
322.921	19.96
323.135	19.55
323.349	21.44
323.562	12.68
323.776	6.8
323.989	10.52
324.203	10.23
324.417	14.35
324.63	20.01
324.844	33.46
325.057	28.06
325.271	32.22
325.485	35.06
325.698	31.86
325.912	18.56
326.125	21.63
326.339	22.72
326.552	24.07
326.766	21.22
326.979	27.29
327.193	21.6
327.406	22.62
327.619	16.58
327.833	40.31
328.046	29.33
328.26	21.18
328.473	17.57
328.686	24.12
328.9	16.89
329.113	30.89
329.326	41.87
329.54	39.88
329.753	39.02
329.966	40.74
330.179	36.55
330.393	41.67
330.606	35.09
330.819	29.31
331.032	22.8
331.246	19.65
331.459	21.81
331.672	27.79
331.885	34.02
332.098	36.48
332.311	43.38
332.525	26.26
332.738	36.63
332.951	37.01
333.164	27.78
333.377	25.67
333.59	35.37
333.803	28.01
334.016	20.69
334.229	40.88
334.442	32.14
334.655	27.4
334.868	39.57
335.081	46.04
335.294	39.77
335.507	45.33
335.72	47.3
335.933	32.37
336.146	23.65
336.359	23.27
336.572	23.25
336.785	5.75
336.997	10.41
337.21	0.96
337.423	-0.53
337.636	-10.86
337.849	1.09
338.062	-3.96
338.274	23.26
338.487	29.03
338.7	30.37
338.913	29.66
339.125	32.89
339.338	25.39
339.551	23.8
339.763	28.43
339.976	45.3
340.189	38.22
340.402	32.96
340.614	32.83
340.827	27.37
341.039	13.06
341.252	23.51
341.465	26.07
341.677	18.36
341.89	19.15
342.102	19.85
342.315	30.28
342.527	30.61
342.74	32.36
342.952	41.44
343.165	39.4
343.377	25.61
343.59	15.85
343.802	16.28
344.015	20.64
344.227	23.44
344.44	28.66
344.652	36.1
344.864	34.82
345.077	23.02
345.289	32.52
345.502	24.05
345.714	10.02
345.926	4.26
346.139	10.69
346.351	1.13
346.563	12.82
346.775	31.14
346.988	31.56
347.2	25.59
347.412	26.02
347.624	27.13
347.837	22.56
348.049	22.35
348.261	12.29
348.473	20.4
348.685	13.12
348.897	4.88
349.11	-4.47
349.322	4.78
349.534	-3.48
349.746	1.82
349.958	12.26
350.17	30.44
350.382	28.58
350.594	31.74
350.806	25.38
351.018	26.76
351.23	18.87
351.442	7.42
351.654	3.36
351.866	11.18
352.078	17.12
352.29	25.47
352.502	47.33
352.714	40.58
352.926	43.21
353.138	37.05
353.35	32.49
353.561	26.39
353.773	28.75
353.985	15.89
354.197	4.79
354.409	-2.82
354.621	-3.16
354.832	-4.65
355.044	3.84
355.256	4.78
355.468	12.55
355.679	6.37
355.891	3.71
356.103	17.08
356.314	18.95
356.526	17.43
356.738	30.6
356.949	33.81
357.161	27.74
357.373	29.4
357.584	31.86
357.796	30.57
358.008	24.03
358.219	25.62
358.431	28.45
358.642	32.23
358.854	29.98
359.065	42.9
359.277	35.98
359.488	40.36
359.7	37.17
359.911	31.55
360.123	28.78
360.334	34.44
360.546	26.25
360.757	31.22
360.969	24.83
361.18	32.08
361.391	31.97
361.603	33.61
361.814	18.2
362.025	27.32
362.237	18.77
362.448	11.92
362.659	3.96
362.871	10.34
363.082	6.37
363.293	8.32
363.504	0.11
363.716	10.45
363.927	12.38
364.138	13.84
364.349	24.55
364.56	22.93
364.772	20.67
364.983	25.23
365.194	25.54
365.405	14.03
365.616	22.98
365.827	24.58
366.038	22.07
366.25	15.87
366.461	24.66
366.672	30.41
366.883	28.83
367.094	31.43
367.305	35.63
367.516	26.79
367.727	14.99
367.938	14.29
368.149	12.32
368.36	16.07
368.571	18.35
368.781	23.13
368.992	16.75
369.203	8.06
369.414	1.87
369.625	12.32
369.836	11.4
370.047	19.6
370.258	29.61
370.468	27.36
370.679	21.49
370.89	20.62
371.101	16.5
371.312	6.12
371.522	14.19
371.733	14.09
371.944	15.12
372.155	28.51
372.365	35.02
372.576	34.02
372.787	29.05
372.997	30.44
373.208	23.96
373.419	30.27
373.629	16.15
373.84	19.1
374.05	15.09
374.261	14.32
374.472	10.8
374.682	23.63
374.893	23.71
375.103	27.7
375.314	24.62
375.524	19.88
375.735	17.79
375.945	23.96
376.156	25.41
376.366	24.23
376.577	27.66
376.787	33.25
376.997	28.66
377.208	24.5
377.418	27.13
377.629	30.26
377.839	23.32
378.049	20.21
378.26	19.43
378.47	13.75
378.68	9.53
378.89	3.1
379.101	2.75
379.311	8.44
379.521	12.28
379.732	7.23
379.942	2.54
380.152	2.4
380.362	-6.87
380.572	-3.77
380.783	-0.64
380.993	21.74
381.203	22.28
381.413	33.31
381.623	32.36
381.833	38.55
382.043	28.81
382.253	21.42
382.463	15.26
382.674	16.44
382.884	10.38
383.094	15.19
383.304	24.55
383.514	24.53
383.724	25.39
383.934	27.43
384.144	24.07
384.353	21.16
384.563	18.27
384.773	15.88
384.983	20.06
385.193	20.44
385.403	20.67
385.613	18.88
385.823	12.63
386.033	5.84
386.242	3.14
386.452	3.59
386.662	4.93
386.872	16.81
387.082	15.52
387.291	14.61
387.501	14.94
387.711	13.49
387.921	11.15
388.13	11.38
388.34	14.18
388.55	14.94
388.759	14.53
388.969	10.5
389.179	11.13
389.388	11.49
389.598	8.7
389.807	14.55
390.017	14.2
390.227	11.24
390.436	7.83
390.646	9.31
390.855	4.98
391.065	4.98
391.274	6.97
391.484	7.53
391.693	4.95
391.903	5.09
392.112	4.92
392.322	6.09
392.531	6.44
392.74	9.08
392.95	9.78
393.159	8.44
393.369	6.94
393.578	6.79
393.787	4.51
393.997	4.07
394.206	5.8
394.415	6.81
394.625	6.21
394.834	5.97
395.043	4.9
395.252	3.93
395.462	4.21
395.671	3.8
395.88	3.81
396.089	3.94
396.298	4.38
396.508	5.01
396.717	6.01
396.926	6.37
397.135	5.59
397.344	5.44
397.553	4.9
397.762	4.15
397.971	3.93
398.181	4.12
398.39	3.9
398.599	3.04
398.808	2.32
399.017	2.42
399.226	2.81
399.435	2.52
399.644	2.44
399.853	3
400.062	2.91
400.27	2.6
400.479	2.55
400.688	2.95
400.897	3.03
401.106	2.98
401.315	3.2
401.524	3.29
401.733	2.97
401.941	3.08
402.15	2.9
402.359	2.72
402.568	2.92
402.777	3.1
402.985	3.05
403.194	3.07
403.403	3.22
403.612	3.11
403.82	2.77
404.029	2.58
404.238	2.68
404.446	2.57
404.655	2.65
404.864	2.81
405.072	3.1
405.281	3.2
405.489	3.35
405.698	3.14
405.906	3.09
406.115	2.75
406.324	2.59
406.532	2.38
406.741	2.19
406.949	2.27
407.158	2.41
407.366	2.31
407.574	2.57
407.783	2.86
407.991	2.77
408.2	2.88
408.408	3
408.617	2.72
408.825	2.57
409.033	2.58
409.242	2.38
409.45	2.41
409.658	2.33
409.867	2.33
410.075	2.26
410.283	2.29
410.491	2.08
410.7	2.03
410.908	2.2
411.116	2.24
411.324	2.2
411.533	2.28
411.741	2.5
411.949	2.35
412.157	2.35
412.365	2.36
412.573	2.36
412.781	2.24
412.99	2.31
413.198	2.33
413.406	2.27
413.614	2.21
413.822	2.27
414.03	2.34
414.238	2.32
414.446	2.35
414.654	2.34
414.862	2.33
415.07	2.3
415.278	2.18
415.486	2.26
415.694	2.24
415.902	2.16
416.109	2.04
416.317	2.16
416.525	2.02
416.733	2.1
416.941	2.11
417.149	2.18
417.357	2.24
417.564	2.14
417.772	2.25
417.98	2.22
418.188	2.23
418.395	2.22
418.603	2.33
418.811	2.32
419.019	2.42
419.226	2.39
419.434	2.35
419.642	2.3
419.849	2.12
420.057	1.93
420.265	1.97
420.472	1.86
420.68	1.98
420.887	1.94
421.095	2.05
421.302	1.96
421.51	1.97
421.717	1.81
421.925	1.95
422.132	1.94
422.34	1.92
422.547	1.97
422.755	1.95
422.962	1.85
423.17	1.84
423.377	1.64
423.585	1.65
423.792	1.77
423.999	1.84
424.207	1.89
424.414	2.12
424.621	2.09
424.829	1.99
425.036	1.91
425.243	1.9
425.451	2.03
425.658	2.05
425.865	2.17
426.072	2.07
426.28	2.06
426.487	1.91
426.694	1.89
426.901	1.73
427.108	1.88
427.315	1.77
427.523	1.84
427.73	1.91
427.937	2.06
428.144	2.01
428.351	2.23
428.558	2.25
428.765	2.24
428.972	2.08
429.179	2.11
429.386	2.13
429.593	2.05
429.8	1.89
430.007	2.02
430.214	2.21
430.421	2.09
430.628	2.02
430.835	2.1
431.042	2.13
431.249	2.06
431.456	2.11
431.662	2.16
431.869	2.33
432.076	2.36
432.283	2.22
432.49	2.19
432.697	2.17
432.903	1.96
433.11	1.88
433.317	1.93
433.524	2.02
433.73	2
433.937	2
434.144	1.97
434.35	2.02
434.557	1.9
434.764	1.99
434.97	2.01
435.177	2.01
435.384	2.07
435.59	2.13
435.797	2.17
436.003	2.12
436.21	2.22
436.416	2.29
436.623	2.29
436.829	2.28
437.036	2.35
437.242	2.29
437.449	2.22
437.655	2.3
437.862	2.23
438.068	2.29
438.275	2.33
438.481	2.39
438.687	2.3
438.894	2.44
439.1	2.46
439.307	2.56
439.513	2.48
439.719	2.52
439.926	2.45
440.132	2.47
440.338	2.45
440.544	2.44
440.751	2.44
440.957	2.57
441.163	2.55
441.369	2.6
441.575	2.62
441.782	2.68
441.988	2.57
442.194	2.53
442.4	2.39
442.606	2.41
442.812	2.39
443.018	2.42
443.224	2.4
443.431	2.48
443.637	2.34
443.843	2.25
444.049	2.34
444.255	2.33
444.461	2.37
444.667	2.47
444.873	2.6
445.079	2.53
445.284	2.6
445.49	2.56
445.696	2.56
445.902	2.52
446.108	2.59
446.314	2.58
446.52	2.68
446.726	2.69
446.931	2.74
447.137	2.75
447.343	2.88
447.549	2.7
447.755	2.79
447.96	2.68
448.166	2.63
448.372	2.53
448.578	2.66
448.783	2.63
448.989	2.7
449.195	2.67
449.4	2.66
449.606	2.61
449.812	2.6
450.017	2.7
450.223	2.71
450.428	2.68
450.634	2.7
450.84	2.75
451.045	2.71
451.251	2.75
451.456	2.85
451.662	2.86
451.867	2.8
452.073	2.76
452.278	2.8
452.483	2.8
452.689	2.86
452.894	2.83
453.1	2.82
453.305	2.75
453.51	2.79
453.716	2.76
453.921	2.88
454.127	2.84
454.332	2.83
454.537	2.66
454.742	2.65
454.948	2.66
455.153	2.74
455.358	2.78
455.563	2.75
455.769	2.8
455.974	2.78
456.179	2.75
456.384	2.75
456.589	2.85
456.795	2.79
457	2.77
457.205	2.82
457.41	2.81
457.615	2.82
457.82	2.88
458.025	2.85
458.23	2.74
458.435	2.8
458.64	2.73
458.845	2.66
459.05	2.66
459.255	2.87
459.46	2.83
459.665	2.83
459.87	2.99
460.075	3.06
460.28	2.82
460.485	2.84
460.69	2.98
460.895	2.84
461.099	2.78
461.304	2.93
461.509	2.93
461.714	2.86
461.919	2.95
462.123	3
462.328	3.09
462.533	3.18
462.738	3.19
462.942	3.14
463.147	3.18
463.352	3.05
463.556	3.02
463.761	2.97
463.966	2.93
464.17	2.94
464.375	3.08
464.58	3.15
464.784	3.22
464.989	3.31
465.193	3.26
465.398	3.16
465.602	3.08
465.807	3.07
466.011	3.11
466.216	3.08
466.42	3.1
466.625	3.15
466.829	3.17
467.034	3.14
467.238	3.26
467.443	3.22
467.647	3.19
467.851	3.29
468.056	3.26
468.26	3.28
468.464	3.35
468.669	3.32
468.873	3.29
469.077	3.31
