Data from Ofra_PS_Phys_8HS24_Reflection_1.txt Node
Date: Tue Jul 20 20:38:46 EDT 2021
User: USUARIO
Spectrometer: FLMT01687
Trigger mode: 0
Integration Time (sec): 1.042999E0
Scans to average: 2
Electric dark correction enabled: true
Nonlinearity correction enabled: false
Boxcar width: 2
XAxis mode: Wavelengths
Number of Pixels in Spectrum: 3648
>>>>>Begin Spectral Data<<<<<
179.494	-118.78
179.716	-108.44
179.937	-133.02
180.158	-51.95
180.38	-30.59
180.601	-37.18
180.823	4.49
181.044	40.96
181.265	-204.87
181.486	-46.16
181.708	-32.46
181.929	-35.6
182.15	-117.16
182.372	-31.55
182.593	38.56
182.814	-8.39
183.035	49.38
183.257	40.06
183.478	6.67
183.699	-18.28
183.92	37.46
184.141	85.25
184.363	121.6
184.584	64.27
184.805	49.19
185.026	71.33
185.247	54.35
185.468	35.87
185.689	48.11
185.91	48.58
186.132	1.28
186.353	-0.42
186.574	16.68
186.795	14.17
187.016	9.93
187.237	46.93
187.458	45.23
187.679	46.82
187.9	43.76
188.121	50.52
188.342	43.87
188.563	53.34
188.784	50.93
189.005	59.57
189.226	62.68
189.447	62.03
189.667	55.88
189.888	35.4
190.109	52.36
190.33	29.97
190.551	45.88
190.772	-7.3
190.993	59.63
191.214	22.38
191.434	53.29
191.655	50.51
191.876	73.03
192.097	73.1
192.318	85.27
192.538	73.3
192.759	65.54
192.98	55.46
193.201	36.55
193.421	36.89
193.642	31.8
193.863	35.77
194.083	37.34
194.304	50.24
194.525	51.59
194.745	58.93
194.966	38.58
195.187	46
195.407	18.82
195.628	10.61
195.848	-6.91
196.069	36.7
196.29	38.9
196.51	42.89
196.731	40.77
196.951	54.44
197.172	52.18
197.392	61.98
197.613	65.21
197.833	60.14
198.054	53.21
198.274	59.71
198.495	50.33
198.715	40.17
198.936	39.08
199.156	45.44
199.377	48.05
199.597	49.95
199.817	58.55
200.038	36.97
200.258	47.36
200.479	35.86
200.699	48.44
200.919	51.7
201.14	68.39
201.36	43.11
201.58	149.56
201.801	62.21
202.021	-2.12
202.241	-1.46
202.461	6.88
202.682	-23.68
202.902	-27.01
203.122	15.67
203.342	31.66
203.563	21.23
203.783	52.28
204.003	17.57
204.223	29.86
204.443	24.85
204.663	40.68
204.884	31.99
205.104	58.22
205.324	33
205.544	40.59
205.764	45.27
205.984	41.63
206.204	26.8
206.424	70.41
206.644	46.64
206.864	36.8
207.084	36.86
207.304	40.44
207.525	12.74
207.745	19.19
207.964	14.44
208.184	16.18
208.404	2.74
208.624	22.23
208.844	31.99
209.064	32.06
209.284	28.97
209.504	35.62
209.724	44.76
209.944	38.68
210.164	43.28
210.384	62.95
210.604	64.11
210.823	55.05
211.043	47.41
211.263	45.25
211.483	33.08
211.703	23.25
211.922	34.91
212.142	59.71
212.362	69.79
212.582	43.39
212.801	45.03
213.021	27.03
213.241	29.5
213.461	-6.64
213.68	-17.61
213.9	-19.8
214.12	-4.97
214.339	-35.87
214.559	17.78
214.779	31.49
214.998	40.68
215.218	26.21
215.438	22.15
215.657	23.19
215.877	5.25
216.096	20.78
216.316	24.65
216.535	40.99
216.755	28.36
216.974	58.68
217.194	44.81
217.413	39.36
217.633	40.09
217.852	44.06
218.072	39.89
218.291	28.12
218.511	32.93
218.73	26.63
218.95	33.57
219.169	27.22
219.389	25.48
219.608	36.05
219.827	51.32
220.047	41.59
220.266	37.2
220.485	60.79
220.705	41.97
220.924	24.84
221.143	21.11
221.363	19.37
221.582	-11.81
221.801	7.79
222.021	9.94
222.24	26.82
222.459	35.64
222.678	31.29
222.897	19.14
223.117	18.41
223.336	-1.62
223.555	9.61
223.774	14.44
223.993	41.37
224.213	40.05
224.432	48.54
224.651	28.31
224.87	17.04
225.089	-4.02
225.308	1.52
225.527	3.87
225.746	41.83
225.965	65.2
226.184	63.39
226.404	52.09
226.623	42.37
226.842	30.22
227.061	21.85
227.28	9.62
227.499	16.97
227.718	20.22
227.936	35.43
228.155	49.77
228.374	44.72
228.593	51.09
228.812	48.51
229.031	25.27
229.25	11.4
229.469	13.85
229.688	-7.87
229.907	-1.89
230.125	-5.02
230.344	5.34
230.563	14.95
230.782	38.95
231.001	57.72
231.22	60.57
231.438	55.84
231.657	24.19
231.876	20.21
232.095	3.67
232.313	14.71
232.532	16.73
232.751	63.16
232.969	35.08
233.188	28.89
233.407	47.23
233.625	37.77
233.844	32.22
234.063	28.07
234.281	22.73
234.5	3.5
234.719	7.96
234.937	-5.58
235.156	0.29
235.374	6.26
235.593	20.11
235.811	10.98
236.03	3.68
236.249	6.15
236.467	14.45
236.686	32.5
236.904	45.29
237.123	42.75
237.341	60.05
237.559	56.98
237.778	36.71
237.996	21.21
238.215	25.25
238.433	32.77
238.652	36.12
238.87	30.52
239.088	32.33
239.307	24.05
239.525	5.25
239.743	-9.62
239.962	-12.86
240.18	3.11
240.398	31.85
240.617	27.71
240.835	27.82
241.053	23.13
241.271	36.2
241.49	15.91
241.708	22.23
241.926	23.19
242.144	22.29
242.363	-0.63
242.581	15.7
242.799	14.18
243.017	22.95
243.235	45.71
243.453	51.58
243.672	48.76
243.89	42.86
244.108	52.12
244.326	49.96
244.544	45.74
244.762	37.49
244.98	46.4
245.198	34.64
245.416	21.12
245.634	20.1
245.852	27.65
246.07	15.18
246.288	4.55
246.506	15.12
246.724	7.44
246.942	12.02
247.16	23.01
247.378	25.78
247.596	13.68
247.814	15.96
248.032	17.74
248.25	25.48
248.468	20.82
248.685	26.8
248.903	40.28
249.121	24.16
249.339	10.64
249.557	10.22
249.775	26.85
249.992	26.33
250.21	29.15
250.428	8.53
250.646	26.36
250.863	-16.85
251.081	-43
251.299	-57.49
251.517	-12.54
251.734	-18.18
251.952	-39.62
252.17	-45.97
252.387	-0.7
252.605	11.9
252.823	14.44
253.04	39.96
253.258	53.38
253.475	48.99
253.693	44.94
253.911	55.25
254.128	34.75
254.346	27.48
254.563	13.77
254.781	2.93
254.998	24.73
255.216	39.04
255.433	44.43
255.651	78.7
255.868	118.98
256.086	61.7
256.303	50.07
256.521	46.44
256.738	29.35
256.956	2.87
257.173	18.82
257.39	25.86
257.608	34.69
257.825	48.23
258.043	65.13
258.26	65.93
258.477	58.77
258.695	50.35
258.912	54.76
259.129	67.19
259.346	63.21
259.564	72.33
259.781	81.74
259.998	80.42
260.216	40.54
260.433	40.23
260.65	54.62
260.867	68.08
261.084	63.71
261.302	61.6
261.519	60.68
261.736	37.69
261.953	33.47
262.17	38.89
262.387	59.06
262.604	66.59
262.822	63.55
263.039	48.56
263.256	41.62
263.473	36.77
263.69	21.02
263.907	32.84
264.124	25.39
264.341	19.1
264.558	3.41
264.775	-8.55
264.992	-6.23
265.209	22.54
265.426	32.81
265.643	39.87
265.86	43.61
266.077	29.79
266.294	29.76
266.51	29.92
266.727	40.53
266.944	43.6
267.161	51.19
267.378	43.63
267.595	40.79
267.812	30.18
268.028	24.97
268.245	24.92
268.462	35.17
268.679	28.93
268.896	23.56
269.112	25.89
269.329	24.2
269.546	29.92
269.763	37.57
269.979	47.03
270.196	37.95
270.413	36.72
270.629	21.41
270.846	19.84
271.063	16.8
271.279	19.31
271.496	33.38
271.712	39.85
271.929	40.6
272.146	44.65
272.362	28.42
272.579	23.09
272.795	21.78
273.012	3.92
273.228	-2.52
273.445	-3.99
273.661	-20.68
273.878	-10.51
274.094	21.69
274.311	18.84
274.527	35.94
274.744	42.92
274.96	39.36
275.177	28.95
275.393	19.34
275.609	-17.69
275.826	-21.02
276.042	-24.23
276.259	-26.16
276.475	0.56
276.691	9.97
276.908	-3.41
277.124	4.35
277.34	30.06
277.557	31.77
277.773	44.05
277.989	49.38
278.205	43.64
278.422	27.38
278.638	35.21
278.854	28.03
279.07	30.19
279.286	47.09
279.503	47.5
279.719	22.97
279.935	28.23
280.151	33.43
280.367	29.12
280.583	34.73
280.799	45.51
281.016	34.8
281.232	19.91
281.448	12.08
281.664	26.4
281.88	23.03
282.096	29.28
282.312	28.45
282.528	29
282.744	16.6
282.96	28.15
283.176	28.61
283.392	24.87
283.608	36.13
283.824	27.65
284.04	25.44
284.256	33.73
284.471	42.56
284.687	37.05
284.903	35.88
285.119	40.2
285.335	42.63
285.551	28.78
285.767	13.79
285.982	13.33
286.198	21.32
286.414	17.39
286.63	42.41
286.846	54.41
287.061	40.81
287.277	19.79
287.493	15.47
287.709	-18.04
287.924	-8.46
288.14	12.88
288.356	27.03
288.571	26.41
288.787	30.59
289.003	24.61
289.218	16.93
289.434	19.87
289.65	29.75
289.865	36.16
290.081	45.06
290.296	54.06
290.512	43.68
290.727	36.91
290.943	27.75
291.159	28.66
291.374	24.17
291.59	20.82
291.805	10.33
292.021	24.43
292.236	14.97
292.451	34.95
292.667	32.59
292.882	31.94
293.098	35.99
293.313	46.41
293.529	27.81
293.744	31.14
293.959	47.73
294.175	40.85
294.39	36.07
294.605	38.28
294.821	60.31
295.036	39.79
295.251	27.92
295.467	24.26
295.682	14.58
295.897	-1.02
296.112	8.25
296.328	7.6
296.543	12.94
296.758	20.02
296.973	29.53
297.188	36.88
297.404	40.6
297.619	53.51
297.834	55.8
298.049	47.63
298.264	36.06
298.479	49.45
298.694	38.01
298.909	43.54
299.125	46.58
299.34	54.35
299.555	55.41
299.77	49.19
299.985	35.94
300.2	23.11
300.415	26.44
300.63	31.73
300.845	28.61
301.06	44.74
301.275	56.69
301.49	53.69
301.704	41.04
301.919	34.38
302.134	20.81
302.349	24.43
302.564	23.25
302.779	28.53
302.994	24.77
303.209	31
303.423	31.3
303.638	40.62
303.853	36.41
304.068	50.68
304.283	50.84
304.497	43.78
304.712	36.64
304.927	36.42
305.142	38.3
305.356	23.58
305.571	29.39
305.786	21.21
306	21.84
306.215	19.69
306.43	25.35
306.644	29.25
306.859	44.61
307.074	39.72
307.288	32.54
307.503	39.3
307.717	23.77
307.932	25.54
308.147	27.24
308.361	29.35
308.576	18.69
308.79	16.61
309.005	-1.15
309.219	-10.39
309.434	-19.77
309.648	-3.7
309.863	7.87
310.077	22.02
310.292	37.54
310.506	46.98
310.72	29.52
310.935	31.54
311.149	29.37
311.364	26.02
311.578	35.1
311.792	40.21
312.007	27.42
312.221	31.22
312.435	22.1
312.649	9.43
312.864	14.65
313.078	13.27
313.292	13.59
313.507	22.54
313.721	17.78
313.935	16.21
314.149	29.4
314.363	12.53
314.578	0.71
314.792	18.08
315.006	17.66
315.22	-7.83
315.434	12.55
315.648	24.14
315.862	13.48
316.077	8.19
316.291	24.3
316.505	6.86
316.719	14.19
316.933	14.51
317.147	-1.48
317.361	-0.6
317.575	12.95
317.789	-4.08
318.003	-1.95
318.217	29.85
318.431	32.39
318.645	14.35
318.859	17.8
319.073	17.47
319.287	14.38
319.5	11.93
319.714	28.34
319.928	38.57
320.142	34.84
320.356	26.45
320.57	32.89
320.784	37.05
320.997	27.75
321.211	32.85
321.425	40.76
321.639	33.97
321.853	29.11
322.066	32.19
322.28	31.23
322.494	35.69
322.707	32.34
322.921	20.83
323.135	18
323.349	18.22
323.562	5.52
323.776	13.58
323.989	31.33
324.203	23.76
324.417	22.03
324.63	35.17
324.844	41.78
325.057	41.68
325.271	47.62
325.485	45.11
325.698	29.4
325.912	29.74
326.125	22.7
326.339	36.74
326.552	45.26
326.766	42.51
326.979	48.85
327.193	57.99
327.406	54.44
327.619	54.95
327.833	63.71
328.046	42.64
328.26	38.53
328.473	36.33
328.686	39.16
328.9	42.25
329.113	43.57
329.326	48.36
329.54	41.92
329.753	38.95
329.966	36.6
330.179	36.66
330.393	41.37
330.606	47.68
330.819	40.94
331.032	28.06
331.246	50.56
331.459	39.23
331.672	16.82
331.885	19.34
332.098	44.79
332.311	26.66
332.525	42.86
332.738	42.96
332.951	37.03
333.164	31.21
333.377	44.33
333.59	22.43
333.803	19.85
334.016	28.01
334.229	3.17
334.442	-24.04
334.655	-24.47
334.868	-13.15
335.081	-18.73
335.294	8.63
335.507	25.71
335.72	26.11
335.933	32.48
336.146	44.37
336.359	38.88
336.572	31.16
336.785	49.39
336.997	52.26
337.21	44.66
337.423	54.99
337.636	50.06
337.849	38.53
338.062	42.08
338.274	58.31
338.487	52.71
338.7	53.82
338.913	51.31
339.125	35.32
339.338	15.15
339.551	6.39
339.763	17.12
339.976	19
340.189	19
340.402	20.17
340.614	26.69
340.827	19.91
341.039	25.02
341.252	33.03
341.465	44.75
341.677	32.17
341.89	12.67
342.102	3.65
342.315	-5.1
342.527	-0.85
342.74	7.53
342.952	20.15
343.165	19.26
343.377	46.87
343.59	41.23
343.802	45.35
344.015	45.75
344.227	48.1
344.44	31.11
344.652	31.03
344.864	26.01
345.077	11.88
345.289	11.69
345.502	13.23
345.714	-18.91
345.926	-33.07
346.139	0.73
346.351	7.42
346.563	24.65
346.775	34.01
346.988	34.78
347.2	39.36
347.412	50.52
347.624	37.91
347.837	50.05
348.049	64.37
348.261	67.07
348.473	47.11
348.685	48.93
348.897	40.82
349.11	43.34
349.322	25.68
349.534	29.18
349.746	24.43
349.958	22.96
350.17	17.93
350.382	33.53
350.594	33.62
350.806	33
351.018	43.26
351.23	33.95
351.442	39.82
351.654	30
351.866	16.89
352.078	8.38
352.29	14.62
352.502	8.31
352.714	12.72
352.926	32.1
353.138	30.45
353.35	26.63
353.561	30.85
353.773	33.5
353.985	26.73
354.197	22.44
354.409	33.58
354.621	36.72
354.832	28.98
355.044	22.48
355.256	23.72
355.468	25.38
355.679	13.27
355.891	22.23
356.103	30.6
356.314	38.53
356.526	43.9
356.738	37.72
356.949	30.64
357.161	34.91
357.373	27.93
357.584	16.74
357.796	8.55
358.008	21.44
358.219	14.55
358.431	10.87
358.642	8.57
358.854	13.19
359.065	4.49
359.277	10.13
359.488	33.23
359.7	27.58
359.911	45.46
360.123	50.31
360.334	39.86
360.546	35.8
360.757	44.36
360.969	35.55
361.18	37.24
361.391	38.76
361.603	37.94
361.814	25.98
362.025	23.18
362.237	9.65
362.448	10.7
362.659	6.07
362.871	24.22
363.082	32.81
363.293	38.27
363.504	44.84
363.716	47.07
363.927	33.29
364.138	30.56
364.349	32.77
364.56	25.79
364.772	19.05
364.983	19.27
365.194	22.35
365.405	25.97
365.616	41.53
365.827	33.16
366.038	29.74
366.25	23.05
366.461	21.26
366.672	5.88
366.883	3.16
367.094	8.66
367.305	9.28
367.516	7.54
367.727	14.99
367.938	20.51
368.149	28.73
368.36	31.5
368.571	26.36
368.781	29.85
368.992	21.6
369.203	11.48
369.414	9.89
369.625	6.63
369.836	2.59
370.047	14.26
370.258	19.15
370.468	19.15
370.679	20.39
370.89	23.65
371.101	23.84
371.312	26.19
371.522	26.39
371.733	30.07
371.944	36.71
372.155	44.52
372.365	38.46
372.576	42.15
372.787	37.83
372.997	29.7
373.208	14.3
373.419	22.28
373.629	6.62
373.84	-0.63
374.05	1.01
374.261	14.87
374.472	7.59
374.682	18.73
374.893	20.96
375.103	17.46
375.314	11.28
375.524	26.08
375.735	24.12
375.945	27.79
376.156	26.54
376.366	35.17
376.577	22.44
376.787	28.95
376.997	32.28
377.208	28.69
377.418	21.44
377.629	24.8
377.839	22.94
378.049	35.35
378.26	41.51
378.47	45.67
378.68	41.16
378.89	40.67
379.101	27.55
379.311	21.47
379.521	21.69
379.732	18.54
379.942	19.2
380.152	11.92
380.362	17.36
380.572	19.38
380.783	17.14
380.993	17.1
381.203	15.36
381.413	10.4
381.623	7.32
381.833	11.5
382.043	10.23
382.253	11.74
382.463	18.87
382.674	20.46
382.884	20.43
383.094	22.66
383.304	25.75
383.514	21.67
383.724	13.91
383.934	12.05
384.144	7.75
384.353	11.82
384.563	8.42
384.773	24.03
384.983	30.4
385.193	28.24
385.403	20
385.613	28.52
385.823	14.36
386.033	9.2
386.242	6.5
386.452	14.32
386.662	6.43
386.872	9.65
387.082	9.77
387.291	16.08
387.501	13.53
387.711	14.88
387.921	18.19
388.13	22.09
388.34	18.97
388.55	16.33
388.759	12.98
388.969	9.92
389.179	11.3
389.388	11.71
389.598	11.66
389.807	17.66
390.017	13.97
390.227	8.05
390.436	10.23
390.646	11.83
390.855	10.88
391.065	12.4
391.274	12.04
391.484	10.02
391.693	11.44
391.903	8.47
392.112	7.7
392.322	6.33
392.531	7.74
392.74	6.39
392.95	4.84
393.159	5.13
393.369	8.37
393.578	6.55
393.787	6.09
393.997	8.75
394.206	8.19
394.415	7.13
394.625	8.11
394.834	6.93
395.043	6.43
395.252	8.08
395.462	7
395.671	6.06
395.88	6.8
396.089	6.65
396.298	5.61
396.508	4.93
396.717	5.2
396.926	4.64
397.135	3.7
397.344	3.57
397.553	4.87
397.762	4.58
397.971	4.29
398.181	4.84
398.39	4.75
398.599	4.49
398.808	4.41
399.017	5.59
399.226	6.18
399.435	6.16
399.644	6.62
399.853	6.66
400.062	6.07
400.27	5.69
400.479	6.03
400.688	5.87
400.897	5.87
401.106	5.94
401.315	5.84
401.524	5.67
401.733	5.25
401.941	4.85
402.15	4.35
402.359	4.32
402.568	4.03
402.777	3.91
402.985	4.11
403.194	4.4
403.403	4.25
403.612	4.26
403.82	4.33
404.029	4.39
404.238	4.41
404.446	4.38
404.655	4.14
404.864	4.25
405.072	4.21
405.281	4.47
405.489	4.44
405.698	4.7
405.906	4.58
406.115	4.76
406.324	4.45
406.532	4.49
406.741	4.42
406.949	4.6
407.158	4.51
407.366	4.44
407.574	4.34
407.783	4.28
407.991	4.14
408.2	4.17
408.408	4.11
408.617	4.13
408.825	4.18
409.033	4.27
409.242	4.19
409.45	4.21
409.658	4.25
409.867	4.17
410.075	3.93
410.283	3.83
410.491	3.88
410.7	4
410.908	4.01
411.116	4.38
411.324	4.49
411.533	4.46
411.741	4.45
411.949	4.52
412.157	4.32
412.365	4.51
412.573	4.52
412.781	4.31
412.99	4.32
413.198	4.26
413.406	4.05
413.614	4.14
413.822	4.18
414.03	4.13
414.238	4.2
414.446	4.19
414.654	4.23
414.862	4.21
415.07	4.2
415.278	4.14
415.486	4.1
415.694	4.02
415.902	4.16
416.109	4.12
416.317	4.22
416.525	4.22
416.733	4
416.941	3.92
417.149	4
417.357	3.79
417.564	3.66
417.772	3.7
417.98	3.87
418.188	3.79
418.395	4
418.603	4.08
418.811	4.23
419.019	3.93
419.226	3.96
419.434	3.66
419.642	3.51
419.849	3.35
420.057	3.43
420.265	3.38
420.472	3.6
420.68	3.78
420.887	3.98
421.095	3.85
421.302	3.82
421.51	3.77
421.717	3.64
421.925	3.67
422.132	3.81
422.34	3.88
422.547	3.68
422.755	3.81
422.962	3.69
423.17	3.57
423.377	3.66
423.585	3.84
423.792	3.66
423.999	3.68
424.207	3.77
424.414	3.64
424.621	3.49
424.829	3.44
425.036	3.32
425.243	3.33
425.451	3.44
425.658	3.47
425.865	3.64
426.072	3.62
426.28	3.57
426.487	3.66
426.694	3.71
426.901	3.65
427.108	3.64
427.315	3.67
427.523	3.48
427.73	3.47
427.937	3.5
428.144	3.53
428.351	3.46
428.558	3.47
428.765	3.46
428.972	3.44
429.179	3.4
429.386	3.5
429.593	3.55
429.8	3.54
430.007	3.49
430.214	3.57
430.421	3.51
430.628	3.51
430.835	3.45
431.042	3.44
431.249	3.47
431.456	3.43
431.662	3.48
431.869	3.61
432.076	3.81
432.283	3.73
432.49	3.72
432.697	3.7
432.903	3.73
433.11	3.55
433.317	3.61
433.524	3.66
433.73	3.59
433.937	3.55
434.144	3.56
434.35	3.76
434.557	3.77
434.764	3.71
434.97	3.64
435.177	3.7
435.384	3.43
435.59	3.49
435.797	3.61
436.003	3.7
436.21	3.77
436.416	3.74
436.623	3.66
436.829	3.61
437.036	3.5
437.242	3.45
437.449	3.61
437.655	3.66
437.862	3.68
438.068	3.8
438.275	3.79
438.481	3.85
438.687	3.75
438.894	3.71
439.1	3.55
439.307	3.63
439.513	3.59
439.719	3.71
439.926	3.78
440.132	3.9
440.338	3.8
440.544	3.69
440.751	3.64
440.957	3.55
441.163	3.57
441.369	3.65
441.575	3.7
441.782	3.7
441.988	3.76
442.194	3.77
442.4	3.76
442.606	3.74
442.812	3.75
443.018	3.79
443.224	3.73
443.431	3.8
443.637	3.75
443.843	3.77
444.049	3.68
444.255	3.75
444.461	3.68
444.667	3.79
444.873	3.74
445.079	3.87
445.284	3.78
445.49	3.76
445.696	3.72
445.902	3.82
446.108	3.79
446.314	3.87
446.52	3.97
446.726	4.01
446.931	4.03
447.137	4.03
447.343	4.04
447.549	3.97
447.755	3.93
447.96	3.89
448.166	3.87
448.372	3.9
448.578	4.04
448.783	4.1
448.989	4.07
449.195	4.03
449.4	4.05
449.606	3.86
449.812	3.87
450.017	3.95
450.223	3.97
450.428	3.95
450.634	4.06
450.84	4.06
451.045	4.07
451.251	4.11
451.456	4.05
451.662	3.99
451.867	4.06
452.073	3.97
452.278	3.91
452.483	3.97
452.689	3.96
452.894	3.96
453.1	3.98
453.305	4.03
453.51	4.06
453.716	4.08
453.921	3.97
454.127	4.06
454.332	4.1
454.537	4.09
454.742	4.1
454.948	4.11
455.153	4.09
455.358	4.04
455.563	4.06
455.769	4.04
455.974	4.07
456.179	4.01
456.384	3.96
456.589	3.9
456.795	3.91
457	3.92
457.205	3.98
457.41	4.02
457.615	4
457.82	4.01
458.025	3.92
458.23	3.86
458.435	3.84
458.64	3.91
458.845	3.94
459.05	3.93
459.255	3.93
459.46	3.99
459.665	3.94
459.87	3.89
460.075	3.94
460.28	3.98
460.485	3.93
460.69	3.99
460.895	4.05
461.099	4.05
461.304	4.08
461.509	4.08
461.714	4.01
461.919	3.98
462.123	4
462.328	3.91
462.533	4
462.738	4.01
462.942	4.04
463.147	4.05
463.352	4.15
463.556	4.11
463.761	4.1
463.966	4.06
464.17	4.01
464.375	4.01
464.58	4.05
464.784	4.15
464.989	4.17
465.193	4.29
465.398	4.23
465.602	4.21
465.807	4.14
466.011	4.18
466.216	4.06
466.42	4.08
466.625	4.11
466.829	4.09
467.034	4.12
467.238	4.25
467.443	4.31
467.647	4.28
467.851	4.3
468.056	4.28
468.26	4.23
468.464	4.2
468.669	4.16
