Data from Ofra_PS_Phys_6CX18_Reflection_2.txt Node
Date: Tue Jul 20 20:41:10 EDT 2021
User: USUARIO
Spectrometer: FLMT01687
Trigger mode: 0
Integration Time (sec): 1.042999E0
Scans to average: 2
Electric dark correction enabled: true
Nonlinearity correction enabled: false
Boxcar width: 2
XAxis mode: Wavelengths
Number of Pixels in Spectrum: 3648
>>>>>Begin Spectral Data<<<<<
179.494	-22.07
179.716	-38.22
179.937	-5.68
180.158	6.83
180.38	50.52
180.601	57.61
180.823	108.63
181.044	100.73
181.265	-316.48
181.486	17.48
181.708	-23.44
181.929	31.07
182.15	57.76
182.372	-23.05
182.593	97.01
182.814	15.39
183.035	40.25
183.257	18.49
183.478	-137.4
183.699	-199.9
183.92	-31.27
184.141	-66.56
184.363	-31.16
184.584	26.78
184.805	47.79
185.026	55.18
185.247	48.25
185.468	53.92
185.689	60.66
185.91	33.67
186.132	-1.57
186.353	-0.91
186.574	-31.53
186.795	-23.2
187.016	25.48
187.237	32.73
187.458	31.29
187.679	58.1
187.9	36.8
188.121	37.46
188.342	38.27
188.563	36.23
188.784	8.49
189.005	39.05
189.226	32.83
189.447	55.35
189.667	61.26
189.888	78.54
190.109	69.48
190.33	81.5
190.551	82.6
190.772	81.97
190.993	46.73
191.214	52.33
191.434	46.96
191.655	14.04
191.876	24.94
192.097	28.32
192.318	22.47
192.538	25.05
192.759	35.24
192.98	24.5
193.201	31.26
193.421	42.79
193.642	52.29
193.863	61.43
194.083	65.13
194.304	65.74
194.525	51.42
194.745	53.17
194.966	32.66
195.187	31.97
195.407	15.78
195.628	-11.56
195.848	-19.92
196.069	24.63
196.29	23.82
196.51	23.81
196.731	34.4
196.951	36.76
197.172	17.51
197.392	34.27
197.613	38.45
197.833	45.63
198.054	39.74
198.274	51.17
198.495	47.09
198.715	26.1
198.936	18.81
199.156	26.87
199.377	42.68
199.597	33.87
199.817	41.64
200.038	28.2
200.258	42.21
200.479	25.67
200.699	27.23
200.919	29.09
201.14	68.71
201.36	42.47
201.58	120.66
201.801	129.98
202.021	89.5
202.241	86.74
202.461	106.05
202.682	86.15
202.902	84.87
203.122	128.13
203.342	116.21
203.563	97.7
203.783	85.31
204.003	63.85
204.223	51.97
204.443	36.58
204.663	46.09
204.884	56.84
205.104	48.56
205.324	43.47
205.544	53.97
205.764	45.31
205.984	43.35
206.204	45.87
206.424	55.21
206.644	67.39
206.864	62.48
207.084	67.57
207.304	71.56
207.525	64.68
207.745	74.03
207.964	52.47
208.184	28.75
208.404	24.93
208.624	38.93
208.844	27.79
209.064	34.16
209.284	43.89
209.504	37.43
209.724	38.18
209.944	36.92
210.164	45.93
210.384	66.53
210.604	67.61
210.823	74.82
211.043	58.16
211.263	51.26
211.483	44.79
211.703	44.65
211.922	32.89
212.142	48.41
212.362	75.7
212.582	44.09
212.801	54.43
213.021	32.4
213.241	21.94
213.461	-9.45
213.68	-25.69
213.9	-42.61
214.12	-44.07
214.339	-47.32
214.559	0.88
214.779	19.53
214.998	44.94
215.218	46.71
215.438	42.54
215.657	49.68
215.877	50.91
216.096	46.31
216.316	46.95
216.535	45.05
216.755	37.35
216.974	41.26
217.194	25.84
217.413	56.19
217.633	77.25
217.852	57.32
218.072	65.03
218.291	37.5
218.511	24.79
218.73	14.49
218.95	27.08
219.169	18.66
219.389	31.86
219.608	30.58
219.827	59.46
220.047	47.76
220.266	40.37
220.485	63.36
220.705	47.19
220.924	23.38
221.143	42.41
221.363	24.51
221.582	27.52
221.801	66.59
222.021	70.06
222.24	51.36
222.459	64.3
222.678	42.14
222.897	40.35
223.117	53.37
223.336	93.42
223.555	107.51
223.774	115.29
223.993	100.06
224.213	83.34
224.432	57
224.651	49.28
224.87	39.81
225.089	-1.11
225.308	3.8
225.527	18.79
225.746	9.17
225.965	37.27
226.184	46.78
226.404	31.85
226.623	31.98
226.842	59.19
227.061	55.49
227.28	54.88
227.499	46.27
227.718	42.7
227.936	36.05
228.155	31.19
228.374	32.75
228.593	43.91
228.812	40.95
229.031	29.93
229.25	25.34
229.469	18.77
229.688	7.34
229.907	3.85
230.125	3.75
230.344	18.33
230.563	34.06
230.782	24.63
231.001	35.24
231.22	36.8
231.438	18.12
231.657	-0.82
231.876	23.05
232.095	7.56
232.313	6.04
232.532	2.25
232.751	28.36
232.969	42.83
233.188	66.89
233.407	74.71
233.625	66.89
233.844	50.3
234.063	32.99
234.281	25
234.5	20.71
234.719	22.6
234.937	30.37
235.156	25.78
235.374	39.54
235.593	47.75
235.811	35.77
236.03	39.94
236.249	60.61
236.467	46.2
236.686	45
236.904	49.99
237.123	46.72
237.341	49.89
237.559	62.15
237.778	47.3
237.996	31.43
238.215	39.74
238.433	33.86
238.652	19.86
238.87	14.72
239.088	46.26
239.307	29.73
239.525	13.37
239.743	9.04
239.962	34.52
240.18	19.18
240.398	21.15
240.617	25.11
240.835	34.13
241.053	25.8
241.271	35.43
241.49	32.88
241.708	43.91
241.926	39.33
242.144	53.29
242.363	40.79
242.581	51.41
242.799	36.87
243.017	43.95
243.235	39.47
243.453	34.7
243.672	35.22
243.89	44.01
244.108	44.25
244.326	28.32
244.544	27.06
244.762	25.85
244.98	20.19
245.198	19.55
245.416	21.56
245.634	25.33
245.852	23.79
246.07	30.32
246.288	29.27
246.506	28.14
246.724	22.37
246.942	13.67
247.16	12.01
247.378	22.32
247.596	46.21
247.814	57.85
248.032	59.67
248.25	64.43
248.468	63.14
248.685	49.16
248.903	38.83
249.121	60.31
249.339	50.43
249.557	37.27
249.775	31.46
249.992	34.53
250.21	29.75
250.428	17.96
250.646	12.9
250.863	0.9
251.081	-32.46
251.299	-47
251.517	-24.46
251.734	-18.14
251.952	-18.32
252.17	-1.02
252.387	28.79
252.605	31.14
252.823	49.22
253.04	53.42
253.258	61.98
253.475	47.37
253.693	48.27
253.911	39
254.128	-5.09
254.346	31.85
254.563	28.28
254.781	11.34
254.998	28.03
255.216	40.74
255.433	-9.24
255.651	12.03
255.868	8.05
256.086	3.83
256.303	11.29
256.521	6.72
256.738	-2.58
256.956	-5.49
257.173	-11.07
257.39	28.11
257.608	40.83
257.825	58.66
258.043	62.78
258.26	53.56
258.477	52.77
258.695	46.72
258.912	42.71
259.129	58.78
259.346	73.23
259.564	77.29
259.781	71.59
259.998	80.46
260.216	63.51
260.433	49.15
260.65	45.66
260.867	65.77
261.084	62.27
261.302	62.14
261.519	53.2
261.736	52.96
261.953	26.95
262.17	19.53
262.387	32.77
262.604	36.09
262.822	37.98
263.039	51.92
263.256	55.82
263.473	56.72
263.69	68.84
263.907	77.81
264.124	65.95
264.341	76.65
264.558	62.22
264.775	52.45
264.992	22.38
265.209	42.67
265.426	30.76
265.643	14.28
265.86	27.9
266.077	22.6
266.294	22.89
266.51	33.3
266.727	53.4
266.944	61.69
267.161	71
267.378	72.05
267.595	61.73
267.812	39.68
268.028	17.01
268.245	20.95
268.462	25.76
268.679	26.32
268.896	30.65
269.112	30.78
269.329	23.6
269.546	31.44
269.763	33.9
269.979	34.46
270.196	48.32
270.413	47.2
270.629	19.41
270.846	13.94
271.063	18.79
271.279	2.75
271.496	9.85
271.712	20.88
271.929	29.91
272.146	30.52
272.362	38.84
272.579	44.11
272.795	50.07
273.012	34.43
273.228	38.49
273.445	34.32
273.661	26.52
273.878	33.37
274.094	47.16
274.311	42.58
274.527	47.69
274.744	41.87
274.96	36.48
275.177	47.13
275.393	44.83
275.609	10.1
275.826	18.1
276.042	17.5
276.259	-16.39
276.475	-0.56
276.691	23.5
276.908	29.56
277.124	27.05
277.34	43.14
277.557	39.07
277.773	49.15
277.989	46.02
278.205	59.45
278.422	45.11
278.638	51.79
278.854	52.34
279.07	43.73
279.286	45.93
279.503	55.64
279.719	42.45
279.935	48.48
280.151	51.18
280.367	29.3
280.583	13.76
280.799	23.73
281.016	5.62
281.232	-4.09
281.448	24.32
281.664	29.29
281.88	7.52
282.096	5.01
282.312	1.58
282.528	3.27
282.744	30.88
282.96	49.44
283.176	37.66
283.392	32.62
283.608	29.2
283.824	17.7
284.04	22.13
284.256	26.84
284.471	49.46
284.687	61.39
284.903	62.21
285.119	56.32
285.335	77.3
285.551	66.94
285.767	49
285.982	56.29
286.198	61.68
286.414	55.97
286.63	46.36
286.846	46.65
287.061	39.76
287.277	30.17
287.493	30
287.709	8.76
287.924	11.52
288.14	7.91
288.356	16.83
288.571	9.92
288.787	28.19
289.003	28.26
289.218	33.13
289.434	22.17
289.65	35.07
289.865	35.6
290.081	46.91
290.296	45.53
290.512	48.9
290.727	36.35
290.943	23.27
291.159	7.21
291.374	27.42
291.59	27.53
291.805	23.91
292.021	45.63
292.236	55.47
292.451	42.04
292.667	40.66
292.882	36.94
293.098	34.02
293.313	31.18
293.529	36.57
293.744	47.8
293.959	70.6
294.175	70.15
294.39	63.7
294.605	51.1
294.821	50.18
295.036	27.57
295.251	23.71
295.467	23.91
295.682	21.86
295.897	10.73
296.112	15.71
296.328	7.62
296.543	18.86
296.758	18.99
296.973	31.04
297.188	42.39
297.404	47.35
297.619	46.8
297.834	47.84
298.049	41.07
298.264	29.29
298.479	21.29
298.694	28.68
298.909	20.56
299.125	17.32
299.34	-0.28
299.555	13.98
299.77	17.63
299.985	26.1
300.2	18.4
300.415	36.73
300.63	44.42
300.845	28.65
301.06	36.65
301.275	46.4
301.49	44.94
301.704	56.73
301.919	75.55
302.134	66.08
302.349	57.1
302.564	51.89
302.779	36.69
302.994	21.29
303.209	23.61
303.423	38.57
303.638	49.59
303.853	43.59
304.068	48.03
304.283	55.24
304.497	38.24
304.712	21.06
304.927	18.6
305.142	15.49
305.356	-3.18
305.571	5.19
305.786	16.94
306	33.51
306.215	26.38
306.43	35.09
306.644	48.01
306.859	38.74
307.074	23.79
307.288	32.56
307.503	34.81
307.717	28.94
307.932	50.88
308.147	45.22
308.361	48.42
308.576	45.05
308.79	42.09
309.005	9.81
309.219	17.37
309.434	14.9
309.648	32.23
309.863	23.69
310.077	42.99
310.292	40.27
310.506	30.32
310.72	24.5
310.935	30.95
311.149	14.75
311.364	29.7
311.578	47.2
311.792	24.56
312.007	16.54
312.221	24.6
312.435	16.62
312.649	10.75
312.864	42.46
313.078	47.6
313.292	48.44
313.507	48.02
313.721	41.99
313.935	23.99
314.149	34.03
314.363	30.24
314.578	27.76
314.792	33.16
315.006	40.19
315.22	27.03
315.434	8.48
315.648	19.25
315.862	11.95
316.077	9.45
316.291	42.15
316.505	62.1
316.719	59.69
316.933	58.5
317.147	58.97
317.361	48.06
317.575	50.19
317.789	34.22
318.003	18.04
318.217	21.23
318.431	24.55
318.645	22.33
318.859	25.04
319.073	26.38
319.287	21.82
319.5	23.99
319.714	16.28
319.928	28.12
320.142	32.1
320.356	43.02
320.57	43.12
320.784	50.98
320.997	47.82
321.211	50.53
321.425	46.26
321.639	45.81
321.853	47.84
322.066	54.59
322.28	52.78
322.494	51.23
322.707	39.83
322.921	40.95
323.135	31.19
323.349	25.15
323.562	16.17
323.776	23.62
323.989	30.74
324.203	20.39
324.417	30.27
324.63	45.93
324.844	49.25
325.057	50.89
325.271	60.94
325.485	40.59
325.698	31.01
325.912	48.02
326.125	28.1
326.339	22.53
326.552	35.33
326.766	27.99
326.979	16.59
327.193	34.91
327.406	41.53
327.619	41.25
327.833	45.41
328.046	43.36
328.26	18.32
328.473	26.73
328.686	18.63
328.9	26.24
329.113	26.65
329.326	51.78
329.54	57.3
329.753	51.57
329.966	44.09
330.179	27.71
330.393	24.93
330.606	23.68
330.819	23.49
331.032	31.7
331.246	57.19
331.459	67.08
331.672	65.53
331.885	73.68
332.098	64.93
332.311	55
332.525	41.97
332.738	53.88
332.951	39.54
333.164	32.79
333.377	46.55
333.59	44.26
333.803	23.66
334.016	35.87
334.229	33.02
334.442	22.75
334.655	6.53
334.868	12.23
335.081	-4.64
335.294	11.39
335.507	18.44
335.72	31.78
335.933	32.25
336.146	44.02
336.359	28.49
336.572	20.82
336.785	18.27
336.997	18.29
337.21	17.54
337.423	46.37
337.636	45.7
337.849	30.05
338.062	44.31
338.274	47.73
338.487	36.58
338.7	37.5
338.913	35.05
339.125	22.98
339.338	10.15
339.551	-1.86
339.763	3.44
339.976	7.82
340.189	6.23
340.402	18.99
340.614	34.09
340.827	32.21
341.039	48.73
341.252	35.4
341.465	51.37
341.677	33.6
341.89	21.6
342.102	30.3
342.315	49.79
342.527	51.67
342.74	50.46
342.952	64.94
343.165	43.71
343.377	43.99
343.59	30.1
343.802	38.25
344.015	30.85
344.227	35.11
344.44	25.68
344.652	25.29
344.864	14.05
345.077	-3.06
345.289	1.86
345.502	3.98
345.714	-25.7
345.926	-32.39
346.139	-4.81
346.351	2.07
346.563	13.13
346.775	30.71
346.988	24.16
347.2	28.56
347.412	34.59
347.624	33.83
347.837	31.15
348.049	50.5
348.261	57.54
348.473	22.78
348.685	30.25
348.897	37.27
349.11	32.14
349.322	26.36
349.534	35.25
349.746	24.82
349.958	17.81
350.17	12.52
350.382	15.11
350.594	22.97
350.806	34.87
351.018	46.11
351.23	51.3
351.442	51.37
351.654	41.89
351.866	36.64
352.078	28.49
352.29	33.17
352.502	24.65
352.714	34.16
352.926	35.47
353.138	32.01
353.35	18.67
353.561	18.63
353.773	19.08
353.985	25.48
354.197	28.37
354.409	36.36
354.621	37.57
354.832	27.61
355.044	26.85
355.256	24.89
355.468	15.14
355.679	19.74
355.891	16.21
356.103	11.87
356.314	17.42
356.526	34.22
356.738	37.6
356.949	47.53
357.161	54.73
357.373	63.4
357.584	56.7
357.796	52.01
358.008	44.62
358.219	36.48
358.431	25.4
358.642	17.74
358.854	16.37
359.065	20.46
359.277	11.09
359.488	22.3
359.7	42.64
359.911	41.85
360.123	23.57
360.334	26.66
360.546	36.34
360.757	34.16
360.969	34.12
361.18	51.02
361.391	51.34
361.603	48.78
361.814	37.55
362.025	30.1
362.237	14.23
362.448	16.67
362.659	-1.53
362.871	10.36
363.082	15.11
363.293	24.83
363.504	18.03
363.716	22.06
363.927	18.47
364.138	19.27
364.349	15.17
364.56	15.95
364.772	24.29
364.983	20.16
365.194	21.4
365.405	25.46
365.616	27.53
365.827	20.28
366.038	22.61
366.25	12.41
366.461	20.91
366.672	12.38
366.883	-1.21
367.094	0.23
367.305	6.23
367.516	0.24
367.727	14.08
367.938	28.91
368.149	33.82
368.36	41.34
368.571	33.5
368.781	26.96
368.992	23.9
369.203	7.7
369.414	7.92
369.625	-1.58
369.836	4.69
370.047	3.31
370.258	12.02
370.468	6.27
370.679	3.75
370.89	6.04
371.101	13.36
371.312	18.79
371.522	12.84
371.733	22.86
371.944	15.45
372.155	19.97
372.365	23.88
372.576	33.83
372.787	38.7
372.997	36.55
373.208	30.13
373.419	22
373.629	7.15
373.84	5.21
374.05	14.47
374.261	21.42
374.472	28.24
374.682	39.62
374.893	34.8
375.103	21.95
375.314	25.4
375.524	25.18
375.735	15.62
375.945	10.93
376.156	24.09
376.366	15.49
376.577	6.2
376.787	12.56
376.997	15.37
377.208	10.31
377.418	11.34
377.629	16.73
377.839	17.41
378.049	22.06
378.26	24.36
378.47	17.81
378.68	18.32
378.89	14.99
379.101	4.78
379.311	11.46
379.521	23.44
379.732	13.73
379.942	20.79
380.152	20.36
380.362	12.03
380.572	18.81
380.783	15.31
380.993	12.8
381.203	13.38
381.413	6.21
381.623	-4.43
381.833	11.51
382.043	13.02
382.253	18.64
382.463	30.38
382.674	34.28
382.884	22.35
383.094	20.23
383.304	24.24
383.514	23.05
383.724	27.88
383.934	32.66
384.144	39.6
384.353	35.66
384.563	26.11
384.773	21.4
384.983	24
385.193	17.08
385.403	14.91
385.613	26.16
385.823	19.62
386.033	13.75
386.242	10.34
386.452	5.29
386.662	5.47
386.872	11
387.082	6.39
387.291	11.81
387.501	17.52
387.711	18.38
387.921	17.91
388.13	23.18
388.34	18.77
388.55	17.14
388.759	11.03
388.969	5.56
389.179	7.01
389.388	4.55
389.598	6.87
389.807	10.17
390.017	11.8
390.227	7.75
390.436	15.34
390.646	12.5
390.855	13.64
391.065	12.72
391.274	12.46
391.484	10.36
391.693	11.84
391.903	7.5
392.112	6.64
392.322	6.1
392.531	4.78
392.74	3.7
392.95	3.98
393.159	6.02
393.369	7.99
393.578	8.51
393.787	9.26
393.997	10.76
394.206	9.73
394.415	8
394.625	8.13
394.834	6.59
395.043	6.12
395.252	7.15
395.462	6.72
395.671	5.35
395.88	7.19
396.089	5.77
396.298	4.36
396.508	3.94
396.717	3.93
396.926	2.82
397.135	2.8
397.344	2.69
397.553	3.21
397.762	3.58
397.971	3.14
398.181	2.79
398.39	3.69
398.599	4.07
398.808	3.62
399.017	4.81
399.226	5.7
399.435	5.48
399.644	5.84
399.853	6.02
400.062	4.96
400.27	4.78
400.479	4.64
400.688	4.34
400.897	4.26
401.106	4.19
401.315	4.02
401.524	3.71
401.733	3.16
401.941	3.12
402.15	3.39
402.359	3.38
402.568	3.74
402.777	3.89
402.985	3.64
403.194	3.67
403.403	3.66
403.612	3.35
403.82	3.32
404.029	3.47
404.238	3.39
404.446	3.42
404.655	3.38
404.864	3.76
405.072	3.77
405.281	3.9
405.489	3.9
405.698	4.09
405.906	3.89
406.115	4.07
406.324	3.85
406.532	3.82
406.741	3.67
406.949	3.65
407.158	3.61
407.366	3.73
407.574	3.74
407.783	3.73
407.991	3.82
408.2	3.87
408.408	3.84
408.617	3.67
408.825	3.84
409.033	3.89
409.242	3.83
409.45	3.85
409.658	3.9
409.867	3.73
410.075	3.59
410.283	3.41
410.491	3.27
410.7	3.41
410.908	3.39
411.116	3.53
411.324	3.71
411.533	3.73
411.741	3.7
411.949	3.89
412.157	3.68
412.365	3.82
412.573	3.97
412.781	3.9
412.99	3.82
413.198	3.96
413.406	3.73
413.614	3.74
413.822	3.67
414.03	3.64
414.238	3.59
414.446	3.56
414.654	3.61
414.862	3.64
415.07	3.63
415.278	3.63
415.486	3.52
415.694	3.45
415.902	3.54
416.109	3.46
416.317	3.51
416.525	3.62
416.733	3.53
416.941	3.53
417.149	3.55
417.357	3.5
417.564	3.54
417.772	3.7
417.98	3.68
418.188	3.55
418.395	3.42
418.603	3.36
418.811	3.33
419.019	3.17
419.226	3.46
419.434	3.62
419.642	3.49
419.849	3.31
420.057	3.31
420.265	3.27
420.472	3.16
420.68	3.26
420.887	3.44
421.095	3.45
421.302	3.2
421.51	3.19
421.717	3.24
421.925	3.31
422.132	3.36
422.34	3.47
422.547	3.4
422.755	3.42
422.962	3.26
423.17	3.14
423.377	3.17
423.585	3.25
423.792	3.11
423.999	3.12
424.207	3.13
424.414	3.21
424.621	3.18
424.829	3.13
425.036	3.1
425.243	3.22
425.451	3.21
425.658	3.15
425.865	3.28
426.072	3.29
426.28	3.26
426.487	3.24
426.694	3.36
426.901	3.28
427.108	3.29
427.315	3.18
427.523	3.18
427.73	3
427.937	2.99
428.144	2.96
428.351	3.11
428.558	3.1
428.765	3.1
428.972	3.19
429.179	3.05
429.386	3.1
429.593	3.19
429.8	3.26
430.007	3.33
430.214	3.49
430.421	3.46
430.628	3.4
430.835	3.46
431.042	3.41
431.249	3.33
431.456	3.21
431.662	3.15
431.869	3.26
432.076	3.32
432.283	3.33
432.49	3.28
432.697	3.19
432.903	3.04
433.11	2.99
433.317	3.04
433.524	3.18
433.73	3.16
433.937	3.21
434.144	3.1
434.35	3.2
434.557	3.11
434.764	3.14
434.97	3.08
435.177	3.26
435.384	3.12
435.59	3.36
435.797	3.45
436.003	3.56
436.21	3.52
436.416	3.43
436.623	3.31
436.829	3.28
437.036	3.1
437.242	3.18
437.449	3.36
437.655	3.32
437.862	3.32
438.068	3.5
438.275	3.46
438.481	3.26
438.687	3.22
438.894	3.32
439.1	3.16
439.307	3.17
439.513	3.37
439.719	3.41
439.926	3.36
440.132	3.41
440.338	3.28
440.544	3.15
440.751	3.13
440.957	3.12
441.163	3.14
441.369	3.26
441.575	3.32
441.782	3.39
441.988	3.38
442.194	3.38
442.4	3.34
442.606	3.36
442.812	3.37
443.018	3.3
443.224	3.29
443.431	3.33
443.637	3.3
443.843	3.28
444.049	3.37
444.255	3.43
444.461	3.4
444.667	3.47
444.873	3.47
445.079	3.46
445.284	3.41
445.49	3.47
445.696	3.45
445.902	3.48
446.108	3.53
446.314	3.57
446.52	3.53
446.726	3.53
446.931	3.59
447.137	3.48
447.343	3.54
447.549	3.51
447.755	3.49
447.96	3.44
448.166	3.48
448.372	3.44
448.578	3.51
448.783	3.47
448.989	3.4
449.195	3.45
449.4	3.52
449.606	3.43
449.812	3.43
450.017	3.53
450.223	3.46
450.428	3.4
450.634	3.43
450.84	3.48
451.045	3.43
451.251	3.52
451.456	3.49
451.662	3.55
451.867	3.63
452.073	3.66
452.278	3.62
452.483	3.65
452.689	3.61
452.894	3.57
453.1	3.53
453.305	3.55
453.51	3.64
453.716	3.65
453.921	3.65
454.127	3.7
454.332	3.73
454.537	3.65
454.742	3.67
454.948	3.59
455.153	3.65
455.358	3.69
455.563	3.72
455.769	3.68
455.974	3.73
456.179	3.58
456.384	3.43
456.589	3.46
456.795	3.5
457	3.51
457.205	3.6
457.41	3.66
457.615	3.67
457.82	3.72
458.025	3.71
458.23	3.68
458.435	3.67
458.64	3.55
458.845	3.47
459.05	3.43
459.255	3.49
459.46	3.52
459.665	3.67
459.87	3.73
460.075	3.84
460.28	3.83
460.485	3.82
460.69	3.79
460.895	3.78
461.099	3.76
461.304	3.74
461.509	3.72
461.714	3.72
461.919	3.78
462.123	3.85
462.328	3.93
462.533	4.07
462.738	4.09
462.942	4.02
463.147	3.94
463.352	3.89
463.556	3.85
463.761	3.8
463.966	3.85
464.17	3.88
464.375	3.96
464.58	3.94
464.784	4.01
464.989	3.95
465.193	4.02
465.398	3.96
465.602	4.01
465.807	4.01
466.011	4.12
466.216	4.01
466.42	4
466.625	4.01
466.829	3.96
467.034	3.97
467.238	4.03
467.443	4.09
467.647	4.04
467.851	3.98
468.056	3.93
468.26	3.98
468.464	3.92
468.669	3.94
