Data from Ofra_PS_Phys_8HS24_Reflection_2.txt Node
Date: Tue Jul 20 20:39:07 EDT 2021
User: USUARIO
Spectrometer: FLMT01687
Trigger mode: 0
Integration Time (sec): 1.042999E0
Scans to average: 2
Electric dark correction enabled: true
Nonlinearity correction enabled: false
Boxcar width: 2
XAxis mode: Wavelengths
Number of Pixels in Spectrum: 3648
>>>>>Begin Spectral Data<<<<<
179.494	-100
179.716	-84
179.937	-49.23
180.158	28.75
180.38	73.85
180.601	108.9
180.823	129.64
181.044	119.07
181.265	-1.12
181.486	180.75
181.708	240.61
181.929	289.43
182.15	446.53
182.372	40.06
182.593	36.69
182.814	-10.72
183.035	-4.74
183.257	-48.83
183.478	-316.59
183.699	-191.5
183.92	-59.38
184.141	-151.09
184.363	-39.39
184.584	8.73
184.805	11.62
185.026	20.4
185.247	-4.88
185.468	0.95
185.689	18.01
185.91	-5.21
186.132	-55.68
186.353	-23.31
186.574	-14.26
186.795	-18.46
187.016	38.5
187.237	49.43
187.458	56.46
187.679	52.3
187.9	60.19
188.121	42.17
188.342	48.76
188.563	51.16
188.784	56.91
189.005	33.55
189.226	46.79
189.447	53.91
189.667	56.65
189.888	48.42
190.109	96.34
190.33	102.27
190.551	82.18
190.772	142.29
190.993	90.26
191.214	72.47
191.434	87.05
191.655	79.76
191.876	52.98
192.097	64.76
192.318	57.72
192.538	52.42
192.759	49.82
192.98	37.13
193.201	19.66
193.421	30.19
193.642	39.92
193.863	36.08
194.083	48.08
194.304	56.91
194.525	49.01
194.745	43.11
194.966	35.89
195.187	33.71
195.407	12.73
195.628	-28.99
195.848	-38.57
196.069	8.77
196.29	11.9
196.51	14.72
196.731	41.87
196.951	32.11
197.172	21.76
197.392	16.14
197.613	36.42
197.833	39.64
198.054	58.18
198.274	58.93
198.495	75.9
198.715	56.77
198.936	38.16
199.156	26.3
199.377	28.64
199.597	18.78
199.817	24.73
200.038	19.22
200.258	35.26
200.479	37.62
200.699	57.18
200.919	60.42
201.14	75.64
201.36	71.18
201.58	109.2
201.801	55.74
202.021	38.47
202.241	40.02
202.461	27.56
202.682	29.01
202.902	10.17
203.122	10.38
203.342	-13.83
203.563	-22.21
203.783	-9.84
204.003	-5.42
204.223	29.7
204.443	32.49
204.663	55.27
204.884	38.92
205.104	49.13
205.324	43.3
205.544	52.6
205.764	37.66
205.984	52.45
206.204	59.26
206.424	61.19
206.644	58.14
206.864	54.12
207.084	43.82
207.304	27.07
207.525	4.32
207.745	18.2
207.964	6.36
208.184	20.9
208.404	12.16
208.624	28.82
208.844	31.4
209.064	30.11
209.284	13.61
209.504	10.08
209.724	1.08
209.944	-46.39
210.164	-9.63
210.384	11.52
210.604	24.35
210.823	14.38
211.043	31.13
211.263	28.44
211.483	9.58
211.703	0.82
211.922	21.74
212.142	10.64
212.362	29.86
212.582	23.78
212.801	27.81
213.021	22.26
213.241	38.89
213.461	42.5
213.68	56.52
213.9	35.68
214.12	29.92
214.339	-23.86
214.559	-8.9
214.779	4.9
214.998	22.37
215.218	31.04
215.438	32.09
215.657	34.5
215.877	43.25
216.096	36.24
216.316	13.6
216.535	26.75
216.755	24.76
216.974	7.83
217.194	3.55
217.413	23.18
217.633	25.91
217.852	22.76
218.072	33.63
218.291	23.03
218.511	36.46
218.73	27.62
218.95	37.51
219.169	36.26
219.389	45.04
219.608	37.67
219.827	40.91
220.047	23.96
220.266	6.43
220.485	11.86
220.705	11.56
220.924	0.19
221.143	4.19
221.363	7.01
221.582	6.52
221.801	11.73
222.021	19.55
222.24	13.97
222.459	21.65
222.678	17.9
222.897	8.98
223.117	10.91
223.336	28.98
223.555	34.91
223.774	42.88
223.993	56.49
224.213	51.5
224.432	45.58
224.651	46.72
224.87	37.91
225.089	23.55
225.308	18.96
225.527	30.59
225.746	17.71
225.965	37.06
226.184	40.87
226.404	45.73
226.623	22.36
226.842	15.12
227.061	14.33
227.28	-15.91
227.499	-6.76
227.718	-1.45
227.936	21.35
228.155	35.44
228.374	36.11
228.593	41.54
228.812	30.9
229.031	24.45
229.25	0.91
229.469	-5.67
229.688	-25.83
229.907	-13.42
230.125	-17.16
230.344	5.61
230.563	19.53
230.782	16.31
231.001	32.36
231.22	38.23
231.438	23.26
231.657	5
231.876	47.66
232.095	24.76
232.313	7.11
232.532	9.41
232.751	30.22
232.969	12.32
233.188	46.78
233.407	57.15
233.625	48.46
233.844	47.44
234.063	32.74
234.281	14.12
234.5	-1.35
234.719	-4.47
234.937	0.15
235.156	15.88
235.374	41.56
235.593	46.65
235.811	39.95
236.03	31.63
236.249	32.32
236.467	11.32
236.686	11.95
236.904	16.07
237.123	25.78
237.341	18.37
237.559	25.38
237.778	16.75
237.996	-3.88
238.215	-18.84
238.433	-0.05
238.652	0.36
238.87	1.39
239.088	26.55
239.307	17.1
239.525	12.92
239.743	12.24
239.962	30.24
240.18	16.22
240.398	40.81
240.617	39.77
240.835	22.57
241.053	19.31
241.271	18.42
241.49	1.7
241.708	9.79
241.926	13.31
242.144	19.59
242.363	23.98
242.581	37.06
242.799	34.94
243.017	57.81
243.235	59.26
243.453	51.79
243.672	55.3
243.89	46.43
244.108	32.79
244.326	16.99
244.544	30.8
244.762	36.57
244.98	42.63
245.198	37.3
245.416	36.89
245.634	32.38
245.852	25.2
246.07	20.75
246.288	11.49
246.506	7.64
246.724	-7.4
246.942	-6.93
247.16	-41.28
247.378	-20.61
247.596	2.03
247.814	5.92
248.032	10.48
248.25	30.27
248.468	14.85
248.685	3.5
248.903	0.43
249.121	0.59
249.339	2.58
249.557	24.79
249.775	42.26
249.992	39.66
250.21	47.27
250.428	33.9
250.646	29
250.863	3.04
251.081	-11.43
251.299	-4.62
251.517	7.39
251.734	-3.21
251.952	-25.36
252.17	-13.16
252.387	12.36
252.605	13.82
252.823	42.65
253.04	48.27
253.258	58.23
253.475	41.24
253.693	53.4
253.911	43.1
254.128	18.98
254.346	22.39
254.563	25.87
254.781	-8.09
254.998	23.42
255.216	37.75
255.433	1.8
255.651	23.01
255.868	72.66
256.086	40.66
256.303	31.32
256.521	52.22
256.738	29.22
256.956	7.79
257.173	-2.47
257.39	5.94
257.608	-1.34
257.825	13.05
258.043	26.27
258.26	34.35
258.477	50.95
258.695	54.21
258.912	59.11
259.129	58.52
259.346	65.6
259.564	41.41
259.781	46.72
259.998	36.88
260.216	35.94
260.433	25.57
260.65	39.98
260.867	39.7
261.084	26.19
261.302	16.8
261.519	33.78
261.736	24.1
261.953	14.7
262.17	10.44
262.387	23.31
262.604	20.18
262.822	28.01
263.039	32.52
263.256	40.42
263.473	37.18
263.69	26.8
263.907	31.86
264.124	21.79
264.341	30.91
264.558	17.23
264.775	17.42
264.992	-6.85
265.209	16.48
265.426	-10.79
265.643	-13.15
265.86	2.79
266.077	6.77
266.294	6.19
266.51	14.79
266.727	33.44
266.944	39.06
267.161	32.69
267.378	22.01
267.595	26.18
267.812	-13.31
268.028	-10.27
268.245	5.42
268.462	14.92
268.679	18.64
268.896	36.51
269.112	21.69
269.329	13.2
269.546	9.2
269.763	6.4
269.979	-2.29
270.196	-2.71
270.413	8.65
270.629	8.04
270.846	9.05
271.063	14.54
271.279	14.36
271.496	15.22
271.712	10.44
271.929	3.95
272.146	-9.84
272.362	-7.61
272.579	-1.22
272.795	14.02
273.012	-0.36
273.228	11.45
273.445	6.67
273.661	20.49
273.878	16.91
274.094	48.81
274.311	37.83
274.527	42.41
274.744	26.97
274.96	25.42
275.177	13.12
275.393	-8.99
275.609	-28.02
275.826	-4.77
276.042	-25.18
276.259	-0.79
276.475	34.25
276.691	34.38
276.908	11.62
277.124	35.25
277.34	41.56
277.557	41.52
277.773	36.76
277.989	29.11
278.205	32.51
278.422	11.71
278.638	21.36
278.854	31.1
279.07	36.59
279.286	32.26
279.503	28.29
279.719	7.22
279.935	15.42
280.151	17
280.367	12.3
280.583	24.46
280.799	28.67
281.016	22.13
281.232	23.77
281.448	28.48
281.664	18.71
281.88	13.33
282.096	11.71
282.312	17.48
282.528	18.77
282.744	34.99
282.96	55.4
283.176	48.63
283.392	21.48
283.608	25.96
283.824	21.18
284.04	11.61
284.256	23.63
284.471	46.14
284.687	36.94
284.903	37.12
285.119	26.71
285.335	-0.99
285.551	-5.25
285.767	-3.47
285.982	-5.61
286.198	3.46
286.414	26.37
286.63	24.2
286.846	31.55
287.061	10.83
287.277	14.46
287.493	6.97
287.709	-2.86
287.924	-4.12
288.14	8.94
288.356	6.32
288.571	-5.62
288.787	9.33
289.003	7.37
289.218	8.47
289.434	10.05
289.65	29.13
289.865	24.99
290.081	40.95
290.296	33.64
290.512	37.19
290.727	32.1
290.943	22.82
291.159	8.33
291.374	21.01
291.59	24.47
291.805	20.64
292.021	52.37
292.236	46.06
292.451	53.85
292.667	57.12
292.882	47.46
293.098	39.12
293.313	53.43
293.529	40.82
293.744	35.44
293.959	37.36
294.175	39.94
294.39	13.19
294.605	12.56
294.821	17.27
295.036	14.36
295.251	3.27
295.467	15.56
295.682	11.28
295.897	13.07
296.112	20.44
296.328	16.74
296.543	17.55
296.758	16.78
296.973	10.77
297.188	14.38
297.404	25.11
297.619	23.57
297.834	21.15
298.049	27.63
298.264	14.02
298.479	10.04
298.694	8.1
298.909	33.11
299.125	35.65
299.34	39.58
299.555	32.1
299.77	43.86
299.985	42.11
300.2	22.7
300.415	23.01
300.63	29.11
300.845	-3.34
301.06	1.3
301.275	17.01
301.49	21.03
301.704	17.76
301.919	33.74
302.134	8.13
302.349	0.8
302.564	-2.4
302.779	-9.02
302.994	-16.56
303.209	-13.65
303.423	-6.33
303.638	7.1
303.853	11.5
304.068	19.57
304.283	44.07
304.497	36
304.712	35.88
304.927	40.44
305.142	40.67
305.356	16.78
305.571	33.33
305.786	13.86
306	14.03
306.215	4.33
306.43	6.66
306.644	9.68
306.859	27.75
307.074	36.58
307.288	41.83
307.503	47.46
307.717	30.37
307.932	20.6
308.147	13.38
308.361	22.63
308.576	29.81
308.79	31.39
309.005	35.19
309.219	23.86
309.434	-8.16
309.648	-14.79
309.863	-17.19
310.077	0.83
310.292	-2.93
310.506	12.47
310.72	5.01
310.935	27.6
311.149	17.35
311.364	19.25
311.578	34.84
311.792	39.14
312.007	13.63
312.221	35.01
312.435	22.65
312.649	14.49
312.864	31.55
313.078	33.26
313.292	25.92
313.507	36.65
313.721	37.58
313.935	26.68
314.149	27.75
314.363	24.67
314.578	12.12
314.792	11.48
315.006	15.11
315.22	16.58
315.434	4.98
315.648	21.21
315.862	13.55
316.077	32.52
316.291	29.7
316.505	21.55
316.719	21.31
316.933	15.68
317.147	-8.68
317.361	-13.63
317.575	-6.19
317.789	-45.28
318.003	-39.94
318.217	-12.94
318.431	3.79
318.645	23
318.859	35.58
319.073	43.45
319.287	27.36
319.5	17.19
319.714	8.13
319.928	23.22
320.142	22.66
320.356	23.35
320.57	28.67
320.784	16.1
320.997	18.96
321.211	17.09
321.425	25.99
321.639	34.98
321.853	45.03
322.066	42.09
322.28	45.83
322.494	49.23
322.707	45.94
322.921	40.7
323.135	27.88
323.349	16.92
323.562	0.83
323.776	-5.04
323.989	5.37
324.203	10.5
324.417	19.56
324.63	34.8
324.844	42.42
325.057	46.42
325.271	62.47
325.485	50.5
325.698	32.22
325.912	19.44
326.125	27.8
326.339	13.02
326.552	14.71
326.766	26.81
326.979	41.86
327.193	51.68
327.406	48.13
327.619	43.57
327.833	20.05
328.046	12.87
328.26	1.04
328.473	16.81
328.686	15.58
328.9	32.65
329.113	24.69
329.326	38.05
329.54	20.05
329.753	30.97
329.966	34.16
330.179	30.72
330.393	15.71
330.606	21.27
330.819	6.18
331.032	15.17
331.246	37.98
331.459	45.13
331.672	33.62
331.885	49.25
332.098	48.29
332.311	24.99
332.525	40.31
332.738	56.49
332.951	48.01
333.164	38.49
333.377	57.57
333.59	32.96
333.803	24.12
334.016	26.22
334.229	20.98
334.442	5.84
334.655	13.4
334.868	4.18
335.081	8.26
335.294	16.61
335.507	18.09
335.72	21.3
335.933	27.01
336.146	30.26
336.359	19.85
336.572	24.55
336.785	49.64
336.997	45.86
337.21	38.61
337.423	57.87
337.636	45.29
337.849	22.82
338.062	36.82
338.274	38.03
338.487	25.5
338.7	34.14
338.913	36.27
339.125	22.7
339.338	5.6
339.551	17.3
339.763	3.97
339.976	-8.5
340.189	-26.99
340.402	-3.31
340.614	-13.77
340.827	-13.13
341.039	-9.06
341.252	12.2
341.465	22.7
341.677	14.35
341.89	17.2
342.102	16.92
342.315	22.89
342.527	26.2
342.74	37.58
342.952	41.94
343.165	32.58
343.377	24.63
343.59	18.21
343.802	15.98
344.015	14.65
344.227	15.09
344.44	10.11
344.652	5.34
344.864	9.02
345.077	-13.35
345.289	4.71
345.502	12.71
345.714	-9.29
345.926	-46.12
346.139	-19.36
346.351	-28.71
346.563	-6.8
346.775	-6.54
346.988	9.21
347.2	13.61
347.412	28.57
347.624	20.77
347.837	35.44
348.049	41.06
348.261	43.12
348.473	16.28
348.685	3.82
348.897	-0.05
349.11	4.04
349.322	-1.89
349.534	17.62
349.746	15.11
349.958	14.8
350.17	11.75
350.382	25.55
350.594	22.15
350.806	25.53
351.018	41.56
351.23	39.67
351.442	41.38
351.654	32.98
351.866	35.34
352.078	32.31
352.29	35.23
352.502	32.61
352.714	29.11
352.926	33.93
353.138	22.09
353.35	15.32
353.561	2.94
353.773	7.01
353.985	6.03
354.197	26.12
354.409	28.98
354.621	34.98
354.832	36.67
355.044	33.53
355.256	31.7
355.468	21.43
355.679	7.66
355.891	16.54
356.103	20.09
356.314	10.7
356.526	34.57
356.738	39.7
356.949	31.37
357.161	22.25
357.373	27.05
357.584	12.23
357.796	13.48
358.008	15.91
358.219	18.64
358.431	10.54
358.642	16.38
358.854	12.13
359.065	1.59
359.277	-0.05
359.488	10.31
359.7	9.4
359.911	24.63
360.123	35.2
360.334	28.79
360.546	40.01
360.757	40.57
360.969	26.53
361.18	25.32
361.391	32.96
361.603	28.47
361.814	21.19
362.025	24.6
362.237	23.25
362.448	11.88
362.659	7.05
362.871	15.79
363.082	14.57
363.293	5.41
363.504	10.82
363.716	8.81
363.927	2.69
364.138	8.57
364.349	16.18
364.56	16.94
364.772	15.62
364.983	7.91
365.194	-1.84
365.405	-14.35
365.616	-8.63
365.827	-13.99
366.038	-10.42
366.25	-8.13
366.461	12.69
366.672	12.27
366.883	5
367.094	11.98
367.305	5.82
367.516	-8.27
367.727	-2.84
367.938	16.72
368.149	10.85
368.36	33.56
368.571	35.27
368.781	24.66
368.992	30
369.203	38.03
369.414	16.39
369.625	1.3
369.836	20.01
370.047	15.62
370.258	7.27
370.468	31.71
370.679	39.98
370.89	22.11
371.101	27.68
371.312	25.53
371.522	11.39
371.733	10.14
371.944	12.78
372.155	8.72
372.365	9.18
372.576	9.19
372.787	9.32
372.997	10.44
373.208	6.76
373.419	8.79
373.629	-4.58
373.84	-7.44
374.05	9.28
374.261	16.04
374.472	13.63
374.682	22.8
374.893	24.08
375.103	10.97
375.314	9.26
375.524	18.28
375.735	19.67
375.945	16.73
376.156	28.45
376.366	29.7
376.577	19.71
376.787	18.82
376.997	23.22
377.208	18.15
377.418	17.06
377.629	19.37
377.839	19.24
378.049	25.17
378.26	34.68
378.47	24.77
378.68	20.09
378.89	18.85
379.101	-0.51
379.311	-15.75
379.521	7.95
379.732	12.19
379.942	24.66
380.152	28.34
380.362	34.72
380.572	29.66
380.783	34.56
380.993	27.91
381.203	22.46
381.413	4.63
381.623	1.9
381.833	3.49
382.043	-0.54
382.253	8.34
382.463	20.66
382.674	22.36
382.884	17.43
383.094	22.5
383.304	25.87
383.514	25.21
383.724	18.38
383.934	21.65
384.144	22.48
384.353	18.35
384.563	14.22
384.773	25.34
384.983	19.7
385.193	20.32
385.403	16
385.613	20.63
385.823	9.76
386.033	8.4
386.242	3.21
386.452	6.93
386.662	4.07
386.872	10.73
387.082	12.61
387.291	16.3
387.501	17.33
387.711	14.97
387.921	13.22
388.13	15.8
388.34	9.51
388.55	1.87
388.759	-1.05
388.969	-1.98
389.179	-1.41
389.388	1.24
389.598	6.33
389.807	13.01
390.017	11.03
390.227	6.61
390.436	10.2
390.646	9.61
390.855	7.43
391.065	7.28
391.274	6.83
391.484	6.51
391.693	8.22
391.903	6.74
392.112	6.46
392.322	7.68
392.531	5.35
392.74	4.55
392.95	4.06
393.159	3.82
393.369	5.37
393.578	2.81
393.787	3.45
393.997	5.64
394.206	5.7
394.415	5.07
394.625	7.76
394.834	6.31
395.043	4.78
395.252	5.68
395.462	5.77
395.671	3.83
395.88	4.72
396.089	3.7
396.298	4.07
396.508	3.48
396.717	4.1
396.926	3.78
397.135	4.81
397.344	3.38
397.553	4.21
397.762	4.48
397.971	3.94
398.181	3.58
398.39	4.47
398.599	3.62
398.808	3.24
399.017	4.15
399.226	5.04
399.435	4.78
399.644	5.67
399.853	6.15
400.062	5.86
400.27	5.22
400.479	5.49
400.688	5.19
400.897	5.06
401.106	4.67
401.315	4.75
401.524	4.43
401.733	3.91
401.941	3.38
402.15	3.42
402.359	3.37
402.568	3.62
402.777	3.6
402.985	3.8
403.194	4.01
403.403	4.13
403.612	3.82
403.82	3.76
404.029	3.81
404.238	3.74
404.446	3.5
404.655	3.39
404.864	3.67
405.072	3.65
405.281	3.71
405.489	3.8
405.698	4.03
405.906	3.97
406.115	4.08
406.324	3.92
406.532	3.74
406.741	3.7
406.949	3.88
407.158	3.76
407.366	3.7
407.574	3.73
407.783	3.59
407.991	3.36
408.2	3.45
408.408	3.58
408.617	3.61
408.825	3.85
409.033	3.92
409.242	3.76
409.45	3.75
409.658	3.73
409.867	3.6
410.075	3.64
410.283	3.6
410.491	3.51
410.7	3.76
410.908	3.67
411.116	3.67
411.324	3.84
411.533	3.85
411.741	3.65
411.949	3.81
412.157	3.8
412.365	3.95
412.573	3.86
412.781	3.8
412.99	3.73
413.198	3.69
413.406	3.42
413.614	3.46
413.822	3.46
414.03	3.44
414.238	3.38
414.446	3.39
414.654	3.42
414.862	3.48
415.07	3.51
415.278	3.44
415.486	3.43
415.694	3.43
415.902	3.37
416.109	3.29
416.317	3.36
416.525	3.29
416.733	3.21
416.941	3.16
417.149	3.17
417.357	3.16
417.564	3.24
417.772	3.44
417.98	3.61
418.188	3.58
418.395	3.57
418.603	3.51
418.811	3.25
419.019	3.07
419.226	3.24
419.434	3.26
419.642	3.05
419.849	2.96
420.057	2.91
420.265	2.73
420.472	2.61
420.68	2.74
420.887	3.02
421.095	3.08
421.302	3.03
421.51	3.12
421.717	3.21
421.925	3.25
422.132	3.28
422.34	3.22
422.547	3.15
422.755	3.22
422.962	3.14
423.17	3.02
423.377	3.15
423.585	3.22
423.792	3.06
423.999	3.11
424.207	3.04
424.414	3.07
424.621	2.91
424.829	2.83
425.036	2.72
425.243	2.97
425.451	2.87
425.658	2.88
425.865	3.05
426.072	3.13
426.28	3.12
426.487	3.24
426.694	3.31
426.901	3.33
427.108	3.2
427.315	3.11
427.523	3.08
427.73	3.16
427.937	3.12
428.144	3.11
428.351	3.07
428.558	3.07
428.765	2.97
428.972	3.11
429.179	3.1
429.386	3.38
429.593	3.39
429.8	3.41
430.007	3.27
430.214	3.36
430.421	3.18
430.628	3.2
430.835	3.16
431.042	3.19
431.249	3.27
431.456	3.24
431.662	3.24
431.869	3.26
432.076	3.35
432.283	3.31
432.49	3.26
432.697	3.24
432.903	3.2
433.11	3.07
433.317	3.11
433.524	3.1
433.73	2.94
433.937	3.05
434.144	3.12
434.35	3.13
434.557	3.19
434.764	3.18
434.97	3.07
435.177	2.99
435.384	2.88
435.59	2.85
435.797	3
436.003	3.16
436.21	3.37
436.416	3.3
436.623	3.24
436.829	3.27
437.036	3.2
437.242	3.12
437.449	3.35
437.655	3.38
437.862	3.35
438.068	3.46
438.275	3.38
438.481	3.32
438.687	3.25
438.894	3.15
439.1	2.99
439.307	3.13
439.513	3.14
439.719	3.25
439.926	3.4
440.132	3.54
440.338	3.4
440.544	3.3
440.751	3.29
440.957	3.23
441.163	3.24
441.369	3.38
441.575	3.44
441.782	3.5
441.988	3.55
442.194	3.46
442.4	3.41
442.606	3.47
442.812	3.45
443.018	3.41
443.224	3.41
443.431	3.39
443.637	3.32
443.843	3.31
444.049	3.25
444.255	3.29
444.461	3.31
444.667	3.38
444.873	3.47
445.079	3.57
445.284	3.56
445.49	3.56
445.696	3.52
445.902	3.51
446.108	3.58
446.314	3.54
446.52	3.49
446.726	3.59
446.931	3.59
447.137	3.57
447.343	3.63
447.549	3.71
447.755	3.62
447.96	3.65
448.166	3.65
448.372	3.71
448.578	3.76
448.783	3.68
448.989	3.58
449.195	3.49
449.4	3.5
449.606	3.43
449.812	3.51
450.017	3.57
450.223	3.6
450.428	3.54
450.634	3.52
450.84	3.55
451.045	3.64
451.251	3.73
451.456	3.67
451.662	3.71
451.867	3.77
452.073	3.75
452.278	3.63
452.483	3.71
452.689	3.67
452.894	3.78
453.1	3.78
453.305	3.85
453.51	3.89
453.716	3.92
453.921	3.83
454.127	3.81
454.332	3.84
454.537	3.81
454.742	3.76
454.948	3.72
455.153	3.77
455.358	3.8
455.563	3.86
455.769	3.82
455.974	3.85
456.179	3.83
456.384	3.68
456.589	3.58
456.795	3.7
457	3.63
457.205	3.61
457.41	3.63
457.615	3.69
457.82	3.68
458.025	3.65
458.23	3.66
458.435	3.76
458.64	3.72
458.845	3.75
459.05	3.68
459.255	3.66
459.46	3.7
459.665	3.78
459.87	3.76
460.075	3.83
460.28	3.9
460.485	3.91
460.69	3.91
460.895	3.94
461.099	4.04
461.304	3.96
461.509	3.84
461.714	3.84
461.919	3.85
462.123	3.81
462.328	3.81
462.533	3.91
462.738	3.9
462.942	3.87
463.147	3.83
463.352	3.92
463.556	3.85
463.761	3.84
463.966	3.84
464.17	3.8
464.375	3.89
464.58	4
464.784	4.06
464.989	3.98
465.193	4.1
465.398	4
465.602	3.96
465.807	3.97
466.011	4.04
466.216	4.01
466.42	3.99
466.625	4.14
466.829	4.1
467.034	4.1
467.238	4.14
467.443	4.13
467.647	3.95
467.851	3.96
468.056	4
468.26	4.01
468.464	4.04
468.669	4
468.873	4.05
469.077	4.01
469.282	4.03
