Data from Ofra_PS_Phys_2CX10_Reflection_2.txt Node
Date: Tue Jul 20 14:48:10 EDT 2021
User: USUARIO
Spectrometer: FLMT01687
Trigger mode: 0
Integration Time (sec): 1.200000E0
Scans to average: 2
Electric dark correction enabled: true
Nonlinearity correction enabled: false
Boxcar width: 2
XAxis mode: Wavelengths
Number of Pixels in Spectrum: 3648
>>>>>Begin Spectral Data<<<<<
179.494	76.88
179.716	287.88
179.937	88.21
180.158	90.01
180.38	130.38
180.601	191.16
180.823	796.71
181.044	494.56
181.265	-224.62
181.486	118.01
181.708	-479.4
181.929	-177.26
182.15	357.79
182.372	-913.82
182.593	224.35
182.814	-5493.33
183.035	12.65
183.257	50.13
183.478	10.17
183.699	54.18
183.92	64.04
184.141	48.37
184.363	39.75
184.584	30.46
184.805	23.05
185.026	32.05
185.247	39.43
185.468	46.08
185.689	44.72
185.91	43.76
186.132	57.17
186.353	52.2
186.574	44.34
186.795	48.87
187.016	49.51
187.237	53.42
187.458	50.71
187.679	67.31
187.9	77.1
188.121	59.42
188.342	58.94
188.563	70.04
188.784	50.05
189.005	47.68
189.226	62.16
189.447	34.51
189.667	19.17
189.888	22.94
190.109	18.24
190.33	28.03
190.551	36.98
190.772	44.16
190.993	46.84
191.214	47.53
191.434	43.78
191.655	54.3
191.876	51.17
192.097	36.06
192.318	44.34
192.538	48.18
192.759	33.7
192.98	46.34
193.201	50.04
193.421	29.33
193.642	41.71
193.863	48.82
194.083	50.27
194.304	56.82
194.525	62.51
194.745	52.01
194.966	41.51
195.187	21.78
195.407	-3.19
195.628	18.19
195.848	24.95
196.069	32.71
196.29	32.47
196.51	54.87
196.731	37.87
196.951	18.14
197.172	24.51
197.392	38.34
197.613	22.1
197.833	29.06
198.054	44.03
198.274	47.4
198.495	41.52
198.715	34.01
198.936	64.57
199.156	80.25
199.377	-19.73
199.597	-42.85
199.817	18.05
200.038	-9.56
200.258	-4.35
200.479	50.92
200.699	61.28
200.919	79.52
201.14	84.67
201.36	75.57
201.58	74
201.801	69.91
202.021	49.29
202.241	44.64
202.461	45.53
202.682	43.95
202.902	38.25
203.122	37.58
203.342	34.4
203.563	29.86
203.783	26.26
204.003	23.9
204.223	39.35
204.443	50.6
204.663	56.11
204.884	78.93
205.104	80.48
205.324	70.93
205.544	53.68
205.764	55.86
205.984	39.36
206.204	27.02
206.424	23.81
206.644	17.42
206.864	7.32
207.084	11.52
207.304	47.73
207.525	47.19
207.745	55.85
207.964	56.61
208.184	62.18
208.404	40.11
208.624	40.6
208.844	29.88
209.064	30.69
209.284	26.38
209.504	27.47
209.724	17.13
209.944	31.7
210.164	40.6
210.384	46.5
210.604	62.51
210.823	67.61
211.043	61.47
211.263	47.56
211.483	30.14
211.703	29.45
211.922	32.26
212.142	43.1
212.362	30.53
212.582	31.54
212.801	48.09
213.021	51.69
213.241	50.84
213.461	47.95
213.68	59.43
213.9	60.75
214.12	52.03
214.339	45.84
214.559	45.37
214.779	53.53
214.998	41.12
215.218	44.2
215.438	47.85
215.657	58.34
215.877	48.19
216.096	35.51
216.316	33.6
216.535	37.17
216.755	51.78
216.974	47.64
217.194	56.57
217.413	51.71
217.633	46.71
217.852	44.23
218.072	37.8
218.291	30.06
218.511	35.23
218.73	14.69
218.95	24.11
219.169	17.93
219.389	25.56
219.608	20.55
219.827	49.46
220.047	36.39
220.266	60.97
220.485	54.69
220.705	61.56
220.924	49.79
221.143	58.16
221.363	50.73
221.582	56.91
221.801	44.72
222.021	48.5
222.24	32.31
222.459	24.02
222.678	20.67
222.897	37.88
223.117	40.5
223.336	42.4
223.555	41.25
223.774	45.17
223.993	31.63
224.213	33.93
224.432	53.46
224.651	72.74
224.87	60.68
225.089	62.12
225.308	58.67
225.527	38.67
225.746	30.93
225.965	35
226.184	42.67
226.404	40.81
226.623	53.05
226.842	49.81
227.061	52.73
227.28	63.74
227.499	78.12
227.718	79.04
227.936	72.1
228.155	77.57
228.374	61.65
228.593	48.44
228.812	48.12
229.031	43.82
229.25	29.08
229.469	31.13
229.688	26.91
229.907	25.92
230.125	29.38
230.344	26.87
230.563	39.19
230.782	39.89
231.001	32.64
231.22	47.8
231.438	70.15
231.657	58.02
231.876	84.48
232.095	85.98
232.313	79.12
232.532	79.18
232.751	74.71
232.969	74.71
233.188	69.18
233.407	49.25
233.625	9.61
233.844	11.84
234.063	4.51
234.281	5.4
234.5	16.32
234.719	30.62
234.937	32.62
235.156	40.35
235.374	48.58
235.593	49.11
235.811	51.83
236.03	57.74
236.249	48.07
236.467	48.77
236.686	38.16
236.904	37.33
237.123	32.22
237.341	32.79
237.559	31.21
237.778	50.09
237.996	60.33
238.215	71.38
238.433	62.1
238.652	71.88
238.87	66.92
239.088	55.94
239.307	56.92
239.525	74.08
239.743	56.86
239.962	32.3
240.18	39.34
240.398	24.97
240.617	23.2
240.835	32.22
241.053	45.3
241.271	44.43
241.49	56.3
241.708	61.56
241.926	60.82
242.144	54.75
242.363	57.94
242.581	49.87
242.799	52.15
243.017	35.6
243.235	45.22
243.453	42.06
243.672	42.63
243.89	32.78
244.108	42.72
244.326	48.7
244.544	43.67
244.762	53.56
244.98	44.44
245.198	45.61
245.416	41.5
245.634	55.77
245.852	45.97
246.07	53.32
246.288	48.15
246.506	46.78
246.724	31.06
246.942	28.51
247.16	45.1
247.378	51.48
247.596	43.83
247.814	48.65
248.032	52.32
248.25	42.41
248.468	37.63
248.685	47.51
248.903	46.09
249.121	60.29
249.339	50.03
249.557	42.81
249.775	40.66
249.992	36.21
250.21	30.51
250.428	45.06
250.646	47.45
250.863	49.4
251.081	49.77
251.299	55.99
251.517	52.06
251.734	52.25
251.952	31.39
252.17	40.42
252.387	25.53
252.605	28.72
252.823	20.32
253.04	33.36
253.258	36.55
253.475	41.88
253.693	43.47
253.911	49.72
254.128	48.35
254.346	47.62
254.563	30.88
254.781	33.56
254.998	18.88
255.216	32.02
255.433	24.47
255.651	38.63
255.868	49.01
256.086	47.68
256.303	48.29
256.521	49.01
256.738	49.92
256.956	22.44
257.173	22.36
257.39	25.24
257.608	16.17
257.825	12.15
258.043	27.56
258.26	23.45
258.477	15.18
258.695	18.9
258.912	33.45
259.129	29.42
259.346	33.72
259.564	26.45
259.781	14.33
259.998	27.37
260.216	25.83
260.433	41.48
260.65	55.84
260.867	72.88
261.084	46.18
261.302	47.36
261.519	30.08
261.736	13.98
261.953	7.34
262.17	26.91
262.387	32.53
262.604	44.08
262.822	60.84
263.039	53.56
263.256	49.37
263.473	39.62
263.69	27.38
263.907	14.41
264.124	19.95
264.341	25.76
264.558	39
264.775	49.4
264.992	42.48
265.209	63.17
265.426	85.34
265.643	78
265.86	70.61
266.077	80.38
266.294	63.88
266.51	44.2
266.727	49.24
266.944	48.3
267.161	45.92
267.378	56.79
267.595	53.43
267.812	32.39
268.028	28.19
268.245	24.65
268.462	16.37
268.679	19.57
268.896	38.88
269.112	50.35
269.329	58.92
269.546	60.03
269.763	63.08
269.979	63.27
270.196	69.01
270.413	65.44
270.629	60.2
270.846	48.56
271.063	34.58
271.279	34.7
271.496	16.68
271.712	31.42
271.929	34.73
272.146	43.07
272.362	36.23
272.579	43.46
272.795	38.04
273.012	32.38
273.228	29.04
273.445	33.24
273.661	38.52
273.878	27.7
274.094	21.83
274.311	13.62
274.527	11.76
274.744	-5.92
274.96	12.33
275.177	16.85
275.393	7.3
275.609	17.51
275.826	39.02
276.042	33.06
276.259	43.42
276.475	59.37
276.691	52.18
276.908	36.95
277.124	55.3
277.34	29.31
277.557	24.97
277.773	20.01
277.989	31.82
278.205	22.92
278.422	40.22
278.638	37.07
278.854	50.98
279.07	40.97
279.286	39.38
279.503	27.24
279.719	21.36
279.935	18.86
280.151	20.61
280.367	25.68
280.583	32.31
280.799	43.25
281.016	53.84
281.232	51.64
281.448	54.78
281.664	54.08
281.88	57.63
282.096	47.2
282.312	58.51
282.528	57.2
282.744	57.67
282.96	51.75
283.176	51.87
283.392	38.72
283.608	30.71
283.824	31.6
284.04	25.54
284.256	23.91
284.471	23.65
284.687	15.3
284.903	20.41
285.119	36.4
285.335	45.67
285.551	61.1
285.767	65.3
285.982	63.32
286.198	57.51
286.414	52.02
286.63	44.4
286.846	44.17
287.061	42.89
287.277	34.1
287.493	45.32
287.709	52.96
287.924	59.18
288.14	48.16
288.356	60.68
288.571	59.06
288.787	52.75
289.003	50.9
289.218	52.62
289.434	38.24
289.65	25.3
289.865	14.29
290.081	25.98
290.296	17.96
290.512	13.56
290.727	8.61
290.943	18.61
291.159	11.11
291.374	23.74
291.59	26.32
291.805	29.69
292.021	21.24
292.236	18.29
292.451	21.76
292.667	34.76
292.882	40.37
293.098	55.6
293.313	61.97
293.529	49.55
293.744	34.09
293.959	34.19
294.175	30.13
294.39	18.42
294.605	32.21
294.821	37.1
295.036	43.89
295.251	51.45
295.467	50.13
295.682	49.65
295.897	56.41
296.112	57.09
296.328	40.95
296.543	45.69
296.758	39.31
296.973	37.2
297.188	39.74
297.404	49.3
297.619	62.06
297.834	67.49
298.049	68.8
298.264	63.89
298.479	80.28
298.694	54.93
298.909	56.47
299.125	68.11
299.34	50.5
299.555	34.11
299.77	49.03
299.985	24.54
300.2	11.26
300.415	16.32
300.63	19.39
300.845	19.46
301.06	40.58
301.275	37.52
301.49	38.61
301.704	33.42
301.919	28.35
302.134	18.73
302.349	19.29
302.564	18.99
302.779	8.2
302.994	1.07
303.209	19.4
303.423	18.01
303.638	18.45
303.853	36.01
304.068	41.05
304.283	20.44
304.497	38.11
304.712	39.79
304.927	52.76
305.142	49.5
305.356	44.11
305.571	33.32
305.786	27.81
306	12.65
306.215	4.42
306.43	24.55
306.644	27.15
306.859	34.59
307.074	33.64
307.288	32.68
307.503	33.4
307.717	33.16
307.932	27.9
308.147	29.28
308.361	39.67
308.576	37.82
308.79	37.37
309.005	44.84
309.219	43.76
309.434	37.73
309.648	41.47
309.863	33.56
310.077	23.68
310.292	22.97
310.506	23.4
310.72	18.08
310.935	26
311.149	23.44
311.364	46.75
311.578	57.28
311.792	54.96
312.007	55.38
312.221	60.94
312.435	67.19
312.649	57.3
312.864	75.5
313.078	69.57
313.292	71.97
313.507	60.46
313.721	55.1
313.935	37.13
314.149	31.37
314.363	23.96
314.578	16.9
314.792	14.23
315.006	22.65
315.22	24.11
315.434	38.02
315.648	51.01
315.862	61.36
316.077	46.08
316.291	42.16
316.505	31.34
316.719	15.89
316.933	19.24
317.147	23.97
317.361	36.27
317.575	38.62
317.789	33.53
318.003	14.61
318.217	4.79
318.431	-3.3
318.645	5.88
318.859	-3.12
319.073	13.04
319.287	5.76
319.5	7.6
319.714	18.29
319.928	33.28
320.142	45.21
320.356	55.64
320.57	60.11
320.784	50.59
320.997	50.42
321.211	32.89
321.425	31.68
321.639	8.66
321.853	25.53
322.066	17.87
322.28	20.78
322.494	22.8
322.707	51.9
322.921	28.35
323.135	25.66
323.349	25.93
323.562	30.16
323.776	17.75
323.989	28.49
324.203	23.42
324.417	31.83
324.63	27.29
324.844	33.16
325.057	38.86
325.271	41.81
325.485	34.4
325.698	26.31
325.912	33.36
326.125	23.55
326.339	25.04
326.552	29.78
326.766	28.34
326.979	33.68
327.193	37.8
327.406	39.95
327.619	34.81
327.833	54.57
328.046	42.98
328.26	41.98
328.473	39.88
328.686	39.38
328.9	37.4
329.113	40.64
329.326	30.36
329.54	35.17
329.753	44.99
329.966	40.55
330.179	40.37
330.393	38.85
330.606	34.82
330.819	22.8
331.032	23.77
331.246	21.27
331.459	43.02
331.672	39.28
331.885	45.4
332.098	42.21
332.311	43.96
332.525	25.77
332.738	37.61
332.951	47.39
333.164	47.74
333.377	41.65
333.59	51.2
333.803	48.93
334.016	40.13
334.229	43.51
334.442	56.56
334.655	43.4
334.868	55.79
335.081	51.41
335.294	58.49
335.507	50.3
335.72	61.99
335.933	43.72
336.146	53.89
336.359	50.58
336.572	56.19
336.785	45.73
336.997	57.59
337.21	43.85
337.423	25.12
337.636	12.31
337.849	24.24
338.062	9.87
338.274	16.43
338.487	28.98
338.7	21.79
338.913	8.36
339.125	9.67
339.338	-2.35
339.551	-8.69
339.763	0.36
339.976	14.48
340.189	20.41
340.402	29.5
340.614	17.98
340.827	21.25
341.039	14.65
341.252	26.19
341.465	21.09
341.677	28.94
341.89	22.44
342.102	17.99
342.315	18
342.527	32.43
342.74	33.07
342.952	46.75
343.165	47.76
343.377	34.91
343.59	21.56
343.802	36.3
344.015	31.23
344.227	40.51
344.44	50.37
344.652	61.16
344.864	42.43
345.077	40.12
345.289	50.85
345.502	55.21
345.714	45
345.926	53.51
346.139	45.89
346.351	27.69
346.563	32.26
346.775	36.48
346.988	34.88
347.2	30.35
347.412	33.83
347.624	42.06
347.837	40.07
348.049	41.05
348.261	43.7
348.473	47.17
348.685	34.59
348.897	31.99
349.11	27.17
349.322	27.87
349.534	31.96
349.746	32.13
349.958	39.79
350.17	47.3
350.382	45.61
350.594	32.16
350.806	33.13
351.018	30.05
351.23	25.7
351.442	37.38
351.654	40.5
351.866	43.94
352.078	52.53
352.29	42.41
352.502	32.52
352.714	29.82
352.926	30.58
353.138	30.77
353.35	33.09
353.561	37.73
353.773	47.05
353.985	41.76
354.197	31.45
354.409	34.76
354.621	29.42
354.832	15.17
355.044	16.96
355.256	28.42
355.468	23.22
355.679	23.73
355.891	42.94
356.103	47.76
356.314	36.15
356.526	36.7
356.738	26.56
356.949	22.04
357.161	27.47
357.373	39.69
357.584	38.82
357.796	49.92
358.008	43.58
358.219	43.32
358.431	33.12
358.642	49.64
358.854	53.25
359.065	59.95
359.277	48.7
359.488	51.39
359.7	40.12
359.911	32.53
360.123	34.45
360.334	41.76
360.546	51.81
360.757	41.48
360.969	45.04
361.18	48.04
361.391	46.24
361.603	38.48
361.814	43.93
362.025	37.38
362.237	29.96
362.448	22.4
362.659	16.45
362.871	10.4
363.082	6.32
363.293	8.53
363.504	6.72
363.716	17.44
363.927	22.31
364.138	27.51
364.349	25.45
364.56	20.58
364.772	14.35
364.983	18.92
365.194	23.03
365.405	21.71
365.616	30.11
365.827	30.05
366.038	27.55
366.25	26.33
366.461	31.9
366.672	31.88
366.883	38.33
367.094	42.18
367.305	38.97
367.516	39.39
367.727	47.39
367.938	45.71
368.149	47.37
368.36	47.42
368.571	35.17
368.781	28.1
368.992	20.5
369.203	9.81
369.414	-0.63
369.625	5.43
369.836	9.81
370.047	10.34
370.258	22.91
370.468	31.99
370.679	29.86
370.89	26.65
371.101	27.85
371.312	15.13
371.522	13.69
371.733	19.1
371.944	20.41
372.155	29.19
372.365	39.52
372.576	30.17
372.787	31.85
372.997	32.77
373.208	17.4
373.419	17.76
373.629	18.98
373.84	24.05
374.05	25.26
374.261	37.79
374.472	29.75
374.682	34.67
374.893	33.26
375.103	39.2
375.314	35.37
375.524	36.67
375.735	29.86
375.945	32.25
376.156	28.61
376.366	26.01
376.577	31.17
376.787	36.16
376.997	33.83
377.208	25.68
377.418	19.84
377.629	24.45
377.839	29.77
378.049	28.62
378.26	32.31
378.47	44.32
378.68	46.21
378.89	42.63
379.101	35
379.311	33.78
379.521	29.14
379.732	23.94
379.942	25.9
380.152	25.8
380.362	20.27
380.572	24.41
380.783	36.81
380.993	40.75
381.203	37.5
381.413	47.17
381.623	43.61
381.833	36.65
382.043	30.16
382.253	22.41
382.463	20.12
382.674	17.02
382.884	17.58
383.094	20.55
383.304	33.64
383.514	36.71
383.724	45.23
383.934	42.78
384.144	41.31
384.353	35.16
384.563	29.88
384.773	26.64
384.983	32.06
385.193	31.89
385.403	30.6
385.613	30.78
385.823	26.24
386.033	15.72
386.242	17.01
386.452	22.61
386.662	16.98
386.872	19.26
387.082	20.29
387.291	18.79
387.501	17.66
387.711	18.13
387.921	20.84
388.13	22.61
388.34	24.22
388.55	22.39
388.759	20.59
388.969	18.4
389.179	17.81
389.388	17.53
389.598	16.02
389.807	18.84
390.017	19.92
390.227	20.32
390.436	17.83
390.646	16.11
390.855	15.57
391.065	12.58
391.274	14.03
391.484	16.48
391.693	18.45
391.903	19.82
392.112	20.63
392.322	18.59
392.531	15.83
392.74	16.5
392.95	14.23
393.159	13.34
393.369	14.28
393.578	14.68
393.787	12.81
393.997	12.73
394.206	14.13
394.415	13.57
394.625	13.04
394.834	13.59
395.043	14.1
395.252	12.96
395.462	12.61
395.671	13.19
395.88	12.57
396.089	11.75
396.298	11
396.508	11.26
396.717	10.59
396.926	11.07
397.135	10.51
397.344	10.8
397.553	10.88
397.762	11.17
397.971	10.54
398.181	10.75
398.39	10.26
398.599	9.36
398.808	9
399.017	9.34
399.226	10.22
399.435	10.45
399.644	10.42
399.853	10.61
400.062	10.35
400.27	9.7
400.479	9.36
400.688	9.77
400.897	9.44
401.106	9.48
401.315	9.26
401.524	9.42
401.733	9.25
401.941	9.67
402.15	9.69
402.359	9.95
402.568	10.04
402.777	10.13
402.985	9.96
403.194	9.81
403.403	9.67
403.612	9.53
403.82	9.33
404.029	9.01
404.238	9.14
404.446	9.17
404.655	9.18
404.864	9.12
405.072	9.16
405.281	9.11
405.489	9.11
405.698	9.03
405.906	8.97
406.115	9.13
406.324	8.88
406.532	8.81
406.741	8.78
406.949	8.91
407.158	8.77
407.366	8.7
407.574	8.63
407.783	8.64
407.991	8.6
408.2	8.68
408.408	8.75
408.617	8.71
408.825	8.52
409.033	8.5
409.242	8.35
409.45	8.5
409.658	8.3
409.867	8.38
410.075	8.27
410.283	8.2
410.491	7.99
410.7	8.06
410.908	8.11
411.116	8.09
411.324	8.11
411.533	8.04
411.741	8.09
411.949	8.03
412.157	7.9
412.365	7.84
412.573	7.98
412.781	7.87
412.99	7.82
413.198	7.94
413.406	7.91
413.614	7.78
413.822	7.82
414.03	7.89
414.238	7.68
414.446	7.65
414.654	7.57
414.862	7.47
415.07	7.41
415.278	7.45
415.486	7.44
415.694	7.49
415.902	7.59
416.109	7.5
416.317	7.55
416.525	7.46
416.733	7.45
416.941	7.33
417.149	7.26
417.357	7.25
417.564	7.2
417.772	7.16
417.98	7.2
418.188	7.19
418.395	7.2
418.603	7.2
418.811	7.19
419.019	7.16
419.226	7.19
419.434	7.17
419.642	7.24
419.849	7.14
420.057	7.09
420.265	7.16
420.472	7.13
420.68	7.27
420.887	7.11
421.095	7.14
421.302	6.94
421.51	6.75
421.717	6.4
421.925	6.55
422.132	6.46
422.34	6.52
422.547	6.66
422.755	6.71
422.962	6.69
423.17	6.79
423.377	6.82
423.585	6.83
423.792	6.86
423.999	6.77
424.207	6.67
424.414	6.55
424.621	6.52
424.829	6.5
425.036	6.56
425.243	6.61
425.451	6.73
425.658	6.73
425.865	6.86
426.072	6.78
426.28	6.75
426.487	6.68
426.694	6.64
426.901	6.46
427.108	6.49
427.315	6.47
427.523	6.44
427.73	6.46
427.937	6.66
428.144	6.83
428.351	6.95
428.558	7.23
428.765	7.25
428.972	7.19
429.179	7.03
429.386	7.07
429.593	6.94
429.8	6.93
430.007	6.98
430.214	7.21
430.421	7.26
430.628	7.05
430.835	7.01
431.042	7.05
431.249	6.99
431.456	6.85
431.662	7.02
431.869	7.2
432.076	7.28
432.283	7.18
432.49	7.32
432.697	7.34
432.903	7.25
433.11	7.17
433.317	7.3
433.524	7.22
433.73	7.24
433.937	7.38
434.144	7.47
434.35	7.51
434.557	7.5
434.764	7.56
434.97	7.47
435.177	7.44
435.384	7.46
435.59	7.54
435.797	7.66
436.003	7.74
436.21	7.73
436.416	7.79
436.623	7.89
436.829	7.9
437.036	8.02
437.242	8.08
437.449	7.97
437.655	7.94
437.862	7.93
438.068	7.86
438.275	7.93
438.481	8.08
438.687	8.07
438.894	8.22
439.1	8.37
439.307	8.47
439.513	8.5
439.719	8.58
439.926	8.46
440.132	8.38
440.338	8.33
440.544	8.39
440.751	8.45
440.957	8.62
441.163	8.68
441.369	8.78
441.575	8.71
441.782	8.76
441.988	8.72
442.194	8.78
442.4	8.79
442.606	8.92
442.812	8.91
443.018	9
443.224	9.05
443.431	9.11
443.637	9.03
443.843	9.06
444.049	8.99
444.255	9
444.461	9.06
444.667	9.14
444.873	9.2
445.079	9.18
445.284	9.18
445.49	9.23
445.696	9.23
445.902	9.24
446.108	9.31
446.314	9.37
446.52	9.29
446.726	9.36
446.931	9.38
447.137	9.49
447.343	9.52
447.549	9.5
447.755	9.51
447.96	9.58
448.166	9.52
448.372	9.49
448.578	9.57
448.783	9.56
448.989	9.59
449.195	9.63
449.4	9.63
449.606	9.62
449.812	9.66
450.017	9.71
450.223	9.66
450.428	9.77
450.634	9.82
450.84	9.81
451.045	9.77
451.251	9.77
451.456	9.75
451.662	9.71
451.867	9.77
452.073	9.74
452.278	9.82
452.483	9.91
452.689	9.96
452.894	9.93
453.1	9.95
453.305	9.93
453.51	9.87
453.716	9.91
453.921	9.92
454.127	9.95
454.332	10.01
454.537	9.9
454.742	9.76
454.948	9.78
455.153	9.82
455.358	9.77
455.563	9.75
455.769	9.97
455.974	9.93
456.179	9.85
456.384	9.87
456.589	10.03
456.795	9.84
457	9.96
457.205	10.04
457.41	10.06
457.615	9.97
457.82	10.03
458.025	9.96
458.23	9.95
458.435	9.92
458.64	9.96
458.845	9.98
459.05	9.95
459.255	10.04
459.46	10.05
459.665	10.03
459.87	10.12
460.075	10.15
460.28	10.05
460.485	10.09
460.69	10.25
460.895	10.21
461.099	10.29
461.304	10.42
461.509	10.49
461.714	10.47
461.919	10.48
462.123	10.45
462.328	10.4
462.533	10.42
462.738	10.39
462.942	10.42
463.147	10.48
463.352	10.43
463.556	10.44
463.761	10.4
463.966	10.39
464.17	10.46
464.375	10.58
464.58	10.68
464.784	10.71
464.989	10.81
465.193	10.76
465.398	10.81
465.602	10.71
465.807	10.72
466.011	10.74
466.216	10.72
466.42	10.66
466.625	10.77
466.829	10.86
467.034	10.92
