Data from Ofra_PS_Phys_OCX4_Reflection_2.txt Node
Date: Tue Jul 20 17:53:38 EDT 2021
User: USUARIO
Spectrometer: FLMT01687
Trigger mode: 0
Integration Time (sec): 1.042999E0
Scans to average: 2
Electric dark correction enabled: true
Nonlinearity correction enabled: false
Boxcar width: 2
XAxis mode: Wavelengths
Number of Pixels in Spectrum: 3648
>>>>>Begin Spectral Data<<<<<
179.494	72.58
179.716	125.95
179.937	94.31
180.158	84.78
180.38	79.59
180.601	-26.21
180.823	-20.77
181.044	-160.82
181.265	-662.79
181.486	-15.53
181.708	-31.86
181.929	-21.23
182.15	56.87
182.372	-38.03
182.593	6.51
182.814	16.37
183.035	46.58
183.257	88.98
183.478	95.22
183.699	108.34
183.92	108.58
184.141	143.24
184.363	102.96
184.584	100.07
184.805	118.31
185.026	133.76
185.247	119.96
185.468	123
185.689	97.83
185.91	75.24
186.132	35.58
186.353	30.54
186.574	68.28
186.795	148.36
187.016	141.15
187.237	148.11
187.458	148.17
187.679	139.5
187.9	68.94
188.121	107.14
188.342	115.82
188.563	105.66
188.784	71.97
189.005	91.07
189.226	75.22
189.447	73.88
189.667	70.48
189.888	76.93
190.109	43.63
190.33	59.3
190.551	62.6
190.772	58.09
190.993	38.51
191.214	58.8
191.434	59.56
191.655	55.15
191.876	64.31
192.097	95.98
192.318	100.13
192.538	98.21
192.759	81.55
192.98	61.05
193.201	76.83
193.421	52.85
193.642	70.33
193.863	67.51
194.083	89.9
194.304	78.32
194.525	86.24
194.745	66.46
194.966	66.64
195.187	61.92
195.407	25.58
195.628	57.08
195.848	32.95
196.069	38.53
196.29	33.76
196.51	39.93
196.731	1.85
196.951	35.24
197.172	48.34
197.392	47.31
197.613	52.16
197.833	61.53
198.054	48.48
198.274	31.59
198.495	37.83
198.715	59.08
198.936	62.91
199.156	70.56
199.377	59.79
199.597	69.29
199.817	44.77
200.038	26.29
200.258	24.5
200.479	39.13
200.699	30.81
200.919	60.97
201.14	66.64
201.36	79.96
201.58	117.81
201.801	85.95
202.021	48.55
202.241	60.32
202.461	89.79
202.682	59.88
202.902	116.43
203.122	100.12
203.342	109.68
203.563	96.18
203.783	82.49
204.003	68.81
204.223	58.23
204.443	90.07
204.663	62.24
204.884	57.64
205.104	58.34
205.324	58.1
205.544	25.55
205.764	42.19
205.984	39.76
206.204	28.8
206.424	32.82
206.644	46.36
206.864	31.71
207.084	39.52
207.304	53.83
207.525	44.15
207.745	38.15
207.964	20.94
208.184	37.86
208.404	13.8
208.624	31.76
208.844	40.06
209.064	45.6
209.284	35.73
209.504	56.91
209.724	50.67
209.944	76.52
210.164	65.73
210.384	103.65
210.604	121.19
210.823	119.84
211.043	87.21
211.263	98.99
211.483	82.36
211.703	52.85
211.922	56.68
212.142	68.64
212.362	63.8
212.582	62.72
212.801	64.85
213.021	60.71
213.241	26.74
213.461	79.41
213.68	66.85
213.9	41.41
214.12	41.35
214.339	1.62
214.559	-19.73
214.779	3.51
214.998	54.61
215.218	77.56
215.438	97.32
215.657	90.53
215.877	91.01
216.096	73.9
216.316	46.38
216.535	39.95
216.755	51.04
216.974	42.74
217.194	33.43
217.413	40.84
217.633	29.12
217.852	23.83
218.072	19.42
218.291	18.02
218.511	17.35
218.73	9.67
218.95	25.22
219.169	43.33
219.389	53.44
219.608	35.79
219.827	64.96
220.047	45.9
220.266	40.41
220.485	19.88
220.705	30.66
220.924	29.2
221.143	18.52
221.363	23.56
221.582	62.19
221.801	113.61
222.021	151.51
222.24	128.57
222.459	122.57
222.678	91.92
222.897	55.63
223.117	47.88
223.336	60.56
223.555	47.74
223.774	46.48
223.993	37.57
224.213	38.07
224.432	38.23
224.651	56.44
224.87	57.75
225.089	44.58
225.308	45.38
225.527	55.21
225.746	56.53
225.965	59.07
226.184	70.58
226.404	63.89
226.623	45.12
226.842	40.03
227.061	49.73
227.28	64.37
227.499	52.45
227.718	65.32
227.936	61.92
228.155	65.56
228.374	37.83
228.593	55.63
228.812	55.21
229.031	40.47
229.25	29.54
229.469	46.01
229.688	45.26
229.907	53.38
230.125	76.87
230.344	72.14
230.563	68.34
230.782	68.71
231.001	67.41
231.22	62.14
231.438	65.47
231.657	65.76
231.876	64.14
232.095	51.16
232.313	41.66
232.532	43.97
232.751	38.94
232.969	36.41
233.188	37.53
233.407	34.87
233.625	44.63
233.844	62.19
234.063	65.12
234.281	66.41
234.5	75.25
234.719	58.85
234.937	39.38
235.156	34.76
235.374	23.58
235.593	18.61
235.811	22.87
236.03	4.03
236.249	-26.21
236.467	6.11
236.686	30.51
236.904	29.23
237.123	43.17
237.341	63.01
237.559	72.78
237.778	62.26
237.996	50.79
238.215	61.36
238.433	42.5
238.652	35.64
238.87	33.08
239.088	43.75
239.307	43.09
239.525	44.86
239.743	35.78
239.962	39.95
240.18	22.71
240.398	15.61
240.617	16.37
240.835	35.04
241.053	30.37
241.271	55.09
241.49	58.63
241.708	56.67
241.926	67.89
242.144	84.47
242.363	87.39
242.581	74.06
242.799	64.35
243.017	56.48
243.235	41.25
243.453	35.35
243.672	39.2
243.89	42.25
244.108	23.16
244.326	39.84
244.544	43.96
244.762	46.18
244.98	56.52
245.198	66.51
245.416	59.56
245.634	51.16
245.852	42.98
246.07	39.21
246.288	31.16
246.506	33.21
246.724	34.05
246.942	46.78
247.16	43.09
247.378	57.58
247.596	62.72
247.814	65.77
248.032	37.78
248.25	29.94
248.468	26.42
248.685	19.97
248.903	41.84
249.121	44.89
249.339	63.68
249.557	61.72
249.775	92.62
249.992	97.56
250.21	128.4
250.428	92.87
250.646	79.95
250.863	46.97
251.081	26.85
251.299	17.58
251.517	34.38
251.734	28.07
251.952	-19.93
252.17	23.51
252.387	32.64
252.605	23.77
252.823	34.91
253.04	48.43
253.258	39.3
253.475	43.31
253.693	61.28
253.911	67.48
254.128	68.71
254.346	53.03
254.563	54.83
254.781	37.38
254.998	36.78
255.216	28.78
255.433	46.78
255.651	50.52
255.868	68.67
256.086	62.26
256.303	83.42
256.521	66.35
256.738	71.07
256.956	65.12
257.173	80.62
257.39	58.9
257.608	62.23
257.825	86.52
258.043	64.09
258.26	69.86
258.477	73.32
258.695	61.17
258.912	45.15
259.129	56.81
259.346	45.39
259.564	38.27
259.781	51.45
259.998	33.87
260.216	49.46
260.433	51.29
260.65	72.44
260.867	73.22
261.084	89.39
261.302	65.27
261.519	64.36
261.736	47.69
261.953	63.72
262.17	74.22
262.387	49.37
262.604	30.62
262.822	1.84
263.039	-5.39
263.256	-7.13
263.473	-13.39
263.69	21.96
263.907	46.22
264.124	38.68
264.341	54.29
264.558	68.98
264.775	67.33
264.992	58.93
265.209	44.51
265.426	13.92
265.643	13.04
265.86	9.55
266.077	13.32
266.294	24.85
266.51	48.83
266.727	63.51
266.944	66.39
267.161	49.06
267.378	51.62
267.595	38.99
267.812	37.35
268.028	45.9
268.245	56.12
268.462	47.29
268.679	38.01
268.896	27.27
269.112	13.68
269.329	13.1
269.546	7.88
269.763	28.66
269.979	69.93
270.196	89.23
270.413	69.66
270.629	54.02
270.846	52.07
271.063	38.34
271.279	21
271.496	12.72
271.712	32.79
271.929	27.85
272.146	31.38
272.362	36.34
272.579	41.25
272.795	23.3
273.012	45.92
273.228	39.12
273.445	38.85
273.661	57.66
273.878	57.9
274.094	44.41
274.311	31.07
274.527	43.7
274.744	13.57
274.96	19.45
275.177	23.58
275.393	40.65
275.609	39.82
275.826	76.32
276.042	81.89
276.259	72.92
276.475	75.33
276.691	64.98
276.908	60.04
277.124	70.87
277.34	58.5
277.557	45.26
277.773	47.36
277.989	28.09
278.205	-7.74
278.422	-17.02
278.638	-1.79
278.854	0.17
279.07	-2.5
279.286	11.38
279.503	25.14
279.719	17.2
279.935	31.83
280.151	39.45
280.367	32.01
280.583	32.34
280.799	40.39
281.016	29.34
281.232	47.22
281.448	53.19
281.664	52.46
281.88	50.5
282.096	46.74
282.312	34.21
282.528	46.74
282.744	24.8
282.96	25.55
283.176	35.54
283.392	25.61
283.608	13.3
283.824	20.37
284.04	29.52
284.256	35.01
284.471	43.39
284.687	80.62
284.903	83.09
285.119	68.28
285.335	102.26
285.551	107.82
285.767	84.05
285.982	81.16
286.198	94.66
286.414	67.54
286.63	46.57
286.846	48.15
287.061	42.52
287.277	51.74
287.493	62.52
287.709	84.1
287.924	62.28
288.14	82.69
288.356	59.45
288.571	46.34
288.787	52.95
289.003	58.22
289.218	57.29
289.434	59.1
289.65	38.22
289.865	26.52
290.081	31.47
290.296	41.85
290.512	44.34
290.727	55.4
290.943	58.32
291.159	74.32
291.374	44.93
291.59	17.36
291.805	21.43
292.021	14.12
292.236	21.61
292.451	57.96
292.667	61.51
292.882	70.42
293.098	89.05
293.313	72.48
293.529	52.12
293.744	52.26
293.959	27.12
294.175	13.27
294.39	24.32
294.605	51.19
294.821	71.11
295.036	62.17
295.251	51.97
295.467	42.21
295.682	32.69
295.897	34.07
296.112	39.64
296.328	44.91
296.543	51.25
296.758	52.51
296.973	49.65
297.188	56.77
297.404	62.27
297.619	44.97
297.834	42.12
298.049	9.19
298.264	13.71
298.479	12.75
298.694	28.95
298.909	8.03
299.125	24.06
299.34	11.04
299.555	19.76
299.77	-3.96
299.985	10.95
300.2	-5.54
300.415	-7.61
300.63	-39.21
300.845	2.31
301.06	9.39
301.275	31.82
301.49	39.77
301.704	54.84
301.919	35.73
302.134	11.09
302.349	8.28
302.564	-1.36
302.779	9.3
302.994	36.62
303.209	53.01
303.423	48.12
303.638	54.15
303.853	45.41
304.068	36.47
304.283	17.07
304.497	20.73
304.712	29.85
304.927	38.41
305.142	19.79
305.356	30.77
305.571	20.72
305.786	12.65
306	17.22
306.215	34.3
306.43	28.2
306.644	45.49
306.859	50.63
307.074	32.23
307.288	33.12
307.503	35.75
307.717	28.52
307.932	26.09
308.147	36.49
308.361	38.49
308.576	46.97
308.79	54.59
309.005	54.03
309.219	66.51
309.434	52.99
309.648	33.28
309.863	20.18
310.077	33.73
310.292	30.2
310.506	36.48
310.72	40.62
310.935	44.97
311.149	19.46
311.364	27.27
311.578	28.65
311.792	32.97
312.007	38.33
312.221	44.15
312.435	30.66
312.649	22.58
312.864	27.06
313.078	15.04
313.292	23.91
313.507	38.03
313.721	45.43
313.935	46.99
314.149	64.31
314.363	59.48
314.578	57.28
314.792	51.31
315.006	53.89
315.22	62.3
315.434	56.86
315.648	39.8
315.862	24.38
316.077	8.67
316.291	4.16
316.505	12.51
316.719	31.9
316.933	51.57
317.147	52.64
317.361	61.7
317.575	76.53
317.789	76.72
318.003	80.01
318.217	72.52
318.431	64.55
318.645	56.68
318.859	63.99
319.073	75.31
319.287	65.48
319.5	63.35
319.714	56.7
319.928	43.32
320.142	18.58
320.356	29.16
320.57	29.71
320.784	32.56
320.997	26.72
321.211	36.16
321.425	47.42
321.639	54.88
321.853	77.88
322.066	78.4
322.28	78.31
322.494	71.53
322.707	73.27
322.921	48.52
323.135	32.69
323.349	24.74
323.562	14.41
323.776	-3.12
323.989	19.29
324.203	33.14
324.417	40.8
324.63	48.28
324.844	68.39
325.057	70.05
325.271	67.96
325.485	71.78
325.698	58.86
325.912	57.94
326.125	45.84
326.339	22.96
326.552	35.55
326.766	38.06
326.979	34.22
327.193	38.03
327.406	50.38
327.619	44.66
327.833	47.27
328.046	37.57
328.26	22.73
328.473	30.23
328.686	39.79
328.9	30.72
329.113	43.65
329.326	49.33
329.54	51.5
329.753	34.43
329.966	49.61
330.179	54.8
330.393	72.66
330.606	58.92
330.819	69.55
331.032	65.8
331.246	59.73
331.459	39.94
331.672	50.12
331.885	47.86
332.098	33.17
332.311	41.63
332.525	38.18
332.738	36.48
332.951	41.47
333.164	47.52
333.377	46.54
333.59	61.94
333.803	61.05
334.016	50.53
334.229	49.36
334.442	47.5
334.655	36.54
334.868	48.18
335.081	52.4
335.294	64.23
335.507	61.71
335.72	65.78
335.933	36.7
336.146	40.34
336.359	24.42
336.572	13.07
336.785	3.86
336.997	23.57
337.21	24.43
337.423	16.93
337.636	18.12
337.849	40.81
338.062	25.71
338.274	34.14
338.487	38.11
338.7	34.33
338.913	35.37
339.125	41.76
339.338	16.86
339.551	25.46
339.763	41.09
339.976	40.97
340.189	37.92
340.402	36.59
340.614	28.43
340.827	23.69
341.039	17.54
341.252	24.6
341.465	46.7
341.677	64.54
341.89	64.64
342.102	68.17
342.315	64.69
342.527	31.31
342.74	39.72
342.952	32.98
343.165	32.82
343.377	46.74
343.59	57.06
343.802	53.52
344.015	64.61
344.227	66.78
344.44	63.06
344.652	70.3
344.864	67.75
345.077	69.48
345.289	57.92
345.502	54.24
345.714	37.52
345.926	49.83
346.139	38.79
346.351	56.03
346.563	33.75
346.775	53.44
346.988	26.72
347.2	2.79
347.412	6.4
347.624	22.87
347.837	20.6
348.049	30.78
348.261	45.61
348.473	47.94
348.685	50.81
348.897	68.76
349.11	51.8
349.322	45.91
349.534	47.63
349.746	51.81
349.958	44.67
350.17	49.61
350.382	58.48
350.594	50.04
350.806	37.91
351.018	47.13
351.23	38.19
351.442	37.61
351.654	45.21
351.866	44.53
352.078	25.72
352.29	30.21
352.502	19.08
352.714	18.29
352.926	8.18
353.138	10.54
353.35	6.73
353.561	9.35
353.773	8.1
353.985	27.82
354.197	26.14
354.409	42.66
354.621	56.36
354.832	55.76
355.044	52.3
355.256	52.85
355.468	41.2
355.679	42.32
355.891	31.68
356.103	30.66
356.314	39.77
356.526	44.24
356.738	36.14
356.949	46.48
357.161	61.2
357.373	70.65
357.584	56.42
357.796	34.22
358.008	40.69
358.219	32.41
358.431	24.43
358.642	40.8
358.854	48.61
359.065	43.69
359.277	27.92
359.488	26.07
359.7	8.16
359.911	6.2
360.123	13.42
360.334	27.26
360.546	29.13
360.757	27.16
360.969	21.34
361.18	26.87
361.391	37.27
361.603	35.8
361.814	47.95
362.025	47.31
362.237	40.78
362.448	23.22
362.659	21.3
362.871	19.16
363.082	24.7
363.293	22.18
363.504	32.22
363.716	29.06
363.927	23.68
364.138	9.51
364.349	14.04
364.56	22.24
364.772	29.98
364.983	39.43
365.194	52.26
365.405	32.08
365.616	23.06
365.827	31.18
366.038	25.33
366.25	38.28
366.461	56.23
366.672	50.9
366.883	49.5
367.094	45.46
367.305	26.5
367.516	23.22
367.727	21.42
367.938	9.39
368.149	12.7
368.36	15.38
368.571	28.77
368.781	40.59
368.992	52.01
369.203	60.63
369.414	61.24
369.625	75.2
369.836	58.66
370.047	51.61
370.258	35.8
370.468	38.15
370.679	22.57
370.89	25.95
371.101	15.22
371.312	10.17
371.522	8.03
371.733	-1.19
371.944	3.5
372.155	16.47
372.365	24.36
372.576	21.98
372.787	27.9
372.997	22.3
373.208	15.77
373.419	23.26
373.629	20.98
373.84	21.19
374.05	21.34
374.261	29.99
374.472	22.72
374.682	34.54
374.893	36.56
375.103	59.72
375.314	40.82
375.524	34.99
375.735	27.02
375.945	25.82
376.156	8.72
376.366	20.39
376.577	32.24
376.787	33.93
376.997	36.9
377.208	46.73
377.418	44.65
377.629	36.86
377.839	33.22
378.049	32.77
378.26	33.23
378.47	35.91
378.68	38.75
378.89	41.78
379.101	41.19
379.311	26.14
379.521	19.87
379.732	25.11
379.942	24.17
380.152	25.08
380.362	31.71
380.572	28.58
380.783	25.44
380.993	30.29
381.203	25.9
381.413	26.17
381.623	30.48
381.833	29.05
382.043	17.27
382.253	5.25
382.463	-1.96
382.674	-3.14
382.884	-3.96
383.094	6.91
383.304	9
383.514	19.11
383.724	21.19
383.934	24.63
384.144	22.05
384.353	27.81
384.563	17.5
384.773	11.76
384.983	3.29
385.193	2.46
385.403	4.8
385.613	17.69
385.823	17.44
386.033	15.32
386.242	9.68
386.452	6.49
386.662	4.74
386.872	12.57
387.082	17.12
387.291	17.24
387.501	21.05
387.711	17.99
387.921	15.58
388.13	13.93
388.34	21.37
388.55	13.44
388.759	12.9
388.969	12.5
389.179	12.79
389.388	7.29
389.598	15.98
389.807	14.06
390.017	12.5
390.227	14.63
390.436	13.66
390.646	9.66
390.855	12.78
391.065	10.69
391.274	7.82
391.484	8.39
391.693	9.53
391.903	11.11
392.112	10.9
392.322	10.21
392.531	11.05
392.74	7.55
392.95	2.58
393.159	2.89
393.369	2.01
393.578	1.26
393.787	1.2
393.997	2.64
394.206	3.98
394.415	6.34
394.625	6.86
394.834	8.58
395.043	8.7
395.252	7.9
395.462	8.01
395.671	6.32
395.88	6.12
396.089	6.1
396.298	5.84
396.508	4.91
396.717	6.39
396.926	6.58
397.135	5.83
397.344	5.21
397.553	5.19
397.762	4.02
397.971	3.37
398.181	4.01
398.39	4.58
398.599	3.75
398.808	4.09
399.017	4.54
399.226	4.25
399.435	4.52
399.644	4.95
399.853	5.21
400.062	4.68
400.27	4.78
400.479	4.61
400.688	4.14
400.897	4.11
401.106	4.32
401.315	4.05
401.524	4.15
401.733	4.61
401.941	4.43
402.15	4.27
402.359	4.27
402.568	4.04
402.777	4.05
402.985	3.89
403.194	4.01
403.403	3.92
403.612	3.99
403.82	3.61
404.029	3.71
404.238	3.63
404.446	3.58
404.655	3.56
404.864	3.67
405.072	3.61
405.281	3.71
405.489	3.79
405.698	3.79
405.906	3.76
406.115	3.81
406.324	3.58
406.532	3.47
406.741	3.43
406.949	3.4
407.158	3.48
407.366	3.46
407.574	3.35
407.783	3.22
407.991	3.19
408.2	3.14
408.408	3.16
408.617	3.24
408.825	3.18
409.033	3.22
409.242	3.23
409.45	3.19
409.658	3.22
409.867	3.38
410.075	3.28
410.283	3.15
410.491	3.11
410.7	3.07
410.908	2.81
411.116	2.88
411.324	2.83
411.533	2.92
411.741	2.99
411.949	3.27
412.157	3.36
412.365	3.42
412.573	3.47
412.781	3.48
412.99	3.42
413.198	3.31
413.406	3.34
413.614	3.33
413.822	3.39
414.03	3.18
414.238	3.05
414.446	3.04
414.654	2.96
414.862	2.85
415.07	3.01
415.278	3.2
415.486	3.1
415.694	3.03
415.902	3
416.109	2.91
416.317	3.01
416.525	3
416.733	3.07
416.941	3.14
417.149	3.18
417.357	3.03
417.564	3.14
417.772	3.16
417.98	3.15
418.188	3
418.395	2.91
418.603	2.83
418.811	2.86
419.019	2.72
419.226	2.97
419.434	3
419.642	3.01
419.849	2.9
420.057	3.02
420.265	2.86
420.472	2.92
420.68	2.86
420.887	2.77
421.095	2.64
421.302	2.64
421.51	2.66
421.717	2.72
421.925	2.83
422.132	2.84
422.34	2.86
422.547	2.66
422.755	2.74
422.962	2.61
423.17	2.66
423.377	2.57
423.585	2.69
423.792	2.56
423.999	2.56
424.207	2.4
424.414	2.4
424.621	2.52
424.829	2.52
425.036	2.47
425.243	2.6
425.451	2.64
425.658	2.36
425.865	2.48
426.072	2.52
426.28	2.71
426.487	2.63
426.694	2.77
426.901	2.63
427.108	2.75
427.315	2.81
427.523	2.85
427.73	2.95
427.937	3
428.144	2.95
428.351	2.69
428.558	2.58
428.765	2.31
428.972	2.35
429.179	2.19
429.386	2.22
429.593	2.14
429.8	2.31
430.007	2.23
430.214	2.45
430.421	2.4
430.628	2.71
430.835	2.81
431.042	2.78
431.249	2.77
431.456	2.86
431.662	2.8
431.869	2.68
432.076	2.86
432.283	2.82
432.49	2.86
432.697	2.81
432.903	2.67
433.11	2.52
433.317	2.56
433.524	2.6
433.73	2.5
433.937	2.65
434.144	2.63
434.35	2.55
434.557	2.43
434.764	2.54
434.97	2.48
435.177	2.57
435.384	2.56
435.59	2.61
435.797	2.71
436.003	2.77
436.21	2.69
436.416	2.68
436.623	2.64
436.829	2.65
437.036	2.67
437.242	2.74
437.449	2.78
437.655	2.89
437.862	2.82
438.068	2.71
438.275	2.73
438.481	2.68
438.687	2.49
438.894	2.57
439.1	2.77
439.307	2.62
439.513	2.67
439.719	2.66
439.926	2.57
440.132	2.63
440.338	2.77
440.544	2.75
440.751	2.9
440.957	2.9
441.163	2.79
441.369	2.86
441.575	2.89
441.782	2.77
441.988	2.76
442.194	2.76
442.4	2.67
442.606	2.61
442.812	2.69
443.018	2.77
443.224	2.76
443.431	2.8
443.637	2.97
443.843	2.94
444.049	2.93
444.255	2.83
444.461	2.81
444.667	2.72
444.873	2.78
445.079	2.81
445.284	2.98
445.49	2.92
445.696	2.93
445.902	2.85
446.108	2.74
446.314	2.75
446.52	2.8
446.726	2.88
446.931	2.9
447.137	3.01
447.343	2.94
447.549	3.01
447.755	2.94
447.96	3.02
448.166	3.02
448.372	3.14
448.578	3.04
448.783	3.1
448.989	3.04
449.195	3
449.4	2.97
449.606	3.07
449.812	2.97
450.017	2.97
450.223	2.93
450.428	2.85
450.634	2.79
450.84	2.9
451.045	3.09
451.251	3.12
451.456	3.11
451.662	3.09
451.867	3.07
452.073	2.92
452.278	2.93
452.483	2.96
452.689	2.92
452.894	2.89
453.1	2.87
453.305	2.91
453.51	2.94
453.716	2.96
453.921	2.87
454.127	2.82
454.332	2.73
454.537	2.69
454.742	2.68
454.948	2.84
455.153	2.89
455.358	2.98
455.563	2.99
455.769	2.94
455.974	2.89
456.179	2.88
456.384	2.82
456.589	2.82
456.795	2.84
457	2.78
457.205	2.76
457.41	2.76
457.615	2.83
457.82	2.9
458.025	2.94
458.23	2.85
458.435	2.89
458.64	2.83
458.845	2.79
459.05	2.75
459.255	2.91
459.46	2.91
459.665	2.88
459.87	2.85
460.075	2.82
460.28	2.81
460.485	2.88
460.69	2.83
460.895	2.89
461.099	3
461.304	3.05
461.509	3.05
461.714	3.15
461.919	3.18
462.123	3.12
462.328	3.04
462.533	3.07
462.738	3.08
462.942	3.02
463.147	2.97
463.352	3
463.556	2.99
463.761	2.97
463.966	3
464.17	3.23
464.375	3.24
464.58	3.12
464.784	3.17
464.989	3.15
465.193	3.04
465.398	3.03
465.602	3.17
465.807	3.08
466.011	3.17
466.216	3.1
466.42	3.18
466.625	3.15
466.829	3.24
467.034	3.18
467.238	3.26
467.443	3.18
467.647	3.16
467.851	3.07
