Data from Ofra_PS_Phys_1GT43_Reflection_3.txt Node
Date: Tue Jul 20 17:52:52 EDT 2021
User: USUARIO
Spectrometer: FLMT01687
Trigger mode: 0
Integration Time (sec): 1.042999E0
Scans to average: 2
Electric dark correction enabled: true
Nonlinearity correction enabled: false
Boxcar width: 2
XAxis mode: Wavelengths
Number of Pixels in Spectrum: 3648
>>>>>Begin Spectral Data<<<<<
179.494	-161.29
179.716	-270.99
179.937	-195.54
180.158	-819.57
180.38	-334.69
180.601	117.48
180.823	72.31
181.044	109.28
181.265	9.3
181.486	82.81
181.708	63.33
181.929	77.85
182.15	29.12
182.372	235.21
182.593	64.44
182.814	43.27
183.035	49.42
183.257	59.64
183.478	49.59
183.699	61.43
183.92	54.46
184.141	42.63
184.363	28.79
184.584	28.22
184.805	34.4
185.026	40.16
185.247	46.5
185.468	29.43
185.689	12.35
185.91	4.74
186.132	-9.45
186.353	-0.1
186.574	12.24
186.795	14.13
187.016	4.69
187.237	4.49
187.458	-46.61
187.679	-21.22
187.9	-8.8
188.121	-30.29
188.342	-289.24
188.563	-51.93
188.784	-27.51
189.005	4.09
189.226	1.09
189.447	32.97
189.667	23.59
189.888	23.44
190.109	15.74
190.33	18.37
190.551	-1.55
190.772	36.73
190.993	47.7
191.214	36.62
191.434	46.38
191.655	40.77
191.876	16.12
192.097	4.77
192.318	37.01
192.538	20.85
192.759	55.91
192.98	56.4
193.201	56.1
193.421	45.62
193.642	63.23
193.863	51.14
194.083	60.81
194.304	57.96
194.525	44.82
194.745	43.87
194.966	42.01
195.187	32.21
195.407	21.44
195.628	45.79
195.848	27.77
196.069	25.69
196.29	39.88
196.51	43.88
196.731	39.78
196.951	46.66
197.172	26.64
197.392	5.38
197.613	-6.42
197.833	-30.04
198.054	-73.25
198.274	-8.68
198.495	9.08
198.715	8.77
198.936	17.23
199.156	25.31
199.377	23.5
199.597	25.32
199.817	49.06
200.038	58.54
200.258	58.65
200.479	50.09
200.699	56.72
200.919	27.6
201.14	34.49
201.36	36.87
201.58	47.06
201.801	59.05
202.021	95.02
202.241	60.68
202.461	-3.52
202.682	-2.57
202.902	-9.39
203.122	-2.96
203.342	8.43
203.563	3.82
203.783	15.35
204.003	5.39
204.223	-27.17
204.443	-38.74
204.663	-19.61
204.884	-3.51
205.104	0.49
205.324	13.59
205.544	-0.71
205.764	10.33
205.984	-46.9
206.204	-12.77
206.424	-25.32
206.644	-12.2
206.864	-10.05
207.084	26.11
207.304	17.65
207.525	22.48
207.745	-5.33
207.964	-14.21
208.184	-5.56
208.404	-8.18
208.624	3.13
208.844	23.05
209.064	20.57
209.284	29.03
209.504	34.16
209.724	33.03
209.944	38.83
210.164	45.13
210.384	40.16
210.604	66.14
210.823	75.05
211.043	38.89
211.263	47.75
211.483	33.68
211.703	21.16
211.922	21.72
212.142	43.77
212.362	37.75
212.582	30.75
212.801	29.79
213.021	-2.81
213.241	-32.87
213.461	32.94
213.68	57.37
213.9	19.58
214.12	44.41
214.339	23.1
214.559	-2.19
214.779	42.02
214.998	80.7
215.218	103.42
215.438	84.2
215.657	79.03
215.877	51.25
216.096	52.05
216.316	24.11
216.535	29.22
216.755	24.36
216.974	16.91
217.194	-1.54
217.413	19.74
217.633	14.29
217.852	19.21
218.072	25.1
218.291	39.23
218.511	32.21
218.73	25.06
218.95	30.5
219.169	33.64
219.389	13.2
219.608	-9.32
219.827	1.53
220.047	7.26
220.266	7.55
220.485	1.75
220.705	24.17
220.924	21.78
221.143	21.8
221.363	18.62
221.582	14.49
221.801	1.05
222.021	16.26
222.24	-1.6
222.459	-1.19
222.678	-14.21
222.897	18.63
223.117	25.59
223.336	39.66
223.555	41.25
223.774	53.52
223.993	47.85
224.213	50.22
224.432	44.25
224.651	36.07
224.87	39.95
225.089	25.77
225.308	23.01
225.527	14.16
225.746	21.12
225.965	14.52
226.184	44.76
226.404	31.26
226.623	18.1
226.842	29.5
227.061	15.55
227.28	-4.11
227.499	23.5
227.718	33.63
227.936	8.08
228.155	29.81
228.374	15
228.593	16.31
228.812	28.91
229.031	43.02
229.25	32.55
229.469	52.94
229.688	45.39
229.907	50.53
230.125	59.77
230.344	78.7
230.563	63.38
230.782	48.43
231.001	49.24
231.22	48.33
231.438	28.95
231.657	31
231.876	50.26
232.095	40.45
232.313	38.11
232.532	44.23
232.751	33.62
232.969	31.87
233.188	27.32
233.407	14.87
233.625	31.34
233.844	42.08
234.063	31.04
234.281	43.55
234.5	57.71
234.719	38.27
234.937	34.44
235.156	51.96
235.374	27.83
235.593	12.03
235.811	16.15
236.03	-28.36
236.249	-60.78
236.467	-2.04
236.686	1.78
236.904	3.99
237.123	39.56
237.341	32.18
237.559	28.7
237.778	30.06
237.996	30.51
238.215	13.06
238.433	20.11
238.652	11.88
238.87	2.24
239.088	3.17
239.307	13.98
239.525	3.03
239.743	2.49
239.962	5.37
240.18	5.48
240.398	8.14
240.617	14.45
240.835	23.92
241.053	21.33
241.271	16.61
241.49	0.54
241.708	11.91
241.926	11.72
242.144	10.47
242.363	14.45
242.581	24.48
242.799	11.12
243.017	23.13
243.235	30.27
243.453	32.97
243.672	36.28
243.89	42.96
244.108	38.11
244.326	38.11
244.544	25.51
244.762	10.59
244.98	11.32
245.198	-8.7
245.416	-7.94
245.634	0.98
245.852	13.88
246.07	33.29
246.288	39.65
246.506	43.54
246.724	58.84
246.942	50.91
247.16	32.87
247.378	43.55
247.596	49.45
247.814	26.69
248.032	25.73
248.25	20.7
248.468	7.64
248.685	3.14
248.903	25.59
249.121	27.06
249.339	42.71
249.557	53.86
249.775	69.84
249.992	55.05
250.21	26.96
250.428	-7.94
250.646	-40.52
250.863	-24.98
251.081	-28.57
251.299	-14.83
251.517	0.46
251.734	42.6
251.952	12.41
252.17	65.2
252.387	39.71
252.605	23.94
252.823	32.21
253.04	43.76
253.258	35.05
253.475	27.14
253.693	35.37
253.911	23.57
254.128	6.97
254.346	14.19
254.563	25.93
254.781	18.72
254.998	7.84
255.216	21.61
255.433	8.66
255.651	20.61
255.868	29.52
256.086	42.45
256.303	46.74
256.521	49.97
256.738	32.65
256.956	30.71
257.173	3.52
257.39	-43.62
257.608	-78.32
257.825	12.74
258.043	3.07
258.26	29.2
258.477	61.66
258.695	55.41
258.912	27.18
259.129	39.35
259.346	31.39
259.564	18.16
259.781	27.43
259.998	14.64
260.216	18.32
260.433	2.89
260.65	27.77
260.867	36.85
261.084	82.03
261.302	63.9
261.519	87.22
261.736	65.34
261.953	37.61
262.17	20.79
262.387	12.12
262.604	-24.57
262.822	-43.34
263.039	-53.59
263.256	-59.5
263.473	-77.79
263.69	-45.23
263.907	-7.17
264.124	12.01
264.341	28.34
264.558	35.33
264.775	35.76
264.992	2.96
265.209	2.26
265.426	-15.32
265.643	-0.3
265.86	-12.4
266.077	11.49
266.294	3.45
266.51	12.41
266.727	18.71
266.944	39.6
267.161	32.54
267.378	36.21
267.595	21.29
267.812	19.96
268.028	10.51
268.245	11.59
268.462	8.34
268.679	6.72
268.896	1.37
269.112	7.28
269.329	7.87
269.546	-17.51
269.763	2
269.979	13.26
270.196	21.62
270.413	31.33
270.629	31.03
270.846	21.58
271.063	9.65
271.279	-5.02
271.496	-26.48
271.712	-33.36
271.929	-32.63
272.146	-21.8
272.362	-33.71
272.579	-40.44
272.795	-25.7
273.012	-35.94
273.228	-18.95
273.445	-12.82
273.661	-6.04
273.878	-35.11
274.094	4.52
274.311	11.5
274.527	23.07
274.744	13.51
274.96	31.91
275.177	16.32
275.393	11.93
275.609	4.18
275.826	31.16
276.042	28.44
276.259	40.83
276.475	40.65
276.691	46.08
276.908	20.13
277.124	28.46
277.34	16.18
277.557	15.6
277.773	6.73
277.989	17.14
278.205	-6.82
278.422	-11.42
278.638	-4.43
278.854	5.98
279.07	3.89
279.286	14.91
279.503	26.24
279.719	20.03
279.935	-5.69
280.151	8.7
280.367	-12.87
280.583	-50
280.799	-26.59
281.016	-10.31
281.232	0.62
281.448	3.08
281.664	11.28
281.88	5.11
282.096	16.4
282.312	23.3
282.528	34.65
282.744	46.01
282.96	47.07
283.176	43.84
283.392	33.39
283.608	36.01
283.824	17.94
284.04	18.65
284.256	20.52
284.471	-3.6
284.687	15.68
284.903	30.88
285.119	29.62
285.335	-24.75
285.551	51.34
285.767	30.83
285.982	34.99
286.198	66.87
286.414	75.91
286.63	56.47
286.846	41.09
287.061	42.31
287.277	33.01
287.493	29.09
287.709	39.26
287.924	52.46
288.14	42.52
288.356	38.26
288.571	50.7
288.787	22.19
289.003	27.07
289.218	59.39
289.434	59.65
289.65	51.1
289.865	55.1
290.081	67.17
290.296	48.37
290.512	35.55
290.727	42.35
290.943	41.3
291.159	48.31
291.374	17.57
291.59	11.36
291.805	-21.56
292.021	-41.62
292.236	-42.06
292.451	-22.04
292.667	-15.21
292.882	1.31
293.098	15.22
293.313	-12.87
293.529	5.1
293.744	-13.01
293.959	-12.65
294.175	-30.8
294.39	-31.41
294.605	-1.1
294.821	30.23
295.036	43.12
295.251	55.55
295.467	48.73
295.682	27.01
295.897	20.38
296.112	5.29
296.328	6.27
296.543	23.73
296.758	35.07
296.973	21.51
297.188	18.08
297.404	-3.63
297.619	-25.87
297.834	-85.67
298.049	-84.23
298.264	-28.8
298.479	-5.39
298.694	2.41
298.909	1.81
299.125	3.97
299.34	-14.21
299.555	-2.95
299.77	-38.52
299.985	-38.65
300.2	-9.63
300.415	4
300.63	-33.37
300.845	12.87
301.06	24.5
301.275	2.65
301.49	6.06
301.704	12.14
301.919	-17.21
302.134	-43.37
302.349	-4.22
302.564	-5.51
302.779	14.26
302.994	36.16
303.209	46.48
303.423	48.99
303.638	40.93
303.853	38
304.068	27.95
304.283	11.24
304.497	2.86
304.712	13.85
304.927	24.18
305.142	17.02
305.356	32.66
305.571	40.88
305.786	33.22
306	32.31
306.215	47.64
306.43	39.46
306.644	34.46
306.859	49.77
307.074	50.45
307.288	48.78
307.503	47.18
307.717	45.9
307.932	32.43
308.147	30.76
308.361	17.67
308.576	23.36
308.79	15.69
309.005	15.45
309.219	7.74
309.434	-4.08
309.648	-21.34
309.863	-7.98
310.077	12.98
310.292	10.07
310.506	26.2
310.72	25.26
310.935	20.36
311.149	2.5
311.364	11.36
311.578	15.23
311.792	27.17
312.007	35.52
312.221	31.79
312.435	28.03
312.649	30.03
312.864	17.55
313.078	-3.41
313.292	6
313.507	1.3
313.721	-3.17
313.935	6.02
314.149	10.12
314.363	12.35
314.578	23.5
314.792	19.27
315.006	18.18
315.22	22.22
315.434	33.91
315.648	31.4
315.862	18.8
316.077	-0.37
316.291	15.16
316.505	-0.27
316.719	-10.32
316.933	10.67
317.147	10.94
317.361	9.66
317.575	21.62
317.789	25.04
318.003	27.97
318.217	36.21
318.431	35.03
318.645	29.71
318.859	44.79
319.073	50.84
319.287	47.22
319.5	41.33
319.714	23.41
319.928	9.96
320.142	-4.9
320.356	-13.85
320.57	-8.26
320.784	1.36
320.997	-3.38
321.211	8.37
321.425	21.45
321.639	33.98
321.853	51.56
322.066	55.57
322.28	61.03
322.494	51.82
322.707	56.46
322.921	42.62
323.135	26.83
323.349	10.25
323.562	-4.69
323.776	-15.04
323.989	-4.22
324.203	5.55
324.417	11.46
324.63	27
324.844	19.56
325.057	14.62
325.271	4.86
325.485	-0.6
325.698	-12.47
325.912	12.78
326.125	-4.61
326.339	0.33
326.552	3.41
326.766	7.62
326.979	-2.48
327.193	18.1
327.406	18.12
327.619	22.2
327.833	31.52
328.046	33.35
328.26	20.88
328.473	29.31
328.686	17.55
328.9	15.06
329.113	24.65
329.326	42.45
329.54	43.43
329.753	54.6
329.966	49.75
330.179	54.73
330.393	55.36
330.606	66.49
330.819	50.59
331.032	49.38
331.246	33.87
331.459	28.15
331.672	14.31
331.885	14.68
332.098	20.28
332.311	23.97
332.525	14.98
332.738	11.61
332.951	27
333.164	25.21
333.377	17.06
333.59	43.57
333.803	46.43
334.016	56.96
334.229	63.46
334.442	75.17
334.655	53.6
334.868	57.11
335.081	53.28
335.294	48.79
335.507	47.99
335.72	40.49
335.933	27.45
336.146	11.52
336.359	21.54
336.572	-0.61
336.785	3.78
336.997	14.91
337.21	-0.28
337.423	-30.74
337.636	-32.6
337.849	-30.75
338.062	-32.44
338.274	-11.67
338.487	-5.39
338.7	-18.27
338.913	-26.42
339.125	-39.68
339.338	-26.95
339.551	-4.8
339.763	12.78
339.976	12.12
340.189	26.79
340.402	6.85
340.614	-6.89
340.827	-1.41
341.039	11.49
341.252	9.75
341.465	30.88
341.677	51.08
341.89	41.8
342.102	39.67
342.315	19.95
342.527	5.48
342.74	15.9
342.952	16.99
343.165	32.14
343.377	46.56
343.59	37.52
343.802	31.41
344.015	48.51
344.227	26.41
344.44	27.83
344.652	50.12
344.864	48.74
345.077	35.96
345.289	58.94
345.502	51.83
345.714	32.1
345.926	32.5
346.139	38.07
346.351	27.33
346.563	23.39
346.775	23.75
346.988	25.53
347.2	-10.9
347.412	-12.88
347.624	-16.34
347.837	-5.05
348.049	-6.69
348.261	-8.13
348.473	4.79
348.685	16.59
348.897	18.76
349.11	15.91
349.322	23.13
349.534	31.89
349.746	39.09
349.958	23.23
350.17	25.17
350.382	31.88
350.594	16.68
350.806	5
351.018	15.57
351.23	1.08
351.442	1.87
351.654	11.57
351.866	11.84
352.078	17.15
352.29	28.88
352.502	27.3
352.714	23.22
352.926	12.77
353.138	5.66
353.35	-8.85
353.561	-24
353.773	-10.99
353.985	-2.51
354.197	-9.84
354.409	10.93
354.621	20.16
354.832	3.87
355.044	0.57
355.256	2.46
355.468	-3
355.679	-6.46
355.891	-0.64
356.103	22.53
356.314	28.9
356.526	30.57
356.738	32.63
356.949	37.44
357.161	52.36
357.373	52.85
357.584	41.45
357.796	30.74
358.008	31.2
358.219	20.52
358.431	13.4
358.642	26.8
358.854	29.78
359.065	21.51
359.277	11.33
359.488	12.87
359.7	9.27
359.911	3.63
360.123	10.33
360.334	7.56
360.546	16.88
360.757	3.94
360.969	0.26
361.18	-3.16
361.391	17.69
361.603	18.49
361.814	27.65
362.025	29.27
362.237	33.27
362.448	13.5
362.659	4.34
362.871	3.21
363.082	1.68
363.293	-0.28
363.504	9.11
363.716	14.68
363.927	-1.97
364.138	-3.28
364.349	-19.84
364.56	-26.1
364.772	-21.57
364.983	-10.83
365.194	-1.87
365.405	-11.14
365.616	-16.88
365.827	-10.75
366.038	1.82
366.25	3.47
366.461	15.4
366.672	24.16
366.883	17.84
367.094	12.32
367.305	8.96
367.516	15.77
367.727	15.09
367.938	9.99
368.149	11.89
368.36	14.11
368.571	24.49
368.781	20.05
368.992	30.74
369.203	36.2
369.414	23.76
369.625	13.01
369.836	9.56
370.047	8.46
370.258	-6.59
370.468	4.7
370.679	8.53
370.89	24.03
371.101	20.53
371.312	23.68
371.522	22.16
371.733	14.73
371.944	18.1
372.155	24.12
372.365	28.15
372.576	29.21
372.787	33.21
372.997	15.07
373.208	-0.49
373.419	13.94
373.629	9.51
373.84	-2.23
374.05	-5.45
374.261	5.64
374.472	-6.75
374.682	10.7
374.893	16.91
375.103	35.5
375.314	31.01
375.524	16.91
375.735	14.59
375.945	18.45
376.156	10.6
376.366	20.35
376.577	42.16
376.787	34.89
376.997	34.55
377.208	40.94
377.418	30.85
377.629	22.49
377.839	26.12
378.049	24.44
378.26	14.29
378.47	16.16
378.68	6.28
378.89	-1.65
379.101	5.3
379.311	6
379.521	4.18
379.732	18.28
379.942	34.86
380.152	42.85
380.362	45.06
380.572	52.32
380.783	44.56
380.993	40.47
381.203	27.32
381.413	24.11
381.623	10.16
381.833	1.18
382.043	-1.44
382.253	-11.57
382.463	-3.83
382.674	-4.69
382.884	2.88
383.094	10.65
383.304	12.07
383.514	14.2
383.724	22.77
383.934	18.92
384.144	13.97
384.353	16.21
384.563	9.82
384.773	4.88
384.983	12.18
385.193	7.25
385.403	7.41
385.613	14.94
385.823	17.5
386.033	6.78
386.242	9.2
386.452	7.34
386.662	6.29
386.872	9.44
387.082	12.95
387.291	10.94
387.501	14.29
387.711	5.45
387.921	-2.65
388.13	0.68
388.34	7.49
388.55	7.37
388.759	11.85
388.969	13.91
389.179	13.2
389.388	12.14
389.598	13.06
389.807	14.08
390.017	16.49
390.227	15.07
390.436	8.61
390.646	6.8
390.855	8.66
391.065	4.68
391.274	4.55
391.484	10.03
391.693	10.6
391.903	10.87
392.112	13.17
392.322	14.02
392.531	11.55
392.74	13.76
392.95	11.01
393.159	9.64
393.369	9.38
393.578	8.98
393.787	6.33
393.997	6.55
394.206	7.49
394.415	8.42
394.625	10.3
394.834	11.67
395.043	11.87
395.252	12.05
395.462	13.15
395.671	11.33
395.88	10.14
396.089	10.15
396.298	9.97
396.508	8.03
396.717	9.16
396.926	9.96
397.135	9.7
397.344	8.73
397.553	9.84
397.762	9.21
397.971	8.54
398.181	8.81
398.39	9.16
398.599	8.41
398.808	8.38
399.017	9.17
399.226	9.82
399.435	10.02
399.644	10.08
399.853	10.06
400.062	9.58
400.27	9.09
400.479	8.72
400.688	8.8
400.897	9.1
401.106	8.88
401.315	8.57
401.524	8.87
401.733	9.01
401.941	8.97
402.15	9.07
402.359	9.33
402.568	9.18
402.777	9
402.985	8.68
403.194	8.49
403.403	8.21
403.612	8.06
403.82	7.91
404.029	7.94
404.238	8.2
404.446	8.2
404.655	8.32
404.864	8.33
405.072	8.4
405.281	8.45
405.489	8.49
405.698	8.61
405.906	8.55
406.115	8.47
406.324	8.38
406.532	8.33
406.741	8.21
406.949	8.22
407.158	8.28
407.366	8.07
407.574	7.95
407.783	7.92
407.991	7.96
408.2	7.98
408.408	7.98
408.617	7.94
408.825	7.84
409.033	7.75
409.242	7.74
409.45	7.77
409.658	7.88
409.867	7.92
410.075	7.89
410.283	7.75
410.491	7.56
410.7	7.43
410.908	7.38
411.116	7.35
411.324	7.46
411.533	7.56
411.741	7.63
411.949	7.59
412.157	7.67
412.365	7.51
412.573	7.55
412.781	7.54
412.99	7.5
413.198	7.42
413.406	7.4
413.614	7.41
413.822	7.43
414.03	7.53
414.238	7.43
414.446	7.48
414.654	7.4
414.862	7.51
415.07	7.4
415.278	7.56
415.486	7.5
415.694	7.47
415.902	7.36
416.109	7.26
416.317	7.19
416.525	7.04
416.733	6.91
416.941	6.64
417.149	6.7
417.357	6.73
417.564	6.79
417.772	6.8
417.98	7
418.188	6.95
418.395	6.84
418.603	6.93
418.811	6.89
419.019	6.75
419.226	6.88
419.434	6.73
419.642	6.58
419.849	6.73
420.057	6.78
420.265	6.71
420.472	6.89
420.68	6.99
420.887	6.95
421.095	6.94
421.302	6.84
421.51	6.8
421.717	6.8
421.925	6.64
422.132	6.58
422.34	6.55
422.547	6.34
422.755	6.21
422.962	6.2
423.17	6.16
423.377	6.14
423.585	6.09
423.792	6.03
423.999	6.09
424.207	6.1
424.414	6.11
424.621	6.41
424.829	6.47
425.036	6.52
425.243	6.73
425.451	6.8
425.658	6.53
425.865	6.66
426.072	6.42
426.28	6.29
426.487	6.2
426.694	6.27
426.901	6.25
427.108	6.45
427.315	6.49
427.523	6.54
427.73	6.68
427.937	6.52
428.144	6.4
428.351	6.22
428.558	6.06
428.765	5.76
428.972	5.75
429.179	5.75
429.386	5.8
429.593	5.75
429.8	6.03
430.007	6.25
430.214	6.36
430.421	6.35
430.628	6.59
430.835	6.52
431.042	6.47
431.249	6.54
431.456	6.61
431.662	6.63
431.869	6.66
432.076	6.64
432.283	6.6
432.49	6.65
432.697	6.66
432.903	6.62
433.11	6.56
433.317	6.54
433.524	6.73
433.73	6.5
433.937	6.53
434.144	6.63
434.35	6.74
434.557	6.54
434.764	6.7
434.97	6.65
435.177	6.71
435.384	6.6
435.59	6.61
435.797	6.72
436.003	6.76
436.21	6.61
436.416	6.57
436.623	6.52
436.829	6.51
437.036	6.67
437.242	6.83
437.449	6.88
437.655	6.96
437.862	6.94
438.068	6.84
438.275	6.72
438.481	6.79
438.687	6.73
438.894	6.78
439.1	6.8
439.307	6.91
439.513	7.02
439.719	7.1
439.926	7
440.132	7.06
440.338	7.07
440.544	6.91
440.751	6.98
440.957	7.02
441.163	6.93
441.369	7.06
441.575	7.11
441.782	7.12
441.988	7.19
442.194	7.25
442.4	7.11
442.606	7.14
442.812	7.11
443.018	7.11
443.224	7.14
443.431	7.2
443.637	7.18
443.843	7.15
444.049	7.12
444.255	7.01
444.461	7.06
444.667	7.09
444.873	7.08
445.079	7.15
445.284	7.31
445.49	7.27
445.696	7.2
445.902	7.2
446.108	7.15
446.314	7.06
446.52	7.09
446.726	7.32
446.931	7.38
447.137	7.32
447.343	7.41
447.549	7.46
447.755	7.32
447.96	7.32
448.166	7.46
448.372	7.59
448.578	7.57
448.783	7.63
448.989	7.77
449.195	7.78
449.4	7.69
449.606	7.72
449.812	7.76
450.017	7.71
450.223	7.72
450.428	7.74
450.634	7.71
450.84	7.75
451.045	7.77
451.251	7.71
451.456	7.67
451.662	7.61
451.867	7.61
452.073	7.49
452.278	7.48
452.483	7.49
452.689	7.51
452.894	7.42
453.1	7.39
453.305	7.34
453.51	7.41
453.716	7.52
453.921	7.46
454.127	7.5
454.332	7.58
454.537	7.52
454.742	7.42
454.948	7.48
455.153	7.52
455.358	7.51
455.563	7.52
455.769	7.38
455.974	7.39
456.179	7.35
456.384	7.33
456.589	7.4
456.795	7.53
457	7.53
457.205	7.45
457.41	7.46
457.615	7.42
457.82	7.45
458.025	7.48
458.23	7.5
458.435	7.42
458.64	7.44
458.845	7.47
459.05	7.46
459.255	7.6
459.46	7.68
459.665	7.61
459.87	7.56
460.075	7.57
460.28	7.55
460.485	7.58
460.69	7.56
460.895	7.58
461.099	7.55
461.304	7.67
461.509	7.73
461.714	7.81
461.919	7.9
462.123	7.88
462.328	7.81
462.533	7.8
462.738	7.85
462.942	7.82
463.147	7.85
463.352	7.86
463.556	7.83
463.761	7.8
463.966	7.78
464.17	7.82
464.375	7.88
464.58	7.91
464.784	7.85
464.989	7.9
465.193	7.91
465.398	7.89
465.602	7.91
465.807	7.94
466.011	7.95
466.216	8.03
466.42	8.09
466.625	8.13
466.829	8.28
467.034	8.32
467.238	8.38
467.443	8.21
467.647	8.21
467.851	8.06
468.056	8.04
468.26	8
468.464	8.07
468.669	8.02
