Data from Ofra_PS_Phys_6CX18_Reflection_3.txt Node
Date: Tue Jul 20 20:41:21 EDT 2021
User: USUARIO
Spectrometer: FLMT01687
Trigger mode: 0
Integration Time (sec): 1.042999E0
Scans to average: 2
Electric dark correction enabled: true
Nonlinearity correction enabled: false
Boxcar width: 2
XAxis mode: Wavelengths
Number of Pixels in Spectrum: 3648
>>>>>Begin Spectral Data<<<<<
179.494	-179.34
179.716	-53.78
179.937	30.75
180.158	52.73
180.38	111
180.601	202.2
180.823	142.31
181.044	149.14
181.265	-264.42
181.486	-5.79
181.708	150.51
181.929	56.1
182.15	147.19
182.372	57.17
182.593	154.81
182.814	65.79
183.035	76.91
183.257	45.35
183.478	-173.33
183.699	-144.09
183.92	-25.36
184.141	-69.57
184.363	98.06
184.584	81.4
184.805	66.3
185.026	93.86
185.247	68.18
185.468	26.93
185.689	41.9
185.91	27.14
186.132	-44.85
186.353	-25.07
186.574	-15.47
186.795	-3.62
187.016	26.61
187.237	52.91
187.458	59.43
187.679	61.26
187.9	59.58
188.121	76.67
188.342	71.47
188.563	56.44
188.784	30.49
189.005	25.24
189.226	39.41
189.447	52.95
189.667	53.03
189.888	73.58
190.109	89.18
190.33	83.82
190.551	45.25
190.772	74.03
190.993	44.03
191.214	32.09
191.434	37.06
191.655	50.15
191.876	27.3
192.097	41.28
192.318	52.33
192.538	41.93
192.759	31
192.98	39.61
193.201	38.08
193.421	35.96
193.642	43.23
193.863	69.11
194.083	64.08
194.304	56.42
194.525	57.23
194.745	52.16
194.966	15.98
195.187	11.03
195.407	-4.6
195.628	-52.94
195.848	-32.07
196.069	26.79
196.29	9.96
196.51	13.94
196.731	23.37
196.951	9.6
197.172	-8.9
197.392	18.7
197.613	30.12
197.833	35.15
198.054	41.04
198.274	48.08
198.495	52.79
198.715	47.83
198.936	50.7
199.156	58.39
199.377	61.25
199.597	44.68
199.817	45.84
200.038	32.09
200.258	45.92
200.479	19.72
200.699	24.97
200.919	34.36
201.14	33.91
201.36	17.53
201.58	40.84
201.801	46.47
202.021	7.44
202.241	32.51
202.461	20.63
202.682	25.99
202.902	16.38
203.122	36.85
203.342	17.16
203.563	14.23
203.783	18.22
204.003	7.17
204.223	16.66
204.443	8.29
204.663	21.54
204.884	13.27
205.104	34.66
205.324	23.72
205.544	43.81
205.764	27.91
205.984	37.99
206.204	0.62
206.424	38.44
206.644	26.46
206.864	29.67
207.084	27.8
207.304	51.29
207.525	14.87
207.745	15.09
207.964	1.8
208.184	16.93
208.404	28.31
208.624	48.97
208.844	47.78
209.064	73.6
209.284	33.66
209.504	14.5
209.724	1.78
209.944	-12.75
210.164	11.34
210.384	50.6
210.604	70.5
210.823	79.19
211.043	66.01
211.263	50.64
211.483	57.11
211.703	43.64
211.922	23.63
212.142	21.49
212.362	40.09
212.582	14.47
212.801	8.69
213.021	-1.17
213.241	-6.33
213.461	-27.73
213.68	-65.43
213.9	-40.68
214.12	-60.69
214.339	-83.13
214.559	-27.46
214.779	-9.49
214.998	13.08
215.218	21.39
215.438	26.84
215.657	36.62
215.877	49.67
216.096	43.85
216.316	53.58
216.535	81.04
216.755	64.83
216.974	52.64
217.194	55.9
217.413	55.05
217.633	55.15
217.852	39.2
218.072	42.32
218.291	32.84
218.511	41.23
218.73	19.58
218.95	40.58
219.169	22.68
219.389	19.07
219.608	13.5
219.827	40.45
220.047	36.51
220.266	48.34
220.485	45.52
220.705	28.86
220.924	-3.46
221.143	14.66
221.363	16.47
221.582	5.39
221.801	57.52
222.021	55.37
222.24	33.08
222.459	34.86
222.678	46.34
222.897	22.17
223.117	29.89
223.336	53.79
223.555	68.84
223.774	55.27
223.993	70.27
224.213	65.47
224.432	51.22
224.651	49.79
224.87	44.76
225.089	13.58
225.308	22.11
225.527	16.47
225.746	20.39
225.965	39.97
226.184	72.38
226.404	78.15
226.623	89.9
226.842	51.18
227.061	47.47
227.28	0.91
227.499	-6.9
227.718	9.76
227.936	6.12
228.155	-0.54
228.374	13.36
228.593	23.14
228.812	9.95
229.031	13.06
229.25	4.89
229.469	5.66
229.688	-6.15
229.907	2.28
230.125	5.49
230.344	17.84
230.563	15.23
230.782	24.73
231.001	27.4
231.22	15.9
231.438	6.7
231.657	9.54
231.876	1.44
232.095	19.56
232.313	17.98
232.532	31.78
232.751	42.61
232.969	44.09
233.188	34.74
233.407	71.5
233.625	55.09
233.844	49.93
234.063	46.67
234.281	37.48
234.5	26.86
234.719	32.71
234.937	31.85
235.156	18.24
235.374	29.1
235.593	37.74
235.811	37.86
236.03	35.5
236.249	44.75
236.467	50.31
236.686	37.66
236.904	25.29
237.123	26.42
237.341	44.13
237.559	29.49
237.778	43.33
237.996	45.05
238.215	37.59
238.433	33.77
238.652	53.16
238.87	48.16
239.088	41.54
239.307	41.73
239.525	17.19
239.743	1.48
239.962	-16.96
240.18	5.3
240.398	18.02
240.617	32.33
240.835	27.4
241.053	33.29
241.271	33.93
241.49	15.55
241.708	20.85
241.926	19.24
242.144	12.29
242.363	11.95
242.581	34.3
242.799	29.84
243.017	34.19
243.235	49.36
243.453	39.14
243.672	30.63
243.89	27.17
244.108	31.61
244.326	19.6
244.544	18.95
244.762	24.18
244.98	21.95
245.198	24.58
245.416	21.79
245.634	28.4
245.852	23.18
246.07	27.93
246.288	19.93
246.506	24.39
246.724	11.96
246.942	18.04
247.16	13.51
247.378	25.26
247.596	38.58
247.814	40.41
248.032	39.49
248.25	40.67
248.468	29.97
248.685	14.22
248.903	10.46
249.121	9.71
249.339	7.29
249.557	20.1
249.775	30.41
249.992	32.42
250.21	37.28
250.428	39.29
250.646	46.7
250.863	33.71
251.081	4.71
251.299	-6.65
251.517	-11.69
251.734	-32.22
251.952	-46.51
252.17	-8.57
252.387	13.55
252.605	16.93
252.823	27.2
253.04	48.47
253.258	46.81
253.475	38.45
253.693	60.06
253.911	81.66
254.128	81.26
254.346	80.11
254.563	87.96
254.781	53.67
254.998	33.97
255.216	35.38
255.433	9.9
255.651	48.06
255.868	107.78
256.086	140.33
256.303	85.57
256.521	77.36
256.738	45.87
256.956	18.68
257.173	9.13
257.39	19.14
257.608	19.28
257.825	24.88
258.043	42.79
258.26	36.02
258.477	36.95
258.695	21.66
258.912	35.15
259.129	30.1
259.346	18.69
259.564	10.09
259.781	51.14
259.998	45.31
260.216	46.46
260.433	61.2
260.65	69.77
260.867	68.62
261.084	63.66
261.302	48.4
261.519	30.55
261.736	20.02
261.953	-5.91
262.17	-33.05
262.387	4.59
262.604	12.87
262.822	20.9
263.039	38.89
263.256	60
263.473	47.74
263.69	55.43
263.907	59.88
264.124	39.08
264.341	38.85
264.558	35.55
264.775	-17.47
264.992	-7.82
265.209	32.41
265.426	25.94
265.643	42.42
265.86	50.99
266.077	51.61
266.294	56.03
266.51	41.88
266.727	39.85
266.944	43.86
267.161	36.62
267.378	14.61
267.595	22.96
267.812	19.39
268.028	12.03
268.245	13.71
268.462	30.32
268.679	34.77
268.896	38.35
269.112	38.16
269.329	47.2
269.546	54.46
269.763	53.31
269.979	50.27
270.196	55.76
270.413	47.72
270.629	39.4
270.846	29.14
271.063	23.67
271.279	13.8
271.496	16.22
271.712	18.73
271.929	23.84
272.146	20.02
272.362	19.3
272.579	24.56
272.795	21.42
273.012	8.53
273.228	2.81
273.445	3.29
273.661	-12.34
273.878	1.92
274.094	39
274.311	49.1
274.527	49.59
274.744	55.25
274.96	46.31
275.177	38.06
275.393	24.63
275.609	-5.17
275.826	-14.11
276.042	-20.41
276.259	-18.68
276.475	-1.57
276.691	33.03
276.908	19.19
277.124	29.94
277.34	32.59
277.557	18.83
277.773	14.69
277.989	27.11
278.205	35.21
278.422	23.03
278.638	35.32
278.854	55.95
279.07	48.22
279.286	34.19
279.503	37.43
279.719	31.65
279.935	28.92
280.151	39.26
280.367	34.7
280.583	38.54
280.799	47.46
281.016	23.32
281.232	28.08
281.448	39.58
281.664	51.03
281.88	30.94
282.096	45.89
282.312	23.82
282.528	42.17
282.744	21.07
282.96	40.58
283.176	28.78
283.392	37.62
283.608	27.68
283.824	14.18
284.04	13.91
284.256	21.78
284.471	27.71
284.687	16.07
284.903	45.34
285.119	38.17
285.335	27.7
285.551	9.08
285.767	8.15
285.982	-8.08
286.198	10.75
286.414	15.92
286.63	20.73
286.846	16.95
287.061	9.62
287.277	-8.33
287.493	-11.83
287.709	-17.02
287.924	-12.79
288.14	-4.46
288.356	3.9
288.571	7.14
288.787	16.66
289.003	29.34
289.218	29.66
289.434	35.27
289.65	49.5
289.865	43.21
290.081	37.22
290.296	41.54
290.512	42.46
290.727	31.99
290.943	34.63
291.159	38.08
291.374	42.9
291.59	39.12
291.805	32.98
292.021	48.41
292.236	49.17
292.451	44.19
292.667	38.37
292.882	30.16
293.098	22.9
293.313	25.74
293.529	21.59
293.744	21.69
293.959	21.54
294.175	31.53
294.39	15.14
294.605	13.01
294.821	20.17
295.036	28.82
295.251	8.7
295.467	10.31
295.682	9.41
295.897	5.42
296.112	11.1
296.328	13.96
296.543	17.85
296.758	16.44
296.973	14.83
297.188	4.88
297.404	0.51
297.619	5
297.834	11.08
298.049	23.15
298.264	25.05
298.479	23.95
298.694	18.05
298.909	37.41
299.125	26.03
299.34	9.6
299.555	18.12
299.77	22.82
299.985	27.91
300.2	26.27
300.415	33.62
300.63	45.76
300.845	51.75
301.06	49.91
301.275	66.52
301.49	74.5
301.704	61.93
301.919	53.95
302.134	31.22
302.349	26.92
302.564	30.81
302.779	30.52
302.994	28.9
303.209	28.27
303.423	29.92
303.638	44.94
303.853	30.9
304.068	33.08
304.283	47.82
304.497	21.1
304.712	5.88
304.927	23.49
305.142	26.34
305.356	18.09
305.571	43.48
305.786	41.87
306	34.2
306.215	13.74
306.43	20.12
306.644	22.9
306.859	29.67
307.074	27.08
307.288	44.41
307.503	45.42
307.717	18.9
307.932	12.28
308.147	9.41
308.361	14.82
308.576	0.87
308.79	14.21
309.005	7.04
309.219	12.41
309.434	-12.06
309.648	-5.64
309.863	-12.24
310.077	5.37
310.292	19.12
310.506	26.86
310.72	35.53
310.935	20.91
311.149	15.04
311.364	5.68
311.578	35.66
311.792	36.81
312.007	49.36
312.221	59.42
312.435	55.93
312.649	44.27
312.864	26.73
313.078	37.86
313.292	34.13
313.507	39.02
313.721	31.73
313.935	35.76
314.149	35.1
314.363	33.43
314.578	7.22
314.792	8.74
315.006	10.55
315.22	-6.5
315.434	-12.07
315.648	12.5
315.862	10.75
316.077	6.9
316.291	9.35
316.505	12.04
316.719	20.02
316.933	21.05
317.147	22.47
317.361	11.77
317.575	13.89
317.789	-5.99
318.003	-10.61
318.217	3.37
318.431	29.11
318.645	33.46
318.859	22.68
319.073	16.19
319.287	11.92
319.5	13.68
319.714	14.5
319.928	43
320.142	38
320.356	45.56
320.57	36.51
320.784	40.17
320.997	39.72
321.211	43.3
321.425	40.98
321.639	53.16
321.853	43.6
322.066	32.96
322.28	42.45
322.494	45.79
322.707	37.25
322.921	35.94
323.135	35.18
323.349	25.24
323.562	9.22
323.776	11.11
323.989	23.08
324.203	31.5
324.417	44.11
324.63	53.86
324.844	61.1
325.057	63.6
325.271	42.33
325.485	17.51
325.698	10.46
325.912	13.93
326.125	26.73
326.339	31
326.552	44.11
326.766	49.75
326.979	42.28
327.193	26.01
327.406	32.29
327.619	41.68
327.833	42.87
328.046	44.86
328.26	33.24
328.473	31.47
328.686	23.68
328.9	6.62
329.113	-1.16
329.326	10.97
329.54	21.96
329.753	24.43
329.966	22.41
330.179	20.67
330.393	18.08
330.606	18.9
330.819	4.62
331.032	5.29
331.246	16.61
331.459	19.26
331.672	-13
331.885	5.04
332.098	24.34
332.311	18.91
332.525	33.96
332.738	55.59
332.951	46.68
333.164	52.67
333.377	48.54
333.59	32.59
333.803	21.12
334.016	23.98
334.229	13.64
334.442	17.7
334.655	0.25
334.868	-1.81
335.081	12.06
335.294	17.57
335.507	21.55
335.72	39.8
335.933	41.38
336.146	54.68
336.359	44.12
336.572	37.05
336.785	28.89
336.997	36.58
337.21	7.04
337.423	20.75
337.636	17.21
337.849	23.6
338.062	38.55
338.274	59.48
338.487	66.38
338.7	60
338.913	59.01
339.125	50.08
339.338	38.73
339.551	36.7
339.763	56.53
339.976	47.99
340.189	40.93
340.402	37.64
340.614	25.81
340.827	-0.37
341.039	15.54
341.252	24.34
341.465	31.51
341.677	34.9
341.89	29.87
342.102	22.46
342.315	28.76
342.527	40.05
342.74	34.85
342.952	50.77
343.165	40.97
343.377	48.69
343.59	27.52
343.802	26.7
344.015	24.34
344.227	43.03
344.44	31.57
344.652	36.12
344.864	46.48
345.077	26.31
345.289	8.48
345.502	-2.48
345.714	-18.98
345.926	-48.81
346.139	-1.47
346.351	2.72
346.563	15.86
346.775	21.4
346.988	24.8
347.2	30.28
347.412	32.75
347.624	32.19
347.837	27.78
348.049	19.78
348.261	18.11
348.473	-5.3
348.685	23.54
348.897	26.06
349.11	31.06
349.322	15.95
349.534	28.43
349.746	13.32
349.958	17.88
350.17	13.66
350.382	23.97
350.594	26.63
350.806	27.94
351.018	14.84
351.23	23.18
351.442	20.59
351.654	16.58
351.866	18.91
352.078	23.42
352.29	28.95
352.502	31.67
352.714	22.02
352.926	27.72
353.138	29.95
353.35	18.14
353.561	3.83
353.773	18.17
353.985	12.16
354.197	18.02
354.409	28.46
354.621	35.72
354.832	26.3
355.044	28.09
355.256	24.98
355.468	24.15
355.679	28.63
355.891	35.52
356.103	24.59
356.314	26.01
356.526	28.98
356.738	20.24
356.949	23.33
357.161	31.77
357.373	28.57
357.584	16.14
357.796	15.41
358.008	15.21
358.219	15.1
358.431	13.05
358.642	19.69
358.854	20.09
359.065	26.46
359.277	28.51
359.488	30.91
359.7	25.46
359.911	42.1
360.123	42.22
360.334	38.24
360.546	49.55
360.757	50.07
360.969	39.02
361.18	38.78
361.391	36.93
361.603	23.33
361.814	19.66
362.025	20.82
362.237	15.62
362.448	15.71
362.659	21.67
362.871	48.34
363.082	45.4
363.293	45.18
363.504	46.76
363.716	38.46
363.927	14.32
364.138	20.41
364.349	10.03
364.56	8.76
364.772	10.62
364.983	13.69
365.194	9.86
365.405	11.62
365.616	10.73
365.827	15.04
366.038	13.24
366.25	9.66
366.461	13.71
366.672	21
366.883	8.48
367.094	19.16
367.305	11.88
367.516	16.34
367.727	12.15
367.938	21.18
368.149	18.88
368.36	29.8
368.571	31.41
368.781	34.9
368.992	27.63
369.203	25.97
369.414	25.98
369.625	5.92
369.836	10.57
370.047	21.39
370.258	20.66
370.468	24.26
370.679	38.2
370.89	36.22
371.101	42.16
371.312	37.3
371.522	36.03
371.733	33.96
371.944	32.58
372.155	25.43
372.365	28.33
372.576	20.79
372.787	12.29
372.997	6.85
373.208	4.2
373.419	10.37
373.629	3.39
373.84	-7.54
374.05	-6.68
374.261	-0.61
374.472	-15.03
374.682	3.68
374.893	16.36
375.103	4.86
375.314	7.36
375.524	18.02
375.735	15.68
375.945	7.99
376.156	24.4
376.366	20.21
376.577	9.2
376.787	5.31
376.997	13.16
377.208	10.6
377.418	2.81
377.629	8.6
377.839	7.05
378.049	14.05
378.26	16.83
378.47	29.83
378.68	30.89
378.89	37.08
379.101	25.95
379.311	18.58
379.521	9.43
379.732	8.13
379.942	14.83
380.152	11.9
380.362	16.15
380.572	18.77
380.783	13.42
380.993	11.78
381.203	17.06
381.413	0.7
381.623	2.58
381.833	14.59
382.043	12.77
382.253	10.8
382.463	27.93
382.674	28.09
382.884	20.98
383.094	16.56
383.304	20.01
383.514	27.59
383.724	17.69
383.934	19.61
384.144	22.79
384.353	24.62
384.563	11.28
384.773	17.16
384.983	21.56
385.193	25.34
385.403	23.82
385.613	25.8
385.823	24.83
386.033	22.39
386.242	19.14
386.452	12.37
386.662	13.18
386.872	12.39
387.082	6.87
387.291	4.02
387.501	5.88
387.711	7.96
387.921	10.67
388.13	14.84
388.34	13.29
388.55	9.37
388.759	3.17
388.969	-2.94
389.179	-4.8
389.388	-2.35
389.598	2.84
389.807	7.12
390.017	9.72
390.227	5.66
390.436	9.8
390.646	6.03
390.855	3.76
391.065	5.69
391.274	8.81
391.484	7.63
391.693	9.59
391.903	10.71
392.112	8.69
392.322	7.78
392.531	6.42
392.74	5.02
392.95	2.97
393.159	2.56
393.369	4.62
393.578	4.28
393.787	6.24
393.997	9.31
394.206	10.99
394.415	9.35
394.625	9.3
394.834	8.95
395.043	7.97
395.252	7.34
395.462	6.28
395.671	5.92
395.88	6.05
396.089	5.2
396.298	5.25
396.508	4.65
396.717	4.87
396.926	4.65
397.135	4.5
397.344	4.41
397.553	5.94
397.762	6.02
397.971	5.5
398.181	4.89
398.39	4.59
398.599	4.3
398.808	3.71
399.017	3.96
399.226	5.12
399.435	4.78
399.644	4.84
399.853	5.42
400.062	5.48
400.27	5.28
400.479	5.95
400.688	5.99
400.897	5.96
401.106	5.77
401.315	5.67
401.524	5.08
401.733	4.48
401.941	4.02
402.15	3.93
402.359	3.75
402.568	3.87
402.777	4.17
402.985	3.78
403.194	4.06
403.403	4.25
403.612	4.22
403.82	4.04
404.029	4.47
404.238	4.32
404.446	4.18
404.655	4.13
404.864	4.47
405.072	4.45
405.281	4.53
405.489	4.46
405.698	4.4
405.906	4.2
406.115	4.32
406.324	4.15
406.532	4.1
406.741	4.21
406.949	4.26
407.158	4.17
407.366	4.21
407.574	4.19
407.783	4.18
407.991	4.18
408.2	4.16
408.408	4.06
408.617	4.12
408.825	4.2
409.033	4.14
409.242	4.16
409.45	4.18
409.658	4.13
409.867	3.94
410.075	3.98
410.283	3.87
410.491	3.84
410.7	4.05
410.908	3.95
411.116	4.02
411.324	4.11
411.533	4.29
411.741	4.08
411.949	4.38
412.157	4.29
412.365	4.4
412.573	4.28
412.781	4.26
412.99	4.12
413.198	4.14
413.406	3.92
413.614	3.94
413.822	4.02
414.03	3.95
414.238	3.84
414.446	3.84
414.654	3.93
414.862	3.8
415.07	3.82
415.278	3.9
415.486	3.97
415.694	3.86
415.902	3.89
416.109	3.81
416.317	3.9
416.525	3.83
416.733	3.72
416.941	3.73
417.149	3.76
417.357	3.59
417.564	3.65
417.772	3.76
417.98	3.92
418.188	4
418.395	4.02
418.603	3.96
418.811	3.95
419.019	3.69
419.226	3.8
419.434	3.73
419.642	3.69
419.849	3.54
420.057	3.55
420.265	3.5
420.472	3.53
420.68	3.7
420.887	3.74
421.095	3.83
421.302	3.59
421.51	3.53
421.717	3.31
421.925	3.48
422.132	3.48
422.34	3.65
422.547	3.64
422.755	3.74
422.962	3.62
423.17	3.42
423.377	3.47
423.585	3.6
423.792	3.57
423.999	3.6
424.207	3.62
424.414	3.69
424.621	3.58
424.829	3.43
425.036	3.5
425.243	3.75
425.451	3.6
425.658	3.66
425.865	3.95
426.072	3.84
426.28	3.61
426.487	3.77
426.694	3.75
426.901	3.66
427.108	3.49
427.315	3.62
427.523	3.52
427.73	3.52
427.937	3.42
428.144	3.58
428.351	3.6
428.558	3.55
428.765	3.38
428.972	3.44
429.179	3.38
429.386	3.36
429.593	3.46
429.8	3.53
430.007	3.51
430.214	3.59
430.421	3.54
430.628	3.51
430.835	3.49
431.042	3.51
431.249	3.64
431.456	3.75
431.662	3.74
431.869	3.92
432.076	3.99
432.283	3.85
432.49	3.7
432.697	3.64
432.903	3.53
433.11	3.42
433.317	3.49
433.524	3.58
433.73	3.54
433.937	3.53
434.144	3.53
434.35	3.53
434.557	3.59
434.764	3.53
434.97	3.59
435.177	3.66
435.384	3.59
435.59	3.56
435.797	3.82
436.003	3.9
436.21	3.89
436.416	3.82
436.623	3.79
436.829	3.62
437.036	3.58
437.242	3.63
437.449	3.78
437.655	3.85
437.862	3.86
438.068	3.87
438.275	3.81
438.481	3.88
438.687	3.71
438.894	3.75
439.1	3.65
439.307	3.76
439.513	3.72
439.719	3.79
439.926	3.82
440.132	3.91
440.338	3.76
440.544	3.66
440.751	3.74
440.957	3.66
441.163	3.62
441.369	3.84
441.575	3.91
441.782	3.82
441.988	3.83
442.194	3.87
442.4	3.7
442.606	3.76
442.812	3.79
443.018	3.85
443.224	3.75
443.431	3.83
443.637	3.73
443.843	3.73
444.049	3.7
444.255	3.8
444.461	3.77
444.667	3.79
444.873	3.74
445.079	3.78
445.284	3.65
445.49	3.63
445.696	3.62
445.902	3.65
446.108	3.76
446.314	3.9
446.52	3.85
446.726	3.85
446.931	3.97
447.137	3.83
447.343	3.82
447.549	3.96
447.755	3.93
447.96	3.87
448.166	3.87
448.372	3.96
448.578	3.96
448.783	4.04
448.989	4.02
449.195	4
449.4	3.98
449.606	3.91
449.812	3.9
450.017	3.92
450.223	3.92
450.428	3.86
450.634	3.88
450.84	3.93
451.045	3.99
451.251	4.03
451.456	3.95
451.662	3.89
451.867	3.93
452.073	3.95
452.278	3.94
452.483	4.1
452.689	4.2
452.894	4.19
453.1	4.08
453.305	4.15
453.51	4.1
453.716	4.08
453.921	4.05
454.127	4.13
454.332	4.11
454.537	4.07
454.742	4.13
454.948	4.11
455.153	4.12
455.358	4.14
455.563	4.26
455.769	4.17
455.974	4.11
456.179	4.08
456.384	3.98
456.589	3.8
456.795	3.86
457	3.91
457.205	3.97
457.41	4.02
457.615	4.19
457.82	4.18
458.025	4.21
458.23	4.17
458.435	4.18
458.64	4.09
458.845	4.09
459.05	4.09
459.255	4.08
459.46	4.18
459.665	4.22
459.87	4.3
460.075	4.36
460.28	4.47
460.485	4.42
460.69	4.42
460.895	4.34
461.099	4.28
461.304	4.18
461.509	4.13
461.714	4.12
461.919	4.22
462.123	4.21
462.328	4.12
462.533	4.19
462.738	4.23
462.942	4.17
463.147	4.2
463.352	4.4
463.556	4.38
463.761	4.31
463.966	4.24
464.17	4.27
464.375	4.24
464.58	4.28
464.784	4.35
464.989	4.37
465.193	4.4
465.398	4.48
465.602	4.51
465.807	4.49
466.011	4.52
466.216	4.45
466.42	4.33
466.625	4.36
466.829	4.26
467.034	4.31
467.238	4.41
467.443	4.45
467.647	4.4
467.851	4.46
468.056	4.55
468.26	4.52
468.464	4.5
468.669	4.55
468.873	4.62
469.077	4.56
