Data from Ofra_PS_Phys_1GT42_Reflection_2.txt Node
Date: Tue Jul 20 17:51:43 EDT 2021
User: USUARIO
Spectrometer: FLMT01687
Trigger mode: 0
Integration Time (sec): 1.042999E0
Scans to average: 2
Electric dark correction enabled: true
Nonlinearity correction enabled: false
Boxcar width: 2
XAxis mode: Wavelengths
Number of Pixels in Spectrum: 3648
>>>>>Begin Spectral Data<<<<<
179.494	72.78
179.716	93.13
179.937	67.88
180.158	-125.82
180.38	-197.7
180.601	327.91
180.823	345.19
181.044	397.68
181.265	883.14
181.486	81.84
181.708	55.66
181.929	-30.85
182.15	-62.16
182.372	931.34
182.593	121.91
182.814	82.77
183.035	50.95
183.257	23.33
183.478	-0.55
183.699	-14.89
183.92	-15.59
184.141	-48.45
184.363	-14.47
184.584	24.43
184.805	54.13
185.026	71.77
185.247	78.77
185.468	73.39
185.689	56.67
185.91	48.57
186.132	32.99
186.353	21.6
186.574	33.87
186.795	41.44
187.016	24.3
187.237	46.46
187.458	32.04
187.679	74.1
187.9	21.77
188.121	1.21
188.342	-363.77
188.563	-23.59
188.784	-27.61
189.005	17.57
189.226	23.52
189.447	58.87
189.667	37.14
189.888	34.39
190.109	36.88
190.33	20.03
190.551	27.09
190.772	37.48
190.993	40.75
191.214	28.23
191.434	33.96
191.655	27.94
191.876	32.55
192.097	50.6
192.318	74.87
192.538	110.63
192.759	85.33
192.98	55.61
193.201	60.01
193.421	49.64
193.642	62.28
193.863	46.08
194.083	74.23
194.304	61.41
194.525	44
194.745	10.44
194.966	32.18
195.187	27.6
195.407	6.73
195.628	38.42
195.848	63.81
196.069	74.8
196.29	63.2
196.51	55.96
196.731	38.21
196.951	38.76
197.172	7.8
197.392	-16.35
197.613	-7.56
197.833	-9.51
198.054	-35.2
198.274	-4.95
198.495	2.73
198.715	15.76
198.936	26.93
199.156	30
199.377	30.52
199.597	45.53
199.817	21.46
200.038	11.6
200.258	19.6
200.479	18.55
200.699	-11.95
200.919	-14.41
201.14	23.45
201.36	21.47
201.58	4.49
201.801	48.82
202.021	141.55
202.241	43.85
202.461	-17.52
202.682	16.25
202.902	7.27
203.122	-8.73
203.342	14.83
203.563	23.69
203.783	38.13
204.003	18.38
204.223	34.2
204.443	30.81
204.663	35.7
204.884	30.05
205.104	27.96
205.324	23.29
205.544	6.9
205.764	18.63
205.984	-4.68
206.204	10.6
206.424	10.96
206.644	19.02
206.864	30.28
207.084	37.28
207.304	57.74
207.525	57.5
207.745	50.68
207.964	23.38
208.184	51.15
208.404	29
208.624	31.48
208.844	54.75
209.064	59.04
209.284	54.92
209.504	63.04
209.724	55.04
209.944	52.27
210.164	52.89
210.384	76.04
210.604	114.18
210.823	111.72
211.043	89.18
211.263	77.66
211.483	25.96
211.703	10.7
211.922	15.89
212.142	35.67
212.362	44.1
212.582	61.52
212.801	29.44
213.021	28.1
213.241	-64.83
213.461	-2.02
213.68	10.79
213.9	13.2
214.12	39.7
214.339	36.51
214.559	-21.04
214.779	13.36
214.998	12.89
215.218	-2.59
215.438	10.65
215.657	-0.69
215.877	-1.71
216.096	30.66
216.316	9.86
216.535	18.7
216.755	40.28
216.974	23.25
217.194	-0.12
217.413	24.18
217.633	27.97
217.852	28.9
218.072	36.54
218.291	41.1
218.511	30.55
218.73	-2.8
218.95	-27.8
219.169	-14.97
219.389	-21.37
219.608	-31.48
219.827	16.39
220.047	30.15
220.266	26.53
220.485	3.98
220.705	10.86
220.924	4.17
221.143	-7.01
221.363	-9.13
221.582	-5.97
221.801	-13.97
222.021	-49.03
222.24	-19.06
222.459	-47.95
222.678	-6.49
222.897	37.28
223.117	48.18
223.336	70.31
223.555	79.21
223.774	85.1
223.993	84.51
224.213	72.25
224.432	41.53
224.651	41.61
224.87	22.64
225.089	7.54
225.308	-3.99
225.527	4.4
225.746	-22.25
225.965	-34.19
226.184	-0.9
226.404	8.36
226.623	-9.32
226.842	8.32
227.061	33.37
227.28	17.07
227.499	-0.86
227.718	15.39
227.936	23.86
228.155	21.64
228.374	2.73
228.593	26.18
228.812	27.47
229.031	18
229.25	-0.79
229.469	25.44
229.688	27.76
229.907	33.93
230.125	50.01
230.344	62.54
230.563	62.43
230.782	46.38
231.001	37.61
231.22	33.01
231.438	32.63
231.657	9.8
231.876	26.33
232.095	18.5
232.313	36.25
232.532	30.62
232.751	50.72
232.969	52.36
233.188	67.81
233.407	46.51
233.625	69.56
233.844	73.78
234.063	56.78
234.281	57.43
234.5	64.81
234.719	58.92
234.937	48.6
235.156	62.53
235.374	56.15
235.593	57.64
235.811	37.25
236.03	-34.02
236.249	-61.5
236.467	-31.94
236.686	-25.31
236.904	-2.35
237.123	35.96
237.341	34.86
237.559	44.43
237.778	52.91
237.996	52.52
238.215	43.62
238.433	33.57
238.652	17.66
238.87	10.55
239.088	5.99
239.307	7.9
239.525	29.66
239.743	26.36
239.962	1.05
240.18	18.72
240.398	14.89
240.617	2.17
240.835	18.34
241.053	43.09
241.271	36.24
241.49	33.24
241.708	33.18
241.926	27.2
242.144	23.78
242.363	13.24
242.581	11.32
242.799	-0.77
243.017	14.67
243.235	2.3
243.453	6.07
243.672	18.33
243.89	26.2
244.108	20.27
244.326	29.17
244.544	20.49
244.762	18.63
244.98	12.51
245.198	4.79
245.416	25.18
245.634	26.43
245.852	30.93
246.07	45.67
246.288	48.15
246.506	36.62
246.724	57.96
246.942	71.42
247.16	57.06
247.378	56.34
247.596	64.46
247.814	51.06
248.032	8.21
248.25	27.84
248.468	27.46
248.685	28.33
248.903	32.64
249.121	40.85
249.339	26.4
249.557	40.83
249.775	42.82
249.992	53.69
250.21	59.06
250.428	48.34
250.646	-13.43
250.863	-1.28
251.081	-29.72
251.299	-60.86
251.517	-20.12
251.734	-11.56
251.952	-49.61
252.17	0.2
252.387	23.69
252.605	15.12
252.823	30.61
253.04	48.09
253.258	33.96
253.475	27.43
253.693	42.19
253.911	47.69
254.128	41.06
254.346	42.29
254.563	58.74
254.781	48.9
254.998	29.38
255.216	14.63
255.433	6.02
255.651	-19.03
255.868	-27.92
256.086	-5.58
256.303	-8.73
256.521	5.63
256.738	-6.81
256.956	7.63
257.173	-21.01
257.39	-17.29
257.608	-38.53
257.825	41.27
258.043	35.85
258.26	56.72
258.477	63.3
258.695	53.7
258.912	29.77
259.129	32.38
259.346	28.23
259.564	14.11
259.781	26.89
259.998	19.55
260.216	34.19
260.433	22.44
260.65	44.68
260.867	45.19
261.084	62.87
261.302	41.59
261.519	55.42
261.736	34.5
261.953	40.46
262.17	35.37
262.387	41.89
262.604	56.27
262.822	25.92
263.039	-25.86
263.256	-44.65
263.473	-48.41
263.69	-29.13
263.907	9.21
264.124	22.19
264.341	57.03
264.558	55.76
264.775	71.95
264.992	55.74
265.209	32.66
265.426	0.11
265.643	16.29
265.86	1.08
266.077	7.52
266.294	22.31
266.51	36.66
266.727	37.45
266.944	34.8
267.161	29.29
267.378	31.87
267.595	26.07
267.812	23.25
268.028	24.34
268.245	25.49
268.462	22.69
268.679	7.26
268.896	11.98
269.112	17.44
269.329	4.6
269.546	-37.28
269.763	-39.83
269.979	-21.24
270.196	-7.62
270.413	16.83
270.629	23.79
270.846	30.88
271.063	14.22
271.279	7.28
271.496	4.71
271.712	9.72
271.929	-6.23
272.146	8.65
272.362	1.51
272.579	16.81
272.795	-4.19
273.012	29.26
273.228	42.85
273.445	35.99
273.661	29.47
273.878	35.37
274.094	17.81
274.311	11.02
274.527	29.27
274.744	17.08
274.96	36.66
275.177	22.75
275.393	15.71
275.609	5.34
275.826	9.99
276.042	-14.9
276.259	20.7
276.475	22.53
276.691	34.12
276.908	35.33
277.124	38.76
277.34	23.3
277.557	37.68
277.773	17.79
277.989	16.57
278.205	-0.91
278.422	20.29
278.638	7.83
278.854	16.12
279.07	12.8
279.286	27.25
279.503	18.59
279.719	16.45
279.935	33.79
280.151	41.82
280.367	37.76
280.583	33.57
280.799	47.45
281.016	34.85
281.232	28.71
281.448	14.17
281.664	19.01
281.88	15.23
282.096	12.23
282.312	16.24
282.528	33.99
282.744	26.39
282.96	20.72
283.176	28.64
283.392	26.26
283.608	28.13
283.824	26.38
284.04	32.34
284.256	18.65
284.471	13.4
284.687	15.62
284.903	27.56
285.119	30.49
285.335	-6.19
285.551	24.65
285.767	22.69
285.982	40.95
286.198	35.83
286.414	51.77
286.63	41.24
286.846	38.83
287.061	31.36
287.277	45.13
287.493	50.44
287.709	74.36
287.924	67.61
288.14	87.58
288.356	71.94
288.571	74.06
288.787	40.08
289.003	31.99
289.218	28.53
289.434	21.28
289.65	17.96
289.865	13.24
290.081	29.59
290.296	31.33
290.512	24.96
290.727	13.75
290.943	19.33
291.159	23.88
291.374	-24.62
291.59	-30.24
291.805	-52.82
292.021	-65.11
292.236	-30.38
292.451	3.43
292.667	14.73
292.882	57.55
293.098	66.33
293.313	46.16
293.529	53.26
293.744	40.87
293.959	-3.84
294.175	-21.31
294.39	-42.38
294.605	-43.19
294.821	-25.65
295.036	-25.26
295.251	6.96
295.467	1.12
295.682	5.9
295.897	6.53
296.112	-4.63
296.328	-2.83
296.543	20.22
296.758	15.55
296.973	6
297.188	33.85
297.404	21.22
297.619	5.87
297.834	1.9
298.049	23.16
298.264	1.41
298.479	-3.91
298.694	-5.39
298.909	-12.65
299.125	8.86
299.34	27.19
299.555	17.01
299.77	4.12
299.985	-1.05
300.2	-67.12
300.415	-66.9
300.63	-59.01
300.845	-4.53
301.06	2.48
301.275	6.79
301.49	10.67
301.704	5.69
301.919	-6.75
302.134	-28.83
302.349	-4.04
302.564	-1.04
302.779	3.43
302.994	20.54
303.209	30.82
303.423	44.62
303.638	27.33
303.853	44.38
304.068	40.94
304.283	35.51
304.497	7.27
304.712	39.58
304.927	29.01
305.142	20.49
305.356	27.99
305.571	35.8
305.786	31.88
306	30.64
306.215	45.4
306.43	52.3
306.644	54.63
306.859	54.6
307.074	52.16
307.288	48.05
307.503	39.49
307.717	43.9
307.932	30.14
308.147	27.88
308.361	24.81
308.576	22.09
308.79	14.39
309.005	19.84
309.219	30.9
309.434	14.44
309.648	10.96
309.863	1.13
310.077	20.02
310.292	28.94
310.506	24.9
310.72	39.46
310.935	38.87
311.149	13.39
311.364	16.96
311.578	31.5
311.792	30.58
312.007	46.52
312.221	58.88
312.435	48
312.649	30.39
312.864	-13.91
313.078	-23.45
313.292	-27.93
313.507	-32.21
313.721	-21.42
313.935	20.61
314.149	35.04
314.363	35.28
314.578	35.97
314.792	26.75
315.006	21.1
315.22	28.44
315.434	22.6
315.648	8.04
315.862	5.6
316.077	-18.62
316.291	-35.37
316.505	-15.29
316.719	16.98
316.933	18.48
317.147	37.21
317.361	47.1
317.575	65.86
317.789	51.52
318.003	54.08
318.217	51.47
318.431	44.54
318.645	24.92
318.859	38.2
319.073	56.2
319.287	41.83
319.5	28.87
319.714	27.34
319.928	14.92
320.142	12.27
320.356	18.26
320.57	13.2
320.784	15.48
320.997	-11.82
321.211	-22.4
321.425	-11.4
321.639	4.83
321.853	20.15
322.066	29.82
322.28	53.37
322.494	41.74
322.707	51.99
322.921	49.86
323.135	44.82
323.349	31.57
323.562	20.44
323.776	10.37
323.989	5.24
324.203	7.43
324.417	-1.28
324.63	1.05
324.844	3.97
325.057	22.02
325.271	27.86
325.485	34.07
325.698	-3.47
325.912	3.67
326.125	-24.87
326.339	-20.91
326.552	-13.97
326.766	16.64
326.979	18.04
327.193	27.05
327.406	21.71
327.619	38.34
327.833	44.43
328.046	30.66
328.26	26.17
328.473	43.1
328.686	4.86
328.9	-0.81
329.113	10.25
329.326	23.33
329.54	19.52
329.753	18.24
329.966	-0.55
330.179	18.59
330.393	19.81
330.606	3.02
330.819	24.79
331.032	32.98
331.246	25.87
331.459	4.65
331.672	6.18
331.885	-8.08
332.098	-2.49
332.311	-2.07
332.525	4.97
332.738	-1.31
332.951	16.82
333.164	27.34
333.377	21.18
333.59	33.41
333.803	39.97
334.016	38.78
334.229	18.04
334.442	25.76
334.655	21.41
334.868	39.5
335.081	43.87
335.294	52.77
335.507	50.42
335.72	44.28
335.933	23.35
336.146	1.65
336.359	-3.37
336.572	-24.72
336.785	-2.63
336.997	7.27
337.21	22.61
337.423	11.63
337.636	14.5
337.849	-0.83
338.062	1.47
338.274	-5.28
338.487	10.31
338.7	1.56
338.913	5.87
339.125	12.82
339.338	35.93
339.551	27.71
339.763	28.17
339.976	30.05
340.189	30.25
340.402	18.91
340.614	12.68
340.827	26.77
341.039	22.83
341.252	19.18
341.465	21.94
341.677	37.09
341.89	24.57
342.102	41.63
342.315	24.95
342.527	9.79
342.74	29.32
342.952	29.73
343.165	30.52
343.377	46.94
343.59	51.21
343.802	46.57
344.015	48.99
344.227	39.6
344.44	34.14
344.652	43.08
344.864	36
345.077	44.92
345.289	52.08
345.502	46.49
345.714	32.84
345.926	29.67
346.139	17.66
346.351	15.88
346.563	12.29
346.775	22.6
346.988	12.62
347.2	-12.6
347.412	-13.97
347.624	12.88
347.837	12.4
348.049	14.7
348.261	20.4
348.473	29.33
348.685	28.47
348.897	29.58
349.11	32.01
349.322	30.57
349.534	33.5
349.746	26.24
349.958	35.05
350.17	35.22
350.382	29.15
350.594	5.29
350.806	19.93
351.018	10.11
351.23	10.77
351.442	25.61
351.654	29.25
351.866	26.99
352.078	18.96
352.29	10.32
352.502	5.39
352.714	12.91
352.926	-8.29
353.138	-3.86
353.35	-1.61
353.561	-6.65
353.773	4.79
353.985	27.42
354.197	22.27
354.409	33.47
354.621	43.75
354.832	31.79
355.044	18.7
355.256	33.15
355.468	21.97
355.679	20.96
355.891	26.55
356.103	38.27
356.314	47.31
356.526	56.9
356.738	54.42
356.949	58.26
357.161	70.36
357.373	63.79
357.584	45.14
357.796	25
358.008	19.81
358.219	15.01
358.431	6.1
358.642	22.99
358.854	30.11
359.065	27.87
359.277	16.47
359.488	27.69
359.7	20.89
359.911	15.99
360.123	10.57
360.334	20.01
360.546	13.33
360.757	19.86
360.969	35
361.18	48.29
361.391	48
361.603	48.31
361.814	53.12
362.025	44.54
362.237	34.78
362.448	24.26
362.659	23.65
362.871	12.83
363.082	10.11
363.293	18.41
363.504	21.11
363.716	19.51
363.927	11.16
364.138	15.36
364.349	5.82
364.56	-7
364.772	-8.18
364.983	15.19
365.194	18.43
365.405	5.36
365.616	5.52
365.827	3.17
366.038	-4.94
366.25	-5.13
366.461	14
366.672	25.73
366.883	26.6
367.094	26.66
367.305	26.43
367.516	25.62
367.727	27.37
367.938	25.51
368.149	15.41
368.36	2.65
368.571	11.87
368.781	11.6
368.992	16.24
369.203	37.75
369.414	31.3
369.625	26.99
369.836	16.69
370.047	17.27
370.258	-4.35
370.468	-0.83
370.679	-12.12
370.89	-16.52
371.101	-13.89
371.312	-17.02
371.522	-1.29
371.733	4.03
371.944	22.91
372.155	24.86
372.365	27.01
372.576	30.17
372.787	35.15
372.997	21.91
373.208	13.18
373.419	27.38
373.629	13.48
373.84	-7.57
374.05	-13.66
374.261	-4.86
374.472	-12.32
374.682	4.02
374.893	15.95
375.103	26.9
375.314	28.78
375.524	23.02
375.735	27.65
375.945	34.4
376.156	24.71
376.366	17.98
376.577	33.94
376.787	25.28
376.997	34.31
377.208	38.56
377.418	38.43
377.629	17.25
377.839	14.55
378.049	-1.8
378.26	1.46
378.47	8.32
378.68	10.66
378.89	12.32
379.101	15.18
379.311	12.85
379.521	9.64
379.732	24.36
379.942	32.76
380.152	33.71
380.362	27.58
380.572	31.6
380.783	19.21
380.993	13.2
381.203	18.36
381.413	21.7
381.623	15.1
381.833	8.67
382.043	2.84
382.253	-20.08
382.463	-27.44
382.674	-34.38
382.884	-23.15
383.094	-7.83
383.304	6.54
383.514	20.55
383.724	20.43
383.934	17.69
384.144	16.93
384.353	12.61
384.563	6.06
384.773	13.75
384.983	12.63
385.193	6.93
385.403	7.68
385.613	13.56
385.823	13.37
386.033	16.33
386.242	17.67
386.452	10.9
386.662	9.43
386.872	11.25
387.082	9.97
387.291	4.96
387.501	13.33
387.711	9.18
387.921	8.49
388.13	10.94
388.34	19.19
388.55	14.74
388.759	17.62
388.969	18.91
389.179	18.5
389.388	15.2
389.598	19.04
389.807	15.74
390.017	12.05
390.227	12.04
390.436	11.99
390.646	5.86
390.855	9.33
391.065	8.67
391.274	7.5
391.484	6.85
391.693	8.55
391.903	8.63
392.112	8.56
392.322	7.87
392.531	8.57
392.74	7.08
392.95	4.1
393.159	4.1
393.369	5.25
393.578	4.46
393.787	5.58
393.997	5.16
394.206	4.46
394.415	4.22
394.625	5.65
394.834	5.93
395.043	7.1
395.252	7.96
395.462	7.77
395.671	5.89
395.88	6.48
396.089	6.03
396.298	5.49
396.508	5.55
396.717	5.93
396.926	5.58
397.135	5.85
397.344	5.86
397.553	5.58
397.762	5.54
397.971	5.14
398.181	5.17
398.39	6.19
398.599	6.18
398.808	5.89
399.017	6.63
399.226	6.86
399.435	6.45
399.644	6.39
399.853	6.09
400.062	5.47
400.27	4.79
400.479	4.46
400.688	4.24
400.897	4.57
401.106	4.82
401.315	5.11
401.524	5.45
401.733	5.91
401.941	5.92
402.15	5.77
402.359	5.61
402.568	5.44
402.777	5.15
402.985	4.82
403.194	4.57
403.403	4.46
403.612	4.35
403.82	4.35
404.029	4.62
404.238	4.72
404.446	4.89
404.655	4.91
404.864	4.95
405.072	4.78
405.281	4.95
405.489	4.83
405.698	4.91
405.906	4.8
406.115	4.88
406.324	4.66
406.532	4.62
406.741	4.5
406.949	4.39
407.158	4.39
407.366	4.39
407.574	4.29
407.783	4.23
407.991	4.27
408.2	4.22
408.408	4.21
408.617	4.35
408.825	4.22
409.033	4.26
409.242	4.32
409.45	4.26
409.658	4.22
409.867	4.37
410.075	4.36
410.283	4.2
410.491	4.06
410.7	3.91
410.908	3.83
411.116	3.85
411.324	3.84
411.533	3.95
411.741	4.09
411.949	4.13
412.157	4.1
412.365	4.15
412.573	4.23
412.781	4.24
412.99	4.2
413.198	4.19
413.406	4.19
413.614	4.15
413.822	4.13
414.03	4.19
414.238	4.08
414.446	4.16
414.654	4.14
414.862	4.16
415.07	4.06
415.278	4.07
415.486	3.95
415.694	3.84
415.902	3.77
416.109	3.64
416.317	3.85
416.525	3.79
416.733	3.83
416.941	3.71
417.149	3.91
417.357	3.64
417.564	3.73
417.772	3.85
417.98	3.81
418.188	3.71
418.395	3.74
418.603	3.67
418.811	3.45
419.019	3.41
419.226	3.41
419.434	3.34
419.642	3.24
419.849	3.41
420.057	3.54
420.265	3.48
420.472	3.51
420.68	3.67
420.887	3.54
421.095	3.57
421.302	3.62
421.51	3.74
421.717	3.64
421.925	3.66
422.132	3.49
422.34	3.42
422.547	3.31
422.755	3.37
422.962	3.3
423.17	3.31
423.377	3.43
423.585	3.27
423.792	3.21
423.999	3.28
424.207	3.38
424.414	3.28
424.621	3.58
424.829	3.49
425.036	3.38
425.243	3.25
425.451	3.39
425.658	3.09
425.865	3.22
426.072	3.29
426.28	3.35
426.487	3.15
426.694	3.26
426.901	3.3
427.108	3.38
427.315	3.57
427.523	3.78
427.73	3.93
427.937	3.81
428.144	3.85
428.351	3.55
428.558	3.36
428.765	3.11
428.972	3.12
429.179	3
429.386	3.22
429.593	3.25
429.8	3.29
430.007	3.31
430.214	3.42
430.421	3.29
430.628	3.37
430.835	3.43
431.042	3.47
431.249	3.46
431.456	3.52
431.662	3.56
431.869	3.63
432.076	3.66
432.283	3.69
432.49	3.7
432.697	3.62
432.903	3.56
433.11	3.48
433.317	3.42
433.524	3.62
433.73	3.59
433.937	3.65
434.144	3.68
434.35	3.74
434.557	3.45
434.764	3.53
434.97	3.48
435.177	3.53
435.384	3.54
435.59	3.78
435.797	3.88
436.003	3.9
436.21	3.95
436.416	3.87
436.623	3.78
436.829	3.8
437.036	3.83
437.242	3.87
437.449	3.97
437.655	3.95
437.862	3.96
438.068	3.97
438.275	3.84
438.481	3.82
438.687	3.8
438.894	3.91
439.1	4.03
439.307	4.13
439.513	4.13
439.719	4.24
439.926	4.11
440.132	4.18
440.338	4.19
440.544	4.21
440.751	4.26
440.957	4.2
441.163	4.09
441.369	4.18
441.575	4.31
441.782	4.3
441.988	4.42
442.194	4.42
442.4	4.27
442.606	4.06
442.812	4.04
443.018	4.1
443.224	4.21
443.431	4.47
443.637	4.68
443.843	4.76
444.049	4.68
444.255	4.6
444.461	4.52
444.667	4.53
444.873	4.5
445.079	4.54
445.284	4.57
445.49	4.52
445.696	4.48
445.902	4.54
446.108	4.57
446.314	4.55
446.52	4.62
446.726	4.7
446.931	4.68
447.137	4.68
447.343	4.65
447.549	4.77
447.755	4.77
447.96	4.79
448.166	4.91
448.372	5.11
448.578	4.99
448.783	4.99
448.989	5.02
449.195	4.98
449.4	4.98
449.606	4.94
449.812	4.98
450.017	4.96
450.223	4.95
450.428	4.94
450.634	5.05
450.84	4.97
451.045	5.01
451.251	5.03
451.456	5.06
451.662	5.07
451.867	5.15
452.073	5.11
452.278	5.09
452.483	5.04
452.689	4.96
452.894	4.83
453.1	4.77
453.305	4.84
453.51	4.86
453.716	4.93
453.921	5.01
454.127	5.05
454.332	5.09
454.537	5.12
454.742	5.21
454.948	5.25
455.153	5.33
455.358	5.26
455.563	5.21
455.769	5
455.974	5.01
456.179	5
456.384	4.94
456.589	4.94
456.795	5.05
457	5.04
457.205	5.05
457.41	5.06
457.615	5.13
457.82	5.14
458.025	5.17
458.23	5.05
458.435	5.15
458.64	5.09
458.845	5.15
459.05	5.13
459.255	5.3
459.46	5.33
459.665	5.32
459.87	5.21
460.075	5.24
460.28	5.16
460.485	5.23
460.69	5.24
460.895	5.34
461.099	5.36
461.304	5.5
461.509	5.51
461.714	5.58
461.919	5.57
462.123	5.54
462.328	5.41
462.533	5.39
462.738	5.45
462.942	5.49
463.147	5.55
463.352	5.65
463.556	5.72
463.761	5.62
463.966	5.51
464.17	5.53
464.375	5.48
464.58	5.43
464.784	5.55
464.989	5.64
465.193	5.66
465.398	5.65
465.602	5.67
465.807	5.64
466.011	5.67
466.216	5.74
466.42	5.93
466.625	5.91
466.829	5.88
467.034	5.87
467.238	5.87
467.443	5.71
467.647	5.74
467.851	5.77
468.056	5.88
468.26	5.87
