Data from Ofra_PS_Phys_2GT41_Reflection_2.txt Node
Date: Tue Jul 20 20:42:05 EDT 2021
User: USUARIO
Spectrometer: FLMT01687
Trigger mode: 0
Integration Time (sec): 1.042999E0
Scans to average: 2
Electric dark correction enabled: true
Nonlinearity correction enabled: false
Boxcar width: 2
XAxis mode: Wavelengths
Number of Pixels in Spectrum: 3648
>>>>>Begin Spectral Data<<<<<
179.494	-31.46
179.716	-87.11
179.937	-98.97
180.158	-7.66
180.38	-7.93
180.601	-13.78
180.823	36.17
181.044	46.96
181.265	165.92
181.486	43.65
181.708	10.33
181.929	54.21
182.15	300.66
182.372	-1.29
182.593	26.8
182.814	52.44
183.035	59.37
183.257	17.67
183.478	-128.94
183.699	-167.84
183.92	-65.46
184.141	-93.56
184.363	-43.9
184.584	37.53
184.805	80.85
185.026	86.15
185.247	52.08
185.468	47.92
185.689	49.65
185.91	30.23
186.132	-7.84
186.353	10.4
186.574	19.55
186.795	36.06
187.016	53.1
187.237	57.43
187.458	60.22
187.679	54.28
187.9	47.15
188.121	46.88
188.342	40.91
188.563	42.85
188.784	42.71
189.005	29.61
189.226	41.38
189.447	55.21
189.667	60.18
189.888	42
190.109	58.8
190.33	55.95
190.551	34.59
190.772	-27.49
190.993	37.41
191.214	11.06
191.434	24.53
191.655	53.2
191.876	66.28
192.097	65.42
192.318	81.8
192.538	57.04
192.759	53.39
192.98	34.17
193.201	14.37
193.421	38.22
193.642	73.04
193.863	56.24
194.083	57.04
194.304	73.53
194.525	49.25
194.745	42.58
194.966	30.82
195.187	29.53
195.407	6.96
195.628	-0.99
195.848	2.44
196.069	41.37
196.29	53.22
196.51	59.08
196.731	58.84
196.951	60.44
197.172	60.2
197.392	52.28
197.613	40.17
197.833	51.1
198.054	30.73
198.274	32.8
198.495	45.4
198.715	50.43
198.936	40.63
199.156	54.9
199.377	57.12
199.597	42.38
199.817	53.62
200.038	46.92
200.258	61.23
200.479	45.42
200.699	50.5
200.919	57.19
201.14	70.73
201.36	49.58
201.58	106.46
201.801	88.01
202.021	18.61
202.241	25.75
202.461	27.33
202.682	33.61
202.902	27.66
203.122	69.85
203.342	50.6
203.563	42.49
203.783	44.38
204.003	36.95
204.223	54.54
204.443	60.04
204.663	59.08
204.884	44.4
205.104	58.67
205.324	40.32
205.544	45.86
205.764	56.44
205.984	50.17
206.204	19.28
206.424	18.04
206.644	13.18
206.864	29.39
207.084	27.47
207.304	21.78
207.525	20.57
207.745	-0.56
207.964	-3.24
208.184	29.93
208.404	55.91
208.624	78.05
208.844	77.17
209.064	74.99
209.284	30.61
209.504	28.13
209.724	0.26
209.944	-12.87
210.164	-2.92
210.384	28.1
210.604	20.48
210.823	19.5
211.043	22.25
211.263	10.14
211.483	-2.81
211.703	-11.89
211.922	15.01
212.142	12.27
212.362	36.1
212.582	26.01
212.801	24.48
213.021	-0.02
213.241	3.65
213.461	14
213.68	-18.16
213.9	-20.24
214.12	-39.55
214.339	-57.23
214.559	-27.03
214.779	6.46
214.998	17.62
215.218	23.15
215.438	23.8
215.657	21.06
215.877	19.88
216.096	36.96
216.316	36.94
216.535	43.91
216.755	35.36
216.974	41.34
217.194	22.31
217.413	26.06
217.633	37.09
217.852	42.26
218.072	42.72
218.291	31.46
218.511	43.1
218.73	24.51
218.95	34.36
219.169	23.8
219.389	29.9
219.608	42.12
219.827	51.41
220.047	42.8
220.266	38.67
220.485	39.03
220.705	32.12
220.924	35.21
221.143	40.38
221.363	43.01
221.582	30.45
221.801	42.11
222.021	31.8
222.24	29.71
222.459	21.92
222.678	21.4
222.897	6.4
223.117	9.55
223.336	17.7
223.555	42.38
223.774	50.52
223.993	59.99
224.213	44.66
224.432	29.88
224.651	24.66
224.87	19.63
225.089	-17.05
225.308	1.21
225.527	15.08
225.746	14.66
225.965	37.87
226.184	47.57
226.404	21.19
226.623	-1.19
226.842	11.66
227.061	29.9
227.28	16.39
227.499	34.45
227.718	50.41
227.936	37.49
228.155	22.81
228.374	21.81
228.593	18.3
228.812	12.1
229.031	6.36
229.25	4.18
229.469	11.56
229.688	18.35
229.907	21.48
230.125	38.04
230.344	40.04
230.563	51.91
230.782	50.38
231.001	52.58
231.22	54.92
231.438	46.84
231.657	-5.11
231.876	1.65
232.095	-18.06
232.313	-30.26
232.532	-19.89
232.751	11.14
232.969	-0.85
233.188	37.93
233.407	53.83
233.625	37.69
233.844	39.12
234.063	39.7
234.281	21.79
234.5	10.29
234.719	20.55
234.937	18.72
235.156	18.81
235.374	47.17
235.593	56.63
235.811	51.66
236.03	48.73
236.249	46.11
236.467	33.3
236.686	12.67
236.904	16.32
237.123	24.32
237.341	25.85
237.559	20.28
237.778	18.94
237.996	9.13
238.215	19.61
238.433	36.23
238.652	41.31
238.87	47.08
239.088	57.62
239.307	45.19
239.525	41.13
239.743	36.91
239.962	35.55
240.18	33.29
240.398	30.57
240.617	26.8
240.835	23.74
241.053	27.97
241.271	28.64
241.49	21.21
241.708	27.31
241.926	26.03
242.144	25.28
242.363	21.2
242.581	31.05
242.799	29.44
243.017	21.6
243.235	19.91
243.453	7.39
243.672	13.26
243.89	4.46
244.108	23.67
244.326	32.81
244.544	31.24
244.762	24.92
244.98	20.91
245.198	13.5
245.416	1.39
245.634	7.93
245.852	3.18
246.07	11.67
246.288	5.97
246.506	22.73
246.724	7.73
246.942	12.53
247.16	-2.72
247.378	13.52
247.596	11.13
247.814	25.47
248.032	24.06
248.25	38.77
248.468	36.9
248.685	36.5
248.903	47.34
249.121	56.08
249.339	45.45
249.557	28.4
249.775	16.81
249.992	17.21
250.21	7.78
250.428	4.8
250.646	36.94
250.863	65.19
251.081	29.69
251.299	20.34
251.517	-2.5
251.734	-16.49
251.952	-24.56
252.17	-0.62
252.387	35.09
252.605	64.06
252.823	63.84
253.04	58.23
253.258	51.13
253.475	45.92
253.693	46.22
253.911	49.04
254.128	49.04
254.346	74.56
254.563	70.15
254.781	48.71
254.998	35.08
255.216	17.09
255.433	-0.03
255.651	10.43
255.868	44.78
256.086	60.71
256.303	54.83
256.521	44.35
256.738	20.78
256.956	11.92
257.173	10.13
257.39	15.75
257.608	14.05
257.825	9.81
258.043	33.61
258.26	23.3
258.477	32.59
258.695	30.16
258.912	42.75
259.129	39.22
259.346	45.13
259.564	47.6
259.781	71.08
259.998	79.27
260.216	56.86
260.433	56.41
260.65	50.29
260.867	50.06
261.084	30.01
261.302	31.23
261.519	38.23
261.736	31.06
261.953	17.8
262.17	24.62
262.387	27.89
262.604	22.15
262.822	23.13
263.039	24.32
263.256	33.2
263.473	37.56
263.69	26.45
263.907	51.22
264.124	40.25
264.341	45.48
264.558	9.52
264.775	-17.6
264.992	-11.3
265.209	29.28
265.426	6.52
265.643	25.88
265.86	55.09
266.077	36.31
266.294	29.65
266.51	26.65
266.727	40.92
266.944	37.9
267.161	37.62
267.378	32.6
267.595	43.82
267.812	29.23
268.028	4.42
268.245	10.5
268.462	13.7
268.679	0.8
268.896	19.76
269.112	40.85
269.329	46.85
269.546	42.05
269.763	47.63
269.979	36.76
270.196	20.68
270.413	14.12
270.629	15.71
270.846	19.78
271.063	30.32
271.279	25.84
271.496	31.57
271.712	38.8
271.929	29.24
272.146	0.19
272.362	15.1
272.579	21.66
272.795	22.32
273.012	18.6
273.228	12.41
273.445	8.74
273.661	4.42
273.878	13.89
274.094	42.79
274.311	57.95
274.527	58.35
274.744	40.43
274.96	35.07
275.177	30.16
275.393	15.64
275.609	-16.06
275.826	7.17
276.042	-1.57
276.259	-6.83
276.475	11.49
276.691	49.59
276.908	49.48
277.124	43.27
277.34	35.29
277.557	24.11
277.773	16.2
277.989	8.67
278.205	10.02
278.422	3.96
278.638	26.07
278.854	14.05
279.07	20.5
279.286	18.25
279.503	35.96
279.719	3.07
279.935	24.83
280.151	19.95
280.367	12.95
280.583	6.99
280.799	31.24
281.016	22.61
281.232	25.5
281.448	46.61
281.664	44.25
281.88	16.98
282.096	13.31
282.312	-5.79
282.528	-11.9
282.744	-12.91
282.96	17.74
283.176	33.01
283.392	37.57
283.608	41.36
283.824	46.61
284.04	46.26
284.256	24.54
284.471	32.78
284.687	30.55
284.903	27.48
285.119	25.47
285.335	36.01
285.551	19.24
285.767	21.82
285.982	8.95
286.198	14.79
286.414	8.02
286.63	21.24
286.846	-3.13
287.061	8.69
287.277	-17.74
287.493	0.86
287.709	-10.38
287.924	10.57
288.14	22.11
288.356	30.05
288.571	30.74
288.787	31.31
289.003	25.68
289.218	37.11
289.434	29.25
289.65	22.16
289.865	24.43
290.081	27.38
290.296	-2.06
290.512	10.55
290.727	13.23
290.943	19.46
291.159	5.99
291.374	23.31
291.59	23.82
291.805	26.71
292.021	28.04
292.236	40.92
292.451	38.41
292.667	44.32
292.882	27.7
293.098	32.69
293.313	32.1
293.529	27.73
293.744	23.34
293.959	40.53
294.175	35.97
294.39	33.36
294.605	20.94
294.821	27.84
295.036	19.51
295.251	12.52
295.467	-1.92
295.682	18.91
295.897	15.57
296.112	25.17
296.328	25.44
296.543	35.16
296.758	30.33
296.973	32.42
297.188	20.67
297.404	21.29
297.619	33.72
297.834	23.48
298.049	36.72
298.264	38.77
298.479	47.66
298.694	39.31
298.909	55.8
299.125	45.57
299.34	35.71
299.555	29.5
299.77	36.41
299.985	42.92
300.2	41.04
300.415	45.53
300.63	50.92
300.845	35.08
301.06	37.68
301.275	30.53
301.49	23.27
301.704	10.82
301.919	29.57
302.134	12.24
302.349	8.44
302.564	23.89
302.779	25.23
302.994	10
303.209	3.9
303.423	19.21
303.638	27.01
303.853	24.55
304.068	50.16
304.283	50.93
304.497	29.59
304.712	27.94
304.927	46.58
305.142	53.44
305.356	60.56
305.571	70.89
305.786	64.76
306	56.4
306.215	44.92
306.43	36.65
306.644	30.96
306.859	44.69
307.074	25.86
307.288	35.55
307.503	28.1
307.717	19.17
307.932	14.5
308.147	15.68
308.361	11.79
308.576	11.56
308.79	28.15
309.005	-2.9
309.219	6.27
309.434	3.23
309.648	12.45
309.863	3.88
310.077	21.95
310.292	26.28
310.506	21.84
310.72	26.74
310.935	30.7
311.149	33.67
311.364	52.21
311.578	62.35
311.792	54.68
312.007	42.48
312.221	48.99
312.435	28.35
312.649	20.82
312.864	44.04
313.078	46.61
313.292	41.35
313.507	45.45
313.721	42.99
313.935	23.39
314.149	31.7
314.363	21.96
314.578	10.38
314.792	14.02
315.006	21.48
315.22	11.27
315.434	18.6
315.648	27.92
315.862	32.33
316.077	45.54
316.291	63.77
316.505	53.45
316.719	59.17
316.933	53.26
317.147	31.23
317.361	7.87
317.575	12.65
317.789	-7.9
318.003	-24.95
318.217	-9.12
318.431	18.56
318.645	21.89
318.859	14.76
319.073	22.36
319.287	17.22
319.5	15.26
319.714	15.48
319.928	31.56
320.142	34.04
320.356	48.81
320.57	51.19
320.784	56.27
320.997	40.35
321.211	31.98
321.425	33.98
321.639	45.17
321.853	37.79
322.066	46.59
322.28	48.53
322.494	49.47
322.707	30.56
322.921	20.36
323.135	20.39
323.349	17.1
323.562	4.3
323.776	6.62
323.989	19.37
324.203	16.92
324.417	27.79
324.63	27.8
324.844	34.4
325.057	37.99
325.271	36.48
325.485	23.17
325.698	25.17
325.912	14.71
326.125	20.66
326.339	27.11
326.552	47.01
326.766	40.87
326.979	46.87
327.193	62.94
327.406	53.14
327.619	36.25
327.833	38.42
328.046	38.54
328.26	14.66
328.473	24.21
328.686	24.87
328.9	25.9
329.113	33.1
329.326	37.51
329.54	25.75
329.753	30.84
329.966	25.79
330.179	27.33
330.393	37.84
330.606	42.75
330.819	26.05
331.032	22.72
331.246	23.03
331.459	13.04
331.672	-14.79
331.885	4.22
332.098	18
332.311	1.52
332.525	17.87
332.738	40.17
332.951	33.77
333.164	47.13
333.377	47.92
333.59	31.14
333.803	11.34
334.016	8.74
334.229	-14.84
334.442	-4.25
334.655	-5.14
334.868	1.09
335.081	13.71
335.294	18.45
335.507	11.79
335.72	17.98
335.933	30.21
336.146	33.6
336.359	32.72
336.572	30.2
336.785	22.73
336.997	22.26
337.21	22.28
337.423	28.14
337.636	37.19
337.849	54.57
338.062	63.63
338.274	73.87
338.487	70.24
338.7	60.37
338.913	49.51
339.125	32.04
339.338	13.09
339.551	-5.73
339.763	14.86
339.976	21.85
340.189	22.92
340.402	31.93
340.614	46.87
340.827	38.61
341.039	45.03
341.252	45.37
341.465	41.45
341.677	16.72
341.89	-3.95
342.102	-0.02
342.315	2.18
342.527	9.11
342.74	20.51
342.952	40.31
343.165	35.57
343.377	45.22
343.59	34.33
343.802	41.02
344.015	40.87
344.227	34.33
344.44	27.95
344.652	30.97
344.864	31.14
345.077	7.3
345.289	13.36
345.502	-1.56
345.714	-32.14
345.926	-64.24
346.139	-17.82
346.351	-16.49
346.563	15.82
346.775	37.26
346.988	45.63
347.2	49.08
347.412	57.05
347.624	49.65
347.837	42.87
348.049	35.05
348.261	24.44
348.473	-33.63
348.685	-15.08
348.897	-15.71
349.11	0.43
349.322	4.1
349.534	26.1
349.746	6.02
349.958	2.8
350.17	1.98
350.382	4.6
350.594	8.12
350.806	24.39
351.018	43.18
351.23	36.78
351.442	34.27
351.654	27.13
351.866	22.61
352.078	8.57
352.29	19.06
352.502	17.4
352.714	17.27
352.926	22
353.138	25.78
353.35	19.18
353.561	24.64
353.773	30.39
353.985	41.18
354.197	44.45
354.409	46.85
354.621	39.95
354.832	34.19
355.044	29.93
355.256	27.68
355.468	23.98
355.679	20.58
355.891	17.5
356.103	6.98
356.314	12.29
356.526	24.73
356.738	28.1
356.949	37.01
357.161	49.91
357.373	54.02
357.584	45.05
357.796	43.86
358.008	46.05
358.219	41.63
358.431	36.63
358.642	36.07
358.854	38.91
359.065	26.42
359.277	5.2
359.488	3.79
359.7	-5.93
359.911	-7.61
360.123	-0.42
360.334	3.29
360.546	17.67
360.757	32.42
360.969	34.4
361.18	35.12
361.391	45.88
361.603	38.88
361.814	23.83
362.025	19.63
362.237	17.15
362.448	4.46
362.659	-1.61
362.871	16.37
363.082	8.5
363.293	5.29
363.504	7.83
363.716	12.16
363.927	10.75
364.138	22.94
364.349	30.02
364.56	27.65
364.772	26.72
364.983	16.07
365.194	6.38
365.405	-5.81
365.616	-4.08
365.827	5.84
366.038	6.19
366.25	3.84
366.461	13.93
366.672	17.99
366.883	2.26
367.094	11.11
367.305	14.33
367.516	9.56
367.727	23.93
367.938	30.94
368.149	18.54
368.36	17.78
368.571	28.32
368.781	21.64
368.992	8.18
369.203	24.94
369.414	29.16
369.625	23.38
369.836	20.93
370.047	34.53
370.258	22.87
370.468	20.8
370.679	19.27
370.89	6.09
371.101	8.34
371.312	4.84
371.522	7.65
371.733	7.95
371.944	15.37
372.155	16.65
372.365	13.92
372.576	17.65
372.787	17.24
372.997	25.34
373.208	15.15
373.419	22.05
373.629	9.73
373.84	-0.19
374.05	-1.88
374.261	11.13
374.472	8.77
374.682	15.25
374.893	24.1
375.103	16.43
375.314	15.35
375.524	23.59
375.735	20.15
375.945	18.48
376.156	26.71
376.366	22.26
376.577	13.75
376.787	19.11
376.997	24
377.208	19.55
377.418	21.38
377.629	30.2
377.839	33.99
378.049	41.12
378.26	41.33
378.47	46.76
378.68	39.23
378.89	27.96
379.101	6.7
379.311	5.34
379.521	4.37
379.732	9.09
379.942	22.87
380.152	25.82
380.362	16.03
380.572	21.75
380.783	19.72
380.993	21.95
381.203	31.17
381.413	40.48
381.623	36.88
381.833	40.79
382.043	30.23
382.253	20.17
382.463	29.02
382.674	28.81
382.884	18.87
383.094	19.09
383.304	22.94
383.514	20.36
383.724	16.31
383.934	21.94
384.144	27.79
384.353	27.2
384.563	13.61
384.773	13.77
384.983	10.43
385.193	10.82
385.403	-0.01
385.613	15.26
385.823	7.46
386.033	4.95
386.242	3.73
386.452	11.96
386.662	7.06
386.872	10.32
387.082	7.5
387.291	7.62
387.501	7.3
387.711	5.36
387.921	6.58
388.13	14.52
388.34	12.91
388.55	12.86
388.759	10.23
388.969	10.77
389.179	10.29
389.388	9.52
389.598	8.94
389.807	13.79
390.017	13.01
390.227	9.22
390.436	9.58
390.646	8.33
390.855	6.92
391.065	6.84
391.274	8.38
391.484	11.88
391.693	14.74
391.903	12.83
392.112	10.78
392.322	8.96
392.531	6.44
392.74	4.2
392.95	4.09
393.159	4.28
393.369	7.05
393.578	6.12
393.787	6.72
393.997	8.74
394.206	10.67
394.415	8.46
394.625	8.55
394.834	7.56
395.043	7.12
395.252	6.06
395.462	5.82
395.671	4.29
395.88	5.19
396.089	4.01
396.298	4.69
396.508	5.06
396.717	6.2
396.926	6.02
397.135	6.56
397.344	5.78
397.553	6.23
397.762	5.99
397.971	5.41
398.181	4.88
398.39	4.88
398.599	4.68
398.808	4.5
399.017	5.21
399.226	5.99
399.435	5.95
399.644	6.74
399.853	6.62
400.062	6.2
400.27	5.94
400.479	6
400.688	5.31
400.897	5.65
401.106	5.48
401.315	5.42
401.524	5.39
401.733	5.07
401.941	4.61
402.15	4.29
402.359	4.21
402.568	4.15
402.777	4.15
402.985	4.03
403.194	4.5
403.403	4.43
403.612	4.41
403.82	4.44
404.029	4.72
404.238	4.57
404.446	4.72
404.655	4.52
404.864	4.84
405.072	4.72
405.281	4.87
405.489	4.71
405.698	4.92
405.906	4.76
406.115	5.04
406.324	4.72
406.532	4.68
406.741	4.75
406.949	4.92
407.158	4.76
407.366	4.92
407.574	4.73
407.783	4.58
407.991	4.33
408.2	4.41
408.408	4.44
408.617	4.63
408.825	4.79
409.033	4.89
409.242	4.9
409.45	4.86
409.658	4.89
409.867	4.78
410.075	4.76
410.283	4.65
410.491	4.56
410.7	4.62
410.908	4.65
411.116	4.75
411.324	4.73
411.533	4.72
411.741	4.6
411.949	4.73
412.157	4.43
412.365	4.5
412.573	4.65
412.781	4.75
412.99	4.52
413.198	4.73
413.406	4.67
413.614	4.54
413.822	4.59
414.03	4.64
414.238	4.62
414.446	4.64
414.654	4.71
414.862	4.59
415.07	4.75
415.278	4.68
415.486	4.74
415.694	4.75
415.902	4.72
416.109	4.54
416.317	4.75
416.525	4.72
416.733	4.46
416.941	4.46
417.149	4.51
417.357	4.39
417.564	4.3
417.772	4.41
417.98	4.6
418.188	4.45
418.395	4.46
418.603	4.55
418.811	4.61
419.019	4.4
419.226	4.63
419.434	4.53
419.642	4.33
419.849	4.28
420.057	4.16
420.265	4.12
420.472	4.04
420.68	4.12
420.887	4.14
421.095	4.21
421.302	3.98
421.51	3.9
421.717	3.95
421.925	4.19
422.132	4.35
422.34	4.34
422.547	4.3
422.755	4.32
422.962	3.97
423.17	3.82
423.377	4.05
423.585	4.26
423.792	4.08
423.999	4.16
424.207	4.08
424.414	3.98
424.621	3.8
424.829	3.75
425.036	3.79
425.243	3.89
425.451	3.77
425.658	3.78
425.865	3.95
426.072	4.06
426.28	4.16
426.487	4.33
426.694	4.44
426.901	4.43
427.108	4.25
427.315	4.09
427.523	4.14
427.73	4.03
427.937	4
428.144	4.05
428.351	4.12
428.558	4.1
428.765	4.09
428.972	4.07
429.179	4.01
429.386	4.06
429.593	3.96
429.8	3.99
430.007	4.03
430.214	4.13
430.421	4.12
430.628	4.1
430.835	4.08
431.042	4.08
431.249	4.11
431.456	4.01
431.662	4.04
431.869	4.3
432.076	4.39
432.283	4.26
432.49	4.32
432.697	4.21
432.903	4.05
433.11	3.87
433.317	3.94
433.524	3.93
433.73	3.9
433.937	3.94
434.144	4.01
434.35	4.09
434.557	3.99
434.764	4.03
434.97	3.98
435.177	4.06
435.384	3.93
435.59	4.09
435.797	4.19
436.003	4.42
436.21	4.46
436.416	4.45
436.623	4.28
436.829	4.27
437.036	4.03
437.242	3.92
437.449	4.02
437.655	4.02
437.862	3.99
438.068	4.1
438.275	4.09
438.481	4.03
438.687	4.02
438.894	3.97
439.1	3.84
439.307	3.97
439.513	4.04
439.719	4.06
439.926	4.12
440.132	4.2
440.338	4
440.544	3.77
440.751	3.85
440.957	3.77
441.163	3.76
441.369	3.98
441.575	4.15
441.782	4.08
441.988	4.17
442.194	4.16
442.4	4.1
442.606	4.19
442.812	4.21
443.018	4.14
443.224	4.13
443.431	4.16
443.637	4.07
443.843	4.04
444.049	4.04
444.255	4.05
444.461	3.91
444.667	4
444.873	4.04
445.079	4.16
445.284	4.15
445.49	4.21
445.696	4.1
445.902	4.09
446.108	4.04
446.314	4.08
446.52	4.04
446.726	4.08
446.931	4.11
447.137	4.11
447.343	4.13
447.549	4.13
447.755	4.19
447.96	4.24
448.166	4.22
448.372	4.26
448.578	4.36
448.783	4.25
448.989	4.24
449.195	4.24
449.4	4.18
449.606	4.06
449.812	4.16
450.017	4.17
450.223	4.13
450.428	4.12
450.634	4.12
450.84	4.16
451.045	4.15
451.251	4.26
451.456	4.26
451.662	4.39
451.867	4.39
452.073	4.42
452.278	4.37
452.483	4.35
452.689	4.24
452.894	4.32
453.1	4.28
453.305	4.3
453.51	4.34
453.716	4.35
453.921	4.35
454.127	4.36
454.332	4.3
454.537	4.29
454.742	4.32
454.948	4.15
455.153	4.16
455.358	4.19
455.563	4.2
455.769	4.14
455.974	4.18
456.179	4.11
456.384	4.08
456.589	3.99
456.795	4.06
457	4.05
457.205	4.17
457.41	4.2
457.615	4.26
457.82	4.32
458.025	4.24
458.23	4.17
458.435	4.14
458.64	4.11
458.845	4.08
459.05	4.15
459.255	4.22
459.46	4.26
459.665	4.31
459.87	4.36
460.075	4.36
460.28	4.35
460.485	4.4
460.69	4.44
460.895	4.45
461.099	4.48
461.304	4.46
461.509	4.34
461.714	4.31
461.919	4.28
462.123	4.24
462.328	4.2
462.533	4.31
462.738	4.38
462.942	4.43
463.147	4.5
463.352	4.59
463.556	4.54
463.761	4.47
463.966	4.4
464.17	4.38
464.375	4.38
464.58	4.37
464.784	4.47
464.989	4.45
465.193	4.52
465.398	4.52
465.602	4.54
465.807	4.46
466.011	4.52
466.216	4.44
466.42	4.43
466.625	4.53
466.829	4.54
467.034	4.61
467.238	4.69
467.443	4.62
467.647	4.54
467.851	4.45
468.056	4.37
468.26	4.26
468.464	4.32
468.669	4.31
468.873	4.35
