Data from Ofra_PS_Phys_OCX4_Reflection_3.txt Node
Date: Tue Jul 20 17:53:51 EDT 2021
User: USUARIO
Spectrometer: FLMT01687
Trigger mode: 0
Integration Time (sec): 1.042999E0
Scans to average: 2
Electric dark correction enabled: true
Nonlinearity correction enabled: false
Boxcar width: 2
XAxis mode: Wavelengths
Number of Pixels in Spectrum: 3648
>>>>>Begin Spectral Data<<<<<
179.494	-13.1
179.716	-40.84
179.937	-40.16
180.158	-225.27
180.38	-263.52
180.601	-95.87
180.823	39.42
181.044	-86.34
181.265	-222.67
181.486	-25.46
181.708	33.12
181.929	-20.23
182.15	33.04
182.372	-17.25
182.593	-1.54
182.814	-9.55
183.035	10.36
183.257	40.02
183.478	46.18
183.699	47.67
183.92	53.49
184.141	41.99
184.363	33.15
184.584	45.13
184.805	53.35
185.026	57.37
185.247	79.23
185.468	62.16
185.689	40.41
185.91	39.29
186.132	40.98
186.353	9.05
186.574	51.25
186.795	83.65
187.016	79.99
187.237	79.91
187.458	87.61
187.679	54.12
187.9	13.96
188.121	15.36
188.342	-159.65
188.563	-40.17
188.784	29.3
189.005	60.04
189.226	83.19
189.447	81.18
189.667	69.87
189.888	78.01
190.109	70.49
190.33	24.74
190.551	68.12
190.772	75.25
190.993	50.61
191.214	48.73
191.434	53.36
191.655	35.72
191.876	29.05
192.097	29.71
192.318	19.35
192.538	29.28
192.759	10.25
192.98	12.88
193.201	22.26
193.421	21.17
193.642	39.08
193.863	47
194.083	55.95
194.304	17.99
194.525	12.76
194.745	15.34
194.966	16.43
195.187	14.92
195.407	23.36
195.628	37.77
195.848	9.79
196.069	25.43
196.29	24.56
196.51	38.29
196.731	21.03
196.951	55.28
197.172	33.25
197.392	33.34
197.613	42.33
197.833	48.53
198.054	6.32
198.274	25
198.495	37.81
198.715	40.37
198.936	30.15
199.156	22.89
199.377	18.62
199.597	1.78
199.817	-12.37
200.038	9.41
200.258	21.31
200.479	20.68
200.699	50.58
200.919	51.59
201.14	48.62
201.36	59.49
201.58	39.07
201.801	6.45
202.021	34.8
202.241	-13.51
202.461	-50.79
202.682	16.55
202.902	25.95
203.122	15.24
203.342	39.27
203.563	54.93
203.783	90.19
204.003	62.59
204.223	60.99
204.443	69.67
204.663	12.6
204.884	5.01
205.104	45.88
205.324	69.3
205.544	51.3
205.764	65.81
205.984	50.45
206.204	35.37
206.424	9.74
206.644	7.06
206.864	-5.93
207.084	14.01
207.304	35.77
207.525	26.74
207.745	34.54
207.964	31.95
208.184	39.12
208.404	22.97
208.624	34.76
208.844	47.52
209.064	54.12
209.284	47.02
209.504	41.7
209.724	41.12
209.944	39.17
210.164	18.97
210.384	49.25
210.604	77.5
210.823	78.95
211.043	37.13
211.263	52.22
211.483	41.16
211.703	36.59
211.922	24.08
212.142	44.13
212.362	51.37
212.582	41.01
212.801	6.18
213.021	23.89
213.241	-36.84
213.461	9.23
213.68	2.88
213.9	14.41
214.12	12.83
214.339	22.7
214.559	-10.67
214.779	57.94
214.998	76.79
215.218	74.8
215.438	78.17
215.657	81.22
215.877	62.21
216.096	76.96
216.316	55.23
216.535	55.25
216.755	58.74
216.974	57.31
217.194	28.78
217.413	46.34
217.633	46.12
217.852	29.87
218.072	29.31
218.291	35.64
218.511	19.35
218.73	-28.79
218.95	-38.66
219.169	-26.9
219.389	-37.35
219.608	-36.65
219.827	11
220.047	14.89
220.266	19.66
220.485	6.38
220.705	25.67
220.924	23.47
221.143	29.14
221.363	37.39
221.582	44.43
221.801	35.93
222.021	61.69
222.24	51.69
222.459	37.38
222.678	62.55
222.897	70.69
223.117	72.02
223.336	75.36
223.555	66.81
223.774	68.63
223.993	65.3
224.213	60.67
224.432	56.79
224.651	46.44
224.87	37.71
225.089	18.16
225.308	-0.6
225.527	12.49
225.746	19.36
225.965	25.23
226.184	48.54
226.404	57.55
226.623	29.49
226.842	24.89
227.061	22.59
227.28	-2.18
227.499	-0.5
227.718	8.14
227.936	0.94
228.155	-0.02
228.374	4.05
228.593	-8.96
228.812	2.51
229.031	23.54
229.25	16.73
229.469	18.35
229.688	47.68
229.907	35.32
230.125	43.11
230.344	35.61
230.563	48.38
230.782	36.27
231.001	40.47
231.22	33.78
231.438	44.25
231.657	40.01
231.876	35.9
232.095	29.45
232.313	29.94
232.532	32.64
232.751	20.97
232.969	22.1
233.188	23.92
233.407	16.51
233.625	19.52
233.844	45.1
234.063	44.44
234.281	62.05
234.5	70.86
234.719	61.21
234.937	57.43
235.156	65.74
235.374	33.18
235.593	31.27
235.811	38.07
236.03	-8.6
236.249	-62.96
236.467	24.81
236.686	32.63
236.904	27.79
237.123	44.68
237.341	44.72
237.559	43.52
237.778	32.45
237.996	28.17
238.215	26.54
238.433	23.88
238.652	2.52
238.87	-10.66
239.088	-12.57
239.307	-4.09
239.525	-6.64
239.743	-4.93
239.962	1.34
240.18	7
240.398	-3.02
240.617	7.36
240.835	11.98
241.053	21.99
241.271	44.96
241.49	31.92
241.708	28.79
241.926	28.04
242.144	27.13
242.363	-9.01
242.581	3.31
242.799	2.99
243.017	7.47
243.235	-3.34
243.453	0.37
243.672	8.22
243.89	7.47
244.108	17.59
244.326	20.18
244.544	22.06
244.762	20.31
244.98	22.73
245.198	13.52
245.416	19.78
245.634	17.85
245.852	21.89
246.07	29.97
246.288	20.83
246.506	37.84
246.724	57.02
246.942	49.28
247.16	67.52
247.378	80.22
247.596	83.55
247.814	62.89
248.032	39.69
248.25	15.78
248.468	-9.14
248.685	-6.45
248.903	19.63
249.121	41.88
249.339	44.5
249.557	66.49
249.775	66.7
249.992	45.88
250.21	28.24
250.428	-18.52
250.646	-32.18
250.863	-2.26
251.081	-13.31
251.299	-54.58
251.517	-20.82
251.734	-27.27
251.952	-93.4
252.17	-18.38
252.387	23.09
252.605	11.24
252.823	22.9
253.04	34.26
253.258	23.09
253.475	25.5
253.693	41.48
253.911	41.15
254.128	49.7
254.346	53.88
254.563	48.77
254.781	37.37
254.998	23.08
255.216	18.78
255.433	-3.54
255.651	-2.94
255.868	6.76
256.086	21.16
256.303	1.16
256.521	12
256.738	5.57
256.956	9.32
257.173	0.96
257.39	18.54
257.608	10.74
257.825	47.06
258.043	39.11
258.26	43.41
258.477	51.78
258.695	48.34
258.912	29.99
259.129	34.08
259.346	34.42
259.564	27.94
259.781	31.66
259.998	30.76
260.216	30.12
260.433	20.04
260.65	25.1
260.867	45.09
261.084	50.93
261.302	40.18
261.519	54.87
261.736	27.7
261.953	21.48
262.17	8.08
262.387	16.52
262.604	-16.13
262.822	0.42
263.039	-38.66
263.256	-45.5
263.473	-42.89
263.69	-37.93
263.907	4.73
264.124	20.04
264.341	55.11
264.558	70.22
264.775	84.4
264.992	72.38
265.209	42.72
265.426	12.59
265.643	2.9
265.86	2.97
266.077	8.01
266.294	31.43
266.51	47.94
266.727	46.21
266.944	56.39
267.161	44.13
267.378	30.41
267.595	21.52
267.812	13.99
268.028	0.65
268.245	-1.07
268.462	2.04
268.679	-4.09
268.896	19.87
269.112	37.97
269.329	36.06
269.546	33.78
269.763	53.04
269.979	40.55
270.196	21.44
270.413	35.31
270.629	18.35
270.846	14.32
271.063	-1.82
271.279	0.79
271.496	-22
271.712	-7.42
271.929	-4.99
272.146	5.69
272.362	16.09
272.579	30.01
272.795	20.69
273.012	24.48
273.228	35.24
273.445	28.63
273.661	11.91
273.878	11.18
274.094	7.9
274.311	9.2
274.527	2.37
274.744	21.16
274.96	36.89
275.177	31.66
275.393	11.28
275.609	30.31
275.826	34.51
276.042	19.65
276.259	35.27
276.475	44.5
276.691	50.45
276.908	40.56
277.124	44.68
277.34	28.97
277.557	30.45
277.773	15.84
277.989	18.07
278.205	3.36
278.422	22.67
278.638	41.88
278.854	42.25
279.07	47.93
279.286	44.92
279.503	38.69
279.719	32.1
279.935	23.7
280.151	29.15
280.367	26.33
280.583	15.03
280.799	13.36
281.016	17.26
281.232	21.12
281.448	13.65
281.664	22.49
281.88	27.97
282.096	45.08
282.312	57.14
282.528	61.27
282.744	63.09
282.96	35.02
283.176	33.38
283.392	26.56
283.608	16.09
283.824	12.62
284.04	19.04
284.256	18.9
284.471	2.99
284.687	46.78
284.903	43.27
285.119	47.68
285.335	19.91
285.551	44.08
285.767	14.85
285.982	27.02
286.198	40.75
286.414	61.75
286.63	40.82
286.846	39.43
287.061	44.4
287.277	46.25
287.493	26
287.709	49.9
287.924	59.17
288.14	54.43
288.356	62.18
288.571	84.78
288.787	70.23
289.003	54.26
289.218	54.92
289.434	48.9
289.65	35.12
289.865	23.02
290.081	35.16
290.296	30.93
290.512	14.16
290.727	17.12
290.943	15.04
291.159	8.18
291.374	-28.33
291.59	-2.51
291.805	-36.66
292.021	-40.18
292.236	-12.1
292.451	7.38
292.667	5.02
292.882	25.23
293.098	40.87
293.313	43.34
293.529	48.73
293.744	44.09
293.959	30.79
294.175	8.36
294.39	-13.44
294.605	-10.21
294.821	-18.54
295.036	-17.59
295.251	8.14
295.467	-2.08
295.682	0.99
295.897	19.89
296.112	21.84
296.328	17.55
296.543	31.92
296.758	24.05
296.973	23.47
297.188	16.87
297.404	10.21
297.619	-3.31
297.834	-3.04
298.049	-5.09
298.264	14.64
298.479	-1.89
298.694	-0.52
298.909	-22.92
299.125	-16.89
299.34	-39.63
299.555	11.42
299.77	7.09
299.985	14.97
300.2	-7.95
300.415	0.27
300.63	-40.64
300.845	-10.88
301.06	3.58
301.275	1.45
301.49	-12.08
301.704	2.38
301.919	-1.49
302.134	-41.95
302.349	-11.71
302.564	-6.81
302.779	10.4
302.994	18.93
303.209	39.4
303.423	32.59
303.638	34.58
303.853	29.11
304.068	23.06
304.283	6.38
304.497	11.29
304.712	11.86
304.927	17.9
305.142	3.82
305.356	13.89
305.571	11.86
305.786	5.73
306	2.36
306.215	26.88
306.43	24.18
306.644	39.12
306.859	49.81
307.074	42.02
307.288	38.01
307.503	41.48
307.717	35.12
307.932	30.23
308.147	22.57
308.361	21.68
308.576	10.24
308.79	2.49
309.005	-10.07
309.219	-10.35
309.434	-11.42
309.648	-19.43
309.863	-25.61
310.077	7.62
310.292	12.6
310.506	-0.23
310.72	12.82
310.935	12.35
311.149	19.45
311.364	30.37
311.578	36.28
311.792	46.08
312.007	51.64
312.221	34.36
312.435	25.69
312.649	-0.22
312.864	10.15
313.078	7.73
313.292	26.35
313.507	25.68
313.721	42.3
313.935	52.72
314.149	72.49
314.363	49.27
314.578	50.2
314.792	37.61
315.006	22.49
315.22	20.69
315.434	27.12
315.648	19.5
315.862	19.91
316.077	17.03
316.291	18.83
316.505	9.42
316.719	13.66
316.933	29.5
317.147	22.34
317.361	18.72
317.575	29.08
317.789	23.67
318.003	23.63
318.217	31.01
318.431	34.23
318.645	28.96
318.859	45.94
319.073	63.96
319.287	44.59
319.5	41.02
319.714	46.54
319.928	48.71
320.142	36.37
320.356	55.31
320.57	57.21
320.784	42.62
320.997	37.43
321.211	26.84
321.425	30.9
321.639	19.17
321.853	33.48
322.066	28.08
322.28	57.63
322.494	52.45
322.707	59.79
322.921	54.2
323.135	47.49
323.349	16.74
323.562	-3.66
323.776	-17.18
323.989	-10.23
324.203	-6.58
324.417	-7.46
324.63	-5.27
324.844	16.5
325.057	11.05
325.271	-9.47
325.485	-14.94
325.698	-26.23
325.912	-13.92
326.125	-30.88
326.339	-10.61
326.552	5.71
326.766	17.79
326.979	2.75
327.193	12.14
327.406	9.68
327.619	21.15
327.833	27.67
328.046	13.2
328.26	15.14
328.473	21.7
328.686	-19.8
328.9	-26.22
329.113	12.94
329.326	22.48
329.54	23.04
329.753	30.44
329.966	23.83
330.179	23.08
330.393	18.46
330.606	11
330.819	5.17
331.032	20.81
331.246	11.23
331.459	0.2
331.672	14.9
331.885	7.44
332.098	-4.6
332.311	0.96
332.525	-3.21
332.738	-50.29
332.951	-13.06
333.164	10.36
333.377	-0.68
333.59	22.77
333.803	42.53
334.016	41.3
334.229	25.63
334.442	22.37
334.655	10.39
334.868	21.62
335.081	22.36
335.294	32.54
335.507	42.76
335.72	42.98
335.933	12.36
336.146	24.72
336.359	29.59
336.572	7.3
336.785	22.45
336.997	40.93
337.21	34.61
337.423	19.36
337.636	5.95
337.849	-20.31
338.062	-16.09
338.274	-14.41
338.487	-15.13
338.7	-18.49
338.913	7.66
339.125	11.02
339.338	2.09
339.551	8.87
339.763	26.14
339.976	23.59
340.189	26.09
340.402	36.15
340.614	24.77
340.827	30.77
341.039	24.49
341.252	22.76
341.465	16.48
341.677	50.39
341.89	40.78
342.102	51.93
342.315	41.43
342.527	10.68
342.74	7.3
342.952	10.24
343.165	10.09
343.377	30.55
343.59	45.98
343.802	57.35
344.015	59.51
344.227	46.08
344.44	28.69
344.652	38.2
344.864	16.96
345.077	22.58
345.289	40.69
345.502	39.54
345.714	24.4
345.926	26.79
346.139	14.12
346.351	4.35
346.563	24.24
346.775	38.09
346.988	48.78
347.2	21.11
347.412	23.53
347.624	-0.2
347.837	-5.79
348.049	-15.4
348.261	-7.79
348.473	0.39
348.685	16.88
348.897	19.28
349.11	18.97
349.322	24.81
349.534	30.56
349.746	39.4
349.958	43.94
350.17	42.24
350.382	45.03
350.594	21.93
350.806	7.26
351.018	8.21
351.23	-1.16
351.442	3.13
351.654	17.42
351.866	22.86
352.078	14.48
352.29	8.4
352.502	7.86
352.714	1.35
352.926	-38.33
353.138	-29.14
353.35	-7.87
353.561	-6.98
353.773	6.96
353.985	26.42
354.197	21.8
354.409	33.86
354.621	28.31
354.832	10.82
355.044	13.14
355.256	18.49
355.468	3.66
355.679	14.84
355.891	38.23
356.103	43.74
356.314	44.68
356.526	47.89
356.738	38.88
356.949	23.02
357.161	30.82
357.373	19.59
357.584	12.05
357.796	15.79
358.008	12.91
358.219	9.31
358.431	12.48
358.642	17.61
358.854	21.48
359.065	17.28
359.277	9.34
359.488	15.92
359.7	14.7
359.911	10.71
360.123	25.17
360.334	32.58
360.546	11.43
360.757	3.52
360.969	2.99
361.18	10.66
361.391	19.94
361.603	33.24
361.814	40.01
362.025	34.59
362.237	32.75
362.448	18.48
362.659	19.68
362.871	18.07
363.082	19.31
363.293	8.58
363.504	11.4
363.716	13.96
363.927	-9.19
364.138	-22.1
364.349	-12.67
364.56	-11.61
364.772	-9.32
364.983	29.17
365.194	47.62
365.405	24.13
365.616	19.62
365.827	14.88
366.038	4.68
366.25	7.88
366.461	29.37
366.672	45.02
366.883	39.65
367.094	32.93
367.305	12.42
367.516	6.54
367.727	-1.81
367.938	3.85
368.149	9.89
368.36	17.96
368.571	27.6
368.781	32.84
368.992	39.66
369.203	42.17
369.414	36.32
369.625	38.7
369.836	21.82
370.047	11.68
370.258	4.73
370.468	8.45
370.679	-1.67
370.89	2.01
371.101	1.4
371.312	4.06
371.522	12.26
371.733	17.56
371.944	26.98
372.155	38.2
372.365	27.19
372.576	14.12
372.787	7.32
372.997	-5.66
373.208	-23.29
373.419	-3.44
373.629	-7.72
373.84	-7.18
374.05	-7.36
374.261	-0.66
374.472	-4.53
374.682	12.91
374.893	13.34
375.103	13.48
375.314	10.16
375.524	5.76
375.735	6.6
375.945	10.56
376.156	11.79
376.366	16.03
376.577	33.06
376.787	30.51
376.997	25.91
377.208	27.94
377.418	24.97
377.629	19.01
377.839	16.15
378.049	24.47
378.26	28.87
378.47	30.47
378.68	20.14
378.89	11.64
379.101	-2.3
379.311	-11.67
379.521	-10.02
379.732	5.69
379.942	16.28
380.152	22.69
380.362	26.9
380.572	22.74
380.783	14.36
380.993	16.08
381.203	16.96
381.413	1.3
381.623	2.27
381.833	-0.01
382.043	-15.27
382.253	-25.58
382.463	-18.6
382.674	-25.16
382.884	-18.78
383.094	-8.21
383.304	-4.01
383.514	4.47
383.724	11.64
383.934	7.47
384.144	3.97
384.353	10.91
384.563	-0.96
384.773	-8.16
384.983	-2.64
385.193	1.76
385.403	-0.69
385.613	14.54
385.823	18.1
386.033	9.72
386.242	7.72
386.452	3.28
386.662	-0.8
386.872	4.12
387.082	8.16
387.291	7.3
387.501	8.93
387.711	7.88
387.921	7.24
388.13	5.28
388.34	9.44
388.55	8.6
388.759	7.22
388.969	7.57
389.179	9.87
389.388	8.3
389.598	10.08
389.807	10.14
390.017	8.36
390.227	6.79
390.436	2.48
390.646	-0.75
390.855	2.86
391.065	4.13
391.274	6.84
391.484	7.82
391.693	10.49
391.903	8.81
392.112	6.52
392.322	3.69
392.531	3.77
392.74	1.44
392.95	0.39
393.159	1.01
393.369	1.83
393.578	-0.46
393.787	-0.02
393.997	1.76
394.206	1.66
394.415	3.1
394.625	6.58
394.834	6.71
395.043	7.27
395.252	8.5
395.462	7.71
395.671	6.45
395.88	6.07
396.089	4.5
396.298	3.59
396.508	3.61
396.717	4.62
396.926	5.49
397.135	5.3
397.344	4.4
397.553	4.43
397.762	3.75
397.971	2.96
398.181	2.69
398.39	3.15
398.599	2.7
398.808	2.23
399.017	3.01
399.226	3.9
399.435	3.63
399.644	3.47
399.853	4.15
400.062	3.61
400.27	3.32
400.479	3.97
400.688	4.27
400.897	3.97
401.106	4.14
401.315	4.08
401.524	3.9
401.733	3.95
401.941	3.91
402.15	3.87
402.359	3.9
402.568	3.74
402.777	3.8
402.985	3.44
403.194	3.46
403.403	3.52
403.612	3.53
403.82	3.27
404.029	3.7
404.238	3.64
404.446	3.56
404.655	3.65
404.864	3.63
405.072	3.4
405.281	3.59
405.489	3.48
405.698	3.52
405.906	3.43
406.115	3.51
406.324	3.36
406.532	3.29
406.741	3.16
406.949	3.25
407.158	3.37
407.366	3.29
407.574	3.2
407.783	3.15
407.991	3.18
408.2	3.12
408.408	2.99
408.617	3.19
408.825	3.1
409.033	3.1
409.242	3.11
409.45	3.29
409.658	3.29
409.867	3.5
410.075	3.38
410.283	3.26
410.491	3.07
410.7	2.95
410.908	2.82
411.116	2.82
411.324	2.87
411.533	3.07
411.741	3.2
411.949	3.24
412.157	3.32
412.365	3.31
412.573	3.2
412.781	3.19
412.99	3.09
413.198	3.06
413.406	3.06
413.614	3.1
413.822	3.06
414.03	3.09
414.238	3.04
414.446	2.93
414.654	3.02
414.862	3.06
415.07	3.07
415.278	3.11
415.486	3.18
415.694	3.04
415.902	3
416.109	2.85
416.317	2.98
416.525	2.92
416.733	2.87
416.941	2.84
417.149	2.97
417.357	2.79
417.564	2.78
417.772	2.83
417.98	2.8
418.188	2.78
418.395	2.75
418.603	2.85
418.811	2.87
419.019	2.76
419.226	2.9
419.434	2.93
419.642	2.97
419.849	3
420.057	3.13
420.265	2.93
420.472	3.03
420.68	2.97
420.887	2.87
421.095	2.79
421.302	2.85
421.51	2.79
421.717	2.76
421.925	2.77
422.132	2.8
422.34	2.85
422.547	2.79
422.755	2.73
422.962	2.65
423.17	2.68
423.377	2.48
423.585	2.48
423.792	2.46
423.999	2.47
424.207	2.37
424.414	2.43
424.621	2.56
424.829	2.54
425.036	2.57
425.243	2.65
425.451	2.77
425.658	2.47
425.865	2.61
426.072	2.43
426.28	2.52
426.487	2.39
426.694	2.58
426.901	2.67
427.108	2.98
427.315	3.02
427.523	3.13
427.73	3.25
427.937	3
428.144	2.81
428.351	2.65
428.558	2.52
428.765	2.31
428.972	2.36
429.179	2.4
429.386	2.33
429.593	2.23
429.8	2.24
430.007	2.18
430.214	2.12
430.421	2.1
430.628	2.27
430.835	2.34
431.042	2.35
431.249	2.48
431.456	2.53
431.662	2.61
431.869	2.57
432.076	2.56
432.283	2.52
432.49	2.54
432.697	2.46
432.903	2.39
433.11	2.46
433.317	2.53
433.524	2.7
433.73	2.58
433.937	2.71
434.144	2.62
434.35	2.51
434.557	2.27
434.764	2.33
434.97	2.25
435.177	2.39
435.384	2.46
435.59	2.56
435.797	2.76
436.003	2.76
436.21	2.74
436.416	2.72
436.623	2.63
436.829	2.58
437.036	2.64
437.242	2.65
437.449	2.57
437.655	2.64
437.862	2.5
438.068	2.42
438.275	2.46
438.481	2.57
438.687	2.59
438.894	2.69
439.1	2.92
439.307	2.89
439.513	2.87
439.719	2.85
439.926	2.84
440.132	2.84
440.338	2.82
440.544	2.86
440.751	2.89
440.957	2.9
441.163	2.8
441.369	2.86
441.575	2.86
441.782	2.83
441.988	2.82
442.194	2.82
442.4	2.68
442.606	2.55
442.812	2.53
443.018	2.66
443.224	2.65
443.431	2.79
443.637	2.96
443.843	3.05
444.049	2.95
444.255	2.89
444.461	2.96
444.667	2.89
444.873	2.94
445.079	2.94
445.284	2.97
445.49	2.82
445.696	2.79
445.902	2.7
446.108	2.64
446.314	2.58
446.52	2.68
446.726	2.8
446.931	2.77
447.137	2.83
447.343	2.93
447.549	2.99
447.755	2.86
447.96	2.95
448.166	2.97
448.372	3.03
448.578	2.98
448.783	3.09
448.989	3.05
449.195	3.03
449.4	3.01
449.606	2.97
449.812	2.92
450.017	2.94
450.223	2.9
450.428	2.89
450.634	2.85
450.84	2.91
451.045	3
451.251	3.03
451.456	3.07
451.662	3.1
451.867	3.13
452.073	3.05
452.278	3.07
452.483	3.02
452.689	2.99
452.894	2.86
453.1	2.87
453.305	2.96
453.51	2.97
453.716	3.02
453.921	2.96
454.127	2.96
454.332	2.84
454.537	2.75
454.742	2.74
454.948	2.8
455.153	2.79
455.358	2.79
455.563	2.9
455.769	2.83
455.974	2.89
456.179	2.84
456.384	2.85
456.589	2.86
456.795	2.91
457	2.89
457.205	2.85
457.41	2.83
457.615	2.83
457.82	2.9
458.025	2.86
458.23	2.82
458.435	2.86
458.64	2.77
458.845	2.74
459.05	2.76
459.255	2.93
459.46	2.92
459.665	2.96
459.87	3.01
460.075	3.06
460.28	2.99
460.485	3.02
460.69	2.99
460.895	2.89
461.099	2.82
461.304	2.89
461.509	2.93
461.714	2.99
461.919	3.03
462.123	3.02
462.328	3.01
462.533	3.07
462.738	3.09
462.942	3.15
463.147	3.19
463.352	3.26
463.556	3.21
463.761	3.17
463.966	3.13
464.17	3.25
464.375	3.15
464.58	3.09
464.784	3.19
464.989	3.18
465.193	3.18
465.398	3.22
465.602	3.27
465.807	3.13
466.011	3.08
466.216	3.06
466.42	3.03
466.625	3.04
466.829	3.14
467.034	3.25
467.238	3.24
467.443	3.25
467.647	3.16
467.851	3.1
468.056	3.04
468.26	3.04
468.464	3.13
468.669	3.18
