Data from Ofra_PS_Phys_0GT1_Reflection_2.txt Node
Date: Tue Jul 20 14:45:49 EDT 2021
User: USUARIO
Spectrometer: FLMT01687
Trigger mode: 0
Integration Time (sec): 1.200000E0
Scans to average: 2
Electric dark correction enabled: true
Nonlinearity correction enabled: false
Boxcar width: 2
XAxis mode: Wavelengths
Number of Pixels in Spectrum: 3648
>>>>>Begin Spectral Data<<<<<
179.494	-180.78
179.716	-439.39
179.937	1100.51
180.158	175.15
180.38	96
180.601	71.95
180.823	315.23
181.044	291.73
181.265	-3
181.486	46.74
181.708	-194.01
181.929	-18.88
182.15	289.06
182.372	-733.33
182.593	98.6
182.814	3186.67
183.035	244.77
183.257	140.42
183.478	155.74
183.699	83.11
183.92	57.07
184.141	61.15
184.363	44.46
184.584	48.58
184.805	26.15
185.026	43.59
185.247	31.88
185.468	28.96
185.689	19.33
185.91	30.56
186.132	24.28
186.353	23.49
186.574	25.32
186.795	29.79
187.016	41.47
187.237	58.95
187.458	54.77
187.679	65.84
187.9	71.79
188.121	54.54
188.342	46.34
188.563	51.24
188.784	30.55
189.005	35.6
189.226	32.88
189.447	30.77
189.667	24.31
189.888	35.62
190.109	34.7
190.33	33.98
190.551	24.23
190.772	21.38
190.993	20.86
191.214	5.67
191.434	16.37
191.655	20.11
191.876	13.66
192.097	0.43
192.318	12.56
192.538	7.79
192.759	12.63
192.98	15.19
193.201	31.41
193.421	31.74
193.642	42.91
193.863	40.34
194.083	60.76
194.304	54
194.525	49.88
194.745	59.62
194.966	65.79
195.187	46.32
195.407	33.46
195.628	25.31
195.848	4.51
196.069	-3.31
196.29	-4.74
196.51	26.41
196.731	30.89
196.951	19.45
197.172	21.33
197.392	36.2
197.613	20.14
197.833	27.03
198.054	41.93
198.274	41.04
198.495	42.64
198.715	46.73
198.936	49.13
199.156	47.56
199.377	-1.93
199.597	-19.95
199.817	10.55
200.038	-20.36
200.258	11.04
200.479	53.38
200.699	41.41
200.919	37.5
201.14	65.8
201.36	46.51
201.58	24.42
201.801	34.12
202.021	17.8
202.241	33.23
202.461	34.42
202.682	35.98
202.902	40.27
203.122	44.38
203.342	26.92
203.563	28.5
203.783	30.7
204.003	29.35
204.223	46.91
204.443	51.62
204.663	64.01
204.884	81.06
205.104	81.36
205.324	48.44
205.544	34.84
205.764	29.87
205.984	23.48
206.204	9.94
206.424	9.93
206.644	8.63
206.864	-8.82
207.084	-19.98
207.304	-12.61
207.525	-7.64
207.745	13.3
207.964	18.71
208.184	37.81
208.404	39.15
208.624	54.02
208.844	51.3
209.064	47.2
209.284	26.48
209.504	13.05
209.724	0.18
209.944	-0.42
210.164	9.3
210.384	30.92
210.604	25.98
210.823	39.3
211.043	38.7
211.263	12.86
211.483	-14.15
211.703	6.34
211.922	4.5
212.142	3.75
212.362	20.62
212.582	35.98
212.801	40.95
213.021	37.72
213.241	47.7
213.461	39.11
213.68	32.4
213.9	43.32
214.12	34.79
214.339	22.58
214.559	20.38
214.779	31.33
214.998	21.4
215.218	24.96
215.438	29.03
215.657	48.39
215.877	47.4
216.096	45.47
216.316	39.51
216.535	34.23
216.755	30.96
216.974	20.09
217.194	39.99
217.413	48.76
217.633	50.45
217.852	70.74
218.072	70.03
218.291	69.59
218.511	60.78
218.73	41.37
218.95	45.49
219.169	51.22
219.389	42.1
219.608	42.56
219.827	67.76
220.047	45.69
220.266	39.36
220.485	25.22
220.705	37.79
220.924	30.07
221.143	39.23
221.363	44.14
221.582	38.97
221.801	13.09
222.021	25.12
222.24	16.5
222.459	18.68
222.678	26.87
222.897	36.42
223.117	25
223.336	6.37
223.555	-12.95
223.774	-20.96
223.993	-6.03
224.213	4.11
224.432	39.69
224.651	54.96
224.87	62.99
225.089	69.67
225.308	63.51
225.527	42.32
225.746	23.15
225.965	22.73
226.184	14.24
226.404	18.03
226.623	35.53
226.842	26.47
227.061	23.24
227.28	16.93
227.499	13.61
227.718	-0.03
227.936	30.62
228.155	35.36
228.374	38.86
228.593	35.67
228.812	37.54
229.031	15.78
229.25	12.71
229.469	8.47
229.688	14.26
229.907	12.85
230.125	28.69
230.344	22.17
230.563	35.02
230.782	22.37
231.001	28.04
231.22	31.92
231.438	47.29
231.657	35.22
231.876	64.28
232.095	63.59
232.313	58.31
232.532	58.57
232.751	58.14
232.969	49.07
233.188	43.53
233.407	35.81
233.625	14.12
233.844	13.18
234.063	20.77
234.281	14.56
234.5	33.07
234.719	39.07
234.937	52.44
235.156	45.23
235.374	53.09
235.593	36.56
235.811	38.63
236.03	35.63
236.249	25.44
236.467	34.14
236.686	30.32
236.904	21.81
237.123	20.9
237.341	25.88
237.559	9.93
237.778	27.75
237.996	35.53
238.215	47.27
238.433	44.2
238.652	58.34
238.87	35.95
239.088	28.84
239.307	14.28
239.525	14.48
239.743	27.9
239.962	25.61
240.18	23.5
240.398	18.01
240.617	22.13
240.835	22.11
241.053	34.37
241.271	54.53
241.49	64.13
241.708	63.69
241.926	67.9
242.144	65.88
242.363	53.75
242.581	64.48
242.799	68.59
243.017	47.06
243.235	35.96
243.453	44.76
243.672	32.09
243.89	18.55
244.108	18.3
244.326	29.43
244.544	19.91
244.762	19.2
244.98	22.88
245.198	26.03
245.416	17.72
245.634	21.54
245.852	28.4
246.07	32.61
246.288	38.98
246.506	37.58
246.724	26.13
246.942	14.56
247.16	24.97
247.378	14.89
247.596	17.03
247.814	24.04
248.032	22.36
248.25	21.23
248.468	41.14
248.685	38.52
248.903	32.61
249.121	46.39
249.339	25.96
249.557	7.79
249.775	13.67
249.992	20.62
250.21	-5.97
250.428	3.44
250.646	6.81
250.863	3.1
251.081	-3.34
251.299	14.06
251.517	27.36
251.734	28.63
251.952	23.32
252.17	29.77
252.387	21
252.605	21.16
252.823	18.16
253.04	23.59
253.258	32.66
253.475	44.66
253.693	47.25
253.911	44.84
254.128	45.06
254.346	34.62
254.563	22.57
254.781	19.36
254.998	21.92
255.216	33.78
255.433	33.72
255.651	34.42
255.868	35.81
256.086	36.89
256.303	39.32
256.521	47.4
256.738	47.14
256.956	35.99
257.173	26.6
257.39	21.84
257.608	0.14
257.825	5.93
258.043	-3.9
258.26	1.67
258.477	-9.59
258.695	-22.52
258.912	-23.53
259.129	4.32
259.346	16.89
259.564	19.55
259.781	23.34
259.998	43.48
260.216	29.84
260.433	30.94
260.65	42.13
260.867	34.33
261.084	13.72
261.302	25.75
261.519	7.69
261.736	3.85
261.953	18.48
262.17	18.53
262.387	24.66
262.604	25.86
262.822	23.23
263.039	13.89
263.256	13.15
263.473	7.46
263.69	10.41
263.907	5.49
264.124	18.11
264.341	17.74
264.558	11.71
264.775	21.46
264.992	21.19
265.209	14.36
265.426	23.78
265.643	35.39
265.86	28.27
266.077	46.32
266.294	47.76
266.51	43.25
266.727	37.99
266.944	25.59
267.161	22.07
267.378	11.71
267.595	15.37
267.812	8.38
268.028	11.16
268.245	8.69
268.462	14.3
268.679	10.65
268.896	3.52
269.112	29.9
269.329	24.63
269.546	36.68
269.763	51.33
269.979	57.19
270.196	52.64
270.413	51.48
270.629	38.62
270.846	22.13
271.063	37.54
271.279	32.42
271.496	24.29
271.712	31.35
271.929	29.75
272.146	17.98
272.362	21.33
272.579	26.72
272.795	18.9
273.012	11.43
273.228	26.1
273.445	19.75
273.661	18.35
273.878	18.15
274.094	23.58
274.311	13.29
274.527	5.98
274.744	-1.9
274.96	-3.51
275.177	-5.5
275.393	-25.43
275.609	-5.17
275.826	12.3
276.042	27.59
276.259	15.2
276.475	25.72
276.691	27.52
276.908	19.23
277.124	32.74
277.34	43.93
277.557	43.98
277.773	37.32
277.989	50.63
278.205	32.22
278.422	41.45
278.638	38.1
278.854	42.47
279.07	29.29
279.286	39.44
279.503	22.71
279.719	24.37
279.935	22.61
280.151	26
280.367	35.28
280.583	39.41
280.799	43.68
281.016	49.49
281.232	42.74
281.448	36.76
281.664	49.63
281.88	56.83
282.096	54.41
282.312	58.83
282.528	47.82
282.744	45.19
282.96	34.45
283.176	26.19
283.392	22.35
283.608	15.91
283.824	18.28
284.04	13.33
284.256	18.59
284.471	14.09
284.687	3.38
284.903	4.57
285.119	11.26
285.335	23.59
285.551	31.7
285.767	44.41
285.982	38.71
286.198	40.89
286.414	34.57
286.63	43.14
286.846	32.12
287.061	33.85
287.277	14.56
287.493	12.83
287.709	-0.41
287.924	16.41
288.14	18.95
288.356	32.96
288.571	25.47
288.787	20.88
289.003	28.7
289.218	29.2
289.434	22.63
289.65	28.71
289.865	14.22
290.081	9.72
290.296	0.7
290.512	-4.41
290.727	-8.05
290.943	7.62
291.159	-3.25
291.374	13.23
291.59	7.02
291.805	15.36
292.021	18.83
292.236	18.22
292.451	9.21
292.667	33.58
292.882	37.56
293.098	39.58
293.313	48.96
293.529	55.57
293.744	42.6
293.959	37.14
294.175	37.26
294.39	42.03
294.605	40.07
294.821	40.05
295.036	48.84
295.251	54.11
295.467	49.01
295.682	41.67
295.897	39.33
296.112	29.94
296.328	9.63
296.543	0.16
296.758	-3.87
296.973	7.33
297.188	1.77
297.404	12.43
297.619	19.92
297.834	27.38
298.049	30.72
298.264	40.55
298.479	39.63
298.694	39.28
298.909	50.5
299.125	50.91
299.34	33.71
299.555	40.65
299.77	39.89
299.985	18.24
300.2	13.62
300.415	22.06
300.63	32.85
300.845	25.59
301.06	24.63
301.275	13.4
301.49	17.79
301.704	10.29
301.919	19.69
302.134	31.08
302.349	32.73
302.564	33.23
302.779	28.4
302.994	24.28
303.209	34.11
303.423	61.56
303.638	64.81
303.853	74.27
304.068	80.83
304.283	57.35
304.497	39.87
304.712	35.52
304.927	27.09
305.142	21.19
305.356	21.45
305.571	8.25
305.786	6.61
306	9.96
306.215	7.49
306.43	25.46
306.644	40.61
306.859	49.69
307.074	45.5
307.288	52.64
307.503	38.97
307.717	44.11
307.932	32
308.147	27.43
308.361	24.17
308.576	23.88
308.79	15.55
309.005	10.1
309.219	10.98
309.434	14.18
309.648	19.54
309.863	16.07
310.077	17.42
310.292	22.58
310.506	24.02
310.72	33.01
310.935	42.08
311.149	64.02
311.364	47.68
311.578	46.89
311.792	35.03
312.007	34.23
312.221	35.48
312.435	40.51
312.649	34.06
312.864	36.31
313.078	43.15
313.292	28.17
313.507	22.8
313.721	4.66
313.935	13.37
314.149	8.64
314.363	15.84
314.578	14.53
314.792	14.17
315.006	24.22
315.22	33.74
315.434	34.41
315.648	33.39
315.862	30.16
316.077	27.32
316.291	26.73
316.505	21.48
316.719	9.19
316.933	29.73
317.147	23.44
317.361	5.44
317.575	0.19
317.789	19.93
318.003	4.83
318.217	3.35
318.431	10.98
318.645	12.84
318.859	-5.1
319.073	7.05
319.287	-0.82
319.5	-2.13
319.714	11.54
319.928	25.5
320.142	24.31
320.356	29.45
320.57	29.96
320.784	21.87
320.997	16.7
321.211	6.4
321.425	6.48
321.639	-9.43
321.853	13.05
322.066	24.2
322.28	23.37
322.494	28.21
322.707	38.61
322.921	18.54
323.135	9.77
323.349	17.42
323.562	21
323.776	21.85
323.989	29.2
324.203	40.3
324.417	33.83
324.63	22.1
324.844	20.22
325.057	24.11
325.271	17.4
325.485	19.2
325.698	29.99
325.912	42.6
326.125	32.68
326.339	32.11
326.552	42.24
326.766	27.82
326.979	14.25
327.193	26.08
327.406	35.93
327.619	26.08
327.833	45.55
328.046	42.26
328.26	39.9
328.473	35.44
328.686	39.84
328.9	24.18
329.113	30.49
329.326	19.51
329.54	17.8
329.753	27.37
329.966	42.84
330.179	40.55
330.393	50.36
330.606	55.3
330.819	48.84
331.032	34.23
331.246	25.03
331.459	26.49
331.672	15.01
331.885	14.09
332.098	14.53
332.311	18.77
332.525	-7.79
332.738	10.75
332.951	21.32
333.164	29.13
333.377	27.45
333.59	38.91
333.803	48.38
334.016	43.86
334.229	34.8
334.442	38.43
334.655	39.24
334.868	31.25
335.081	25.79
335.294	28.28
335.507	18.86
335.72	12.78
335.933	11.26
336.146	20.67
336.359	24.76
336.572	22.81
336.785	22.67
336.997	26.81
337.21	18.69
337.423	13.88
337.636	18.32
337.849	23.35
338.062	18.25
338.274	33.9
338.487	30.3
338.7	31.82
338.913	23.15
339.125	24.97
339.338	-1.49
339.551	-14.65
339.763	-6.15
339.976	2
340.189	-2.96
340.402	32.68
340.614	46.64
340.827	47.79
341.039	56.64
341.252	57.71
341.465	55.01
341.677	48.02
341.89	38.33
342.102	36.45
342.315	46.76
342.527	33.82
342.74	33.22
342.952	36.75
343.165	22.34
343.377	15.73
343.59	7.23
343.802	11.36
344.015	19.56
344.227	22.69
344.44	27.04
344.652	35.36
344.864	29.73
345.077	6.58
345.289	30.35
345.502	33.86
345.714	30.64
345.926	19.17
346.139	39.84
346.351	24.71
346.563	13.25
346.775	29.23
346.988	39.17
347.2	34.18
347.412	34.71
347.624	38.47
347.837	27.6
348.049	21.45
348.261	15.22
348.473	12.36
348.685	12.02
348.897	10.37
349.11	9.78
349.322	13.04
349.534	18.87
349.746	14.76
349.958	14.07
350.17	18.11
350.382	16.7
350.594	16.21
350.806	13.69
351.018	15.39
351.23	14.16
351.442	13.22
351.654	4.81
351.866	7.5
352.078	30.29
352.29	26.8
352.502	32.12
352.714	38.03
352.926	34.33
353.138	22.97
353.35	21.45
353.561	16.18
353.773	12.28
353.985	4.42
354.197	4.8
354.409	2.77
354.621	2.83
354.832	9.59
355.044	19.8
355.256	12.73
355.468	0.98
355.679	-3.48
355.891	-3.45
356.103	5.43
356.314	-1.17
356.526	25.44
356.738	28.14
356.949	26.77
357.161	24.78
357.373	35.78
357.584	25.19
357.796	27.35
358.008	17.64
358.219	12.23
358.431	6.28
358.642	17.99
358.854	6.3
359.065	11.46
359.277	1.02
359.488	-1.55
359.7	-8.08
359.911	2.15
360.123	4.88
360.334	14.36
360.546	15.43
360.757	17.3
360.969	17.33
361.18	20.6
361.391	27.58
361.603	27.35
361.814	25.18
362.025	16.64
362.237	13.05
362.448	-0.85
362.659	-2.25
362.871	0.32
363.082	-0.6
363.293	0.11
363.504	-4.58
363.716	-0.55
363.927	-15.17
364.138	-1.02
364.349	-3.11
364.56	1.3
364.772	8.79
364.983	20.47
365.194	20.7
365.405	20.19
365.616	29.86
365.827	25.91
366.038	26.65
366.25	35.47
366.461	46.74
366.672	48.86
366.883	46.58
367.094	50.68
367.305	31.3
367.516	27.35
367.727	19.93
367.938	27.52
368.149	15.8
368.36	19.68
368.571	20.07
368.781	16.52
368.992	8.89
369.203	3.8
369.414	-15.62
369.625	-24.06
369.836	-13.13
370.047	-11.42
370.258	8.25
370.468	29.65
370.679	33.21
370.89	32.78
371.101	27.9
371.312	18.56
371.522	18.52
371.733	17.97
371.944	15.45
372.155	32.79
372.365	39.97
372.576	32.69
372.787	29.06
372.997	29
373.208	12.25
373.419	7.86
373.629	5.6
373.84	8.57
374.05	15.51
374.261	20.55
374.472	21.21
374.682	23.45
374.893	30.02
375.103	25.23
375.314	24.82
375.524	29.93
375.735	33.68
375.945	31.1
376.156	26.99
376.366	17.41
376.577	6.18
376.787	12.8
376.997	16.17
377.208	20.22
377.418	14.57
377.629	11.61
377.839	0.3
378.049	-6.69
378.26	-15.76
378.47	-6.12
378.68	9.76
378.89	14.18
379.101	15.93
379.311	23.91
379.521	32.3
379.732	26.32
379.942	16.84
380.152	18.65
380.362	15.26
380.572	1.37
380.783	7.1
380.993	26.02
381.203	21.64
381.413	23.43
381.623	23.36
381.833	21.49
382.043	12.94
382.253	10.11
382.463	11.45
382.674	14.68
382.884	14.36
383.094	23.52
383.304	29.33
383.514	29.5
383.724	34.97
383.934	37.94
384.144	29.41
384.353	25.43
384.563	14.67
384.773	10.3
384.983	14.95
385.193	16.33
385.403	11.89
385.613	16.15
385.823	11.09
386.033	4.94
386.242	3.45
386.452	9.88
386.662	4.93
386.872	10.24
387.082	6.5
387.291	5.03
387.501	6.66
387.711	10.91
387.921	10.6
388.13	12.7
388.34	16.62
388.55	17.1
388.759	16.35
388.969	11.3
389.179	13.17
389.388	11.28
389.598	7.74
389.807	9.94
390.017	11.72
390.227	8.12
390.436	6.48
390.646	9.14
390.855	7.9
391.065	10.24
391.274	8.91
391.484	10.72
391.693	5.71
391.903	5.1
392.112	4.03
392.322	5.54
392.531	5.7
392.74	9.41
392.95	10.27
393.159	9.12
393.369	9.44
393.578	8.31
393.787	6.36
393.997	5.39
394.206	6.13
394.415	6.52
394.625	7.8
394.834	7.65
395.043	6.86
395.252	5.77
395.462	5.12
395.671	3.11
395.88	3.18
396.089	3.24
396.298	3.26
396.508	4.07
396.717	5.01
396.926	5.22
397.135	4.51
397.344	4.84
397.553	4.45
397.762	3.85
397.971	3.18
398.181	3.89
398.39	3.84
398.599	3.5
398.808	3.37
399.017	3.89
399.226	4.16
399.435	4.1
399.644	3.91
399.853	4.04
400.062	3.87
400.27	3.36
400.479	2.92
400.688	3.26
400.897	3
401.106	3.09
401.315	3.24
401.524	3.62
401.733	3.47
401.941	3.86
402.15	3.72
402.359	3.66
402.568	3.93
402.777	3.67
402.985	3.73
403.194	3.74
403.403	3.9
403.612	3.55
403.82	3.46
404.029	3.11
404.238	3.16
404.446	3.04
404.655	3.02
404.864	3.07
405.072	3.27
405.281	3.34
405.489	3.39
405.698	3.24
405.906	3.19
406.115	3.01
406.324	2.68
406.532	2.53
406.741	2.54
406.949	2.56
407.158	2.58
407.366	2.68
407.574	2.77
407.783	2.71
407.991	2.69
408.2	2.85
408.408	2.93
408.617	2.85
408.825	2.98
409.033	2.94
409.242	2.66
409.45	2.6
409.658	2.45
409.867	2.35
410.075	2.36
410.283	2.41
410.491	2.32
410.7	2.31
410.908	2.42
411.116	2.47
411.324	2.48
411.533	2.44
411.741	2.54
411.949	2.53
412.157	2.49
412.365	2.54
412.573	2.69
412.781	2.65
412.99	2.63
413.198	2.75
413.406	2.6
413.614	2.42
413.822	2.4
414.03	2.45
414.238	2.3
414.446	2.26
414.654	2.31
414.862	2.36
415.07	2.27
415.278	2.23
415.486	2.36
415.694	2.37
415.902	2.41
416.109	2.28
416.317	2.31
416.525	2.3
416.733	2.5
416.941	2.45
417.149	2.62
417.357	2.69
417.564	2.57
417.772	2.39
417.98	2.31
418.188	2.2
418.395	2.29
418.603	2.34
418.811	2.39
419.019	2.48
419.226	2.66
419.434	2.54
419.642	2.6
419.849	2.53
420.057	2.43
420.265	2.27
420.472	2.08
420.68	2.03
420.887	2.11
421.095	2.19
421.302	2.17
421.51	2.41
421.717	2.41
421.925	2.3
422.132	2.31
422.34	2.34
422.547	2.27
422.755	2.17
422.962	2.24
423.17	2.15
423.377	2.13
423.585	2.13
423.792	2.09
423.999	2.03
424.207	2.02
424.414	2.09
424.621	1.97
424.829	2.07
425.036	2.04
425.243	2.1
425.451	2.06
425.658	2.14
425.865	2.23
426.072	2.18
426.28	2.16
426.487	2.11
426.694	2.14
426.901	2
427.108	2.14
427.315	2.02
427.523	2.14
427.73	2.15
427.937	2.21
428.144	2.18
428.351	2.34
428.558	2.3
428.765	2.25
428.972	2.23
429.179	2.2
429.386	2.18
429.593	2.1
429.8	2.11
430.007	2.09
430.214	2.2
430.421	2.28
430.628	2.19
430.835	2.21
431.042	2.26
431.249	2.25
431.456	2.19
431.662	2.22
431.869	2.35
432.076	2.42
432.283	2.25
432.49	2.25
432.697	2.24
432.903	2.15
433.11	2.04
433.317	2.08
433.524	2.09
433.73	2.19
433.937	2.11
434.144	2.15
434.35	2.3
434.557	2.24
434.764	2.22
434.97	2.33
435.177	2.35
435.384	2.3
435.59	2.35
435.797	2.41
436.003	2.37
436.21	2.34
436.416	2.41
436.623	2.43
436.829	2.5
437.036	2.53
437.242	2.48
437.449	2.44
437.655	2.46
437.862	2.34
438.068	2.32
438.275	2.38
438.481	2.36
438.687	2.35
438.894	2.46
439.1	2.53
439.307	2.68
439.513	2.75
439.719	2.72
439.926	2.7
440.132	2.68
440.338	2.7
440.544	2.68
440.751	2.72
440.957	2.72
441.163	2.69
441.369	2.66
441.575	2.57
441.782	2.57
441.988	2.63
442.194	2.65
442.4	2.61
442.606	2.7
442.812	2.71
443.018	2.64
443.224	2.67
443.431	2.71
443.637	2.65
443.843	2.62
444.049	2.64
444.255	2.62
444.461	2.61
444.667	2.68
444.873	2.8
445.079	2.79
445.284	2.85
445.49	2.77
445.696	2.71
445.902	2.68
446.108	2.69
446.314	2.62
446.52	2.76
446.726	2.8
446.931	2.79
447.137	2.84
447.343	2.91
447.549	2.79
447.755	2.8
447.96	2.79
448.166	2.74
448.372	2.69
448.578	2.75
448.783	2.73
448.989	2.72
449.195	2.7
449.4	2.75
449.606	2.75
449.812	2.79
450.017	2.88
450.223	2.92
450.428	2.95
450.634	2.98
450.84	3.04
451.045	2.95
451.251	2.99
451.456	2.98
451.662	2.93
451.867	2.88
452.073	2.85
452.278	2.9
452.483	2.87
452.689	2.92
452.894	2.87
453.1	2.92
453.305	2.9
453.51	2.94
453.716	2.93
453.921	3.05
454.127	2.98
454.332	2.94
454.537	2.88
454.742	2.85
454.948	2.8
455.153	2.88
455.358	2.86
455.563	2.89
455.769	2.98
455.974	3
456.179	3.02
456.384	2.98
456.589	3
456.795	2.88
457	2.93
457.205	2.94
457.41	2.99
457.615	2.9
457.82	2.91
458.025	2.86
458.23	2.73
458.435	2.78
458.64	2.82
458.845	2.82
459.05	2.84
459.255	2.98
459.46	2.89
459.665	2.88
459.87	2.94
460.075	2.98
460.28	2.93
460.485	2.98
460.69	3.07
460.895	3.1
461.099	3.03
461.304	3.12
461.509	3.16
461.714	3.18
461.919	3.15
462.123	3.15
462.328	3.17
462.533	3.18
462.738	3.19
462.942	3.16
463.147	3.22
463.352	3.17
463.556	3.21
463.761	3.1
463.966	3.13
464.17	3.12
464.375	3.18
464.58	3.21
464.784	3.27
464.989	3.32
465.193	3.3
465.398	3.17
465.602	3.22
465.807	3.27
466.011	3.32
466.216	3.32
466.42	3.33
466.625	3.27
466.829	3.28
467.034	3.24
467.238	3.36
467.443	3.38
467.647	3.34
467.851	3.39
468.056	3.36
468.26	3.35
468.464	3.46
468.669	3.47
468.873	3.49
469.077	3.47
469.282	3.46
469.486	3.42
