Data from Ofra_PS_Phys_2GT38_Reflection_3.txt Node
Date: Tue Jul 20 17:50:53 EDT 2021
User: USUARIO
Spectrometer: FLMT01687
Trigger mode: 0
Integration Time (sec): 1.042999E0
Scans to average: 2
Electric dark correction enabled: true
Nonlinearity correction enabled: false
Boxcar width: 2
XAxis mode: Wavelengths
Number of Pixels in Spectrum: 3648
>>>>>Begin Spectral Data<<<<<
179.494	67.54
179.716	110.69
179.937	98.45
180.158	70.38
180.38	286.48
180.601	-281.31
180.823	-151.35
181.044	-255.41
181.265	-883.14
181.486	30.73
181.708	44.74
181.929	87.15
182.15	83.59
182.372	10.92
182.593	19.32
182.814	15.45
183.035	38.75
183.257	24.34
183.478	-3.3
183.699	16.66
183.92	20.99
184.141	18.85
184.363	46.5
184.584	63.16
184.805	87.08
185.026	106.93
185.247	111.31
185.468	109.97
185.689	107.33
185.91	94.67
186.132	89.72
186.353	51.59
186.574	39.09
186.795	51.37
187.016	35.22
187.237	3.61
187.458	12.83
187.679	18.68
187.9	13.24
188.121	-14.07
188.342	-34.97
188.563	29.76
188.784	45.6
189.005	69.29
189.226	65.03
189.447	68.35
189.667	64.44
189.888	55.43
190.109	14.22
190.33	20.44
190.551	-16.89
190.772	5.61
190.993	21.06
191.214	43.76
191.434	40.42
191.655	45.09
191.876	65.59
192.097	54.8
192.318	52.32
192.538	58.43
192.759	44.28
192.98	0.9
193.201	22.48
193.421	17.26
193.642	21.18
193.863	18.54
194.083	48.93
194.304	51.69
194.525	68.18
194.745	46.76
194.966	60.66
195.187	47.13
195.407	41.14
195.628	46.55
195.848	39.78
196.069	58.69
196.29	38.67
196.51	41.43
196.731	39.01
196.951	59.6
197.172	43.39
197.392	68.43
197.613	67.07
197.833	64.72
198.054	42.75
198.274	52.46
198.495	46.69
198.715	52.76
198.936	48.67
199.156	30.86
199.377	6.77
199.597	12.21
199.817	-19.92
200.038	-62.16
200.258	-8.54
200.479	6.4
200.699	-6.39
200.919	15.79
201.14	58.36
201.36	47.37
201.58	44.16
201.801	61.05
202.021	99.95
202.241	29.4
202.461	39.7
202.682	63.78
202.902	6.81
203.122	31.09
203.342	51.45
203.563	57.12
203.783	44.05
204.003	52.84
204.223	18.91
204.443	20.76
204.663	6.12
204.884	48.63
205.104	59.7
205.324	61.9
205.544	49.95
205.764	47.61
205.984	33.44
206.204	22.6
206.424	19.15
206.644	-10.46
206.864	10.75
207.084	-4.77
207.304	5.41
207.525	3.68
207.745	17.47
207.964	-8.53
208.184	34.2
208.404	2.54
208.624	11.46
208.844	26.69
209.064	37.96
209.284	42.48
209.504	64.77
209.724	57.34
209.944	64.23
210.164	64.7
210.384	69.07
210.604	44.43
210.823	52.81
211.043	47.16
211.263	26.01
211.483	11.87
211.703	32.83
211.922	19.01
212.142	17.98
212.362	17.76
212.582	14.53
212.801	9.75
213.021	26.4
213.241	-12.05
213.461	31.14
213.68	21.18
213.9	10.39
214.12	4.86
214.339	-6.72
214.559	-28.04
214.779	-5.01
214.998	2.03
215.218	34.03
215.438	47.3
215.657	37.06
215.877	45.79
216.096	52.47
216.316	31.64
216.535	30.17
216.755	47.66
216.974	31.87
217.194	19.25
217.413	19.32
217.633	25.55
217.852	16.81
218.072	20.53
218.291	19.47
218.511	21.7
218.73	10.05
218.95	10.08
219.169	36.63
219.389	47.67
219.608	35.67
219.827	42.6
220.047	39.41
220.266	29.95
220.485	18.18
220.705	13.79
220.924	-1.72
221.143	-8.16
221.363	-19.29
221.582	-16.38
221.801	22.6
222.021	68.02
222.24	51.2
222.459	56.5
222.678	64.77
222.897	31.87
223.117	20.83
223.336	47.15
223.555	53.53
223.774	50.27
223.993	70.54
224.213	93.32
224.432	95.46
224.651	75.34
224.87	60.64
225.089	23.26
225.308	7.68
225.527	3.36
225.746	11.76
225.965	10.79
226.184	39.24
226.404	39.01
226.623	10.17
226.842	13.47
227.061	22.93
227.28	-5.67
227.499	-8.76
227.718	7.27
227.936	13.34
228.155	26.31
228.374	28.39
228.593	32.93
228.812	40.86
229.031	34.75
229.25	6.96
229.469	21.97
229.688	37.89
229.907	29.31
230.125	35.04
230.344	57.56
230.563	59.38
230.782	35.6
231.001	43.02
231.22	55.51
231.438	46.98
231.657	38.61
231.876	54.98
232.095	58.85
232.313	46.01
232.532	46.16
232.751	43.49
232.969	41.46
233.188	36.36
233.407	26.4
233.625	34.75
233.844	49.68
234.063	57.55
234.281	63.25
234.5	69.01
234.719	56.91
234.937	67.71
235.156	63.45
235.374	32.62
235.593	16.52
235.811	27
236.03	-34.94
236.249	-61.99
236.467	14.75
236.686	34.14
236.904	22.85
237.123	47.67
237.341	58.78
237.559	55.13
237.778	59.68
237.996	46.69
238.215	54.49
238.433	46.78
238.652	43.92
238.87	33.34
239.088	48.7
239.307	39.76
239.525	49.42
239.743	41.65
239.962	41.22
240.18	35.74
240.398	22.13
240.617	1.06
240.835	12.14
241.053	33.14
241.271	27.47
241.49	26.8
241.708	26.29
241.926	26.67
242.144	19.16
242.363	14.89
242.581	13.85
242.799	5.51
243.017	22.55
243.235	16.38
243.453	21.56
243.672	42.71
243.89	49.09
244.108	42.73
244.326	54.59
244.544	54.37
244.762	30.51
244.98	36.72
245.198	43.67
245.416	34.38
245.634	35.48
245.852	50.37
246.07	60.96
246.288	45.99
246.506	47.29
246.724	71.36
246.942	61.17
247.16	42.18
247.378	41.83
247.596	66.56
247.814	35.25
248.032	25.7
248.25	31.49
248.468	34.51
248.685	32.27
248.903	49.95
249.121	69.87
249.339	78.11
249.557	101.78
249.775	118.39
249.992	143.65
250.21	102.32
250.428	94.12
250.646	6.83
250.863	-14.66
251.081	-41.61
251.299	-46.08
251.517	-14.53
251.734	26.64
251.952	50.13
252.17	77.86
252.387	61.14
252.605	55.94
252.823	53.23
253.04	59.36
253.258	58.14
253.475	61.21
253.693	75.41
253.911	63.65
254.128	46.21
254.346	37.51
254.563	50.79
254.781	27.13
254.998	14.24
255.216	20.25
255.433	24.43
255.651	6.36
255.868	13.69
256.086	19.22
256.303	0.7
256.521	-11.37
256.738	-35.78
256.956	-18.75
257.173	-32.85
257.39	-6.5
257.608	3.82
257.825	50.18
258.043	41.74
258.26	58.26
258.477	64.17
258.695	69.33
258.912	57.61
259.129	80.21
259.346	54.99
259.564	41.79
259.781	34.46
259.998	27.46
260.216	10.72
260.433	6.29
260.65	18.96
260.867	24.46
261.084	44.71
261.302	34.49
261.519	62.73
261.736	66.43
261.953	79
262.17	47.27
262.387	30.27
262.604	-13.19
262.822	-10.3
263.039	-61.71
263.256	-35.44
263.473	-22.24
263.69	-14.38
263.907	9.41
264.124	6.46
264.341	19.64
264.558	17.17
264.775	27.92
264.992	22.5
265.209	29.12
265.426	18.02
265.643	41.74
265.86	30.75
266.077	25.57
266.294	23.66
266.51	49.18
266.727	40.03
266.944	55.55
267.161	44.54
267.378	56.03
267.595	40.76
267.812	47.12
268.028	32.46
268.245	48.63
268.462	49.61
268.679	23.97
268.896	15.09
269.112	38.1
269.329	18.81
269.546	-15.89
269.763	3.04
269.979	17.5
270.196	11.72
270.413	30.65
270.629	27.61
270.846	40.63
271.063	33.83
271.279	32.32
271.496	16.31
271.712	34.16
271.929	15.6
272.146	33.92
272.362	30.37
272.579	31.12
272.795	25.19
273.012	14.34
273.228	10.6
273.445	9.14
273.661	17.58
273.878	13.01
274.094	23.26
274.311	18.77
274.527	19.75
274.744	4.99
274.96	19.54
275.177	11.44
275.393	24.07
275.609	22.76
275.826	46.76
276.042	33.59
276.259	52.94
276.475	38.54
276.691	56.44
276.908	46.56
277.124	41.29
277.34	20.53
277.557	23.58
277.773	10.42
277.989	4.49
278.205	-11.8
278.422	-15.98
278.638	1.9
278.854	4.24
279.07	2.41
279.286	12.9
279.503	31.68
279.719	13.79
279.935	12.4
280.151	27.56
280.367	28.83
280.583	7.41
280.799	22.53
281.016	26.44
281.232	41.18
281.448	36.49
281.664	37.01
281.88	34.17
282.096	37.18
282.312	20.52
282.528	29.48
282.744	30.3
282.96	29.92
283.176	35.23
283.392	29.77
283.608	33.47
283.824	43.64
284.04	50.9
284.256	44.57
284.471	51.82
284.687	79.36
284.903	70.89
285.119	63.27
285.335	79.17
285.551	84.22
285.767	36.03
285.982	41.42
286.198	31.16
286.414	38.01
286.63	33.84
286.846	30.15
287.061	24.28
287.277	34.19
287.493	18.16
287.709	42.93
287.924	58.85
288.14	62.42
288.356	56.37
288.571	75.08
288.787	35.57
289.003	18.77
289.218	28.76
289.434	28.04
289.65	10.6
289.865	16.18
290.081	42.13
290.296	47.07
290.512	49.55
290.727	63.63
290.943	62.63
291.159	63.7
291.374	57.87
291.59	41.09
291.805	32.95
292.021	81.43
292.236	71.05
292.451	50.7
292.667	36.7
292.882	46.93
293.098	12.19
293.313	-15.87
293.529	16.23
293.744	30.74
293.959	8.77
294.175	7.58
294.39	0.72
294.605	-16.66
294.821	-28.02
295.036	-10.15
295.251	21.17
295.467	4.86
295.682	0.12
295.897	1.72
296.112	-13.8
296.328	-36.23
296.543	-16.76
296.758	5.84
296.973	2.4
297.188	4.24
297.404	4.58
297.619	0.71
297.834	-47.46
298.049	-35.57
298.264	1.14
298.479	-13.81
298.694	-3.85
298.909	5.57
299.125	26.89
299.34	39.05
299.555	39.15
299.77	36.64
299.985	39.56
300.2	7.75
300.415	-20.9
300.63	-15.9
300.845	11.92
301.06	24.48
301.275	23.36
301.49	25.51
301.704	38.94
301.919	25.35
302.134	4.76
302.349	5.74
302.564	11.68
302.779	12.94
302.994	33.48
303.209	42.4
303.423	46.22
303.638	43.85
303.853	36.89
304.068	35.51
304.283	28.72
304.497	25.46
304.712	27.23
304.927	33.62
305.142	28.02
305.356	23.51
305.571	22.94
305.786	21.34
306	22.06
306.215	21.9
306.43	19.98
306.644	10.43
306.859	20.06
307.074	24.52
307.288	25.48
307.503	32.6
307.717	50.39
307.932	44.51
308.147	29.55
308.361	27.89
308.576	18.91
308.79	21.05
309.005	18.17
309.219	23.52
309.434	17.43
309.648	14.23
309.863	-14.44
310.077	15.57
310.292	25.83
310.506	38.27
310.72	40.72
310.935	60.82
311.149	49.79
311.364	36.25
311.578	35.49
311.792	34.21
312.007	51.58
312.221	52.22
312.435	64.92
312.649	56.05
312.864	32.98
313.078	17.17
313.292	17.94
313.507	8.04
313.721	7.8
313.935	37.55
314.149	24.88
314.363	21.97
314.578	36.54
314.792	21.99
315.006	22.11
315.22	35.6
315.434	38.69
315.648	24.56
315.862	33.41
316.077	18.06
316.291	10.14
316.505	18.57
316.719	5.43
316.933	16.98
317.147	8.4
317.361	10.89
317.575	24.57
317.789	47.66
318.003	51.6
318.217	63.43
318.431	61.68
318.645	32.7
318.859	35.2
319.073	41.94
319.287	25.49
319.5	35.2
319.714	50.05
319.928	59.07
320.142	39.98
320.356	49.25
320.57	42.76
320.784	35.02
320.997	24.69
321.211	35.21
321.425	54.65
321.639	53.15
321.853	64.78
322.066	49.68
322.28	57.93
322.494	44.72
322.707	35.42
322.921	29.49
323.135	23.46
323.349	11.46
323.562	7.39
323.776	11.64
323.989	12.03
324.203	13.22
324.417	11.27
324.63	11.99
324.844	12.16
325.057	31.64
325.271	38.92
325.485	26.14
325.698	12.29
325.912	18.03
326.125	8.76
326.339	9.14
326.552	25.42
326.766	43.06
326.979	37.6
327.193	45.54
327.406	52.73
327.619	52.37
327.833	37.01
328.046	36.36
328.26	7.49
328.473	-7.97
328.686	-18.45
328.9	2.16
329.113	32.21
329.326	50.81
329.54	57.81
329.753	57.8
329.966	51.44
330.179	44.09
330.393	42.47
330.606	27.79
330.819	36.66
331.032	32.82
331.246	30.37
331.459	11.2
331.672	27.05
331.885	15.88
332.098	23.01
332.311	9.5
332.525	19.11
332.738	-2.9
332.951	22.7
333.164	23.02
333.377	8.91
333.59	16.32
333.803	32.37
334.016	32.91
334.229	37.07
334.442	44.98
334.655	38.54
334.868	47.02
335.081	42.73
335.294	43.27
335.507	47.87
335.72	42.16
335.933	12.07
336.146	9.94
336.359	12.45
336.572	18.97
336.785	44.84
336.997	58.64
337.21	58.98
337.423	50.92
337.636	35.33
337.849	24.35
338.062	28.83
338.274	38.35
338.487	49.95
338.7	63.05
338.913	55.28
339.125	54.38
339.338	41.77
339.551	34.46
339.763	35.5
339.976	43.88
340.189	32.46
340.402	34.7
340.614	30.8
340.827	27.85
341.039	24.59
341.252	31.51
341.465	24.2
341.677	33.03
341.89	19.45
342.102	35.65
342.315	21.75
342.527	22.51
342.74	30.51
342.952	45.54
343.165	34.81
343.377	39.99
343.59	36.67
343.802	44.35
344.015	40.73
344.227	33.6
344.44	42.72
344.652	55.51
344.864	23.34
345.077	25.07
345.289	36.69
345.502	17.93
345.714	0.51
345.926	11.23
346.139	-3.95
346.351	-22.88
346.563	-11.16
346.775	9.47
346.988	14.82
347.2	33.74
347.412	28.56
347.624	18.77
347.837	22.26
348.049	30.27
348.261	22.37
348.473	30.43
348.685	30.19
348.897	35.93
349.11	19.8
349.322	29.1
349.534	34.47
349.746	46.24
349.958	45.63
350.17	55.28
350.382	63
350.594	58.91
350.806	38.26
351.018	22.98
351.23	12.52
351.442	8.5
351.654	12.41
351.866	17.39
352.078	18.56
352.29	15.48
352.502	11.95
352.714	14.29
352.926	-2.12
353.138	8.14
353.35	4.41
353.561	-23.59
353.773	-19.11
353.985	-8.36
354.197	-31.87
354.409	-4.77
354.621	20.01
354.832	6.37
355.044	14.81
355.256	18.13
355.468	6.91
355.679	12.71
355.891	30.83
356.103	29.15
356.314	47.49
356.526	46.52
356.738	41.58
356.949	42.33
357.161	55.43
357.373	50.97
357.584	43.57
357.796	30.89
358.008	32.58
358.219	21.69
358.431	4.2
358.642	18.4
358.854	26.37
359.065	17.12
359.277	11.19
359.488	26.5
359.7	13.48
359.911	-1.24
360.123	15.3
360.334	17.14
360.546	1.46
360.757	8.99
360.969	14.95
361.18	12.33
361.391	25.3
361.603	31.92
361.814	30.45
362.025	34.32
362.237	26.89
362.448	14.92
362.659	16.64
362.871	14.29
363.082	11.04
363.293	20.34
363.504	26.02
363.716	11.92
363.927	-0.21
364.138	-5
364.349	-26.98
364.56	-33.22
364.772	-6.08
364.983	10.7
365.194	15.97
365.405	9.19
365.616	4.61
365.827	8.31
366.038	-2.25
366.25	-5.95
366.461	2.31
366.672	11.23
366.883	7.84
367.094	23.13
367.305	23.91
367.516	19.22
367.727	15.98
367.938	17.18
368.149	7.95
368.36	3.74
368.571	13.82
368.781	19.36
368.992	22.24
369.203	25.12
369.414	20.58
369.625	20.33
369.836	4.66
370.047	5.78
370.258	1.89
370.468	5.73
370.679	2.95
370.89	15.08
371.101	14.03
371.312	14.18
371.522	18.02
371.733	11.38
371.944	16.03
372.155	11.26
372.365	10.95
372.576	8.08
372.787	24.88
372.997	13.99
373.208	7.9
373.419	16.73
373.629	9.79
373.84	8.51
374.05	3.13
374.261	21.14
374.472	24.7
374.682	31.29
374.893	26.41
375.103	28.89
375.314	18.22
375.524	14.26
375.735	19.89
375.945	22.89
376.156	26.85
376.366	30.7
376.577	29.29
376.787	21.22
376.997	17.63
377.208	23.55
377.418	15.88
377.629	12.84
377.839	15.98
378.049	18.62
378.26	16.51
378.47	23.18
378.68	25.59
378.89	22.88
379.101	29.06
379.311	20.18
379.521	18.82
379.732	30.62
379.942	34.07
380.152	29.91
380.362	36.2
380.572	33.57
380.783	34.63
380.993	37.41
381.203	31.66
381.413	23.03
381.623	26.13
381.833	12.23
382.043	3.79
382.253	-9.21
382.463	-5.5
382.674	-8.67
382.884	-0.05
383.094	13.12
383.304	19.16
383.514	26.63
383.724	24.46
383.934	15.02
384.144	5.02
384.353	6.84
384.563	2.26
384.773	6.35
384.983	7.01
385.193	7.63
385.403	8.68
385.613	17.66
385.823	20.09
386.033	14.56
386.242	17.68
386.452	15.14
386.662	8.8
386.872	8.69
387.082	16.96
387.291	10.48
387.501	12.47
387.711	12.05
387.921	11.83
388.13	9.61
388.34	18.2
388.55	16.5
388.759	17.37
388.969	13.19
389.179	13.38
389.388	11.4
389.598	11.39
389.807	9.12
390.017	13.41
390.227	14.28
390.436	9.91
390.646	7.06
390.855	10.68
391.065	6.99
391.274	5.79
391.484	5.72
391.693	7.97
391.903	7.99
392.112	7.81
392.322	6.76
392.531	6.48
392.74	5.75
392.95	2.04
393.159	2.19
393.369	2.63
393.578	2.33
393.787	2.31
393.997	5.03
394.206	5.01
394.415	6.66
394.625	10.09
394.834	10.7
395.043	10.2
395.252	11.54
395.462	10.6
395.671	8.24
395.88	8.07
396.089	7.65
396.298	6.53
396.508	6.15
396.717	6.88
396.926	7.07
397.135	7.99
397.344	7.52
397.553	7.63
397.762	6.73
397.971	5.89
398.181	4.86
398.39	4.67
398.599	4.18
398.808	4.34
399.017	4.99
399.226	4.87
399.435	5.46
399.644	5.28
399.853	5.29
400.062	5.24
400.27	5.48
400.479	5.36
400.688	5.79
400.897	5.9
401.106	6.01
401.315	5.77
401.524	5.71
401.733	5.77
401.941	5.59
402.15	5.23
402.359	5.21
402.568	5.06
402.777	5.23
402.985	4.92
403.194	4.91
403.403	4.96
403.612	4.98
403.82	4.41
404.029	4.75
404.238	4.99
404.446	4.78
404.655	4.76
404.864	4.91
405.072	4.76
405.281	4.8
405.489	4.94
405.698	4.96
405.906	4.94
406.115	4.93
406.324	4.73
406.532	4.6
406.741	4.54
406.949	4.53
407.158	4.54
407.366	4.48
407.574	4.4
407.783	4.27
407.991	4.4
408.2	4.4
408.408	4.33
408.617	4.37
408.825	4.41
409.033	4.2
409.242	4.2
409.45	4.22
409.658	4.36
409.867	4.37
410.075	4.39
410.283	4.3
410.491	4.07
410.7	3.8
410.908	3.65
411.116	3.68
411.324	3.68
411.533	3.81
411.741	3.99
411.949	4.14
412.157	4.17
412.365	4.21
412.573	4.3
412.781	4.37
412.99	4.39
413.198	4.39
413.406	4.46
413.614	4.4
413.822	4.29
414.03	4.2
414.238	4.14
414.446	3.97
414.654	4.01
414.862	4.15
415.07	4.14
415.278	4.04
415.486	4.05
415.694	4.05
415.902	3.88
416.109	3.75
416.317	3.93
416.525	3.92
416.733	3.84
416.941	3.87
417.149	4.04
417.357	4.02
417.564	4.06
417.772	4.13
417.98	3.89
418.188	3.86
418.395	3.72
418.603	3.68
418.811	3.61
419.019	3.72
419.226	3.82
419.434	3.74
419.642	3.7
419.849	3.55
420.057	3.51
420.265	3.21
420.472	3.27
420.68	3.28
420.887	3.41
421.095	3.37
421.302	3.54
421.51	3.44
421.717	3.44
421.925	3.3
422.132	3.27
422.34	3.28
422.547	3.26
422.755	3.28
422.962	3.36
423.17	3.53
423.377	3.49
423.585	3.57
423.792	3.56
423.999	3.54
424.207	3.35
424.414	3.24
424.621	3.32
424.829	3.14
425.036	3.14
425.243	3.29
425.451	3.38
425.658	3.12
425.865	3.25
426.072	3.15
426.28	3.08
426.487	2.87
426.694	3.18
426.901	3.3
427.108	3.42
427.315	3.42
427.523	3.62
427.73	3.5
427.937	3.37
428.144	3.45
428.351	3.4
428.558	3.24
428.765	3.05
428.972	3.1
429.179	2.97
429.386	3.15
429.593	3.19
429.8	3.29
430.007	3.27
430.214	3.38
430.421	3.18
430.628	3.33
430.835	3.51
431.042	3.4
431.249	3.57
431.456	3.66
431.662	3.63
431.869	3.63
432.076	3.74
432.283	3.58
432.49	3.68
432.697	3.74
432.903	3.64
433.11	3.64
433.317	3.58
433.524	3.58
433.73	3.48
433.937	3.51
434.144	3.46
434.35	3.59
434.557	3.45
434.764	3.42
434.97	3.34
435.177	3.46
435.384	3.29
435.59	3.33
435.797	3.46
436.003	3.49
436.21	3.43
436.416	3.51
436.623	3.46
436.829	3.47
437.036	3.6
437.242	3.69
437.449	3.67
437.655	3.76
437.862	3.63
438.068	3.46
438.275	3.41
438.481	3.38
438.687	3.37
438.894	3.62
439.1	3.85
439.307	3.79
439.513	3.92
439.719	3.88
439.926	3.76
440.132	3.69
440.338	3.72
440.544	3.66
440.751	3.71
440.957	3.67
441.163	3.66
441.369	3.81
441.575	3.87
441.782	3.92
441.988	4.06
442.194	4.06
442.4	3.97
442.606	3.81
442.812	3.82
443.018	3.68
443.224	3.68
443.431	3.73
443.637	3.9
443.843	3.95
444.049	3.99
444.255	3.92
444.461	3.81
444.667	3.82
444.873	3.77
445.079	3.78
445.284	3.89
445.49	3.95
445.696	3.82
445.902	3.86
446.108	3.84
446.314	3.83
446.52	3.88
446.726	4.08
446.931	4.03
447.137	3.97
447.343	3.87
447.549	3.96
447.755	3.83
447.96	3.85
448.166	4.04
448.372	4.25
448.578	4.21
448.783	4.31
448.989	4.34
449.195	4.22
449.4	4.09
449.606	4.08
449.812	4.05
450.017	4.12
450.223	4.17
450.428	4.25
450.634	4.15
450.84	4.15
451.045	4.1
451.251	4.1
451.456	4.04
451.662	4.08
451.867	4.16
452.073	4.08
452.278	4.06
452.483	4.08
452.689	4.05
452.894	3.98
453.1	4.05
453.305	4.09
453.51	3.98
453.716	4.03
453.921	3.98
454.127	3.94
454.332	3.83
454.537	3.94
454.742	3.93
454.948	4.04
455.153	4.12
455.358	4.23
455.563	4.23
455.769	4.24
455.974	4.17
456.179	4.12
456.384	4.01
456.589	3.99
456.795	4
457	4
457.205	3.97
457.41	4.07
457.615	4.09
457.82	4.05
458.025	4.06
458.23	3.99
458.435	3.89
458.64	3.91
458.845	3.85
459.05	3.83
459.255	4.02
459.46	4.1
459.665	4.07
459.87	4.19
460.075	4.21
460.28	4.1
460.485	4.1
460.69	4.1
460.895	4.1
461.099	4.1
461.304	4.15
461.509	4.2
461.714	4.29
461.919	4.24
462.123	4.23
462.328	4.25
462.533	4.33
462.738	4.3
462.942	4.3
463.147	4.29
463.352	4.29
463.556	4.26
463.761	4.25
463.966	4.29
464.17	4.36
464.375	4.34
464.58	4.23
464.784	4.28
464.989	4.26
465.193	4.26
465.398	4.27
465.602	4.39
465.807	4.32
466.011	4.37
466.216	4.41
466.42	4.45
466.625	4.48
466.829	4.59
467.034	4.55
467.238	4.57
467.443	4.57
467.647	4.51
467.851	4.46
468.056	4.44
468.26	4.45
468.464	4.39
